Data from USB4F104151__9__11-48-37-176.txt Node

Date: Wed Feb 19 11:48:37 EST 2025
User: louis
Spectrometer: USB4F10415
Trigger mode: 4
Integration Time (sec): 2.250200E-1
Scans to average: 1
Electric dark correction enabled: true
Nonlinearity correction enabled: false
Boxcar width: 0
XAxis mode: Wavelengths
Number of Pixels in Spectrum: 3648
>>>>>Begin Spectral Data<<<<<
178.204	-825.5
178.424	-825.5
178.644	-825.5
178.864	-815.26
179.084	-772.25
179.304	137.04
179.524	132.95
179.744	48.98
179.964	-186.54
180.184	282.45
180.404	157.52
180.624	-290.98
180.844	-141.48
181.064	30.55
181.283	206.67
181.503	-217.26
181.723	-159.91
181.943	-116.9
182.163	452.43
182.383	-266.41
182.602	-225.45
182.822	434
183.042	161.62
183.262	-225.45
183.482	-188.58
183.701	132.95
183.921	194.39
184.141	-207.02
184.361	-153.77
184.58	235.35
184.8	292.69
185.02	-207.02
185.239	-104.62
185.459	227.15
185.679	329.55
185.898	-364.71
186.118	-215.21
186.338	280.4
186.557	304.98
186.777	-223.4
186.997	-231.59
187.216	184.15
187.436	538.45
187.655	-131.24
187.875	-20.65
188.095	124.76
188.314	292.69
188.534	-26.79
188.753	-227.5
188.973	307.02
189.192	417.61
189.412	-260.26
189.631	-200.87
189.851	249.68
190.07	501.58
190.29	-159.91
190.509	-174.25
190.729	153.43
190.948	380.75
191.168	5.97
191.387	-164.01
191.607	143.19
191.826	182.1
192.045	-137.38
192.265	-159.91
192.484	204.63
192.704	124.76
192.923	-170.15
193.142	-71.85
193.362	321.36
193.581	436.05
193.8	-57.51
194.02	-118.95
194.239	190.29
194.458	319.31
194.678	-116.9
194.897	-235.69
195.116	276.31
195.335	198.48
195.555	-100.52
195.774	-254.12
195.993	333.65
196.212	145.24
196.432	-114.86
196.651	-282.79
196.87	167.76
197.089	569.16
197.308	-211.11
197.528	-180.39
197.747	59.22
197.966	190.29
198.185	-30.89
198.404	-262.31
198.623	284.5
198.842	350.03
199.062	-135.34
199.281	-75.95
199.5	225.11
199.719	225.11
199.938	-217.26
200.157	-178.34
200.376	350.03
200.595	366.42
200.814	-121
201.033	-190.63
201.252	485.2
201.471	194.39
201.69	-188.58
201.909	-151.72
202.128	347.98
202.347	237.39
202.566	-121
202.785	-329.89
203.004	143.19
203.223	530.25
203.442	-131.24
203.661	-293.03
203.879	266.07
204.098	255.83
204.317	-268.45
204.536	34.64
204.755	309.07
204.974	378.7
205.193	-241.83
205.411	-96.43
205.63	423.76
205.849	288.59
206.068	-204.97
206.287	-247.97
206.505	356.18
206.724	204.63
206.943	-168.1
207.162	-168.1
207.381	173.91
207.599	163.67
207.818	-108.71
208.037	-219.3
208.255	190.29
208.474	202.58
208.693	-155.82
208.911	-194.73
209.13	358.22
209.349	259.92
209.567	-10.41
209.786	-170.15
210.005	386.9
210.223	139.09
210.442	-348.33
210.661	-313.51
210.879	268.11
211.098	110.42
211.316	-69.8
211.535	-153.77
211.753	153.43
211.972	331.6
212.191	-219.3
212.409	-129.19
212.628	264.02
212.846	53.08
213.065	-254.12
213.283	-84.14
213.502	251.73
213.72	171.86
213.938	-168.1
214.157	-223.4
214.375	319.31
214.594	53.08
214.812	-123.05
215.031	-192.68
215.249	247.63
215.467	249.68
215.686	-86.19
215.904	-118.95
216.122	165.71
216.341	378.7
216.559	18.26
216.778	-88.23
216.996	358.22
217.214	137.04
217.432	-135.34
217.651	-280.74
217.869	247.63
218.087	221.01
218.306	-288.93
218.524	-161.96
218.742	186.19
218.96	278.35
219.179	-209.06
219.397	-211.11
219.615	470.86
219.833	239.44
220.051	-262.31
220.27	-118.95
220.488	390.99
220.706	272.21
220.924	-200.87
221.142	-188.58
221.36	264.02
221.578	235.35
221.796	-209.06
222.015	-88.23
222.233	302.93
222.451	347.98
222.669	-149.67
222.887	-88.23
223.105	175.95
223.323	143.19
223.541	-135.34
223.759	-75.95
223.977	241.49
224.195	397.14
224.413	-108.71
224.631	-51.37
224.849	239.44
225.067	505.68
225.285	-77.99
225.503	-241.83
225.721	-73.9
225.939	147.28
226.157	-104.62
226.375	1.88
226.592	104.28
226.81	182.1
227.028	8.02
227.246	-153.77
227.464	202.58
227.682	253.78
227.9	-157.86
228.117	-2.22
228.335	235.35
228.553	184.15
228.771	-108.71
228.989	-139.43
229.206	208.72
229.424	85.84
229.642	-121
229.86	-135.34
230.077	345.94
230.295	229.2
230.513	16.21
230.731	-112.81
230.948	454.48
231.166	395.09
231.384	-116.9
231.601	-184.49
231.819	411.47
232.037	118.61
232.254	-125.1
232.472	-137.38
232.689	110.42
232.907	317.26
233.125	-186.54
233.342	-290.98
233.56	42.84
233.777	51.03
233.995	-231.59
234.213	-77.99
234.43	302.93
234.648	171.86
234.865	-219.3
235.083	-49.32
235.3	221.01
235.518	282.45
235.735	-116.9
235.953	-155.82
236.17	210.77
236.388	132.95
236.605	16.21
236.822	-67.75
237.04	327.5
237.257	264.02
237.475	-118.95
237.692	-112.81
237.909	403.28
238.127	182.1
238.344	-22.7
238.562	-153.77
238.779	65.36
238.996	-6.31
239.214	-102.57
239.431	-108.71
239.648	124.76
239.865	245.59
240.083	-116.9
240.3	-174.25
240.517	14.17
240.735	128.85
240.952	28.5
241.169	-184.49
241.386	311.12
241.603	112.47
241.821	-184.49
242.038	-137.38
242.255	341.84
242.472	61.27
242.689	-172.2
242.907	-143.53
243.124	108.37
243.341	151.38
243.558	-88.23
243.775	-204.97
243.992	-2.22
244.209	311.12
244.426	-4.27
244.643	-92.33
244.86	106.32
245.078	323.41
245.295	-100.52
245.512	-184.49
245.729	98.13
245.946	247.63
246.163	-118.95
246.38	-186.54
246.597	229.2
246.814	175.95
247.031	-106.67
247.248	-231.59
247.464	243.54
247.681	128.85
247.898	-123.05
248.115	-84.14
248.332	61.27
248.549	333.65
248.766	-6.31
248.983	-94.38
249.2	270.16
249.417	378.7
249.633	-184.49
249.85	-4.27
250.067	91.99
250.284	188.24
250.501	-178.34
250.717	-129.19
250.934	22.36
251.151	241.49
251.368	-112.81
251.585	-137.38
251.801	218.96
252.018	14.17
252.235	10.07
252.451	-176.3
252.668	116.56
252.885	302.93
253.102	-94.38
253.318	-129.19
253.535	91.99
253.752	118.61
253.968	-207.02
254.185	-227.5
254.401	241.49
254.618	317.26
254.835	-45.23
255.051	-102.57
255.268	313.17
255.484	63.32
255.701	-108.71
255.917	-51.37
256.134	57.17
256.351	249.68
256.567	-147.62
256.784	8.02
257	-16.55
257.217	362.32
257.433	42.84
257.65	-159.91
257.866	323.41
258.082	67.41
258.299	-137.38
258.515	-77.99
258.732	132.95
258.948	46.93
259.165	-139.43
259.381	-82.09
259.597	225.11
259.814	124.76
260.03	-108.71
260.246	-145.58
260.463	259.92
260.679	335.7
260.895	-75.95
261.112	-65.71
261.328	229.2
261.544	44.88
261.761	-104.62
261.977	-176.3
262.193	26.45
262.409	257.87
262.626	3.93
262.842	-22.7
263.058	141.14
263.274	325.46
263.49	22.36
263.707	-125.1
263.923	315.22
264.139	14.17
264.355	-30.89
264.571	-53.42
264.787	317.26
265.004	300.88
265.22	-2.22
265.436	-22.7
265.652	98.13
265.868	214.87
266.084	-71.85
266.3	-88.23
266.516	69.46
266.732	208.72
266.948	-84.14
267.164	-225.45
267.38	313.17
267.596	196.43
267.812	24.4
268.028	-96.43
268.244	132.95
268.46	192.34
268.676	-151.72
268.892	-12.46
269.108	104.28
269.324	91.99
269.54	-69.8
269.756	-4.27
269.972	36.69
270.188	200.53
270.403	-161.96
270.619	-112.81
270.835	239.44
271.051	247.63
271.267	-170.15
271.483	-233.64
271.698	290.64
271.914	178
272.13	-18.6
272.346	-211.11
272.562	241.49
272.777	378.7
272.993	-24.75
273.209	-137.38
273.425	266.07
273.64	-59.56
273.856	-118.95
274.072	-313.51
274.287	61.27
274.503	264.02
274.719	44.88
274.934	-188.58
275.15	20.31
275.366	104.28
275.581	-63.66
275.797	-80.04
276.012	132.95
276.228	55.12
276.444	-116.9
276.659	53.08
276.875	48.98
277.09	87.89
277.306	-88.23
277.521	-67.75
277.737	212.82
277.952	147.28
278.168	-65.71
278.383	-92.33
278.599	104.28
278.814	272.21
279.03	-200.87
279.245	36.69
279.461	102.23
279.676	165.71
279.892	32.6
280.107	-28.84
280.322	182.1
280.538	253.78
280.753	-98.47
280.969	-127.14
281.184	227.15
281.399	290.64
281.615	32.6
281.83	44.88
282.045	42.84
282.26	77.65
282.476	-96.43
282.691	5.97
282.906	272.21
283.122	126.8
283.337	-118.95
283.552	-41.13
283.767	59.22
283.983	155.47
284.198	-84.14
284.413	-143.53
284.628	26.45
284.843	141.14
285.058	-10.41
285.274	-94.38
285.489	22.36
285.704	161.62
285.919	-84.14
286.134	-12.46
286.349	124.76
286.564	94.04
286.779	98.13
286.995	-14.51
287.21	-16.55
287.425	272.21
287.64	-84.14
287.855	114.52
288.07	-90.28
288.285	261.97
288.5	-39.08
288.715	8.02
288.93	106.32
289.145	59.22
289.36	-69.8
289.575	-34.99
289.79	237.39
290.004	114.52
290.219	14.17
290.434	-131.24
290.649	59.22
290.864	77.65
291.079	-80.04
291.294	10.07
291.509	204.63
291.724	83.8
291.938	-82.09
292.153	-16.55
292.368	175.95
292.583	206.67
292.798	-20.65
293.012	5.97
293.227	169.81
293.442	94.04
293.657	22.36
293.871	28.5
294.086	212.82
294.301	368.46
294.516	-53.42
294.73	42.84
294.945	135
295.16	159.57
295.374	63.32
295.589	-8.36
295.804	22.36
296.018	83.8
296.233	-39.08
296.447	30.55
296.662	57.17
296.877	380.75
297.091	51.03
297.306	-26.79
297.52	63.32
297.735	202.58
297.949	40.79
298.164	-84.14
298.378	169.81
298.593	18.26
298.807	-69.8
299.022	24.4
299.236	360.27
299.451	67.41
299.665	-125.1
299.88	30.55
300.094	225.11
300.309	38.74
300.523	-57.51
300.737	-20.65
300.952	319.31
301.166	237.39
301.381	-55.47
301.595	-45.23
301.809	79.7
302.024	67.41
302.238	-10.41
302.452	186.19
302.667	155.47
302.881	280.4
303.095	-10.41
303.309	-2.22
303.524	46.93
303.738	20.31
303.952	-4.27
304.166	53.08
304.381	-71.85
304.595	321.36
304.809	-26.79
305.023	-108.71
305.237	151.38
305.452	77.65
305.666	51.03
305.88	44.88
306.094	214.87
306.308	149.33
306.522	-112.81
306.736	51.03
306.95	272.21
307.164	126.8
307.379	73.56
307.593	75.6
307.807	223.06
308.021	233.3
308.235	89.94
308.449	-159.91
308.663	100.18
308.877	487.25
309.091	14.17
309.305	40.79
309.519	-67.75
309.733	233.3
309.947	-61.61
310.161	-53.42
310.374	186.19
310.588	276.31
310.802	-69.8
311.016	-67.75
311.23	141.14
311.444	61.27
311.658	3.93
311.872	173.91
312.085	300.88
312.299	292.69
312.513	171.86
312.727	-80.04
312.941	44.88
313.154	98.13
313.368	-43.18
313.582	38.74
313.796	184.15
314.009	110.42
314.223	184.15
314.437	100.18
314.651	192.34
314.864	38.74
315.078	-30.89
315.292	-98.47
315.505	32.6
315.719	161.62
315.933	55.12
316.146	-86.19
316.36	-45.23
316.573	141.14
316.787	186.19
317.001	67.41
317.214	5.97
317.428	139.09
317.641	-94.38
317.855	-2.22
318.068	135
318.282	55.12
318.495	87.89
318.709	-73.9
318.922	159.57
319.136	253.78
319.349	67.41
319.563	-37.03
319.776	221.01
319.99	-47.27
320.203	-41.13
320.417	3.93
320.63	159.57
320.843	323.41
321.057	-20.65
321.27	-14.51
321.483	274.26
321.697	132.95
321.91	-94.38
322.124	-24.75
322.337	155.47
322.55	-22.7
322.763	-2.22
322.977	-73.9
323.19	34.64
323.403	143.19
323.617	12.12
323.83	180.05
324.043	124.76
324.256	167.76
324.469	-252.07
324.683	57.17
324.896	206.67
325.109	126.8
325.322	-170.15
325.535	24.4
325.748	274.26
325.962	83.8
326.175	-10.41
326.388	-37.03
326.601	210.77
326.814	63.32
327.027	100.18
327.24	81.75
327.453	-28.84
327.666	120.66
327.879	255.83
328.092	67.41
328.305	268.11
328.518	104.28
328.731	26.45
328.944	-10.41
329.157	180.05
329.37	-6.31
329.583	141.14
329.796	110.42
330.009	-59.56
330.222	239.44
330.435	51.03
330.648	-51.37
330.861	190.29
331.073	206.67
331.286	32.6
331.499	-2.22
331.712	42.84
331.925	96.08
332.138	-45.23
332.35	57.17
332.563	96.08
332.776	280.4
332.989	-41.13
333.202	-100.52
333.414	161.62
333.627	151.38
333.84	-57.51
334.053	14.17
334.265	3.93
334.478	81.75
334.691	-57.51
334.903	112.47
335.116	18.26
335.329	159.57
335.541	-14.51
335.754	247.63
335.966	114.52
336.179	175.95
336.392	-28.84
336.604	79.7
336.817	151.38
337.029	218.96
337.242	-0.17
337.454	59.22
337.667	106.32
337.88	261.97
338.092	34.64
338.305	71.51
338.517	38.74
338.729	173.91
338.942	16.21
339.154	-39.08
339.367	-12.46
339.579	204.63
339.792	-118.95
340.004	-4.27
340.217	124.76
340.429	186.19
340.641	26.45
340.854	-131.24
341.066	151.38
341.278	182.1
341.491	147.28
341.703	-63.66
341.915	36.69
342.128	268.11
342.34	71.51
342.552	-26.79
342.764	159.57
342.977	65.36
343.189	42.84
343.401	98.13
343.613	-6.31
343.826	110.42
344.038	-75.95
344.25	34.64
344.462	18.26
344.674	128.85
344.886	-151.72
345.099	34.64
345.311	198.48
345.523	83.8
345.735	-112.81
345.947	34.64
346.159	167.76
346.371	102.23
346.583	-30.89
346.795	71.51
347.007	46.93
347.219	216.91
347.431	-2.22
347.643	104.28
347.855	91.99
348.067	272.21
348.279	-90.28
348.491	-43.18
348.703	313.17
348.915	110.42
349.127	-67.75
349.339	-28.84
349.551	102.23
349.763	216.91
349.975	1.88
350.187	81.75
350.399	362.32
350.61	208.72
350.822	-53.42
351.034	44.88
351.246	180.05
351.458	214.87
351.669	1.88
351.881	-47.27
352.093	239.44
352.305	218.96
352.517	-67.75
352.728	71.51
352.94	122.71
353.152	159.57
353.363	-63.66
353.575	53.08
353.787	399.18
353.999	204.63
354.21	104.28
354.422	-53.42
354.633	126.8
354.845	159.57
355.057	71.51
355.268	-45.23
355.48	241.49
355.692	-116.9
355.903	-75.95
356.115	-88.23
356.326	-59.56
356.538	264.02
356.749	-53.42
356.961	122.71
357.172	120.66
357.384	-20.65
357.595	171.86
357.807	-53.42
358.018	186.19
358.23	173.91
358.441	20.31
358.653	-39.08
358.864	57.17
359.075	-26.79
359.287	-75.95
359.498	-57.51
359.709	212.82
359.921	153.43
360.132	75.6
360.344	-55.47
360.555	71.51
360.766	79.7
360.977	-55.47
361.189	100.18
361.4	149.33
361.611	274.26
361.823	22.36
362.034	22.36
362.245	-18.6
362.456	116.56
362.667	159.57
362.879	-168.1
363.09	225.11
363.301	155.47
363.512	-6.31
363.723	-100.52
363.935	12.12
364.146	218.96
364.357	26.45
364.568	83.8
364.779	8.02
364.99	286.54
365.201	-20.65
365.412	61.27
365.623	-118.95
365.834	139.09
366.045	38.74
366.256	57.17
366.467	188.24
366.678	141.14
366.889	24.4
367.1	-55.47
367.311	270.16
367.522	36.69
367.733	94.04
367.944	36.69
368.155	96.08
368.366	206.67
368.577	34.64
368.788	171.86
368.999	32.6
369.209	120.66
369.42	24.4
369.631	272.21
369.842	206.67
370.053	67.41
370.264	-0.17
370.474	-94.38
370.685	268.11
370.896	75.6
371.107	157.52
371.317	-47.27
371.528	141.14
371.739	329.55
371.95	20.31
372.16	-92.33
372.371	-39.08
372.582	110.42
372.792	-51.37
373.003	118.61
373.214	167.76
373.424	165.71
373.635	14.17
373.846	149.33
374.056	139.09
374.267	198.48
374.477	87.89
374.688	-84.14
374.898	311.12
375.109	151.38
375.319	42.84
375.53	77.65
375.74	216.91
375.951	53.08
376.161	87.89
376.372	38.74
376.582	73.56
376.793	194.39
377.003	1.88
377.214	-45.23
377.424	198.48
377.635	231.25
377.845	42.84
378.055	32.6
378.266	-55.47
378.476	175.95
378.686	-45.23
378.897	20.31
379.107	286.54
379.317	233.3
379.528	-164.01
379.738	51.03
379.948	-67.75
380.158	251.73
380.369	67.41
380.579	-18.6
380.789	192.34
380.999	204.63
381.21	77.65
381.42	110.42
381.63	108.37
381.84	229.2
382.05	46.93
382.261	114.52
382.471	276.31
382.681	38.74
382.891	83.8
383.101	22.36
383.311	26.45
383.521	118.61
383.731	-30.89
383.941	175.95
384.151	81.75
384.361	79.7
384.571	24.4
384.781	-32.94
384.991	304.98
385.201	315.22
385.411	122.71
385.621	77.65
385.831	149.33
386.041	128.85
386.251	36.69
386.461	-10.41
386.671	55.12
386.881	120.66
387.091	5.97
387.301	149.33
387.511	178
387.72	171.86
387.93	12.12
388.14	-139.43
388.35	118.61
388.56	214.87
388.769	-34.99
388.979	32.6
389.189	89.94
389.399	235.35
389.609	32.6
389.818	-39.08
390.028	157.52
390.238	210.77
390.447	-57.51
390.657	32.6
390.867	141.14
391.076	18.26
391.286	-51.37
391.496	-84.14
391.705	94.04
391.915	317.26
392.125	-12.46
392.334	24.4
392.544	276.31
392.753	124.76
392.963	44.88
393.172	-71.85
393.382	83.8
393.591	270.16
393.801	-45.23
394.01	36.69
394.22	171.86
394.429	122.71
394.639	44.88
394.848	79.7
395.058	175.95
395.267	118.61
395.477	147.28
395.686	69.46
395.895	399.18
396.105	247.63
396.314	8.02
396.524	18.26
396.733	91.99
396.942	272.21
397.152	12.12
397.361	130.9
397.57	147.28
397.78	204.63
397.989	89.94
398.198	259.92
398.407	178
398.617	132.95
398.826	5.97
399.035	22.36
399.244	184.15
399.453	55.12
399.663	-49.32
399.872	-86.19
400.081	94.04
400.29	255.83
400.499	-75.95
400.708	40.79
400.917	94.04
401.127	120.66
401.336	18.26
401.545	243.54
401.754	331.6
401.963	239.44
402.172	5.97
402.381	-39.08
402.59	106.32
402.799	210.77
403.008	149.33
403.217	26.45
403.426	229.2
403.635	-47.27
403.844	-86.19
404.053	-26.79
404.262	171.86
404.471	321.36
404.68	18.26
404.888	40.79
405.097	100.18
405.306	157.52
405.515	42.84
405.724	-65.71
405.933	300.88
406.142	151.38
406.35	-55.47
406.559	48.98
406.768	77.65
406.977	417.61
407.185	-4.27
407.394	5.97
407.603	-28.84
407.812	108.37
408.02	112.47
408.229	108.37
408.438	216.91
408.646	-71.85
408.855	-80.04
409.064	-86.19
409.272	67.41
409.481	229.2
409.69	-30.89
409.898	-118.95
410.107	130.9
410.315	206.67
410.524	14.17
410.733	36.69
410.941	259.92
411.15	247.63
411.358	-0.17
411.567	116.56
411.775	243.54
411.984	157.52
412.192	100.18
412.401	-4.27
412.609	331.6
412.818	304.98
413.026	32.6
413.234	67.41
413.443	163.67
413.651	77.65
413.86	-157.86
414.068	266.07
414.276	350.03
414.485	102.23
414.693	61.27
414.901	225.11
415.11	225.11
415.318	171.86
415.526	26.45
415.734	120.66
415.943	175.95
416.151	282.45
416.359	44.88
416.567	44.88
416.776	253.78
416.984	243.54
417.192	91.99
417.4	-0.17
417.608	-26.79
417.817	-43.18
418.025	139.09
418.233	36.69
418.441	-4.27
418.649	57.17
418.857	59.22
419.065	91.99
419.273	118.61
419.481	212.82
419.689	36.69
419.897	-61.61
420.105	20.31
420.313	270.16
420.521	81.75
420.729	79.7
420.937	77.65
421.145	-86.19
421.353	61.27
421.561	83.8
421.769	245.59
421.977	89.94
422.185	116.56
422.393	44.88
422.601	206.67
422.809	194.39
423.017	69.46
423.224	57.17
423.432	300.88
423.64	132.95
423.848	-94.38
424.056	-14.51
424.263	251.73
424.471	77.65
424.679	175.95
424.887	-30.89
425.094	479.05
425.302	182.1
425.51	-67.75
425.718	87.89
425.925	149.33
426.133	26.45
426.341	151.38
426.548	38.74
426.756	36.69
426.964	184.15
427.171	18.26
427.379	24.4
427.586	190.29
427.794	231.25
428.001	167.76
428.209	-12.46
428.417	288.59
428.624	247.63
428.832	75.6
429.039	122.71
429.247	190.29
429.454	190.29
429.662	161.62
429.869	12.12
430.076	313.17
430.284	282.45
430.491	122.71
430.699	63.32
430.906	313.17
431.114	143.19
431.321	139.09
431.528	159.57
431.736	167.76
431.943	227.15
432.15	137.04
432.358	34.64
432.565	450.38
432.772	-69.8
432.979	212.82
433.187	-0.17
433.394	386.9
433.601	163.67
433.808	96.08
434.016	235.35
434.223	249.68
434.43	212.82
434.637	132.95
434.844	247.63
435.052	231.25
435.259	196.43
435.466	206.67
435.673	85.84
435.88	302.93
436.087	417.61
436.294	237.39
436.501	239.44
436.708	257.87
436.915	239.44
437.122	225.11
437.329	102.23
437.537	261.97
437.743	126.8
437.95	229.2
438.157	223.06
438.364	247.63
438.571	298.83
438.778	153.43
438.985	298.83
439.192	386.9
439.399	241.49
439.606	182.1
439.813	327.5
440.02	464.72
440.227	524.11
440.433	247.63
440.64	223.06
440.847	366.42
441.054	286.54
441.261	274.26
441.467	259.92
441.674	266.07
441.881	536.4
442.088	218.96
442.294	261.97
442.501	452.43
442.708	483.15
442.914	218.96
443.121	247.63
443.328	560.97
443.534	597.84
443.741	350.03
443.948	139.09
444.154	524.11
444.361	765.77
444.568	335.7
444.774	440.14
444.981	309.07
445.187	630.6
445.394	393.04
445.6	403.28
445.807	563.02
446.013	452.43
446.22	257.87
446.426	550.73
446.633	665.42
446.839	837.45
447.046	298.83
447.252	657.23
447.459	651.08
447.665	599.88
447.871	599.88
448.078	812.87
448.284	747.34
448.491	870.22
448.697	640.84
448.903	651.08
449.11	827.21
449.316	806.73
449.522	896.84
449.728	849.74
449.935	945.99
450.141	956.23
450.347	1001.29
450.553	866.12
450.76	1081.16
450.966	1005.38
451.172	1021.77
451.378	976.71
451.584	1138.5
451.791	1402.69
451.997	1111.88
452.203	1062.73
452.409	1382.21
452.615	1365.82
452.821	1167.17
453.027	1195.84
453.233	1638.2
453.44	1433.41
453.646	1349.44
453.852	1294.15
454.058	1371.97
454.264	1587.01
454.47	1480.51
454.676	1394.5
454.882	1670.97
455.088	1664.83
455.294	1519.42
455.5	1640.25
455.705	1681.21
455.911	1634.11
456.117	1515.33
456.323	1625.92
456.529	1603.39
456.735	1812.28
456.941	1578.81
457.147	1767.23
457.352	1836.86
457.558	1722.17
457.764	1759.03
457.97	1670.97
458.176	1996.6
458.381	1926.97
458.587	1830.71
458.793	1892.15
458.999	1587.01
459.204	1941.3
459.41	1726.27
459.616	1799.99
459.821	1890.1
460.027	1763.13
460.233	1849.15
460.438	1703.74
460.644	1748.79
460.85	1761.08
461.055	1765.18
461.261	1705.79
461.466	1650.49
461.672	1681.21
461.878	1523.52
462.083	1720.12
462.289	1500.99
