Data from USB4F104151__7__11-47-41-152.txt Node

Date: Wed Feb 19 11:47:41 EST 2025
User: louis
Spectrometer: USB4F10415
Trigger mode: 4
Integration Time (sec): 2.250200E-1
Scans to average: 1
Electric dark correction enabled: true
Nonlinearity correction enabled: false
Boxcar width: 0
XAxis mode: Wavelengths
Number of Pixels in Spectrum: 3648
>>>>>Begin Spectral Data<<<<<
178.204	-818.16
178.424	-818.16
178.644	-818.16
178.864	-855.03
179.084	-850.93
179.304	224.25
179.524	76.8
179.744	50.18
179.964	-187.39
180.184	279.55
180.404	146.43
180.624	-254.97
180.844	-132.09
181.064	11.26
181.283	146.43
181.503	-224.25
181.723	-136.19
181.943	-72.7
182.163	381.95
182.383	-197.63
182.602	-199.68
182.822	336.89
183.042	224.25
183.262	-250.88
183.482	-203.77
183.701	230.4
183.921	283.64
184.141	-168.96
184.361	-187.39
184.58	209.92
184.8	218.11
185.02	-306.17
185.239	-33.79
185.459	181.25
185.679	435.19
185.898	-248.83
186.118	-162.81
186.338	287.74
186.557	285.69
186.777	-207.87
186.997	-222.2
187.216	230.4
187.436	459.77
187.655	-121.85
187.875	-41.98
188.095	189.44
188.314	441.34
188.534	-128
188.753	-246.78
188.973	332.79
189.192	498.68
189.412	-267.26
189.631	-152.57
189.851	349.18
190.07	422.91
190.29	-179.2
190.509	-220.16
190.729	216.06
190.948	476.15
191.168	-31.74
191.387	-128
191.607	158.72
191.826	232.44
192.045	-134.14
192.265	-191.49
192.484	240.64
192.704	183.29
192.923	-162.81
193.142	5.12
193.362	377.85
193.581	400.38
193.8	-46.08
194.02	-152.57
194.239	275.45
194.458	304.12
194.678	-123.9
194.897	-349.18
195.116	318.46
195.335	273.4
195.555	-132.09
195.774	-248.83
195.993	359.42
196.212	109.57
196.432	-123.9
196.651	-222.2
196.87	146.43
197.089	510.97
197.308	-162.81
197.528	-148.48
197.747	-17.41
197.966	152.57
198.185	-17.41
198.404	-195.58
198.623	287.74
198.842	353.27
199.062	-97.28
199.281	-111.61
199.5	130.05
199.719	302.08
199.938	-99.33
200.157	-189.44
200.376	340.99
200.595	414.71
200.814	-150.53
201.033	-119.81
201.252	304.12
201.471	211.96
201.69	-158.72
201.909	-72.7
202.128	205.82
202.347	326.65
202.566	-107.52
202.785	-310.27
203.004	78.85
203.223	535.54
203.442	-144.38
203.661	-291.84
203.879	330.75
204.098	310.27
204.317	-263.16
204.536	-1.02
204.755	302.08
204.974	203.77
205.193	-375.8
205.411	-101.37
205.63	332.79
205.849	312.32
206.068	-158.72
206.287	-273.4
206.505	453.63
206.724	95.23
206.943	-201.72
207.162	-132.09
207.381	209.92
207.599	140.29
207.818	-111.61
208.037	-263.16
208.255	193.53
208.474	199.68
208.693	-216.06
208.911	-130.05
209.13	408.57
209.349	291.84
209.567	-109.57
209.786	-173.05
210.005	338.94
210.223	218.11
210.442	-336.89
210.661	-287.74
210.879	279.55
211.098	195.58
211.316	-123.9
211.535	-156.67
211.753	203.77
211.972	289.79
212.191	-197.63
212.409	-156.67
212.628	320.51
212.846	93.18
213.065	-226.3
213.283	-105.47
213.502	201.72
213.72	203.77
213.938	-189.44
214.157	-156.67
214.375	343.03
214.594	140.29
214.812	-109.57
215.031	-152.57
215.249	205.82
215.467	271.36
215.686	-93.18
215.904	-128
216.122	218.11
216.341	398.33
216.559	31.74
216.778	-23.55
216.996	408.57
217.214	181.25
217.432	-173.05
217.651	-275.45
217.869	156.67
218.087	205.82
218.306	-216.06
218.524	-140.29
218.742	203.77
218.96	365.56
219.179	-115.71
219.397	-146.43
219.615	470.01
219.833	293.88
220.051	-216.06
220.27	-62.46
220.488	338.94
220.706	238.59
220.924	-267.26
221.142	-132.09
221.36	265.21
221.578	263.16
221.796	-177.15
222.015	-185.34
222.233	281.6
222.451	345.08
222.669	-183.29
222.887	-74.75
223.105	50.18
223.323	150.53
223.541	-156.67
223.759	-91.13
223.977	160.77
224.195	365.56
224.413	-107.52
224.631	-142.33
224.849	246.78
225.067	506.87
225.285	-99.33
225.503	-230.4
225.721	-64.51
225.939	160.77
226.157	-130.05
226.375	74.75
226.592	107.52
226.81	156.67
227.028	-9.22
227.246	-154.62
227.464	195.58
227.682	279.55
227.9	-144.38
228.117	-91.13
228.335	328.7
228.553	214.01
228.771	-164.86
228.989	-173.05
229.206	312.32
229.424	134.14
229.642	-123.9
229.86	-181.25
230.077	414.71
230.295	197.63
230.513	-35.84
230.731	-136.19
230.948	461.82
231.166	484.34
231.384	-74.75
231.601	-183.29
231.819	502.78
232.037	44.03
232.254	-140.29
232.472	-95.23
232.689	125.95
232.907	433.15
233.125	-185.34
233.342	-146.43
233.56	201.72
233.777	162.81
233.995	-99.33
234.213	-107.52
234.43	328.7
234.648	254.97
234.865	-148.48
235.083	-80.89
235.3	214.01
235.518	234.49
235.735	-97.28
235.953	-62.46
236.17	263.16
236.388	189.44
236.605	37.89
236.822	-123.9
237.04	328.7
237.257	226.3
237.475	-140.29
237.692	-125.95
237.909	330.75
238.127	109.57
238.344	-21.5
238.562	-64.51
238.779	27.65
238.996	-1.02
239.214	-152.57
239.431	-72.7
239.648	154.62
239.865	166.91
240.083	-105.47
240.3	-228.35
240.517	160.77
240.735	183.29
240.952	27.65
241.169	-183.29
241.386	320.51
241.603	158.72
241.821	-140.29
242.038	-58.37
242.255	365.56
242.472	105.47
242.689	-64.51
242.907	-142.33
243.124	175.1
243.341	177.15
243.558	-52.22
243.775	-166.91
243.992	-23.55
244.209	254.97
244.426	-37.89
244.643	-39.94
244.86	203.77
245.078	214.01
245.295	-68.61
245.512	-128
245.729	103.42
245.946	367.61
246.163	-156.67
246.38	-107.52
246.597	214.01
246.814	197.63
247.031	-103.42
247.248	-218.11
247.464	236.54
247.681	189.44
247.898	-103.42
248.115	-11.26
248.332	95.23
248.549	410.62
248.766	-56.32
248.983	-78.85
249.2	263.16
249.417	318.46
249.633	-148.48
249.85	17.41
250.067	173.05
250.284	168.96
250.501	-148.48
250.717	-171.01
250.934	-11.26
251.151	203.77
251.368	-78.85
251.585	-132.09
251.801	289.79
252.018	27.65
252.235	87.04
252.451	-109.57
252.668	168.96
252.885	230.4
253.102	-138.24
253.318	-107.52
253.535	234.49
253.752	89.09
253.968	-152.57
254.185	-154.62
254.401	187.39
254.618	269.31
254.835	-52.22
255.051	-93.18
255.268	252.92
255.484	211.96
255.701	-111.61
255.917	-130.05
256.134	68.61
256.351	207.87
256.567	-107.52
256.784	11.26
257	-17.41
257.217	297.98
257.433	74.75
257.65	-89.09
257.866	355.32
258.082	52.22
258.299	-74.75
258.515	-64.51
258.732	117.76
258.948	52.22
259.165	-64.51
259.381	-177.15
259.597	320.51
259.814	189.44
260.03	-230.4
260.246	-166.91
260.463	306.17
260.679	336.89
260.895	-56.32
261.112	-48.13
261.328	205.82
261.544	50.18
261.761	-168.96
261.977	-101.37
262.193	23.55
262.409	310.27
262.626	29.7
262.842	-97.28
263.058	162.81
263.274	326.65
263.49	1.02
263.707	-97.28
263.923	355.32
264.139	9.22
264.355	-25.6
264.571	-52.22
264.787	185.34
265.004	340.99
265.22	-21.5
265.436	-99.33
265.652	152.57
265.868	279.55
266.084	-226.3
266.3	-91.13
266.516	123.9
266.732	216.06
266.948	-15.36
267.164	-150.53
267.38	371.71
267.596	312.32
267.812	-68.61
268.028	-93.18
268.244	168.96
268.46	234.49
268.676	-66.56
268.892	-80.89
269.108	56.32
269.324	56.32
269.54	-205.82
269.756	-50.18
269.972	68.61
270.188	128
270.403	-101.37
270.619	-80.89
270.835	275.45
271.051	207.87
271.267	-238.59
271.483	-168.96
271.698	318.46
271.914	211.96
272.13	27.65
272.346	-66.56
272.562	173.05
272.777	400.38
272.993	-39.94
273.209	-84.99
273.425	254.97
273.64	-27.65
273.856	-46.08
274.072	-179.2
274.287	35.84
274.503	326.65
274.719	60.42
274.934	-154.62
275.15	70.65
275.366	209.92
275.581	-52.22
275.797	-54.27
276.012	199.68
276.228	99.33
276.444	-107.52
276.659	103.42
276.875	3.07
277.09	44.03
277.306	-37.89
277.521	54.27
277.737	140.29
277.952	187.39
278.168	-99.33
278.383	19.46
278.599	134.14
278.814	230.4
279.03	-152.57
279.245	-35.84
279.461	132.09
279.676	246.78
279.892	-111.61
280.107	-70.65
280.322	89.09
280.538	232.44
280.753	-107.52
280.969	-80.89
281.184	265.21
281.399	273.4
281.615	-27.65
281.83	27.65
282.045	72.7
282.26	72.7
282.476	-101.37
282.691	144.38
282.906	166.91
283.122	211.96
283.337	-111.61
283.552	-107.52
283.767	105.47
283.983	244.73
284.198	-56.32
284.413	-84.99
284.628	31.74
284.843	146.43
285.058	-37.89
285.274	-62.46
285.489	62.46
285.704	246.78
285.919	-37.89
286.134	-60.42
286.349	162.81
286.564	82.94
286.779	27.65
286.995	15.36
287.21	-46.08
287.425	224.25
287.64	-60.42
287.855	109.57
288.07	9.22
288.285	287.74
288.5	29.7
288.715	-13.31
288.93	115.71
289.145	50.18
289.36	-1.02
289.575	-1.02
289.79	291.84
290.004	-39.94
290.219	87.04
290.434	-62.46
290.649	60.42
290.864	93.18
291.079	-56.32
291.294	-25.6
291.509	250.88
291.724	107.52
291.938	-44.03
292.153	-27.65
292.368	154.62
292.583	156.67
292.798	78.85
293.012	1.02
293.227	138.24
293.442	168.96
293.657	48.13
293.871	-72.7
294.086	193.53
294.301	271.36
294.516	-48.13
294.73	15.36
294.945	101.37
295.16	146.43
295.374	13.31
295.589	27.65
295.804	173.05
296.018	68.61
296.233	-21.5
296.447	74.75
296.662	99.33
296.877	386.04
297.091	91.13
297.306	-27.65
297.52	72.7
297.735	293.88
297.949	80.89
298.164	-144.38
298.378	166.91
298.593	52.22
298.807	-39.94
299.022	-39.94
299.236	279.55
299.451	27.65
299.665	27.65
299.88	54.27
300.094	244.73
300.309	175.1
300.523	-56.32
300.737	1.02
300.952	277.5
301.166	228.35
301.381	-68.61
301.595	-101.37
301.809	130.05
302.024	146.43
302.238	-58.37
302.452	132.09
302.667	185.34
302.881	322.56
303.095	25.6
303.309	15.36
303.524	148.48
303.738	117.76
303.952	27.65
304.166	-39.94
304.381	-41.98
304.595	211.96
304.809	-48.13
305.023	-121.85
305.237	1.02
305.452	48.13
305.666	-25.6
305.88	80.89
306.094	195.58
306.308	185.34
306.522	-56.32
306.736	109.57
306.95	246.78
307.164	89.09
307.379	23.55
307.593	27.65
307.807	222.2
308.021	220.16
308.235	105.47
308.449	-82.94
308.663	168.96
308.877	556.02
309.091	7.17
309.305	68.61
309.519	-91.13
309.733	224.25
309.947	-70.65
310.161	-9.22
310.374	191.49
310.588	248.83
310.802	-113.66
311.016	82.94
311.23	201.72
311.444	68.61
311.658	54.27
311.872	201.72
312.085	242.68
312.299	308.22
312.513	152.57
312.727	-25.6
312.941	-25.6
313.154	197.63
313.368	25.6
313.582	-44.03
313.796	203.77
314.009	70.65
314.223	201.72
314.437	138.24
314.651	236.54
314.864	70.65
315.078	35.84
315.292	-123.9
315.505	82.94
315.719	107.52
315.933	97.28
316.146	-60.42
316.36	80.89
316.573	238.59
316.787	214.01
317.001	48.13
317.214	50.18
317.428	185.34
317.641	-76.8
317.855	58.37
318.068	185.34
318.282	136.19
318.495	183.29
318.709	-41.98
318.922	142.33
319.136	246.78
319.349	95.23
319.563	-27.65
319.776	177.15
319.99	-27.65
320.203	27.65
320.417	-23.55
320.63	54.27
320.843	246.78
321.057	-9.22
321.27	66.56
321.483	216.06
321.697	214.01
321.91	-44.03
322.124	-1.02
322.337	187.39
322.55	82.94
322.763	56.32
322.977	-82.94
323.19	115.71
323.403	37.89
323.617	5.12
323.83	224.25
324.043	62.46
324.256	144.38
324.469	-259.07
324.683	80.89
324.896	109.57
325.109	111.61
325.322	-95.23
325.535	89.09
325.748	314.36
325.962	99.33
326.175	-1.02
326.388	-62.46
326.601	281.6
326.814	119.81
327.027	-9.22
327.24	95.23
327.453	-33.79
327.666	226.3
327.879	179.2
328.092	56.32
328.305	197.63
328.518	74.75
328.731	-29.7
328.944	-111.61
329.157	179.2
329.37	50.18
329.583	150.53
329.796	132.09
330.009	-33.79
330.222	328.7
330.435	80.89
330.648	-13.31
330.861	228.35
331.073	87.04
331.286	74.75
331.499	68.61
331.712	46.08
331.925	130.05
332.138	21.5
332.35	-44.03
332.563	158.72
332.776	289.79
332.989	7.17
333.202	-48.13
333.414	203.77
333.627	179.2
333.84	-31.74
334.053	64.51
334.265	50.18
334.478	68.61
334.691	-66.56
334.903	68.61
335.116	121.85
335.329	109.57
335.541	54.27
335.754	171.01
335.966	80.89
336.179	197.63
336.392	-29.7
336.604	39.94
336.817	201.72
337.029	236.54
337.242	33.79
337.454	95.23
337.667	150.53
337.88	334.84
338.092	29.7
338.305	109.57
338.517	168.96
338.729	183.29
338.942	48.13
339.154	-54.27
339.367	-11.26
339.579	242.68
339.792	-82.94
340.004	-17.41
340.217	191.49
340.429	179.2
340.641	-31.74
340.854	-138.24
341.066	185.34
341.278	248.83
341.491	254.97
341.703	7.17
341.915	97.28
342.128	228.35
342.34	1.02
342.552	-58.37
342.764	162.81
342.977	136.19
343.189	74.75
343.401	64.51
343.613	-17.41
343.826	209.92
344.038	-23.55
344.25	93.18
344.462	11.26
344.674	203.77
344.886	-58.37
345.099	50.18
345.311	191.49
345.523	64.51
345.735	-162.81
345.947	113.66
346.159	189.44
346.371	240.64
346.583	21.5
346.795	173.05
347.007	125.95
347.219	189.44
347.431	50.18
347.643	113.66
347.855	74.75
348.067	285.69
348.279	-74.75
348.491	19.46
348.703	336.89
348.915	115.71
349.127	-72.7
349.339	87.04
349.551	80.89
349.763	273.4
349.975	72.7
350.187	74.75
350.399	349.18
350.61	175.1
350.822	-95.23
351.034	1.02
351.246	162.81
351.458	238.59
351.669	56.32
351.881	-39.94
352.093	269.31
352.305	261.12
352.517	-31.74
352.728	58.37
352.94	230.4
353.152	148.48
353.363	-121.85
353.575	25.6
353.787	345.08
353.999	191.49
354.21	173.05
354.422	-87.04
354.633	109.57
354.845	80.89
355.057	37.89
355.268	68.61
355.48	275.45
355.692	-1.02
355.903	70.65
356.115	-160.77
356.326	-103.42
356.538	312.32
356.749	-5.12
356.961	142.33
357.172	142.33
357.384	44.03
357.595	254.97
357.807	-7.17
358.018	113.66
358.23	148.48
358.441	-101.37
358.653	-13.31
358.864	107.52
359.075	41.98
359.287	-15.36
359.498	62.46
359.709	203.77
359.921	162.81
360.132	105.47
360.344	-21.5
360.555	89.09
360.766	189.44
360.977	-76.8
361.189	107.52
361.4	148.48
361.611	265.21
361.823	23.55
362.034	-25.6
362.245	-33.79
362.456	148.48
362.667	101.37
362.879	-103.42
363.09	240.64
363.301	171.01
363.512	-82.94
363.723	-95.23
363.935	97.28
364.146	277.5
364.357	9.22
364.568	-64.51
364.779	-11.26
364.99	203.77
365.201	48.13
365.412	150.53
365.623	-27.65
365.834	211.96
366.045	58.37
366.256	7.17
366.467	207.87
366.678	154.62
366.889	29.7
367.1	39.94
367.311	326.65
367.522	25.6
367.733	33.79
367.944	70.65
368.155	101.37
368.366	326.65
368.577	95.23
368.788	187.39
368.999	99.33
369.209	113.66
369.42	39.94
369.631	324.6
369.842	230.4
370.053	66.56
370.264	33.79
370.474	-115.71
370.685	228.35
370.896	99.33
371.107	84.99
371.317	-23.55
371.528	158.72
371.739	263.16
371.95	72.7
372.16	9.22
372.371	-21.5
372.582	121.85
372.792	-25.6
373.003	123.9
373.214	179.2
373.424	232.44
373.635	21.5
373.846	197.63
374.056	205.82
374.267	181.25
374.477	78.85
374.688	-25.6
374.898	224.25
375.109	23.55
375.319	29.7
375.53	-23.55
375.74	306.17
375.951	56.32
376.161	76.8
376.372	66.56
376.582	121.85
376.793	201.72
377.003	3.07
377.214	9.22
377.424	271.36
377.635	193.53
377.845	7.17
378.055	89.09
378.266	-25.6
378.476	154.62
378.686	31.74
378.897	134.14
379.107	295.93
379.317	244.73
379.528	-62.46
379.738	70.65
379.948	21.5
380.158	236.54
380.369	70.65
380.579	74.75
380.789	107.52
380.999	125.95
381.21	177.15
381.42	222.2
381.63	154.62
381.84	261.12
382.05	123.9
382.261	62.46
382.471	295.93
382.681	68.61
382.891	23.55
383.101	162.81
383.311	80.89
383.521	60.42
383.731	-62.46
383.941	134.14
384.151	64.51
384.361	15.36
384.571	-9.22
384.781	74.75
384.991	271.36
385.201	277.5
385.411	144.38
385.621	78.85
385.831	183.29
386.041	265.21
386.251	87.04
386.461	58.37
386.671	152.57
386.881	207.87
387.091	70.65
387.301	80.89
387.511	80.89
387.72	140.29
387.93	68.61
388.14	-84.99
388.35	171.01
388.56	308.22
388.769	29.7
388.979	41.98
389.189	-1.02
389.399	181.25
389.609	9.22
389.818	19.46
390.028	166.91
390.238	183.29
390.447	-99.33
390.657	19.46
390.867	146.43
391.076	-5.12
391.286	46.08
391.496	-21.5
391.705	125.95
391.915	365.56
392.125	-56.32
392.334	87.04
392.544	365.56
392.753	138.24
392.963	52.22
393.172	23.55
393.382	76.8
393.591	312.32
393.801	-64.51
394.01	56.32
394.22	211.96
394.429	121.85
394.639	144.38
394.848	56.32
395.058	171.01
395.267	91.13
395.477	89.09
395.686	21.5
395.895	547.83
396.105	383.99
396.314	60.42
396.524	50.18
396.733	234.49
396.942	338.94
397.152	37.89
397.361	142.33
397.57	220.16
397.78	97.28
397.989	66.56
398.198	285.69
398.407	95.23
398.617	140.29
398.826	-9.22
399.035	-33.79
399.244	254.97
399.453	162.81
399.663	-39.94
399.872	-97.28
400.081	-27.65
400.29	224.25
400.499	-25.6
400.708	29.7
400.917	181.25
401.127	82.94
401.336	31.74
401.545	306.17
401.754	277.5
401.963	214.01
402.172	44.03
402.381	-62.46
402.59	232.44
402.799	142.33
403.008	97.28
403.217	72.7
403.426	246.78
403.635	-70.65
403.844	-80.89
404.053	-50.18
404.262	109.57
404.471	334.84
404.68	-5.12
404.888	107.52
405.097	70.65
405.306	162.81
405.515	48.13
405.724	27.65
405.933	285.69
406.142	173.05
406.35	95.23
406.559	76.8
406.768	140.29
406.977	392.19
407.185	13.31
407.394	115.71
407.603	31.74
407.812	179.2
408.02	115.71
408.229	23.55
408.438	211.96
408.646	-78.85
408.855	-23.55
409.064	15.36
409.272	123.9
409.481	283.64
409.69	-27.65
409.898	-41.98
410.107	222.2
410.315	164.86
410.524	78.85
410.733	-68.61
410.941	132.09
411.15	236.54
411.358	99.33
411.567	113.66
411.775	154.62
411.984	171.01
412.192	136.19
412.401	1.02
412.609	412.67
412.818	226.3
413.026	164.86
413.234	7.17
413.443	220.16
413.651	31.74
413.86	-70.65
414.068	187.39
414.276	369.66
414.485	97.28
414.693	62.46
414.901	195.58
415.11	203.77
415.318	181.25
415.526	35.84
415.734	119.81
415.943	150.53
416.151	287.74
416.359	1.02
416.567	117.76
416.776	271.36
416.984	275.45
417.192	64.51
417.4	-21.5
417.608	62.46
417.817	17.41
418.025	160.77
418.233	82.94
418.441	56.32
418.649	78.85
418.857	17.41
419.065	136.19
419.273	105.47
419.481	236.54
419.689	17.41
419.897	19.46
420.105	33.79
420.313	240.64
420.521	162.81
420.729	185.34
420.937	144.38
421.145	48.13
421.353	74.75
421.561	103.42
421.769	244.73
421.977	91.13
422.185	21.5
422.393	132.09
422.601	242.68
422.809	246.78
423.017	84.99
423.224	60.42
423.432	283.64
423.64	158.72
423.848	15.36
424.056	15.36
424.263	349.18
424.471	146.43
424.679	191.49
424.887	-19.46
425.094	361.47
425.302	222.2
425.51	-136.19
425.718	39.94
425.925	244.73
426.133	9.22
426.341	209.92
426.548	58.37
426.756	158.72
426.964	195.58
427.171	13.31
427.379	64.51
427.586	279.55
427.794	269.31
428.001	138.24
428.209	177.15
428.417	287.74
428.624	248.83
428.832	138.24
429.039	197.63
429.247	171.01
429.454	195.58
429.662	242.68
429.869	125.95
430.076	240.64
430.284	312.32
430.491	121.85
430.699	121.85
430.906	433.15
431.114	191.49
431.321	150.53
431.528	195.58
431.736	277.5
431.943	254.97
432.15	105.47
432.358	97.28
432.565	457.72
432.772	-7.17
432.979	238.59
433.187	72.7
433.394	394.23
433.601	119.81
433.808	193.53
434.016	271.36
434.223	295.93
434.43	240.64
434.637	130.05
434.844	201.72
435.052	242.68
435.259	340.99
435.466	289.79
435.673	310.27
435.88	447.48
436.087	416.76
436.294	330.75
436.501	295.93
436.708	304.12
436.915	322.56
437.122	379.9
437.329	78.85
437.537	312.32
437.743	361.47
437.95	422.91
438.157	242.68
438.364	392.19
438.571	324.6
438.778	183.29
438.985	343.03
439.192	519.16
439.399	324.6
439.606	279.55
439.813	371.71
440.02	629.75
440.227	752.63
440.433	236.54
440.64	254.97
440.847	295.93
441.054	429.05
441.261	365.56
441.467	330.75
441.674	383.99
441.881	556.02
442.088	357.37
442.294	353.27
442.501	576.5
442.708	730.1
442.914	402.43
443.121	418.81
443.328	576.5
443.534	760.82
443.741	463.86
443.948	304.12
444.154	717.81
444.361	951.28
444.568	549.88
444.774	572.41
444.981	574.46
445.187	908.27
445.394	582.65
445.6	605.17
445.807	762.87
446.013	803.83
446.22	498.68
446.426	707.57
446.633	934.9
446.839	1041.39
447.046	648.18
447.252	736.24
447.459	951.28
447.665	879.6
447.871	883.7
448.078	1092.59
448.284	1168.37
448.491	1238
448.697	1078.26
448.903	1076.21
449.11	1215.47
449.316	1096.69
449.522	1311.72
449.728	1305.58
449.935	1477.61
450.141	1407.98
450.347	1393.64
450.553	1375.21
450.76	1567.72
450.966	1594.34
451.172	1571.82
451.378	1620.97
451.584	1702.89
451.791	2022.37
451.997	1856.48
452.203	1729.51
452.409	2145.25
452.615	2071.52
452.821	1924.07
453.027	1848.29
453.233	2456.54
453.44	2202.59
453.646	1967.07
453.852	2235.36
454.058	2214.88
454.264	2444.25
454.47	2307.04
454.676	2335.71
454.882	2679.77
455.088	2536.41
455.294	2376.67
455.5	2700.25
455.705	2857.94
455.911	2827.22
456.117	2612.18
456.323	2759.64
456.529	2556.89
456.735	2857.94
456.941	2612.18
457.147	2943.96
457.352	3021.78
457.558	2694.1
457.764	2765.78
457.97	2880.47
458.176	2857.94
458.381	3001.3
458.587	2970.58
458.793	2821.08
458.999	2769.88
459.204	3009.49
459.41	2962.39
459.616	2843.6
459.821	3144.66
460.027	2864.08
460.233	2915.28
460.438	2831.32
460.644	2907.09
460.85	2767.83
461.055	2847.7
461.261	2659.29
461.466	2751.45
461.672	2403.29
461.878	2511.83
462.083	2563.03
