Data from USB4F104151__29__12-20-00-616.txt Node

Date: Wed Feb 19 12:20:00 EST 2025
User: louis
Spectrometer: USB4F10415
Trigger mode: 4
Integration Time (sec): 2.250200E-1
Scans to average: 1
Electric dark correction enabled: true
Nonlinearity correction enabled: false
Boxcar width: 0
XAxis mode: Wavelengths
Number of Pixels in Spectrum: 3648
>>>>>Begin Spectral Data<<<<<
178.204	-845.64
178.424	-845.64
178.644	-845.64
178.864	-839.5
179.084	-737.1
179.304	129.19
179.524	30.89
179.744	67.75
179.964	-186.19
180.184	184.49
180.404	92.33
180.624	-231.25
180.844	-135
181.064	26.79
181.283	258.21
181.503	-216.91
181.723	-20.31
181.943	-42.84
182.163	448.68
182.383	-151.38
182.602	-120.66
182.822	391.33
183.042	268.45
183.262	-212.82
183.482	-137.04
183.701	176.3
183.921	262.31
184.141	-147.28
184.361	-91.99
184.58	348.33
184.8	139.43
185.02	-202.58
185.239	-40.79
185.459	333.99
185.679	391.33
185.898	-247.63
186.118	-214.87
186.338	315.56
186.557	346.28
186.777	-251.73
186.997	-239.44
187.216	254.12
187.436	528.55
187.655	-89.94
187.875	-1.88
188.095	211.11
188.314	348.33
188.534	-65.36
188.753	-282.45
188.973	434.34
189.192	413.86
189.412	-282.45
189.631	-135
189.851	305.32
190.07	491.68
190.29	-157.52
190.509	-251.73
190.729	194.73
190.948	411.81
191.168	-32.6
191.387	-153.43
191.607	118.95
191.826	344.23
192.045	-83.8
192.265	-237.39
192.484	284.84
192.704	112.81
192.923	-100.18
193.142	-48.98
193.362	282.79
193.581	309.41
193.8	-87.89
194.02	-147.28
194.239	254.12
194.458	329.89
194.678	-112.47
194.897	-216.91
195.116	250.02
195.335	297.13
195.555	-141.14
195.774	-294.74
195.993	331.94
196.212	219.3
196.432	-98.13
196.651	-302.93
196.87	200.87
197.089	669.86
197.308	-175.95
197.528	-132.95
197.747	63.66
197.966	121
198.185	-83.8
198.404	-212.82
198.623	241.83
198.842	442.53
199.062	-122.71
199.281	-81.75
199.5	223.4
199.719	264.36
199.938	-284.5
200.157	-178
200.376	391.33
200.595	424.1
200.814	-69.46
201.033	-147.28
201.252	463.01
201.471	290.98
201.69	-231.25
201.909	-227.15
202.128	278.69
202.347	313.51
202.566	-96.08
202.785	-313.17
203.004	149.67
203.223	489.64
203.442	-239.44
203.661	-206.67
203.879	282.79
204.098	317.61
204.317	-147.28
204.536	-42.84
204.755	356.52
204.974	309.41
205.193	-259.92
205.411	-65.36
205.63	415.91
205.849	344.23
206.068	-190.29
206.287	-253.78
206.505	436.39
206.724	100.52
206.943	-188.24
207.162	-184.15
207.381	190.63
207.599	161.96
207.818	-59.22
208.037	-261.97
208.255	227.5
208.474	254.12
208.693	-178
208.911	-96.08
209.13	301.22
209.349	362.66
209.567	-20.31
209.786	-163.67
210.005	377
210.223	250.02
210.442	-296.78
210.661	-171.86
210.879	266.41
211.098	145.58
211.316	-112.47
211.535	-147.28
211.753	295.08
211.972	327.85
212.191	-178
212.409	-178
212.628	288.93
212.846	121
213.065	-231.25
213.283	-83.8
213.502	164.01
213.72	198.82
213.938	-198.48
214.157	-233.3
214.375	245.93
214.594	127.14
214.812	-112.47
215.031	-184.15
215.249	280.74
215.467	196.78
215.686	-96.08
215.904	-180.05
216.122	235.69
216.341	481.44
216.559	4.27
216.778	-59.22
216.996	422.05
217.214	288.93
217.432	-124.76
217.651	-290.64
217.869	270.5
218.087	286.89
218.306	-161.62
218.524	-198.48
218.742	184.49
218.96	387.24
219.179	-212.82
219.397	-200.53
219.615	546.98
219.833	295.08
220.051	-210.77
220.27	-51.03
220.488	399.52
220.706	225.45
220.924	-182.1
221.142	-190.29
221.36	264.36
221.578	207.02
221.796	-186.19
222.015	-44.88
222.233	233.64
222.451	381.09
222.669	-36.69
222.887	-85.84
223.105	174.25
223.323	229.54
223.541	-169.81
223.759	-110.42
223.977	143.53
224.195	430.24
224.413	-122.71
224.631	-32.6
224.849	184.49
225.067	538.79
225.285	-53.08
225.503	-225.11
225.721	-30.55
225.939	215.21
226.157	-188.24
226.375	65.71
226.592	139.43
226.81	221.35
227.028	73.9
227.246	-100.18
227.464	276.65
227.682	288.93
227.9	-71.51
228.117	-44.88
228.335	260.26
228.553	155.82
228.771	-216.91
228.989	-155.47
229.206	295.08
229.424	147.62
229.642	-173.91
229.86	-169.81
230.077	446.63
230.295	174.25
230.513	-40.79
230.731	-141.14
230.948	481.44
231.166	409.76
231.384	-83.8
231.601	-153.43
231.819	372.9
232.037	73.9
232.254	-71.51
232.472	-98.13
232.689	178.34
232.907	415.91
233.125	-227.15
233.342	-233.3
233.56	98.47
233.777	129.19
233.995	-178
234.213	-135
234.43	262.31
234.648	207.02
234.865	-141.14
235.083	-16.21
235.3	315.56
235.518	293.03
235.735	-128.85
235.953	-102.23
236.17	204.97
236.388	137.38
236.605	88.23
236.822	-96.08
237.04	356.52
237.257	278.69
237.475	-227.15
237.692	-128.85
237.909	362.66
238.127	196.78
238.344	-34.64
238.562	-87.89
238.779	110.76
238.996	71.85
239.214	-55.12
239.431	-116.56
239.648	84.14
239.865	241.83
240.083	-89.94
240.3	-145.24
240.517	137.38
240.735	172.2
240.952	8.36
241.169	-196.43
241.386	362.66
241.603	161.96
241.821	-85.84
242.038	-128.85
242.255	354.47
242.472	26.79
242.689	-124.76
242.907	-126.8
243.124	239.78
243.341	204.97
243.558	-89.94
243.775	-243.54
243.992	114.86
244.209	266.41
244.426	-65.36
244.643	-65.36
244.86	100.52
245.078	381.09
245.295	-18.26
245.512	-163.67
245.729	112.81
245.946	368.81
246.163	-161.62
246.38	-116.56
246.597	202.92
246.814	170.15
247.031	-36.69
247.248	-161.62
247.464	381.09
247.681	198.82
247.898	-98.13
248.115	-112.47
248.332	84.14
248.549	325.8
248.766	8.36
248.983	-108.37
249.2	301.22
249.417	344.23
249.633	-108.37
249.85	-24.4
250.067	204.97
250.284	204.97
250.501	-188.24
250.717	-137.04
250.934	43.18
251.151	161.96
251.368	-59.22
251.585	-157.52
251.801	284.84
252.018	92.33
252.235	32.94
252.451	-196.43
252.668	233.64
252.885	331.94
253.102	-77.65
253.318	-108.37
253.535	127.14
253.752	168.1
253.968	-98.13
254.185	-210.77
254.401	233.64
254.618	284.84
254.835	-94.04
255.051	-87.89
255.268	397.48
255.484	227.5
255.701	-79.7
255.917	-137.04
256.134	57.51
256.351	133.29
256.567	-147.28
256.784	24.75
257	-67.41
257.217	368.81
257.433	104.62
257.65	-141.14
257.866	354.47
258.082	88.23
258.299	-79.7
258.515	-59.22
258.732	227.5
258.948	155.82
259.165	-116.56
259.381	-96.08
259.597	286.89
259.814	194.73
260.03	-126.8
260.246	-59.22
260.463	350.37
260.679	299.17
260.895	-22.36
261.112	-63.32
261.328	198.82
261.544	125.1
261.761	-128.85
261.977	-143.19
262.193	73.9
262.409	317.61
262.626	-34.64
262.842	-130.9
263.058	215.21
263.274	252.07
263.49	-40.79
263.707	-165.71
263.923	346.28
264.139	59.56
264.355	-46.93
264.571	-57.17
264.787	317.61
265.004	293.03
265.22	-57.17
265.436	-157.52
265.652	198.82
265.868	299.17
266.084	-132.95
266.3	-106.32
266.516	63.66
266.732	317.61
266.948	-63.32
267.164	-221.01
267.38	366.76
267.596	262.31
267.812	20.65
268.028	-57.17
268.244	116.9
268.46	342.18
268.676	-59.22
268.892	8.36
269.108	96.43
269.324	98.47
269.54	-91.99
269.756	-42.84
269.972	75.95
270.188	73.9
270.403	-124.76
270.619	-128.85
270.835	237.74
271.051	104.62
271.267	-114.52
271.483	-173.91
271.698	243.88
271.914	245.93
272.13	8.36
272.346	-26.45
272.562	305.32
272.777	485.54
272.993	-24.4
273.209	-137.04
273.425	317.61
273.64	16.55
273.856	-44.88
274.072	-245.59
274.287	159.91
274.503	274.6
274.719	2.22
274.934	-118.61
275.15	-12.12
275.366	149.67
275.581	-132.95
275.797	-67.41
276.012	229.54
276.228	88.23
276.444	-67.41
276.659	73.9
276.875	108.71
277.09	92.33
277.306	-5.97
277.521	-22.36
277.737	243.88
277.952	200.87
278.168	-85.84
278.383	-10.07
278.599	172.2
278.814	172.2
279.03	-118.61
279.245	67.75
279.461	213.16
279.676	207.02
279.892	-96.08
280.107	-132.95
280.322	55.47
280.538	221.35
280.753	-79.7
280.969	-77.65
281.184	211.11
281.399	301.22
281.615	-67.41
281.83	41.13
282.045	92.33
282.26	20.65
282.476	-38.74
282.691	37.03
282.906	194.73
283.122	141.48
283.337	-34.64
283.552	12.46
283.767	127.14
283.983	170.15
284.198	10.41
284.413	-38.74
284.628	20.65
284.843	166.06
285.058	39.08
285.274	-73.56
285.489	98.47
285.704	235.69
285.919	-20.31
286.134	24.75
286.349	200.87
286.564	88.23
286.779	57.51
286.995	-22.36
287.21	41.13
287.425	293.03
287.64	-48.98
287.855	71.85
288.07	0.17
288.285	290.98
288.5	-5.97
288.715	20.65
288.93	116.9
289.145	96.43
289.36	-65.36
289.575	12.46
289.79	274.6
290.004	104.62
290.219	-24.4
290.434	-3.93
290.649	84.14
290.864	110.76
291.079	-3.93
291.294	-26.45
291.509	211.11
291.724	37.03
291.938	55.47
292.153	12.46
292.368	157.86
292.583	219.3
292.798	30.89
293.012	18.6
293.227	215.21
293.442	153.77
293.657	125.1
293.871	-18.26
294.086	288.93
294.301	325.8
294.516	16.55
294.73	34.99
294.945	84.14
295.16	202.92
295.374	59.56
295.589	20.65
295.804	98.47
296.018	172.2
296.233	6.31
296.447	32.94
296.662	180.39
296.877	340.13
297.091	47.27
297.306	24.75
297.52	137.38
297.735	235.69
297.949	8.36
298.164	-120.66
298.378	196.78
298.593	80.04
298.807	-30.55
299.022	59.56
299.236	344.23
299.451	129.19
299.665	45.23
299.88	12.46
300.094	290.98
300.309	168.1
300.523	-5.97
300.737	-40.79
300.952	239.78
301.166	215.21
301.381	-100.18
301.595	-147.28
301.809	180.39
302.024	61.61
302.238	28.84
302.452	180.39
302.667	186.54
302.881	301.22
303.095	61.61
303.309	41.13
303.524	80.04
303.738	164.01
303.952	-16.21
304.166	-8.02
304.381	-157.52
304.595	254.12
304.809	-34.64
305.023	-63.32
305.237	123.05
305.452	71.85
305.666	-83.8
305.88	69.8
306.094	215.21
306.308	145.58
306.522	-40.79
306.736	102.57
306.95	299.17
307.164	108.71
307.379	18.6
307.593	47.27
307.807	344.23
308.021	227.5
308.235	106.67
308.449	-114.52
308.663	100.52
308.877	503.97
309.091	43.18
309.305	67.75
309.519	-10.07
309.733	282.79
309.947	-169.81
310.161	-106.32
310.374	174.25
310.588	325.8
310.802	-73.56
311.016	-20.31
311.23	254.12
311.444	30.89
311.658	92.33
311.872	192.68
312.085	321.7
312.299	325.8
312.513	174.25
312.727	-57.17
312.941	98.47
313.154	92.33
313.368	0.17
313.582	6.31
313.796	202.92
314.009	168.1
314.223	127.14
314.437	84.14
314.651	272.55
314.864	63.66
315.078	-26.45
315.292	-112.47
315.505	100.52
315.719	186.54
315.933	67.75
316.146	-71.51
316.36	-28.5
316.573	297.13
316.787	141.48
317.001	22.7
317.214	41.13
317.428	202.92
317.641	-96.08
317.855	-34.64
318.068	198.82
318.282	164.01
318.495	88.23
318.709	-5.97
318.922	227.5
319.136	358.57
319.349	49.32
319.563	-65.36
319.776	243.88
319.99	-83.8
320.203	10.41
320.417	18.6
320.63	198.82
320.843	333.99
321.057	-3.93
321.27	2.22
321.483	327.85
321.697	233.64
321.91	2.22
322.124	26.79
322.337	172.2
322.55	53.42
322.763	-57.17
322.977	-108.37
323.19	84.14
323.403	116.9
323.617	43.18
323.83	252.07
324.043	131.24
324.256	225.45
324.469	-223.06
324.683	135.34
324.896	49.32
325.109	125.1
325.322	-126.8
325.535	129.19
325.748	389.28
325.962	164.01
326.175	77.99
326.388	-65.36
326.601	192.68
326.814	-36.69
327.027	-18.26
327.24	100.52
327.453	-26.45
327.666	184.49
327.879	133.29
328.092	114.86
328.305	270.5
328.518	116.9
328.731	39.08
328.944	-71.51
329.157	186.54
329.37	8.36
329.583	153.77
329.796	108.71
330.009	-67.41
330.222	239.78
330.435	125.1
330.648	49.32
330.861	262.31
331.073	151.72
331.286	92.33
331.499	0.17
331.712	45.23
331.925	223.4
332.138	80.04
332.35	-77.65
332.563	102.57
332.776	383.14
332.989	-30.55
333.202	-106.32
333.414	227.5
333.627	131.24
333.84	0.17
334.053	118.95
334.265	47.27
334.478	-30.55
334.691	-46.93
334.903	147.62
335.116	96.43
335.329	71.85
335.541	34.99
335.754	194.73
335.966	121
336.179	233.64
336.392	6.31
336.604	14.51
336.817	178.34
337.029	161.96
337.242	-75.6
337.454	34.99
337.667	260.26
337.88	243.88
338.092	94.38
338.305	102.57
338.517	155.82
338.729	221.35
338.942	139.43
339.154	-81.75
339.367	-1.88
339.579	221.35
339.792	-94.04
340.004	14.51
340.217	166.06
340.429	211.11
340.641	-108.37
340.854	-67.41
341.066	190.63
341.278	213.16
341.491	141.48
341.703	-116.56
341.915	-53.08
342.128	301.22
342.34	24.75
342.552	-108.37
342.764	190.63
342.977	182.44
343.189	-3.93
343.401	41.13
343.613	41.13
343.826	202.92
344.038	-59.22
344.25	90.28
344.462	37.03
344.674	90.28
344.886	-102.23
345.099	90.28
345.311	186.54
345.523	143.53
345.735	-100.18
345.947	129.19
346.159	139.43
346.371	225.45
346.583	34.99
346.795	143.53
347.007	61.61
347.219	276.65
347.431	75.95
347.643	186.54
347.855	75.95
348.067	293.03
348.279	-83.8
348.491	39.08
348.703	211.11
348.915	102.57
349.127	51.37
349.339	73.9
349.551	114.86
349.763	286.89
349.975	75.95
350.187	86.19
350.399	299.17
350.61	129.19
350.822	80.04
351.034	2.22
351.246	258.21
351.458	223.4
351.669	41.13
351.881	-16.21
352.093	350.37
352.305	225.45
352.517	-20.31
352.728	114.86
352.94	141.48
353.152	262.31
353.363	-137.04
353.575	82.09
353.787	452.77
353.999	297.13
354.21	137.38
354.422	-87.89
354.633	217.26
354.845	172.2
355.057	69.8
355.268	41.13
355.48	276.65
355.692	22.7
355.903	8.36
356.115	-63.32
356.326	-61.27
356.538	301.22
356.749	-1.88
356.961	164.01
357.172	207.02
357.384	12.46
357.595	200.87
357.807	2.22
358.018	110.76
358.23	180.39
358.441	-10.07
358.653	16.55
358.864	149.67
359.075	18.6
359.287	67.75
359.498	49.32
359.709	229.54
359.921	262.31
360.132	118.95
360.344	22.7
360.555	80.04
360.766	288.93
360.977	-100.18
361.189	90.28
361.4	192.68
361.611	350.37
361.823	67.75
362.034	24.75
362.245	24.75
362.456	155.82
362.667	145.58
362.879	-137.04
363.09	213.16
363.301	186.54
363.512	-24.4
363.723	-12.12
363.935	63.66
364.146	301.22
364.357	-79.7
364.568	-1.88
364.779	-16.21
364.99	278.69
365.201	-3.93
365.412	137.38
365.623	24.75
365.834	174.25
366.045	37.03
366.256	37.03
366.467	202.92
366.678	202.92
366.889	55.47
367.1	-5.97
367.311	278.69
367.522	198.82
367.733	118.95
367.944	-1.88
368.155	155.82
368.366	235.69
368.577	82.09
368.788	141.48
368.999	161.96
369.209	121
369.42	159.91
369.631	424.1
369.842	237.74
370.053	131.24
370.264	-5.97
370.474	-83.8
370.685	288.93
370.896	71.85
371.107	121
371.317	94.38
371.528	196.78
371.739	360.61
371.95	59.56
372.16	10.41
372.371	6.31
372.582	147.62
372.792	-5.97
373.003	121
373.214	129.19
373.424	213.16
373.635	-57.17
373.846	149.67
374.056	243.88
374.267	166.06
374.477	75.95
374.688	39.08
374.898	209.06
375.109	202.92
375.319	18.6
375.53	-18.26
375.74	317.61
375.951	63.66
376.161	186.54
376.372	84.14
376.582	86.19
376.793	286.89
377.003	14.51
377.214	-44.88
377.424	270.5
377.635	172.2
377.845	43.18
378.055	121
378.266	73.9
378.476	178.34
378.686	24.75
378.897	82.09
379.107	354.47
379.317	243.88
379.528	-114.52
379.738	98.47
379.948	-8.02
380.158	245.93
380.369	57.51
380.579	84.14
380.789	229.54
380.999	211.11
381.21	149.67
381.42	245.93
381.63	198.82
381.84	276.65
382.05	129.19
382.261	118.95
382.471	315.56
382.681	106.67
382.891	80.04
383.101	133.29
383.311	159.91
383.521	47.27
383.731	-30.55
383.941	182.44
384.151	270.5
384.361	90.28
384.571	-8.02
384.781	41.13
384.991	323.75
385.201	352.42
385.411	233.64
385.621	-3.93
385.831	264.36
386.041	188.58
386.251	92.33
386.461	151.72
386.671	184.49
386.881	223.4
387.091	-26.45
387.301	114.86
387.511	153.77
387.72	106.67
387.93	153.77
388.14	-14.17
388.35	221.35
388.56	374.95
388.769	16.55
388.979	34.99
389.189	200.87
389.399	264.36
389.609	49.32
389.818	77.99
390.028	239.78
390.238	202.92
390.447	-104.28
390.657	-16.21
390.867	178.34
391.076	170.15
391.286	8.36
391.496	49.32
391.705	186.54
391.915	383.14
392.125	8.36
392.334	104.62
392.544	297.13
392.753	166.06
392.963	41.13
393.172	20.65
393.382	176.3
393.591	415.91
393.801	6.31
394.01	75.95
394.22	323.75
394.429	182.44
394.639	43.18
394.848	106.67
395.058	223.4
395.267	235.69
395.477	110.76
395.686	57.51
395.895	501.92
396.105	342.18
396.314	39.08
396.524	77.99
396.733	131.24
396.942	327.85
397.152	112.81
397.361	135.34
397.57	143.53
397.78	170.15
397.989	194.73
398.198	305.32
398.407	174.25
398.617	118.95
398.826	116.9
399.035	-38.74
399.244	231.59
399.453	243.88
399.663	32.94
399.872	-118.61
400.081	90.28
400.29	368.81
400.499	6.31
400.708	157.86
400.917	157.86
401.127	159.91
401.336	-63.32
401.545	303.27
401.754	325.8
401.963	303.27
402.172	135.34
402.381	-48.98
402.59	321.7
402.799	153.77
403.008	217.26
403.217	88.23
403.426	276.65
403.635	41.13
403.844	0.17
404.053	41.13
404.262	135.34
404.471	374.95
404.68	123.05
404.888	67.75
405.097	182.44
405.306	170.15
405.515	145.58
405.724	61.61
405.933	331.94
406.142	252.07
406.35	73.9
406.559	172.2
406.768	219.3
406.977	499.88
407.185	94.38
407.394	161.96
407.603	102.57
407.812	250.02
408.02	219.3
408.229	96.43
408.438	299.17
408.646	-18.26
408.855	67.75
409.064	63.66
409.272	219.3
409.481	219.3
409.69	-48.98
409.898	-42.84
410.107	209.06
410.315	331.94
410.524	102.57
410.733	100.52
410.941	213.16
411.15	317.61
411.358	84.14
411.567	182.44
411.775	245.93
411.984	266.41
412.192	129.19
412.401	82.09
412.609	495.78
412.818	321.7
413.026	135.34
413.234	71.85
413.443	260.26
413.651	215.21
413.86	-96.08
414.068	241.83
414.276	503.97
414.485	90.28
414.693	139.43
414.901	237.74
415.11	333.99
415.318	190.63
415.526	88.23
415.734	237.74
415.943	293.03
416.151	417.96
416.359	-3.93
416.567	127.14
416.776	389.28
416.984	344.23
417.192	209.06
417.4	112.81
417.608	176.3
417.817	86.19
418.025	229.54
418.233	125.1
418.441	133.29
418.649	84.14
418.857	153.77
419.065	176.3
419.273	180.39
419.481	223.4
419.689	166.06
419.897	118.95
420.105	149.67
420.313	401.57
420.521	204.97
420.729	186.54
420.937	227.5
421.145	88.23
421.353	168.1
421.561	278.69
421.769	374.95
421.977	123.05
422.185	137.38
422.393	102.57
422.601	305.32
422.809	262.31
423.017	141.48
423.224	123.05
423.432	497.83
423.64	252.07
423.848	94.38
424.056	145.58
424.263	417.96
424.471	295.08
424.679	274.6
424.887	159.91
425.094	532.64
425.302	325.8
425.51	49.32
425.718	223.4
425.925	295.08
426.133	233.64
426.341	264.36
426.548	145.58
426.756	280.74
426.964	385.19
427.171	188.58
427.379	215.21
427.586	319.65
427.794	379.04
428.001	286.89
428.209	284.84
428.417	514.21
428.624	444.58
428.832	256.17
429.039	254.12
429.247	387.24
429.454	393.38
429.662	293.03
429.869	211.11
430.076	352.42
430.284	440.48
430.491	256.17
430.699	276.65
430.906	530.59
431.114	481.44
431.321	286.89
431.528	342.18
431.736	364.71
431.943	327.85
432.15	319.65
432.358	225.45
432.565	643.23
432.772	112.81
432.979	481.44
433.187	399.52
433.394	587.94
433.601	391.33
433.808	399.52
434.016	407.72
434.223	471.2
434.43	526.5
434.637	368.81
434.844	489.64
435.052	563.36
435.259	589.99
435.466	506.02
435.673	473.25
435.88	817.31
436.087	657.57
436.294	745.63
436.501	606.37
436.708	719.01
436.915	706.72
437.122	655.52
437.329	483.49
437.537	618.66
437.743	802.97
437.95	768.16
438.157	637.09
438.364	768.16
438.571	641.18
438.778	606.37
438.985	776.35
439.192	852.13
439.399	825.5
439.606	682.14
439.813	794.78
440.02	1218.71
440.227	1233.05
440.433	805.02
440.64	786.59
440.847	856.22
441.054	966.81
441.261	905.37
441.467	921.76
441.674	952.48
441.881	1142.94
442.088	1007.77
442.294	979.1
442.501	1136.79
442.708	1380.5
442.914	1001.63
443.121	1071.26
443.328	1345.69
443.534	1409.17
443.741	1138.84
443.948	975
444.154	1427.6
444.361	1407.13
444.568	1228.95
444.774	1370.26
444.981	1419.41
445.187	1613.97
445.394	1521.81
445.6	1427.6
445.807	1718.42
446.013	1677.46
446.22	1390.74
446.426	1810.58
446.633	1865.87
446.839	2191.5
447.046	1669.27
447.252	1876.11
447.459	1900.69
447.665	1863.82
447.871	1976.46
448.078	2308.23
448.284	2195.59
448.491	2451.59
448.697	2351.24
448.903	2257.03
449.11	2515.08
449.316	2465.93
449.522	2623.62
449.728	2617.47
449.935	2781.31
450.141	2816.13
450.347	2889.85
450.553	2898.05
450.76	3117.18
450.966	3211.39
451.172	3184.76
451.378	3176.57
451.584	3426.42
451.791	3678.32
451.997	3631.22
452.203	3526.77
452.409	3993.71
452.615	3944.56
452.821	3557.49
453.027	3606.64
453.233	4272.23
453.44	4100.2
453.646	3850.35
453.852	4143.21
454.058	4292.71
454.264	4515.94
454.47	4540.52
454.676	4481.13
454.882	4870.24
455.088	4808.8
455.294	4884.58
455.5	5095.52
455.705	5279.83
455.911	5019.74
456.117	4749.41
456.323	4941.92
456.529	4763.75
456.735	5318.75
456.941	4978.78
457.147	5365.85
457.352	5142.62
457.558	5185.63
457.764	5046.37
457.97	5245.02
458.176	5335.13
458.381	5560.41
458.587	5347.42
458.793	5359.7
458.999	5220.44
459.204	5584.98
459.41	5353.56
459.616	5171.29
459.821	5388.38
460.027	5378.14
460.233	5376.09
460.438	5189.72
460.644	5296.22
460.85	5222.49
461.055	5187.68
461.261	5240.92
461.466	4827.23
461.672	4722.79
