Data from USB4F104151__89__13-13-03-769.txt Node

Date: Fri Mar 14 13:13:03 EDT 2025
User: louis
Spectrometer: USB4F10415
Trigger mode: 4
Integration Time (sec): 2.000000E-2
Scans to average: 1
Electric dark correction enabled: true
Nonlinearity correction enabled: false
Boxcar width: 0
XAxis mode: Wavelengths
Number of Pixels in Spectrum: 3648
>>>>>Begin Spectral Data<<<<<
178.204	-97.28
178.424	-97.28
178.644	-97.28
178.864	-54.27
179.084	-144.38
179.304	-37.89
179.524	-29.7
179.744	29.7
179.964	25.6
180.184	-15.36
180.404	25.6
180.624	31.74
180.844	29.7
181.064	-23.55
181.283	-44.03
181.503	-58.37
181.723	66.56
181.943	-33.79
182.163	1.02
182.383	-5.12
182.602	17.41
182.822	27.65
183.042	-58.37
183.262	-33.79
183.482	-1.02
183.701	-52.22
183.921	-17.41
184.141	-115.71
184.361	9.22
184.58	-103.42
184.8	19.46
185.02	-125.95
185.239	29.7
185.459	-62.46
185.679	25.6
185.898	-46.08
186.118	60.42
186.338	33.79
186.557	39.94
186.777	-44.03
186.997	-21.5
187.216	5.12
187.436	35.84
187.655	11.26
187.875	11.26
188.095	25.6
188.314	-17.41
188.534	1.02
188.753	31.74
188.973	11.26
189.192	39.94
189.412	-41.98
189.631	-7.17
189.851	7.17
190.07	39.94
190.29	-74.75
190.509	37.89
190.729	-37.89
190.948	-31.74
191.168	50.18
191.387	54.27
191.607	-70.65
191.826	15.36
192.045	-72.7
192.265	52.22
192.484	-58.37
192.704	9.22
192.923	-41.98
193.142	44.03
193.362	-5.12
193.581	70.65
193.8	-17.41
194.02	52.22
194.239	-50.18
194.458	23.55
194.678	11.26
194.897	-7.17
195.116	-29.7
195.335	17.41
195.555	-39.94
195.774	-5.12
195.993	7.17
196.212	-23.55
196.432	-35.84
196.651	9.22
196.87	-48.13
197.089	41.98
197.308	-9.22
197.528	-1.02
197.747	31.74
197.966	-17.41
198.185	44.03
198.404	-46.08
198.623	-39.94
198.842	3.07
199.062	11.26
199.281	23.55
199.5	-5.12
199.719	31.74
199.938	-29.7
200.157	39.94
200.376	17.41
200.595	9.22
200.814	-15.36
201.033	-17.41
201.252	-41.98
201.471	-25.6
201.69	33.79
201.909	-7.17
202.128	70.65
202.347	-46.08
202.566	-64.51
202.785	-11.26
203.004	-3.07
203.223	60.42
203.442	27.65
203.661	-27.65
203.879	-21.5
204.098	-17.41
204.317	-9.22
204.536	31.74
204.755	19.46
204.974	101.37
205.193	3.07
205.411	41.98
205.63	11.26
205.849	27.65
206.068	105.47
206.287	21.5
206.505	46.08
206.724	27.65
206.943	-29.7
207.162	-33.79
207.381	19.46
207.599	58.37
207.818	5.12
208.037	-48.13
208.255	-95.23
208.474	54.27
208.693	-31.74
208.911	-23.55
209.13	-3.07
209.349	15.36
209.567	44.03
209.786	-54.27
210.005	-19.46
210.223	-31.74
210.442	31.74
210.661	-11.26
210.879	31.74
211.098	-29.7
211.316	-17.41
211.535	46.08
211.753	54.27
211.972	44.03
212.191	7.17
212.409	9.22
212.628	80.89
212.846	-58.37
213.065	80.89
213.283	52.22
213.502	-68.61
213.72	-1.02
213.938	17.41
214.157	-9.22
214.375	-1.02
214.594	17.41
214.812	1.02
215.031	11.26
215.249	-13.31
215.467	-50.18
215.686	-35.84
215.904	31.74
216.122	-62.46
216.341	-58.37
216.559	-95.23
216.778	-7.17
216.996	-7.17
217.214	-72.7
217.432	-21.5
217.651	50.18
217.869	11.26
218.087	3.07
218.306	29.7
218.524	39.94
218.742	-46.08
218.96	-13.31
219.179	9.22
219.397	-56.32
219.615	31.74
219.833	15.36
220.051	5.12
220.27	105.47
220.488	95.23
220.706	37.89
220.924	13.31
221.142	44.03
221.36	15.36
221.578	9.22
221.796	37.89
222.015	31.74
222.233	19.46
222.451	33.79
222.669	-17.41
222.887	-17.41
223.105	-9.22
223.323	13.31
223.541	-66.56
223.759	-13.31
223.977	7.17
224.195	29.7
224.413	39.94
224.631	17.41
224.849	23.55
225.067	78.85
225.285	15.36
225.503	-41.98
225.721	-130.05
225.939	-1.02
226.157	-37.89
226.375	62.46
226.592	-23.55
226.81	-13.31
227.028	64.51
227.246	-25.6
227.464	58.37
227.682	-64.51
227.9	-5.12
228.117	44.03
228.335	11.26
228.553	11.26
228.771	5.12
228.989	35.84
229.206	39.94
229.424	-41.98
229.642	-103.42
229.86	-27.65
230.077	7.17
230.295	50.18
230.513	46.08
230.731	17.41
230.948	64.51
231.166	41.98
231.384	-46.08
231.601	-54.27
231.819	33.79
232.037	-58.37
232.254	11.26
232.472	-64.51
232.689	-15.36
232.907	9.22
233.125	50.18
233.342	3.07
233.56	7.17
233.777	33.79
233.995	-3.07
234.213	7.17
234.43	-15.36
234.648	-37.89
234.865	-48.13
235.083	76.8
235.3	-9.22
235.518	-17.41
235.735	50.18
235.953	56.32
236.17	66.56
236.388	-58.37
236.605	-11.26
236.822	33.79
237.04	62.46
237.257	-39.94
237.475	-13.31
237.692	33.79
237.909	-25.6
238.127	46.08
238.344	35.84
238.562	-29.7
238.779	-5.12
238.996	37.89
239.214	27.65
239.431	76.8
239.648	-33.79
239.865	91.13
240.083	21.5
240.3	15.36
240.517	7.17
240.735	-89.09
240.952	-3.07
241.169	-11.26
241.386	-19.46
241.603	15.36
241.821	35.84
242.038	97.28
242.255	74.75
242.472	9.22
242.689	19.46
242.907	74.75
243.124	-52.22
243.341	-3.07
243.558	11.26
243.775	-19.46
243.992	-37.89
244.209	31.74
244.426	50.18
244.643	-13.31
244.86	-9.22
245.078	-17.41
245.295	56.32
245.512	17.41
245.729	17.41
245.946	11.26
246.163	3.07
246.38	-25.6
246.597	-15.36
246.814	-7.17
247.031	52.22
247.248	29.7
247.464	21.5
247.681	82.94
247.898	48.13
248.115	-95.23
248.332	-39.94
248.549	21.5
248.766	-17.41
248.983	31.74
249.2	7.17
249.417	-9.22
249.633	31.74
249.85	-9.22
250.067	33.79
250.284	-33.79
250.501	-33.79
250.717	44.03
250.934	-15.36
251.151	-27.65
251.368	1.02
251.585	-31.74
251.801	-103.42
252.018	-3.07
252.235	7.17
252.451	-78.85
252.668	-50.18
252.885	25.6
253.102	-17.41
253.318	-58.37
253.535	-9.22
253.752	-25.6
253.968	-46.08
254.185	-82.94
254.401	-62.46
254.618	7.17
254.835	-56.32
255.051	15.36
255.268	-3.07
255.484	-3.07
255.701	-11.26
255.917	-1.02
256.134	-74.75
256.351	17.41
256.567	-44.03
256.784	15.36
257	-46.08
257.217	19.46
257.433	-17.41
257.65	9.22
257.866	-44.03
258.082	-29.7
258.299	27.65
258.515	31.74
258.732	-19.46
258.948	33.79
259.165	5.12
259.381	-23.55
259.597	3.07
259.814	9.22
260.03	19.46
260.246	-70.65
260.463	3.07
260.679	-33.79
260.895	39.94
261.112	-64.51
261.328	-41.98
261.544	17.41
261.761	70.65
261.977	7.17
262.193	29.7
262.409	-31.74
262.626	31.74
262.842	58.37
263.058	-37.89
263.274	46.08
263.49	19.46
263.707	-3.07
263.923	46.08
264.139	-78.85
264.355	19.46
264.571	-3.07
264.787	-29.7
265.004	-25.6
265.22	11.26
265.436	9.22
265.652	25.6
265.868	15.36
266.084	-48.13
266.3	23.55
266.516	15.36
266.732	-41.98
266.948	-21.5
267.164	52.22
267.38	1.02
267.596	-1.02
267.812	76.8
268.028	-3.07
268.244	-7.17
268.46	-3.07
268.676	27.65
268.892	27.65
269.108	-33.79
269.324	-33.79
269.54	-39.94
269.756	3.07
269.972	-128
270.188	54.27
270.403	-33.79
270.619	7.17
270.835	-103.42
271.051	15.36
271.267	39.94
271.483	11.26
271.698	-58.37
271.914	-31.74
272.13	33.79
272.346	-5.12
272.562	21.5
272.777	-13.31
272.993	-33.79
273.209	-9.22
273.425	15.36
273.64	25.6
273.856	-48.13
274.072	-31.74
274.287	-13.31
274.503	39.94
274.719	17.41
274.934	-76.8
275.15	-21.5
275.366	-76.8
275.581	-74.75
275.797	-9.22
276.012	-27.65
276.228	70.65
276.444	1.02
276.659	-37.89
276.875	-7.17
277.09	25.6
277.306	-29.7
277.521	33.79
277.737	-1.02
277.952	-35.84
278.168	62.46
278.383	1.02
278.599	17.41
278.814	-39.94
279.03	1.02
279.245	11.26
279.461	-25.6
279.676	37.89
279.892	3.07
280.107	25.6
280.322	-33.79
280.538	27.65
280.753	-9.22
280.969	-1.02
281.184	-11.26
281.399	-1.02
281.615	7.17
281.83	-15.36
282.045	-5.12
282.26	-91.13
282.476	23.55
282.691	62.46
282.906	74.75
283.122	-37.89
283.337	-93.18
283.552	15.36
283.767	9.22
283.983	-62.46
284.198	-64.51
284.413	46.08
284.628	-15.36
284.843	-1.02
285.058	27.65
285.274	-17.41
285.489	23.55
285.704	23.55
285.919	-19.46
286.134	-84.99
286.349	13.31
286.564	-25.6
286.779	-70.65
286.995	27.65
287.21	13.31
287.425	46.08
287.64	-41.98
287.855	35.84
288.07	-33.79
288.285	21.5
288.5	-27.65
288.715	9.22
288.93	-31.74
289.145	-17.41
289.36	5.12
289.575	-23.55
289.79	87.04
290.004	13.31
290.219	9.22
290.434	-39.94
290.649	-33.79
290.864	21.5
291.079	1.02
291.294	31.74
291.509	15.36
291.724	5.12
291.938	9.22
292.153	-39.94
292.368	-13.31
292.583	56.32
292.798	7.17
293.012	5.12
293.227	21.5
293.442	19.46
293.657	107.52
293.871	48.13
294.086	23.55
294.301	17.41
294.516	-27.65
294.73	58.37
294.945	9.22
295.16	37.89
295.374	101.37
295.589	11.26
295.804	1.02
296.018	-5.12
296.233	-17.41
296.447	72.7
296.662	-9.22
296.877	-7.17
297.091	15.36
297.306	23.55
297.52	-39.94
297.735	-60.42
297.949	-17.41
298.164	25.6
298.378	50.18
298.593	-44.03
298.807	11.26
299.022	3.07
299.236	17.41
299.451	-31.74
299.665	-87.04
299.88	7.17
300.094	9.22
300.309	9.22
300.523	11.26
300.737	-1.02
300.952	-25.6
301.166	-7.17
301.381	21.5
301.595	-39.94
301.809	41.98
302.024	-27.65
302.238	-25.6
302.452	-21.5
302.667	46.08
302.881	17.41
303.095	35.84
303.309	-3.07
303.524	-78.85
303.738	-23.55
303.952	-23.55
304.166	-25.6
304.381	-68.61
304.595	50.18
304.809	13.31
305.023	99.33
305.237	-41.98
305.452	-19.46
305.666	19.46
305.88	-58.37
306.094	-9.22
306.308	-1.02
306.522	9.22
306.736	31.74
306.95	-7.17
307.164	50.18
307.379	44.03
307.593	-21.5
307.807	74.75
308.021	29.7
308.235	15.36
308.449	72.7
308.663	33.79
308.877	132.09
309.091	-70.65
309.305	5.12
309.519	-19.46
309.733	-54.27
309.947	31.74
310.161	-23.55
310.374	31.74
310.588	31.74
310.802	-1.02
311.016	-41.98
311.23	33.79
311.444	7.17
311.658	-56.32
311.872	80.89
312.085	23.55
312.299	87.04
312.513	17.41
312.727	-84.99
312.941	-19.46
313.154	35.84
313.368	7.17
313.582	46.08
313.796	15.36
314.009	-72.7
314.223	-31.74
314.437	39.94
314.651	-37.89
314.864	-1.02
315.078	-13.31
315.292	-48.13
315.505	-91.13
315.719	-1.02
315.933	-7.17
316.146	-44.03
316.36	21.5
316.573	33.79
316.787	3.07
317.001	-29.7
317.214	-74.75
317.428	7.17
317.641	-5.12
317.855	23.55
318.068	-21.5
318.282	27.65
318.495	33.79
318.709	33.79
318.922	62.46
319.136	15.36
319.349	97.28
319.563	-54.27
319.776	52.22
319.99	9.22
320.203	-9.22
320.417	-9.22
320.63	48.13
320.843	89.09
321.057	-52.22
321.27	37.89
321.483	29.7
321.697	54.27
321.91	46.08
322.124	37.89
322.337	15.36
322.55	-31.74
322.763	-1.02
322.977	84.99
323.19	9.22
323.403	-11.26
323.617	-37.89
323.83	1.02
324.043	19.46
324.256	93.18
324.469	62.46
324.683	19.46
324.896	-17.41
325.109	-41.98
325.322	-66.56
325.535	-19.46
325.748	39.94
325.962	11.26
326.175	39.94
326.388	-3.07
326.601	27.65
326.814	13.31
327.027	-41.98
327.24	13.31
327.453	-99.33
327.666	33.79
327.879	-58.37
328.092	25.6
328.305	48.13
328.518	-60.42
328.731	-1.02
328.944	107.52
329.157	39.94
329.37	-17.41
329.583	70.65
329.796	-107.52
330.009	109.57
330.222	-7.17
330.435	-62.46
330.648	39.94
330.861	82.94
331.073	58.37
331.286	9.22
331.499	-17.41
331.712	-23.55
331.925	66.56
332.138	-31.74
332.35	44.03
332.563	-11.26
332.776	27.65
332.989	-15.36
333.202	31.74
333.414	39.94
333.627	-23.55
333.84	-25.6
334.053	27.65
334.265	-25.6
334.478	-68.61
334.691	25.6
334.903	-54.27
335.116	7.17
335.329	48.13
335.541	39.94
335.754	7.17
335.966	1.02
336.179	-58.37
336.392	76.8
336.604	-3.07
336.817	-25.6
337.029	13.31
337.242	41.98
337.454	44.03
337.667	-27.65
337.88	56.32
338.092	46.08
338.305	39.94
338.517	-25.6
338.729	15.36
338.942	23.55
339.154	9.22
339.367	-37.89
339.579	5.12
339.792	35.84
340.004	19.46
340.217	-66.56
340.429	1.02
340.641	-121.85
340.854	-3.07
341.066	-74.75
341.278	62.46
341.491	3.07
341.703	-3.07
341.915	-39.94
342.128	54.27
342.34	-17.41
342.552	-58.37
342.764	-5.12
342.977	5.12
343.189	11.26
343.401	5.12
343.613	-11.26
343.826	7.17
344.038	27.65
344.25	-15.36
344.462	41.98
344.674	-33.79
344.886	-29.7
345.099	1.02
345.311	-91.13
345.523	-48.13
345.735	-11.26
345.947	35.84
346.159	-23.55
346.371	27.65
346.583	-29.7
346.795	50.18
347.007	-31.74
347.219	60.42
347.431	-46.08
347.643	31.74
347.855	52.22
348.067	46.08
348.279	17.41
348.491	11.26
348.703	62.46
348.915	25.6
349.127	-9.22
349.339	91.13
349.551	-48.13
349.763	35.84
349.975	3.07
350.187	46.08
350.399	97.28
350.61	44.03
350.822	9.22
351.034	78.85
351.246	15.36
351.458	23.55
351.669	-52.22
351.881	9.22
352.093	-48.13
352.305	66.56
352.517	60.42
352.728	15.36
352.94	13.31
353.152	31.74
353.363	-21.5
353.575	31.74
353.787	54.27
353.999	31.74
354.21	5.12
354.422	-11.26
354.633	1.02
354.845	-21.5
355.057	62.46
355.268	17.41
355.48	1.02
355.692	-41.98
355.903	-70.65
356.115	-23.55
356.326	-37.89
356.538	33.79
356.749	5.12
356.961	-27.65
357.172	23.55
357.384	-60.42
357.595	50.18
357.807	50.18
358.018	-60.42
358.23	-23.55
358.441	62.46
358.653	-66.56
358.864	13.31
359.075	35.84
359.287	27.65
359.498	-3.07
359.709	-17.41
359.921	-87.04
360.132	68.61
360.344	11.26
360.555	5.12
360.766	-17.41
360.977	68.61
361.189	-50.18
361.4	21.5
361.611	3.07
361.823	-9.22
362.034	19.46
362.245	-11.26
362.456	-17.41
362.667	39.94
362.879	-119.81
363.09	50.18
363.301	62.46
363.512	41.98
363.723	-3.07
363.935	-37.89
364.146	-7.17
364.357	-46.08
364.568	15.36
364.779	-78.85
364.99	48.13
365.201	-15.36
365.412	-3.07
365.623	58.37
365.834	41.98
366.045	-58.37
366.256	13.31
366.467	3.07
366.678	21.5
366.889	52.22
367.1	-5.12
367.311	-48.13
367.522	-48.13
367.733	27.65
367.944	44.03
368.155	-39.94
368.366	11.26
368.577	5.12
368.788	68.61
368.999	76.8
369.209	1.02
369.42	1.02
369.631	87.04
369.842	-17.41
370.053	-54.27
370.264	-9.22
370.474	33.79
370.685	70.65
370.896	33.79
371.107	44.03
371.317	-9.22
371.528	33.79
371.739	15.36
371.95	19.46
372.16	39.94
372.371	-23.55
372.582	27.65
372.792	-17.41
373.003	74.75
373.214	-7.17
373.424	-29.7
373.635	23.55
373.846	9.22
374.056	66.56
374.267	82.94
374.477	-60.42
374.688	-7.17
374.898	7.17
375.109	-7.17
375.319	-68.61
375.53	-9.22
375.74	11.26
375.951	-66.56
376.161	29.7
376.372	48.13
376.582	-46.08
376.793	-1.02
377.003	-89.09
377.214	35.84
377.424	-33.79
377.635	-3.07
377.845	13.31
378.055	-1.02
378.266	-27.65
378.476	-11.26
378.686	35.84
378.897	35.84
379.107	-7.17
379.317	-41.98
379.528	-7.17
379.738	7.17
379.948	-72.7
380.158	39.94
380.369	-13.31
380.579	11.26
380.789	52.22
380.999	-19.46
381.21	17.41
381.42	80.89
381.63	-1.02
381.84	19.46
382.05	11.26
382.261	-13.31
382.471	50.18
382.681	15.36
382.891	23.55
383.101	15.36
383.311	5.12
383.521	1.02
383.731	64.51
383.941	70.65
384.151	3.07
384.361	21.5
384.571	-13.31
384.781	29.7
384.991	50.18
385.201	66.56
385.411	31.74
385.621	25.6
385.831	-37.89
386.041	58.37
386.251	64.51
386.461	115.71
386.671	23.55
386.881	39.94
387.091	-17.41
387.301	-50.18
387.511	9.22
387.72	5.12
387.93	66.56
388.14	-74.75
388.35	33.79
388.56	-11.26
388.769	128
388.979	58.37
389.189	9.22
389.399	-31.74
389.609	-19.46
389.818	46.08
390.028	13.31
390.238	82.94
390.447	-1.02
390.657	29.7
390.867	-23.55
391.076	11.26
391.286	44.03
391.496	-97.28
391.705	-46.08
391.915	19.46
392.125	-13.31
392.334	25.6
392.544	-5.12
392.753	25.6
392.963	-46.08
393.172	93.18
393.382	15.36
393.591	164.86
393.801	21.5
394.01	84.99
394.22	-15.36
394.429	11.26
394.639	-25.6
394.848	1.02
395.058	35.84
395.267	-54.27
395.477	56.32
395.686	68.61
395.895	95.23
396.105	44.03
396.314	3.07
396.524	5.12
396.733	50.18
396.942	1.02
397.152	13.31
397.361	27.65
397.57	41.98
397.78	91.13
397.989	29.7
398.198	5.12
398.407	31.74
398.617	-17.41
398.826	-39.94
399.035	72.7
399.244	25.6
399.453	99.33
399.663	50.18
399.872	80.89
400.081	11.26
400.29	146.43
400.499	-44.03
400.708	44.03
400.917	3.07
401.127	25.6
401.336	52.22
401.545	119.81
401.754	52.22
401.963	89.09
402.172	66.56
402.381	52.22
402.59	41.98
402.799	35.84
403.008	117.76
403.217	89.09
403.426	27.65
403.635	31.74
403.844	95.23
404.053	72.7
404.262	48.13
404.471	132.09
404.68	66.56
404.888	142.33
405.097	130.05
405.306	-27.65
405.515	39.94
405.724	82.94
405.933	27.65
406.142	39.94
406.35	58.37
406.559	113.66
406.768	132.09
406.977	66.56
407.185	50.18
407.394	93.18
407.603	56.32
407.812	25.6
408.02	107.52
408.229	82.94
408.438	117.76
408.646	154.62
408.855	99.33
409.064	89.09
409.272	97.28
409.481	91.13
409.69	111.61
409.898	140.29
410.107	72.7
410.315	130.05
410.524	160.77
410.733	146.43
410.941	183.29
411.15	203.77
411.358	230.4
411.567	181.25
411.775	191.49
411.984	173.05
412.192	220.16
412.401	166.91
412.609	259.07
412.818	244.73
413.026	318.46
413.234	228.35
413.443	259.07
413.651	240.64
413.86	236.54
414.068	310.27
414.276	351.23
414.485	304.12
414.693	324.6
414.901	343.03
415.11	302.08
415.318	351.23
415.526	406.52
415.734	330.75
415.943	398.33
416.151	373.75
416.359	394.23
416.567	398.33
416.776	449.53
416.984	506.87
417.192	513.02
417.4	455.67
417.608	459.77
417.817	488.44
418.025	599.03
418.233	549.88
418.441	576.5
418.649	556.02
418.857	619.51
419.065	709.62
419.273	627.7
419.481	680.95
419.689	689.14
419.897	752.63
420.105	771.06
420.313	705.53
420.521	779.25
420.729	818.16
420.937	902.13
421.145	879.6
421.353	990.19
421.561	1000.43
421.769	1055.73
421.977	1027.06
422.185	1090.54
422.393	1086.45
422.601	1164.27
422.809	1139.69
423.017	1174.51
423.224	1164.27
423.432	1299.44
423.64	1301.48
423.848	1356.78
424.056	1436.65
424.263	1383.4
424.471	1440.75
424.679	1401.83
424.887	1586.15
425.094	1625.06
425.302	1678.31
425.51	1739.75
425.718	1809.38
425.925	1797.09
426.133	1700.84
426.341	1883.11
426.548	2079.71
426.756	1983.46
426.964	1971.17
427.171	2206.69
427.379	2221.02
427.586	2210.78
427.794	2259.93
428.001	2345.95
428.209	2434.01
428.417	2440.15
428.624	2542.55
428.832	2632.66
429.039	2612.18
429.247	2577.37
429.454	2853.84
429.662	3158.99
429.869	2894.8
430.076	3140.56
430.284	2984.91
430.491	3124.18
430.699	3204.05
430.906	3345.36
431.114	3439.56
431.321	3503.05
431.528	3537.87
431.736	3785.67
431.943	4117.44
432.15	3922.88
432.358	3834.82
432.565	4185.02
432.772	4096.96
432.979	4359.1
433.187	4307.9
433.394	4414.4
433.601	4879.29
433.808	4598.71
434.016	4748.22
434.223	4903.86
434.43	5254.06
434.637	5135.28
434.844	5305.26
435.052	5534.64
435.259	5325.74
435.466	5331.89
435.673	5553.07
435.88	5733.29
436.087	6101.92
436.294	6163.36
436.501	6075.3
436.708	6214.56
436.915	6345.63
437.122	6503.32
437.329	6691.74
437.537	6826.9
437.743	6865.82
437.95	6855.58
438.157	7031.7
438.364	7424.91
438.571	7455.63
438.778	7498.64
438.985	8182.66
439.192	7908.23
439.399	8192.9
439.606	7848.84
439.813	8301.44
440.02	8997.75
440.227	8655.74
440.433	8543.1
440.64	8901.5
440.847	9020.28
441.054	9214.84
441.261	9714.54
441.467	9487.22
441.674	9710.44
441.881	10025.83
442.088	10187.62
442.294	9937.77
442.501	10136.42
442.708	10689.37
442.914	10838.87
443.121	11418.45
443.328	10990.42
443.534	11762.51
443.741	11793.23
443.948	11311.96
444.154	12260.16
444.361	12024.65
444.568	12110.66
444.774	12282.69
444.981	12426.05
445.187	12761.92
445.394	13191.99
445.6	13103.93
445.807	14383.91
446.013	13583.15
446.22	14005.03
446.426	14678.82
446.633	14695.2
446.839	15182.62
447.046	14570.27
447.252	15336.21
447.459	15366.93
447.665	15473.43
447.871	16313.1
448.078	16853.76
448.284	15790.86
448.491	16517.89
448.697	16978.68
448.903	17382.13
449.11	17079.04
449.316	17224.44
449.522	17490.68
449.728	18049.77
449.935	18133.74
450.141	18105.07
450.347	18662.12
450.553	17851.12
450.76	18201.32
450.966	18799.33
451.172	18383.59
451.378	19018.46
451.584	18803.43
451.791	19266.27
451.997	19317.47
452.203	19546.84
452.409	19487.45
452.615	19505.88
452.821	18684.64
453.027	18492.13
453.233	19559.13
453.44	18883.3
453.646	18967.26
453.852	19176.16
454.058	19526.36
454.264	18825.95
454.47	19415.77
454.676	18799.33
454.882	19456.73
455.088	17603.32
455.294	18012.91
455.5	18182.89
455.705	18758.37
455.911	17674.99
456.117	17584.88
456.323	17378.04
456.529	16562.95
456.735	17310.46
456.941	16763.65
457.147	16474.88
457.352	15717.14
457.558	15833.87
457.764	15760.14
457.97	15323.93
458.176	15297.3
458.381	15035.16
458.587	14412.58
458.793	14426.92
458.999	13640.5
459.204	14627.62
459.41	14355.24
459.616	13257.53
459.821	13493.04
460.027	13247.29
460.233	12942.14
460.438	12446.53
460.644	12536.64
460.85	12004.17
461.055	11866.95
461.261	11758.41
461.466	10804.06
461.672	10675.04
461.878	11346.77
462.083	10642.27
462.289	10402.66
462.494	10359.65
462.7	10007.4
462.905	9438.06
463.111	9775.98
463.316	9839.47
463.522	9798.51
463.727	9780.07
463.932	9657.2
464.138	9542.51
464.343	9669.48
464.549	9352.05
464.754	9538.41
464.959	9497.46
465.165	9339.76
465.37	9028.47
465.575	8803.19
465.781	9132.92
465.986	9218.93
466.191	8952.7
466.397	8510.33
466.602	8278.91
466.807	8551.29
467.012	8594.3
467.218	8608.64
