Data from USB4F104151__38__13-11-01-042.txt Node

Date: Fri Mar 14 13:11:01 EDT 2025
User: louis
Spectrometer: USB4F10415
Trigger mode: 4
Integration Time (sec): 2.000000E-2
Scans to average: 1
Electric dark correction enabled: true
Nonlinearity correction enabled: false
Boxcar width: 0
XAxis mode: Wavelengths
Number of Pixels in Spectrum: 3648
>>>>>Begin Spectral Data<<<<<
178.204	-109.74
178.424	-109.74
178.644	-109.74
178.864	-79.02
179.084	-62.63
179.304	76.63
179.524	-62.63
179.744	-3.24
179.964	7
180.184	-15.53
180.404	25.43
180.624	-13.48
180.844	52.05
181.064	-44.2
181.283	27.48
181.503	-25.77
181.723	-23.72
181.943	4.95
182.163	52.05
182.383	-15.53
182.602	17.24
182.822	41.81
183.042	9.05
183.262	23.38
183.482	13.14
183.701	62.29
183.921	21.33
184.141	29.52
184.361	-3.24
184.58	-17.58
184.8	70.48
185.02	-7.34
185.239	45.91
185.459	-17.58
185.679	93.01
185.898	23.38
186.118	78.68
186.338	17.24
186.557	52.05
186.777	41.81
186.997	39.76
187.216	37.72
187.436	140.12
187.655	-15.53
187.875	7
188.095	9.05
188.314	93.01
188.534	19.29
188.753	11.09
188.973	11.09
189.192	33.62
189.412	-46.25
189.631	72.53
189.851	47.96
190.07	41.81
190.29	2.9
190.509	-9.39
190.729	4.95
190.948	117.59
191.168	97.11
191.387	99.16
191.607	-9.39
191.826	33.62
192.045	2.9
192.265	62.29
192.484	41.81
192.704	107.35
192.923	-29.87
193.142	19.29
193.362	50
193.581	84.82
193.8	27.48
194.02	80.72
194.239	25.43
194.458	13.14
194.678	2.9
194.897	27.48
195.116	50
195.335	17.24
195.555	41.81
195.774	150.36
195.993	4.95
196.212	7
196.432	-17.58
196.651	74.58
196.87	21.33
197.089	140.12
197.308	68.44
197.528	84.82
197.747	9.05
197.966	-3.24
198.185	80.72
198.404	17.24
198.623	33.62
198.842	31.57
199.062	27.48
199.281	43.86
199.5	25.43
199.719	33.62
199.938	29.52
200.157	66.39
200.376	76.63
200.595	37.72
200.814	66.39
201.033	25.43
201.252	97.11
201.471	54.1
201.69	76.63
201.909	90.96
202.128	-27.82
202.347	35.67
202.566	-15.53
202.785	-9.39
203.004	45.91
203.223	45.91
203.442	27.48
203.661	115.54
203.879	29.52
204.098	99.16
204.317	39.76
204.536	0.85
204.755	4.95
204.974	23.38
205.193	-17.58
205.411	97.11
205.63	58.2
205.849	29.52
206.068	9.05
206.287	70.48
206.505	-7.34
206.724	-1.19
206.943	-33.96
207.162	17.24
207.381	-5.29
207.599	88.92
207.818	-46.25
208.037	54.1
208.255	-3.24
208.474	0.85
208.693	54.1
208.911	105.3
209.13	41.81
209.349	43.86
209.567	70.48
209.786	138.07
210.005	58.2
210.223	60.24
210.442	-21.67
210.661	41.81
210.879	68.44
211.098	17.24
211.316	37.72
211.535	15.19
211.753	25.43
211.972	-46.25
212.191	-15.53
212.409	2.9
212.628	-3.24
212.846	56.15
213.065	17.24
213.283	27.48
213.502	-11.43
213.72	11.09
213.938	2.9
214.157	84.82
214.375	60.24
214.594	-5.29
214.812	109.4
215.031	72.53
215.249	9.05
215.467	80.72
215.686	45.91
215.904	43.86
216.122	17.24
216.341	62.29
216.559	58.2
216.778	33.62
216.996	9.05
217.214	82.77
217.432	15.19
217.651	13.14
217.869	37.72
218.087	45.91
218.306	74.58
218.524	7
218.742	74.58
218.96	107.35
219.179	4.95
219.397	11.09
219.615	45.91
219.833	27.48
220.051	17.24
220.27	90.96
220.488	4.95
220.706	56.15
220.924	17.24
221.142	-15.53
221.36	70.48
221.578	56.15
221.796	-3.24
222.015	25.43
222.233	97.11
222.451	115.54
222.669	21.33
222.887	82.77
223.105	-27.82
223.323	-17.58
223.541	37.72
223.759	17.24
223.977	-44.2
224.195	33.62
224.413	76.63
224.631	35.67
224.849	27.48
225.067	97.11
225.285	13.14
225.503	88.92
225.721	-7.34
225.939	39.76
226.157	52.05
226.375	52.05
226.592	-36.01
226.81	76.63
227.028	-25.77
227.246	99.16
227.464	76.63
227.682	107.35
227.9	-66.73
228.117	13.14
228.335	50
228.553	39.76
228.771	21.33
228.989	4.95
229.206	105.3
229.424	-38.06
229.642	-1.19
229.86	66.39
230.077	33.62
230.295	97.11
230.513	25.43
230.731	127.83
230.948	74.58
231.166	76.63
231.384	11.09
231.601	27.48
231.819	52.05
232.037	-33.96
232.254	-7.34
232.472	66.39
232.689	90.96
232.907	43.86
233.125	33.62
233.342	78.68
233.56	-44.2
233.777	50
233.995	66.39
234.213	109.4
234.43	-36.01
234.648	29.52
234.865	27.48
235.083	35.67
235.3	82.77
235.518	-19.63
235.735	52.05
235.953	64.34
236.17	-3.24
236.388	78.68
236.605	9.05
236.822	68.44
237.04	97.11
237.257	45.91
237.475	54.1
237.692	50
237.909	19.29
238.127	21.33
238.344	-31.91
238.562	35.67
238.779	-13.48
238.996	50
239.214	76.63
239.431	74.58
239.648	2.9
239.865	66.39
240.083	-3.24
240.3	62.29
240.517	2.9
240.735	27.48
240.952	68.44
241.169	11.09
241.386	41.81
241.603	62.29
241.821	-31.91
242.038	35.67
242.255	54.1
242.472	27.48
242.689	-9.39
242.907	66.39
243.124	-17.58
243.341	23.38
243.558	0.85
243.775	19.29
243.992	17.24
244.209	27.48
244.426	11.09
244.643	29.52
244.86	29.52
245.078	27.48
245.295	29.52
245.512	95.06
245.729	-76.97
245.946	4.95
246.163	47.96
246.38	9.05
246.597	9.05
246.814	43.86
247.031	15.19
247.248	43.86
247.464	-38.06
247.681	74.58
247.898	95.06
248.115	82.77
248.332	25.43
248.549	70.48
248.766	109.4
248.983	-7.34
249.2	43.86
249.417	21.33
249.633	9.05
249.85	-5.29
250.067	37.72
250.284	-15.53
250.501	99.16
250.717	70.48
250.934	35.67
251.151	39.76
251.368	7
251.585	62.29
251.801	70.48
252.018	35.67
252.235	7
252.451	-11.43
252.668	39.76
252.885	2.9
253.102	35.67
253.318	17.24
253.535	17.24
253.752	56.15
253.968	33.62
254.185	56.15
254.401	45.91
254.618	66.39
254.835	17.24
255.051	58.2
255.268	-21.67
255.484	95.06
255.701	17.24
255.917	88.92
256.134	33.62
256.351	58.2
256.567	33.62
256.784	19.29
257	-31.91
257.217	11.09
257.433	25.43
257.65	56.15
257.866	47.96
258.082	11.09
258.299	-33.96
258.515	50
258.732	11.09
258.948	-3.24
259.165	21.33
259.381	31.57
259.597	84.82
259.814	-5.29
260.03	2.9
260.246	45.91
260.463	66.39
260.679	76.63
260.895	31.57
261.112	13.14
261.328	25.43
261.544	-36.01
261.761	99.16
261.977	56.15
262.193	-21.67
262.409	11.09
262.626	68.44
262.842	97.11
263.058	-38.06
263.274	50
263.49	13.14
263.707	27.48
263.923	-15.53
264.139	31.57
264.355	23.38
264.571	101.2
264.787	66.39
265.004	52.05
265.22	25.43
265.436	62.29
265.652	0.85
265.868	60.24
266.084	-11.43
266.3	56.15
266.516	9.05
266.732	56.15
266.948	35.67
267.164	-38.06
267.38	58.2
267.596	15.19
267.812	-11.43
268.028	-27.82
268.244	19.29
268.46	121.68
268.676	39.76
268.892	25.43
269.108	-48.3
269.324	-7.34
269.54	50
269.756	56.15
269.972	4.95
270.188	2.9
270.403	-27.82
270.619	105.3
270.835	35.67
271.051	19.29
271.267	7
271.483	90.96
271.698	41.81
271.914	76.63
272.13	-38.06
272.346	74.58
272.562	82.77
272.777	50
272.993	-3.24
273.209	37.72
273.425	82.77
273.64	17.24
273.856	29.52
274.072	45.91
274.287	56.15
274.503	41.81
274.719	84.82
274.934	35.67
275.15	-11.43
275.366	19.29
275.581	50
275.797	0.85
276.012	11.09
276.228	27.48
276.444	17.24
276.659	56.15
276.875	19.29
277.09	-11.43
277.306	0.85
277.521	99.16
277.737	-23.72
277.952	2.9
278.168	127.83
278.383	31.57
278.599	13.14
278.814	15.19
279.03	103.25
279.245	86.87
279.461	23.38
279.676	133.97
279.892	-7.34
280.107	23.38
280.322	39.76
280.538	35.67
280.753	50
280.969	-5.29
281.184	70.48
281.399	84.82
281.615	33.62
281.83	115.54
282.045	27.48
282.26	4.95
282.476	56.15
282.691	125.78
282.906	-1.19
283.122	7
283.337	-40.11
283.552	45.91
283.767	58.2
283.983	37.72
284.198	50
284.413	47.96
284.628	39.76
284.843	13.14
285.058	58.2
285.274	50
285.489	-40.11
285.704	146.26
285.919	-15.53
286.134	25.43
286.349	25.43
286.564	25.43
286.779	41.81
286.995	58.2
287.21	25.43
287.425	52.05
287.64	72.53
287.855	72.53
288.07	-17.58
288.285	17.24
288.5	25.43
288.715	68.44
288.93	19.29
289.145	56.15
289.36	99.16
289.575	2.9
289.79	-25.77
290.004	-21.67
290.219	72.53
290.434	41.81
290.649	84.82
290.864	-5.29
291.079	2.9
291.294	37.72
291.509	31.57
291.724	35.67
291.938	68.44
292.153	25.43
292.368	-1.19
292.583	90.96
292.798	-15.53
293.012	58.2
293.227	64.34
293.442	43.86
293.657	33.62
293.871	41.81
294.086	-31.91
294.301	101.2
294.516	66.39
294.73	121.68
294.945	54.1
295.16	60.24
295.374	13.14
295.589	17.24
295.804	-23.72
296.018	-5.29
296.233	33.62
296.447	117.59
296.662	70.48
296.877	25.43
297.091	64.34
297.306	35.67
297.52	-3.24
297.735	72.53
297.949	43.86
298.164	35.67
298.378	68.44
298.593	52.05
298.807	33.62
299.022	47.96
299.236	146.26
299.451	56.15
299.665	60.24
299.88	11.09
300.094	33.62
300.309	4.95
300.523	17.24
300.737	56.15
300.952	13.14
301.166	74.58
301.381	33.62
301.595	64.34
301.809	0.85
302.024	33.62
302.238	82.77
302.452	60.24
302.667	-76.97
302.881	37.72
303.095	19.29
303.309	62.29
303.524	-1.19
303.738	74.58
303.952	35.67
304.166	45.91
304.381	74.58
304.595	58.2
304.809	-42.15
305.023	23.38
305.237	39.76
305.452	60.24
305.666	7
305.88	58.2
306.094	9.05
306.308	7
306.522	136.02
306.736	82.77
306.95	-13.48
307.164	82.77
307.379	25.43
307.593	76.63
307.807	21.33
308.021	90.96
308.235	101.2
308.449	-13.48
308.663	-36.01
308.877	84.82
309.091	37.72
309.305	25.43
309.519	-3.24
309.733	27.48
309.947	19.29
310.161	-11.43
310.374	33.62
310.588	29.52
310.802	-17.58
311.016	-40.11
311.23	80.72
311.444	45.91
311.658	45.91
311.872	95.06
312.085	80.72
312.299	31.57
312.513	23.38
312.727	74.58
312.941	68.44
313.154	-11.43
313.368	56.15
313.582	84.82
313.796	4.95
314.009	76.63
314.223	74.58
314.437	58.2
314.651	19.29
314.864	99.16
315.078	35.67
315.292	25.43
315.505	64.34
315.719	-1.19
315.933	13.14
316.146	27.48
316.36	-31.91
316.573	76.63
316.787	17.24
317.001	19.29
317.214	-1.19
317.428	35.67
317.641	17.24
317.855	11.09
318.068	78.68
318.282	47.96
318.495	62.29
318.709	54.1
318.922	-5.29
319.136	62.29
319.349	39.76
319.563	82.77
319.776	84.82
319.99	41.81
320.203	117.59
320.417	35.67
320.63	80.72
320.843	27.48
321.057	70.48
321.27	33.62
321.483	58.2
321.697	62.29
321.91	-31.91
322.124	37.72
322.337	-15.53
322.55	66.39
322.763	-15.53
322.977	60.24
323.19	37.72
323.403	19.29
323.617	72.53
323.83	54.1
324.043	-62.63
324.256	19.29
324.469	35.67
324.683	52.05
324.896	23.38
325.109	54.1
325.322	54.1
325.535	50
325.748	27.48
325.962	50
326.175	76.63
326.388	19.29
326.601	62.29
326.814	-23.72
327.027	33.62
327.24	25.43
327.453	-23.72
327.666	105.3
327.879	35.67
328.092	19.29
328.305	45.91
328.518	84.82
328.731	45.91
328.944	50
329.157	45.91
329.37	33.62
329.583	148.31
329.796	58.2
330.009	19.29
330.222	66.39
330.435	60.24
330.648	29.52
330.861	27.48
331.073	17.24
331.286	54.1
331.499	35.67
331.712	27.48
331.925	37.72
332.138	66.39
332.35	39.76
332.563	27.48
332.776	50
332.989	45.91
333.202	13.14
333.414	82.77
333.627	23.38
333.84	31.57
334.053	-21.67
334.265	62.29
334.478	93.01
334.691	72.53
334.903	82.77
335.116	21.33
335.329	64.34
335.541	41.81
335.754	64.34
335.966	21.33
336.179	23.38
336.392	23.38
336.604	62.29
336.817	-5.29
337.029	9.05
337.242	-29.87
337.454	9.05
337.667	35.67
337.88	99.16
338.092	88.92
338.305	121.68
338.517	33.62
338.729	115.54
338.942	35.67
339.154	127.83
339.367	-7.34
339.579	86.87
339.792	-5.29
340.004	74.58
340.217	33.62
340.429	97.11
340.641	-19.63
340.854	35.67
341.066	70.48
341.278	66.39
341.491	82.77
341.703	9.05
341.915	78.68
342.128	111.44
342.34	-31.91
342.552	4.95
342.764	-17.58
342.977	62.29
343.189	37.72
343.401	-46.25
343.613	50
343.826	39.76
344.038	45.91
344.25	74.58
344.462	60.24
344.674	66.39
344.886	35.67
345.099	47.96
345.311	39.76
345.523	107.35
345.735	125.78
345.947	39.76
346.159	-5.29
346.371	93.01
346.583	50
346.795	58.2
347.007	68.44
347.219	45.91
347.431	-1.19
347.643	82.77
347.855	-13.48
348.067	84.82
348.279	35.67
348.491	72.53
348.703	90.96
348.915	19.29
349.127	62.29
349.339	31.57
349.551	84.82
349.763	-13.48
349.975	41.81
350.187	45.91
350.399	4.95
350.61	31.57
350.822	2.9
351.034	33.62
351.246	31.57
351.458	19.29
351.669	0.85
351.881	58.2
352.093	115.54
352.305	84.82
352.517	103.25
352.728	113.49
352.94	45.91
353.152	90.96
353.363	17.24
353.575	86.87
353.787	95.06
353.999	47.96
354.21	43.86
354.422	41.81
354.633	-27.82
354.845	99.16
355.057	41.81
355.268	39.76
355.48	74.58
355.692	56.15
355.903	62.29
356.115	39.76
356.326	-44.2
356.538	131.92
356.749	131.92
356.961	90.96
357.172	60.24
357.384	-46.25
357.595	54.1
357.807	50
358.018	60.24
358.23	60.24
358.441	133.97
358.653	15.19
358.864	7
359.075	19.29
359.287	109.4
359.498	84.82
359.709	29.52
359.921	45.91
360.132	-1.19
360.344	2.9
360.555	-1.19
360.766	25.43
360.977	74.58
361.189	17.24
361.4	86.87
361.611	82.77
361.823	-15.53
362.034	74.58
362.245	9.05
362.456	54.1
362.667	74.58
362.879	-31.91
363.09	35.67
363.301	43.86
363.512	45.91
363.723	68.44
363.935	-44.2
364.146	50
364.357	-3.24
364.568	66.39
364.779	9.05
364.99	90.96
365.201	-21.67
365.412	66.39
365.623	15.19
365.834	21.33
366.045	13.14
366.256	90.96
366.467	17.24
366.678	78.68
366.889	-5.29
367.1	-7.34
367.311	41.81
367.522	99.16
367.733	11.09
367.944	-5.29
368.155	50
368.366	70.48
368.577	64.34
368.788	58.2
368.999	54.1
369.209	-17.58
369.42	164.69
369.631	156.5
369.842	9.05
370.053	11.09
370.264	58.2
370.474	97.11
370.685	68.44
370.896	113.49
371.107	74.58
371.317	109.4
371.528	4.95
371.739	11.09
371.95	62.29
372.16	66.39
372.371	-13.48
372.582	17.24
372.792	111.44
373.003	62.29
373.214	-23.72
373.424	21.33
373.635	27.48
373.846	101.2
374.056	129.88
374.267	-36.01
374.477	66.39
374.688	74.58
374.898	29.52
375.109	27.48
375.319	17.24
375.53	86.87
375.74	60.24
375.951	45.91
376.161	58.2
376.372	64.34
376.582	21.33
376.793	54.1
377.003	9.05
377.214	74.58
377.424	62.29
377.635	52.05
377.845	4.95
378.055	117.59
378.266	4.95
378.476	33.62
378.686	37.72
378.897	115.54
379.107	70.48
379.317	68.44
379.528	54.1
379.738	84.82
379.948	68.44
380.158	93.01
380.369	37.72
380.579	95.06
380.789	37.72
380.999	35.67
381.21	101.2
381.42	50
381.63	19.29
381.84	50
382.05	86.87
382.261	43.86
382.471	68.44
382.681	-7.34
382.891	62.29
383.101	43.86
383.311	43.86
383.521	39.76
383.731	107.35
383.941	45.91
384.151	78.68
384.361	66.39
384.571	138.07
384.781	133.97
384.991	4.95
385.201	99.16
385.411	9.05
385.621	56.15
385.831	4.95
386.041	19.29
386.251	99.16
386.461	93.01
386.671	0.85
386.881	68.44
387.091	90.96
387.301	25.43
387.511	45.91
387.72	107.35
387.93	19.29
388.14	58.2
388.35	56.15
388.56	54.1
388.769	105.3
388.979	-1.19
389.189	41.81
389.399	115.54
389.609	47.96
389.818	25.43
390.028	62.29
390.238	97.11
390.447	47.96
390.657	47.96
390.867	17.24
391.076	84.82
391.286	45.91
391.496	52.05
391.705	115.54
391.915	58.2
392.125	105.3
392.334	13.14
392.544	27.48
392.753	60.24
392.963	39.76
393.172	72.53
393.382	93.01
393.591	183.12
393.801	-62.63
394.01	74.58
394.22	47.96
394.429	88.92
394.639	13.14
394.848	54.1
395.058	80.72
395.267	76.63
395.477	136.02
395.686	74.58
395.895	146.26
396.105	150.36
396.314	117.59
396.524	133.97
396.733	21.33
396.942	52.05
397.152	66.39
397.361	107.35
397.57	47.96
397.78	43.86
397.989	133.97
398.198	125.78
398.407	78.68
398.617	58.2
398.826	107.35
399.035	99.16
399.244	70.48
399.453	52.05
399.663	107.35
399.872	140.12
400.081	93.01
400.29	138.07
400.499	43.86
400.708	152.4
400.917	131.92
401.127	29.52
401.336	123.73
401.545	25.43
401.754	99.16
401.963	90.96
402.172	99.16
402.381	60.24
402.59	131.92
402.799	136.02
403.008	82.77
403.217	58.2
403.426	88.92
403.635	64.34
403.844	105.3
404.053	60.24
404.262	125.78
404.471	60.24
404.68	54.1
404.888	172.88
405.097	66.39
405.306	164.69
405.515	95.06
405.724	121.68
405.933	152.4
406.142	129.88
406.35	113.49
406.559	189.27
406.768	160.59
406.977	209.75
407.185	121.68
407.394	197.46
407.603	99.16
407.812	207.7
408.02	181.07
408.229	228.18
408.438	150.36
408.646	144.21
408.855	234.32
409.064	215.89
409.272	127.83
409.481	209.75
409.69	172.88
409.898	191.31
410.107	189.27
410.315	289.62
410.524	258.9
410.733	248.66
410.941	189.27
411.15	342.86
411.358	277.33
411.567	367.44
411.775	355.15
411.984	316.24
412.192	324.43
412.401	303.95
412.609	404.3
412.818	320.34
413.026	353.1
413.234	394.06
413.443	353.1
413.651	371.54
413.86	400.21
414.068	422.73
414.276	441.17
414.485	402.26
414.693	463.69
414.901	484.17
415.11	437.07
415.318	531.28
415.526	486.22
415.734	504.65
415.943	523.09
416.151	625.48
416.359	598.86
416.567	637.77
416.776	580.43
416.984	693.07
417.192	746.31
417.4	783.18
417.608	738.12
417.817	809.8
418.025	787.27
418.233	928.58
418.441	824.14
418.649	848.71
418.857	961.35
419.065	947.01
419.273	842.57
419.481	1110.85
419.689	1020.74
419.897	1141.57
420.105	1139.52
420.313	1164.1
420.521	1188.68
420.729	1108.8
420.937	1225.54
421.145	1289.03
421.353	1348.42
421.561	1448.77
421.769	1459.01
421.977	1540.93
422.185	1526.59
422.393	1645.37
422.601	1631.04
422.809	1653.56
423.017	1579.84
423.224	1753.91
423.432	1805.11
423.64	1927.99
423.848	1905.46
424.056	1995.57
424.263	1999.67
424.471	2079.54
424.679	2106.17
424.887	2270
425.094	2372.4
425.302	2351.92
425.51	2364.21
425.718	2538.29
425.925	2489.14
426.133	2468.66
426.341	2810.67
426.548	2810.67
426.756	2818.86
426.964	2798.38
427.171	2908.97
427.379	3107.62
427.586	3191.59
427.794	3316.51
428.001	3271.46
428.209	3576.61
428.417	3523.36
428.624	3681.05
428.832	3957.53
429.039	3683.1
429.247	3746.59
429.454	4082.46
429.662	4139.8
429.869	4182.81
430.076	4344.6
430.284	4193.05
430.491	4354.83
430.699	4709.13
430.906	4662.03
431.114	4662.03
431.321	5014.28
431.528	5088.01
431.736	5421.83
431.943	5636.86
432.15	5319.43
432.358	5415.68
432.565	5735.17
432.772	5554.94
432.979	5958.39
433.187	6198.01
433.394	6124.28
433.601	6527.73
433.808	6462.19
434.016	6630.13
434.223	6759.15
434.43	7185.13
434.637	7176.94
434.844	7574.24
435.052	7750.37
435.259	7768.8
435.466	7760.61
435.673	7672.54
435.88	8200.92
436.087	8626.9
436.294	8592.08
436.501	8450.77
436.708	8559.31
436.915	8704.72
437.122	9276.1
437.329	9286.34
437.537	9554.63
437.743	9640.64
437.95	9622.21
438.157	10277.56
438.364	10572.47
438.571	10601.14
438.778	10486.45
438.985	11543.21
439.192	11141.8
439.399	11489.96
439.606	10969.77
439.813	11575.97
440.02	12427.93
440.227	12264.09
440.433	11924.13
440.64	12546.71
440.847	12577.43
441.054	12839.57
441.261	13699.72
441.467	13394.57
441.674	13894.27
441.881	14238.33
442.088	14248.57
442.294	14084.73
442.501	14244.48
442.708	14795.38
442.914	15352.43
443.121	15979.11
443.328	15639.14
443.534	16738.9
443.741	16433.75
443.948	16132.7
444.154	17064.53
444.361	17060.43
444.568	17072.72
444.774	17209.93
444.981	17553.99
445.187	18065.99
445.394	18721.34
445.6	18453.05
445.807	20251.17
446.013	19511.85
446.22	19710.5
446.426	20513.31
446.633	20795.93
446.839	21533.2
447.046	20578.84
447.252	21758.47
447.459	21709.32
447.665	21393.93
447.871	22659.58
448.078	23405.04
448.284	22407.68
448.491	23214.58
448.697	24222.18
448.903	24336.87
449.11	24775.13
449.316	24390.11
449.522	24289.76
449.728	25276.88
449.935	25512.4
450.141	25588.17
450.347	26184.13
450.553	25360.85
450.76	25835.98
450.966	26462.66
451.172	26307.01
451.378	26849.72
451.584	26724.8
451.791	27394.48
451.997	27134.39
452.203	27324.85
452.409	27705.77
452.615	27328.95
452.821	26358.21
453.027	26212.81
453.233	27441.59
453.44	26620.35
453.646	26816.96
453.852	27640.24
454.058	27195.83
454.264	26466.75
454.47	27249.08
454.676	26673.6
454.882	27695.53
455.088	25096.66
455.294	25293.27
455.5	25698.77
455.705	25995.72
455.911	25217.49
456.117	24441.31
456.323	24414.69
456.529	23009.78
456.735	23882.22
456.941	23101.94
457.147	23302.64
457.352	22469.12
457.558	22323.71
457.764	22196.74
457.97	21639.69
458.176	21416.46
458.381	21385.74
458.587	20347.42
458.793	20488.73
458.999	19378.73
459.204	20793.88
459.41	20257.31
459.616	18725.43
459.821	18872.89
460.027	19063.35
460.233	18281.02
460.438	17476.17
460.644	17711.69
460.85	16863.83
461.055	16642.65
461.261	16599.64
461.466	15149.68
461.672	15020.66
461.878	15929.95
462.083	14776.95
462.289	14492.28
462.494	14348.92
462.7	13798.02
462.905	13419.14
463.111	13894.27
463.316	13922.94
463.522	13435.53
463.727	13574.79
463.932	13660.8
464.138	13453.96
464.343	13617.8
464.549	13157
464.754	13845.12
464.959	13517.45
465.165	13290.12
465.37	12778.13
465.575	12356.25
465.781	12941.97
465.986	12925.58
466.191	12853.91
466.397	12233.37
466.602	11676.32
466.807	12167.84
467.012	11954.85
467.218	11977.37
467.423	12094.11
467.628	12165.79
467.833	12423.83
468.038	11821.73
468.244	11872.93
468.449	12157.6
468.654	11700.9
468.859	11831.97
469.064	11541.16
469.269	11365.03
469.474	11340.46
