Data from USB4F104151__47__13-11-15-521.txt Node

Date: Fri Mar 14 13:11:15 EDT 2025
User: louis
Spectrometer: USB4F10415
Trigger mode: 4
Integration Time (sec): 2.000000E-2
Scans to average: 1
Electric dark correction enabled: true
Nonlinearity correction enabled: false
Boxcar width: 0
XAxis mode: Wavelengths
Number of Pixels in Spectrum: 3648
>>>>>Begin Spectral Data<<<<<
178.204	-94.72
178.424	-94.72
178.644	-94.72
178.864	-119.29
179.084	-78.33
179.304	-88.57
179.524	65.02
179.744	11.78
179.964	-14.85
180.184	7.68
180.404	-49.66
180.624	22.02
180.844	48.64
181.064	3.58
181.283	-31.23
181.503	-29.18
181.723	54.78
181.943	9.73
182.163	91.65
182.383	50.69
182.602	56.83
182.822	75.26
183.042	1.54
183.262	9.73
183.482	-18.94
183.701	-29.18
183.921	-8.7
184.141	13.82
184.361	1.54
184.58	38.4
184.8	-45.57
185.02	-33.28
185.239	5.63
185.459	-8.7
185.679	97.79
185.898	19.97
186.118	-72.19
186.338	-25.09
186.557	42.5
186.777	3.58
186.997	-49.66
187.216	-14.85
187.436	11.78
187.655	11.78
187.875	26.11
188.095	-115.2
188.314	50.69
188.534	89.6
188.753	32.26
188.973	-33.28
189.192	17.92
189.412	46.59
189.631	-27.14
189.851	5.63
190.07	22.02
190.29	-6.66
190.509	3.58
190.729	28.16
190.948	93.69
191.168	138.75
191.387	15.87
191.607	-16.9
191.826	50.69
192.045	30.21
192.265	50.69
192.484	-41.47
192.704	48.64
192.923	22.02
193.142	69.12
193.362	22.02
193.581	42.5
193.8	62.98
194.02	1.54
194.239	-37.38
194.458	38.4
194.678	42.5
194.897	5.63
195.116	11.78
195.335	9.73
195.555	58.88
195.774	50.69
195.993	-6.66
196.212	17.92
196.432	36.35
196.651	52.74
196.87	17.92
197.089	52.74
197.308	50.69
197.528	26.11
197.747	60.93
197.966	1.54
198.185	105.98
198.404	-10.75
198.623	-12.8
198.842	48.64
199.062	108.03
199.281	13.82
199.5	-2.56
199.719	42.5
199.938	34.3
200.157	48.64
200.376	-12.8
200.595	13.82
200.814	-68.09
201.033	97.79
201.252	40.45
201.471	11.78
201.69	36.35
201.909	9.73
202.128	11.78
202.347	-29.18
202.566	13.82
202.785	5.63
203.004	-49.66
203.223	62.98
203.442	26.11
203.661	69.12
203.879	26.11
204.098	-51.71
204.317	17.92
204.536	85.5
204.755	11.78
204.974	93.69
205.193	62.98
205.411	24.06
205.63	26.11
205.849	-45.57
206.068	-20.99
206.287	67.07
206.505	38.4
206.724	-39.42
206.943	-72.19
207.162	75.26
207.381	9.73
207.599	40.45
207.818	79.36
208.037	34.3
208.255	24.06
208.474	-6.66
208.693	32.26
208.911	69.12
209.13	44.54
209.349	77.31
209.567	46.59
209.786	13.82
210.005	81.41
210.223	36.35
210.442	-51.71
210.661	-4.61
210.879	15.87
211.098	-2.56
211.316	26.11
211.535	3.58
211.753	99.84
211.972	13.82
212.191	-14.85
212.409	62.98
212.628	7.68
212.846	22.02
213.065	48.64
213.283	77.31
213.502	30.21
213.72	71.17
213.938	26.11
214.157	40.45
214.375	-10.75
214.594	-14.85
214.812	34.3
215.031	3.58
215.249	11.78
215.467	42.5
215.686	52.74
215.904	-4.61
216.122	32.26
216.341	-10.75
216.559	71.17
216.778	34.3
216.996	42.5
217.214	48.64
217.432	24.06
217.651	-37.38
217.869	-31.23
218.087	56.83
218.306	-53.76
218.524	32.26
218.742	28.16
218.96	65.02
219.179	46.59
219.397	101.89
219.615	40.45
219.833	38.4
220.051	9.73
220.27	-4.61
220.488	46.59
220.706	44.54
220.924	-25.09
221.142	52.74
221.36	26.11
221.578	50.69
221.796	7.68
222.015	103.93
222.233	-25.09
222.451	116.22
222.669	-78.33
222.887	5.63
223.105	-10.75
223.323	-4.61
223.541	17.92
223.759	19.97
223.977	-23.04
224.195	120.32
224.413	30.21
224.631	-8.7
224.849	11.78
225.067	65.02
225.285	28.16
225.503	60.93
225.721	-100.86
225.939	28.16
226.157	-16.9
226.375	71.17
226.592	13.82
226.81	-35.33
227.028	24.06
227.246	69.12
227.464	46.59
227.682	32.26
227.9	36.35
228.117	38.4
228.335	67.07
228.553	54.78
228.771	-0.51
228.989	54.78
229.206	7.68
229.424	-29.18
229.642	5.63
229.86	-18.94
230.077	52.74
230.295	38.4
230.513	-18.94
230.731	-4.61
230.948	46.59
231.166	-2.56
231.384	32.26
231.601	-2.56
231.819	11.78
232.037	28.16
232.254	1.54
232.472	-47.62
232.689	5.63
232.907	40.45
233.125	11.78
233.342	-59.9
233.56	40.45
233.777	26.11
233.995	-16.9
234.213	36.35
234.43	-0.51
234.648	-39.42
234.865	17.92
235.083	-6.66
235.3	-16.9
235.518	-64
235.735	60.93
235.953	99.84
236.17	-41.47
236.388	50.69
236.605	-23.04
236.822	95.74
237.04	50.69
237.257	1.54
237.475	54.78
237.692	-18.94
237.909	58.88
238.127	1.54
238.344	56.83
238.562	52.74
238.779	-29.18
238.996	54.78
239.214	42.5
239.431	-23.04
239.648	11.78
239.865	38.4
240.083	19.97
240.3	-6.66
240.517	30.21
240.735	87.55
240.952	110.08
241.169	79.36
241.386	-39.42
241.603	-20.99
241.821	-16.9
242.038	87.55
242.255	42.5
242.472	81.41
242.689	44.54
242.907	26.11
243.124	19.97
243.341	38.4
243.558	48.64
243.775	24.06
243.992	42.5
244.209	-6.66
244.426	93.69
244.643	22.02
244.86	38.4
245.078	95.74
245.295	52.74
245.512	-14.85
245.729	42.5
245.946	-2.56
246.163	19.97
246.38	69.12
246.597	1.54
246.814	-8.7
247.031	56.83
247.248	50.69
247.464	17.92
247.681	79.36
247.898	42.5
248.115	17.92
248.332	-25.09
248.549	26.11
248.766	71.17
248.983	118.27
249.2	-4.61
249.417	28.16
249.633	-6.66
249.85	36.35
250.067	-8.7
250.284	22.02
250.501	58.88
250.717	46.59
250.934	9.73
251.151	77.31
251.368	-29.18
251.585	26.11
251.801	69.12
252.018	17.92
252.235	28.16
252.451	9.73
252.668	40.45
252.885	28.16
253.102	9.73
253.318	75.26
253.535	-23.04
253.752	-47.62
253.968	19.97
254.185	17.92
254.401	9.73
254.618	-8.7
254.835	9.73
255.051	89.6
255.268	73.21
255.484	17.92
255.701	1.54
255.917	-14.85
256.134	7.68
256.351	19.97
256.567	-39.42
256.784	73.21
257	48.64
257.217	-33.28
257.433	58.88
257.65	11.78
257.866	34.3
258.082	-27.14
258.299	-2.56
258.515	-2.56
258.732	-35.33
258.948	30.21
259.165	-14.85
259.381	5.63
259.597	42.5
259.814	19.97
260.03	56.83
260.246	58.88
260.463	54.78
260.679	50.69
260.895	42.5
261.112	5.63
261.328	-18.94
261.544	-27.14
261.761	28.16
261.977	77.31
262.193	36.35
262.409	69.12
262.626	3.58
262.842	48.64
263.058	-12.8
263.274	-14.85
263.49	-14.85
263.707	44.54
263.923	56.83
264.139	56.83
264.355	9.73
264.571	93.69
264.787	-18.94
265.004	13.82
265.22	48.64
265.436	34.3
265.652	-64
265.868	19.97
266.084	15.87
266.3	67.07
266.516	-29.18
266.732	19.97
266.948	42.5
267.164	52.74
267.38	77.31
267.596	13.82
267.812	69.12
268.028	-55.81
268.244	48.64
268.46	-18.94
268.676	-2.56
268.892	17.92
269.108	24.06
269.324	99.84
269.54	-2.56
269.756	-18.94
269.972	-35.33
270.188	-31.23
270.403	1.54
270.619	-59.9
270.835	77.31
271.051	79.36
271.267	42.5
271.483	17.92
271.698	134.65
271.914	17.92
272.13	7.68
272.346	65.02
272.562	9.73
272.777	85.5
272.993	-74.24
273.209	9.73
273.425	1.54
273.64	-86.53
273.856	58.88
274.072	-25.09
274.287	42.5
274.503	120.32
274.719	1.54
274.934	9.73
275.15	-45.57
275.366	73.21
275.581	17.92
275.797	89.6
276.012	-14.85
276.228	-0.51
276.444	56.83
276.659	-20.99
276.875	17.92
277.09	11.78
277.306	22.02
277.521	7.68
277.737	9.73
277.952	46.59
278.168	52.74
278.383	5.63
278.599	24.06
278.814	30.21
279.03	101.89
279.245	52.74
279.461	54.78
279.676	24.06
279.892	36.35
280.107	69.12
280.322	19.97
280.538	22.02
280.753	17.92
280.969	-20.99
281.184	52.74
281.399	93.69
281.615	3.58
281.83	11.78
282.045	-18.94
282.26	19.97
282.476	9.73
282.691	19.97
282.906	30.21
283.122	-6.66
283.337	-6.66
283.552	9.73
283.767	58.88
283.983	40.45
284.198	54.78
284.413	83.45
284.628	7.68
284.843	-64
285.058	36.35
285.274	9.73
285.489	3.58
285.704	83.45
285.919	15.87
286.134	-53.76
286.349	17.92
286.564	-2.56
286.779	79.36
286.995	17.92
287.21	69.12
287.425	91.65
287.64	11.78
287.855	-4.61
288.07	42.5
288.285	22.02
288.5	67.07
288.715	77.31
288.93	-6.66
289.145	9.73
289.36	9.73
289.575	-12.8
289.79	-14.85
290.004	52.74
290.219	77.31
290.434	17.92
290.649	62.98
290.864	93.69
291.079	79.36
291.294	-37.38
291.509	19.97
291.724	13.82
291.938	58.88
292.153	9.73
292.368	-18.94
292.583	3.58
292.798	3.58
293.012	58.88
293.227	-4.61
293.442	-23.04
293.657	60.93
293.871	46.59
294.086	73.21
294.301	48.64
294.516	-2.56
294.73	-39.42
294.945	-29.18
295.16	9.73
295.374	-29.18
295.589	54.78
295.804	-25.09
296.018	3.58
296.233	42.5
296.447	-0.51
296.662	9.73
296.877	54.78
297.091	-4.61
297.306	50.69
297.52	30.21
297.735	1.54
297.949	19.97
298.164	15.87
298.378	58.88
298.593	60.93
298.807	-29.18
299.022	-31.23
299.236	19.97
299.451	91.65
299.665	60.93
299.88	-18.94
300.094	42.5
300.309	50.69
300.523	5.63
300.737	19.97
300.952	48.64
301.166	30.21
301.381	24.06
301.595	30.21
301.809	87.55
302.024	69.12
302.238	24.06
302.452	101.89
302.667	-37.38
302.881	85.5
303.095	1.54
303.309	42.5
303.524	22.02
303.738	17.92
303.952	44.54
304.166	17.92
304.381	-12.8
304.595	52.74
304.809	38.4
305.023	67.07
305.237	-6.66
305.452	42.5
305.666	7.68
305.88	11.78
306.094	1.54
306.308	42.5
306.522	65.02
306.736	52.74
306.95	19.97
307.164	52.74
307.379	38.4
307.593	36.35
307.807	93.69
308.021	83.45
308.235	69.12
308.449	3.58
308.663	-31.23
308.877	124.41
309.091	75.26
309.305	62.98
309.519	-27.14
309.733	87.55
309.947	-12.8
310.161	-20.99
310.374	24.06
310.588	19.97
310.802	69.12
311.016	38.4
311.23	38.4
311.444	34.3
311.658	15.87
311.872	36.35
312.085	79.36
312.299	44.54
312.513	15.87
312.727	58.88
312.941	44.54
313.154	144.89
313.368	30.21
313.582	58.88
313.796	26.11
314.009	26.11
314.223	50.69
314.437	28.16
314.651	26.11
314.864	13.82
315.078	-29.18
315.292	32.26
315.505	11.78
315.719	34.3
315.933	1.54
316.146	5.63
316.36	1.54
316.573	34.3
316.787	60.93
317.001	67.07
317.214	60.93
317.428	15.87
317.641	46.59
317.855	95.74
318.068	56.83
318.282	5.63
318.495	17.92
318.709	11.78
318.922	48.64
319.136	44.54
319.349	9.73
319.563	15.87
319.776	99.84
319.99	124.41
320.203	65.02
320.417	60.93
320.63	52.74
320.843	132.61
321.057	-68.09
321.27	-6.66
321.483	-35.33
321.697	17.92
321.91	22.02
322.124	40.45
322.337	13.82
322.55	77.31
322.763	71.17
322.977	1.54
323.19	69.12
323.403	9.73
323.617	19.97
323.83	67.07
324.043	36.35
324.256	40.45
324.469	-0.51
324.683	32.26
324.896	69.12
325.109	24.06
325.322	42.5
325.535	118.27
325.748	-6.66
325.962	-27.14
326.175	46.59
326.388	-10.75
326.601	19.97
326.814	52.74
327.027	17.92
327.24	30.21
327.453	-31.23
327.666	101.89
327.879	114.17
328.092	67.07
328.305	36.35
328.518	46.59
328.731	-33.28
328.944	54.78
329.157	28.16
329.37	79.36
329.583	91.65
329.796	38.4
330.009	-27.14
330.222	-64
330.435	-23.04
330.648	-6.66
330.861	-35.33
331.073	110.08
331.286	56.83
331.499	91.65
331.712	36.35
331.925	38.4
332.138	40.45
332.35	54.78
332.563	-25.09
332.776	79.36
332.989	-4.61
333.202	5.63
333.414	15.87
333.627	69.12
333.84	97.79
334.053	-8.7
334.265	38.4
334.478	103.93
334.691	3.58
334.903	52.74
335.116	-0.51
335.329	11.78
335.541	60.93
335.754	58.88
335.966	56.83
336.179	-25.09
336.392	26.11
336.604	97.79
336.817	52.74
337.029	-20.99
337.242	7.68
337.454	36.35
337.667	30.21
337.88	1.54
338.092	38.4
338.305	44.54
338.517	-6.66
338.729	50.69
338.942	108.03
339.154	-4.61
339.367	-29.18
339.579	67.07
339.792	-18.94
340.004	1.54
340.217	48.64
340.429	54.78
340.641	11.78
340.854	85.5
341.066	19.97
341.278	52.74
341.491	65.02
341.703	32.26
341.915	-6.66
342.128	42.5
342.34	108.03
342.552	9.73
342.764	32.26
342.977	1.54
343.189	52.74
343.401	38.4
343.613	5.63
343.826	30.21
344.038	26.11
344.25	42.5
344.462	-51.71
344.674	-18.94
344.886	67.07
345.099	89.6
345.311	-0.51
345.523	-18.94
345.735	1.54
345.947	-20.99
346.159	24.06
346.371	65.02
346.583	116.22
346.795	99.84
347.007	38.4
347.219	28.16
347.431	-4.61
347.643	91.65
347.855	26.11
348.067	87.55
348.279	-31.23
348.491	24.06
348.703	83.45
348.915	34.3
349.127	-53.76
349.339	32.26
349.551	1.54
349.763	101.89
349.975	-23.04
350.187	67.07
350.399	73.21
350.61	91.65
350.822	-14.85
351.034	28.16
351.246	30.21
351.458	95.74
351.669	3.58
351.881	77.31
352.093	50.69
352.305	87.55
352.517	3.58
352.728	118.27
352.94	56.83
353.152	67.07
353.363	52.74
353.575	60.93
353.787	60.93
353.999	79.36
354.21	44.54
354.422	44.54
354.633	36.35
354.845	-23.04
355.057	108.03
355.268	99.84
355.48	13.82
355.692	30.21
355.903	-64
356.115	17.92
356.326	-33.28
356.538	54.78
356.749	36.35
356.961	58.88
357.172	22.02
357.384	26.11
357.595	173.57
357.807	-4.61
358.018	38.4
358.23	-10.75
358.441	110.08
358.653	73.21
358.864	56.83
359.075	3.58
359.287	34.3
359.498	-12.8
359.709	73.21
359.921	-39.42
360.132	36.35
360.344	65.02
360.555	91.65
360.766	26.11
360.977	75.26
361.189	75.26
361.4	67.07
361.611	75.26
361.823	95.74
362.034	93.69
362.245	-33.28
362.456	22.02
362.667	38.4
362.879	-25.09
363.09	79.36
363.301	30.21
363.512	62.98
363.723	50.69
363.935	50.69
364.146	54.78
364.357	28.16
364.568	26.11
364.779	93.69
364.99	11.78
365.201	-4.61
365.412	108.03
365.623	11.78
365.834	110.08
366.045	13.82
366.256	30.21
366.467	99.84
366.678	-2.56
366.889	-6.66
367.1	153.09
367.311	85.5
367.522	9.73
367.733	85.5
367.944	-12.8
368.155	17.92
368.366	-10.75
368.577	44.54
368.788	54.78
368.999	48.64
369.209	34.3
369.42	65.02
369.631	128.51
369.842	34.3
370.053	42.5
370.264	69.12
370.474	17.92
370.685	75.26
370.896	46.59
371.107	73.21
371.317	42.5
371.528	52.74
371.739	97.79
371.95	83.45
372.16	22.02
372.371	28.16
372.582	-35.33
372.792	93.69
373.003	38.4
373.214	34.3
373.424	60.93
373.635	15.87
373.846	32.26
374.056	3.58
374.267	108.03
374.477	110.08
374.688	26.11
374.898	75.26
375.109	24.06
375.319	-37.38
375.53	69.12
375.74	19.97
375.951	1.54
376.161	28.16
376.372	101.89
376.582	17.92
376.793	-0.51
377.003	9.73
377.214	22.02
377.424	-2.56
377.635	58.88
377.845	5.63
378.055	69.12
378.266	5.63
378.476	9.73
378.686	103.93
378.897	69.12
379.107	-49.66
379.317	42.5
379.528	34.3
379.738	140.8
379.948	-86.53
380.158	-29.18
380.369	1.54
380.579	85.5
380.789	56.83
380.999	52.74
381.21	-0.51
381.42	81.41
381.63	22.02
381.84	34.3
382.05	38.4
382.261	60.93
382.471	7.68
382.681	9.73
382.891	50.69
383.101	83.45
383.311	-0.51
383.521	79.36
383.731	13.82
383.941	50.69
384.151	-31.23
384.361	36.35
384.571	79.36
384.781	62.98
384.991	52.74
385.201	9.73
385.411	89.6
385.621	110.08
385.831	-20.99
386.041	28.16
386.251	22.02
386.461	140.8
386.671	54.78
386.881	128.51
387.091	7.68
387.301	-4.61
387.511	67.07
387.72	5.63
387.93	85.5
388.14	15.87
388.35	13.82
388.56	-0.51
388.769	73.21
388.979	58.88
389.189	52.74
389.399	-2.56
389.609	46.59
389.818	75.26
390.028	17.92
390.238	44.54
390.447	-51.71
390.657	89.6
390.867	-29.18
391.076	34.3
391.286	73.21
391.496	79.36
391.705	-53.76
391.915	132.61
392.125	140.8
392.334	67.07
392.544	71.17
392.753	79.36
392.963	54.78
393.172	44.54
393.382	5.63
393.591	42.5
393.801	28.16
394.01	75.26
394.22	58.88
394.429	36.35
394.639	34.3
394.848	79.36
395.058	-12.8
395.267	99.84
395.477	65.02
395.686	91.65
395.895	40.45
396.105	126.46
396.314	52.74
396.524	52.74
396.733	73.21
396.942	114.17
397.152	101.89
397.361	58.88
397.57	81.41
397.78	67.07
397.989	67.07
398.198	167.42
398.407	91.65
398.617	75.26
398.826	77.31
399.035	136.7
399.244	50.69
399.453	142.85
399.663	87.55
399.872	132.61
400.081	67.07
400.29	11.78
400.499	56.83
400.708	114.17
400.917	22.02
401.127	60.93
401.336	52.74
401.545	169.47
401.754	108.03
401.963	44.54
402.172	81.41
402.381	67.07
402.59	116.22
402.799	124.41
403.008	91.65
403.217	62.98
403.426	50.69
403.635	52.74
403.844	65.02
404.053	95.74
404.262	36.35
404.471	153.09
404.68	144.89
404.888	148.99
405.097	122.37
405.306	81.41
405.515	97.79
405.724	112.13
405.933	138.75
406.142	112.13
406.35	169.47
406.559	155.13
406.768	177.66
406.977	210.43
407.185	200.19
407.394	99.84
407.603	151.04
407.812	153.09
408.02	175.61
408.229	136.7
408.438	167.42
408.646	192
408.855	177.66
409.064	208.38
409.272	220.67
409.481	122.37
409.69	196.09
409.898	163.33
410.107	200.19
410.315	202.24
410.524	202.24
410.733	230.91
410.941	230.91
411.15	232.96
411.358	298.49
411.567	312.83
411.775	282.11
411.984	345.59
412.192	316.92
412.401	312.83
412.609	386.55
412.818	454.14
413.026	368.12
413.234	380.41
413.443	429.56
413.651	443.9
413.86	368.12
414.068	476.66
414.276	484.86
414.485	452.09
414.693	613.88
414.901	574.97
415.11	488.95
415.318	429.56
415.526	513.53
415.734	558.58
415.943	605.69
416.151	634.36
416.359	634.36
416.567	630.26
416.776	665.08
416.984	714.23
417.192	775.67
417.4	843.25
417.608	724.47
417.817	742.9
418.025	865.78
418.233	949.75
418.441	876.02
418.649	855.54
418.857	935.41
419.065	968.18
419.273	923.12
419.481	978.42
419.689	1138.16
419.897	1129.97
420.105	1156.59
420.313	1240.56
420.521	1254.89
420.729	1160.69
420.937	1361.39
421.145	1299.95
421.353	1316.33
421.561	1496.55
421.769	1441.26
421.977	1533.42
422.185	1521.13
422.393	1592.81
422.601	1734.12
422.809	1725.93
423.017	1748.45
423.224	1791.46
423.432	1803.75
423.64	1844.71
423.848	2065.89
424.056	2043.36
424.263	2201.05
424.471	2055.65
424.679	2117.09
424.887	2313.69
425.094	2362.84
425.302	2334.17
425.51	2401.76
425.718	2604.5
425.925	2528.73
426.133	2797.01
426.341	2864.6
426.548	2954.71
426.756	3007.95
426.964	3032.53
427.171	3302.86
427.379	3206.61
427.586	3356.11
427.794	3323.34
428.001	3513.8
428.209	3679.69
428.417	3579.34
428.624	3743.17
428.832	3888.58
429.039	3935.68
429.247	3978.69
429.454	4234.69
429.662	4527.55
429.869	4462.01
430.076	4588.99
430.284	4462.01
430.491	4607.42
430.699	4836.79
430.906	4744.63
431.114	4718.01
431.321	4994.48
431.528	5313.97
431.736	5422.51
431.943	5848.49
432.15	5686.7
432.358	5836.2
432.565	5979.56
432.772	6208.93
432.979	6446.49
433.187	6348.19
433.394	6559.13
433.601	6981.01
433.808	6976.92
434.016	7021.97
434.223	7107.99
434.43	7478.67
434.637	7327.12
434.844	7742.86
435.052	8048.01
435.259	8189.32
435.466	8242.56
435.673	7974.28
435.88	8629.63
436.087	9006.45
436.294	9074.04
436.501	8922.49
436.708	9311.6
436.915	9489.78
437.122	9749.87
437.329	9635.18
437.537	9999.72
437.743	10190.18
437.95	10186.08
438.157	10773.85
438.364	11015.51
438.571	10902.87
438.778	10949.98
438.985	12053.83
439.192	11791.69
439.399	12102.98
439.606	11732.3
439.813	12428.61
440.02	13190.45
440.227	12707.13
440.433	12846.4
440.64	13364.53
440.847	13194.55
441.054	13616.43
441.261	14470.44
441.467	14230.82
441.674	14478.63
441.881	15019.29
442.088	14959.9
442.294	14769.44
442.501	15295.77
442.708	15564.05
442.914	16196.87
443.121	16745.73
443.328	16583.94
443.534	17550.58
443.741	17347.83
443.948	16690.43
444.154	18107.63
444.361	18152.68
444.568	18234.6
444.774	18238.7
444.981	18269.42
445.187	18992.35
445.394	19573.97
445.6	19272.92
445.807	21259.45
446.013	20407.5
446.22	20913.34
446.426	21564.6
446.633	21802.16
446.839	22729.89
447.046	21734.58
447.252	22656.17
447.459	23073.95
447.665	22795.43
447.871	24188.05
448.078	25220.22
448.284	23747.73
448.491	24331.4
448.697	25642.1
448.903	25767.03
449.11	25871.48
449.316	25355.39
449.522	26354.8
449.728	26899.56
449.935	27401.31
450.141	27047.01
450.347	27257.95
450.553	26844.26
450.76	26971.24
450.966	28312.66
451.172	27952.21
451.378	28449.87
451.584	27878.49
451.791	28605.52
451.997	28488.78
452.203	29183.04
452.409	29076.55
452.615	29156.42
452.821	27663.45
453.027	27743.32
453.233	29201.47
453.44	27735.13
453.646	28398.67
453.852	28542.03
454.058	29025.35
454.264	28144.72
454.47	28609.61
454.676	27946.07
454.882	28998.73
455.088	26438.76
455.294	26965.09
455.5	27667.55
455.705	27771.99
455.911	26809.45
456.117	25869.43
456.323	25619.58
456.529	24407.18
456.735	25799.8
456.941	24962.18
457.147	24425.61
457.352	23538.84
457.558	23504.03
457.764	23878.8
457.97	23219.36
458.176	22473.9
458.381	22690.98
458.587	21623.99
458.793	21294.27
458.999	20210.89
459.204	21865.65
459.41	21146.81
459.616	19989.71
459.821	19932.37
460.027	19901.65
460.233	19277.02
460.438	18435.3
460.644	18734.31
460.85	17827.06
461.055	17472.76
461.261	17546.48
461.466	16123.15
461.672	15826.19
461.878	16735.49
462.083	15643.92
462.289	15529.24
462.494	15543.57
462.7	14634.27
462.905	14308.65
463.111	14701.86
463.316	14720.29
463.522	14634.27
463.727	14423.33
463.932	14439.72
464.138	14257.45
464.343	14202.15
464.549	13907.24
464.754	14406.95
464.959	14026.03
465.165	14265.64
465.37	13600.05
465.575	13282.61
465.781	13735.21
465.986	13864.24
466.191	13315.38
466.397	12950.84
466.602	12533.06
466.807	12977.47
467.012	12854.59
467.218	12723.52
467.423	12528.96
467.628	12520.77
467.833	13305.14
468.038	12678.46
468.244	12576.06
468.449	12963.13
468.654	12641.6
