Data from USB4F104151__43__13-11-09-101.txt Node

Date: Fri Mar 14 13:11:09 EDT 2025
User: louis
Spectrometer: USB4F10415
Trigger mode: 4
Integration Time (sec): 2.000000E-2
Scans to average: 1
Electric dark correction enabled: true
Nonlinearity correction enabled: false
Boxcar width: 0
XAxis mode: Wavelengths
Number of Pixels in Spectrum: 3648
>>>>>Begin Spectral Data<<<<<
178.204	-114.17
178.424	-114.17
178.644	-114.17
178.864	-38.4
179.084	-128.51
179.304	-56.83
179.524	-9.73
179.744	-87.55
179.964	27.14
180.184	6.66
180.404	39.42
180.624	41.47
180.844	18.94
181.064	-34.3
181.283	57.86
181.503	-5.63
181.723	2.56
181.943	-50.69
182.163	25.09
182.383	-11.78
182.602	14.85
182.822	14.85
183.042	-13.82
183.262	-50.69
183.482	14.85
183.701	-38.4
183.921	-69.12
184.141	-46.59
184.361	25.09
184.58	-56.83
184.8	8.7
185.02	-81.41
185.239	-15.87
185.459	-83.45
185.679	-9.73
185.898	-7.68
186.118	-34.3
186.338	2.56
186.557	82.43
186.777	0.51
186.997	-42.5
187.216	-1.54
187.436	43.52
187.655	20.99
187.875	43.52
188.095	-85.5
188.314	-15.87
188.534	-19.97
188.753	25.09
188.973	39.42
189.192	14.85
189.412	33.28
189.631	-28.16
189.851	-7.68
190.07	74.24
190.29	-44.54
190.509	31.23
190.729	6.66
190.948	-7.68
191.168	49.66
191.387	43.52
191.607	-32.26
191.826	49.66
192.045	-22.02
192.265	-65.02
192.484	0.51
192.704	25.09
192.923	-1.54
193.142	80.38
193.362	39.42
193.581	80.38
193.8	31.23
194.02	2.56
194.239	84.48
194.458	-54.78
194.678	8.7
194.897	6.66
195.116	14.85
195.335	-1.54
195.555	33.28
195.774	-26.11
195.993	57.86
196.212	39.42
196.432	57.86
196.651	43.52
196.87	-30.21
197.089	39.42
197.308	33.28
197.528	41.47
197.747	39.42
197.966	33.28
198.185	-1.54
198.404	96.77
198.623	10.75
198.842	2.56
199.062	68.09
199.281	12.8
199.5	-42.5
199.719	51.71
199.938	2.56
200.157	12.8
200.376	88.57
200.595	43.52
200.814	0.51
201.033	-17.92
201.252	31.23
201.471	6.66
201.69	31.23
201.909	64
202.128	119.29
202.347	0.51
202.566	-44.54
202.785	-7.68
203.004	-67.07
203.223	66.05
203.442	-15.87
203.661	-50.69
203.879	68.09
204.098	31.23
204.317	-52.74
204.536	59.9
204.755	43.52
204.974	-13.82
205.193	6.66
205.411	37.38
205.63	2.56
205.849	35.33
206.068	39.42
206.287	66.05
206.505	-15.87
206.724	6.66
206.943	-26.11
207.162	4.61
207.381	-40.45
207.599	-48.64
207.818	-36.35
208.037	-42.5
208.255	6.66
208.474	39.42
208.693	29.18
208.911	45.57
209.13	10.75
209.349	41.47
209.567	-1.54
209.786	41.47
210.005	14.85
210.223	-75.26
210.442	14.85
210.661	-42.5
210.879	47.62
211.098	12.8
211.316	-13.82
211.535	8.7
211.753	-7.68
211.972	-17.92
212.191	72.19
212.409	-11.78
212.628	27.14
212.846	23.04
213.065	6.66
213.283	41.47
213.502	16.9
213.72	14.85
213.938	-1.54
214.157	6.66
214.375	27.14
214.594	31.23
214.812	-28.16
215.031	-5.63
215.249	-15.87
215.467	-26.11
215.686	-75.26
215.904	39.42
216.122	-1.54
216.341	76.29
216.559	-1.54
216.778	-13.82
216.996	-9.73
217.214	-13.82
217.432	-19.97
217.651	-40.45
217.869	-9.73
218.087	-58.88
218.306	33.28
218.524	25.09
218.742	-13.82
218.96	2.56
219.179	-1.54
219.397	0.51
219.615	-13.82
219.833	6.66
220.051	-9.73
220.27	-34.3
220.488	76.29
220.706	55.81
220.924	-17.92
221.142	45.57
221.36	18.94
221.578	29.18
221.796	-42.5
222.015	51.71
222.233	-32.26
222.451	-56.83
222.669	14.85
222.887	10.75
223.105	-11.78
223.323	-24.06
223.541	-19.97
223.759	14.85
223.977	-9.73
224.195	-13.82
224.413	-42.5
224.631	-17.92
224.849	45.57
225.067	55.81
225.285	27.14
225.503	47.62
225.721	-50.69
225.939	-30.21
226.157	-7.68
226.375	2.56
226.592	-67.07
226.81	-9.73
227.028	18.94
227.246	-30.21
227.464	25.09
227.682	18.94
227.9	39.42
228.117	-50.69
228.335	35.33
228.553	-36.35
228.771	6.66
228.989	18.94
229.206	-22.02
229.424	35.33
229.642	-97.79
229.86	-32.26
230.077	-13.82
230.295	39.42
230.513	41.47
230.731	43.52
230.948	53.76
231.166	-1.54
231.384	-34.3
231.601	27.14
231.819	72.19
232.037	6.66
232.254	47.62
232.472	25.09
232.689	8.7
232.907	27.14
233.125	6.66
233.342	-46.59
233.56	8.7
233.777	-1.54
233.995	-17.92
234.213	39.42
234.43	8.7
234.648	4.61
234.865	20.99
235.083	68.09
235.3	-1.54
235.518	-30.21
235.735	59.9
235.953	47.62
236.17	-30.21
236.388	-22.02
236.605	47.62
236.822	53.76
237.04	35.33
237.257	-1.54
237.475	-1.54
237.692	27.14
237.909	31.23
238.127	-1.54
238.344	-50.69
238.562	23.04
238.779	-54.78
238.996	-32.26
239.214	-9.73
239.431	-30.21
239.648	12.8
239.865	14.85
240.083	27.14
240.3	31.23
240.517	23.04
240.735	-75.26
240.952	23.04
241.169	27.14
241.386	43.52
241.603	-58.88
241.821	6.66
242.038	8.7
242.255	25.09
242.472	0.51
242.689	39.42
242.907	39.42
243.124	-46.59
243.341	-71.17
243.558	2.56
243.775	-26.11
243.992	-32.26
244.209	74.24
244.426	121.34
244.643	39.42
244.86	84.48
245.078	90.62
245.295	-118.27
245.512	-38.4
245.729	-11.78
245.946	39.42
246.163	31.23
246.38	-7.68
246.597	-15.87
246.814	10.75
247.031	6.66
247.248	-15.87
247.464	-34.3
247.681	29.18
247.898	-15.87
248.115	-44.54
248.332	23.04
248.549	16.9
248.766	45.57
248.983	-19.97
249.2	-17.92
249.417	12.8
249.633	-40.45
249.85	51.71
250.067	6.66
250.284	23.04
250.501	29.18
250.717	51.71
250.934	-24.06
251.151	33.28
251.368	31.23
251.585	-1.54
251.801	14.85
252.018	-56.83
252.235	68.09
252.451	8.7
252.668	23.04
252.885	-1.54
253.102	45.57
253.318	55.81
253.535	-32.26
253.752	6.66
253.968	72.19
254.185	18.94
254.401	-26.11
254.618	29.18
254.835	-34.3
255.051	51.71
255.268	-26.11
255.484	-28.16
255.701	-13.82
255.917	35.33
256.134	4.61
256.351	-34.3
256.567	-32.26
256.784	0.51
257	-26.11
257.217	14.85
257.433	64
257.65	47.62
257.866	-52.74
258.082	4.61
258.299	-65.02
258.515	61.95
258.732	-36.35
258.948	14.85
259.165	2.56
259.381	31.23
259.597	20.99
259.814	-5.63
260.03	-13.82
260.246	18.94
260.463	57.86
260.679	8.7
260.895	-48.64
261.112	12.8
261.328	18.94
261.544	20.99
261.761	49.66
261.977	-5.63
262.193	-79.36
262.409	104.96
262.626	-34.3
262.842	33.28
263.058	-22.02
263.274	-17.92
263.49	49.66
263.707	25.09
263.923	-3.58
264.139	-42.5
264.355	-60.93
264.571	51.71
264.787	14.85
265.004	-15.87
265.22	2.56
265.436	8.7
265.652	-22.02
265.868	47.62
266.084	55.81
266.3	80.38
266.516	-42.5
266.732	59.9
266.948	-44.54
267.164	59.9
267.38	2.56
267.596	51.71
267.812	35.33
268.028	-42.5
268.244	14.85
268.46	49.66
268.676	10.75
268.892	37.38
269.108	-46.59
269.324	-46.59
269.54	-24.06
269.756	-1.54
269.972	47.62
270.188	-13.82
270.403	-11.78
270.619	16.9
270.835	4.61
271.051	-5.63
271.267	33.28
271.483	23.04
271.698	23.04
271.914	18.94
272.13	-1.54
272.346	74.24
272.562	31.23
272.777	20.99
272.993	-7.68
273.209	8.7
273.425	-46.59
273.64	4.61
273.856	-17.92
274.072	4.61
274.287	25.09
274.503	6.66
274.719	-24.06
274.934	-48.64
275.15	-1.54
275.366	-24.06
275.581	14.85
275.797	-1.54
276.012	-22.02
276.228	-91.65
276.444	35.33
276.659	31.23
276.875	27.14
277.09	-42.5
277.306	-19.97
277.521	-52.74
277.737	12.8
277.952	31.23
278.168	55.81
278.383	16.9
278.599	-22.02
278.814	55.81
279.03	-30.21
279.245	-5.63
279.461	-62.98
279.676	-7.68
279.892	-34.3
280.107	-15.87
280.322	6.66
280.538	66.05
280.753	-58.88
280.969	100.86
281.184	2.56
281.399	37.38
281.615	23.04
281.83	-15.87
282.045	-15.87
282.26	2.56
282.476	41.47
282.691	80.38
282.906	-5.63
283.122	-52.74
283.337	-9.73
283.552	6.66
283.767	47.62
283.983	-13.82
284.198	18.94
284.413	39.42
284.628	-3.58
284.843	76.29
285.058	-38.4
285.274	10.75
285.489	-34.3
285.704	16.9
285.919	-38.4
286.134	6.66
286.349	55.81
286.564	0.51
286.779	72.19
286.995	-22.02
287.21	-5.63
287.425	18.94
287.64	-7.68
287.855	20.99
288.07	31.23
288.285	-40.45
288.5	-22.02
288.715	57.86
288.93	-24.06
289.145	47.62
289.36	14.85
289.575	-1.54
289.79	51.71
290.004	-22.02
290.219	74.24
290.434	-7.68
290.649	-48.64
290.864	18.94
291.079	33.28
291.294	29.18
291.509	-44.54
291.724	80.38
291.938	51.71
292.153	14.85
292.368	20.99
292.583	43.52
292.798	39.42
293.012	84.48
293.227	35.33
293.442	39.42
293.657	88.57
293.871	20.99
294.086	6.66
294.301	55.81
294.516	39.42
294.73	61.95
294.945	-42.5
295.16	-26.11
295.374	-9.73
295.589	4.61
295.804	6.66
296.018	-62.98
296.233	78.33
296.447	14.85
296.662	8.7
296.877	0.51
297.091	47.62
297.306	-40.45
297.52	-38.4
297.735	-26.11
297.949	2.56
298.164	27.14
298.378	35.33
298.593	20.99
298.807	55.81
299.022	-32.26
299.236	-7.68
299.451	27.14
299.665	27.14
299.88	25.09
300.094	25.09
300.309	0.51
300.523	8.7
300.737	-17.92
300.952	-73.21
301.166	39.42
301.381	8.7
301.595	-79.36
301.809	10.75
302.024	0.51
302.238	80.38
302.452	10.75
302.667	-13.82
302.881	76.29
303.095	33.28
303.309	-46.59
303.524	4.61
303.738	31.23
303.952	-58.88
304.166	18.94
304.381	4.61
304.595	43.52
304.809	-5.63
305.023	-19.97
305.237	55.81
305.452	-26.11
305.666	-69.12
305.88	35.33
306.094	31.23
306.308	18.94
306.522	14.85
306.736	25.09
306.95	-7.68
307.164	-3.58
307.379	-32.26
307.593	49.66
307.807	10.75
308.021	-15.87
308.235	-52.74
308.449	-24.06
308.663	16.9
308.877	45.57
309.091	33.28
309.305	14.85
309.519	-38.4
309.733	14.85
309.947	2.56
310.161	43.52
310.374	100.86
310.588	25.09
310.802	-58.88
311.016	27.14
311.23	-85.5
311.444	-3.58
311.658	-30.21
311.872	18.94
312.085	0.51
312.299	-7.68
312.513	55.81
312.727	80.38
312.941	33.28
313.154	25.09
313.368	-54.78
313.582	64
313.796	-30.21
314.009	-11.78
314.223	-81.41
314.437	6.66
314.651	-3.58
314.864	25.09
315.078	4.61
315.292	-1.54
315.505	-28.16
315.719	25.09
315.933	-13.82
316.146	0.51
316.36	20.99
316.573	92.67
316.787	51.71
317.001	125.44
317.214	-42.5
317.428	14.85
317.641	-38.4
317.855	-7.68
318.068	0.51
318.282	-85.5
318.495	12.8
318.709	27.14
318.922	23.04
319.136	51.71
319.349	-60.93
319.563	16.9
319.776	43.52
319.99	-26.11
320.203	18.94
320.417	66.05
320.63	-56.83
320.843	-58.88
321.057	-30.21
321.27	-40.45
321.483	43.52
321.697	72.19
321.91	-42.5
322.124	-11.78
322.337	-17.92
322.55	14.85
322.763	-3.58
322.977	4.61
323.19	-48.64
323.403	-1.54
323.617	37.38
323.83	-26.11
324.043	33.28
324.256	14.85
324.469	-7.68
324.683	53.76
324.896	27.14
325.109	70.14
325.322	-34.3
325.535	47.62
325.748	53.76
325.962	20.99
326.175	18.94
326.388	37.38
326.601	14.85
326.814	-11.78
327.027	-5.63
327.24	57.86
327.453	-17.92
327.666	23.04
327.879	0.51
328.092	31.23
328.305	0.51
328.518	55.81
328.731	-50.69
328.944	-50.69
329.157	-1.54
329.37	-11.78
329.583	51.71
329.796	25.09
330.009	6.66
330.222	57.86
330.435	25.09
330.648	100.86
330.861	55.81
331.073	35.33
331.286	70.14
331.499	33.28
331.712	-9.73
331.925	16.9
332.138	-9.73
332.35	66.05
332.563	-30.21
332.776	23.04
332.989	0.51
333.202	33.28
333.414	-11.78
333.627	33.28
333.84	53.76
334.053	41.47
334.265	-40.45
334.478	-7.68
334.691	41.47
334.903	43.52
335.116	6.66
335.329	18.94
335.541	33.28
335.754	49.66
335.966	33.28
336.179	-56.83
336.392	-28.16
336.604	0.51
336.817	12.8
337.029	49.66
337.242	86.53
337.454	43.52
337.667	70.14
337.88	10.75
338.092	4.61
338.305	2.56
338.517	47.62
338.729	35.33
338.942	-19.97
339.154	8.7
339.367	-56.83
339.579	-32.26
339.792	-13.82
340.004	104.96
340.217	-56.83
340.429	18.94
340.641	-30.21
340.854	4.61
341.066	-3.58
341.278	55.81
341.491	88.57
341.703	-54.78
341.915	0.51
342.128	2.56
342.34	53.76
342.552	-13.82
342.764	-7.68
342.977	-24.06
343.189	23.04
343.401	-19.97
343.613	-1.54
343.826	-26.11
344.038	-30.21
344.25	16.9
344.462	-7.68
344.674	31.23
344.886	23.04
345.099	84.48
345.311	29.18
345.523	6.66
345.735	-36.35
345.947	-5.63
346.159	-26.11
346.371	47.62
346.583	-67.07
346.795	127.49
347.007	-60.93
347.219	80.38
347.431	45.57
347.643	145.92
347.855	-15.87
348.067	57.86
348.279	4.61
348.491	0.51
348.703	-62.98
348.915	-17.92
349.127	-30.21
349.339	51.71
349.551	61.95
349.763	-30.21
349.975	10.75
350.187	-24.06
350.399	2.56
350.61	20.99
350.822	33.28
351.034	64
351.246	-15.87
351.458	72.19
351.669	49.66
351.881	96.77
352.093	-32.26
352.305	104.96
352.517	51.71
352.728	-13.82
352.94	84.48
353.152	8.7
353.363	-19.97
353.575	31.23
353.787	6.66
353.999	-7.68
354.21	107.01
354.422	-5.63
354.633	-5.63
354.845	39.42
355.057	37.38
355.268	129.53
355.48	6.66
355.692	51.71
355.903	20.99
356.115	14.85
356.326	6.66
356.538	27.14
356.749	-58.88
356.961	49.66
357.172	-71.17
357.384	29.18
357.595	18.94
357.807	51.71
358.018	10.75
358.23	-73.21
358.441	33.28
358.653	-32.26
358.864	25.09
359.075	6.66
359.287	68.09
359.498	6.66
359.709	8.7
359.921	-79.36
360.132	-7.68
360.344	70.14
360.555	-7.68
360.766	16.9
360.977	-34.3
361.189	51.71
361.4	4.61
361.611	43.52
361.823	57.86
362.034	-30.21
362.245	-7.68
362.456	-34.3
362.667	-13.82
362.879	29.18
363.09	23.04
363.301	20.99
363.512	35.33
363.723	-62.98
363.935	2.56
364.146	-5.63
364.357	80.38
364.568	-34.3
364.779	-36.35
364.99	72.19
365.201	57.86
365.412	35.33
365.623	-1.54
365.834	-5.63
366.045	27.14
366.256	31.23
366.467	49.66
366.678	59.9
366.889	-52.74
367.1	18.94
367.311	84.48
367.522	-30.21
367.733	61.95
367.944	18.94
368.155	49.66
368.366	14.85
368.577	-34.3
368.788	-34.3
368.999	12.8
369.209	66.05
369.42	92.67
369.631	127.49
369.842	-7.68
370.053	0.51
370.264	-9.73
370.474	-30.21
370.685	59.9
370.896	16.9
371.107	47.62
371.317	59.9
371.528	-1.54
371.739	14.85
371.95	-1.54
372.16	-30.21
372.371	-1.54
372.582	18.94
372.792	-17.92
373.003	33.28
373.214	43.52
373.424	80.38
373.635	-15.87
373.846	-7.68
374.056	45.57
374.267	61.95
374.477	16.9
374.688	104.96
374.898	6.66
375.109	20.99
375.319	-22.02
375.53	-17.92
375.74	-48.64
375.951	-9.73
376.161	-1.54
376.372	-24.06
376.582	-50.69
376.793	-1.54
377.003	-7.68
377.214	-5.63
377.424	37.38
377.635	-1.54
377.845	14.85
378.055	53.76
378.266	43.52
378.476	78.33
378.686	-28.16
378.897	39.42
379.107	6.66
379.317	109.05
379.528	31.23
379.738	49.66
379.948	-34.3
380.158	0.51
380.369	33.28
380.579	29.18
380.789	-22.02
380.999	29.18
381.21	47.62
381.42	12.8
381.63	-1.54
381.84	27.14
382.05	-3.58
382.261	51.71
382.471	41.47
382.681	-15.87
382.891	16.9
383.101	72.19
383.311	6.66
383.521	14.85
383.731	37.38
383.941	47.62
384.151	84.48
384.361	2.56
384.571	2.56
384.781	14.85
384.991	74.24
385.201	-36.35
385.411	39.42
385.621	64
385.831	-7.68
386.041	29.18
386.251	100.86
386.461	23.04
386.671	-15.87
386.881	66.05
387.091	-46.59
387.301	27.14
387.511	35.33
387.72	2.56
387.93	37.38
388.14	-32.26
388.35	-7.68
388.56	57.86
388.769	18.94
388.979	-75.26
389.189	6.66
389.399	70.14
389.609	10.75
389.818	66.05
390.028	61.95
390.238	25.09
390.447	-3.58
390.657	-13.82
390.867	-1.54
391.076	6.66
391.286	14.85
391.496	-22.02
391.705	10.75
391.915	39.42
392.125	-30.21
392.334	12.8
392.544	31.23
392.753	27.14
392.963	-15.87
393.172	33.28
393.382	6.66
393.591	88.57
393.801	80.38
394.01	39.42
394.22	72.19
394.429	45.57
394.639	29.18
394.848	8.7
395.058	-11.78
395.267	25.09
395.477	-9.73
395.686	90.62
395.895	47.62
396.105	47.62
396.314	68.09
396.524	35.33
396.733	53.76
396.942	84.48
397.152	29.18
397.361	55.81
397.57	33.28
397.78	-1.54
397.989	-79.36
398.198	51.71
398.407	33.28
398.617	33.28
398.826	-11.78
399.035	6.66
399.244	-32.26
399.453	70.14
399.663	100.86
399.872	57.86
400.081	27.14
400.29	57.86
400.499	37.38
400.708	152.06
400.917	96.77
401.127	43.52
401.336	74.24
401.545	104.96
401.754	117.25
401.963	-3.58
402.172	33.28
402.381	164.35
402.59	-24.06
402.799	55.81
403.008	-60.93
403.217	121.34
403.426	123.39
403.635	80.38
403.844	29.18
404.053	66.05
404.262	88.57
404.471	84.48
404.68	72.19
404.888	55.81
405.097	41.47
405.306	72.19
405.515	68.09
405.724	147.97
405.933	133.63
406.142	64
406.35	88.57
406.559	96.77
406.768	154.11
406.977	96.77
407.185	68.09
407.394	72.19
407.603	152.06
407.812	96.77
408.02	129.53
408.229	109.05
408.438	74.24
408.646	109.05
408.855	43.52
409.064	170.49
409.272	64
409.481	104.96
409.69	160.25
409.898	180.73
410.107	133.63
410.315	84.48
410.524	162.3
410.733	141.82
410.941	156.16
411.15	195.07
411.358	182.78
411.567	197.12
411.775	168.45
411.984	211.45
412.192	166.4
412.401	260.6
412.609	227.84
412.818	317.95
413.026	190.97
413.234	211.45
413.443	207.36
413.651	305.66
413.86	262.65
414.068	369.15
414.276	291.32
414.485	332.28
414.693	283.13
414.901	434.68
415.11	338.43
415.318	295.42
415.526	395.77
415.734	408.06
415.943	369.15
416.151	432.63
416.359	418.3
416.567	408.06
416.776	449.02
416.984	489.98
417.192	518.65
417.4	502.26
417.608	418.3
417.817	578.04
418.025	539.13
418.233	647.67
418.441	555.51
418.649	580.09
418.857	567.8
419.065	752.12
419.273	643.57
419.481	670.2
419.689	713.21
419.897	799.22
420.105	768.5
420.313	805.36
420.521	758.26
420.729	852.47
420.937	834.04
421.145	768.5
421.353	963.06
421.561	963.06
421.769	963.06
421.977	999.92
422.185	1030.64
422.393	1092.08
422.601	1169.9
422.809	1206.77
423.017	1227.25
423.224	1243.63
423.432	1368.56
423.64	1253.87
423.848	1354.22
424.056	1333.74
424.263	1438.19
424.471	1458.67
424.679	1499.63
424.887	1542.63
425.094	1606.12
425.302	1622.5
425.51	1585.64
425.718	1683.94
425.925	1898.98
426.133	1731.05
426.341	2011.62
426.548	2071.01
426.756	2009.57
426.964	2124.26
427.171	2159.07
427.379	2228.7
427.586	2277.85
427.794	2322.91
428.001	2419.16
428.209	2558.42
428.417	2447.83
428.624	2714.07
428.832	2800.09
429.039	2742.74
429.247	2558.42
429.454	3039.7
429.662	3041.75
429.869	2929.11
430.076	3252.69
430.284	3049.94
430.491	3133.9
430.699	3373.52
430.906	3434.96
431.114	3363.28
431.321	3566.03
431.528	3606.98
431.736	3887.56
431.943	4114.88
432.15	3817.93
432.358	3916.23
432.565	4137.41
432.772	4006.34
432.979	4368.83
433.187	4442.56
433.394	4428.22
433.601	4807.09
433.808	4968.88
434.016	4755.9
434.223	5020.08
434.43	5343.66
434.637	5192.11
434.844	5523.88
435.052	5542.32
435.259	5478.83
435.466	5605.8
435.673	5523.88
435.88	5925.29
436.087	6171.04
436.294	6209.95
436.501	5970.34
436.708	6025.64
436.915	6447.52
437.122	6691.23
437.329	6572.44
437.537	6891.93
437.743	6994.33
437.95	6918.55
438.157	7268.75
438.364	7584.14
438.571	7569.8
438.778	7477.65
438.985	8077.7
439.192	7952.77
439.399	8282.5
439.606	8026.5
439.813	8571.26
440.02	8960.38
440.227	8894.84
440.433	8708.48
440.64	9195.89
440.847	8866.17
441.054	9169.27
441.261	9884.01
441.467	9652.59
441.674	9841
441.881	10352.99
442.088	10287.46
442.294	10142.05
442.501	10604.89
442.708	10541.41
442.914	11139.41
443.121	11506
443.328	11153.75
443.534	12132.68
443.741	11770.19
443.948	11430.23
444.154	12290.37
444.361	12368.2
444.568	12396.87
444.774	12290.37
444.981	12513.6
445.187	12886.33
445.394	13433.14
445.6	13375.8
445.807	14614.82
446.013	13979.95
446.22	14244.13
446.426	14776.61
446.633	14932.25
446.839	15472.92
447.046	14811.42
447.252	15419.67
447.459	15624.47
447.665	15395.09
447.871	16212.23
448.078	17113.34
448.284	16222.47
448.491	16324.87
448.697	17164.54
448.903	17846.51
449.11	17436.92
449.316	17529.08
449.522	17862.9
449.728	18288.87
449.935	18426.09
450.141	18335.98
450.347	18684.13
450.553	18286.82
450.76	18401.51
450.966	19048.67
451.172	18983.13
451.378	19665.11
451.584	18841.82
451.791	19484.89
451.997	19347.67
452.203	19710.16
452.409	19900.62
452.615	19859.66
452.821	19026.14
453.027	18897.12
453.233	19835.09
453.44	18720.99
453.646	19425.5
453.852	19591.38
454.058	19724.5
454.264	19165.4
454.47	19693.78
454.676	19042.53
454.882	19792.08
455.088	18063.6
455.294	18206.95
455.5	18673.89
455.705	18655.46
455.911	17973.49
456.117	17553.65
456.323	17400.05
456.529	16478.47
456.735	17463.54
456.941	16582.91
457.147	16453.89
457.352	15902.99
457.558	16103.69
457.764	16054.54
457.97	15356.18
458.176	15499.54
458.381	15366.42
458.587	14577.95
458.793	14526.75
458.999	13867.31
459.204	15051.03
459.41	14270.76
459.616	13590.83
459.821	13500.72
460.027	13447.47
460.233	13109.56
460.438	12484.93
460.644	12749.12
460.85	12140.87
461.055	11948.36
461.261	11714.89
461.466	10971.48
461.672	10551.65
461.878	11250
462.083	10678.62
462.289	10209.64
462.494	10312.03
462.7	9910.63
462.905	9685.36
463.111	9978.22
463.316	9986.41
463.522	9843.05
463.727	9797.99
463.932	9648.49
464.138	9859.43
464.343	9716.08
464.549	9406.83
464.754	9638.25
464.959	9937.26
465.165	9683.31
465.37	9167.22
465.575	9116.02
465.781	9267.57
465.986	9324.91
466.191	8980.85
466.397	8890.74
466.602	8378.75
466.807	8751.48
467.012	8657.28
467.218	8616.32
467.423	8610.17
467.628	8728.95
467.833	8954.23
468.038	8567.17
468.244	8503.68
