Data from USB4F104151__28__13-10-48-024.txt Node

Date: Fri Mar 14 13:10:48 EDT 2025
User: louis
Spectrometer: USB4F10415
Trigger mode: 4
Integration Time (sec): 2.000000E-2
Scans to average: 1
Electric dark correction enabled: true
Nonlinearity correction enabled: false
Boxcar width: 0
XAxis mode: Wavelengths
Number of Pixels in Spectrum: 3648
>>>>>Begin Spectral Data<<<<<
178.204	-62.46
178.424	-62.46
178.644	-62.46
178.864	-58.37
179.084	-89.09
179.304	37.89
179.524	7.17
179.744	-21.5
179.964	9.22
180.184	1.02
180.404	-27.65
180.624	41.98
180.844	5.12
181.064	-50.18
181.283	-35.84
181.503	27.65
181.723	5.12
181.943	-25.6
182.163	113.66
182.383	13.31
182.602	15.36
182.822	41.98
183.042	23.55
183.262	3.07
183.482	25.6
183.701	29.7
183.921	48.13
184.141	-11.26
184.361	56.32
184.58	35.84
184.8	-5.12
185.02	-21.5
185.239	74.75
185.459	7.17
185.679	52.22
185.898	-56.32
186.118	56.32
186.338	95.23
186.557	-23.55
186.777	-9.22
186.997	-5.12
187.216	78.85
187.436	60.42
187.655	97.28
187.875	31.74
188.095	-64.51
188.314	27.65
188.534	103.42
188.753	31.74
188.973	74.75
189.192	56.32
189.412	64.51
189.631	29.7
189.851	-58.37
190.07	50.18
190.29	-62.46
190.509	87.04
190.729	15.36
190.948	66.56
191.168	197.63
191.387	-9.22
191.607	-5.12
191.826	56.32
192.045	-39.94
192.265	105.47
192.484	13.31
192.704	39.94
192.923	33.79
193.142	80.89
193.362	109.57
193.581	41.98
193.8	46.08
194.02	37.89
194.239	-19.46
194.458	52.22
194.678	15.36
194.897	19.46
195.116	11.26
195.335	37.89
195.555	-27.65
195.774	35.84
195.993	3.07
196.212	62.46
196.432	-54.27
196.651	58.37
196.87	-27.65
197.089	25.6
197.308	54.27
197.528	58.37
197.747	13.31
197.966	15.36
198.185	82.94
198.404	-15.36
198.623	27.65
198.842	44.03
199.062	48.13
199.281	27.65
199.5	17.41
199.719	1.02
199.938	27.65
200.157	105.47
200.376	1.02
200.595	-7.17
200.814	11.26
201.033	17.41
201.252	15.36
201.471	-44.03
201.69	15.36
201.909	46.08
202.128	-13.31
202.347	111.61
202.566	-1.02
202.785	3.07
203.004	84.99
203.223	17.41
203.442	76.8
203.661	-23.55
203.879	48.13
204.098	52.22
204.317	-9.22
204.536	41.98
204.755	82.94
204.974	3.07
205.193	62.46
205.411	80.89
205.63	-25.6
205.849	50.18
206.068	115.71
206.287	25.6
206.505	56.32
206.724	44.03
206.943	72.7
207.162	-23.55
207.381	15.36
207.599	50.18
207.818	62.46
208.037	-46.08
208.255	-50.18
208.474	58.37
208.693	-33.79
208.911	60.42
209.13	13.31
209.349	84.99
209.567	41.98
209.786	66.56
210.005	62.46
210.223	76.8
210.442	7.17
210.661	107.52
210.879	7.17
211.098	58.37
211.316	31.74
211.535	37.89
211.753	-58.37
211.972	29.7
212.191	17.41
212.409	15.36
212.628	62.46
212.846	-66.56
213.065	23.55
213.283	23.55
213.502	-3.07
213.72	-1.02
213.938	54.27
214.157	-17.41
214.375	50.18
214.594	-80.89
214.812	15.36
215.031	46.08
215.249	37.89
215.467	-3.07
215.686	-1.02
215.904	-27.65
216.122	-17.41
216.341	35.84
216.559	58.37
216.778	17.41
216.996	19.46
217.214	17.41
217.432	-9.22
217.651	41.98
217.869	74.75
218.087	17.41
218.306	50.18
218.524	64.51
218.742	23.55
218.96	-3.07
219.179	70.65
219.397	31.74
219.615	93.18
219.833	48.13
220.051	19.46
220.27	9.22
220.488	64.51
220.706	-48.13
220.924	-13.31
221.142	-1.02
221.36	89.09
221.578	-25.6
221.796	66.56
222.015	1.02
222.233	-19.46
222.451	1.02
222.669	-37.89
222.887	29.7
223.105	13.31
223.323	17.41
223.541	62.46
223.759	48.13
223.977	7.17
224.195	31.74
224.413	-7.17
224.631	78.85
224.849	68.61
225.067	9.22
225.285	-13.31
225.503	-54.27
225.721	-7.17
225.939	31.74
226.157	72.7
226.375	66.56
226.592	-31.74
226.81	44.03
227.028	80.89
227.246	56.32
227.464	121.85
227.682	-15.36
227.9	123.9
228.117	-17.41
228.335	11.26
228.553	17.41
228.771	25.6
228.989	82.94
229.206	19.46
229.424	95.23
229.642	-29.7
229.86	-5.12
230.077	48.13
230.295	-7.17
230.513	7.17
230.731	7.17
230.948	23.55
231.166	109.57
231.384	58.37
231.601	1.02
231.819	13.31
232.037	-3.07
232.254	25.6
232.472	17.41
232.689	5.12
232.907	15.36
233.125	19.46
233.342	84.99
233.56	44.03
233.777	46.08
233.995	56.32
234.213	72.7
234.43	-1.02
234.648	50.18
234.865	5.12
235.083	19.46
235.3	3.07
235.518	58.37
235.735	1.02
235.953	15.36
236.17	33.79
236.388	121.85
236.605	66.56
236.822	41.98
237.04	113.66
237.257	72.7
237.475	19.46
237.692	-33.79
237.909	15.36
238.127	23.55
238.344	-23.55
238.562	-15.36
238.779	-3.07
238.996	31.74
239.214	39.94
239.431	64.51
239.648	-13.31
239.865	66.56
240.083	39.94
240.3	1.02
240.517	21.5
240.735	74.75
240.952	21.5
241.169	31.74
241.386	56.32
241.603	-37.89
241.821	11.26
242.038	97.28
242.255	130.05
242.472	7.17
242.689	23.55
242.907	91.13
243.124	56.32
243.341	25.6
243.558	31.74
243.775	-21.5
243.992	19.46
244.209	9.22
244.426	54.27
244.643	7.17
244.86	-62.46
245.078	72.7
245.295	7.17
245.512	109.57
245.729	23.55
245.946	39.94
246.163	37.89
246.38	84.99
246.597	82.94
246.814	11.26
247.031	-3.07
247.248	46.08
247.464	31.74
247.681	46.08
247.898	64.51
248.115	3.07
248.332	7.17
248.549	9.22
248.766	105.47
248.983	74.75
249.2	23.55
249.417	27.65
249.633	-21.5
249.85	-3.07
250.067	25.6
250.284	29.7
250.501	44.03
250.717	23.55
250.934	-25.6
251.151	56.32
251.368	37.89
251.585	11.26
251.801	25.6
252.018	15.36
252.235	144.38
252.451	39.94
252.668	33.79
252.885	19.46
253.102	13.31
253.318	13.31
253.535	-41.98
253.752	-9.22
253.968	19.46
254.185	-11.26
254.401	9.22
254.618	68.61
254.835	-17.41
255.051	117.76
255.268	58.37
255.484	23.55
255.701	-39.94
255.917	41.98
256.134	13.31
256.351	44.03
256.567	15.36
256.784	80.89
257	48.13
257.217	17.41
257.433	93.18
257.65	121.85
257.866	17.41
258.082	3.07
258.299	-11.26
258.515	5.12
258.732	68.61
258.948	50.18
259.165	25.6
259.381	68.61
259.597	-17.41
259.814	89.09
260.03	7.17
260.246	68.61
260.463	62.46
260.679	41.98
260.895	58.37
261.112	58.37
261.328	-52.22
261.544	13.31
261.761	60.42
261.977	60.42
262.193	-13.31
262.409	76.8
262.626	25.6
262.842	50.18
263.058	84.99
263.274	89.09
263.49	52.22
263.707	25.6
263.923	97.28
264.139	7.17
264.355	52.22
264.571	52.22
264.787	101.37
265.004	84.99
265.22	-23.55
265.436	37.89
265.652	52.22
265.868	1.02
266.084	11.26
266.3	72.7
266.516	17.41
266.732	74.75
266.948	68.61
267.164	-1.02
267.38	97.28
267.596	60.42
267.812	99.33
268.028	50.18
268.244	-7.17
268.46	52.22
268.676	31.74
268.892	-31.74
269.108	-19.46
269.324	-17.41
269.54	-19.46
269.756	13.31
269.972	-64.51
270.188	-31.74
270.403	-11.26
270.619	35.84
270.835	78.85
271.051	-21.5
271.267	44.03
271.483	70.65
271.698	56.32
271.914	89.09
272.13	68.61
272.346	109.57
272.562	-17.41
272.777	48.13
272.993	-1.02
273.209	-23.55
273.425	3.07
273.64	19.46
273.856	91.13
274.072	29.7
274.287	-91.13
274.503	37.89
274.719	13.31
274.934	37.89
275.15	-39.94
275.366	33.79
275.581	13.31
275.797	3.07
276.012	128
276.228	15.36
276.444	-19.46
276.659	64.51
276.875	23.55
277.09	58.37
277.306	-23.55
277.521	84.99
277.737	15.36
277.952	56.32
278.168	37.89
278.383	64.51
278.599	-17.41
278.814	70.65
279.03	80.89
279.245	33.79
279.461	-1.02
279.676	54.27
279.892	9.22
280.107	62.46
280.322	23.55
280.538	21.5
280.753	-5.12
280.969	35.84
281.184	50.18
281.399	105.47
281.615	9.22
281.83	97.28
282.045	29.7
282.26	-29.7
282.476	39.94
282.691	-9.22
282.906	52.22
283.122	64.51
283.337	-1.02
283.552	21.5
283.767	46.08
283.983	17.41
284.198	56.32
284.413	-21.5
284.628	-3.07
284.843	148.48
285.058	23.55
285.274	50.18
285.489	-70.65
285.704	70.65
285.919	72.7
286.134	41.98
286.349	48.13
286.564	7.17
286.779	35.84
286.995	-15.36
287.21	-19.46
287.425	17.41
287.64	54.27
287.855	74.75
288.07	9.22
288.285	117.76
288.5	17.41
288.715	115.71
288.93	48.13
289.145	52.22
289.36	93.18
289.575	-5.12
289.79	60.42
290.004	27.65
290.219	15.36
290.434	58.37
290.649	15.36
290.864	-54.27
291.079	60.42
291.294	5.12
291.509	46.08
291.724	44.03
291.938	78.85
292.153	76.8
292.368	39.94
292.583	19.46
292.798	72.7
293.012	105.47
293.227	72.7
293.442	31.74
293.657	66.56
293.871	64.51
294.086	48.13
294.301	31.74
294.516	74.75
294.73	13.31
294.945	-17.41
295.16	-15.36
295.374	23.55
295.589	115.71
295.804	13.31
296.018	-5.12
296.233	39.94
296.447	17.41
296.662	-13.31
296.877	-1.02
297.091	7.17
297.306	27.65
297.52	1.02
297.735	31.74
297.949	11.26
298.164	76.8
298.378	-33.79
298.593	7.17
298.807	-1.02
299.022	-23.55
299.236	-5.12
299.451	31.74
299.665	52.22
299.88	97.28
300.094	5.12
300.309	-5.12
300.523	-15.36
300.737	3.07
300.952	25.6
301.166	31.74
301.381	39.94
301.595	25.6
301.809	50.18
302.024	25.6
302.238	37.89
302.452	48.13
302.667	48.13
302.881	39.94
303.095	35.84
303.309	-7.17
303.524	17.41
303.738	-27.65
303.952	-37.89
304.166	58.37
304.381	-15.36
304.595	17.41
304.809	52.22
305.023	17.41
305.237	-23.55
305.452	17.41
305.666	39.94
305.88	-13.31
306.094	33.79
306.308	72.7
306.522	-1.02
306.736	48.13
306.95	48.13
307.164	66.56
307.379	17.41
307.593	56.32
307.807	35.84
308.021	46.08
308.235	5.12
308.449	58.37
308.663	9.22
308.877	78.85
309.091	-23.55
309.305	95.23
309.519	7.17
309.733	46.08
309.947	-9.22
310.161	105.47
310.374	-17.41
310.588	138.24
310.802	-17.41
311.016	101.37
311.23	15.36
311.444	31.74
311.658	-50.18
311.872	21.5
312.085	11.26
312.299	101.37
312.513	46.08
312.727	25.6
312.941	-31.74
313.154	50.18
313.368	1.02
313.582	7.17
313.796	54.27
314.009	70.65
314.223	103.42
314.437	74.75
314.651	99.33
314.864	7.17
315.078	56.32
315.292	82.94
315.505	-19.46
315.719	52.22
315.933	66.56
316.146	46.08
316.36	15.36
316.573	74.75
316.787	48.13
317.001	39.94
317.214	101.37
317.428	-11.26
317.641	70.65
317.855	56.32
318.068	-29.7
318.282	41.98
318.495	78.85
318.709	52.22
318.922	25.6
319.136	15.36
319.349	37.89
319.563	41.98
319.776	5.12
319.99	33.79
320.203	31.74
320.417	87.04
320.63	21.5
320.843	68.61
321.057	82.94
321.27	23.55
321.483	164.86
321.697	7.17
321.91	29.7
322.124	9.22
322.337	21.5
322.55	3.07
322.763	25.6
322.977	9.22
323.19	-13.31
323.403	70.65
323.617	56.32
323.83	60.42
324.043	-9.22
324.256	56.32
324.469	23.55
324.683	58.37
324.896	62.46
325.109	74.75
325.322	87.04
325.535	17.41
325.748	62.46
325.962	72.7
326.175	25.6
326.388	19.46
326.601	56.32
326.814	54.27
327.027	41.98
327.24	23.55
327.453	-15.36
327.666	39.94
327.879	97.28
328.092	35.84
328.305	23.55
328.518	74.75
328.731	-5.12
328.944	41.98
329.157	-17.41
329.37	17.41
329.583	44.03
329.796	64.51
330.009	70.65
330.222	52.22
330.435	123.9
330.648	60.42
330.861	33.79
331.073	-21.5
331.286	72.7
331.499	11.26
331.712	9.22
331.925	15.36
332.138	62.46
332.35	11.26
332.563	-1.02
332.776	89.09
332.989	50.18
333.202	52.22
333.414	44.03
333.627	48.13
333.84	44.03
334.053	50.18
334.265	68.61
334.478	101.37
334.691	89.09
334.903	19.46
335.116	35.84
335.329	15.36
335.541	-25.6
335.754	166.91
335.966	-52.22
336.179	68.61
336.392	44.03
336.604	44.03
336.817	41.98
337.029	70.65
337.242	13.31
337.454	87.04
337.667	-39.94
337.88	64.51
338.092	15.36
338.305	64.51
338.517	76.8
338.729	29.7
338.942	109.57
339.154	58.37
339.367	11.26
339.579	107.52
339.792	-11.26
340.004	80.89
340.217	21.5
340.429	35.84
340.641	46.08
340.854	3.07
341.066	19.46
341.278	76.8
341.491	35.84
341.703	62.46
341.915	74.75
342.128	27.65
342.34	29.7
342.552	-39.94
342.764	19.46
342.977	123.9
343.189	64.51
343.401	41.98
343.613	3.07
343.826	9.22
344.038	33.79
344.25	89.09
344.462	-48.13
344.674	48.13
344.886	56.32
345.099	54.27
345.311	89.09
345.523	60.42
345.735	-3.07
345.947	39.94
346.159	19.46
346.371	35.84
346.583	50.18
346.795	39.94
347.007	15.36
347.219	46.08
347.431	-17.41
347.643	17.41
347.855	87.04
348.067	66.56
348.279	7.17
348.491	95.23
348.703	64.51
348.915	140.29
349.127	33.79
349.339	-5.12
349.551	52.22
349.763	105.47
349.975	29.7
350.187	134.14
350.399	105.47
350.61	3.07
350.822	80.89
351.034	97.28
351.246	72.7
351.458	48.13
351.669	64.51
351.881	68.61
352.093	82.94
352.305	74.75
352.517	93.18
352.728	48.13
352.94	-13.31
353.152	89.09
353.363	-23.55
353.575	-31.74
353.787	-1.02
353.999	123.9
354.21	31.74
354.422	13.31
354.633	-3.07
354.845	39.94
355.057	87.04
355.268	128
355.48	27.65
355.692	-11.26
355.903	64.51
356.115	62.46
356.326	-48.13
356.538	54.27
356.749	9.22
356.961	119.81
357.172	44.03
357.384	1.02
357.595	41.98
357.807	74.75
358.018	11.26
358.23	35.84
358.441	130.05
358.653	23.55
358.864	72.7
359.075	74.75
359.287	99.33
359.498	80.89
359.709	15.36
359.921	80.89
360.132	15.36
360.344	5.12
360.555	41.98
360.766	41.98
360.977	60.42
361.189	93.18
361.4	48.13
361.611	29.7
361.823	84.99
362.034	25.6
362.245	11.26
362.456	-1.02
362.667	50.18
362.879	41.98
363.09	33.79
363.301	3.07
363.512	35.84
363.723	56.32
363.935	95.23
364.146	76.8
364.357	31.74
364.568	56.32
364.779	48.13
364.99	5.12
365.201	31.74
365.412	113.66
365.623	-13.31
365.834	89.09
366.045	31.74
366.256	62.46
366.467	56.32
366.678	107.52
366.889	31.74
367.1	23.55
367.311	44.03
367.522	29.7
367.733	117.76
367.944	48.13
368.155	23.55
368.366	121.85
368.577	60.42
368.788	39.94
368.999	58.37
369.209	97.28
369.42	46.08
369.631	138.24
369.842	97.28
370.053	31.74
370.264	50.18
370.474	117.76
370.685	89.09
370.896	7.17
371.107	115.71
371.317	-7.17
371.528	33.79
371.739	97.28
371.95	72.7
372.16	72.7
372.371	87.04
372.582	25.6
372.792	64.51
373.003	44.03
373.214	5.12
373.424	95.23
373.635	-7.17
373.846	7.17
374.056	101.37
374.267	48.13
374.477	58.37
374.688	25.6
374.898	52.22
375.109	84.99
375.319	11.26
375.53	138.24
375.74	91.13
375.951	107.52
376.161	82.94
376.372	48.13
376.582	54.27
376.793	97.28
377.003	9.22
377.214	50.18
377.424	-25.6
377.635	80.89
377.845	5.12
378.055	54.27
378.266	44.03
378.476	25.6
378.686	89.09
378.897	64.51
379.107	66.56
379.317	37.89
379.528	11.26
379.738	123.9
379.948	66.56
380.158	70.65
380.369	74.75
380.579	74.75
380.789	35.84
380.999	56.32
381.21	-7.17
381.42	109.57
381.63	33.79
381.84	93.18
382.05	7.17
382.261	152.57
382.471	130.05
382.681	-7.17
382.891	48.13
383.101	80.89
383.311	80.89
383.521	1.02
383.731	99.33
383.941	60.42
384.151	138.24
384.361	41.98
384.571	87.04
384.781	33.79
384.991	117.76
385.201	109.57
385.411	58.37
385.621	136.19
385.831	-52.22
386.041	17.41
386.251	66.56
386.461	80.89
386.671	-11.26
386.881	97.28
387.091	33.79
387.301	140.29
387.511	35.84
387.72	107.52
387.93	58.37
388.14	39.94
388.35	37.89
388.56	78.85
388.769	103.42
388.979	150.53
389.189	87.04
389.399	97.28
389.609	66.56
389.818	48.13
390.028	41.98
390.238	123.9
390.447	5.12
390.657	66.56
390.867	-11.26
391.076	80.89
391.286	82.94
391.496	35.84
391.705	56.32
391.915	78.85
392.125	121.85
392.334	91.13
392.544	93.18
392.753	60.42
392.963	146.43
393.172	113.66
393.382	70.65
393.591	154.62
393.801	-7.17
394.01	115.71
394.22	130.05
394.429	105.47
394.639	50.18
394.848	166.91
395.058	52.22
395.267	121.85
395.477	93.18
395.686	80.89
395.895	146.43
396.105	111.61
396.314	33.79
396.524	132.09
396.733	111.61
396.942	105.47
397.152	60.42
397.361	109.57
397.57	128
397.78	89.09
397.989	105.47
398.198	201.72
398.407	70.65
398.617	132.09
398.826	89.09
399.035	60.42
399.244	68.61
399.453	168.96
399.663	128
399.872	134.14
400.081	76.8
400.29	134.14
400.499	37.89
400.708	82.94
400.917	148.48
401.127	138.24
401.336	56.32
401.545	183.29
401.754	72.7
401.963	162.81
402.172	58.37
402.381	117.76
402.59	48.13
402.799	54.27
403.008	173.05
403.217	181.25
403.426	148.48
403.635	113.66
403.844	97.28
404.053	160.77
404.262	113.66
404.471	236.54
404.68	82.94
404.888	146.43
405.097	166.91
405.306	72.7
405.515	193.53
405.724	113.66
405.933	179.2
406.142	168.96
406.35	175.1
406.559	130.05
406.768	222.2
406.977	201.72
407.185	218.11
407.394	173.05
407.603	185.34
407.812	189.44
408.02	250.88
408.229	252.92
408.438	254.97
408.646	265.21
408.855	211.96
409.064	289.79
409.272	242.68
409.481	242.68
409.69	359.42
409.898	250.88
410.107	254.97
410.315	310.27
410.524	267.26
410.733	330.75
410.941	345.08
411.15	492.54
411.358	371.71
411.567	482.3
411.775	418.81
411.984	357.37
412.192	394.23
412.401	488.44
412.609	513.02
412.818	510.97
413.026	539.64
413.234	523.26
413.443	551.93
413.651	521.21
413.86	570.36
414.068	726
414.276	615.41
414.485	670.71
414.693	691.19
414.901	668.66
415.11	781.3
415.318	744.44
415.526	736.24
415.734	801.78
415.943	760.82
416.151	787.44
416.359	926.71
416.567	830.45
416.776	910.32
416.984	1004.53
417.192	1068.02
417.4	1000.43
417.608	994.29
417.817	1002.48
418.025	1129.45
418.233	1172.46
418.441	1070.06
418.649	1240.05
418.857	1270.76
419.065	1311.72
419.273	1268.72
419.481	1436.65
419.689	1485.8
419.897	1604.58
420.105	1545.19
420.313	1514.47
420.521	1653.73
420.729	1653.73
420.937	1706.98
421.145	1768.42
421.353	1907.68
421.561	2016.23
421.769	1991.65
421.977	2020.32
422.185	1991.65
422.393	2171.87
422.601	2333.66
422.809	2288.61
423.017	2370.52
423.224	2354.14
423.432	2448.35
423.64	2530.27
423.848	2804.69
424.056	2677.72
424.263	2786.26
424.471	2927.57
424.679	2878.42
424.887	3197.9
425.094	3222.48
425.302	3310.54
425.51	3445.71
425.718	3570.63
425.925	3572.68
426.133	3496.91
426.341	3814.34
426.548	3914.69
426.756	3953.6
426.964	4049.86
427.171	4170.69
427.379	4430.78
427.586	4348.86
427.794	4471.74
428.001	4705.21
428.209	5241.78
428.417	4977.59
428.624	5323.69
428.832	5354.41
429.039	5235.63
429.247	5307.31
429.454	5823.4
429.662	6126.5
429.869	5776.3
430.076	6257.57
430.284	5899.17
430.491	6308.77
430.699	6661.02
430.906	6730.65
431.114	6853.53
431.321	7050.13
431.528	7050.13
431.736	7338.9
431.943	8010.63
432.15	7650.19
432.358	7572.36
432.565	8219.52
432.772	8080.26
432.979	8545.15
433.187	8629.12
433.394	8620.92
433.601	9370.48
433.808	9419.63
434.016	9374.58
434.223	9796.46
434.43	10320.74
434.637	10105.7
434.844	10691.42
435.052	10939.23
435.259	11070.3
435.466	11201.37
435.673	10967.9
435.88	11729.74
436.087	12526.4
436.294	12176.2
436.501	12090.18
436.708	12329.8
436.915	12704.57
437.122	13114.17
437.329	13288.25
437.537	13677.36
437.743	13873.96
437.95	13617.97
438.157	14574.37
438.364	14971.68
438.571	14897.95
438.778	15002.4
438.985	16153.35
439.192	15735.57
439.399	16157.45
439.606	15653.65
439.813	16923.39
440.02	17824.5
440.227	17586.93
440.433	17808.11
440.64	18078.44
440.847	17996.53
441.054	18356.97
441.261	19753.68
441.467	19329.75
441.674	19518.17
441.881	20128.46
442.088	20089.55
442.294	20118.22
442.501	20832.96
442.708	21105.34
442.914	22104.75
443.121	22592.17
443.328	22258.35
443.534	23792.28
443.741	23259.81
443.948	22942.37
444.154	24582.79
444.361	24220.3
444.568	24619.66
444.774	24552.07
444.981	24527.5
445.187	25174.66
445.394	26733.16
445.6	26511.98
445.807	28891.72
446.013	27953.75
446.22	28062.29
446.426	29198.91
446.633	29385.28
446.839	30679.6
447.046	29323.84
447.252	31201.83
447.459	31097.38
447.665	30896.68
447.871	32592.4
448.078	33640.96
448.284	31912.47
448.491	32709.13
448.697	34157.05
448.903	35088.87
449.11	35205.61
449.316	34658.8
449.522	35174.89
449.728	36301.27
449.935	36366.81
450.141	36725.2
450.347	37181.9
450.553	36178.39
450.76	36475.35
450.966	37767.62
451.172	37394.89
451.378	38316.47
451.584	37855.68
451.791	38582.71
451.997	38339
452.203	39127.47
452.409	39113.13
452.615	38853.04
452.821	37870.01
453.027	37562.82
453.233	39440.81
453.44	37679.55
453.646	38033.85
453.852	38234.55
454.058	39059.88
454.264	37638.59
454.47	38797.74
454.676	37802.43
454.882	39076.27
455.088	35873.24
455.294	36344.28
455.5	36856.27
455.705	37308.87
455.911	35854.81
456.117	35291.62
456.323	34834.92
456.529	32715.28
456.735	34284.02
456.941	33663.49
457.147	33151.49
457.352	32027.16
457.558	31861.27
457.764	31769.12
457.97	31359.52
458.176	30634.54
458.381	30462.51
458.587	29057.6
458.793	28994.12
458.999	27787.86
459.204	29301.31
459.41	28623.44
459.616	27046.5
459.821	26925.67
460.027	26903.14
460.233	26438.25
460.438	24773.25
460.644	25158.27
460.85	24027.79
461.055	23706.26
461.261	23763.61
461.466	22125.23
461.672	21236.41
461.878	22776.48
462.083	21449.4
462.289	20794.05
462.494	20902.59
462.7	19534.55
462.905	19110.62
463.111	19790.55
463.316	19948.24
463.522	19557.08
463.727	19253.98
463.932	19409.62
464.138	19260.12
464.343	19466.97
464.549	18942.69
464.754	19188.44
464.959	19227.35
465.165	19145.44
465.37	18432.74
465.575	17912.56
465.781	18467.56
465.986	18698.98
466.191	18080.49
466.397	17474.29
466.602	16956.16
466.807	17621.75
467.012	17505.01
467.218	17249.02
467.423	17062.65
467.628	17238.78
