Data from USB4F104151__30__13-10-48-724.txt Node

Date: Fri Mar 14 13:10:48 EDT 2025
User: louis
Spectrometer: USB4F10415
Trigger mode: 4
Integration Time (sec): 2.000000E-2
Scans to average: 1
Electric dark correction enabled: true
Nonlinearity correction enabled: false
Boxcar width: 0
XAxis mode: Wavelengths
Number of Pixels in Spectrum: 3648
>>>>>Begin Spectral Data<<<<<
178.204	-125.1
178.424	-125.1
178.644	-125.1
178.864	-22.7
179.084	-123.05
179.304	-24.75
179.524	16.21
179.744	40.79
179.964	-2.22
180.184	-18.6
180.404	20.31
180.624	-32.94
180.844	14.17
181.064	-55.47
181.283	24.4
181.503	-26.79
181.723	44.88
181.943	34.64
182.163	36.69
182.383	38.74
182.602	77.65
182.822	110.42
183.042	57.17
183.262	-6.31
183.482	-2.22
183.701	-4.27
183.921	14.17
184.141	26.45
184.361	85.84
184.58	38.74
184.8	22.36
185.02	55.12
185.239	91.99
185.459	38.74
185.679	55.12
185.898	-10.41
186.118	57.17
186.338	8.02
186.557	83.8
186.777	-14.51
186.997	-30.89
187.216	20.31
187.436	112.47
187.655	118.61
187.875	-4.27
188.095	51.03
188.314	38.74
188.534	98.13
188.753	48.98
188.973	40.79
189.192	65.36
189.412	1.88
189.631	30.55
189.851	57.17
190.07	65.36
190.29	-4.27
190.509	85.84
190.729	112.47
190.948	71.51
191.168	112.47
191.387	104.28
191.607	38.74
191.826	26.45
192.045	34.64
192.265	32.6
192.484	5.97
192.704	1.88
192.923	71.51
193.142	53.08
193.362	48.98
193.581	57.17
193.8	20.31
194.02	83.8
194.239	40.79
194.458	67.41
194.678	83.8
194.897	48.98
195.116	63.32
195.335	108.37
195.555	5.97
195.774	65.36
195.993	40.79
196.212	96.08
196.432	83.8
196.651	102.23
196.87	42.84
197.089	94.04
197.308	71.51
197.528	132.95
197.747	63.32
197.966	96.08
198.185	55.12
198.404	57.17
198.623	69.46
198.842	-6.31
199.062	30.55
199.281	24.4
199.5	16.21
199.719	-2.22
199.938	104.28
200.157	61.27
200.376	48.98
200.595	110.42
200.814	63.32
201.033	26.45
201.252	44.88
201.471	-8.36
201.69	87.89
201.909	22.36
202.128	48.98
202.347	24.4
202.566	61.27
202.785	42.84
203.004	10.07
203.223	141.14
203.442	87.89
203.661	-28.84
203.879	8.02
204.098	14.17
204.317	42.84
204.536	94.04
204.755	-8.36
204.974	32.6
205.193	89.94
205.411	96.08
205.63	30.55
205.849	18.26
206.068	73.56
206.287	63.32
206.505	85.84
206.724	116.56
206.943	48.98
207.162	79.7
207.381	65.36
207.599	81.75
207.818	16.21
208.037	42.84
208.255	3.93
208.474	110.42
208.693	67.41
208.911	51.03
209.13	5.97
209.349	55.12
209.567	51.03
209.786	116.56
210.005	63.32
210.223	30.55
210.442	48.98
210.661	63.32
210.879	55.12
211.098	132.95
211.316	34.64
211.535	122.71
211.753	65.36
211.972	12.12
212.191	42.84
212.409	38.74
212.628	71.51
212.846	36.69
213.065	22.36
213.283	126.8
213.502	67.41
213.72	137.04
213.938	5.97
214.157	55.12
214.375	87.89
214.594	-2.22
214.812	5.97
215.031	83.8
215.249	79.7
215.467	-8.36
215.686	65.36
215.904	73.56
216.122	-8.36
216.341	24.4
216.559	112.47
216.778	96.08
216.996	12.12
217.214	8.02
217.432	40.79
217.651	71.51
217.869	-28.84
218.087	-6.31
218.306	10.07
218.524	12.12
218.742	53.08
218.96	100.18
219.179	22.36
219.397	-8.36
219.615	118.61
219.833	63.32
220.051	8.02
220.27	85.84
220.488	55.12
220.706	100.18
220.924	26.45
221.142	79.7
221.36	57.17
221.578	34.64
221.796	83.8
222.015	89.94
222.233	61.27
222.451	30.55
222.669	-8.36
222.887	48.98
223.105	40.79
223.323	77.65
223.541	18.26
223.759	118.61
223.977	-6.31
224.195	153.43
224.413	16.21
224.631	61.27
224.849	91.99
225.067	30.55
225.285	18.26
225.503	22.36
225.721	-37.03
225.939	100.18
226.157	1.88
226.375	157.52
226.592	106.32
226.81	71.51
227.028	79.7
227.246	104.28
227.464	16.21
227.682	-2.22
227.9	-20.65
228.117	87.89
228.335	22.36
228.553	71.51
228.771	53.08
228.989	63.32
229.206	3.93
229.424	8.02
229.642	59.22
229.86	3.93
230.077	69.46
230.295	108.37
230.513	91.99
230.731	85.84
230.948	-0.17
231.166	-22.7
231.384	44.88
231.601	85.84
231.819	26.45
232.037	79.7
232.254	67.41
232.472	5.97
232.689	10.07
232.907	24.4
233.125	26.45
233.342	46.93
233.56	24.4
233.777	79.7
233.995	-18.6
234.213	53.08
234.43	46.93
234.648	20.31
234.865	8.02
235.083	67.41
235.3	-57.51
235.518	-4.27
235.735	77.65
235.953	8.02
236.17	81.75
236.388	32.6
236.605	91.99
236.822	75.6
237.04	96.08
237.257	8.02
237.475	1.88
237.692	69.46
237.909	71.51
238.127	120.66
238.344	24.4
238.562	16.21
238.779	32.6
238.996	73.56
239.214	40.79
239.431	32.6
239.648	-4.27
239.865	91.99
240.083	85.84
240.3	85.84
240.517	10.07
240.735	98.13
240.952	79.7
241.169	34.64
241.386	32.6
241.603	34.64
241.821	48.98
242.038	73.56
242.255	57.17
242.472	44.88
242.689	100.18
242.907	42.84
243.124	28.5
243.341	48.98
243.558	85.84
243.775	28.5
243.992	-73.9
244.209	87.89
244.426	163.67
244.643	51.03
244.86	-43.18
245.078	-0.17
245.295	114.52
245.512	69.46
245.729	3.93
245.946	34.64
246.163	32.6
246.38	-8.36
246.597	51.03
246.814	44.88
247.031	1.88
247.248	96.08
247.464	69.46
247.681	83.8
247.898	89.94
248.115	83.8
248.332	-10.41
248.549	79.7
248.766	91.99
248.983	96.08
249.2	30.55
249.417	5.97
249.633	-30.89
249.85	106.32
250.067	67.41
250.284	71.51
250.501	63.32
250.717	96.08
250.934	98.13
251.151	30.55
251.368	69.46
251.585	-39.08
251.801	-43.18
252.018	42.84
252.235	18.26
252.451	14.17
252.668	59.22
252.885	110.42
253.102	102.23
253.318	81.75
253.535	-20.65
253.752	3.93
253.968	10.07
254.185	106.32
254.401	65.36
254.618	46.93
254.835	63.32
255.051	87.89
255.268	1.88
255.484	124.76
255.701	67.41
255.917	-14.51
256.134	26.45
256.351	118.61
256.567	-39.08
256.784	96.08
257	34.64
257.217	87.89
257.433	71.51
257.65	-2.22
257.866	40.79
258.082	73.56
258.299	-24.75
258.515	-18.6
258.732	20.31
258.948	81.75
259.165	67.41
259.381	18.26
259.597	46.93
259.814	1.88
260.03	5.97
260.246	1.88
260.463	75.6
260.679	16.21
260.895	-2.22
261.112	106.32
261.328	89.94
261.544	10.07
261.761	65.36
261.977	30.55
262.193	-6.31
262.409	100.18
262.626	96.08
262.842	55.12
263.058	-49.32
263.274	79.7
263.49	102.23
263.707	83.8
263.923	-49.32
264.139	24.4
264.355	22.36
264.571	171.86
264.787	34.64
265.004	96.08
265.22	63.32
265.436	30.55
265.652	30.55
265.868	79.7
266.084	87.89
266.3	120.66
266.516	-30.89
266.732	59.22
266.948	57.17
267.164	32.6
267.38	16.21
267.596	53.08
267.812	34.64
268.028	8.02
268.244	46.93
268.46	59.22
268.676	79.7
268.892	120.66
269.108	81.75
269.324	59.22
269.54	24.4
269.756	153.43
269.972	-22.7
270.188	57.17
270.403	-2.22
270.619	48.98
270.835	55.12
271.051	69.46
271.267	61.27
271.483	8.02
271.698	69.46
271.914	24.4
272.13	8.02
272.346	67.41
272.562	38.74
272.777	48.98
272.993	67.41
273.209	61.27
273.425	53.08
273.64	-0.17
273.856	143.19
274.072	12.12
274.287	-14.51
274.503	128.85
274.719	94.04
274.934	42.84
275.15	18.26
275.366	1.88
275.581	36.69
275.797	63.32
276.012	-8.36
276.228	85.84
276.444	48.98
276.659	104.28
276.875	-10.41
277.09	83.8
277.306	65.36
277.521	85.84
277.737	51.03
277.952	87.89
278.168	61.27
278.383	5.97
278.599	-32.94
278.814	30.55
279.03	71.51
279.245	59.22
279.461	57.17
279.676	48.98
279.892	40.79
280.107	44.88
280.322	73.56
280.538	89.94
280.753	57.17
280.969	36.69
281.184	73.56
281.399	22.36
281.615	38.74
281.83	14.17
282.045	16.21
282.26	-0.17
282.476	14.17
282.691	5.97
282.906	73.56
283.122	-12.46
283.337	40.79
283.552	98.13
283.767	55.12
283.983	38.74
284.198	102.23
284.413	157.52
284.628	79.7
284.843	55.12
285.058	71.51
285.274	30.55
285.489	-8.36
285.704	63.32
285.919	-24.75
286.134	16.21
286.349	12.12
286.564	51.03
286.779	57.17
286.995	1.88
287.21	34.64
287.425	120.66
287.64	71.51
287.855	48.98
288.07	24.4
288.285	98.13
288.5	38.74
288.715	135
288.93	-14.51
289.145	51.03
289.36	59.22
289.575	20.31
289.79	77.65
290.004	67.41
290.219	53.08
290.434	30.55
290.649	20.31
290.864	14.17
291.079	40.79
291.294	5.97
291.509	77.65
291.724	77.65
291.938	3.93
292.153	18.26
292.368	102.23
292.583	81.75
292.798	38.74
293.012	79.7
293.227	22.36
293.442	32.6
293.657	85.84
293.871	120.66
294.086	55.12
294.301	132.95
294.516	53.08
294.73	112.47
294.945	-63.66
295.16	40.79
295.374	63.32
295.589	89.94
295.804	1.88
296.018	87.89
296.233	100.18
296.447	55.12
296.662	73.56
296.877	71.51
297.091	67.41
297.306	10.07
297.52	34.64
297.735	112.47
297.949	67.41
298.164	55.12
298.378	59.22
298.593	5.97
298.807	48.98
299.022	14.17
299.236	-32.94
299.451	59.22
299.665	32.6
299.88	51.03
300.094	71.51
300.309	69.46
300.523	16.21
300.737	-22.7
300.952	38.74
301.166	98.13
301.381	42.84
301.595	96.08
301.809	14.17
302.024	139.09
302.238	102.23
302.452	51.03
302.667	36.69
302.881	53.08
303.095	44.88
303.309	100.18
303.524	114.52
303.738	26.45
303.952	75.6
304.166	26.45
304.381	-18.6
304.595	89.94
304.809	-10.41
305.023	69.46
305.237	-10.41
305.452	139.09
305.666	3.93
305.88	155.47
306.094	112.47
306.308	63.32
306.522	71.51
306.736	139.09
306.95	51.03
307.164	26.45
307.379	24.4
307.593	75.6
307.807	44.88
308.021	87.89
308.235	34.64
308.449	120.66
308.663	110.42
308.877	94.04
309.091	186.19
309.305	1.88
309.519	10.07
309.733	34.64
309.947	10.07
310.161	55.12
310.374	-2.22
310.588	163.67
310.802	118.61
311.016	16.21
311.23	3.93
311.444	14.17
311.658	151.38
311.872	14.17
312.085	69.46
312.299	59.22
312.513	114.52
312.727	79.7
312.941	16.21
313.154	153.43
313.368	57.17
313.582	18.26
313.796	87.89
314.009	18.26
314.223	34.64
314.437	59.22
314.651	24.4
314.864	114.52
315.078	18.26
315.292	65.36
315.505	28.5
315.719	65.36
315.933	157.52
316.146	57.17
316.36	-16.55
316.573	44.88
316.787	98.13
317.001	42.84
317.214	-57.51
317.428	-2.22
317.641	77.65
317.855	137.04
318.068	63.32
318.282	40.79
318.495	167.76
318.709	89.94
318.922	116.56
319.136	141.14
319.349	87.89
319.563	87.89
319.776	32.6
319.99	16.21
320.203	-0.17
320.417	100.18
320.63	44.88
320.843	132.95
321.057	3.93
321.27	40.79
321.483	114.52
321.697	126.8
321.91	5.97
322.124	89.94
322.337	96.08
322.55	65.36
322.763	30.55
322.977	46.93
323.19	10.07
323.403	1.88
323.617	55.12
323.83	34.64
324.043	30.55
324.256	83.8
324.469	-8.36
324.683	44.88
324.896	85.84
325.109	71.51
325.322	34.64
325.535	83.8
325.748	46.93
325.962	36.69
326.175	98.13
326.388	67.41
326.601	79.7
326.814	71.51
327.027	-16.55
327.24	100.18
327.453	-41.13
327.666	51.03
327.879	112.47
328.092	8.02
328.305	30.55
328.518	48.98
328.731	77.65
328.944	57.17
329.157	75.6
329.37	55.12
329.583	8.02
329.796	94.04
330.009	42.84
330.222	-20.65
330.435	46.93
330.648	67.41
330.861	46.93
331.073	75.6
331.286	137.04
331.499	128.85
331.712	38.74
331.925	75.6
332.138	81.75
332.35	77.65
332.563	79.7
332.776	110.42
332.989	42.84
333.202	71.51
333.414	87.89
333.627	89.94
333.84	26.45
334.053	48.98
334.265	22.36
334.478	-24.75
334.691	145.24
334.903	46.93
335.116	94.04
335.329	61.27
335.541	1.88
335.754	32.6
335.966	-22.7
336.179	48.98
336.392	79.7
336.604	94.04
336.817	79.7
337.029	85.84
337.242	48.98
337.454	89.94
337.667	-0.17
337.88	48.98
338.092	96.08
338.305	137.04
338.517	-8.36
338.729	110.42
338.942	83.8
339.154	-0.17
339.367	-22.7
339.579	73.56
339.792	32.6
340.004	-45.23
340.217	36.69
340.429	24.4
340.641	5.97
340.854	63.32
341.066	1.88
341.278	145.24
341.491	61.27
341.703	26.45
341.915	24.4
342.128	36.69
342.34	71.51
342.552	38.74
342.764	57.17
342.977	79.7
343.189	71.51
343.401	71.51
343.613	77.65
343.826	38.74
344.038	61.27
344.25	96.08
344.462	38.74
344.674	53.08
344.886	10.07
345.099	10.07
345.311	5.97
345.523	59.22
345.735	28.5
345.947	67.41
346.159	42.84
346.371	124.76
346.583	1.88
346.795	147.28
347.007	73.56
347.219	87.89
347.431	38.74
347.643	65.36
347.855	-2.22
348.067	38.74
348.279	40.79
348.491	24.4
348.703	-28.84
348.915	112.47
349.127	96.08
349.339	124.76
349.551	-47.27
349.763	73.56
349.975	71.51
350.187	96.08
350.399	12.12
350.61	42.84
350.822	77.65
351.034	-20.65
351.246	-20.65
351.458	139.09
351.669	51.03
351.881	46.93
352.093	85.84
352.305	69.46
352.517	26.45
352.728	96.08
352.94	126.8
353.152	44.88
353.363	-2.22
353.575	63.32
353.787	122.71
353.999	87.89
354.21	94.04
354.422	104.28
354.633	85.84
354.845	180.05
355.057	63.32
355.268	30.55
355.48	75.6
355.692	89.94
355.903	1.88
356.115	40.79
356.326	-37.03
356.538	30.55
356.749	128.85
356.961	51.03
357.172	100.18
357.384	137.04
357.595	135
357.807	106.32
358.018	30.55
358.23	38.74
358.441	73.56
358.653	122.71
358.864	44.88
359.075	57.17
359.287	22.36
359.498	104.28
359.709	85.84
359.921	24.4
360.132	87.89
360.344	63.32
360.555	79.7
360.766	91.99
360.977	42.84
361.189	85.84
361.4	20.31
361.611	51.03
361.823	112.47
362.034	-24.75
362.245	28.5
362.456	32.6
362.667	63.32
362.879	122.71
363.09	26.45
363.301	67.41
363.512	63.32
363.723	79.7
363.935	128.85
364.146	106.32
364.357	75.6
364.568	96.08
364.779	1.88
364.99	59.22
365.201	59.22
365.412	112.47
365.623	96.08
365.834	51.03
366.045	114.52
366.256	71.51
366.467	106.32
366.678	71.51
366.889	81.75
367.1	102.23
367.311	98.13
367.522	48.98
367.733	85.84
367.944	40.79
368.155	40.79
368.366	83.8
368.577	71.51
368.788	65.36
368.999	114.52
369.209	24.4
369.42	100.18
369.631	106.32
369.842	104.28
370.053	79.7
370.264	73.56
370.474	65.36
370.685	24.4
370.896	32.6
371.107	155.47
371.317	24.4
371.528	79.7
371.739	85.84
371.95	42.84
372.16	34.64
372.371	44.88
372.582	87.89
372.792	79.7
373.003	53.08
373.214	102.23
373.424	96.08
373.635	-8.36
373.846	87.89
374.056	67.41
374.267	51.03
374.477	169.81
374.688	22.36
374.898	79.7
375.109	79.7
375.319	42.84
375.53	63.32
375.74	59.22
375.951	-0.17
376.161	157.52
376.372	83.8
376.582	32.6
376.793	171.86
377.003	81.75
377.214	118.61
377.424	-12.46
377.635	114.52
377.845	110.42
378.055	118.61
378.266	-22.7
378.476	55.12
378.686	28.5
378.897	94.04
379.107	59.22
379.317	69.46
379.528	120.66
379.738	137.04
379.948	44.88
380.158	34.64
380.369	67.41
380.579	94.04
380.789	128.85
380.999	104.28
381.21	85.84
381.42	145.24
381.63	28.5
381.84	108.37
382.05	85.84
382.261	67.41
382.471	26.45
382.681	104.28
382.891	126.8
383.101	79.7
383.311	16.21
383.521	96.08
383.731	67.41
383.941	38.74
384.151	57.17
384.361	8.02
384.571	87.89
384.781	3.93
384.991	22.36
385.201	36.69
385.411	16.21
385.621	38.74
385.831	108.37
386.041	42.84
386.251	10.07
386.461	65.36
386.671	73.56
386.881	-30.89
387.091	79.7
387.301	89.94
387.511	87.89
387.72	61.27
387.93	96.08
388.14	40.79
388.35	75.6
388.56	104.28
388.769	108.37
388.979	85.84
389.189	81.75
389.399	59.22
389.609	61.27
389.818	145.24
390.028	132.95
390.238	139.09
390.447	-4.27
390.657	100.18
390.867	116.56
391.076	57.17
391.286	63.32
391.496	87.89
391.705	137.04
391.915	57.17
392.125	42.84
392.334	77.65
392.544	32.6
392.753	77.65
392.963	89.94
393.172	71.51
393.382	118.61
393.591	145.24
393.801	112.47
394.01	59.22
394.22	63.32
394.429	100.18
394.639	135
394.848	108.37
395.058	83.8
395.267	112.47
395.477	32.6
395.686	61.27
395.895	122.71
396.105	186.19
396.314	143.19
396.524	116.56
396.733	135
396.942	139.09
397.152	26.45
397.361	169.81
397.57	87.89
397.78	96.08
397.989	173.91
398.198	122.71
398.407	104.28
398.617	169.81
398.826	34.64
399.035	100.18
399.244	102.23
399.453	137.04
399.663	96.08
399.872	139.09
400.081	151.38
400.29	155.47
400.499	81.75
400.708	173.91
400.917	178
401.127	145.24
401.336	73.56
401.545	165.71
401.754	214.87
401.963	114.52
402.172	196.43
402.381	141.14
402.59	132.95
402.799	151.38
403.008	124.76
403.217	122.71
403.426	169.81
403.635	87.89
403.844	204.63
404.053	106.32
404.262	98.13
404.471	251.73
404.68	63.32
404.888	237.39
405.097	122.71
405.306	118.61
405.515	196.43
405.724	141.14
405.933	223.06
406.142	178
406.35	186.19
406.559	233.3
406.768	202.58
406.977	255.83
407.185	235.35
407.394	178
407.603	175.95
407.812	264.02
408.02	237.39
408.229	218.96
408.438	218.96
408.646	206.67
408.855	221.01
409.064	257.87
409.272	341.84
409.481	307.02
409.69	280.4
409.898	257.87
410.107	329.55
410.315	444.24
410.524	315.22
410.733	358.22
410.941	386.9
411.15	425.81
411.358	368.46
411.567	458.57
411.775	382.8
411.984	454.48
412.192	390.99
412.401	436.05
412.609	526.16
412.818	548.68
413.026	515.92
413.234	563.02
413.443	489.29
413.651	526.16
413.86	591.69
414.068	634.7
414.276	585.55
414.485	698.19
414.693	642.89
414.901	685.9
415.11	741.19
415.318	726.86
415.526	835.4
415.734	804.68
415.943	870.22
416.151	909.13
416.359	755.53
416.567	919.37
416.776	1013.57
416.984	1013.57
417.192	1009.48
417.4	1027.91
417.608	1001.29
417.817	1070.92
418.025	1161.03
418.233	1183.56
418.441	1158.98
418.649	1279.81
418.857	1343.3
419.065	1294.15
419.273	1259.33
419.481	1398.59
419.689	1517.37
419.897	1554.24
420.105	1582.91
420.313	1554.24
420.521	1582.91
420.729	1619.77
420.937	1746.75
421.145	1742.65
421.353	1865.53
421.561	2072.37
421.769	1980.22
421.977	2185.01
422.185	2068.28
422.393	2238.26
422.601	2357.04
422.809	2375.47
423.017	2379.57
423.224	2488.11
423.432	2574.13
423.64	2617.13
423.848	2697
424.056	2664.24
424.263	2852.65
424.471	2967.34
424.679	3036.97
424.887	3153.7
425.094	3221.28
425.302	3153.7
425.51	3401.51
425.718	3499.81
425.925	3495.71
426.133	3696.41
426.341	3979.03
426.548	4112.15
426.756	4161.3
426.964	3999.51
427.171	4230.93
427.379	4505.36
427.586	4454.16
427.794	4615.95
428.001	4763.4
428.209	4970.25
428.417	4871.95
428.624	5250.82
428.832	5224.2
429.039	5230.34
429.247	5302.02
429.454	5883.64
429.662	6319.86
429.869	5697.28
430.076	6266.61
430.284	6047.48
430.491	6239.99
430.699	6586.1
430.906	6821.61
431.114	6749.93
431.321	6946.54
431.528	7141.1
431.736	7552.74
431.943	8013.53
432.15	7628.51
432.358	7790.3
432.565	8201.94
432.772	8197.85
432.979	8468.18
433.187	8672.98
433.394	8802
433.601	9250.5
433.808	9492.16
434.016	9389.77
434.223	9758.4
434.43	10327.74
434.637	10413.75
434.844	10811.06
435.052	11110.06
435.259	10948.27
435.466	11173.55
435.673	10933.93
435.88	11830.94
436.087	12242.59
436.294	12365.46
436.501	12123.8
436.708	12170.91
436.915	12572.31
437.122	13256.33
437.329	13096.59
437.537	13817.47
437.743	13721.22
437.95	13377.16
438.157	14347.9
438.364	14999.15
438.571	14878.32
438.778	14937.71
438.985	16066.14
439.192	15924.83
439.399	16385.63
439.606	15752.8
439.813	16860.76
440.02	17692.23
440.227	17407.56
440.433	17378.89
440.64	17815.11
440.847	17802.82
441.054	18257.47
441.261	19574.31
441.467	19383.85
441.674	19734.06
441.881	20397.6
442.088	20366.88
442.294	20244
442.501	20598.3
442.708	21071.38
442.914	21896.71
443.121	22783.48
443.328	22461.95
443.534	24069.61
443.741	22914.55
443.948	22672.89
444.154	24430.05
444.361	24356.32
444.568	24346.08
444.774	24796.63
444.981	24823.26
445.187	25490.9
445.394	26502.59
445.6	26342.85
445.807	28734.88
446.013	27428.27
446.22	28106.15
446.426	29285.78
446.633	29654.42
446.839	30586.24
447.046	29146.52
447.252	30586.24
447.459	31327.61
447.665	30881.15
447.871	32232.81
448.078	34053.45
448.284	32241
448.491	32828.77
448.697	34608.45
448.903	34655.56
449.11	34870.59
449.316	34471.24
449.522	34929.98
449.728	36001.07
449.935	36437.29
450.141	36361.51
450.347	37127.45
450.553	36277.55
450.76	36738.34
450.966	37625.11
451.172	37227.81
451.378	38278.41
451.584	37913.87
451.791	38251.79
451.997	38380.81
452.203	39247.1
452.409	39292.16
452.615	39042.31
452.821	37354.78
453.027	37254.43
453.233	39128.32
453.44	37735.7
453.646	37989.65
453.852	38307.08
454.058	38937.86
454.264	37754.13
454.47	38640.9
454.676	37408.03
454.882	38880.52
455.088	35509.56
455.294	36281.64
455.5	37135.65
455.705	37176.61
455.911	35495.22
456.117	35419.45
456.323	34995.52
456.529	32759.14
456.735	34301.26
456.941	33615.19
457.147	32793.95
457.352	32179.56
457.558	31692.15
457.764	31907.18
457.97	31085.95
458.176	30637.44
458.381	30645.63
458.587	28913.05
458.793	29150.62
458.999	27637.17
459.204	29330.84
459.41	28646.82
459.616	27166.13
459.821	27114.94
460.027	26623.42
460.233	26449.35
460.438	25161.17
460.644	25617.87
460.85	24131.05
461.055	23518.7
461.261	23760.36
461.466	21886.47
461.672	21493.26
461.878	22822.39
462.083	21374.48
462.289	20907.54
462.494	20524.57
462.7	19762.73
462.905	19029.55
463.111	19811.88
463.316	20002.34
463.522	19310.13
463.727	19476.01
463.932	19678.76
464.138	19256.88
464.343	19465.77
464.549	18716.22
464.754	19363.37
464.959	19183.15
465.165	18888.25
465.37	18290.24
465.575	17905.22
465.781	18529.85
465.986	18677.3
466.191	17876.55
466.397	17454.67
466.602	16768.6
466.807	17591.88
467.012	17544.78
467.218	17299.02
467.423	17270.35
467.628	17073.74
