Data from USB4F104151__50__13-11-27-600.txt Node

Date: Fri Mar 14 13:11:27 EDT 2025
User: louis
Spectrometer: USB4F10415
Trigger mode: 4
Integration Time (sec): 2.000000E-2
Scans to average: 1
Electric dark correction enabled: true
Nonlinearity correction enabled: false
Boxcar width: 0
XAxis mode: Wavelengths
Number of Pixels in Spectrum: 3648
>>>>>Begin Spectral Data<<<<<
178.204	-80.72
178.424	-80.72
178.644	-80.72
178.864	-80.72
179.084	-107.35
179.304	48.3
179.524	19.63
179.744	-62.29
179.964	-29.52
180.184	-11.09
180.404	21.67
180.624	62.63
180.844	21.67
181.064	-7
181.283	19.63
181.503	-58.2
181.723	-25.43
181.943	-4.95
182.163	68.78
182.383	-19.29
182.602	-37.72
182.822	29.87
183.042	-13.14
183.262	13.48
183.482	-19.29
183.701	-13.14
183.921	-7
184.141	-11.09
184.361	-4.95
184.58	87.21
184.8	3.24
185.02	19.63
185.239	70.83
185.459	-19.29
185.679	15.53
185.898	13.48
186.118	31.91
186.338	48.3
186.557	44.2
186.777	-23.38
186.997	19.63
187.216	31.91
187.436	79.02
187.655	-0.85
187.875	31.91
188.095	-62.29
188.314	107.69
188.534	58.54
188.753	-50
188.973	-21.33
189.192	62.63
189.412	-41.81
189.631	42.15
189.851	36.01
190.07	44.2
190.29	-52.05
190.509	38.06
190.729	-45.91
190.948	31.91
191.168	79.02
191.387	109.74
191.607	56.49
191.826	44.2
192.045	46.25
192.265	-4.95
192.484	-11.09
192.704	-13.14
192.923	-41.81
193.142	158.89
193.362	79.02
193.581	36.01
193.8	29.87
194.02	81.07
194.239	-21.33
194.458	-4.95
194.678	64.68
194.897	40.11
195.116	38.06
195.335	46.25
195.555	13.48
195.774	40.11
195.993	15.53
196.212	23.72
196.432	-62.29
196.651	58.54
196.87	68.78
197.089	105.64
197.308	-56.15
197.528	-19.29
197.747	42.15
197.966	44.2
198.185	21.67
198.404	9.39
198.623	-39.76
198.842	36.01
199.062	21.67
199.281	99.5
199.5	7.34
199.719	-62.29
199.938	21.67
200.157	11.43
200.376	11.43
200.595	56.49
200.814	40.11
201.033	-23.38
201.252	19.63
201.471	11.43
201.69	17.58
201.909	3.24
202.128	-21.33
202.347	31.91
202.566	31.91
202.785	-4.95
203.004	76.97
203.223	44.2
203.442	76.97
203.661	-7
203.879	60.59
204.098	3.24
204.317	17.58
204.536	-7
204.755	62.63
204.974	-27.48
205.193	11.43
205.411	52.39
205.63	-37.72
205.849	1.19
206.068	-35.67
206.287	-13.14
206.505	33.96
206.724	50.35
206.943	-35.67
207.162	42.15
207.381	50.35
207.599	-54.1
207.818	-52.05
208.037	-29.52
208.255	-21.33
208.474	1.19
208.693	40.11
208.911	15.53
209.13	44.2
209.349	25.77
209.567	76.97
209.786	52.39
210.005	48.3
210.223	-0.85
210.442	-45.91
210.661	109.74
210.879	-21.33
211.098	29.87
211.316	-33.62
211.535	38.06
211.753	56.49
211.972	-17.24
212.191	-2.9
212.409	44.2
212.628	21.67
212.846	-27.48
213.065	25.77
213.283	87.21
213.502	19.63
213.72	15.53
213.938	3.24
214.157	60.59
214.375	9.39
214.594	40.11
214.812	-54.1
215.031	48.3
215.249	23.72
215.467	70.83
215.686	-2.9
215.904	48.3
216.122	29.87
216.341	31.91
216.559	29.87
216.778	89.26
216.996	27.82
217.214	-25.43
217.432	-43.86
217.651	-11.09
217.869	-2.9
218.087	64.68
218.306	-4.95
218.524	21.67
218.742	-11.09
218.96	50.35
219.179	-21.33
219.397	-27.48
219.615	74.92
219.833	70.83
220.051	15.53
220.27	13.48
220.488	7.34
220.706	109.74
220.924	13.48
221.142	29.87
221.36	-50
221.578	11.43
221.796	72.87
222.015	27.82
222.233	44.2
222.451	183.46
222.669	-43.86
222.887	-9.05
223.105	36.01
223.323	33.96
223.541	-11.09
223.759	62.63
223.977	-4.95
224.195	3.24
224.413	5.29
224.631	72.87
224.849	-15.19
225.067	52.39
225.285	-2.9
225.503	-13.14
225.721	-17.24
225.939	-25.43
226.157	-9.05
226.375	46.25
226.592	-31.57
226.81	46.25
227.028	-9.05
227.246	119.98
227.464	-25.43
227.682	-17.24
227.9	-17.24
228.117	31.91
228.335	27.82
228.553	60.59
228.771	44.2
228.989	-7
229.206	-33.62
229.424	17.58
229.642	7.34
229.86	5.29
230.077	-33.62
230.295	3.24
230.513	23.72
230.731	-33.62
230.948	95.4
231.166	48.3
231.384	-56.15
231.601	3.24
231.819	60.59
232.037	29.87
232.254	7.34
232.472	-41.81
232.689	-4.95
232.907	52.39
233.125	-21.33
233.342	5.29
233.56	-19.29
233.777	-19.29
233.995	1.19
234.213	66.73
234.43	21.67
234.648	-39.76
234.865	11.43
235.083	103.59
235.3	-31.57
235.518	36.01
235.735	124.07
235.953	95.4
236.17	9.39
236.388	-9.05
236.605	9.39
236.822	54.44
237.04	29.87
237.257	64.68
237.475	-60.24
237.692	79.02
237.909	-39.76
238.127	-11.09
238.344	38.06
238.562	66.73
238.779	3.24
238.996	-54.1
239.214	52.39
239.431	19.63
239.648	-39.76
239.865	-33.62
240.083	3.24
240.3	29.87
240.517	-4.95
240.735	68.78
240.952	81.07
241.169	42.15
241.386	79.02
241.603	-37.72
241.821	-47.96
242.038	64.68
242.255	62.63
242.472	79.02
242.689	44.2
242.907	52.39
243.124	-25.43
243.341	-35.67
243.558	-23.38
243.775	29.87
243.992	-29.52
244.209	36.01
244.426	42.15
244.643	33.96
244.86	-9.05
245.078	64.68
245.295	5.29
245.512	1.19
245.729	1.19
245.946	5.29
246.163	-11.09
246.38	38.06
246.597	1.19
246.814	5.29
247.031	-13.14
247.248	-66.39
247.464	27.82
247.681	-29.52
247.898	-60.24
248.115	46.25
248.332	19.63
248.549	42.15
248.766	25.77
248.983	-4.95
249.2	56.49
249.417	27.82
249.633	38.06
249.85	5.29
250.067	9.39
250.284	-29.52
250.501	79.02
250.717	60.59
250.934	-37.72
251.151	21.67
251.368	27.82
251.585	85.16
251.801	52.39
252.018	-37.72
252.235	3.24
252.451	36.01
252.668	-41.81
252.885	122.02
253.102	-29.52
253.318	81.07
253.535	38.06
253.752	21.67
253.968	52.39
254.185	-39.76
254.401	70.83
254.618	13.48
254.835	-21.33
255.051	74.92
255.268	3.24
255.484	-25.43
255.701	42.15
255.917	-15.19
256.134	46.25
256.351	76.97
256.567	-0.85
256.784	-19.29
257	21.67
257.217	21.67
257.433	72.87
257.65	-21.33
257.866	93.35
258.082	23.72
258.299	-15.19
258.515	-2.9
258.732	-2.9
258.948	5.29
259.165	-11.09
259.381	46.25
259.597	-4.95
259.814	13.48
260.03	25.77
260.246	5.29
260.463	-29.52
260.679	-13.14
260.895	56.49
261.112	21.67
261.328	44.2
261.544	1.19
261.761	87.21
261.977	40.11
262.193	38.06
262.409	13.48
262.626	46.25
262.842	19.63
263.058	36.01
263.274	-4.95
263.49	5.29
263.707	11.43
263.923	44.2
264.139	-19.29
264.355	27.82
264.571	56.49
264.787	70.83
265.004	76.97
265.22	-29.52
265.436	36.01
265.652	-17.24
265.868	3.24
266.084	-13.14
266.3	5.29
266.516	-27.48
266.732	31.91
266.948	60.59
267.164	-9.05
267.38	-60.24
267.596	3.24
267.812	36.01
268.028	54.44
268.244	-29.52
268.46	19.63
268.676	-56.15
268.892	54.44
269.108	-43.86
269.324	-29.52
269.54	-29.52
269.756	87.21
269.972	33.96
270.188	19.63
270.403	-9.05
270.619	36.01
270.835	-4.95
271.051	-0.85
271.267	-17.24
271.483	31.91
271.698	66.73
271.914	15.53
272.13	19.63
272.346	-33.62
272.562	40.11
272.777	85.16
272.993	15.53
273.209	-2.9
273.425	62.63
273.64	-33.62
273.856	33.96
274.072	-29.52
274.287	17.58
274.503	50.35
274.719	60.59
274.934	85.16
275.15	-37.72
275.366	62.63
275.581	46.25
275.797	36.01
276.012	29.87
276.228	50.35
276.444	-39.76
276.659	-37.72
276.875	5.29
277.09	21.67
277.306	5.29
277.521	21.67
277.737	70.83
277.952	50.35
278.168	68.78
278.383	40.11
278.599	-2.9
278.814	-11.09
279.03	1.19
279.245	48.3
279.461	40.11
279.676	48.3
279.892	15.53
280.107	-7
280.322	-54.1
280.538	29.87
280.753	-29.52
280.969	74.92
281.184	11.43
281.399	-7
281.615	17.58
281.83	56.49
282.045	27.82
282.26	13.48
282.476	9.39
282.691	11.43
282.906	-4.95
283.122	-2.9
283.337	44.2
283.552	-19.29
283.767	1.19
283.983	-33.62
284.198	19.63
284.413	66.73
284.628	-9.05
284.843	31.91
285.058	44.2
285.274	13.48
285.489	25.77
285.704	46.25
285.919	-76.63
286.134	-39.76
286.349	89.26
286.564	66.73
286.779	31.91
286.995	-0.85
287.21	33.96
287.425	36.01
287.64	25.77
287.855	15.53
288.07	-19.29
288.285	15.53
288.5	48.3
288.715	72.87
288.93	36.01
289.145	23.72
289.36	48.3
289.575	-27.48
289.79	3.24
290.004	-13.14
290.219	60.59
290.434	13.48
290.649	17.58
290.864	33.96
291.079	9.39
291.294	11.43
291.509	33.96
291.724	21.67
291.938	36.01
292.153	85.16
292.368	54.44
292.583	58.54
292.798	70.83
293.012	-2.9
293.227	128.17
293.442	-2.9
293.657	31.91
293.871	58.54
294.086	-27.48
294.301	11.43
294.516	13.48
294.73	-19.29
294.945	-45.91
295.16	91.31
295.374	130.22
295.589	-4.95
295.804	29.87
296.018	-9.05
296.233	44.2
296.447	-27.48
296.662	68.78
296.877	54.44
297.091	19.63
297.306	21.67
297.52	7.34
297.735	36.01
297.949	5.29
298.164	76.97
298.378	52.39
298.593	-9.05
298.807	-21.33
299.022	15.53
299.236	-4.95
299.451	38.06
299.665	-54.1
299.88	15.53
300.094	70.83
300.309	-17.24
300.523	15.53
300.737	11.43
300.952	15.53
301.166	-13.14
301.381	-7
301.595	-19.29
301.809	50.35
302.024	23.72
302.238	-41.81
302.452	76.97
302.667	40.11
302.881	36.01
303.095	105.64
303.309	-4.95
303.524	36.01
303.738	-17.24
303.952	-35.67
304.166	52.39
304.381	-58.2
304.595	93.35
304.809	-19.29
305.023	44.2
305.237	-15.19
305.452	29.87
305.666	54.44
305.88	15.53
306.094	31.91
306.308	38.06
306.522	89.26
306.736	68.78
306.95	46.25
307.164	29.87
307.379	33.96
307.593	52.39
307.807	81.07
308.021	-27.48
308.235	13.48
308.449	23.72
308.663	-4.95
308.877	62.63
309.091	-2.9
309.305	48.3
309.519	1.19
309.733	64.68
309.947	17.58
310.161	42.15
310.374	-43.86
310.588	62.63
310.802	-19.29
311.016	27.82
311.23	-27.48
311.444	21.67
311.658	42.15
311.872	21.67
312.085	36.01
312.299	38.06
312.513	66.73
312.727	62.63
312.941	3.24
313.154	79.02
313.368	17.58
313.582	5.29
313.796	52.39
314.009	-2.9
314.223	-0.85
314.437	7.34
314.651	-33.62
314.864	-2.9
315.078	-9.05
315.292	60.59
315.505	29.87
315.719	1.19
315.933	11.43
316.146	1.19
316.36	-39.76
316.573	19.63
316.787	72.87
317.001	36.01
317.214	17.58
317.428	64.68
317.641	42.15
317.855	19.63
318.068	3.24
318.282	46.25
318.495	52.39
318.709	-23.38
318.922	38.06
319.136	85.16
319.349	56.49
319.563	19.63
319.776	68.78
319.99	52.39
320.203	50.35
320.417	-27.48
320.63	44.2
320.843	85.16
321.057	-4.95
321.27	-13.14
321.483	54.44
321.697	111.78
321.91	62.63
322.124	38.06
322.337	62.63
322.55	27.82
322.763	-17.24
322.977	72.87
323.19	-17.24
323.403	58.54
323.617	11.43
323.83	1.19
324.043	-9.05
324.256	-25.43
324.469	-13.14
324.683	36.01
324.896	48.3
325.109	1.19
325.322	-11.09
325.535	93.35
325.748	11.43
325.962	31.91
326.175	64.68
326.388	36.01
326.601	-11.09
326.814	13.48
327.027	-35.67
327.24	126.12
327.453	-11.09
327.666	126.12
327.879	44.2
328.092	105.64
328.305	-54.1
328.518	46.25
328.731	50.35
328.944	36.01
329.157	-50
329.37	60.59
329.583	87.21
329.796	7.34
330.009	31.91
330.222	-4.95
330.435	91.31
330.648	52.39
330.861	44.2
331.073	23.72
331.286	27.82
331.499	1.19
331.712	-11.09
331.925	48.3
332.138	101.55
332.35	85.16
332.563	87.21
332.776	68.78
332.989	29.87
333.202	-13.14
333.414	44.2
333.627	113.83
333.84	-4.95
334.053	31.91
334.265	44.2
334.478	-17.24
334.691	103.59
334.903	17.58
335.116	-9.05
335.329	13.48
335.541	17.58
335.754	87.21
335.966	36.01
336.179	-2.9
336.392	33.96
336.604	-0.85
336.817	52.39
337.029	33.96
337.242	-13.14
337.454	36.01
337.667	9.39
337.88	93.35
338.092	-54.1
338.305	15.53
338.517	68.78
338.729	17.58
338.942	70.83
339.154	31.91
339.367	15.53
339.579	62.63
339.792	3.24
340.004	87.21
340.217	11.43
340.429	-0.85
340.641	-11.09
340.854	-43.86
341.066	93.35
341.278	87.21
341.491	60.59
341.703	21.67
341.915	-31.57
342.128	13.48
342.34	60.59
342.552	-76.63
342.764	48.3
342.977	23.72
343.189	70.83
343.401	-27.48
343.613	25.77
343.826	46.25
344.038	23.72
344.25	29.87
344.462	-23.38
344.674	27.82
344.886	74.92
345.099	42.15
345.311	72.87
345.523	117.93
345.735	-37.72
345.947	33.96
346.159	19.63
346.371	95.4
346.583	60.59
346.795	83.11
347.007	-19.29
347.219	81.07
347.431	46.25
347.643	13.48
347.855	3.24
348.067	60.59
348.279	13.48
348.491	-17.24
348.703	68.78
348.915	40.11
349.127	-35.67
349.339	23.72
349.551	31.91
349.763	-0.85
349.975	21.67
350.187	-15.19
350.399	3.24
350.61	33.96
350.822	56.49
351.034	-4.95
351.246	-0.85
351.458	21.67
351.669	56.49
351.881	-17.24
352.093	58.54
352.305	68.78
352.517	7.34
352.728	25.77
352.94	56.49
353.152	19.63
353.363	64.68
353.575	93.35
353.787	-25.43
353.999	-11.09
354.21	68.78
354.422	33.96
354.633	-25.43
354.845	29.87
355.057	-4.95
355.268	21.67
355.48	-56.15
355.692	13.48
355.903	-17.24
356.115	15.53
356.326	7.34
356.538	-15.19
356.749	42.15
356.961	72.87
357.172	-13.14
357.384	11.43
357.595	66.73
357.807	48.3
358.018	66.73
358.23	-21.33
358.441	74.92
358.653	-13.14
358.864	-37.72
359.075	62.63
359.287	-15.19
359.498	79.02
359.709	15.53
359.921	-33.62
360.132	3.24
360.344	81.07
360.555	33.96
360.766	85.16
360.977	36.01
361.189	-21.33
361.4	27.82
361.611	44.2
361.823	5.29
362.034	101.55
362.245	5.29
362.456	33.96
362.667	-9.05
362.879	60.59
363.09	50.35
363.301	44.2
363.512	-7
363.723	-35.67
363.935	33.96
364.146	46.25
364.357	31.91
364.568	-13.14
364.779	44.2
364.99	-0.85
365.201	21.67
365.412	91.31
365.623	7.34
365.834	13.48
366.045	1.19
366.256	81.07
366.467	17.58
366.678	3.24
366.889	60.59
367.1	54.44
367.311	50.35
367.522	-31.57
367.733	54.44
367.944	3.24
368.155	29.87
368.366	124.07
368.577	126.12
368.788	36.01
368.999	29.87
369.209	-70.48
369.42	76.97
369.631	109.74
369.842	-45.91
370.053	38.06
370.264	29.87
370.474	17.58
370.685	-0.85
370.896	72.87
371.107	-0.85
371.317	46.25
371.528	21.67
371.739	19.63
371.95	31.91
372.16	54.44
372.371	-27.48
372.582	-13.14
372.792	52.39
373.003	60.59
373.214	42.15
373.424	68.78
373.635	5.29
373.846	58.54
374.056	9.39
374.267	54.44
374.477	70.83
374.688	46.25
374.898	19.63
375.109	38.06
375.319	70.83
375.53	119.98
375.74	76.97
375.951	21.67
376.161	27.82
376.372	52.39
376.582	-35.67
376.793	60.59
377.003	-93.01
377.214	33.96
377.424	25.77
377.635	-7
377.845	27.82
378.055	29.87
378.266	-45.91
378.476	3.24
378.686	29.87
378.897	29.87
379.107	25.77
379.317	-11.09
379.528	38.06
379.738	62.63
379.948	62.63
380.158	21.67
380.369	50.35
380.579	-13.14
380.789	15.53
380.999	56.49
381.21	64.68
381.42	136.36
381.63	15.53
381.84	48.3
382.05	31.91
382.261	126.12
382.471	81.07
382.681	11.43
382.891	150.7
383.101	44.2
383.311	21.67
383.521	36.01
383.731	46.25
383.941	40.11
384.151	-7
384.361	46.25
384.571	13.48
384.781	13.48
384.991	54.44
385.201	27.82
385.411	52.39
385.621	38.06
385.831	36.01
386.041	11.43
386.251	62.63
386.461	-9.05
386.671	40.11
386.881	38.06
387.091	76.97
387.301	23.72
387.511	48.3
387.72	72.87
387.93	-0.85
388.14	-0.85
388.35	74.92
388.56	83.11
388.769	11.43
388.979	7.34
389.189	-43.86
389.399	54.44
389.609	-54.1
389.818	117.93
390.028	23.72
390.238	72.87
390.447	17.58
390.657	101.55
390.867	11.43
391.076	-2.9
391.286	27.82
391.496	-54.1
391.705	-25.43
391.915	-37.72
392.125	103.59
392.334	33.96
392.544	105.64
392.753	23.72
392.963	48.3
393.172	122.02
393.382	19.63
393.591	81.07
393.801	11.43
394.01	72.87
394.22	74.92
394.429	74.92
394.639	48.3
394.848	27.82
395.058	-13.14
395.267	7.34
395.477	83.11
395.686	48.3
395.895	165.03
396.105	60.59
396.314	91.31
396.524	44.2
396.733	1.19
396.942	50.35
397.152	31.91
397.361	89.26
397.57	-23.38
397.78	58.54
397.989	27.82
398.198	93.35
398.407	85.16
398.617	21.67
398.826	38.06
399.035	27.82
399.244	72.87
399.453	70.83
399.663	42.15
399.872	-2.9
400.081	-27.48
400.29	21.67
400.499	70.83
400.708	64.68
400.917	70.83
401.127	91.31
401.336	62.63
401.545	62.63
401.754	64.68
401.963	103.59
402.172	7.34
402.381	68.78
402.59	68.78
402.799	70.83
403.008	91.31
403.217	31.91
403.426	33.96
403.635	72.87
403.844	-25.43
404.053	89.26
404.262	46.25
404.471	93.35
404.68	93.35
404.888	44.2
405.097	74.92
405.306	66.73
405.515	107.69
405.724	68.78
405.933	136.36
406.142	54.44
406.35	105.64
406.559	113.83
406.768	169.13
406.977	101.55
407.185	124.07
407.394	40.11
407.603	23.72
407.812	46.25
408.02	115.88
408.229	117.93
408.438	87.21
408.646	87.21
408.855	105.64
409.064	89.26
409.272	152.74
409.481	117.93
409.69	83.11
409.898	146.6
410.107	132.26
410.315	277.67
410.524	171.18
410.733	152.74
410.941	109.74
411.15	111.78
411.358	140.46
411.567	173.22
411.775	232.62
411.984	201.9
412.192	212.14
412.401	203.94
412.609	251.05
412.818	314.53
413.026	218.28
413.234	195.75
413.443	197.8
413.651	257.19
413.86	314.53
414.068	277.67
414.276	361.64
414.485	281.77
414.693	357.54
414.901	308.39
415.11	365.73
415.318	300.2
415.526	359.59
415.734	378.02
415.943	371.88
416.151	480.42
416.359	337.06
416.567	369.83
416.776	535.71
416.984	437.41
417.192	472.23
417.4	451.75
417.608	486.56
417.817	455.84
418.025	474.28
418.233	609.44
418.441	605.35
418.649	453.8
418.857	599.2
419.065	644.26
419.273	582.82
419.481	609.44
419.689	564.39
419.897	699.55
420.105	713.89
420.313	789.66
420.521	691.36
420.729	693.41
420.937	730.27
421.145	887.97
421.353	918.68
421.561	971.93
421.769	922.78
421.977	924.83
422.185	1023.13
422.393	1000.6
422.601	1139.87
422.809	1088.67
423.017	1021.08
423.224	1168.54
423.432	1129.63
423.64	1211.54
423.848	1307.8
424.056	1141.91
424.263	1264.79
424.471	1268.89
424.679	1451.16
424.887	1373.33
425.094	1463.44
425.302	1625.23
425.51	1645.71
425.718	1596.56
425.925	1619.09
426.133	1586.32
426.341	1795.22
426.548	1723.54
426.756	1836.17
426.964	1825.93
427.171	1946.76
427.379	2135.18
427.586	2153.61
427.794	2133.13
428.001	2272.39
428.209	2331.78
428.417	2305.16
428.624	2352.26
428.832	2299.02
429.039	2520.2
429.247	2446.47
429.454	2643.07
429.662	2937.98
429.869	2585.73
430.076	2927.74
430.284	2731.14
430.491	2763.9
430.699	2911.36
430.906	3040.38
431.114	3126.39
431.321	3128.44
431.528	3300.47
431.736	3441.78
431.943	3581.04
432.15	3519.6
432.358	3562.61
432.565	3669.11
432.772	3681.39
432.979	3921.01
433.187	3943.53
433.394	3947.63
433.601	4207.72
433.808	4324.46
434.016	4324.46
434.223	4406.38
434.43	4609.12
434.637	4574.31
434.844	4910.18
435.052	5004.38
435.259	5016.67
435.466	4983.9
435.673	4985.95
435.88	5311.58
436.087	5516.37
436.294	5579.86
436.501	5477.46
436.708	5504.09
436.915	5753.94
437.122	5925.97
437.329	5962.83
437.537	6042.7
437.743	6362.19
437.95	6200.4
438.157	6571.08
438.364	6706.24
438.571	6806.59
438.778	6841.41
438.985	7359.55
439.192	7038.02
439.399	7425.08
439.606	7191.61
439.813	7687.22
440.02	8182.83
440.227	7947.31
440.433	7740.47
440.64	7973.94
440.847	7859.25
441.054	8313.9
441.261	8780.84
441.467	8694.82
441.674	9049.12
441.881	9153.57
442.088	9204.77
442.294	9159.71
442.501	9337.88
442.708	9417.75
442.914	9880.6
443.121	10550.28
443.328	9888.79
443.534	10757.13
443.741	10449.93
443.948	10327.05
444.154	10812.42
444.361	10949.64
444.568	11000.83
444.774	11045.89
444.981	11277.31
445.187	11516.92
445.394	11807.73
445.6	11854.84
445.807	13110.24
446.013	12553.2
446.22	12645.35
446.426	12964.84
446.633	13059.04
446.839	13751.26
447.046	13138.91
447.252	14042.07
447.459	13962.2
447.665	13960.15
447.871	14433.23
448.078	15190.98
448.284	14310.35
448.491	14875.59
448.697	15412.16
448.903	15864.76
449.11	15961.02
449.316	15524.8
449.522	15764.41
449.728	16352.18
449.935	16395.18
450.141	16561.07
450.347	16638.89
450.553	16270.26
450.76	16796.59
450.966	17154.98
451.172	16964.52
451.378	17165.22
451.584	16898.98
451.791	17337.25
451.997	17109.93
452.203	17646.49
452.409	17591.2
452.615	17478.56
452.821	16898.98
453.027	16552.88
453.233	17607.58
453.44	17163.17
453.646	17333.15
453.852	17275.81
454.058	17650.59
454.264	17060.77
454.47	17197.99
454.676	16952.23
454.882	17441.7
455.088	16102.32
455.294	16235.44
455.5	16438.19
455.705	16841.64
455.911	16044.98
456.117	15786.94
456.323	15403.97
456.529	14791.62
456.735	15043.53
456.941	14982.09
457.147	14801.86
457.352	14500.81
457.558	14185.43
457.764	14400.46
457.97	14064.6
458.176	13681.63
458.381	13620.19
458.587	12848.1
458.793	12977.12
458.999	12372.97
459.204	13280.22
459.41	12704.74
459.616	11817.97
459.821	12008.44
460.027	11996.15
460.233	11545.59
460.438	11373.57
460.644	11381.76
460.85	10837
461.055	10650.63
461.261	10441.74
461.466	9849.88
461.672	9315.36
461.878	10169.36
462.083	9432.09
462.289	9458.71
462.494	9018.4
462.7	8733.73
462.905	8707.11
463.111	8811.56
463.316	8971.3
463.522	8789.03
463.727	8713.25
463.932	8629.29
464.138	8643.62
464.343	8524.84
464.549	8371.24
464.754	8494.12
464.959	8746.02
465.165	8410.15
465.37	7939.12
465.575	7867.44
465.781	8395.82
465.986	8383.53
466.191	8043.57
466.397	7914.55
466.602	7367.74
466.807	7685.17
467.012	7912.5
467.218	7713.84
467.423	7679.03
467.628	7656.5
467.833	8111.15
468.038	7826.48
468.244	7683.13
468.449	7715.89
468.654	7611.45
468.859	7611.45
