Data from USB4F104151__54__13-11-42-878.txt Node

Date: Fri Mar 14 13:11:42 EDT 2025
User: louis
Spectrometer: USB4F10415
Trigger mode: 4
Integration Time (sec): 2.000000E-2
Scans to average: 1
Electric dark correction enabled: true
Nonlinearity correction enabled: false
Boxcar width: 0
XAxis mode: Wavelengths
Number of Pixels in Spectrum: 3648
>>>>>Begin Spectral Data<<<<<
178.204	-73.39
178.424	-73.39
178.644	-73.39
178.864	-183.98
179.084	-126.63
179.304	-30.38
179.524	12.63
179.744	41.3
179.964	18.77
180.184	49.49
180.404	-13.99
180.624	-40.62
180.844	16.73
181.064	22.87
181.283	2.39
181.503	-87.72
181.723	8.53
181.943	-42.67
182.163	-3.75
182.383	-22.19
182.602	47.44
182.822	41.3
183.042	31.06
183.262	0.34
183.482	49.49
183.701	43.35
183.921	-1.71
184.141	39.25
184.361	37.2
184.58	39.25
184.8	-73.39
185.02	-5.8
185.239	45.4
185.459	-1.71
185.679	102.74
185.898	20.82
186.118	-20.14
186.338	18.77
186.557	8.53
186.777	-65.19
186.997	-24.23
187.216	-16.04
187.436	35.16
187.655	90.45
187.875	61.78
188.095	-40.62
188.314	10.58
188.534	-3.75
188.753	26.96
188.973	45.4
189.192	26.96
189.412	69.97
189.631	-7.85
189.851	-57
190.07	18.77
190.29	-11.95
190.509	-11.95
190.729	-9.9
190.948	-24.23
191.168	72.02
191.387	57.68
191.607	-16.04
191.826	24.92
192.045	-1.71
192.265	-28.33
192.484	6.49
192.704	-13.99
192.923	-1.71
193.142	0.34
193.362	41.3
193.581	-16.04
193.8	-3.75
194.02	-34.47
194.239	90.45
194.458	33.11
194.678	-32.43
194.897	16.73
195.116	0.34
195.335	-22.19
195.555	53.59
195.774	-34.47
195.993	24.92
196.212	8.53
196.432	12.63
196.651	53.59
196.87	16.73
197.089	18.77
197.308	39.25
197.528	8.53
197.747	8.53
197.966	16.73
198.185	-9.9
198.404	49.49
198.623	-65.19
198.842	-5.8
199.062	-30.38
199.281	-9.9
199.5	-16.04
199.719	-34.47
199.938	49.49
200.157	16.73
200.376	22.87
200.595	51.54
200.814	80.21
201.033	20.82
201.252	-16.04
201.471	12.63
201.69	90.45
201.909	76.12
202.128	-9.9
202.347	2.39
202.566	41.3
202.785	-44.71
203.004	53.59
203.223	76.12
203.442	16.73
203.661	10.58
203.879	2.39
204.098	108.88
204.317	-3.75
204.536	-3.75
204.755	112.98
204.974	33.11
205.193	-5.8
205.411	123.22
205.63	-16.04
205.849	41.3
206.068	-32.43
206.287	-11.95
206.505	-34.47
206.724	33.11
206.943	57.68
207.162	4.44
207.381	-7.85
207.599	-5.8
207.818	-36.52
208.037	-9.9
208.255	-16.04
208.474	47.44
208.693	41.3
208.911	0.34
209.13	41.3
209.349	-24.23
209.567	26.96
209.786	-16.04
210.005	55.64
210.223	-1.71
210.442	-22.19
210.661	18.77
210.879	51.54
211.098	94.55
211.316	74.07
211.535	45.4
211.753	-67.24
211.972	35.16
212.191	-5.8
212.409	45.4
212.628	26.96
212.846	24.92
213.065	2.39
213.283	29.01
213.502	2.39
213.72	26.96
213.938	-28.33
214.157	-13.99
214.375	92.5
214.594	127.32
214.812	67.92
215.031	24.92
215.249	20.82
215.467	-52.91
215.686	8.53
215.904	6.49
216.122	-28.33
216.341	33.11
216.559	-34.47
216.778	-1.71
216.996	-67.24
217.214	57.68
217.432	-44.71
217.651	49.49
217.869	14.68
218.087	16.73
218.306	-24.23
218.524	65.88
218.742	35.16
218.96	-54.95
219.179	53.59
219.397	16.73
219.615	78.16
219.833	29.01
220.051	-24.23
220.27	37.2
220.488	76.12
220.706	-40.62
220.924	49.49
221.142	-54.95
221.36	-11.95
221.578	37.2
221.796	16.73
222.015	41.3
222.233	74.07
222.451	53.59
222.669	26.96
222.887	86.36
223.105	-65.19
223.323	0.34
223.541	59.73
223.759	29.01
223.977	-11.95
224.195	26.96
224.413	22.87
224.631	-1.71
224.849	37.2
225.067	51.54
225.285	43.35
225.503	29.01
225.721	-24.23
225.939	65.88
226.157	12.63
226.375	86.36
226.592	-97.96
226.81	43.35
227.028	53.59
227.246	55.64
227.464	33.11
227.682	6.49
227.9	16.73
228.117	41.3
228.335	82.26
228.553	-5.8
228.771	18.77
228.989	-16.04
229.206	-11.95
229.424	-38.57
229.642	18.77
229.86	24.92
230.077	-32.43
230.295	47.44
230.513	-16.04
230.731	98.64
230.948	-52.91
231.166	16.73
231.384	-9.9
231.601	-11.95
231.819	-20.14
232.037	14.68
232.254	39.25
232.472	106.84
232.689	-83.63
232.907	55.64
233.125	14.68
233.342	45.4
233.56	-24.23
233.777	-22.19
233.995	22.87
234.213	125.27
234.43	8.53
234.648	57.68
234.865	12.63
235.083	4.44
235.3	0.34
235.518	18.77
235.735	29.01
235.953	6.49
236.17	-52.91
236.388	29.01
236.605	-24.23
236.822	33.11
237.04	26.96
237.257	24.92
237.475	20.82
237.692	29.01
237.909	47.44
238.127	65.88
238.344	-30.38
238.562	45.4
238.779	4.44
238.996	135.51
239.214	-5.8
239.431	72.02
239.648	98.64
239.865	8.53
240.083	39.25
240.3	-9.9
240.517	2.39
240.735	0.34
240.952	33.11
241.169	43.35
241.386	43.35
241.603	-1.71
241.821	12.63
242.038	29.01
242.255	33.11
242.472	8.53
242.689	26.96
242.907	37.2
243.124	-28.33
243.341	69.97
243.558	18.77
243.775	0.34
243.992	-42.67
244.209	-36.52
244.426	61.78
244.643	16.73
244.86	33.11
245.078	12.63
245.295	-44.71
245.512	53.59
245.729	-18.09
245.946	74.07
246.163	-112.3
246.38	43.35
246.597	-48.81
246.814	37.2
247.031	-26.28
247.248	-42.67
247.464	0.34
247.681	20.82
247.898	72.02
248.115	26.96
248.332	-5.8
248.549	8.53
248.766	47.44
248.983	16.73
249.2	69.97
249.417	-34.47
249.633	-3.75
249.85	29.01
250.067	-46.76
250.284	33.11
250.501	-32.43
250.717	45.4
250.934	8.53
251.151	-16.04
251.368	37.2
251.585	43.35
251.801	-20.14
252.018	-38.57
252.235	51.54
252.451	-5.8
252.668	-38.57
252.885	16.73
253.102	8.53
253.318	-30.38
253.535	2.39
253.752	22.87
253.968	61.78
254.185	-13.99
254.401	20.82
254.618	31.06
254.835	20.82
255.051	98.64
255.268	63.83
255.484	26.96
255.701	26.96
255.917	2.39
256.134	43.35
256.351	47.44
256.567	-20.14
256.784	4.44
257	10.58
257.217	84.31
257.433	26.96
257.65	-20.14
257.866	-7.85
258.082	-32.43
258.299	47.44
258.515	47.44
258.732	-30.38
258.948	94.55
259.165	-22.19
259.381	43.35
259.597	14.68
259.814	-46.76
260.03	-7.85
260.246	35.16
260.463	82.26
260.679	24.92
260.895	-18.09
261.112	43.35
261.328	-7.85
261.544	43.35
261.761	84.31
261.977	37.2
262.193	-59.05
262.409	14.68
262.626	12.63
262.842	10.58
263.058	-22.19
263.274	-5.8
263.49	26.96
263.707	12.63
263.923	41.3
264.139	-67.24
264.355	-16.04
264.571	55.64
264.787	-30.38
265.004	16.73
265.22	4.44
265.436	-48.81
265.652	-54.95
265.868	-7.85
266.084	-13.99
266.3	45.4
266.516	24.92
266.732	104.79
266.948	35.16
267.164	12.63
267.38	-40.62
267.596	55.64
267.812	35.16
268.028	-3.75
268.244	-7.85
268.46	33.11
268.676	2.39
268.892	51.54
269.108	-46.76
269.324	59.73
269.54	43.35
269.756	29.01
269.972	-1.71
270.188	20.82
270.403	10.58
270.619	-30.38
270.835	67.92
271.051	26.96
271.267	-24.23
271.483	-7.85
271.698	26.96
271.914	-16.04
272.13	55.64
272.346	41.3
272.562	10.58
272.777	-7.85
272.993	86.36
273.209	-34.47
273.425	39.25
273.64	16.73
273.856	8.53
274.072	35.16
274.287	-48.81
274.503	12.63
274.719	37.2
274.934	74.07
275.15	-20.14
275.366	29.01
275.581	-28.33
275.797	8.53
276.012	-22.19
276.228	-5.8
276.444	2.39
276.659	-40.62
276.875	4.44
277.09	-30.38
277.306	-3.75
277.521	67.92
277.737	-3.75
277.952	74.07
278.168	-32.43
278.383	4.44
278.599	8.53
278.814	84.31
279.03	16.73
279.245	45.4
279.461	29.01
279.676	74.07
279.892	41.3
280.107	-9.9
280.322	96.6
280.538	24.92
280.753	14.68
280.969	16.73
281.184	37.2
281.399	8.53
281.615	-26.28
281.83	0.34
282.045	-1.71
282.26	-3.75
282.476	-57
282.691	45.4
282.906	-36.52
283.122	20.82
283.337	-7.85
283.552	53.59
283.767	8.53
283.983	76.12
284.198	-11.95
284.413	78.16
284.628	0.34
284.843	16.73
285.058	-16.04
285.274	86.36
285.489	26.96
285.704	22.87
285.919	16.73
286.134	2.39
286.349	53.59
286.564	4.44
286.779	12.63
286.995	16.73
287.21	-89.77
287.425	92.5
287.64	-59.05
287.855	102.74
288.07	-34.47
288.285	8.53
288.5	88.4
288.715	12.63
288.93	12.63
289.145	-46.76
289.36	53.59
289.575	10.58
289.79	61.78
290.004	22.87
290.219	16.73
290.434	37.2
290.649	-40.62
290.864	43.35
291.079	-3.75
291.294	-28.33
291.509	90.45
291.724	-7.85
291.938	-32.43
292.153	29.01
292.368	31.06
292.583	24.92
292.798	63.83
293.012	-18.09
293.227	33.11
293.442	0.34
293.657	-5.8
293.871	4.44
294.086	-38.57
294.301	117.08
294.516	8.53
294.73	6.49
294.945	-44.71
295.16	37.2
295.374	67.92
295.589	-13.99
295.804	49.49
296.018	98.64
296.233	51.54
296.447	24.92
296.662	-11.95
296.877	59.73
297.091	67.92
297.306	61.78
297.52	72.02
297.735	-40.62
297.949	137.56
298.164	104.79
298.378	24.92
298.593	47.44
298.807	-48.81
299.022	35.16
299.236	22.87
299.451	41.3
299.665	2.39
299.88	8.53
300.094	65.88
300.309	16.73
300.523	24.92
300.737	31.06
300.952	51.54
301.166	29.01
301.381	-5.8
301.595	43.35
301.809	72.02
302.024	20.82
302.238	-32.43
302.452	-38.57
302.667	24.92
302.881	35.16
303.095	47.44
303.309	-1.71
303.524	37.2
303.738	-24.23
303.952	35.16
304.166	12.63
304.381	-1.71
304.595	4.44
304.809	2.39
305.023	0.34
305.237	14.68
305.452	0.34
305.666	69.97
305.88	35.16
306.094	57.68
306.308	45.4
306.522	-7.85
306.736	-11.95
306.95	24.92
307.164	-9.9
307.379	26.96
307.593	65.88
307.807	49.49
308.021	45.4
308.235	-22.19
308.449	0.34
308.663	29.01
308.877	65.88
309.091	104.79
309.305	0.34
309.519	-36.52
309.733	31.06
309.947	-40.62
310.161	-30.38
310.374	8.53
310.588	6.49
310.802	12.63
311.016	59.73
311.23	45.4
311.444	49.49
311.658	33.11
311.872	0.34
312.085	65.88
312.299	14.68
312.513	18.77
312.727	92.5
312.941	4.44
313.154	-5.8
313.368	61.78
313.582	33.11
313.796	55.64
314.009	8.53
314.223	6.49
314.437	-13.99
314.651	69.97
314.864	137.56
315.078	76.12
315.292	-13.99
315.505	29.01
315.719	12.63
315.933	-50.86
316.146	2.39
316.36	-22.19
316.573	-22.19
316.787	16.73
317.001	16.73
317.214	-87.72
317.428	37.2
317.641	-24.23
317.855	14.68
318.068	-18.09
318.282	45.4
318.495	67.92
318.709	78.16
318.922	0.34
319.136	-11.95
319.349	82.26
319.563	2.39
319.776	16.73
319.99	-38.57
320.203	53.59
320.417	35.16
320.63	8.53
320.843	76.12
321.057	59.73
321.27	12.63
321.483	65.88
321.697	22.87
321.91	-40.62
322.124	-81.58
322.337	29.01
322.55	-38.57
322.763	-1.71
322.977	-65.19
323.19	0.34
323.403	43.35
323.617	-36.52
323.83	-11.95
324.043	-7.85
324.256	-5.8
324.469	-16.04
324.683	-46.76
324.896	-57
325.109	-3.75
325.322	-13.99
325.535	37.2
325.748	20.82
325.962	57.68
326.175	-22.19
326.388	49.49
326.601	-16.04
326.814	94.55
327.027	61.78
327.24	2.39
327.453	33.11
327.666	45.4
327.879	80.21
328.092	47.44
328.305	18.77
328.518	-3.75
328.731	0.34
328.944	-9.9
329.157	2.39
329.37	4.44
329.583	12.63
329.796	37.2
330.009	-16.04
330.222	-24.23
330.435	-24.23
330.648	72.02
330.861	-16.04
331.073	55.64
331.286	63.83
331.499	31.06
331.712	33.11
331.925	8.53
332.138	35.16
332.35	-52.91
332.563	-3.75
332.776	-38.57
332.989	16.73
333.202	41.3
333.414	-24.23
333.627	106.84
333.84	-26.28
334.053	14.68
334.265	-18.09
334.478	29.01
334.691	-16.04
334.903	-11.95
335.116	29.01
335.329	33.11
335.541	22.87
335.754	47.44
335.966	10.58
336.179	-40.62
336.392	-20.14
336.604	41.3
336.817	55.64
337.029	20.82
337.242	-16.04
337.454	4.44
337.667	2.39
337.88	45.4
338.092	37.2
338.305	20.82
338.517	-34.47
338.729	0.34
338.942	14.68
339.154	-9.9
339.367	-9.9
339.579	35.16
339.792	2.39
340.004	16.73
340.217	2.39
340.429	-7.85
340.641	80.21
340.854	33.11
341.066	33.11
341.278	-16.04
341.491	14.68
341.703	8.53
341.915	16.73
342.128	-7.85
342.34	-5.8
342.552	61.78
342.764	37.2
342.977	-13.99
343.189	20.82
343.401	45.4
343.613	22.87
343.826	4.44
344.038	2.39
344.25	-22.19
344.462	35.16
344.674	63.83
344.886	-16.04
345.099	41.3
345.311	26.96
345.523	-32.43
345.735	-11.95
345.947	-42.67
346.159	33.11
346.371	-34.47
346.583	-5.8
346.795	29.01
347.007	41.3
347.219	-32.43
347.431	22.87
347.643	16.73
347.855	0.34
348.067	26.96
348.279	-32.43
348.491	37.2
348.703	22.87
348.915	10.58
349.127	45.4
349.339	-48.81
349.551	65.88
349.763	-11.95
349.975	8.53
350.187	16.73
350.399	94.55
350.61	51.54
350.822	61.78
351.034	49.49
351.246	-7.85
351.458	65.88
351.669	4.44
351.881	8.53
352.093	65.88
352.305	37.2
352.517	-32.43
352.728	74.07
352.94	0.34
353.152	96.6
353.363	8.53
353.575	51.54
353.787	106.84
353.999	14.68
354.21	67.92
354.422	12.63
354.633	2.39
354.845	29.01
355.057	4.44
355.268	63.83
355.48	-11.95
355.692	47.44
355.903	18.77
356.115	57.68
356.326	6.49
356.538	96.6
356.749	90.45
356.961	49.49
357.172	57.68
357.384	-50.86
357.595	47.44
357.807	55.64
358.018	16.73
358.23	96.6
358.441	-5.8
358.653	16.73
358.864	8.53
359.075	4.44
359.287	24.92
359.498	61.78
359.709	110.93
359.921	35.16
360.132	39.25
360.344	45.4
360.555	-9.9
360.766	49.49
360.977	29.01
361.189	96.6
361.4	0.34
361.611	10.58
361.823	106.84
362.034	0.34
362.245	-24.23
362.456	43.35
362.667	26.96
362.879	-16.04
363.09	61.78
363.301	80.21
363.512	65.88
363.723	82.26
363.935	24.92
364.146	65.88
364.357	35.16
364.568	-13.99
364.779	-24.23
364.99	45.4
365.201	-30.38
365.412	53.59
365.623	26.96
365.834	53.59
366.045	24.92
366.256	90.45
366.467	63.83
366.678	18.77
366.889	61.78
367.1	0.34
367.311	47.44
367.522	49.49
367.733	94.55
367.944	33.11
368.155	4.44
368.366	45.4
368.577	51.54
368.788	41.3
368.999	-34.47
369.209	-69.29
369.42	20.82
369.631	47.44
369.842	35.16
370.053	-36.52
370.264	22.87
370.474	26.96
370.685	-42.67
370.896	-7.85
371.107	29.01
371.317	82.26
371.528	-22.19
371.739	74.07
371.95	-30.38
372.16	18.77
372.371	-30.38
372.582	12.63
372.792	63.83
373.003	-50.86
373.214	0.34
373.424	82.26
373.635	45.4
373.846	78.16
374.056	-9.9
374.267	-44.71
374.477	-44.71
374.688	41.3
374.898	67.92
375.109	0.34
375.319	16.73
375.53	76.12
375.74	6.49
375.951	-34.47
376.161	16.73
376.372	-11.95
376.582	14.68
376.793	37.2
377.003	-11.95
377.214	37.2
377.424	-1.71
377.635	16.73
377.845	31.06
378.055	43.35
378.266	-32.43
378.476	115.03
378.686	37.2
378.897	-7.85
379.107	-20.14
379.317	63.83
379.528	80.21
379.738	84.31
379.948	-5.8
380.158	-5.8
380.369	12.63
380.579	-11.95
380.789	-52.91
380.999	-38.57
381.21	29.01
381.42	43.35
381.63	0.34
381.84	33.11
382.05	-11.95
382.261	125.27
382.471	-7.85
382.681	41.3
382.891	24.92
383.101	-5.8
383.311	-63.15
383.521	-13.99
383.731	24.92
383.941	0.34
384.151	-38.57
384.361	-3.75
384.571	88.4
384.781	20.82
384.991	26.96
385.201	51.54
385.411	8.53
385.621	0.34
385.831	90.45
386.041	41.3
386.251	31.06
386.461	51.54
386.671	24.92
386.881	49.49
387.091	12.63
387.301	26.96
387.511	-16.04
387.72	74.07
387.93	37.2
388.14	-3.75
388.35	39.25
388.56	29.01
388.769	-26.28
388.979	2.39
389.189	-73.39
389.399	4.44
389.609	-38.57
389.818	43.35
390.028	10.58
390.238	78.16
390.447	4.44
390.657	82.26
390.867	10.58
391.076	45.4
391.286	26.96
391.496	55.64
391.705	26.96
391.915	82.26
392.125	112.98
392.334	-20.14
392.544	-11.95
392.753	0.34
392.963	-1.71
393.172	4.44
393.382	10.58
393.591	92.5
393.801	24.92
394.01	82.26
394.22	16.73
394.429	20.82
394.639	-7.85
394.848	35.16
395.058	115.03
395.267	29.01
395.477	-5.8
395.686	41.3
395.895	-42.67
396.105	69.97
396.314	45.4
396.524	41.3
396.733	4.44
396.942	96.6
397.152	12.63
397.361	-9.9
397.57	-38.57
397.78	51.54
397.989	29.01
398.198	33.11
398.407	82.26
398.617	76.12
398.826	33.11
399.035	51.54
399.244	82.26
399.453	49.49
399.663	24.92
399.872	78.16
400.081	20.82
400.29	102.74
400.499	31.06
400.708	39.25
400.917	88.4
401.127	76.12
401.336	53.59
401.545	160.08
401.754	84.31
401.963	8.53
402.172	45.4
402.381	41.3
402.59	33.11
402.799	49.49
403.008	8.53
403.217	55.64
403.426	78.16
403.635	76.12
403.844	57.68
404.053	4.44
404.262	61.78
404.471	72.02
404.68	125.27
404.888	106.84
405.097	45.4
405.306	123.22
405.515	110.93
405.724	37.2
405.933	29.01
406.142	53.59
406.35	160.08
406.559	119.12
406.768	123.22
406.977	78.16
407.185	135.51
407.394	49.49
407.603	74.07
407.812	41.3
408.02	96.6
408.229	14.68
408.438	129.36
408.646	106.84
408.855	123.22
409.064	127.32
409.272	112.98
409.481	168.27
409.69	166.23
409.898	57.68
410.107	57.68
410.315	166.23
410.524	106.84
410.733	172.37
410.941	115.03
411.15	139.6
411.358	153.94
411.567	180.56
411.775	131.41
411.984	102.74
412.192	133.46
412.401	231.76
412.609	221.52
412.818	248.15
413.026	158.03
413.234	213.33
413.443	215.38
413.651	188.75
413.86	248.15
414.068	278.87
414.276	309.58
414.485	256.34
414.693	356.69
414.901	287.06
415.11	373.07
415.318	205.14
415.526	321.87
415.734	328.02
415.943	262.48
416.151	383.31
416.359	348.5
416.567	317.78
416.776	452.94
416.984	459.09
417.192	454.99
417.4	461.13
417.608	313.68
417.817	444.75
418.025	454.99
418.233	510.29
418.441	418.13
418.649	389.46
418.857	549.2
419.065	657.74
419.273	446.8
419.481	620.88
419.689	659.79
419.897	602.44
420.105	680.27
420.313	706.89
420.521	739.66
420.729	710.99
420.937	678.22
421.145	782.67
421.353	854.34
421.561	840.01
421.769	870.73
421.977	807.24
422.185	883.02
422.393	969.03
422.601	946.5
422.809	1020.23
423.017	1005.89
423.224	1081.67
423.432	1069.38
423.64	1118.53
423.848	1220.93
424.056	1075.52
424.263	1231.17
424.471	1261.89
424.679	1364.29
424.887	1308.99
425.094	1376.58
425.302	1431.87
425.51	1487.17
425.718	1497.41
425.925	1456.45
426.133	1550.65
426.341	1646.91
426.548	1777.98
426.756	1722.68
426.964	1730.87
427.171	1939.77
427.379	1917.24
427.586	1851.71
427.794	2009.4
428.001	2040.12
428.209	2138.42
428.417	2224.44
428.624	2269.49
428.832	2281.78
429.039	2240.82
429.247	2126.13
429.454	2498.86
429.662	2668.84
429.869	2384.18
430.076	2679.08
430.284	2513.2
430.491	2687.28
430.699	2877.74
430.906	2758.96
431.114	2769.2
431.321	2994.47
431.528	3103.01
431.736	3199.27
431.943	3223.84
432.15	3180.84
432.358	3375.39
432.565	3424.55
432.772	3387.68
432.979	3623.2
433.187	3725.6
433.394	3670.3
433.601	4124.95
433.808	3952.92
434.016	4014.36
434.223	4239.64
434.43	4368.66
434.637	4284.69
434.844	4565.26
435.052	4735.25
435.259	4606.22
435.466	4792.59
435.673	4604.18
435.88	4954.38
436.087	5286.15
436.294	5019.91
436.501	5067.02
436.708	5050.63
436.915	5331.2
437.122	5601.54
437.329	5607.68
437.537	5628.16
437.743	5865.72
437.95	5820.67
438.157	6037.75
438.364	6326.52
438.571	6277.37
438.778	6205.69
438.985	6955.24
439.192	6719.73
439.399	6967.53
439.606	6764.78
439.813	7112.94
440.02	7649.5
440.227	7250.15
440.433	7348.45
440.64	7469.28
440.847	7497.95
441.054	7817.44
441.261	8274.14
441.467	8151.26
441.674	8335.57
441.881	8560.85
442.088	8540.37
442.294	8407.25
442.501	8579.28
442.708	9083.08
442.914	9230.54
443.121	9629.89
443.328	9234.63
443.534	10076.35
443.741	9588.93
443.948	9715.91
444.154	10139.83
444.361	10455.22
444.568	10289.34
444.774	10539.19
444.981	10346.68
445.187	10743.99
445.394	11270.31
445.6	11190.44
445.807	12312.73
446.013	11841.7
446.22	11978.91
446.426	12368.02
446.633	12312.73
446.839	12837.01
447.046	12302.49
447.252	13037.71
447.459	13183.12
447.665	13080.72
447.871	13324.43
448.078	14268.54
448.284	13641.86
448.491	13871.23
448.697	14481.53
448.903	14784.63
449.11	14817.4
449.316	14424.19
449.522	15038.58
449.728	15235.18
449.935	15507.56
450.141	15614.06
450.347	15648.87
450.553	15095.92
450.76	15310.96
450.966	16064.61
451.172	15679.59
451.378	16582.74
451.584	16027.74
451.791	16336.99
451.997	16394.33
452.203	16734.29
452.409	16629.85
452.615	16408.67
452.821	15964.26
453.027	15683.69
453.233	16828.5
453.44	15956.07
453.646	16298.08
453.852	16347.23
454.058	16574.55
454.264	15851.62
454.47	16445.53
454.676	16189.53
454.882	16646.23
455.088	15419.5
455.294	15337.58
455.5	15730.79
455.705	15970.4
455.911	15210.61
456.117	14893.17
456.323	14733.43
456.529	13928.58
456.735	14489.72
456.941	14282.88
457.147	13912.19
457.352	13285.51
457.558	13346.95
457.764	13504.65
457.97	12882.06
458.176	12558.49
458.381	12603.54
458.587	12394.65
458.793	12361.88
458.999	11559.08
459.204	12306.59
459.41	12261.53
459.616	11212.97
459.821	11536.55
460.027	11251.88
460.233	10969.26
460.438	10508.47
460.644	10604.72
460.85	10223.8
461.055	9959.61
461.261	10121.4
461.466	9177.29
461.672	9078.99
461.878	9347.27
462.083	9046.22
462.289	8685.78
462.494	8814.8
462.7	8286.42
462.905	8177.88
463.111	8384.73
463.316	8202.46
463.522	8247.51
463.727	8421.59
463.932	8442.07
464.138	8126.68
464.343	8403.16
464.549	8052.95
464.754	8210.65
464.959	8147.16
465.165	7979.23
465.37	7669.98
465.575	7256.29
465.781	7799.01
465.986	7940.32
466.191	7751.9
466.397	7614.69
466.602	7078.12
466.807	7309.54
467.012	7569.63
467.218	7389.41
467.423	7217.38
467.628	7411.94
467.833	7680.22
468.038	7344.36
468.244	7137.51
468.449	7471.33
468.654	7051.5
468.859	7082.22
469.064	7172.33
469.269	6736.11
469.474	6840.56
