Data from USB4F104151__5__13-10-08-709.txt Node

Date: Fri Mar 14 13:10:08 EDT 2025
User: louis
Spectrometer: USB4F10415
Trigger mode: 4
Integration Time (sec): 2.000000E-2
Scans to average: 1
Electric dark correction enabled: true
Nonlinearity correction enabled: false
Boxcar width: 0
XAxis mode: Wavelengths
Number of Pixels in Spectrum: 3648
>>>>>Begin Spectral Data<<<<<
178.204	-158.38
178.424	-158.38
178.644	-158.38
178.864	-152.23
179.084	-94.89
179.304	-10.92
179.524	17.75
179.744	-19.11
179.964	48.47
180.184	23.89
180.404	30.04
180.624	-8.87
180.844	-17.07
181.064	-111.27
181.283	-27.31
181.503	36.18
181.723	38.23
181.943	-17.07
182.163	48.47
182.383	-23.21
182.602	124.24
182.822	21.85
183.042	-33.45
183.262	32.08
183.482	19.8
183.701	17.75
183.921	23.89
184.141	15.7
184.361	1.37
184.58	77.14
184.8	1.37
185.02	46.42
185.239	54.61
185.459	-2.73
185.679	42.32
185.898	-8.87
186.118	81.24
186.338	60.76
186.557	-8.87
186.777	25.94
186.997	3.41
187.216	87.38
187.436	-8.87
187.655	-2.73
187.875	7.51
188.095	-41.64
188.314	89.43
188.534	165.2
188.753	46.42
188.973	36.18
189.192	54.61
189.412	46.42
189.631	7.51
189.851	-43.69
190.07	60.76
190.29	7.51
190.509	62.8
190.729	87.38
190.948	87.38
191.168	93.52
191.387	52.56
191.607	23.89
191.826	46.42
192.045	3.41
192.265	9.56
192.484	19.8
192.704	-6.83
192.923	120.15
193.142	87.38
193.362	27.99
193.581	21.85
193.8	52.56
194.02	54.61
194.239	68.95
194.458	21.85
194.678	-12.97
194.897	-0.68
195.116	71
195.335	56.66
195.555	-12.97
195.774	32.08
195.993	-41.64
196.212	58.71
196.432	9.56
196.651	71
196.87	48.47
197.089	50.52
197.308	71
197.528	44.37
197.747	44.37
197.966	-51.88
198.185	-33.45
198.404	21.85
198.623	-64.17
198.842	62.8
199.062	32.08
199.281	48.47
199.5	32.08
199.719	5.46
199.938	46.42
200.157	42.32
200.376	-23.21
200.595	83.28
200.814	-21.16
201.033	-10.92
201.252	11.61
201.471	44.37
201.69	136.53
201.909	122.2
202.128	-10.92
202.347	116.05
202.566	77.14
202.785	38.23
203.004	32.08
203.223	50.52
203.442	-23.21
203.661	19.8
203.879	27.99
204.098	48.47
204.317	-19.11
204.536	40.28
204.755	40.28
204.974	34.13
205.193	13.65
205.411	48.47
205.63	40.28
205.849	25.94
206.068	-53.93
206.287	-6.83
206.505	-19.11
206.724	-23.21
206.943	58.71
207.162	19.8
207.381	23.89
207.599	42.32
207.818	38.23
208.037	-15.02
208.255	5.46
208.474	13.65
208.693	-12.97
208.911	5.46
209.13	15.7
209.349	7.51
209.567	58.71
209.786	36.18
210.005	9.56
210.223	42.32
210.442	11.61
210.661	66.9
210.879	85.33
211.098	77.14
211.316	64.85
211.535	21.85
211.753	-4.78
211.972	5.46
212.191	5.46
212.409	58.71
212.628	-25.26
212.846	38.23
213.065	-4.78
213.283	15.7
213.502	-35.5
213.72	11.61
213.938	89.43
214.157	-12.97
214.375	56.66
214.594	68.95
214.812	116.05
215.031	27.99
215.249	-19.11
215.467	3.41
215.686	64.85
215.904	36.18
216.122	-21.16
216.341	103.76
216.559	25.94
216.778	13.65
216.996	36.18
217.214	36.18
217.432	83.28
217.651	-0.68
217.869	38.23
218.087	38.23
218.306	25.94
218.524	5.46
218.742	7.51
218.96	75.09
219.179	58.71
219.397	40.28
219.615	-6.83
219.833	42.32
220.051	40.28
220.27	75.09
220.488	23.89
220.706	15.7
220.924	-6.83
221.142	15.7
221.36	-21.16
221.578	58.71
221.796	-4.78
222.015	-82.6
222.233	38.23
222.451	77.14
222.669	32.08
222.887	46.42
223.105	40.28
223.323	42.32
223.541	-29.35
223.759	103.76
223.977	46.42
224.195	48.47
224.413	81.24
224.631	46.42
224.849	124.24
225.067	114
225.285	101.72
225.503	32.08
225.721	-4.78
225.939	-2.73
226.157	25.94
226.375	62.8
226.592	23.89
226.81	13.65
227.028	91.48
227.246	101.72
227.464	19.8
227.682	91.48
227.9	9.56
228.117	21.85
228.335	-8.87
228.553	-2.73
228.771	-25.26
228.989	44.37
229.206	36.18
229.424	32.08
229.642	-2.73
229.86	7.51
230.077	40.28
230.295	21.85
230.513	71
230.731	146.77
230.948	46.42
231.166	73.04
231.384	25.94
231.601	-33.45
231.819	120.15
232.037	52.56
232.254	21.85
232.472	44.37
232.689	15.7
232.907	89.43
233.125	40.28
233.342	38.23
233.56	3.41
233.777	-92.84
233.995	34.13
234.213	95.57
234.43	25.94
234.648	15.7
234.865	-19.11
235.083	118.1
235.3	-10.92
235.518	7.51
235.735	120.15
235.953	91.48
236.17	-0.68
236.388	21.85
236.605	34.13
236.822	97.62
237.04	42.32
237.257	9.56
237.475	71
237.692	68.95
237.909	15.7
238.127	34.13
238.344	-33.45
238.562	60.76
238.779	-15.02
238.996	21.85
239.214	-4.78
239.431	34.13
239.648	-6.83
239.865	17.75
240.083	38.23
240.3	48.47
240.517	11.61
240.735	32.08
240.952	71
241.169	73.04
241.386	-10.92
241.603	58.71
241.821	25.94
242.038	1.37
242.255	64.85
242.472	-39.59
242.689	50.52
242.907	52.56
243.124	-17.07
243.341	34.13
243.558	40.28
243.775	-43.69
243.992	13.65
244.209	9.56
244.426	46.42
244.643	93.52
244.86	7.51
245.078	56.66
245.295	23.89
245.512	36.18
245.729	54.61
245.946	66.9
246.163	42.32
246.38	71
246.597	36.18
246.814	83.28
247.031	15.7
247.248	32.08
247.464	34.13
247.681	-2.73
247.898	71
248.115	30.04
248.332	-60.07
248.549	77.14
248.766	91.48
248.983	52.56
249.2	9.56
249.417	103.76
249.633	-23.21
249.85	68.95
250.067	13.65
250.284	58.71
250.501	46.42
250.717	13.65
250.934	-2.73
251.151	11.61
251.368	19.8
251.585	42.32
251.801	64.85
252.018	7.51
252.235	-12.97
252.451	71
252.668	50.52
252.885	40.28
253.102	3.41
253.318	5.46
253.535	17.75
253.752	-6.83
253.968	1.37
254.185	42.32
254.401	87.38
254.618	-10.92
254.835	5.46
255.051	23.89
255.268	23.89
255.484	13.65
255.701	13.65
255.917	122.2
256.134	-4.78
256.351	15.7
256.567	-4.78
256.784	17.75
257	-43.69
257.217	95.57
257.433	38.23
257.65	64.85
257.866	1.37
258.082	64.85
258.299	-51.88
258.515	68.95
258.732	-43.69
258.948	38.23
259.165	19.8
259.381	48.47
259.597	54.61
259.814	60.76
260.03	-0.68
260.246	-10.92
260.463	38.23
260.679	46.42
260.895	36.18
261.112	56.66
261.328	-33.45
261.544	58.71
261.761	1.37
261.977	36.18
262.193	21.85
262.409	56.66
262.626	25.94
262.842	32.08
263.058	38.23
263.274	71
263.49	54.61
263.707	71
263.923	-35.5
264.139	40.28
264.355	85.33
264.571	75.09
264.787	-25.26
265.004	48.47
265.22	50.52
265.436	-43.69
265.652	5.46
265.868	1.37
266.084	-17.07
266.3	46.42
266.516	71
266.732	58.71
266.948	83.28
267.164	-58.03
267.38	34.13
267.596	9.56
267.812	64.85
268.028	56.66
268.244	5.46
268.46	11.61
268.676	85.33
268.892	7.51
269.108	34.13
269.324	-6.83
269.54	36.18
269.756	15.7
269.972	-12.97
270.188	38.23
270.403	25.94
270.619	77.14
270.835	-8.87
271.051	81.24
271.267	60.76
271.483	91.48
271.698	75.09
271.914	32.08
272.13	11.61
272.346	66.9
272.562	81.24
272.777	62.8
272.993	73.04
273.209	5.46
273.425	109.91
273.64	-10.92
273.856	136.53
274.072	56.66
274.287	40.28
274.503	38.23
274.719	13.65
274.934	46.42
275.15	7.51
275.366	21.85
275.581	36.18
275.797	1.37
276.012	71
276.228	5.46
276.444	-33.45
276.659	52.56
276.875	48.47
277.09	52.56
277.306	3.41
277.521	95.57
277.737	-19.11
277.952	87.38
278.168	48.47
278.383	50.52
278.599	5.46
278.814	30.04
279.03	36.18
279.245	79.19
279.461	-0.68
279.676	89.43
279.892	54.61
280.107	25.94
280.322	83.28
280.538	97.62
280.753	-29.35
280.969	42.32
281.184	89.43
281.399	71
281.615	79.19
281.83	34.13
282.045	-6.83
282.26	-31.4
282.476	91.48
282.691	21.85
282.906	-43.69
283.122	71
283.337	-15.02
283.552	-2.73
283.767	9.56
283.983	25.94
284.198	-4.78
284.413	83.28
284.628	42.32
284.843	34.13
285.058	68.95
285.274	11.61
285.489	3.41
285.704	-39.59
285.919	-2.73
286.134	40.28
286.349	-33.45
286.564	-8.87
286.779	83.28
286.995	54.61
287.21	-31.4
287.425	36.18
287.64	116.05
287.855	21.85
288.07	83.28
288.285	25.94
288.5	19.8
288.715	75.09
288.93	19.8
289.145	46.42
289.36	71
289.575	62.8
289.79	140.63
290.004	15.7
290.219	7.51
290.434	30.04
290.649	68.95
290.864	7.51
291.079	17.75
291.294	3.41
291.509	-23.21
291.724	54.61
291.938	-25.26
292.153	30.04
292.368	66.9
292.583	36.18
292.798	46.42
293.012	9.56
293.227	30.04
293.442	-2.73
293.657	-4.78
293.871	68.95
294.086	-43.69
294.301	5.46
294.516	32.08
294.73	71
294.945	15.7
295.16	46.42
295.374	58.71
295.589	68.95
295.804	-47.79
296.018	34.13
296.233	77.14
296.447	23.89
296.662	-35.5
296.877	107.86
297.091	25.94
297.306	48.47
297.52	30.04
297.735	64.85
297.949	-27.31
298.164	9.56
298.378	19.8
298.593	21.85
298.807	27.99
299.022	83.28
299.236	40.28
299.451	-19.11
299.665	64.85
299.88	-0.68
300.094	36.18
300.309	48.47
300.523	87.38
300.737	7.51
300.952	52.56
301.166	44.37
301.381	-2.73
301.595	5.46
301.809	46.42
302.024	11.61
302.238	50.52
302.452	75.09
302.667	64.85
302.881	42.32
303.095	-74.41
303.309	7.51
303.524	62.8
303.738	-19.11
303.952	5.46
304.166	42.32
304.381	1.37
304.595	40.28
304.809	7.51
305.023	17.75
305.237	-27.31
305.452	73.04
305.666	89.43
305.88	85.33
306.094	62.8
306.308	64.85
306.522	21.85
306.736	52.56
306.95	89.43
307.164	68.95
307.379	44.37
307.593	116.05
307.807	56.66
308.021	46.42
308.235	75.09
308.449	60.76
308.663	54.61
308.877	56.66
309.091	-8.87
309.305	64.85
309.519	5.46
309.733	42.32
309.947	40.28
310.161	27.99
310.374	-45.74
310.588	-0.68
310.802	23.89
311.016	-19.11
311.23	128.34
311.444	-17.07
311.658	-25.26
311.872	85.33
312.085	101.72
312.299	124.24
312.513	54.61
312.727	83.28
312.941	-2.73
313.154	126.29
313.368	-78.51
313.582	-0.68
313.796	9.56
314.009	-29.35
314.223	64.85
314.437	-31.4
314.651	5.46
314.864	-66.22
315.078	17.75
315.292	9.56
315.505	44.37
315.719	25.94
315.933	40.28
316.146	-41.64
316.36	11.61
316.573	21.85
316.787	30.04
317.001	-6.83
317.214	-29.35
317.428	81.24
317.641	-25.26
317.855	66.9
318.068	42.32
318.282	79.19
318.495	77.14
318.709	34.13
318.922	56.66
319.136	30.04
319.349	48.47
319.563	5.46
319.776	95.57
319.99	81.24
320.203	5.46
320.417	23.89
320.63	56.66
320.843	83.28
321.057	-25.26
321.27	7.51
321.483	-4.78
321.697	60.76
321.91	25.94
322.124	95.57
322.337	-10.92
322.55	-43.69
322.763	15.7
322.977	42.32
323.19	87.38
323.403	15.7
323.617	89.43
323.83	154.96
324.043	101.72
324.256	40.28
324.469	-6.83
324.683	154.96
324.896	-27.31
325.109	36.18
325.322	-66.22
325.535	38.23
325.748	25.94
325.962	-8.87
326.175	50.52
326.388	54.61
326.601	81.24
326.814	15.7
327.027	42.32
327.24	91.48
327.453	40.28
327.666	64.85
327.879	97.62
328.092	73.04
328.305	71
328.518	50.52
328.731	21.85
328.944	-15.02
329.157	89.43
329.37	66.9
329.583	17.75
329.796	66.9
330.009	30.04
330.222	-17.07
330.435	15.7
330.648	-2.73
330.861	40.28
331.073	-6.83
331.286	-6.83
331.499	5.46
331.712	46.42
331.925	99.67
332.138	58.71
332.35	103.76
332.563	38.23
332.776	130.39
332.989	25.94
333.202	30.04
333.414	101.72
333.627	40.28
333.84	54.61
334.053	46.42
334.265	73.04
334.478	48.47
334.691	52.56
334.903	142.68
335.116	-15.02
335.329	15.7
335.541	34.13
335.754	-10.92
335.966	7.51
336.179	32.08
336.392	-53.93
336.604	-27.31
336.817	7.51
337.029	79.19
337.242	62.8
337.454	7.51
337.667	5.46
337.88	23.89
338.092	66.9
338.305	46.42
338.517	79.19
338.729	114
338.942	-15.02
339.154	40.28
339.367	46.42
339.579	25.94
339.792	7.51
340.004	38.23
340.217	-25.26
340.429	68.95
340.641	3.41
340.854	48.47
341.066	5.46
341.278	27.99
341.491	99.67
341.703	54.61
341.915	36.18
342.128	99.67
342.34	9.56
342.552	-51.88
342.764	130.39
342.977	71
343.189	34.13
343.401	89.43
343.613	-35.5
343.826	46.42
344.038	5.46
344.25	75.09
344.462	5.46
344.674	58.71
344.886	32.08
345.099	-41.64
345.311	60.76
345.523	128.34
345.735	32.08
345.947	48.47
346.159	77.14
346.371	79.19
346.583	56.66
346.795	64.85
347.007	56.66
347.219	58.71
347.431	71
347.643	91.48
347.855	1.37
348.067	40.28
348.279	27.99
348.491	5.46
348.703	66.9
348.915	27.99
349.127	64.85
349.339	116.05
349.551	-4.78
349.763	54.61
349.975	-21.16
350.187	38.23
350.399	48.47
350.61	42.32
350.822	17.75
351.034	23.89
351.246	52.56
351.458	9.56
351.669	21.85
351.881	32.08
352.093	87.38
352.305	50.52
352.517	122.2
352.728	79.19
352.94	-17.07
353.152	44.37
353.363	21.85
353.575	-17.07
353.787	109.91
353.999	50.52
354.21	87.38
354.422	54.61
354.633	36.18
354.845	32.08
355.057	73.04
355.268	13.65
355.48	30.04
355.692	-43.69
355.903	114
356.115	13.65
356.326	17.75
356.538	1.37
356.749	46.42
356.961	85.33
357.172	19.8
357.384	73.04
357.595	75.09
357.807	64.85
358.018	50.52
358.23	71
358.441	85.33
358.653	48.47
358.864	42.32
359.075	-0.68
359.287	44.37
359.498	73.04
359.709	73.04
359.921	79.19
360.132	32.08
360.344	48.47
360.555	-2.73
360.766	42.32
360.977	44.37
361.189	89.43
361.4	34.13
361.611	89.43
361.823	109.91
362.034	-39.59
362.245	75.09
362.456	111.96
362.667	60.76
362.879	32.08
363.09	44.37
363.301	95.57
363.512	30.04
363.723	23.89
363.935	-68.27
364.146	44.37
364.357	48.47
364.568	7.51
364.779	-45.74
364.99	122.2
365.201	-2.73
365.412	-19.11
365.623	32.08
365.834	42.32
366.045	34.13
366.256	13.65
366.467	103.76
366.678	23.89
366.889	30.04
367.1	-43.69
367.311	-58.03
367.522	-29.35
367.733	21.85
367.944	42.32
368.155	38.23
368.366	-10.92
368.577	124.24
368.788	71
368.999	79.19
369.209	46.42
369.42	66.9
369.631	146.77
369.842	27.99
370.053	21.85
370.264	46.42
370.474	-35.5
370.685	25.94
370.896	-31.4
371.107	62.8
371.317	48.47
371.528	62.8
371.739	50.52
371.95	50.52
372.16	-23.21
372.371	62.8
372.582	7.51
372.792	54.61
373.003	140.63
373.214	30.04
373.424	64.85
373.635	-2.73
373.846	46.42
374.056	13.65
374.267	-21.16
374.477	54.61
374.688	30.04
374.898	9.56
375.109	32.08
375.319	27.99
375.53	42.32
375.74	-64.17
375.951	42.32
376.161	25.94
376.372	50.52
376.582	42.32
376.793	54.61
377.003	56.66
377.214	48.47
377.424	109.91
377.635	13.65
377.845	46.42
378.055	165.2
378.266	38.23
378.476	46.42
378.686	15.7
378.897	54.61
379.107	27.99
379.317	48.47
379.528	50.52
379.738	89.43
379.948	11.61
380.158	21.85
380.369	58.71
380.579	134.48
380.789	48.47
380.999	40.28
381.21	101.72
381.42	71
381.63	21.85
381.84	-8.87
382.05	9.56
382.261	62.8
382.471	60.76
382.681	13.65
382.891	23.89
383.101	111.96
383.311	-10.92
383.521	71
383.731	3.41
383.941	21.85
384.151	83.28
384.361	48.47
384.571	40.28
384.781	79.19
384.991	89.43
385.201	83.28
385.411	52.56
385.621	71
385.831	93.52
386.041	62.8
386.251	38.23
386.461	95.57
386.671	30.04
386.881	44.37
387.091	38.23
387.301	38.23
387.511	-4.78
387.72	73.04
387.93	23.89
388.14	-33.45
388.35	52.56
388.56	107.86
388.769	83.28
388.979	-10.92
389.189	58.71
389.399	30.04
389.609	111.96
389.818	42.32
390.028	52.56
390.238	71
390.447	15.7
390.657	64.85
390.867	9.56
391.076	21.85
391.286	13.65
391.496	52.56
391.705	27.99
391.915	48.47
392.125	122.2
392.334	81.24
392.544	56.66
392.753	54.61
392.963	15.7
393.172	7.51
393.382	3.41
393.591	136.53
393.801	1.37
394.01	116.05
394.22	54.61
394.429	11.61
394.639	62.8
394.848	124.24
395.058	38.23
395.267	87.38
395.477	103.76
395.686	154.96
395.895	89.43
396.105	81.24
396.314	30.04
396.524	50.52
396.733	56.66
396.942	177.49
397.152	64.85
397.361	52.56
397.57	91.48
397.78	77.14
397.989	46.42
398.198	107.86
398.407	54.61
398.617	99.67
398.826	66.9
399.035	118.1
399.244	97.62
399.453	111.96
399.663	77.14
399.872	97.62
400.081	62.8
400.29	81.24
400.499	71
400.708	103.76
400.917	17.75
401.127	136.53
401.336	-0.68
401.545	118.1
401.754	11.61
401.963	107.86
402.172	111.96
402.381	120.15
402.59	64.85
402.799	75.09
403.008	171.35
403.217	85.33
403.426	32.08
403.635	140.63
403.844	91.48
404.053	128.34
404.262	75.09
404.471	138.58
404.68	138.58
404.888	103.76
405.097	152.91
405.306	79.19
405.515	114
405.724	157.01
405.933	111.96
406.142	163.15
406.35	161.11
406.559	202.07
406.768	161.11
406.977	140.63
407.185	103.76
407.394	138.58
407.603	122.2
407.812	144.72
408.02	169.3
408.229	212.31
408.438	230.74
408.646	200.02
408.855	193.87
409.064	157.01
409.272	169.3
409.481	169.3
409.69	161.11
409.898	171.35
410.107	210.26
410.315	255.31
410.524	216.4
410.733	238.93
410.941	275.79
411.15	292.18
411.358	310.61
411.567	316.75
411.775	269.65
411.984	333.14
412.192	374.1
412.401	298.32
412.609	331.09
412.818	382.29
413.026	292.18
413.234	374.1
413.443	320.85
413.651	384.34
413.86	443.73
414.068	456.01
414.276	447.82
414.485	408.91
414.693	413.01
414.901	556.36
415.11	496.97
415.318	560.46
415.526	503.12
415.734	603.47
415.943	572.75
416.151	689.48
416.359	632.14
416.567	636.24
416.776	630.09
416.984	632.14
417.192	730.44
417.4	675.15
417.608	779.59
417.817	703.82
418.025	859.46
418.233	841.03
418.441	857.42
418.649	906.57
418.857	945.48
419.065	933.19
419.273	943.43
419.481	949.57
419.689	1084.74
419.897	1045.83
420.105	1119.56
420.313	1054.02
420.521	1299.78
420.729	1273.15
420.937	1365.31
421.145	1334.59
421.353	1449.28
421.561	1516.86
421.769	1547.58
421.977	1473.85
422.185	1578.3
422.393	1649.98
422.601	1635.64
422.809	1588.54
423.017	1770.81
423.224	1803.58
423.432	1819.96
423.64	1850.68
423.848	2028.85
424.056	1930.55
424.263	2118.97
424.471	2049.33
424.679	2098.49
424.887	2299.19
425.094	2268.47
425.302	2368.82
425.51	2422.06
425.718	2499.89
425.925	2485.55
426.133	2573.61
426.341	2667.82
426.548	2764.08
426.756	2800.94
426.964	2905.38
427.171	3128.61
427.379	3081.51
427.586	3337.51
427.794	3247.4
428.001	3360.03
428.209	3573.02
428.417	3454.24
428.624	3638.56
428.832	3767.58
429.039	3689.76
429.247	3869.98
429.454	4066.58
429.662	4445.46
429.869	4209.94
430.076	4439.31
430.284	4349.2
430.491	4379.92
430.699	4803.85
430.906	4791.56
431.114	4797.71
431.321	4977.93
431.528	5045.51
431.736	5311.75
431.943	5657.85
432.15	5530.88
432.358	5551.36
432.565	5860.6
432.772	5704.96
432.979	6208.76
433.187	6167.8
433.394	6206.71
433.601	6700.27
433.808	6751.47
434.016	6669.55
434.223	6946.03
434.43	7240.93
434.637	7310.57
434.844	7560.42
435.052	7814.37
435.259	7812.32
435.466	7884
435.673	7685.34
435.88	8352.98
436.087	8522.96
436.294	8879.31
436.501	8547.54
436.708	8565.97
436.915	9024.72
437.122	9465.03
437.329	9295.05
437.537	9708.74
437.743	9893.05
437.95	9678.02
438.157	10233.02
438.364	10413.24
438.571	10417.33
438.778	10540.21
438.985	11623.59
439.192	11119.79
439.399	11549.86
439.606	11175.08
439.813	11889.82
440.02	12612.76
440.227	12295.32
440.433	12225.69
440.64	12672.15
440.847	12618.9
441.054	12938.38
441.261	13780.1
441.467	13698.18
441.674	13929.6
441.881	14357.63
442.088	14310.52
442.294	14062.72
442.501	14773.36
442.708	14556.28
442.914	15428.71
443.121	16069.73
443.328	15590.5
443.534	16907.35
443.741	16094.3
443.948	15895.65
444.154	17175.63
444.361	16976.98
444.568	17263.69
444.774	17396.81
444.981	17347.66
445.187	18048.07
445.394	18857.01
445.6	18711.61
445.807	20216.86
446.013	19510.32
446.22	19625
446.426	20722.71
446.633	20841.5
446.839	21451.79
447.046	20716.57
447.252	21701.64
447.459	21863.43
447.665	21726.22
447.871	22821.88
448.078	23567.34
448.284	22619.13
448.491	23075.83
448.697	24280.03
448.903	24331.23
449.11	24435.68
449.316	24030.18
449.522	24372.19
449.728	25375.7
449.935	25578.45
450.141	25727.95
450.347	25893.83
450.553	25273.3
450.76	25738.19
450.966	26618.82
451.172	26235.84
451.378	26934.2
451.584	26467.27
451.791	27186.1
451.997	26903.48
452.203	27483.06
452.409	27476.91
452.615	27323.32
452.821	26346.44
453.027	26393.54
453.233	27661.23
453.44	26698.69
453.646	26672.06
453.852	26878.91
454.058	27222.97
454.264	26416.07
454.47	27204.53
454.676	26473.41
454.882	27243.45
455.088	24882.14
455.294	25553.87
455.5	25809.87
455.705	25779.15
455.911	24783.84
456.117	24568.8
456.323	24433.63
456.529	23182.32
456.735	24128.49
456.941	23286.77
457.147	22873.08
457.352	22240.26
457.558	22010.89
457.764	22174.72
457.97	21558.28
458.176	21376.02
458.381	21074.96
458.587	20272.16
458.793	20110.37
458.999	19168.3
459.204	20440.09
459.41	20153.38
459.616	18734.14
459.821	18846.77
460.027	18496.57
460.233	18105.41
460.438	17314.89
460.644	17597.51
460.85	16659.54
461.055	16653.4
461.261	16448.6
461.466	15031.41
461.672	14562.42
461.878	15565.93
462.083	14861.43
462.289	14431.35
462.494	14230.65
462.7	13585.54
462.905	13460.62
463.111	13712.52
463.316	13835.39
463.522	13640.84
463.727	13567.11
463.932	13534.34
464.138	13417.61
464.343	13395.08
464.549	12885.14
464.754	13300.87
464.959	13274.25
465.165	12999.82
465.37	12817.55
465.575	12213.4
465.781	12868.75
465.986	13063.31
466.191	12274.84
466.397	12293.27
466.602	11721.89
466.807	12154.01
467.012	12098.72
467.218	12127.39
467.423	11877.54
467.628	11850.91
467.833	12385.43
468.038	11932.83
468.244	11678.88
468.449	12055.71
468.654	11717.79
468.859	11625.64
469.064	11658.4
