Data from USB4F104151__104__13-22-08-240.txt Node

Date: Fri Mar 14 13:22:08 EDT 2025
User: louis
Spectrometer: USB4F10415
Trigger mode: 4
Integration Time (sec): 3.000000E-2
Scans to average: 1
Electric dark correction enabled: true
Nonlinearity correction enabled: false
Boxcar width: 0
XAxis mode: Wavelengths
Number of Pixels in Spectrum: 3648
>>>>>Begin Spectral Data<<<<<
178.204	-134.14
178.424	-134.14
178.644	-134.14
178.864	-195.58
179.084	-156.67
179.304	58.37
179.524	25.6
179.744	-7.17
179.964	15.36
180.184	-5.12
180.404	-48.13
180.624	-37.89
180.844	56.32
181.064	-121.85
181.283	37.89
181.503	25.6
181.723	1.02
181.943	-97.28
182.163	9.22
182.383	-74.75
182.602	-11.26
182.822	-1.02
183.042	-13.31
183.262	-21.5
183.482	-50.18
183.701	-31.74
183.921	-25.6
184.141	-3.07
184.361	7.17
184.58	-5.12
184.8	-62.46
185.02	-25.6
185.239	-15.36
185.459	-33.79
185.679	13.31
185.898	-119.81
186.118	-1.02
186.338	-17.41
186.557	-5.12
186.777	-44.03
186.997	-58.37
187.216	-13.31
187.436	74.75
187.655	31.74
187.875	-11.26
188.095	-52.22
188.314	-3.07
188.534	60.42
188.753	-70.65
188.973	33.79
189.192	54.27
189.412	1.02
189.631	-9.22
189.851	-50.18
190.07	-15.36
190.29	-1.02
190.509	11.26
190.729	37.89
190.948	60.42
191.168	160.77
191.387	-46.08
191.607	-44.03
191.826	13.31
192.045	-3.07
192.265	-11.26
192.484	-35.84
192.704	-33.79
192.923	-109.57
193.142	56.32
193.362	-13.31
193.581	54.27
193.8	7.17
194.02	33.79
194.239	19.46
194.458	-39.94
194.678	-17.41
194.897	-41.98
195.116	15.36
195.335	-66.56
195.555	-5.12
195.774	-3.07
195.993	7.17
196.212	-46.08
196.432	-48.13
196.651	-64.51
196.87	-39.94
197.089	19.46
197.308	-1.02
197.528	9.22
197.747	-31.74
197.966	3.07
198.185	39.94
198.404	25.6
198.623	-46.08
198.842	117.76
199.062	44.03
199.281	25.6
199.5	-58.37
199.719	-31.74
199.938	17.41
200.157	21.5
200.376	60.42
200.595	-5.12
200.814	-23.55
201.033	-13.31
201.252	54.27
201.471	-1.02
201.69	23.55
201.909	1.02
202.128	-109.57
202.347	78.85
202.566	23.55
202.785	-27.65
203.004	-23.55
203.223	115.71
203.442	-50.18
203.661	-33.79
203.879	3.07
204.098	39.94
204.317	-70.65
204.536	78.85
204.755	-3.07
204.974	-21.5
205.193	-37.89
205.411	-25.6
205.63	-21.5
205.849	-31.74
206.068	-19.46
206.287	7.17
206.505	15.36
206.724	-56.32
206.943	-13.31
207.162	-33.79
207.381	15.36
207.599	15.36
207.818	-27.65
208.037	50.18
208.255	15.36
208.474	7.17
208.693	-23.55
208.911	60.42
209.13	66.56
209.349	27.65
209.567	33.79
209.786	97.28
210.005	35.84
210.223	-48.13
210.442	-9.22
210.661	48.13
210.879	-1.02
211.098	-15.36
211.316	7.17
211.535	48.13
211.753	-35.84
211.972	-44.03
212.191	-54.27
212.409	-64.51
212.628	-21.5
212.846	21.5
213.065	-15.36
213.283	25.6
213.502	-70.65
213.72	-17.41
213.938	78.85
214.157	-33.79
214.375	1.02
214.594	7.17
214.812	11.26
215.031	-33.79
215.249	-19.46
215.467	9.22
215.686	-54.27
215.904	58.37
216.122	-76.8
216.341	72.7
216.559	29.7
216.778	87.04
216.996	39.94
217.214	41.98
217.432	-35.84
217.651	-1.02
217.869	-48.13
218.087	-46.08
218.306	-89.09
218.524	64.51
218.742	-23.55
218.96	1.02
219.179	23.55
219.397	25.6
219.615	25.6
219.833	-7.17
220.051	-33.79
220.27	44.03
220.488	-44.03
220.706	78.85
220.924	-39.94
221.142	-37.89
221.36	-13.31
221.578	-1.02
221.796	5.12
222.015	35.84
222.233	7.17
222.451	60.42
222.669	-70.65
222.887	166.91
223.105	-58.37
223.323	-7.17
223.541	128
223.759	17.41
223.977	-3.07
224.195	44.03
224.413	7.17
224.631	7.17
224.849	-31.74
225.067	39.94
225.285	-21.5
225.503	-56.32
225.721	-13.31
225.939	-17.41
226.157	-1.02
226.375	60.42
226.592	-27.65
226.81	23.55
227.028	21.5
227.246	15.36
227.464	31.74
227.682	5.12
227.9	33.79
228.117	-41.98
228.335	7.17
228.553	72.7
228.771	37.89
228.989	17.41
229.206	21.5
229.424	7.17
229.642	-13.31
229.86	23.55
230.077	33.79
230.295	27.65
230.513	15.36
230.731	-5.12
230.948	60.42
231.166	27.65
231.384	13.31
231.601	-41.98
231.819	50.18
232.037	11.26
232.254	41.98
232.472	-87.04
232.689	9.22
232.907	11.26
233.125	-13.31
233.342	-54.27
233.56	-15.36
233.777	15.36
233.995	15.36
234.213	50.18
234.43	1.02
234.648	15.36
234.865	-17.41
235.083	-7.17
235.3	44.03
235.518	-19.46
235.735	142.33
235.953	23.55
236.17	7.17
236.388	7.17
236.605	17.41
236.822	25.6
237.04	9.22
237.257	15.36
237.475	-64.51
237.692	33.79
237.909	-56.32
238.127	5.12
238.344	82.94
238.562	-17.41
238.779	3.07
238.996	-31.74
239.214	27.65
239.431	-7.17
239.648	-33.79
239.865	23.55
240.083	70.65
240.3	-15.36
240.517	-76.8
240.735	-25.6
240.952	109.57
241.169	27.65
241.386	29.7
241.603	29.7
241.821	-87.04
242.038	3.07
242.255	60.42
242.472	31.74
242.689	-11.26
242.907	5.12
243.124	-72.7
243.341	15.36
243.558	11.26
243.775	-54.27
243.992	-89.09
244.209	62.46
244.426	97.28
244.643	-41.98
244.86	-5.12
245.078	-21.5
245.295	70.65
245.512	-25.6
245.729	-9.22
245.946	7.17
246.163	41.98
246.38	-17.41
246.597	7.17
246.814	-5.12
247.031	11.26
247.248	58.37
247.464	3.07
247.681	-29.7
247.898	3.07
248.115	-1.02
248.332	9.22
248.549	25.6
248.766	105.47
248.983	84.99
249.2	27.65
249.417	41.98
249.633	23.55
249.85	37.89
250.067	-1.02
250.284	-93.18
250.501	-11.26
250.717	33.79
250.934	23.55
251.151	39.94
251.368	19.46
251.585	15.36
251.801	-15.36
252.018	-7.17
252.235	-25.6
252.451	-99.33
252.668	-3.07
252.885	-23.55
253.102	68.61
253.318	33.79
253.535	-27.65
253.752	33.79
253.968	-29.7
254.185	25.6
254.401	13.31
254.618	48.13
254.835	31.74
255.051	-5.12
255.268	5.12
255.484	-17.41
255.701	27.65
255.917	-7.17
256.134	-19.46
256.351	11.26
256.567	-80.89
256.784	-23.55
257	-27.65
257.217	19.46
257.433	3.07
257.65	-9.22
257.866	31.74
258.082	-46.08
258.299	-17.41
258.515	5.12
258.732	-23.55
258.948	-15.36
259.165	29.7
259.381	-17.41
259.597	-3.07
259.814	41.98
260.03	-5.12
260.246	-23.55
260.463	23.55
260.679	58.37
260.895	31.74
261.112	-39.94
261.328	-19.46
261.544	31.74
261.761	97.28
261.977	-72.7
262.193	-1.02
262.409	-21.5
262.626	19.46
262.842	-29.7
263.058	-7.17
263.274	-1.02
263.49	9.22
263.707	-25.6
263.923	-29.7
264.139	-97.28
264.355	9.22
264.571	-7.17
264.787	23.55
265.004	-21.5
265.22	52.22
265.436	-5.12
265.652	-46.08
265.868	46.08
266.084	-1.02
266.3	27.65
266.516	-54.27
266.732	7.17
266.948	-23.55
267.164	21.5
267.38	35.84
267.596	21.5
267.812	23.55
268.028	-31.74
268.244	-7.17
268.46	-25.6
268.676	-66.56
268.892	46.08
269.108	-27.65
269.324	33.79
269.54	-33.79
269.756	41.98
269.972	-64.51
270.188	-66.56
270.403	-39.94
270.619	-17.41
270.835	-13.31
271.051	-19.46
271.267	-50.18
271.483	-29.7
271.698	-64.51
271.914	31.74
272.13	-17.41
272.346	-5.12
272.562	64.51
272.777	-7.17
272.993	93.18
273.209	39.94
273.425	50.18
273.64	-23.55
273.856	-17.41
274.072	-31.74
274.287	15.36
274.503	44.03
274.719	23.55
274.934	7.17
275.15	-41.98
275.366	46.08
275.581	-13.31
275.797	-25.6
276.012	41.98
276.228	-74.75
276.444	-3.07
276.659	-13.31
276.875	-93.18
277.09	31.74
277.306	7.17
277.521	23.55
277.737	93.18
277.952	9.22
278.168	29.7
278.383	-7.17
278.599	31.74
278.814	97.28
279.03	-46.08
279.245	35.84
279.461	-27.65
279.676	76.8
279.892	-5.12
280.107	-46.08
280.322	-9.22
280.538	31.74
280.753	39.94
280.969	29.7
281.184	-46.08
281.399	72.7
281.615	21.5
281.83	-1.02
282.045	7.17
282.26	-58.37
282.476	-11.26
282.691	39.94
282.906	-5.12
283.122	17.41
283.337	5.12
283.552	19.46
283.767	-52.22
283.983	-5.12
284.198	23.55
284.413	13.31
284.628	-9.22
284.843	19.46
285.058	-23.55
285.274	19.46
285.489	-62.46
285.704	89.09
285.919	-39.94
286.134	-9.22
286.349	-56.32
286.564	56.32
286.779	123.9
286.995	-31.74
287.21	-35.84
287.425	17.41
287.64	-44.03
287.855	41.98
288.07	-48.13
288.285	23.55
288.5	48.13
288.715	84.99
288.93	15.36
289.145	-17.41
289.36	-39.94
289.575	-76.8
289.79	72.7
290.004	-58.37
290.219	48.13
290.434	48.13
290.649	5.12
290.864	-19.46
291.079	-1.02
291.294	-1.02
291.509	-68.61
291.724	-27.65
291.938	-15.36
292.153	11.26
292.368	11.26
292.583	33.79
292.798	-21.5
293.012	-54.27
293.227	76.8
293.442	13.31
293.657	64.51
293.871	-68.61
294.086	-37.89
294.301	93.18
294.516	72.7
294.73	60.42
294.945	-62.46
295.16	7.17
295.374	58.37
295.589	23.55
295.804	9.22
296.018	23.55
296.233	39.94
296.447	-1.02
296.662	-76.8
296.877	-19.46
297.091	11.26
297.306	11.26
297.52	5.12
297.735	87.04
297.949	-80.89
298.164	-35.84
298.378	35.84
298.593	-50.18
298.807	-19.46
299.022	-17.41
299.236	35.84
299.451	13.31
299.665	-17.41
299.88	-58.37
300.094	-29.7
300.309	-97.28
300.523	60.42
300.737	-9.22
300.952	-87.04
301.166	-9.22
301.381	5.12
301.595	-37.89
301.809	35.84
302.024	33.79
302.238	-41.98
302.452	27.65
302.667	-11.26
302.881	29.7
303.095	56.32
303.309	-15.36
303.524	-72.7
303.738	-5.12
303.952	29.7
304.166	7.17
304.381	5.12
304.595	3.07
304.809	3.07
305.023	52.22
305.237	3.07
305.452	41.98
305.666	15.36
305.88	80.89
306.094	41.98
306.308	39.94
306.522	80.89
306.736	-35.84
306.95	5.12
307.164	17.41
307.379	-60.42
307.593	46.08
307.807	17.41
308.021	68.61
308.235	62.46
308.449	39.94
308.663	-29.7
308.877	-11.26
309.091	23.55
309.305	21.5
309.519	-39.94
309.733	56.32
309.947	-56.32
310.161	-9.22
310.374	46.08
310.588	101.37
310.802	-99.33
311.016	101.37
311.23	13.31
311.444	48.13
311.658	-27.65
311.872	-3.07
312.085	39.94
312.299	-15.36
312.513	5.12
312.727	3.07
312.941	29.7
313.154	89.09
313.368	15.36
313.582	-1.02
313.796	-1.02
314.009	-13.31
314.223	52.22
314.437	31.74
314.651	72.7
314.864	-33.79
315.078	11.26
315.292	-68.61
315.505	29.7
315.719	-23.55
315.933	-1.02
316.146	-9.22
316.36	-9.22
316.573	109.57
316.787	64.51
317.001	21.5
317.214	-11.26
317.428	-66.56
317.641	-15.36
317.855	-9.22
318.068	-56.32
318.282	-17.41
318.495	76.8
318.709	29.7
318.922	-58.37
319.136	76.8
319.349	58.37
319.563	-48.13
319.776	-44.03
319.99	-74.75
320.203	62.46
320.417	-13.31
320.63	46.08
320.843	58.37
321.057	3.07
321.27	-17.41
321.483	89.09
321.697	76.8
321.91	7.17
322.124	-19.46
322.337	93.18
322.55	-9.22
322.763	66.56
322.977	-19.46
323.19	-66.56
323.403	9.22
323.617	5.12
323.83	-15.36
324.043	31.74
324.256	-23.55
324.469	-19.46
324.683	78.85
324.896	29.7
325.109	-95.23
325.322	-25.6
325.535	39.94
325.748	74.75
325.962	-15.36
326.175	-13.31
326.388	31.74
326.601	50.18
326.814	-3.07
327.027	-1.02
327.24	58.37
327.453	-50.18
327.666	-39.94
327.879	62.46
328.092	-15.36
328.305	52.22
328.518	-23.55
328.731	-56.32
328.944	-15.36
329.157	-29.7
329.37	-80.89
329.583	-19.46
329.796	23.55
330.009	-29.7
330.222	-15.36
330.435	-31.74
330.648	-33.79
330.861	29.7
331.073	15.36
331.286	-9.22
331.499	19.46
331.712	25.6
331.925	29.7
332.138	17.41
332.35	58.37
332.563	-54.27
332.776	29.7
332.989	-5.12
333.202	15.36
333.414	-5.12
333.627	1.02
333.84	33.79
334.053	9.22
334.265	-1.02
334.478	-17.41
334.691	-27.65
334.903	17.41
335.116	-25.6
335.329	-48.13
335.541	-48.13
335.754	46.08
335.966	-50.18
336.179	25.6
336.392	48.13
336.604	-35.84
336.817	-27.65
337.029	33.79
337.242	-35.84
337.454	17.41
337.667	7.17
337.88	105.47
338.092	68.61
338.305	52.22
338.517	19.46
338.729	19.46
338.942	97.28
339.154	-87.04
339.367	-35.84
339.579	31.74
339.792	-66.56
340.004	-1.02
340.217	-123.9
340.429	7.17
340.641	-76.8
340.854	-9.22
341.066	-48.13
341.278	125.95
341.491	39.94
341.703	3.07
341.915	-48.13
342.128	33.79
342.34	82.94
342.552	9.22
342.764	11.26
342.977	56.32
343.189	33.79
343.401	13.31
343.613	-13.31
343.826	-17.41
344.038	-111.61
344.25	-1.02
344.462	-70.65
344.674	23.55
344.886	1.02
345.099	-21.5
345.311	-46.08
345.523	27.65
345.735	-103.42
345.947	1.02
346.159	-35.84
346.371	19.46
346.583	-3.07
346.795	68.61
347.007	-33.79
347.219	23.55
347.431	-25.6
347.643	25.6
347.855	-27.65
348.067	31.74
348.279	-50.18
348.491	37.89
348.703	7.17
348.915	27.65
349.127	-33.79
349.339	23.55
349.551	-107.52
349.763	17.41
349.975	-74.75
350.187	-60.42
350.399	15.36
350.61	-35.84
350.822	-25.6
351.034	44.03
351.246	-31.74
351.458	-9.22
351.669	-64.51
351.881	64.51
352.093	56.32
352.305	-15.36
352.517	7.17
352.728	23.55
352.94	-21.5
353.152	56.32
353.363	-29.7
353.575	-25.6
353.787	39.94
353.999	-15.36
354.21	113.66
354.422	-37.89
354.633	-11.26
354.845	-7.17
355.057	-7.17
355.268	-58.37
355.48	13.31
355.692	-74.75
355.903	60.42
356.115	-25.6
356.326	-56.32
356.538	-29.7
356.749	-37.89
356.961	54.27
357.172	-5.12
357.384	31.74
357.595	93.18
357.807	56.32
358.018	-41.98
358.23	-1.02
358.441	33.79
358.653	9.22
358.864	35.84
359.075	-37.89
359.287	21.5
359.498	-13.31
359.709	21.5
359.921	-15.36
360.132	35.84
360.344	-1.02
360.555	1.02
360.766	-27.65
360.977	-17.41
361.189	11.26
361.4	72.7
361.611	11.26
361.823	21.5
362.034	17.41
362.245	-70.65
362.456	35.84
362.667	107.52
362.879	19.46
363.09	50.18
363.301	9.22
363.512	23.55
363.723	56.32
363.935	-50.18
364.146	21.5
364.357	-50.18
364.568	11.26
364.779	-46.08
364.99	44.03
365.201	52.22
365.412	138.24
365.623	-103.42
365.834	91.13
366.045	-62.46
366.256	-54.27
366.467	58.37
366.678	15.36
366.889	-33.79
367.1	23.55
367.311	-25.6
367.522	-54.27
367.733	97.28
367.944	-70.65
368.155	-17.41
368.366	23.55
368.577	15.36
368.788	54.27
368.999	-74.75
369.209	15.36
369.42	74.75
369.631	80.89
369.842	48.13
370.053	11.26
370.264	-48.13
370.474	-7.17
370.685	3.07
370.896	39.94
371.107	107.52
371.317	23.55
371.528	-17.41
371.739	37.89
371.95	-5.12
372.16	7.17
372.371	-31.74
372.582	-60.42
372.792	41.98
373.003	31.74
373.214	29.7
373.424	7.17
373.635	17.41
373.846	37.89
374.056	25.6
374.267	-13.31
374.477	17.41
374.688	27.65
374.898	50.18
375.109	27.65
375.319	50.18
375.53	-5.12
375.74	113.66
375.951	23.55
376.161	21.5
376.372	19.46
376.582	-23.55
376.793	52.22
377.003	23.55
377.214	21.5
377.424	50.18
377.635	56.32
377.845	9.22
378.055	33.79
378.266	-33.79
378.476	64.51
378.686	-7.17
378.897	39.94
379.107	29.7
379.317	-7.17
379.528	-13.31
379.738	54.27
379.948	-44.03
380.158	19.46
380.369	-33.79
380.579	-3.07
380.789	-1.02
380.999	7.17
381.21	58.37
381.42	7.17
381.63	50.18
381.84	70.65
382.05	11.26
382.261	-19.46
382.471	3.07
382.681	-7.17
382.891	7.17
383.101	7.17
383.311	3.07
383.521	-17.41
383.731	60.42
383.941	68.61
384.151	-41.98
384.361	-5.12
384.571	-3.07
384.781	17.41
384.991	-17.41
385.201	41.98
385.411	25.6
385.621	25.6
385.831	87.04
386.041	21.5
386.251	1.02
386.461	64.51
386.671	-37.89
386.881	33.79
387.091	39.94
387.301	17.41
387.511	-56.32
387.72	7.17
387.93	25.6
388.14	23.55
388.35	15.36
388.56	50.18
388.769	1.02
388.979	-50.18
389.189	7.17
389.399	13.31
389.609	-17.41
389.818	50.18
390.028	-7.17
390.238	21.5
390.447	-29.7
390.657	-82.94
390.867	-39.94
391.076	1.02
391.286	-37.89
391.496	3.07
391.705	-11.26
391.915	-52.22
392.125	99.33
392.334	11.26
392.544	54.27
392.753	25.6
392.963	-82.94
393.172	44.03
393.382	-56.32
393.591	117.76
393.801	-70.65
394.01	89.09
394.22	37.89
394.429	29.7
394.639	33.79
394.848	52.22
395.058	7.17
395.267	-17.41
395.477	1.02
395.686	156.67
395.895	93.18
396.105	23.55
396.314	66.56
396.524	80.89
396.733	-41.98
396.942	93.18
397.152	35.84
397.361	44.03
397.57	23.55
397.78	5.12
397.989	19.46
398.198	48.13
398.407	48.13
398.617	-9.22
398.826	41.98
399.035	-3.07
399.244	58.37
399.453	72.7
399.663	84.99
399.872	7.17
400.081	7.17
400.29	78.85
400.499	17.41
400.708	50.18
400.917	19.46
401.127	46.08
401.336	46.08
401.545	134.14
401.754	121.85
401.963	31.74
402.172	48.13
402.381	-1.02
402.59	-9.22
402.799	21.5
403.008	39.94
403.217	-25.6
403.426	35.84
403.635	-5.12
403.844	15.36
404.053	46.08
404.262	76.8
404.471	93.18
404.68	93.18
404.888	7.17
405.097	48.13
405.306	37.89
405.515	74.75
405.724	39.94
405.933	-13.31
406.142	76.8
406.35	105.47
406.559	66.56
406.768	56.32
406.977	64.51
407.185	56.32
407.394	103.42
407.603	27.65
407.812	35.84
408.02	93.18
408.229	125.95
408.438	103.42
408.646	113.66
408.855	107.52
409.064	111.61
409.272	82.94
409.481	119.81
409.69	46.08
409.898	91.13
410.107	99.33
410.315	156.67
410.524	99.33
410.733	109.57
410.941	150.53
411.15	191.49
411.358	132.09
411.567	173.05
411.775	193.53
411.984	220.16
412.192	259.07
412.401	224.25
412.609	207.87
412.818	199.68
413.026	179.2
413.234	263.16
413.443	154.62
413.651	181.25
413.86	228.35
414.068	273.4
414.276	263.16
414.485	275.45
414.693	254.97
414.901	365.56
415.11	322.56
415.318	322.56
415.526	324.6
415.734	394.23
415.943	336.89
416.151	443.39
416.359	365.56
416.567	357.37
416.776	427
416.984	340.99
417.192	435.19
417.4	340.99
417.608	482.3
417.817	457.72
418.025	539.64
418.233	523.26
418.441	486.39
418.649	478.2
418.857	537.59
419.065	590.84
419.273	601.08
419.481	639.99
419.689	623.61
419.897	633.85
420.105	631.8
420.313	623.61
420.521	697.33
420.729	703.48
420.937	795.64
421.145	771.06
421.353	769.01
421.561	891.89
421.769	869.36
421.977	930.8
422.185	965.62
422.393	1025.01
422.601	1025.01
422.809	1080.3
423.017	996.34
423.224	1049.58
423.432	1178.61
423.64	1106.93
423.848	1164.27
424.056	1104.88
424.263	1311.72
424.471	1367.02
424.679	1442.79
424.887	1305.58
425.094	1457.13
425.302	1407.98
425.51	1401.83
425.718	1514.47
425.925	1582.06
426.133	1620.97
426.341	1842.15
426.548	1747.94
426.756	1717.22
426.964	1805.28
427.171	1973.22
427.379	1881.06
427.586	1928.16
427.794	2073.57
428.001	2163.68
428.209	2247.65
428.417	2040.8
428.624	2323.42
428.832	2360.28
429.039	2329.56
429.247	2376.67
429.454	2374.62
429.662	2835.41
429.869	2530.27
430.076	2642.9
430.284	2681.82
430.491	2737.11
430.699	2919.38
430.906	2962.39
431.114	3050.45
431.321	3107.79
431.528	3091.41
431.736	3257.29
431.943	3460.04
432.15	3230.67
432.358	3449.8
432.565	3808.2
432.772	3576.78
432.979	3840.97
433.187	3931.08
433.394	3980.23
433.601	4176.83
433.808	4123.59
434.016	4092.87
434.223	4324.29
434.43	4422.59
434.637	4389.82
434.844	4758.46
435.052	4807.61
435.259	4940.72
435.466	4942.77
435.673	4885.43
435.88	5278.64
436.087	5366.7
436.294	5321.65
436.501	5356.46
436.708	5354.41
436.915	5596.07
437.122	5813.16
437.329	5807.02
437.537	6093.73
437.743	5979.04
437.95	6044.58
438.157	6245.28
438.364	6615.96
438.571	6507.42
438.778	6603.68
438.985	7164.82
439.192	6978.45
439.399	7306.13
439.606	7035.8
439.813	7453.58
440.02	7783.31
440.227	7854.98
440.433	7642
440.64	8002.44
440.847	7764.87
441.054	7975.81
441.261	8532.86
441.467	8457.09
441.674	8668.03
441.881	9098.1
442.088	8823.67
442.294	9010.04
442.501	9313.14
442.708	9192.31
442.914	9651.05
443.121	10111.85
443.328	9739.12
443.534	10541.92
443.741	10038.12
443.948	9978.73
444.154	10759
444.361	10744.67
444.568	10691.42
444.774	10722.14
444.981	10879.83
445.187	11184.98
445.394	11711.31
445.6	11606.86
445.807	12682.05
446.013	12014.41
446.22	12102.47
446.426	12725.05
446.633	13124.41
446.839	13151.03
447.046	12796.73
447.252	13527.86
447.459	13527.86
447.665	13468.47
447.871	14093.1
448.078	14961.44
448.284	14070.57
448.491	14498.59
448.697	14889.76
448.903	15137.56
449.11	15285.01
449.316	15035.16
449.522	15436.56
449.728	15536.91
449.935	15725.33
450.141	15915.79
450.347	16384.77
450.553	15823.63
450.76	16055.05
450.966	16458.5
451.172	16298.76
451.378	16839.42
451.584	16456.45
451.791	17003.26
451.997	16939.77
452.203	16804.61
452.409	17203.96
452.615	17169.15
452.821	16304.9
453.027	16161.55
453.233	17009.4
453.44	16423.69
453.646	16710.4
453.852	16657.15
454.058	16747.26
454.264	16503.56
454.47	16728.83
454.676	16182.03
454.882	16990.97
455.088	15403.8
455.294	15624.98
455.5	16055.05
455.705	16108.3
455.911	15502.1
456.117	14943
456.323	15063.83
456.529	14394.15
456.735	14635.81
456.941	14379.81
457.147	14215.98
457.352	13871.92
457.558	13400.88
457.764	13529.91
457.97	13368.12
458.176	13009.72
458.381	12802.88
458.587	12514.11
458.793	12444.48
458.999	11739.98
459.204	12559.17
459.41	12534.59
459.616	11492.18
459.821	11723.6
460.027	11457.36
460.233	11258.71
460.438	10869.59
460.644	10797.92
460.85	10410.85
461.055	10126.18
461.261	10134.37
461.466	9354.1
461.672	8905.59
461.878	9737.07
462.083	9016.18
462.289	8805.24
462.494	8751.99
462.7	8315.78
462.905	8285.06
463.111	8586.11
463.316	8518.53
463.522	8203.14
463.727	8184.71
463.932	8225.67
464.138	8313.73
464.343	8149.89
464.549	7818.12
464.754	8313.73
464.959	8334.21
465.165	7934.85
465.37	7943.05
465.575	7531.41
465.781	8047.49
465.986	7994.25
466.191	7789.45
466.397	7455.63
466.602	7134.1
466.807	7373.71
467.012	7459.73
467.218	7424.91
467.423	7342.99
