Data from USB4F104151__14__13-10-26-231.txt Node

Date: Fri Mar 14 13:10:26 EDT 2025
User: louis
Spectrometer: USB4F10415
Trigger mode: 4
Integration Time (sec): 2.000000E-2
Scans to average: 1
Electric dark correction enabled: true
Nonlinearity correction enabled: false
Boxcar width: 0
XAxis mode: Wavelengths
Number of Pixels in Spectrum: 3648
>>>>>Begin Spectral Data<<<<<
178.204	-105.47
178.424	-105.47
178.644	-105.47
178.864	-80.89
179.084	-62.46
179.304	-7.17
179.524	-17.41
179.744	-7.17
179.964	15.36
180.184	-13.31
180.404	54.27
180.624	33.79
180.844	13.31
181.064	-1.02
181.283	-52.22
181.503	5.12
181.723	-23.55
181.943	-62.46
182.163	44.03
182.383	39.94
182.602	66.56
182.822	95.23
183.042	-3.07
183.262	-9.22
183.482	15.36
183.701	101.37
183.921	3.07
184.141	-15.36
184.361	-11.26
184.58	5.12
184.8	5.12
185.02	33.79
185.239	52.22
185.459	54.27
185.679	87.04
185.898	11.26
186.118	72.7
186.338	17.41
186.557	48.13
186.777	52.22
186.997	39.94
187.216	41.98
187.436	115.71
187.655	29.7
187.875	66.56
188.095	44.03
188.314	19.46
188.534	66.56
188.753	17.41
188.973	60.42
189.192	95.23
189.412	15.36
189.631	41.98
189.851	3.07
190.07	91.13
190.29	7.17
190.509	84.99
190.729	87.04
190.948	-3.07
191.168	87.04
191.387	48.13
191.607	-37.89
191.826	99.33
192.045	29.7
192.265	27.65
192.484	132.09
192.704	82.94
192.923	15.36
193.142	80.89
193.362	66.56
193.581	-23.55
193.8	15.36
194.02	62.46
194.239	66.56
194.458	64.51
194.678	27.65
194.897	-39.94
195.116	-5.12
195.335	60.42
195.555	33.79
195.774	23.55
195.993	44.03
196.212	-52.22
196.432	-56.32
196.651	27.65
196.87	74.75
197.089	78.85
197.308	50.18
197.528	70.65
197.747	62.46
197.966	19.46
198.185	95.23
198.404	103.42
198.623	84.99
198.842	-31.74
199.062	82.94
199.281	29.7
199.5	109.57
199.719	-7.17
199.938	46.08
200.157	62.46
200.376	-5.12
200.595	25.6
200.814	46.08
201.033	25.6
201.252	107.52
201.471	70.65
201.69	25.6
201.909	23.55
202.128	13.31
202.347	41.98
202.566	17.41
202.785	52.22
203.004	19.46
203.223	107.52
203.442	13.31
203.661	21.5
203.879	11.26
204.098	128
204.317	5.12
204.536	31.74
204.755	31.74
204.974	35.84
205.193	-7.17
205.411	99.33
205.63	58.37
205.849	41.98
206.068	84.99
206.287	11.26
206.505	146.43
206.724	33.79
206.943	33.79
207.162	-13.31
207.381	84.99
207.599	48.13
207.818	74.75
208.037	46.08
208.255	9.22
208.474	23.55
208.693	9.22
208.911	54.27
209.13	-9.22
209.349	46.08
209.567	82.94
209.786	50.18
210.005	72.7
210.223	-60.42
210.442	-31.74
210.661	21.5
210.879	3.07
211.098	25.6
211.316	17.41
211.535	97.28
211.753	7.17
211.972	46.08
212.191	48.13
212.409	29.7
212.628	50.18
212.846	52.22
213.065	99.33
213.283	99.33
213.502	25.6
213.72	50.18
213.938	-23.55
214.157	78.85
214.375	13.31
214.594	58.37
214.812	48.13
215.031	41.98
215.249	-54.27
215.467	48.13
215.686	35.84
215.904	44.03
216.122	44.03
216.341	91.13
216.559	64.51
216.778	-72.7
216.996	68.61
217.214	107.52
217.432	52.22
217.651	19.46
217.869	48.13
218.087	13.31
218.306	1.02
218.524	44.03
218.742	-23.55
218.96	39.94
219.179	54.27
219.397	44.03
219.615	72.7
219.833	66.56
220.051	134.14
220.27	93.18
220.488	23.55
220.706	11.26
220.924	17.41
221.142	60.42
221.36	39.94
221.578	23.55
221.796	-15.36
222.015	66.56
222.233	17.41
222.451	99.33
222.669	39.94
222.887	31.74
223.105	-21.5
223.323	44.03
223.541	64.51
223.759	-31.74
223.977	87.04
224.195	15.36
224.413	66.56
224.631	-5.12
224.849	72.7
225.067	48.13
225.285	33.79
225.503	60.42
225.721	21.5
225.939	33.79
226.157	136.19
226.375	84.99
226.592	-5.12
226.81	52.22
227.028	78.85
227.246	17.41
227.464	25.6
227.682	37.89
227.9	-1.02
228.117	37.89
228.335	41.98
228.553	9.22
228.771	29.7
228.989	82.94
229.206	44.03
229.424	62.46
229.642	-23.55
229.86	39.94
230.077	33.79
230.295	39.94
230.513	48.13
230.731	72.7
230.948	80.89
231.166	62.46
231.384	11.26
231.601	27.65
231.819	35.84
232.037	-3.07
232.254	-52.22
232.472	52.22
232.689	21.5
232.907	66.56
233.125	48.13
233.342	25.6
233.56	37.89
233.777	80.89
233.995	44.03
234.213	25.6
234.43	48.13
234.648	3.07
234.865	56.32
235.083	80.89
235.3	76.8
235.518	27.65
235.735	37.89
235.953	78.85
236.17	50.18
236.388	29.7
236.605	-39.94
236.822	97.28
237.04	-11.26
237.257	27.65
237.475	35.84
237.692	82.94
237.909	99.33
238.127	33.79
238.344	60.42
238.562	39.94
238.779	-31.74
238.996	48.13
239.214	-37.89
239.431	3.07
239.648	-23.55
239.865	50.18
240.083	50.18
240.3	-41.98
240.517	23.55
240.735	39.94
240.952	15.36
241.169	-19.46
241.386	19.46
241.603	-5.12
241.821	-15.36
242.038	62.46
242.255	105.47
242.472	9.22
242.689	95.23
242.907	91.13
243.124	87.04
243.341	19.46
243.558	25.6
243.775	19.46
243.992	33.79
244.209	-19.46
244.426	72.7
244.643	82.94
244.86	-48.13
245.078	60.42
245.295	-5.12
245.512	-48.13
245.729	1.02
245.946	91.13
246.163	58.37
246.38	80.89
246.597	60.42
246.814	50.18
247.031	27.65
247.248	46.08
247.464	111.61
247.681	46.08
247.898	-5.12
248.115	-1.02
248.332	11.26
248.549	27.65
248.766	111.61
248.983	25.6
249.2	25.6
249.417	66.56
249.633	60.42
249.85	-7.17
250.067	-7.17
250.284	41.98
250.501	-62.46
250.717	-7.17
250.934	-44.03
251.151	58.37
251.368	103.42
251.585	17.41
251.801	39.94
252.018	-46.08
252.235	35.84
252.451	9.22
252.668	21.5
252.885	9.22
253.102	80.89
253.318	-19.46
253.535	-27.65
253.752	1.02
253.968	1.02
254.185	52.22
254.401	-39.94
254.618	-11.26
254.835	35.84
255.051	140.29
255.268	13.31
255.484	99.33
255.701	25.6
255.917	119.81
256.134	-17.41
256.351	93.18
256.567	11.26
256.784	99.33
257	25.6
257.217	52.22
257.433	60.42
257.65	35.84
257.866	58.37
258.082	-89.09
258.299	56.32
258.515	17.41
258.732	80.89
258.948	-17.41
259.165	-11.26
259.381	35.84
259.597	-19.46
259.814	46.08
260.03	5.12
260.246	50.18
260.463	62.46
260.679	33.79
260.895	52.22
261.112	-46.08
261.328	54.27
261.544	78.85
261.761	111.61
261.977	84.99
262.193	70.65
262.409	1.02
262.626	11.26
262.842	70.65
263.058	-21.5
263.274	115.71
263.49	50.18
263.707	107.52
263.923	5.12
264.139	29.7
264.355	44.03
264.571	48.13
264.787	-19.46
265.004	62.46
265.22	41.98
265.436	33.79
265.652	17.41
265.868	9.22
266.084	-33.79
266.3	25.6
266.516	48.13
266.732	111.61
266.948	21.5
267.164	107.52
267.38	27.65
267.596	72.7
267.812	99.33
268.028	-37.89
268.244	17.41
268.46	84.99
268.676	66.56
268.892	17.41
269.108	23.55
269.324	19.46
269.54	19.46
269.756	15.36
269.972	35.84
270.188	109.57
270.403	-17.41
270.619	62.46
270.835	-15.36
271.051	82.94
271.267	-7.17
271.483	-19.46
271.698	78.85
271.914	54.27
272.13	39.94
272.346	35.84
272.562	27.65
272.777	70.65
272.993	7.17
273.209	13.31
273.425	-35.84
273.64	50.18
273.856	-31.74
274.072	41.98
274.287	-35.84
274.503	1.02
274.719	29.7
274.934	93.18
275.15	-19.46
275.366	54.27
275.581	-27.65
275.797	-9.22
276.012	46.08
276.228	29.7
276.444	-3.07
276.659	27.65
276.875	13.31
277.09	91.13
277.306	-29.7
277.521	91.13
277.737	29.7
277.952	3.07
278.168	25.6
278.383	103.42
278.599	56.32
278.814	66.56
279.03	58.37
279.245	93.18
279.461	37.89
279.676	76.8
279.892	41.98
280.107	37.89
280.322	1.02
280.538	-3.07
280.753	-25.6
280.969	87.04
281.184	39.94
281.399	78.85
281.615	54.27
281.83	3.07
282.045	52.22
282.26	50.18
282.476	48.13
282.691	50.18
282.906	15.36
283.122	52.22
283.337	66.56
283.552	107.52
283.767	29.7
283.983	58.37
284.198	95.23
284.413	46.08
284.628	25.6
284.843	-13.31
285.058	101.37
285.274	99.33
285.489	62.46
285.704	103.42
285.919	72.7
286.134	29.7
286.349	44.03
286.564	3.07
286.779	64.51
286.995	58.37
287.21	13.31
287.425	-11.26
287.64	11.26
287.855	50.18
288.07	-5.12
288.285	82.94
288.5	15.36
288.715	125.95
288.93	54.27
289.145	93.18
289.36	23.55
289.575	58.37
289.79	-11.26
290.004	93.18
290.219	60.42
290.434	29.7
290.649	13.31
290.864	19.46
291.079	62.46
291.294	44.03
291.509	82.94
291.724	41.98
291.938	50.18
292.153	56.32
292.368	3.07
292.583	5.12
292.798	33.79
293.012	41.98
293.227	58.37
293.442	76.8
293.657	107.52
293.871	58.37
294.086	56.32
294.301	101.37
294.516	97.28
294.73	25.6
294.945	50.18
295.16	39.94
295.374	91.13
295.589	1.02
295.804	-13.31
296.018	76.8
296.233	44.03
296.447	27.65
296.662	9.22
296.877	107.52
297.091	13.31
297.306	-11.26
297.52	-11.26
297.735	33.79
297.949	1.02
298.164	-5.12
298.378	1.02
298.593	-13.31
298.807	-7.17
299.022	-7.17
299.236	68.61
299.451	11.26
299.665	56.32
299.88	35.84
300.094	33.79
300.309	41.98
300.523	91.13
300.737	3.07
300.952	109.57
301.166	74.75
301.381	46.08
301.595	48.13
301.809	70.65
302.024	-13.31
302.238	87.04
302.452	-5.12
302.667	9.22
302.881	31.74
303.095	60.42
303.309	46.08
303.524	-62.46
303.738	52.22
303.952	21.5
304.166	68.61
304.381	-21.5
304.595	70.65
304.809	-1.02
305.023	109.57
305.237	78.85
305.452	50.18
305.666	21.5
305.88	74.75
306.094	37.89
306.308	-11.26
306.522	99.33
306.736	19.46
306.95	66.56
307.164	84.99
307.379	5.12
307.593	78.85
307.807	119.81
308.021	93.18
308.235	29.7
308.449	39.94
308.663	107.52
308.877	72.7
309.091	-17.41
309.305	91.13
309.519	-7.17
309.733	105.47
309.947	-39.94
310.161	25.6
310.374	1.02
310.588	19.46
310.802	58.37
311.016	66.56
311.23	87.04
311.444	-5.12
311.658	23.55
311.872	84.99
312.085	29.7
312.299	91.13
312.513	-11.26
312.727	58.37
312.941	-1.02
313.154	140.29
313.368	9.22
313.582	21.5
313.796	48.13
314.009	54.27
314.223	17.41
314.437	-21.5
314.651	-23.55
314.864	5.12
315.078	-13.31
315.292	52.22
315.505	-27.65
315.719	46.08
315.933	-5.12
316.146	91.13
316.36	46.08
316.573	60.42
316.787	52.22
317.001	19.46
317.214	84.99
317.428	-3.07
317.641	3.07
317.855	31.74
318.068	60.42
318.282	74.75
318.495	140.29
318.709	68.61
318.922	91.13
319.136	62.46
319.349	19.46
319.563	93.18
319.776	58.37
319.99	-15.36
320.203	62.46
320.417	1.02
320.63	58.37
320.843	50.18
321.057	3.07
321.27	27.65
321.483	58.37
321.697	74.75
321.91	41.98
322.124	-21.5
322.337	76.8
322.55	-21.5
322.763	-25.6
322.977	84.99
323.19	95.23
323.403	95.23
323.617	-37.89
323.83	31.74
324.043	23.55
324.256	91.13
324.469	25.6
324.683	64.51
324.896	17.41
325.109	99.33
325.322	62.46
325.535	-19.46
325.748	52.22
325.962	-11.26
326.175	15.36
326.388	66.56
326.601	54.27
326.814	74.75
327.027	31.74
327.24	46.08
327.453	68.61
327.666	33.79
327.879	60.42
328.092	70.65
328.305	19.46
328.518	13.31
328.731	17.41
328.944	84.99
329.157	119.81
329.37	99.33
329.583	177.15
329.796	136.19
330.009	-17.41
330.222	99.33
330.435	70.65
330.648	99.33
330.861	-27.65
331.073	-33.79
331.286	84.99
331.499	37.89
331.712	89.09
331.925	-15.36
332.138	33.79
332.35	66.56
332.563	33.79
332.776	17.41
332.989	33.79
333.202	46.08
333.414	89.09
333.627	95.23
333.84	-33.79
334.053	29.7
334.265	41.98
334.478	91.13
334.691	23.55
334.903	44.03
335.116	130.05
335.329	-23.55
335.541	41.98
335.754	101.37
335.966	25.6
336.179	-7.17
336.392	70.65
336.604	25.6
336.817	74.75
337.029	44.03
337.242	13.31
337.454	37.89
337.667	3.07
337.88	41.98
338.092	132.09
338.305	11.26
338.517	-23.55
338.729	9.22
338.942	41.98
339.154	-15.36
339.367	5.12
339.579	41.98
339.792	-25.6
340.004	-7.17
340.217	3.07
340.429	-62.46
340.641	62.46
340.854	-21.5
341.066	46.08
341.278	60.42
341.491	-46.08
341.703	76.8
341.915	76.8
342.128	107.52
342.34	93.18
342.552	48.13
342.764	9.22
342.977	93.18
343.189	39.94
343.401	99.33
343.613	33.79
343.826	-3.07
344.038	13.31
344.25	66.56
344.462	41.98
344.674	91.13
344.886	25.6
345.099	-15.36
345.311	58.37
345.523	29.7
345.735	52.22
345.947	-19.46
346.159	-5.12
346.371	-1.02
346.583	17.41
346.795	97.28
347.007	-35.84
347.219	54.27
347.431	27.65
347.643	89.09
347.855	44.03
348.067	74.75
348.279	19.46
348.491	48.13
348.703	27.65
348.915	78.85
349.127	44.03
349.339	150.53
349.551	33.79
349.763	117.76
349.975	27.65
350.187	64.51
350.399	76.8
350.61	46.08
350.822	-13.31
351.034	15.36
351.246	21.5
351.458	56.32
351.669	35.84
351.881	99.33
352.093	31.74
352.305	132.09
352.517	76.8
352.728	78.85
352.94	21.5
353.152	74.75
353.363	3.07
353.575	132.09
353.787	74.75
353.999	-13.31
354.21	91.13
354.422	41.98
354.633	3.07
354.845	121.85
355.057	119.81
355.268	33.79
355.48	111.61
355.692	37.89
355.903	35.84
356.115	128
356.326	3.07
356.538	25.6
356.749	35.84
356.961	82.94
357.172	-29.7
357.384	91.13
357.595	78.85
357.807	17.41
358.018	76.8
358.23	21.5
358.441	58.37
358.653	33.79
358.864	41.98
359.075	60.42
359.287	52.22
359.498	56.32
359.709	39.94
359.921	25.6
360.132	89.09
360.344	37.89
360.555	50.18
360.766	44.03
360.977	23.55
361.189	76.8
361.4	58.37
361.611	48.13
361.823	46.08
362.034	27.65
362.245	-41.98
362.456	89.09
362.667	41.98
362.879	1.02
363.09	80.89
363.301	31.74
363.512	89.09
363.723	76.8
363.935	68.61
364.146	105.47
364.357	68.61
364.568	66.56
364.779	-13.31
364.99	-5.12
365.201	111.61
365.412	66.56
365.623	66.56
365.834	52.22
366.045	62.46
366.256	91.13
366.467	52.22
366.678	89.09
366.889	21.5
367.1	33.79
367.311	17.41
367.522	41.98
367.733	37.89
367.944	68.61
368.155	9.22
368.366	78.85
368.577	87.04
368.788	78.85
368.999	33.79
369.209	54.27
369.42	99.33
369.631	128
369.842	9.22
370.053	52.22
370.264	105.47
370.474	84.99
370.685	93.18
370.896	82.94
371.107	46.08
371.317	25.6
371.528	33.79
371.739	68.61
371.95	93.18
372.16	62.46
372.371	-21.5
372.582	3.07
372.792	99.33
373.003	66.56
373.214	29.7
373.424	74.75
373.635	-11.26
373.846	103.42
374.056	70.65
374.267	58.37
374.477	146.43
374.688	1.02
374.898	68.61
375.109	-19.46
375.319	44.03
375.53	82.94
375.74	132.09
375.951	44.03
376.161	113.66
376.372	29.7
376.582	66.56
376.793	113.66
377.003	60.42
377.214	72.7
377.424	-35.84
377.635	58.37
377.845	-27.65
378.055	74.75
378.266	15.36
378.476	64.51
378.686	64.51
378.897	46.08
379.107	9.22
379.317	56.32
379.528	-23.55
379.738	123.9
379.948	56.32
380.158	82.94
380.369	68.61
380.579	68.61
380.789	41.98
380.999	93.18
381.21	99.33
381.42	84.99
381.63	-3.07
381.84	93.18
382.05	37.89
382.261	-1.02
382.471	37.89
382.681	-15.36
382.891	48.13
383.101	99.33
383.311	97.28
383.521	35.84
383.731	115.71
383.941	13.31
384.151	66.56
384.361	115.71
384.571	44.03
384.781	25.6
384.991	148.48
385.201	152.57
385.411	99.33
385.621	41.98
385.831	21.5
386.041	58.37
386.251	41.98
386.461	82.94
386.671	95.23
386.881	70.65
387.091	17.41
387.301	134.14
387.511	50.18
387.72	99.33
387.93	95.23
388.14	17.41
388.35	62.46
388.56	132.09
388.769	99.33
388.979	58.37
389.189	-7.17
389.399	144.38
389.609	44.03
389.818	74.75
390.028	74.75
390.238	44.03
390.447	66.56
390.657	72.7
390.867	1.02
391.076	-33.79
391.286	109.57
391.496	29.7
391.705	140.29
391.915	74.75
392.125	21.5
392.334	62.46
392.544	175.1
392.753	76.8
392.963	70.65
393.172	70.65
393.382	44.03
393.591	152.57
393.801	99.33
394.01	166.91
394.22	103.42
394.429	144.38
394.639	91.13
394.848	64.51
395.058	99.33
395.267	74.75
395.477	117.76
395.686	103.42
395.895	128
396.105	136.19
396.314	105.47
396.524	54.27
396.733	48.13
396.942	179.2
397.152	74.75
397.361	31.74
397.57	117.76
397.78	78.85
397.989	115.71
398.198	195.58
398.407	46.08
398.617	19.46
398.826	31.74
399.035	101.37
399.244	107.52
399.453	80.89
399.663	84.99
399.872	115.71
400.081	80.89
400.29	119.81
400.499	35.84
400.708	76.8
400.917	160.77
401.127	58.37
401.336	21.5
401.545	183.29
401.754	95.23
401.963	125.95
402.172	177.15
402.381	107.52
402.59	99.33
402.799	119.81
403.008	117.76
403.217	142.33
403.426	138.24
403.635	97.28
403.844	80.89
404.053	105.47
404.262	134.14
404.471	111.61
404.68	168.96
404.888	185.34
405.097	113.66
405.306	101.37
405.515	95.23
405.724	138.24
405.933	185.34
406.142	89.09
406.35	136.19
406.559	164.86
406.768	168.96
406.977	224.25
407.185	187.39
407.394	181.25
407.603	252.92
407.812	195.58
408.02	275.45
408.229	228.35
408.438	164.86
408.646	181.25
408.855	201.72
409.064	205.82
409.272	267.26
409.481	269.31
409.69	224.25
409.898	279.55
410.107	277.5
410.315	242.68
410.524	257.02
410.733	308.22
410.941	246.78
411.15	306.17
411.358	316.41
411.567	371.71
411.775	340.99
411.984	390.14
412.192	480.25
412.401	347.13
412.609	351.23
412.818	439.29
413.026	467.96
413.234	465.91
413.443	472.06
413.651	443.39
413.86	545.78
414.068	572.41
414.276	533.5
414.485	474.1
414.693	603.13
414.901	668.66
415.11	621.56
415.318	551.93
415.526	642.04
415.734	642.04
415.943	644.09
416.151	719.86
416.359	650.23
416.567	787.44
416.776	691.19
416.984	865.27
417.192	834.55
417.4	857.07
417.608	826.36
417.817	922.61
418.025	930.8
418.233	988.14
418.441	1100.78
418.649	990.19
418.857	1020.91
419.065	1086.45
419.273	1139.69
419.481	1170.41
419.689	1254.38
419.897	1315.82
420.105	1328.11
420.313	1258.48
420.521	1457.13
420.729	1278.96
420.937	1420.27
421.145	1571.82
421.353	1477.61
421.561	1682.41
421.769	1725.41
421.977	1729.51
422.185	1807.33
422.393	1864.68
422.601	1956.83
422.809	1897.44
423.017	1973.22
423.224	2005.99
423.432	2087.9
423.64	2106.34
423.848	2317.28
424.056	2157.54
424.263	2294.75
424.471	2286.56
424.679	2522.07
424.887	2520.03
425.094	2651.1
425.302	2667.48
425.51	2804.69
425.718	2937.81
425.925	2776.02
426.133	2958.29
426.341	3107.79
426.548	3247.05
426.756	3249.1
426.964	3316.69
427.171	3574.73
427.379	3591.11
427.586	3687.37
427.794	3800.01
428.001	3941.32
428.209	4010.95
428.417	3976.13
428.624	4328.38
428.832	4271.04
429.039	4344.77
429.247	4424.64
429.454	4754.36
429.662	5092.27
429.869	4916.15
430.076	4965.3
430.284	4850.61
430.491	5155.76
430.699	5452.72
430.906	5508.01
431.114	5596.07
431.321	5657.51
431.528	5893.03
431.736	6124.45
431.943	6445.98
432.15	6382.49
432.358	6273.95
432.565	6710.17
432.772	6790.04
432.979	7023.51
433.187	7029.65
433.394	7238.55
433.601	7826.31
433.808	7590.8
434.016	7664.52
434.223	7947.14
434.43	8323.97
434.637	8121.22
434.844	8674.17
435.052	8987.51
435.259	8872.82
435.466	9010.04
435.673	8911.74
435.88	9534.32
436.087	9964.39
436.294	9859.95
436.501	9847.66
436.708	10013.54
436.915	10191.72
437.122	10875.74
437.329	10670.94
437.537	10990.42
437.743	11187.03
437.95	11043.67
438.157	11592.53
438.364	12145.48
438.571	12184.39
438.778	12260.16
438.985	13339.44
439.192	12616.51
439.399	13093.69
439.606	12925.75
439.813	13556.53
440.02	14398.24
440.227	14322.47
440.433	14132.01
440.64	14383.91
440.847	14478.12
441.054	14770.97
441.261	15754
441.467	15663.89
441.674	15825.68
441.881	16368.39
442.088	16640.77
442.294	16487.17
442.501	16747.26
442.708	17249.02
442.914	17636.08
443.121	18637.54
443.328	18068.2
443.534	19409.62
443.741	18744.03
443.948	18332.39
444.154	19942.1
444.361	19765.97
444.568	19917.52
444.774	19978.96
444.981	20128.46
445.187	20818.63
445.394	21516.98
445.6	21441.21
445.807	23370.4
446.013	22454.95
446.22	22856.36
446.426	23933.59
446.633	23947.92
446.839	24550.03
447.046	23722.65
447.252	24773.25
447.459	24894.08
447.665	25150.08
447.871	26249.84
448.078	27269.73
448.284	26004.08
448.491	26397.29
448.697	27724.38
448.903	27976.28
449.11	28361.3
449.316	27986.52
449.522	28414.54
449.728	29139.52
449.935	29672
450.141	29504.06
450.347	30226.99
450.553	29317.7
450.76	29663.8
450.966	30423.6
451.172	30321.2
451.378	30827.05
451.584	30192.18
451.791	30853.67
451.997	31154.72
452.203	31380
452.409	31361.57
452.615	31636
452.821	30317.11
453.027	30067.25
453.233	31891.99
453.44	30468.66
453.646	30577.2
453.852	30876.2
454.058	31578.65
454.264	30515.76
454.47	31302.18
454.676	30435.89
454.882	31234.6
455.088	28529.23
455.294	29209.15
455.5	29616.7
455.705	29680.19
455.911	28992.07
456.117	28430.93
456.323	27691.61
456.529	26722.92
456.735	27714.14
456.941	26878.57
457.147	26407.53
457.352	25764.47
457.558	25551.48
457.764	25211.52
457.97	25158.27
458.176	24533.64
458.381	24404.62
458.587	23149.21
458.793	23188.13
458.999	21973.68
459.204	23411.35
459.41	23147.17
459.616	21390.01
459.821	21439.16
460.027	21504.7
460.233	20943.55
460.438	19948.24
460.644	20202.19
460.85	19063.52
461.055	18811.62
461.261	18907.87
461.466	17337.08
461.672	16890.62
461.878	17875.7
462.083	16700.16
462.289	16392.97
462.494	16630.53
462.7	15797.01
462.905	15090.46
463.111	15579.92
463.316	15895.31
463.522	15518.48
463.727	15489.81
463.932	15665.94
464.138	15344.41
464.343	15407.89
464.549	14914.33
464.754	15477.52
464.959	15332.12
465.165	15086.36
465.37	14592.8
465.575	14297.89
465.781	14598.95
465.986	14865.18
466.191	14287.65
466.397	13929.26
466.602	13323.06
466.807	13896.49
467.012	13742.89
467.218	13865.77
467.423	13607.73
467.628	13796.14
467.833	14091.05
