Data from USB4F104151__34__13-10-56-723.txt Node

Date: Fri Mar 14 13:10:56 EDT 2025
User: louis
Spectrometer: USB4F10415
Trigger mode: 4
Integration Time (sec): 2.000000E-2
Scans to average: 1
Electric dark correction enabled: true
Nonlinearity correction enabled: false
Boxcar width: 0
XAxis mode: Wavelengths
Number of Pixels in Spectrum: 3648
>>>>>Begin Spectral Data<<<<<
178.204	-124.58
178.424	-124.58
178.644	-124.58
178.864	-114.34
179.084	-110.25
179.304	-9.9
179.524	8.53
179.744	-5.8
179.964	49.49
180.184	47.44
180.404	-85.67
180.624	0.34
180.844	-59.05
181.064	-7.85
181.283	37.2
181.503	-44.71
181.723	69.97
181.943	-89.77
182.163	47.44
182.383	94.55
182.602	0.34
182.822	94.55
183.042	-3.75
183.262	55.64
183.482	26.96
183.701	22.87
183.921	63.83
184.141	16.73
184.361	47.44
184.58	20.82
184.8	14.68
185.02	12.63
185.239	24.92
185.459	61.78
185.679	55.64
185.898	22.87
186.118	47.44
186.338	41.3
186.557	55.64
186.777	-42.67
186.997	-3.75
187.216	4.44
187.436	121.17
187.655	31.06
187.875	-18.09
188.095	49.49
188.314	-34.47
188.534	31.06
188.753	78.16
188.973	49.49
189.192	45.4
189.412	63.83
189.631	22.87
189.851	55.64
190.07	123.22
190.29	-40.62
190.509	-42.67
190.729	29.01
190.948	69.97
191.168	119.12
191.387	18.77
191.607	-22.19
191.826	72.02
192.045	-18.09
192.265	22.87
192.484	10.58
192.704	-28.33
192.923	-32.43
193.142	53.59
193.362	18.77
193.581	20.82
193.8	39.25
194.02	-3.75
194.239	47.44
194.458	-16.04
194.678	39.25
194.897	-3.75
195.116	55.64
195.335	22.87
195.555	53.59
195.774	43.35
195.993	-13.99
196.212	18.77
196.432	94.55
196.651	12.63
196.87	65.88
197.089	47.44
197.308	55.64
197.528	104.79
197.747	86.36
197.966	57.68
198.185	31.06
198.404	-11.95
198.623	78.16
198.842	31.06
199.062	41.3
199.281	53.59
199.5	49.49
199.719	4.44
199.938	63.83
200.157	65.88
200.376	82.26
200.595	-24.23
200.814	35.16
201.033	12.63
201.252	119.12
201.471	86.36
201.69	65.88
201.909	-5.8
202.128	26.96
202.347	55.64
202.566	4.44
202.785	24.92
203.004	22.87
203.223	65.88
203.442	43.35
203.661	0.34
203.879	-44.71
204.098	37.2
204.317	29.01
204.536	37.2
204.755	20.82
204.974	49.49
205.193	45.4
205.411	37.2
205.63	88.4
205.849	37.2
206.068	45.4
206.287	63.83
206.505	-26.28
206.724	-22.19
206.943	18.77
207.162	-44.71
207.381	45.4
207.599	61.78
207.818	26.96
208.037	61.78
208.255	39.25
208.474	10.58
208.693	43.35
208.911	-7.85
209.13	90.45
209.349	96.6
209.567	78.16
209.786	82.26
210.005	76.12
210.223	-22.19
210.442	-16.04
210.661	8.53
210.879	14.68
211.098	-50.86
211.316	47.44
211.535	47.44
211.753	24.92
211.972	8.53
212.191	29.01
212.409	37.2
212.628	8.53
212.846	82.26
213.065	80.21
213.283	51.54
213.502	-22.19
213.72	67.92
213.938	57.68
214.157	61.78
214.375	41.3
214.594	4.44
214.812	76.12
215.031	26.96
215.249	14.68
215.467	26.96
215.686	-9.9
215.904	51.54
216.122	43.35
216.341	51.54
216.559	41.3
216.778	39.25
216.996	80.21
217.214	22.87
217.432	112.98
217.651	76.12
217.869	41.3
218.087	63.83
218.306	57.68
218.524	45.4
218.742	-9.9
218.96	35.16
219.179	2.39
219.397	55.64
219.615	86.36
219.833	59.73
220.051	51.54
220.27	115.03
220.488	74.07
220.706	47.44
220.924	57.68
221.142	-11.95
221.36	-44.71
221.578	67.92
221.796	55.64
222.015	24.92
222.233	24.92
222.451	80.21
222.669	-36.52
222.887	84.31
223.105	4.44
223.323	31.06
223.541	20.82
223.759	63.83
223.977	80.21
224.195	-44.71
224.413	39.25
224.631	-7.85
224.849	12.63
225.067	137.56
225.285	26.96
225.503	4.44
225.721	-93.87
225.939	20.82
226.157	-13.99
226.375	4.44
226.592	-20.14
226.81	39.25
227.028	63.83
227.246	63.83
227.464	-28.33
227.682	29.01
227.9	57.68
228.117	47.44
228.335	37.2
228.553	33.11
228.771	119.12
228.989	31.06
229.206	10.58
229.424	110.93
229.642	12.63
229.86	-32.43
230.077	-22.19
230.295	92.5
230.513	69.97
230.731	37.2
230.948	39.25
231.166	43.35
231.384	-26.28
231.601	-9.9
231.819	18.77
232.037	4.44
232.254	6.49
232.472	-9.9
232.689	-11.95
232.907	-22.19
233.125	-20.14
233.342	-48.81
233.56	55.64
233.777	4.44
233.995	4.44
234.213	74.07
234.43	4.44
234.648	8.53
234.865	2.39
235.083	12.63
235.3	69.97
235.518	14.68
235.735	10.58
235.953	31.06
236.17	45.4
236.388	24.92
236.605	14.68
236.822	88.4
237.04	49.49
237.257	24.92
237.475	72.02
237.692	26.96
237.909	67.92
238.127	-36.52
238.344	0.34
238.562	41.3
238.779	0.34
238.996	49.49
239.214	-5.8
239.431	-20.14
239.648	69.97
239.865	98.64
240.083	51.54
240.3	78.16
240.517	76.12
240.735	-26.28
240.952	94.55
241.169	84.31
241.386	57.68
241.603	-1.71
241.821	-20.14
242.038	24.92
242.255	102.74
242.472	14.68
242.689	53.59
242.907	92.5
243.124	33.11
243.341	26.96
243.558	-22.19
243.775	16.73
243.992	-32.43
244.209	0.34
244.426	86.36
244.643	29.01
244.86	10.58
245.078	45.4
245.295	47.44
245.512	-40.62
245.729	41.3
245.946	-5.8
246.163	43.35
246.38	57.68
246.597	35.16
246.814	67.92
247.031	-11.95
247.248	22.87
247.464	-20.14
247.681	31.06
247.898	37.2
248.115	-3.75
248.332	-44.71
248.549	117.08
248.766	-11.95
248.983	37.2
249.2	24.92
249.417	24.92
249.633	26.96
249.85	16.73
250.067	67.92
250.284	55.64
250.501	69.97
250.717	45.4
250.934	33.11
251.151	-11.95
251.368	49.49
251.585	92.5
251.801	69.97
252.018	-52.91
252.235	31.06
252.451	59.73
252.668	-28.33
252.885	20.82
253.102	53.59
253.318	20.82
253.535	24.92
253.752	61.78
253.968	24.92
254.185	-34.47
254.401	67.92
254.618	-71.34
254.835	63.83
255.051	55.64
255.268	57.68
255.484	63.83
255.701	4.44
255.917	100.69
256.134	65.88
256.351	80.21
256.567	-3.75
256.784	57.68
257	31.06
257.217	63.83
257.433	-7.85
257.65	-42.67
257.866	29.01
258.082	41.3
258.299	37.2
258.515	69.97
258.732	18.77
258.948	-26.28
259.165	10.58
259.381	24.92
259.597	4.44
259.814	6.49
260.03	61.78
260.246	45.4
260.463	37.2
260.679	78.16
260.895	6.49
261.112	14.68
261.328	-32.43
261.544	37.2
261.761	86.36
261.977	18.77
262.193	14.68
262.409	61.78
262.626	96.6
262.842	94.55
263.058	12.63
263.274	63.83
263.49	78.16
263.707	65.88
263.923	53.59
264.139	0.34
264.355	10.58
264.571	47.44
264.787	84.31
265.004	78.16
265.22	-40.62
265.436	-26.28
265.652	35.16
265.868	55.64
266.084	14.68
266.3	82.26
266.516	-54.95
266.732	-40.62
266.948	-1.71
267.164	33.11
267.38	-3.75
267.596	-1.71
267.812	57.68
268.028	39.25
268.244	63.83
268.46	45.4
268.676	22.87
268.892	-36.52
269.108	29.01
269.324	4.44
269.54	61.78
269.756	55.64
269.972	29.01
270.188	12.63
270.403	6.49
270.619	31.06
270.835	29.01
271.051	16.73
271.267	74.07
271.483	41.3
271.698	4.44
271.914	69.97
272.13	12.63
272.346	65.88
272.562	4.44
272.777	31.06
272.993	53.59
273.209	37.2
273.425	39.25
273.64	67.92
273.856	37.2
274.072	-67.24
274.287	22.87
274.503	20.82
274.719	-28.33
274.934	86.36
275.15	18.77
275.366	67.92
275.581	86.36
275.797	-28.33
276.012	2.39
276.228	26.96
276.444	76.12
276.659	78.16
276.875	26.96
277.09	43.35
277.306	72.02
277.521	80.21
277.737	76.12
277.952	-22.19
278.168	78.16
278.383	112.98
278.599	16.73
278.814	86.36
279.03	-36.52
279.245	39.25
279.461	69.97
279.676	20.82
279.892	57.68
280.107	22.87
280.322	6.49
280.538	82.26
280.753	26.96
280.969	12.63
281.184	-28.33
281.399	86.36
281.615	20.82
281.83	39.25
282.045	-40.62
282.26	94.55
282.476	-11.95
282.691	88.4
282.906	-44.71
283.122	63.83
283.337	39.25
283.552	-3.75
283.767	45.4
283.983	12.63
284.198	-18.09
284.413	86.36
284.628	39.25
284.843	20.82
285.058	39.25
285.274	37.2
285.489	14.68
285.704	80.21
285.919	47.44
286.134	37.2
286.349	65.88
286.564	35.16
286.779	26.96
286.995	12.63
287.21	20.82
287.425	119.12
287.64	61.78
287.855	14.68
288.07	29.01
288.285	18.77
288.5	14.68
288.715	-11.95
288.93	-22.19
289.145	22.87
289.36	-34.47
289.575	-26.28
289.79	22.87
290.004	61.78
290.219	94.55
290.434	-11.95
290.649	-48.81
290.864	12.63
291.079	18.77
291.294	61.78
291.509	-7.85
291.724	20.82
291.938	12.63
292.153	22.87
292.368	6.49
292.583	20.82
292.798	82.26
293.012	86.36
293.227	-40.62
293.442	8.53
293.657	-81.58
293.871	18.77
294.086	41.3
294.301	51.54
294.516	26.96
294.73	18.77
294.945	2.39
295.16	-22.19
295.374	24.92
295.589	59.73
295.804	69.97
296.018	51.54
296.233	33.11
296.447	24.92
296.662	22.87
296.877	51.54
297.091	149.84
297.306	-16.04
297.52	-26.28
297.735	45.4
297.949	61.78
298.164	57.68
298.378	39.25
298.593	-44.71
298.807	10.58
299.022	63.83
299.236	-13.99
299.451	31.06
299.665	-1.71
299.88	110.93
300.094	69.97
300.309	69.97
300.523	-36.52
300.737	45.4
300.952	-7.85
301.166	145.75
301.381	22.87
301.595	-20.14
301.809	-22.19
302.024	65.88
302.238	-59.05
302.452	67.92
302.667	33.11
302.881	55.64
303.095	-11.95
303.309	4.44
303.524	-3.75
303.738	-1.71
303.952	24.92
304.166	72.02
304.381	-32.43
304.595	135.51
304.809	69.97
305.023	127.32
305.237	14.68
305.452	59.73
305.666	80.21
305.88	110.93
306.094	90.45
306.308	110.93
306.522	41.3
306.736	112.98
306.95	82.26
307.164	74.07
307.379	-24.23
307.593	43.35
307.807	45.4
308.021	69.97
308.235	41.3
308.449	-18.09
308.663	88.4
308.877	108.88
309.091	20.82
309.305	72.02
309.519	-44.71
309.733	4.44
309.947	6.49
310.161	-11.95
310.374	2.39
310.588	53.59
310.802	-69.29
311.016	41.3
311.23	-40.62
311.444	39.25
311.658	59.73
311.872	-9.9
312.085	102.74
312.299	92.5
312.513	14.68
312.727	33.11
312.941	24.92
313.154	53.59
313.368	10.58
313.582	51.54
313.796	37.2
314.009	20.82
314.223	92.5
314.437	61.78
314.651	88.4
314.864	65.88
315.078	-34.47
315.292	29.01
315.505	22.87
315.719	-3.75
315.933	37.2
316.146	72.02
316.36	14.68
316.573	33.11
316.787	61.78
317.001	51.54
317.214	6.49
317.428	6.49
317.641	61.78
317.855	45.4
318.068	-11.95
318.282	14.68
318.495	69.97
318.709	69.97
318.922	-22.19
319.136	35.16
319.349	37.2
319.563	49.49
319.776	0.34
319.99	-22.19
320.203	80.21
320.417	0.34
320.63	59.73
320.843	168.27
321.057	0.34
321.27	8.53
321.483	47.44
321.697	47.44
321.91	12.63
322.124	12.63
322.337	0.34
322.55	-11.95
322.763	29.01
322.977	37.2
323.19	65.88
323.403	49.49
323.617	63.83
323.83	37.2
324.043	55.64
324.256	127.32
324.469	8.53
324.683	96.6
324.896	74.07
325.109	55.64
325.322	78.16
325.535	127.32
325.748	76.12
325.962	33.11
326.175	78.16
326.388	82.26
326.601	18.77
326.814	-1.71
327.027	-1.71
327.24	29.01
327.453	6.49
327.666	39.25
327.879	100.69
328.092	-34.47
328.305	-11.95
328.518	88.4
328.731	-48.81
328.944	47.44
329.157	59.73
329.37	-5.8
329.583	49.49
329.796	33.11
330.009	16.73
330.222	143.7
330.435	35.16
330.648	2.39
330.861	53.59
331.073	119.12
331.286	57.68
331.499	53.59
331.712	8.53
331.925	33.11
332.138	59.73
332.35	72.02
332.563	6.49
332.776	41.3
332.989	14.68
333.202	102.74
333.414	80.21
333.627	51.54
333.84	-11.95
334.053	63.83
334.265	4.44
334.478	24.92
334.691	59.73
334.903	57.68
335.116	65.88
335.329	16.73
335.541	78.16
335.754	49.49
335.966	39.25
336.179	69.97
336.392	45.4
336.604	2.39
336.817	4.44
337.029	31.06
337.242	-11.95
337.454	-7.85
337.667	55.64
337.88	82.26
338.092	53.59
338.305	2.39
338.517	-34.47
338.729	37.2
338.942	22.87
339.154	125.27
339.367	41.3
339.579	-5.8
339.792	47.44
340.004	-11.95
340.217	57.68
340.429	80.21
340.641	31.06
340.854	20.82
341.066	61.78
341.278	84.31
341.491	-42.67
341.703	-3.75
341.915	-46.76
342.128	43.35
342.34	-61.1
342.552	-18.09
342.764	102.74
342.977	59.73
343.189	49.49
343.401	74.07
343.613	-52.91
343.826	16.73
344.038	26.96
344.25	-11.95
344.462	-9.9
344.674	6.49
344.886	18.77
345.099	12.63
345.311	35.16
345.523	61.78
345.735	4.44
345.947	-22.19
346.159	104.79
346.371	33.11
346.583	51.54
346.795	98.64
347.007	69.97
347.219	78.16
347.431	37.2
347.643	37.2
347.855	-34.47
348.067	16.73
348.279	20.82
348.491	20.82
348.703	96.6
348.915	67.92
349.127	26.96
349.339	-28.33
349.551	47.44
349.763	137.56
349.975	65.88
350.187	80.21
350.399	41.3
350.61	43.35
350.822	92.5
351.034	72.02
351.246	-26.28
351.458	57.68
351.669	0.34
351.881	92.5
352.093	84.31
352.305	131.41
352.517	84.31
352.728	39.25
352.94	69.97
353.152	110.93
353.363	35.16
353.575	90.45
353.787	37.2
353.999	86.36
354.21	14.68
354.422	-3.75
354.633	29.01
354.845	92.5
355.057	-7.85
355.268	47.44
355.48	86.36
355.692	86.36
355.903	41.3
356.115	20.82
356.326	49.49
356.538	72.02
356.749	18.77
356.961	104.79
357.172	112.98
357.384	-26.28
357.595	51.54
357.807	84.31
358.018	29.01
358.23	31.06
358.441	143.7
358.653	53.59
358.864	47.44
359.075	82.26
359.287	14.68
359.498	69.97
359.709	53.59
359.921	45.4
360.132	110.93
360.344	29.01
360.555	-18.09
360.766	96.6
360.977	61.78
361.189	59.73
361.4	31.06
361.611	43.35
361.823	147.8
362.034	55.64
362.245	24.92
362.456	88.4
362.667	45.4
362.879	53.59
363.09	53.59
363.301	76.12
363.512	86.36
363.723	8.53
363.935	57.68
364.146	78.16
364.357	-11.95
364.568	84.31
364.779	65.88
364.99	0.34
365.201	14.68
365.412	37.2
365.623	18.77
365.834	72.02
366.045	37.2
366.256	65.88
366.467	-3.75
366.678	76.12
366.889	51.54
367.1	57.68
367.311	61.78
367.522	0.34
367.733	61.78
367.944	45.4
368.155	4.44
368.366	26.96
368.577	16.73
368.788	43.35
368.999	-5.8
369.209	51.54
369.42	86.36
369.631	125.27
369.842	43.35
370.053	0.34
370.264	61.78
370.474	-13.99
370.685	82.26
370.896	90.45
371.107	80.21
371.317	94.55
371.528	94.55
371.739	49.49
371.95	112.98
372.16	100.69
372.371	37.2
372.582	92.5
372.792	18.77
373.003	74.07
373.214	12.63
373.424	35.16
373.635	45.4
373.846	39.25
374.056	74.07
374.267	117.08
374.477	78.16
374.688	53.59
374.898	49.49
375.109	49.49
375.319	-22.19
375.53	69.97
375.74	55.64
375.951	53.59
376.161	4.44
376.372	59.73
376.582	12.63
376.793	45.4
377.003	33.11
377.214	78.16
377.424	6.49
377.635	-9.9
377.845	43.35
378.055	192.85
378.266	-22.19
378.476	74.07
378.686	-16.04
378.897	33.11
379.107	102.74
379.317	76.12
379.528	35.16
379.738	98.64
379.948	31.06
380.158	92.5
380.369	51.54
380.579	102.74
380.789	-1.71
380.999	55.64
381.21	112.98
381.42	24.92
381.63	26.96
381.84	29.01
382.05	22.87
382.261	69.97
382.471	86.36
382.681	47.44
382.891	119.12
383.101	16.73
383.311	55.64
383.521	-16.04
383.731	-3.75
383.941	18.77
384.151	131.41
384.361	102.74
384.571	80.21
384.781	12.63
384.991	74.07
385.201	90.45
385.411	41.3
385.621	123.22
385.831	59.73
386.041	37.2
386.251	74.07
386.461	22.87
386.671	18.77
386.881	82.26
387.091	-3.75
387.301	37.2
387.511	96.6
387.72	39.25
387.93	24.92
388.14	12.63
388.35	35.16
388.56	102.74
388.769	47.44
388.979	29.01
389.189	67.92
389.399	6.49
389.609	33.11
389.818	29.01
390.028	59.73
390.238	135.51
390.447	49.49
390.657	45.4
390.867	102.74
391.076	106.84
391.286	49.49
391.496	84.31
391.705	39.25
391.915	59.73
392.125	61.78
392.334	0.34
392.544	92.5
392.753	47.44
392.963	31.06
393.172	123.22
393.382	16.73
393.591	129.36
393.801	55.64
394.01	90.45
394.22	123.22
394.429	69.97
394.639	125.27
394.848	-1.71
395.058	76.12
395.267	-13.99
395.477	61.78
395.686	139.6
395.895	139.6
396.105	178.51
396.314	22.87
396.524	16.73
396.733	90.45
396.942	110.93
397.152	57.68
397.361	57.68
397.57	-11.95
397.78	-36.52
397.989	49.49
398.198	110.93
398.407	88.4
398.617	86.36
398.826	137.56
399.035	59.73
399.244	178.51
399.453	82.26
399.663	69.97
399.872	129.36
400.081	76.12
400.29	-5.8
400.499	90.45
400.708	29.01
400.917	98.64
401.127	129.36
401.336	104.79
401.545	100.69
401.754	86.36
401.963	88.4
402.172	164.18
402.381	112.98
402.59	94.55
402.799	94.55
403.008	61.78
403.217	86.36
403.426	129.36
403.635	119.12
403.844	133.46
404.053	57.68
404.262	125.27
404.471	145.75
404.68	102.74
404.888	94.55
405.097	96.6
405.306	110.93
405.515	135.51
405.724	57.68
405.933	104.79
406.142	155.99
406.35	162.13
406.559	139.6
406.768	106.84
406.977	215.38
407.185	174.42
407.394	143.7
407.603	160.08
407.812	143.7
408.02	190.8
408.229	184.66
408.438	196.95
408.646	188.75
408.855	258.39
409.064	201.04
409.272	213.33
409.481	178.51
409.69	299.34
409.898	186.71
410.107	162.13
410.315	244.05
410.524	215.38
410.733	282.96
410.941	225.62
411.15	332.11
411.358	258.39
411.567	350.54
411.775	297.3
411.984	301.39
412.192	317.78
412.401	364.88
412.609	381.26
412.818	360.78
413.026	418.13
413.234	401.74
413.443	371.02
413.651	395.6
413.86	469.33
414.068	479.57
414.276	432.46
414.485	520.53
414.693	422.22
414.901	545.1
415.11	520.53
415.318	502.09
415.526	590.16
415.734	534.86
415.943	563.53
416.151	559.44
416.359	577.87
416.567	602.44
416.776	702.79
416.984	698.7
417.192	735.56
417.4	696.65
417.608	680.27
417.817	731.47
418.025	854.34
418.233	766.28
418.441	842.06
418.649	844.1
418.857	932.17
419.065	938.31
419.273	913.74
419.481	1014.09
419.689	1061.19
419.897	1012.04
420.105	1040.71
420.313	1153.35
420.521	1057.09
420.729	1270.08
420.937	1165.64
421.145	1325.38
421.353	1317.19
421.561	1521.98
421.769	1388.86
421.977	1483.07
422.185	1524.03
422.393	1599.8
422.601	1653.05
422.809	1679.68
423.017	1616.19
423.224	1659.2
423.432	1839.42
423.64	1784.12
423.848	1945.91
424.056	1954.1
424.263	1962.3
424.471	2107.7
424.679	2091.32
424.887	2160.95
425.094	2392.37
425.302	2480.43
425.51	2326.83
425.718	2511.15
425.925	2517.29
426.133	2605.36
426.341	2701.61
426.548	2887.98
426.756	2814.25
426.964	2838.83
427.171	2971.94
427.379	2937.13
427.586	3045.67
427.794	3264.8
428.001	3428.64
428.209	3559.71
428.417	3473.7
428.624	3698.97
428.832	3633.44
429.039	3696.92
429.247	3815.71
429.454	3907.87
429.662	4374.8
429.869	4036.89
430.076	4372.75
430.284	4290.84
430.491	4378.9
430.699	4561.17
430.906	4614.41
431.114	4735.25
431.321	4880.65
431.528	4974.86
431.736	5212.42
431.943	5683.45
432.15	5468.42
432.358	5413.12
432.565	5906.68
432.772	5738.75
432.979	6068.47
433.187	6254.84
433.394	6269.17
433.601	6521.07
433.808	6467.83
434.016	6684.91
434.223	6961.39
434.43	7170.28
434.637	7299.3
434.844	7467.24
435.052	7719.14
435.259	7659.74
435.466	7737.57
435.673	7526.63
435.88	8171.74
436.087	8818.89
436.294	8485.08
436.501	8347.86
436.708	8595.67
436.915	9038.03
437.122	9296.07
437.329	9461.96
437.537	9650.37
437.743	9730.24
437.95	9588.93
438.157	10262.71
438.364	10504.37
438.571	10506.42
438.778	10494.13
438.985	11608.23
439.192	11008.17
439.399	11503.78
439.606	11102.38
439.813	11845.79
440.02	12470.42
440.227	12474.52
440.433	12392.6
440.64	12607.64
440.847	12513.43
441.054	12785.81
441.261	13514.89
441.467	13584.52
441.674	13752.45
441.881	14405.75
442.088	14205.05
442.294	14350.46
442.501	14395.51
442.708	14813.3
442.914	15290.48
443.121	16076.9
443.328	15798.37
443.534	16914.52
443.741	16416.86
443.948	15962.21
444.154	17307.73
444.361	17031.25
444.568	17080.4
444.774	17174.61
444.981	17436.75
445.187	17958.98
445.394	18505.79
445.6	18550.84
445.807	20224.03
446.013	19269.68
446.22	19589.16
446.426	20670.49
446.633	20797.46
446.839	21387.28
447.046	20406.3
447.252	21626.89
447.459	21612.56
447.665	21770.25
447.871	22562.81
448.078	23492.59
448.284	22614.01
448.491	23009.27
448.697	23941.1
448.903	24915.93
449.11	24428.51
449.316	24231.91
449.522	24739.8
449.728	25274.32
449.935	25460.69
450.141	25718.73
450.347	26157
450.553	25270.23
450.76	25952.2
450.966	26482.63
451.172	26654.65
451.378	27000.76
451.584	26402.75
451.791	26800.06
451.997	27258.81
452.203	27735.98
452.409	27434.93
452.615	27465.65
452.821	26607.55
453.027	26224.58
453.233	27643.82
453.44	26511.3
453.646	27221.94
453.852	26972.09
454.058	27334.58
454.264	26656.7
454.47	27125.69
454.676	26521.54
454.882	27717.55
455.088	25178.07
455.294	25694.16
455.5	25765.84
455.705	26222.53
455.911	25210.84
456.117	24655.84
456.323	24524.77
456.529	22994.93
456.735	24236
456.941	23541.74
457.147	22829.05
457.352	22401.02
457.558	22335.49
457.764	22261.76
457.97	22016.01
458.176	21119
458.381	21573.64
458.587	20375.58
458.793	20480.03
458.999	19068.98
459.204	20801.56
459.41	20187.17
459.616	18939.96
459.821	18745.4
460.027	18853.94
460.233	18407.48
460.438	17350.73
460.644	17807.43
460.85	16853.08
461.055	16592.98
461.261	16455.77
461.466	15366.25
461.672	14741.62
461.878	16033.89
462.083	14950.51
462.289	14678.13
462.494	14348.41
462.7	13844.61
462.905	13602.95
463.111	13766.79
463.316	14033.02
463.522	13813.89
463.727	13815.94
463.932	13680.77
464.138	13533.32
464.343	13623.43
464.549	13148.3
464.754	13449.35
464.959	13492.36
465.165	13504.65
465.37	12880.02
465.575	12343.45
465.781	12882.06
465.986	13181.07
466.191	12642.45
466.397	12126.36
466.602	11829.41
466.807	12294.3
467.012	12165.28
467.218	12116.12
467.423	12034.21
467.628	12091.55
467.833	12564.63
468.038	12046.49
468.244	11989.15
