Data from USB4F104151__95__13-14-05-442.txt Node

Date: Fri Mar 14 13:14:05 EDT 2025
User: louis
Spectrometer: USB4F10415
Trigger mode: 4
Integration Time (sec): 2.000000E-2
Scans to average: 1
Electric dark correction enabled: true
Nonlinearity correction enabled: false
Boxcar width: 0
XAxis mode: Wavelengths
Number of Pixels in Spectrum: 3648
>>>>>Begin Spectral Data<<<<<
178.204	-105.98
178.424	-105.98
178.644	-105.98
178.864	-116.22
179.084	-101.89
179.304	-15.87
179.524	41.47
179.744	16.9
179.964	111.1
180.184	-15.87
180.404	-42.5
180.624	-22.02
180.844	-40.45
181.064	-3.58
181.283	-9.73
181.503	-112.13
181.723	92.67
181.943	8.7
182.163	90.62
182.383	27.14
182.602	39.42
182.822	14.85
183.042	102.91
183.262	8.7
183.482	-13.82
183.701	-38.4
183.921	10.75
184.141	-69.12
184.361	2.56
184.58	4.61
184.8	0.51
185.02	-38.4
185.239	45.57
185.459	53.76
185.679	-13.82
185.898	-67.07
186.118	31.23
186.338	-3.58
186.557	-5.63
186.777	35.33
186.997	-32.26
187.216	16.9
187.436	88.57
187.655	70.14
187.875	94.72
188.095	-5.63
188.314	14.85
188.534	18.94
188.753	-79.36
188.973	-5.63
189.192	31.23
189.412	-17.92
189.631	-11.78
189.851	-62.98
190.07	43.52
190.29	39.42
190.509	-13.82
190.729	-15.87
190.948	123.39
191.168	61.95
191.387	137.73
191.607	39.42
191.826	8.7
192.045	-5.63
192.265	0.51
192.484	8.7
192.704	29.18
192.923	-75.26
193.142	45.57
193.362	82.43
193.581	10.75
193.8	59.9
194.02	66.05
194.239	-17.92
194.458	59.9
194.678	78.33
194.897	-9.73
195.116	49.66
195.335	-5.63
195.555	27.14
195.774	16.9
195.993	-3.58
196.212	27.14
196.432	37.38
196.651	-1.54
196.87	45.57
197.089	74.24
197.308	53.76
197.528	47.62
197.747	2.56
197.966	12.8
198.185	-15.87
198.404	-15.87
198.623	74.24
198.842	41.47
199.062	-1.54
199.281	25.09
199.5	0.51
199.719	-11.78
199.938	39.42
200.157	51.71
200.376	53.76
200.595	4.61
200.814	2.56
201.033	-17.92
201.252	53.76
201.471	0.51
201.69	55.81
201.909	45.57
202.128	27.14
202.347	18.94
202.566	25.09
202.785	96.77
203.004	23.04
203.223	68.09
203.442	82.43
203.661	-7.68
203.879	8.7
204.098	35.33
204.317	14.85
204.536	139.77
204.755	-26.11
204.974	98.81
205.193	41.47
205.411	102.91
205.63	53.76
205.849	57.86
206.068	27.14
206.287	-5.63
206.505	80.38
206.724	33.28
206.943	-17.92
207.162	25.09
207.381	-38.4
207.599	16.9
207.818	4.61
208.037	10.75
208.255	-15.87
208.474	37.38
208.693	20.99
208.911	68.09
209.13	57.86
209.349	-7.68
209.567	18.94
209.786	86.53
210.005	-28.16
210.223	18.94
210.442	33.28
210.661	10.75
210.879	23.04
211.098	-34.3
211.316	18.94
211.535	39.42
211.753	31.23
211.972	35.33
212.191	18.94
212.409	41.47
212.628	25.09
212.846	0.51
213.065	70.14
213.283	51.71
213.502	59.9
213.72	-22.02
213.938	53.76
214.157	51.71
214.375	18.94
214.594	49.66
214.812	31.23
215.031	41.47
215.249	33.28
215.467	-11.78
215.686	16.9
215.904	43.52
216.122	-44.54
216.341	102.91
216.559	-46.59
216.778	16.9
216.996	29.18
217.214	8.7
217.432	-34.3
217.651	-30.21
217.869	39.42
218.087	6.66
218.306	-34.3
218.524	84.48
218.742	-56.83
218.96	57.86
219.179	74.24
219.397	-62.98
219.615	113.15
219.833	41.47
220.051	16.9
220.27	78.33
220.488	55.81
220.706	4.61
220.924	27.14
221.142	41.47
221.36	-7.68
221.578	35.33
221.796	43.52
222.015	45.57
222.233	8.7
222.451	88.57
222.669	35.33
222.887	100.86
223.105	57.86
223.323	33.28
223.541	-3.58
223.759	-24.06
223.977	57.86
224.195	10.75
224.413	18.94
224.631	0.51
224.849	6.66
225.067	51.71
225.285	68.09
225.503	-9.73
225.721	25.09
225.939	57.86
226.157	14.85
226.375	49.66
226.592	12.8
226.81	2.56
227.028	33.28
227.246	166.4
227.464	33.28
227.682	74.24
227.9	41.47
228.117	-13.82
228.335	68.09
228.553	61.95
228.771	111.1
228.989	68.09
229.206	70.14
229.424	74.24
229.642	-83.45
229.86	16.9
230.077	16.9
230.295	6.66
230.513	-1.54
230.731	61.95
230.948	-11.78
231.166	-48.64
231.384	-15.87
231.601	74.24
231.819	-50.69
232.037	-7.68
232.254	29.18
232.472	0.51
232.689	-46.59
232.907	35.33
233.125	23.04
233.342	37.38
233.56	18.94
233.777	43.52
233.995	2.56
234.213	18.94
234.43	12.8
234.648	37.38
234.865	0.51
235.083	4.61
235.3	-32.26
235.518	43.52
235.735	78.33
235.953	-9.73
236.17	-50.69
236.388	-3.58
236.605	41.47
236.822	78.33
237.04	10.75
237.257	33.28
237.475	10.75
237.692	8.7
237.909	31.23
238.127	-15.87
238.344	61.95
238.562	37.38
238.779	-1.54
238.996	-26.11
239.214	66.05
239.431	29.18
239.648	12.8
239.865	-56.83
240.083	25.09
240.3	14.85
240.517	68.09
240.735	70.14
240.952	64
241.169	-11.78
241.386	2.56
241.603	-15.87
241.821	27.14
242.038	37.38
242.255	16.9
242.472	76.29
242.689	10.75
242.907	33.28
243.124	55.81
243.341	33.28
243.558	-11.78
243.775	6.66
243.992	51.71
244.209	-22.02
244.426	41.47
244.643	43.52
244.86	-3.58
245.078	64
245.295	70.14
245.512	-19.97
245.729	18.94
245.946	10.75
246.163	37.38
246.38	16.9
246.597	53.76
246.814	2.56
247.031	33.28
247.248	16.9
247.464	33.28
247.681	37.38
247.898	16.9
248.115	20.99
248.332	59.9
248.549	68.09
248.766	61.95
248.983	4.61
249.2	51.71
249.417	74.24
249.633	-9.73
249.85	-79.36
250.067	59.9
250.284	90.62
250.501	12.8
250.717	90.62
250.934	41.47
251.151	12.8
251.368	0.51
251.585	100.86
251.801	25.09
252.018	-13.82
252.235	70.14
252.451	23.04
252.668	35.33
252.885	37.38
253.102	49.66
253.318	8.7
253.535	-79.36
253.752	-22.02
253.968	27.14
254.185	27.14
254.401	109.05
254.618	27.14
254.835	12.8
255.051	74.24
255.268	49.66
255.484	-24.06
255.701	-9.73
255.917	47.62
256.134	2.56
256.351	43.52
256.567	72.19
256.784	10.75
257	8.7
257.217	18.94
257.433	23.04
257.65	88.57
257.866	2.56
258.082	51.71
258.299	10.75
258.515	-5.63
258.732	68.09
258.948	18.94
259.165	-56.83
259.381	-30.21
259.597	-17.92
259.814	61.95
260.03	35.33
260.246	-15.87
260.463	57.86
260.679	-32.26
260.895	-17.92
261.112	14.85
261.328	-30.21
261.544	-28.16
261.761	29.18
261.977	-3.58
262.193	53.76
262.409	6.66
262.626	18.94
262.842	68.09
263.058	49.66
263.274	41.47
263.49	72.19
263.707	-32.26
263.923	25.09
264.139	10.75
264.355	6.66
264.571	35.33
264.787	-3.58
265.004	-11.78
265.22	49.66
265.436	-44.54
265.652	-93.69
265.868	78.33
266.084	29.18
266.3	-19.97
266.516	90.62
266.732	-3.58
266.948	-32.26
267.164	33.28
267.38	78.33
267.596	35.33
267.812	43.52
268.028	-15.87
268.244	39.42
268.46	-17.92
268.676	-24.06
268.892	72.19
269.108	-3.58
269.324	-19.97
269.54	33.28
269.756	68.09
269.972	-34.3
270.188	80.38
270.403	84.48
270.619	2.56
270.835	14.85
271.051	23.04
271.267	37.38
271.483	-1.54
271.698	84.48
271.914	-7.68
272.13	98.81
272.346	-38.4
272.562	31.23
272.777	70.14
272.993	31.23
273.209	-89.6
273.425	27.14
273.64	64
273.856	8.7
274.072	2.56
274.287	53.76
274.503	37.38
274.719	61.95
274.934	25.09
275.15	-56.83
275.366	25.09
275.581	-65.02
275.797	20.99
276.012	76.29
276.228	2.56
276.444	39.42
276.659	49.66
276.875	0.51
277.09	-13.82
277.306	-19.97
277.521	25.09
277.737	25.09
277.952	76.29
278.168	-1.54
278.383	-26.11
278.599	59.9
278.814	18.94
279.03	49.66
279.245	37.38
279.461	45.57
279.676	68.09
279.892	2.56
280.107	-24.06
280.322	47.62
280.538	29.18
280.753	-32.26
280.969	27.14
281.184	-52.74
281.399	78.33
281.615	18.94
281.83	61.95
282.045	2.56
282.26	-7.68
282.476	29.18
282.691	53.76
282.906	2.56
283.122	61.95
283.337	-32.26
283.552	-3.58
283.767	39.42
283.983	25.09
284.198	-15.87
284.413	8.7
284.628	-28.16
284.843	115.2
285.058	51.71
285.274	59.9
285.489	18.94
285.704	96.77
285.919	27.14
286.134	57.86
286.349	16.9
286.564	43.52
286.779	-24.06
286.995	-24.06
287.21	10.75
287.425	2.56
287.64	-22.02
287.855	25.09
288.07	-83.45
288.285	-34.3
288.5	-73.21
288.715	-32.26
288.93	78.33
289.145	35.33
289.36	55.81
289.575	-46.59
289.79	10.75
290.004	2.56
290.219	70.14
290.434	12.8
290.649	18.94
290.864	29.18
291.079	12.8
291.294	-34.3
291.509	23.04
291.724	8.7
291.938	-24.06
292.153	27.14
292.368	25.09
292.583	61.95
292.798	14.85
293.012	14.85
293.227	33.28
293.442	10.75
293.657	51.71
293.871	33.28
294.086	-15.87
294.301	90.62
294.516	6.66
294.73	82.43
294.945	25.09
295.16	-44.54
295.374	68.09
295.589	57.86
295.804	16.9
296.018	-24.06
296.233	53.76
296.447	18.94
296.662	20.99
296.877	76.29
297.091	57.86
297.306	31.23
297.52	20.99
297.735	35.33
297.949	-24.06
298.164	70.14
298.378	-7.68
298.593	29.18
298.807	4.61
299.022	0.51
299.236	59.9
299.451	-36.35
299.665	29.18
299.88	41.47
300.094	59.9
300.309	2.56
300.523	74.24
300.737	107.01
300.952	6.66
301.166	96.77
301.381	53.76
301.595	31.23
301.809	-46.59
302.024	41.47
302.238	-40.45
302.452	16.9
302.667	8.7
302.881	72.19
303.095	64
303.309	27.14
303.524	-3.58
303.738	37.38
303.952	35.33
304.166	47.62
304.381	57.86
304.595	53.76
304.809	31.23
305.023	43.52
305.237	12.8
305.452	27.14
305.666	78.33
305.88	8.7
306.094	-5.63
306.308	70.14
306.522	96.77
306.736	43.52
306.95	51.71
307.164	-22.02
307.379	-9.73
307.593	33.28
307.807	49.66
308.021	25.09
308.235	57.86
308.449	-36.35
308.663	25.09
308.877	57.86
309.091	53.76
309.305	70.14
309.519	-7.68
309.733	2.56
309.947	39.42
310.161	84.48
310.374	-34.3
310.588	45.57
310.802	-17.92
311.016	-58.88
311.23	57.86
311.444	8.7
311.658	8.7
311.872	20.99
312.085	49.66
312.299	45.57
312.513	59.9
312.727	37.38
312.941	8.7
313.154	78.33
313.368	49.66
313.582	-9.73
313.796	57.86
314.009	18.94
314.223	-26.11
314.437	0.51
314.651	33.28
314.864	-22.02
315.078	29.18
315.292	35.33
315.505	-15.87
315.719	39.42
315.933	45.57
316.146	-36.35
316.36	39.42
316.573	74.24
316.787	33.28
317.001	53.76
317.214	35.33
317.428	25.09
317.641	-11.78
317.855	20.99
318.068	33.28
318.282	23.04
318.495	4.61
318.709	-36.35
318.922	-9.73
319.136	82.43
319.349	14.85
319.563	-24.06
319.776	74.24
319.99	29.18
320.203	55.81
320.417	10.75
320.63	-11.78
320.843	61.95
321.057	84.48
321.27	-3.58
321.483	2.56
321.697	98.81
321.91	47.62
322.124	8.7
322.337	14.85
322.55	8.7
322.763	51.71
322.977	51.71
323.19	59.9
323.403	-19.97
323.617	-7.68
323.83	49.66
324.043	-19.97
324.256	35.33
324.469	-17.92
324.683	-3.58
324.896	-9.73
325.109	70.14
325.322	-7.68
325.535	12.8
325.748	-7.68
325.962	29.18
326.175	-3.58
326.388	18.94
326.601	86.53
326.814	33.28
327.027	2.56
327.24	4.61
327.453	59.9
327.666	43.52
327.879	35.33
328.092	51.71
328.305	-19.97
328.518	-3.58
328.731	25.09
328.944	117.25
329.157	35.33
329.37	90.62
329.583	-40.45
329.796	-24.06
330.009	8.7
330.222	-5.63
330.435	35.33
330.648	45.57
330.861	8.7
331.073	64
331.286	27.14
331.499	10.75
331.712	31.23
331.925	-7.68
332.138	12.8
332.35	57.86
332.563	33.28
332.776	82.43
332.989	68.09
333.202	84.48
333.414	53.76
333.627	57.86
333.84	70.14
334.053	80.38
334.265	-17.92
334.478	-15.87
334.691	8.7
334.903	88.57
335.116	-36.35
335.329	39.42
335.541	66.05
335.754	-40.45
335.966	68.09
336.179	53.76
336.392	-5.63
336.604	35.33
336.817	18.94
337.029	51.71
337.242	70.14
337.454	74.24
337.667	33.28
337.88	4.61
338.092	-1.54
338.305	25.09
338.517	59.9
338.729	107.01
338.942	2.56
339.154	20.99
339.367	-67.07
339.579	12.8
339.792	4.61
340.004	70.14
340.217	25.09
340.429	41.47
340.641	-5.63
340.854	0.51
341.066	-13.82
341.278	53.76
341.491	90.62
341.703	23.04
341.915	2.56
342.128	29.18
342.34	18.94
342.552	-11.78
342.764	37.38
342.977	27.14
343.189	45.57
343.401	33.28
343.613	16.9
343.826	-11.78
344.038	-11.78
344.25	33.28
344.462	72.19
344.674	29.18
344.886	16.9
345.099	57.86
345.311	31.23
345.523	41.47
345.735	-97.79
345.947	86.53
346.159	-11.78
346.371	51.71
346.583	18.94
346.795	107.01
347.007	14.85
347.219	4.61
347.431	16.9
347.643	45.57
347.855	74.24
348.067	66.05
348.279	10.75
348.491	0.51
348.703	35.33
348.915	47.62
349.127	-17.92
349.339	76.29
349.551	23.04
349.763	49.66
349.975	41.47
350.187	49.66
350.399	25.09
350.61	49.66
350.822	-22.02
351.034	2.56
351.246	-13.82
351.458	57.86
351.669	27.14
351.881	8.7
352.093	64
352.305	74.24
352.517	23.04
352.728	84.48
352.94	35.33
353.152	8.7
353.363	-3.58
353.575	43.52
353.787	2.56
353.999	10.75
354.21	8.7
354.422	86.53
354.633	100.86
354.845	74.24
355.057	107.01
355.268	139.77
355.48	51.71
355.692	23.04
355.903	8.7
356.115	-62.98
356.326	-26.11
356.538	27.14
356.749	8.7
356.961	45.57
357.172	31.23
357.384	10.75
357.595	88.57
357.807	74.24
358.018	49.66
358.23	82.43
358.441	39.42
358.653	16.9
358.864	-28.16
359.075	61.95
359.287	45.57
359.498	78.33
359.709	66.05
359.921	10.75
360.132	-5.63
360.344	86.53
360.555	4.61
360.766	41.47
360.977	-13.82
361.189	74.24
361.4	6.66
361.611	68.09
361.823	96.77
362.034	35.33
362.245	-19.97
362.456	20.99
362.667	57.86
362.879	109.05
363.09	10.75
363.301	55.81
363.512	25.09
363.723	84.48
363.935	29.18
364.146	0.51
364.357	43.52
364.568	68.09
364.779	6.66
364.99	47.62
365.201	-36.35
365.412	37.38
365.623	-5.63
365.834	141.82
366.045	152.06
366.256	88.57
366.467	0.51
366.678	57.86
366.889	109.05
367.1	-15.87
367.311	61.95
367.522	59.9
367.733	8.7
367.944	55.81
368.155	-15.87
368.366	57.86
368.577	18.94
368.788	90.62
368.999	-54.78
369.209	76.29
369.42	45.57
369.631	12.8
369.842	-36.35
370.053	0.51
370.264	86.53
370.474	25.09
370.685	-58.88
370.896	16.9
371.107	47.62
371.317	23.04
371.528	-36.35
371.739	12.8
371.95	29.18
372.16	20.99
372.371	86.53
372.582	4.61
372.792	23.04
373.003	49.66
373.214	55.81
373.424	10.75
373.635	-9.73
373.846	20.99
374.056	14.85
374.267	51.71
374.477	4.61
374.688	-11.78
374.898	-48.64
375.109	33.28
375.319	55.81
375.53	59.9
375.74	82.43
375.951	33.28
376.161	-34.3
376.372	39.42
376.582	-38.4
376.793	131.58
377.003	84.48
377.214	2.56
377.424	10.75
377.635	53.76
377.845	16.9
378.055	102.91
378.266	-26.11
378.476	33.28
378.686	47.62
378.897	47.62
379.107	70.14
379.317	59.9
379.528	4.61
379.738	10.75
379.948	-44.54
380.158	74.24
380.369	27.14
380.579	49.66
380.789	33.28
380.999	-77.31
381.21	14.85
381.42	82.43
381.63	18.94
381.84	107.01
382.05	35.33
382.261	61.95
382.471	12.8
382.681	8.7
382.891	113.15
383.101	25.09
383.311	64
383.521	86.53
383.731	29.18
383.941	53.76
384.151	41.47
384.361	0.51
384.571	-9.73
384.781	43.52
384.991	27.14
385.201	59.9
385.411	53.76
385.621	-11.78
385.831	43.52
386.041	29.18
386.251	64
386.461	27.14
386.671	61.95
386.881	41.47
387.091	84.48
387.301	8.7
387.511	29.18
387.72	88.57
387.93	66.05
388.14	-19.97
388.35	55.81
388.56	90.62
388.769	0.51
388.979	47.62
389.189	18.94
389.399	53.76
389.609	100.86
389.818	104.96
390.028	18.94
390.238	76.29
390.447	41.47
390.657	41.47
390.867	51.71
391.076	25.09
391.286	119.29
391.496	66.05
391.705	35.33
391.915	31.23
392.125	66.05
392.334	43.52
392.544	117.25
392.753	88.57
392.963	25.09
393.172	4.61
393.382	2.56
393.591	127.49
393.801	66.05
394.01	61.95
394.22	45.57
394.429	82.43
394.639	43.52
394.848	49.66
395.058	16.9
395.267	4.61
395.477	27.14
395.686	4.61
395.895	96.77
396.105	78.33
396.314	107.01
396.524	43.52
396.733	-9.73
396.942	-30.21
397.152	78.33
397.361	98.81
397.57	92.67
397.78	61.95
397.989	98.81
398.198	156.16
398.407	-48.64
398.617	6.66
398.826	47.62
399.035	82.43
399.244	74.24
399.453	100.86
399.663	55.81
399.872	47.62
400.081	66.05
400.29	68.09
400.499	70.14
400.708	82.43
400.917	123.39
401.127	18.94
401.336	49.66
401.545	119.29
401.754	141.82
401.963	53.76
402.172	41.47
402.381	43.52
402.59	49.66
402.799	94.72
403.008	123.39
403.217	29.18
403.426	107.01
403.635	-36.35
403.844	41.47
404.053	104.96
404.262	74.24
404.471	139.77
404.68	74.24
404.888	76.29
405.097	160.25
405.306	82.43
405.515	176.64
405.724	147.97
405.933	49.66
406.142	113.15
406.35	117.25
406.559	82.43
406.768	152.06
406.977	143.87
407.185	111.1
407.394	133.63
407.603	82.43
407.812	68.09
408.02	158.21
408.229	166.4
408.438	147.97
408.646	154.11
408.855	109.05
409.064	133.63
409.272	164.35
409.481	199.16
409.69	188.93
409.898	172.54
410.107	135.68
410.315	166.4
410.524	156.16
410.733	231.93
410.941	199.16
411.15	303.61
411.358	262.65
411.567	168.45
411.775	268.8
411.984	248.32
412.192	268.8
412.401	201.21
412.609	289.28
412.818	236.03
413.026	330.23
413.234	281.08
413.443	330.23
413.651	291.32
413.86	283.13
414.068	373.24
414.276	428.54
414.485	334.33
414.693	393.72
414.901	430.59
415.11	377.34
415.318	373.24
415.526	426.49
415.734	393.72
415.943	467.45
416.151	412.15
416.359	516.6
416.567	496.12
416.776	492.02
416.984	467.45
417.192	551.42
417.4	594.42
417.608	561.66
417.817	608.76
418.025	674.29
418.233	733.68
418.441	657.91
418.649	770.55
418.857	688.63
419.065	762.36
419.273	662.01
419.481	705.01
419.689	739.83
419.897	788.98
420.105	778.74
420.313	913.91
420.521	963.06
420.729	942.58
420.937	928.24
421.145	1053.17
421.353	1053.17
421.561	1143.28
421.769	1010.16
421.977	1139.18
422.185	1171.95
422.393	1296.88
422.601	1229.29
422.809	1237.49
423.017	1096.18
423.224	1372.65
423.432	1415.66
423.64	1466.86
423.848	1524.2
424.056	1483.24
424.263	1542.63
424.471	1516.01
424.679	1622.5
424.887	1722.85
425.094	1866.21
425.302	1774.05
425.51	1892.84
425.718	1800.68
425.925	1892.84
426.133	2001.38
426.341	2097.63
426.548	2228.7
426.756	2169.31
426.964	2322.91
427.171	2302.43
427.379	2468.31
427.586	2433.5
427.794	2572.76
428.001	2689.49
428.209	2752.98
428.417	2746.84
428.624	2828.76
428.832	2734.55
429.039	2918.87
429.247	2767.32
429.454	3213.77
429.662	3408.33
429.869	3162.58
430.076	3301.84
430.284	3285.45
430.491	3430.86
430.699	3678.66
430.906	3615.18
431.114	3635.66
431.321	3897.8
431.528	3885.51
431.736	4129.22
431.943	4305.34
432.15	4180.42
432.358	4196.8
432.565	4391.36
432.772	4438.46
432.979	4538.81
433.187	4858.29
433.394	4848.05
433.601	5081.52
433.808	5188.02
434.016	5063.09
434.223	5302.7
434.43	5751.21
434.637	5464.49
434.844	5818.79
435.052	5925.29
435.259	5974.44
435.466	5974.44
435.673	6035.88
435.88	6345.12
436.087	6762.9
436.294	6685.08
436.501	6343.07
436.708	6756.76
436.915	6857.11
437.122	7254.42
437.329	7266.71
437.537	7356.82
437.743	7481.74
437.95	7483.79
438.157	7850.38
438.364	8116.61
438.571	8137.09
438.778	8010.12
438.985	8927.61
439.192	8511.87
439.399	8792.44
439.606	8735.1
439.813	9269.62
440.02	9822.57
440.227	9443.7
440.433	9300.34
440.64	9869.67
440.847	9765.23
441.054	9929.06
441.261	10400.1
441.467	10461.54
441.674	10860.89
441.881	11313.49
442.088	10979.67
442.294	10959.19
442.501	11241.81
442.708	11645.26
442.914	11897.16
443.121	12185.93
443.328	11888.97
443.534	12779.84
443.741	12505.41
443.948	12337.48
444.154	13295.93
444.361	13279.54
444.568	13189.43
444.774	13400.37
444.981	13302.07
445.187	13752.62
445.394	14450.98
445.6	14412.07
445.807	15948.04
446.013	15046.94
446.22	15202.58
446.426	15835.41
446.633	16173.32
446.839	16466.18
447.046	15765.78
447.252	16812.29
447.459	16703.75
447.665	16769.28
447.871	17645.81
448.078	18202.86
448.284	17522.93
448.491	17875.18
448.697	18589.92
448.903	18825.44
449.11	19177.69
449.316	18917.6
449.522	19079.39
449.728	19484.89
449.935	19718.36
450.141	19706.07
450.347	20443.34
450.553	19689.68
450.76	20076.75
450.966	20629.7
451.172	20558.02
451.378	20598.98
451.584	20515.01
451.791	21252.28
451.997	20844.74
452.203	21504.18
452.409	21319.87
452.615	21661.88
452.821	20496.58
453.027	20420.81
453.233	21389.5
453.44	20844.74
453.646	20803.78
453.852	20603.08
454.058	21215.42
454.264	20488.39
454.47	21422.27
454.676	20555.97
454.882	21407.93
455.088	19351.77
455.294	19818.71
455.5	20082.89
455.705	20496.58
455.911	19429.59
456.117	19349.72
456.323	18835.68
456.529	17774.83
456.735	18725.09
456.941	18213.1
457.147	17854.7
457.352	17248.5
457.558	17150.2
457.764	17314.04
457.97	16996.6
458.176	16474.37
458.381	16351.49
458.587	15835.41
458.793	15706.38
458.999	15042.84
459.204	16056.59
459.41	15589.65
459.616	14747.93
459.821	14647.58
460.027	14493.99
460.233	14237.99
460.438	13420.85
460.644	13678.9
460.85	13044.02
461.055	12773.69
461.261	12654.91
461.466	11649.36
461.672	11354.45
461.878	12351.81
462.083	11452.75
462.289	11559.25
462.494	11374.93
462.7	10791.26
462.905	10406.24
463.111	10807.64
463.316	10762.59
463.522	10613.09
463.727	10469.73
463.932	10504.54
464.138	10482.02
464.343	10598.75
464.549	10176.87
464.754	10387.81
464.959	10246.5
465.165	10307.94
465.37	9845.1
465.575	9623.92
465.781	9998.7
465.986	10135.91
466.191	9851.24
466.397	9437.55
466.602	9140.6
466.807	9460.08
467.012	9505.13
467.218	9388.4
467.423	9134.45
467.628	9232.76
467.833	9785.71
468.038	9339.25
468.244	9056.63
468.449	9136.5
468.654	8876.41
468.859	9038.2
469.064	9068.92
469.269	8657.28
