Data from USB4F104151__86__13-13-02-649.txt Node

Date: Fri Mar 14 13:13:02 EDT 2025
User: louis
Spectrometer: USB4F10415
Trigger mode: 4
Integration Time (sec): 2.000000E-2
Scans to average: 1
Electric dark correction enabled: true
Nonlinearity correction enabled: false
Boxcar width: 0
XAxis mode: Wavelengths
Number of Pixels in Spectrum: 3648
>>>>>Begin Spectral Data<<<<<
178.204	-74.41
178.424	-74.41
178.644	-74.41
178.864	-82.6
179.084	-49.83
179.304	77.14
179.524	-33.45
179.744	21.85
179.964	54.61
180.184	-103.08
180.404	-72.36
180.624	50.52
180.844	32.08
181.064	-80.55
181.283	17.75
181.503	-6.83
181.723	42.32
181.943	1.37
182.163	11.61
182.383	7.51
182.602	-25.26
182.822	-8.87
183.042	-0.68
183.262	32.08
183.482	40.28
183.701	21.85
183.921	-6.83
184.141	13.65
184.361	89.43
184.58	11.61
184.8	-15.02
185.02	9.56
185.239	48.47
185.459	7.51
185.679	62.8
185.898	71
186.118	15.7
186.338	73.04
186.557	48.47
186.777	34.13
186.997	73.04
187.216	32.08
187.436	56.66
187.655	15.7
187.875	116.05
188.095	-25.26
188.314	48.47
188.534	60.76
188.753	9.56
188.973	21.85
189.192	64.85
189.412	52.56
189.631	-19.11
189.851	38.23
190.07	73.04
190.29	5.46
190.509	7.51
190.729	7.51
190.948	40.28
191.168	146.77
191.387	58.71
191.607	32.08
191.826	15.7
192.045	21.85
192.265	-0.68
192.484	97.62
192.704	3.41
192.923	34.13
193.142	38.23
193.362	19.8
193.581	58.71
193.8	3.41
194.02	15.7
194.239	11.61
194.458	73.04
194.678	42.32
194.897	40.28
195.116	-55.98
195.335	9.56
195.555	52.56
195.774	23.89
195.993	7.51
196.212	-29.35
196.432	-25.26
196.651	19.8
196.87	58.71
197.089	79.19
197.308	54.61
197.528	52.56
197.747	-39.59
197.966	-10.92
198.185	54.61
198.404	-25.26
198.623	15.7
198.842	73.04
199.062	48.47
199.281	23.89
199.5	-0.68
199.719	58.71
199.938	-29.35
200.157	23.89
200.376	-29.35
200.595	42.32
200.814	75.09
201.033	-4.78
201.252	68.95
201.471	13.65
201.69	11.61
201.909	48.47
202.128	38.23
202.347	-8.87
202.566	11.61
202.785	-23.21
203.004	-62.12
203.223	54.61
203.442	62.8
203.661	-15.02
203.879	-27.31
204.098	44.37
204.317	1.37
204.536	81.24
204.755	11.61
204.974	30.04
205.193	-58.03
205.411	77.14
205.63	-25.26
205.849	17.75
206.068	48.47
206.287	-0.68
206.505	54.61
206.724	44.37
206.943	-62.12
207.162	11.61
207.381	68.95
207.599	9.56
207.818	36.18
208.037	-2.73
208.255	-4.78
208.474	-33.45
208.693	62.8
208.911	-19.11
209.13	19.8
209.349	56.66
209.567	87.38
209.786	124.24
210.005	105.81
210.223	58.71
210.442	-58.03
210.661	97.62
210.879	32.08
211.098	30.04
211.316	7.51
211.535	9.56
211.753	38.23
211.972	56.66
212.191	13.65
212.409	-39.59
212.628	19.8
212.846	-53.93
213.065	23.89
213.283	36.18
213.502	23.89
213.72	60.76
213.938	19.8
214.157	9.56
214.375	-8.87
214.594	44.37
214.812	9.56
215.031	60.76
215.249	-49.83
215.467	-15.02
215.686	60.76
215.904	36.18
216.122	-31.4
216.341	19.8
216.559	-74.41
216.778	56.66
216.996	42.32
217.214	75.09
217.432	66.9
217.651	-23.21
217.869	23.89
218.087	7.51
218.306	-0.68
218.524	40.28
218.742	-35.5
218.96	89.43
219.179	-33.45
219.397	85.33
219.615	66.9
219.833	32.08
220.051	-25.26
220.27	103.76
220.488	34.13
220.706	11.61
220.924	71
221.142	-4.78
221.36	71
221.578	77.14
221.796	124.24
222.015	-0.68
222.233	7.51
222.451	87.38
222.669	-17.07
222.887	44.37
223.105	105.81
223.323	-12.97
223.541	-25.26
223.759	93.52
223.977	15.7
224.195	64.85
224.413	9.56
224.631	40.28
224.849	40.28
225.067	25.94
225.285	13.65
225.503	1.37
225.721	-43.69
225.939	54.61
226.157	36.18
226.375	105.81
226.592	25.94
226.81	40.28
227.028	-37.55
227.246	48.47
227.464	11.61
227.682	19.8
227.9	27.99
228.117	40.28
228.335	27.99
228.553	64.85
228.771	9.56
228.989	27.99
229.206	-25.26
229.424	-23.21
229.642	1.37
229.86	1.37
230.077	48.47
230.295	21.85
230.513	32.08
230.731	13.65
230.948	91.48
231.166	50.52
231.384	-47.79
231.601	1.37
231.819	17.75
232.037	56.66
232.254	-31.4
232.472	52.56
232.689	1.37
232.907	62.8
233.125	34.13
233.342	58.71
233.56	-35.5
233.777	-6.83
233.995	3.41
234.213	68.95
234.43	32.08
234.648	9.56
234.865	1.37
235.083	3.41
235.3	-45.74
235.518	15.7
235.735	15.7
235.953	-12.97
236.17	-33.45
236.388	48.47
236.605	52.56
236.822	-8.87
237.04	52.56
237.257	93.52
237.475	42.32
237.692	85.33
237.909	42.32
238.127	25.94
238.344	21.85
238.562	89.43
238.779	-86.7
238.996	54.61
239.214	27.99
239.431	11.61
239.648	50.52
239.865	73.04
240.083	21.85
240.3	44.37
240.517	-49.83
240.735	48.47
240.952	52.56
241.169	77.14
241.386	11.61
241.603	-19.11
241.821	-15.02
242.038	91.48
242.255	-0.68
242.472	-39.59
242.689	9.56
242.907	73.04
243.124	-4.78
243.341	30.04
243.558	-64.17
243.775	-35.5
243.992	25.94
244.209	13.65
244.426	23.89
244.643	56.66
244.86	23.89
245.078	111.96
245.295	42.32
245.512	99.67
245.729	-8.87
245.946	50.52
246.163	32.08
246.38	-4.78
246.597	62.8
246.814	-47.79
247.031	46.42
247.248	58.71
247.464	23.89
247.681	91.48
247.898	-6.83
248.115	21.85
248.332	-19.11
248.549	21.85
248.766	105.81
248.983	81.24
249.2	56.66
249.417	44.37
249.633	23.89
249.85	21.85
250.067	23.89
250.284	-15.02
250.501	126.29
250.717	77.14
250.934	-12.97
251.151	54.61
251.368	-35.5
251.585	68.95
251.801	-76.46
252.018	73.04
252.235	15.7
252.451	42.32
252.668	93.52
252.885	21.85
253.102	71
253.318	56.66
253.535	-6.83
253.752	-35.5
253.968	25.94
254.185	-53.93
254.401	11.61
254.618	81.24
254.835	-43.69
255.051	83.28
255.268	38.23
255.484	-6.83
255.701	48.47
255.917	36.18
256.134	-6.83
256.351	68.95
256.567	-2.73
256.784	44.37
257	40.28
257.217	71
257.433	27.99
257.65	66.9
257.866	-4.78
258.082	-15.02
258.299	-8.87
258.515	25.94
258.732	64.85
258.948	-21.16
259.165	3.41
259.381	40.28
259.597	-12.97
259.814	-4.78
260.03	-8.87
260.246	-8.87
260.463	58.71
260.679	15.7
260.895	15.7
261.112	56.66
261.328	73.04
261.544	58.71
261.761	42.32
261.977	13.65
262.193	-19.11
262.409	15.7
262.626	9.56
262.842	56.66
263.058	1.37
263.274	-29.35
263.49	27.99
263.707	54.61
263.923	9.56
264.139	-55.98
264.355	68.95
264.571	62.8
264.787	75.09
265.004	60.76
265.22	13.65
265.436	7.51
265.652	15.7
265.868	23.89
266.084	1.37
266.3	-8.87
266.516	-82.6
266.732	38.23
266.948	-0.68
267.164	15.7
267.38	25.94
267.596	60.76
267.812	79.19
268.028	-29.35
268.244	15.7
268.46	-35.5
268.676	15.7
268.892	122.2
269.108	11.61
269.324	-47.79
269.54	50.52
269.756	75.09
269.972	-6.83
270.188	7.51
270.403	-0.68
270.619	36.18
270.835	62.8
271.051	101.72
271.267	-33.45
271.483	21.85
271.698	25.94
271.914	68.95
272.13	42.32
272.346	56.66
272.562	101.72
272.777	105.81
272.993	3.41
273.209	-47.79
273.425	77.14
273.64	-23.21
273.856	85.33
274.072	85.33
274.287	-45.74
274.503	60.76
274.719	-4.78
274.934	19.8
275.15	-25.26
275.366	77.14
275.581	9.56
275.797	32.08
276.012	81.24
276.228	17.75
276.444	34.13
276.659	36.18
276.875	-58.03
277.09	21.85
277.306	-2.73
277.521	54.61
277.737	44.37
277.952	15.7
278.168	50.52
278.383	15.7
278.599	25.94
278.814	64.85
279.03	21.85
279.245	114
279.461	75.09
279.676	79.19
279.892	-33.45
280.107	-33.45
280.322	7.51
280.538	77.14
280.753	36.18
280.969	34.13
281.184	-15.02
281.399	38.23
281.615	-33.45
281.83	23.89
282.045	-21.16
282.26	73.04
282.476	44.37
282.691	64.85
282.906	3.41
283.122	32.08
283.337	-15.02
283.552	5.46
283.767	-17.07
283.983	91.48
284.198	-41.64
284.413	79.19
284.628	23.89
284.843	-2.73
285.058	40.28
285.274	73.04
285.489	68.95
285.704	7.51
285.919	-10.92
286.134	60.76
286.349	91.48
286.564	-74.41
286.779	161.11
286.995	3.41
287.21	19.8
287.425	-15.02
287.64	-0.68
287.855	23.89
288.07	-23.21
288.285	77.14
288.5	60.76
288.715	32.08
288.93	-17.07
289.145	-25.26
289.36	66.9
289.575	56.66
289.79	50.52
290.004	-25.26
290.219	27.99
290.434	23.89
290.649	-41.64
290.864	5.46
291.079	15.7
291.294	91.48
291.509	68.95
291.724	68.95
291.938	-6.83
292.153	66.9
292.368	-12.97
292.583	-27.31
292.798	23.89
293.012	-39.59
293.227	7.51
293.442	25.94
293.657	-12.97
293.871	32.08
294.086	73.04
294.301	58.71
294.516	23.89
294.73	15.7
294.945	42.32
295.16	13.65
295.374	15.7
295.589	56.66
295.804	-76.46
296.018	83.28
296.233	15.7
296.447	58.71
296.662	36.18
296.877	83.28
297.091	87.38
297.306	64.85
297.52	17.75
297.735	52.56
297.949	-64.17
298.164	52.56
298.378	48.47
298.593	52.56
298.807	21.85
299.022	11.61
299.236	50.52
299.451	32.08
299.665	30.04
299.88	-37.55
300.094	40.28
300.309	-8.87
300.523	-21.16
300.737	66.9
300.952	-6.83
301.166	42.32
301.381	114
301.595	7.51
301.809	34.13
302.024	-17.07
302.238	-17.07
302.452	83.28
302.667	-37.55
302.881	34.13
303.095	-0.68
303.309	-6.83
303.524	-66.22
303.738	-6.83
303.952	1.37
304.166	81.24
304.381	-29.35
304.595	134.48
304.809	-6.83
305.023	46.42
305.237	-8.87
305.452	58.71
305.666	64.85
305.88	58.71
306.094	25.94
306.308	32.08
306.522	32.08
306.736	36.18
306.95	64.85
307.164	-23.21
307.379	9.56
307.593	81.24
307.807	32.08
308.021	27.99
308.235	19.8
308.449	68.95
308.663	50.52
308.877	62.8
309.091	19.8
309.305	30.04
309.519	-0.68
309.733	9.56
309.947	-80.55
310.161	17.75
310.374	34.13
310.588	32.08
310.802	3.41
311.016	-39.59
311.23	-0.68
311.444	32.08
311.658	48.47
311.872	-29.35
312.085	7.51
312.299	27.99
312.513	75.09
312.727	89.43
312.941	-0.68
313.154	73.04
313.368	-10.92
313.582	-4.78
313.796	19.8
314.009	73.04
314.223	77.14
314.437	34.13
314.651	46.42
314.864	19.8
315.078	30.04
315.292	7.51
315.505	-23.21
315.719	7.51
315.933	89.43
316.146	36.18
316.36	30.04
316.573	30.04
316.787	42.32
317.001	27.99
317.214	40.28
317.428	-39.59
317.641	-6.83
317.855	93.52
318.068	36.18
318.282	40.28
318.495	85.33
318.709	9.56
318.922	3.41
319.136	68.95
319.349	91.48
319.563	40.28
319.776	15.7
319.99	-72.36
320.203	66.9
320.417	25.94
320.63	89.43
320.843	40.28
321.057	27.99
321.27	105.81
321.483	-6.83
321.697	75.09
321.91	85.33
322.124	73.04
322.337	15.7
322.55	-23.21
322.763	-23.21
322.977	54.61
323.19	-15.02
323.403	40.28
323.617	54.61
323.83	44.37
324.043	44.37
324.256	40.28
324.469	23.89
324.683	19.8
324.896	-6.83
325.109	60.76
325.322	7.51
325.535	44.37
325.748	85.33
325.962	-21.16
326.175	85.33
326.388	36.18
326.601	40.28
326.814	114
327.027	52.56
327.24	73.04
327.453	85.33
327.666	-31.4
327.879	34.13
328.092	-49.83
328.305	-15.02
328.518	48.47
328.731	-27.31
328.944	73.04
329.157	48.47
329.37	-21.16
329.583	5.46
329.796	134.48
330.009	19.8
330.222	64.85
330.435	71
330.648	60.76
330.861	-2.73
331.073	75.09
331.286	105.81
331.499	-49.83
331.712	-2.73
331.925	42.32
332.138	30.04
332.35	97.62
332.563	68.95
332.776	21.85
332.989	-41.64
333.202	58.71
333.414	7.51
333.627	97.62
333.84	-23.21
334.053	-37.55
334.265	75.09
334.478	-31.4
334.691	48.47
334.903	11.61
335.116	60.76
335.329	7.51
335.541	25.94
335.754	64.85
335.966	-17.07
336.179	-33.45
336.392	42.32
336.604	62.8
336.817	-29.35
337.029	83.28
337.242	-47.79
337.454	15.7
337.667	9.56
337.88	30.04
338.092	48.47
338.305	114
338.517	-4.78
338.729	95.57
338.942	91.48
339.154	46.42
339.367	1.37
339.579	30.04
339.792	-12.97
340.004	77.14
340.217	-37.55
340.429	-0.68
340.641	-0.68
340.854	105.81
341.066	-53.93
341.278	89.43
341.491	48.47
341.703	50.52
341.915	-17.07
342.128	83.28
342.34	19.8
342.552	52.56
342.764	34.13
342.977	77.14
343.189	5.46
343.401	32.08
343.613	-0.68
343.826	95.57
344.038	-37.55
344.25	15.7
344.462	-10.92
344.674	-15.02
344.886	1.37
345.099	32.08
345.311	-17.07
345.523	-2.73
345.735	1.37
345.947	17.75
346.159	7.51
346.371	11.61
346.583	64.85
346.795	66.9
347.007	-27.31
347.219	60.76
347.431	7.51
347.643	25.94
347.855	19.8
348.067	48.47
348.279	-21.16
348.491	58.71
348.703	32.08
348.915	46.42
349.127	-8.87
349.339	89.43
349.551	36.18
349.763	40.28
349.975	-17.07
350.187	81.24
350.399	15.7
350.61	56.66
350.822	38.23
351.034	91.48
351.246	15.7
351.458	32.08
351.669	-45.74
351.881	36.18
352.093	89.43
352.305	19.8
352.517	23.89
352.728	32.08
352.94	-21.16
353.152	75.09
353.363	-23.21
353.575	23.89
353.787	15.7
353.999	9.56
354.21	40.28
354.422	-33.45
354.633	44.37
354.845	-15.02
355.057	62.8
355.268	44.37
355.48	157.01
355.692	64.85
355.903	9.56
356.115	54.61
356.326	-39.59
356.538	64.85
356.749	75.09
356.961	114
357.172	73.04
357.384	15.7
357.595	126.29
357.807	23.89
358.018	-15.02
358.23	-51.88
358.441	85.33
358.653	75.09
358.864	36.18
359.075	-60.07
359.287	56.66
359.498	71
359.709	54.61
359.921	21.85
360.132	-4.78
360.344	85.33
360.555	40.28
360.766	-10.92
360.977	95.57
361.189	19.8
361.4	66.9
361.611	17.75
361.823	15.7
362.034	9.56
362.245	-19.11
362.456	68.95
362.667	-4.78
362.879	23.89
363.09	71
363.301	40.28
363.512	-39.59
363.723	38.23
363.935	46.42
364.146	99.67
364.357	-78.51
364.568	9.56
364.779	-29.35
364.99	64.85
365.201	23.89
365.412	-41.64
365.623	32.08
365.834	73.04
366.045	36.18
366.256	85.33
366.467	1.37
366.678	40.28
366.889	-37.55
367.1	1.37
367.311	66.9
367.522	27.99
367.733	62.8
367.944	50.52
368.155	15.7
368.366	114
368.577	21.85
368.788	89.43
368.999	62.8
369.209	5.46
369.42	64.85
369.631	99.67
369.842	34.13
370.053	103.76
370.264	13.65
370.474	1.37
370.685	-17.07
370.896	11.61
371.107	54.61
371.317	25.94
371.528	-35.5
371.739	32.08
371.95	-17.07
372.16	42.32
372.371	60.76
372.582	-25.26
372.792	34.13
373.003	7.51
373.214	60.76
373.424	116.05
373.635	44.37
373.846	25.94
374.056	56.66
374.267	-35.5
374.477	71
374.688	60.76
374.898	52.56
375.109	50.52
375.319	-70.31
375.53	30.04
375.74	-23.21
375.951	11.61
376.161	95.57
376.372	44.37
376.582	38.23
376.793	68.95
377.003	-8.87
377.214	17.75
377.424	118.1
377.635	81.24
377.845	77.14
378.055	-12.97
378.266	75.09
378.476	66.9
378.686	-6.83
378.897	99.67
379.107	36.18
379.317	19.8
379.528	-41.64
379.738	32.08
379.948	-47.79
380.158	50.52
380.369	-8.87
380.579	79.19
380.789	-21.16
380.999	13.65
381.21	66.9
381.42	91.48
381.63	27.99
381.84	75.09
382.05	36.18
382.261	-27.31
382.471	42.32
382.681	-15.02
382.891	50.52
383.101	34.13
383.311	19.8
383.521	44.37
383.731	-15.02
383.941	44.37
384.151	15.7
384.361	81.24
384.571	34.13
384.781	9.56
384.991	3.41
385.201	130.39
385.411	105.81
385.621	56.66
385.831	52.56
386.041	50.52
386.251	-19.11
386.461	64.85
386.671	40.28
386.881	32.08
387.091	-49.83
387.301	-4.78
387.511	19.8
387.72	85.33
387.93	81.24
388.14	-23.21
388.35	27.99
388.56	165.2
388.769	95.57
388.979	38.23
389.189	68.95
389.399	48.47
389.609	73.04
389.818	17.75
390.028	30.04
390.238	9.56
390.447	-90.79
390.657	60.76
390.867	71
391.076	73.04
391.286	73.04
391.496	40.28
391.705	32.08
391.915	-2.73
392.125	-23.21
392.334	118.1
392.544	46.42
392.753	66.9
392.963	85.33
393.172	52.56
393.382	34.13
393.591	81.24
393.801	107.86
394.01	77.14
394.22	40.28
394.429	21.85
394.639	97.62
394.848	118.1
395.058	68.95
395.267	-0.68
395.477	87.38
395.686	105.81
395.895	116.05
396.105	71
396.314	126.29
396.524	73.04
396.733	48.47
396.942	97.62
397.152	60.76
397.361	109.91
397.57	15.7
397.78	58.71
397.989	81.24
398.198	124.24
398.407	99.67
398.617	34.13
398.826	81.24
399.035	54.61
399.244	40.28
399.453	48.47
399.663	27.99
399.872	81.24
400.081	71
400.29	68.95
400.499	54.61
400.708	91.48
400.917	122.2
401.127	85.33
401.336	83.28
401.545	81.24
401.754	120.15
401.963	103.76
402.172	48.47
402.381	89.43
402.59	62.8
402.799	44.37
403.008	68.95
403.217	71
403.426	75.09
403.635	83.28
403.844	99.67
404.053	56.66
404.262	71
404.471	101.72
404.68	71
404.888	159.06
405.097	71
405.306	83.28
405.515	77.14
405.724	109.91
405.933	62.8
406.142	97.62
406.35	85.33
406.559	105.81
406.768	97.62
406.977	126.29
407.185	130.39
407.394	122.2
407.603	91.48
407.812	150.87
408.02	169.3
408.229	85.33
408.438	118.1
408.646	136.53
408.855	136.53
409.064	140.63
409.272	71
409.481	171.35
409.69	105.81
409.898	124.24
410.107	140.63
410.315	167.25
410.524	120.15
410.733	197.97
410.941	130.39
411.15	279.89
411.358	142.68
411.567	214.35
411.775	220.5
411.984	212.31
412.192	228.69
412.401	255.31
412.609	279.89
412.818	169.3
413.026	269.65
413.234	218.45
413.443	216.4
413.651	243.03
413.86	322.9
414.068	312.66
414.276	259.41
414.485	306.51
414.693	337.23
414.901	464.21
415.11	398.67
415.318	304.46
415.526	380.24
415.734	384.34
415.943	425.29
416.151	394.58
416.359	331.09
416.567	384.34
416.776	451.92
416.984	429.39
417.192	413.01
417.4	533.84
417.608	443.73
417.817	542.03
418.025	552.27
418.233	562.51
418.441	515.41
418.649	585.04
418.857	707.91
419.065	693.58
419.273	558.41
419.481	716.11
419.689	755.02
419.897	769.35
420.105	798.03
420.313	779.59
420.521	849.22
420.729	867.66
420.937	816.46
421.145	871.75
421.353	884.04
421.561	1011.01
421.769	1041.73
421.977	1008.97
422.185	1086.79
422.393	1097.03
422.601	1146.18
422.809	1230.15
423.017	1129.8
423.224	1195.33
423.432	1236.29
423.64	1187.14
423.848	1447.23
424.056	1412.42
424.263	1336.64
424.471	1410.37
424.679	1539.39
424.887	1512.77
425.094	1584.45
425.302	1572.16
425.51	1715.52
425.718	1793.34
425.925	1805.63
426.133	1881.4
426.341	1932.6
426.548	2022.71
426.756	2022.71
426.964	1932.6
427.171	2061.62
427.379	2080.05
427.586	2288.95
427.794	2252.08
428.001	2385.2
428.209	2338.1
428.417	2571.57
428.624	2688.3
428.832	2587.95
429.039	2467.12
429.247	2671.92
429.454	2807.08
429.662	3097.89
429.869	2913.58
430.076	3063.08
430.284	3040.55
430.491	3112.23
430.699	3370.27
430.906	3288.36
431.114	3366.18
431.321	3503.39
431.528	3448.1
431.736	3747.1
431.943	3892.51
432.15	3806.49
432.358	3786.01
432.565	4111.64
432.772	3878.17
432.979	4199.7
433.187	4388.11
433.394	4293.91
433.601	4543.76
433.808	4545.81
434.016	4443.41
434.223	4842.76
434.43	5129.48
434.637	5051.66
434.844	5385.48
435.052	5438.72
435.259	5381.38
435.466	5283.08
435.673	5379.33
435.88	5795.07
436.087	6049.02
436.294	6186.23
436.501	5942.52
436.708	6110.46
436.915	6352.12
437.122	6616.3
437.329	6319.35
437.537	6536.43
437.743	6649.07
437.95	6604.02
438.157	7259.37
438.364	7335.14
438.571	7226.6
438.778	7363.81
438.985	7939.29
439.192	7685.34
439.399	7865.57
439.606	7673.06
439.813	8275.16
440.02	8697.04
440.227	8588.5
440.433	8359.13
440.64	8764.62
440.847	8629.46
441.054	8862.93
441.261	9608.39
441.467	9217.22
441.674	9620.67
441.881	9927.87
442.088	9774.27
442.294	9839.81
442.501	9893.05
442.708	10226.87
442.914	10654.9
443.121	10921.13
443.328	10661.04
443.534	11607.2
443.741	11242.67
443.948	10958
444.154	11959.45
444.361	11758.75
444.568	11926.69
444.774	12086.43
444.981	11904.16
445.187	12397.72
445.394	12856.47
445.6	12848.27
445.807	13986.94
446.013	13384.84
446.22	13692.04
446.426	14175.36
446.633	14324.86
446.839	14627.96
447.046	14208.12
447.252	15031.41
447.459	15137.9
447.665	15055.98
447.871	15645.8
448.078	16454.75
448.284	15492.2
448.491	15776.87
448.697	16682.07
448.903	16979.03
449.11	16895.06
449.316	16778.33
449.522	17071.18
449.728	17658.95
449.935	17658.95
450.141	17574.99
450.347	18250.81
450.553	17427.53
450.76	17755.21
450.966	18469.95
451.172	18005.06
451.378	18799.67
451.584	18269.25
451.791	18629.69
451.997	18523.19
452.203	19184.69
452.409	19088.43
452.615	18873.4
452.821	18283.58
453.027	17796.17
453.233	19084.34
453.44	18504.76
453.646	18506.81
453.852	18668.6
454.058	18832.44
454.264	18242.62
454.47	19096.63
454.676	18392.12
454.882	18818.1
455.088	17218.64
455.294	17615.94
455.5	18013.25
455.705	17822.79
455.911	17374.28
456.117	17042.51
456.323	16909.4
456.529	16055.39
456.735	16714.84
456.941	16471.13
457.147	16045.15
457.352	15524.97
457.558	15469.67
457.764	15494.25
457.97	14933.11
458.176	14767.22
458.381	14877.81
458.587	14281.85
458.793	14025.86
458.999	13399.18
459.204	14376.06
459.41	13829.25
459.616	13237.39
459.821	12835.99
460.027	12782.74
460.233	12612.76
460.438	12049.57
460.644	12192.92
460.85	11754.66
461.055	11519.14
461.261	11228.33
461.466	10648.75
461.672	10095.8
461.878	10980.53
462.083	10362.04
462.289	9936.06
462.494	9946.3
462.7	9651.39
462.905	9127.11
463.111	9553.09
463.316	9680.07
463.522	9694.4
463.727	9374.92
463.932	9436.36
464.138	9221.32
464.343	9440.45
464.549	9077.96
464.754	9264.33
464.959	9264.33
465.165	9239.75
465.37	8746.19
465.575	8598.74
465.781	8930.51
465.986	9157.83
466.191	8641.75
466.397	8557.78
466.602	8088.79
466.807	8506.58
467.012	8545.49
467.218	8525.01
467.423	8316.12
467.628	8273.11
467.833	8658.13
468.038	8385.75
468.244	8029.4
468.449	8262.87
468.654	8109.27
468.859	8164.57
469.064	8023.26
469.269	7648.48
469.474	7855.33
469.679	7951.58
