Data from USB4F104151__99__13-14-06-823.txt Node

Date: Fri Mar 14 13:14:06 EDT 2025
User: louis
Spectrometer: USB4F10415
Trigger mode: 4
Integration Time (sec): 2.000000E-2
Scans to average: 1
Electric dark correction enabled: true
Nonlinearity correction enabled: false
Boxcar width: 0
XAxis mode: Wavelengths
Number of Pixels in Spectrum: 3648
>>>>>Begin Spectral Data<<<<<
178.204	-100.52
178.424	-100.52
178.644	-100.52
178.864	-135.34
179.084	-77.99
179.304	38.74
179.524	-30.89
179.744	18.26
179.964	20.31
180.184	-6.31
180.404	30.55
180.624	-30.89
180.844	22.36
181.064	-6.31
181.283	30.55
181.503	-61.61
181.723	-24.75
181.943	1.88
182.163	36.69
182.383	-14.51
182.602	94.04
182.822	36.69
183.042	40.79
183.262	-24.75
183.482	34.64
183.701	57.17
183.921	-20.65
184.141	-55.47
184.361	73.56
184.58	-55.47
184.8	-34.99
185.02	-0.17
185.239	85.84
185.459	40.79
185.679	22.36
185.898	20.31
186.118	48.98
186.338	-20.65
186.557	59.22
186.777	40.79
186.997	-0.17
187.216	-8.36
187.436	42.84
187.655	63.32
187.875	46.93
188.095	-28.84
188.314	-12.46
188.534	81.75
188.753	-67.75
188.973	114.52
189.192	69.46
189.412	-12.46
189.631	14.17
189.851	-20.65
190.07	51.03
190.29	-43.18
190.509	-4.27
190.729	48.98
190.948	96.08
191.168	130.9
191.387	130.9
191.607	-32.94
191.826	63.32
192.045	-2.22
192.265	12.12
192.484	38.74
192.704	67.41
192.923	22.36
193.142	-12.46
193.362	28.5
193.581	61.27
193.8	30.55
194.02	12.12
194.239	22.36
194.458	-26.79
194.678	61.27
194.897	30.55
195.116	73.56
195.335	36.69
195.555	-47.27
195.774	-8.36
195.993	20.31
196.212	-49.32
196.432	-77.99
196.651	-12.46
196.87	-22.7
197.089	44.88
197.308	34.64
197.528	32.6
197.747	-45.23
197.966	46.93
198.185	46.93
198.404	-0.17
198.623	-4.27
198.842	65.36
199.062	53.08
199.281	77.65
199.5	-2.22
199.719	94.04
199.938	65.36
200.157	24.4
200.376	102.23
200.595	98.13
200.814	14.17
201.033	-14.51
201.252	10.07
201.471	8.02
201.69	46.93
201.909	48.98
202.128	16.21
202.347	57.17
202.566	24.4
202.785	75.6
203.004	3.93
203.223	53.08
203.442	32.6
203.661	-37.03
203.879	51.03
204.098	100.18
204.317	-18.6
204.536	89.94
204.755	16.21
204.974	-10.41
205.193	-8.36
205.411	10.07
205.63	40.79
205.849	55.12
206.068	-49.32
206.287	10.07
206.505	106.32
206.724	26.45
206.943	-30.89
207.162	46.93
207.381	79.7
207.599	63.32
207.818	-22.7
208.037	-0.17
208.255	-18.6
208.474	-32.94
208.693	26.45
208.911	98.13
209.13	-2.22
209.349	85.84
209.567	63.32
209.786	106.32
210.005	14.17
210.223	-0.17
210.442	-24.75
210.661	24.4
210.879	55.12
211.098	16.21
211.316	40.79
211.535	59.22
211.753	-24.75
211.972	8.02
212.191	-0.17
212.409	1.88
212.628	55.12
212.846	14.17
213.065	57.17
213.283	91.99
213.502	-14.51
213.72	26.45
213.938	44.88
214.157	51.03
214.375	24.4
214.594	20.31
214.812	-32.94
215.031	-14.51
215.249	-22.7
215.467	65.36
215.686	18.26
215.904	75.6
216.122	44.88
216.341	85.84
216.559	-63.66
216.778	-32.94
216.996	44.88
217.214	-14.51
217.432	-6.31
217.651	-41.13
217.869	53.08
218.087	16.21
218.306	10.07
218.524	32.6
218.742	28.5
218.96	16.21
219.179	48.98
219.397	46.93
219.615	55.12
219.833	63.32
220.051	-14.51
220.27	67.41
220.488	28.5
220.706	32.6
220.924	-55.47
221.142	3.93
221.36	22.36
221.578	65.36
221.796	28.5
222.015	30.55
222.233	14.17
222.451	36.69
222.669	-34.99
222.887	40.79
223.105	-49.32
223.323	48.98
223.541	34.64
223.759	83.8
223.977	81.75
224.195	59.22
224.413	18.26
224.631	22.36
224.849	22.36
225.067	32.6
225.285	36.69
225.503	36.69
225.721	-45.23
225.939	8.02
226.157	-41.13
226.375	53.08
226.592	57.17
226.81	46.93
227.028	51.03
227.246	32.6
227.464	34.64
227.682	83.8
227.9	3.93
228.117	10.07
228.335	28.5
228.553	-16.55
228.771	14.17
228.989	-0.17
229.206	89.94
229.424	40.79
229.642	34.64
229.86	-24.75
230.077	-51.37
230.295	48.98
230.513	36.69
230.731	8.02
230.948	16.21
231.166	71.51
231.384	38.74
231.601	42.84
231.819	24.4
232.037	-41.13
232.254	40.79
232.472	1.88
232.689	55.12
232.907	57.17
233.125	-8.36
233.342	-51.37
233.56	-30.89
233.777	8.02
233.995	24.4
234.213	20.31
234.43	5.97
234.648	10.07
234.865	75.6
235.083	46.93
235.3	26.45
235.518	67.41
235.735	53.08
235.953	20.31
236.17	24.4
236.388	-12.46
236.605	-12.46
236.822	51.03
237.04	14.17
237.257	1.88
237.475	-6.31
237.692	65.36
237.909	8.02
238.127	48.98
238.344	48.98
238.562	-2.22
238.779	38.74
238.996	-2.22
239.214	20.31
239.431	65.36
239.648	-18.6
239.865	61.27
240.083	12.12
240.3	38.74
240.517	34.64
240.735	-4.27
240.952	30.55
241.169	36.69
241.386	42.84
241.603	-0.17
241.821	-80.04
242.038	40.79
242.255	3.93
242.472	24.4
242.689	69.46
242.907	8.02
243.124	59.22
243.341	48.98
243.558	3.93
243.775	46.93
243.992	57.17
244.209	1.88
244.426	53.08
244.643	40.79
244.86	-6.31
245.078	48.98
245.295	61.27
245.512	53.08
245.729	1.88
245.946	-20.65
246.163	-18.6
246.38	-32.94
246.597	36.69
246.814	44.88
247.031	-22.7
247.248	8.02
247.464	73.56
247.681	26.45
247.898	77.65
248.115	75.6
248.332	67.41
248.549	24.4
248.766	18.26
248.983	-51.37
249.2	-12.46
249.417	36.69
249.633	-6.31
249.85	34.64
250.067	30.55
250.284	-18.6
250.501	98.13
250.717	75.6
250.934	-28.84
251.151	14.17
251.368	-18.6
251.585	57.17
251.801	-22.7
252.018	48.98
252.235	32.6
252.451	-24.75
252.668	40.79
252.885	42.84
253.102	-10.41
253.318	73.56
253.535	1.88
253.752	81.75
253.968	26.45
254.185	67.41
254.401	-14.51
254.618	26.45
254.835	38.74
255.051	75.6
255.268	-28.84
255.484	12.12
255.701	77.65
255.917	61.27
256.134	-18.6
256.351	-32.94
256.567	14.17
256.784	89.94
257	-12.46
257.217	18.26
257.433	40.79
257.65	16.21
257.866	48.98
258.082	-6.31
258.299	-30.89
258.515	-10.41
258.732	14.17
258.948	5.97
259.165	-8.36
259.381	73.56
259.597	67.41
259.814	73.56
260.03	55.12
260.246	61.27
260.463	81.75
260.679	22.36
260.895	34.64
261.112	10.07
261.328	-39.08
261.544	-32.94
261.761	91.99
261.977	-2.22
262.193	40.79
262.409	79.7
262.626	-8.36
262.842	34.64
263.058	-6.31
263.274	114.52
263.49	-39.08
263.707	149.33
263.923	-14.51
264.139	53.08
264.355	-8.36
264.571	16.21
264.787	42.84
265.004	34.64
265.22	-41.13
265.436	-32.94
265.652	-6.31
265.868	-4.27
266.084	-0.17
266.3	-0.17
266.516	8.02
266.732	48.98
266.948	-65.71
267.164	79.7
267.38	55.12
267.596	16.21
267.812	-26.79
268.028	38.74
268.244	28.5
268.46	55.12
268.676	-32.94
268.892	20.31
269.108	26.45
269.324	16.21
269.54	-55.47
269.756	51.03
269.972	30.55
270.188	26.45
270.403	-41.13
270.619	89.94
270.835	22.36
271.051	48.98
271.267	26.45
271.483	20.31
271.698	-6.31
271.914	28.5
272.13	38.74
272.346	-16.55
272.562	-32.94
272.777	38.74
272.993	16.21
273.209	-47.27
273.425	79.7
273.64	53.08
273.856	-10.41
274.072	91.99
274.287	51.03
274.503	65.36
274.719	91.99
274.934	79.7
275.15	-16.55
275.366	48.98
275.581	-4.27
275.797	36.69
276.012	14.17
276.228	-73.9
276.444	-53.42
276.659	67.41
276.875	-41.13
277.09	75.6
277.306	38.74
277.521	38.74
277.737	3.93
277.952	44.88
278.168	65.36
278.383	-12.46
278.599	-22.7
278.814	104.28
279.03	20.31
279.245	61.27
279.461	34.64
279.676	77.65
279.892	-37.03
280.107	14.17
280.322	-26.79
280.538	-47.27
280.753	-18.6
280.969	91.99
281.184	42.84
281.399	55.12
281.615	-67.75
281.83	-8.36
282.045	-20.65
282.26	-63.66
282.476	40.79
282.691	34.64
282.906	40.79
283.122	40.79
283.337	22.36
283.552	51.03
283.767	18.26
283.983	-41.13
284.198	42.84
284.413	40.79
284.628	-26.79
284.843	-2.22
285.058	48.98
285.274	110.42
285.489	8.02
285.704	5.97
285.919	61.27
286.134	65.36
286.349	-24.75
286.564	1.88
286.779	34.64
286.995	8.02
287.21	-57.51
287.425	5.97
287.64	24.4
287.855	71.51
288.07	-8.36
288.285	65.36
288.5	24.4
288.715	36.69
288.93	44.88
289.145	59.22
289.36	44.88
289.575	-2.22
289.79	-8.36
290.004	24.4
290.219	104.28
290.434	-57.51
290.649	65.36
290.864	34.64
291.079	-22.7
291.294	53.08
291.509	8.02
291.724	-0.17
291.938	-37.03
292.153	5.97
292.368	48.98
292.583	24.4
292.798	114.52
293.012	-2.22
293.227	67.41
293.442	36.69
293.657	8.02
293.871	44.88
294.086	67.41
294.301	69.46
294.516	-24.75
294.73	63.32
294.945	3.93
295.16	24.4
295.374	24.4
295.589	51.03
295.804	48.98
296.018	63.32
296.233	48.98
296.447	18.26
296.662	-39.08
296.877	36.69
297.091	57.17
297.306	-0.17
297.52	18.26
297.735	-24.75
297.949	77.65
298.164	59.22
298.378	-14.51
298.593	10.07
298.807	40.79
299.022	-8.36
299.236	36.69
299.451	-14.51
299.665	38.74
299.88	-8.36
300.094	57.17
300.309	71.51
300.523	30.55
300.737	10.07
300.952	22.36
301.166	40.79
301.381	-49.32
301.595	12.12
301.809	-12.46
302.024	55.12
302.238	-49.32
302.452	169.81
302.667	-4.27
302.881	24.4
303.095	34.64
303.309	42.84
303.524	36.69
303.738	65.36
303.952	120.66
304.166	-8.36
304.381	10.07
304.595	18.26
304.809	-34.99
305.023	94.04
305.237	42.84
305.452	59.22
305.666	30.55
305.88	12.12
306.094	81.75
306.308	73.56
306.522	53.08
306.736	67.41
306.95	-8.36
307.164	46.93
307.379	-30.89
307.593	79.7
307.807	24.4
308.021	14.17
308.235	36.69
308.449	-41.13
308.663	8.02
308.877	96.08
309.091	91.99
309.305	57.17
309.519	-20.65
309.733	34.64
309.947	-67.75
310.161	48.98
310.374	30.55
310.588	24.4
310.802	22.36
311.016	-12.46
311.23	42.84
311.444	-2.22
311.658	-28.84
311.872	40.79
312.085	26.45
312.299	108.37
312.513	-0.17
312.727	63.32
312.941	57.17
313.154	73.56
313.368	46.93
313.582	-0.17
313.796	26.45
314.009	32.6
314.223	28.5
314.437	114.52
314.651	32.6
314.864	46.93
315.078	59.22
315.292	8.02
315.505	14.17
315.719	46.93
315.933	14.17
316.146	40.79
316.36	-8.36
316.573	16.21
316.787	48.98
317.001	-20.65
317.214	51.03
317.428	22.36
317.641	-39.08
317.855	-47.27
318.068	18.26
318.282	51.03
318.495	71.51
318.709	83.8
318.922	-8.36
319.136	65.36
319.349	34.64
319.563	-0.17
319.776	40.79
319.99	10.07
320.203	40.79
320.417	-26.79
320.63	67.41
320.843	61.27
321.057	8.02
321.27	10.07
321.483	-32.94
321.697	77.65
321.91	-49.32
322.124	32.6
322.337	40.79
322.55	16.21
322.763	-10.41
322.977	61.27
323.19	-4.27
323.403	20.31
323.617	94.04
323.83	77.65
324.043	24.4
324.256	83.8
324.469	-10.41
324.683	-34.99
324.896	67.41
325.109	-14.51
325.322	-118.95
325.535	8.02
325.748	-10.41
325.962	124.76
326.175	-28.84
326.388	32.6
326.601	24.4
326.814	-26.79
327.027	73.56
327.24	57.17
327.453	-73.9
327.666	-6.31
327.879	32.6
328.092	14.17
328.305	16.21
328.518	44.88
328.731	44.88
328.944	20.31
329.157	-53.42
329.37	46.93
329.583	77.65
329.796	34.64
330.009	20.31
330.222	32.6
330.435	5.97
330.648	-6.31
330.861	59.22
331.073	-28.84
331.286	104.28
331.499	-12.46
331.712	46.93
331.925	24.4
332.138	34.64
332.35	98.13
332.563	30.55
332.776	34.64
332.989	-34.99
333.202	-22.7
333.414	-2.22
333.627	16.21
333.84	10.07
334.053	85.84
334.265	-24.75
334.478	10.07
334.691	8.02
334.903	85.84
335.116	3.93
335.329	61.27
335.541	106.32
335.754	10.07
335.966	20.31
336.179	8.02
336.392	79.7
336.604	-8.36
336.817	42.84
337.029	32.6
337.242	40.79
337.454	61.27
337.667	30.55
337.88	48.98
338.092	36.69
338.305	65.36
338.517	24.4
338.729	18.26
338.942	108.37
339.154	1.88
339.367	32.6
339.579	18.26
339.792	1.88
340.004	-90.28
340.217	-0.17
340.429	24.4
340.641	14.17
340.854	-6.31
341.066	65.36
341.278	32.6
341.491	48.98
341.703	20.31
341.915	-57.51
342.128	106.32
342.34	28.5
342.552	73.56
342.764	55.12
342.977	75.6
343.189	51.03
343.401	32.6
343.613	-6.31
343.826	12.12
344.038	1.88
344.25	36.69
344.462	73.56
344.674	102.23
344.886	83.8
345.099	71.51
345.311	-43.18
345.523	65.36
345.735	34.64
345.947	-0.17
346.159	20.31
346.371	18.26
346.583	-2.22
346.795	94.04
347.007	-51.37
347.219	73.56
347.431	-55.47
347.643	71.51
347.855	40.79
348.067	-24.75
348.279	-14.51
348.491	71.51
348.703	26.45
348.915	75.6
349.127	63.32
349.339	42.84
349.551	-4.27
349.763	59.22
349.975	-8.36
350.187	53.08
350.399	8.02
350.61	14.17
350.822	3.93
351.034	73.56
351.246	32.6
351.458	-10.41
351.669	12.12
351.881	89.94
352.093	96.08
352.305	38.74
352.517	44.88
352.728	98.13
352.94	61.27
353.152	-4.27
353.363	8.02
353.575	34.64
353.787	36.69
353.999	14.17
354.21	100.18
354.422	18.26
354.633	-65.71
354.845	51.03
355.057	110.42
355.268	24.4
355.48	8.02
355.692	-22.7
355.903	-63.66
356.115	5.97
356.326	-73.9
356.538	85.84
356.749	12.12
356.961	77.65
357.172	12.12
357.384	67.41
357.595	36.69
357.807	3.93
358.018	-8.36
358.23	44.88
358.441	12.12
358.653	-12.46
358.864	22.36
359.075	-0.17
359.287	61.27
359.498	67.41
359.709	24.4
359.921	24.4
360.132	65.36
360.344	53.08
360.555	55.12
360.766	104.28
360.977	51.03
361.189	36.69
361.4	67.41
361.611	89.94
361.823	81.75
362.034	-22.7
362.245	-104.62
362.456	-20.65
362.667	1.88
362.879	-28.84
363.09	63.32
363.301	34.64
363.512	22.36
363.723	5.97
363.935	51.03
364.146	94.04
364.357	34.64
364.568	-20.65
364.779	-12.46
364.99	59.22
365.201	1.88
365.412	28.5
365.623	32.6
365.834	51.03
366.045	30.55
366.256	98.13
366.467	48.98
366.678	-14.51
366.889	16.21
367.1	-20.65
367.311	8.02
367.522	83.8
367.733	1.88
367.944	59.22
368.155	65.36
368.366	32.6
368.577	-26.79
368.788	57.17
368.999	18.26
369.209	-53.42
369.42	96.08
369.631	53.08
369.842	57.17
370.053	59.22
370.264	75.6
370.474	18.26
370.685	-22.7
370.896	87.89
371.107	89.94
371.317	-14.51
371.528	16.21
371.739	130.9
371.95	18.26
372.16	-4.27
372.371	5.97
372.582	114.52
372.792	40.79
373.003	12.12
373.214	16.21
373.424	91.99
373.635	-16.55
373.846	24.4
374.056	36.69
374.267	44.88
374.477	28.5
374.688	8.02
374.898	69.46
375.109	16.21
375.319	-0.17
375.53	32.6
375.74	-6.31
375.951	30.55
376.161	28.5
376.372	48.98
376.582	14.17
376.793	108.37
377.003	-16.55
377.214	-43.18
377.424	42.84
377.635	79.7
377.845	-16.55
378.055	63.32
378.266	24.4
378.476	89.94
378.686	57.17
378.897	-2.22
379.107	-8.36
379.317	34.64
379.528	8.02
379.738	24.4
379.948	48.98
380.158	59.22
380.369	18.26
380.579	73.56
380.789	65.36
380.999	55.12
381.21	32.6
381.42	96.08
381.63	40.79
381.84	55.12
382.05	32.6
382.261	85.84
382.471	53.08
382.681	26.45
382.891	73.56
383.101	59.22
383.311	48.98
383.521	53.08
383.731	16.21
383.941	130.9
384.151	-30.89
384.361	69.46
384.571	42.84
384.781	-6.31
384.991	151.38
385.201	89.94
385.411	65.36
385.621	3.93
385.831	20.31
386.041	12.12
386.251	-39.08
386.461	32.6
386.671	-6.31
386.881	28.5
387.091	83.8
387.301	106.32
387.511	8.02
387.72	89.94
387.93	63.32
388.14	-8.36
388.35	30.55
388.56	73.56
388.769	110.42
388.979	91.99
389.189	-6.31
389.399	14.17
389.609	26.45
389.818	8.02
390.028	-32.94
390.238	46.93
390.447	51.03
390.657	51.03
390.867	18.26
391.076	20.31
391.286	120.66
391.496	69.46
391.705	3.93
391.915	106.32
392.125	38.74
392.334	8.02
392.544	30.55
392.753	38.74
392.963	14.17
393.172	79.7
393.382	91.99
393.591	12.12
393.801	24.4
394.01	100.18
394.22	22.36
394.429	16.21
394.639	51.03
394.848	30.55
395.058	98.13
395.267	36.69
395.477	-18.6
395.686	44.88
395.895	81.75
396.105	128.85
396.314	-6.31
396.524	22.36
396.733	46.93
396.942	36.69
397.152	14.17
397.361	46.93
397.57	91.99
397.78	61.27
397.989	94.04
398.198	124.76
398.407	75.6
398.617	40.79
398.826	55.12
399.035	102.23
399.244	91.99
399.453	59.22
399.663	69.46
399.872	69.46
400.081	104.28
400.29	85.84
400.499	40.79
400.708	98.13
400.917	28.5
401.127	-6.31
401.336	-18.6
401.545	102.23
401.754	106.32
401.963	116.56
402.172	24.4
402.381	32.6
402.59	38.74
402.799	40.79
403.008	94.04
403.217	36.69
403.426	75.6
403.635	18.26
403.844	44.88
404.053	51.03
404.262	34.64
404.471	169.81
404.68	94.04
404.888	112.47
405.097	106.32
405.306	65.36
405.515	155.47
405.724	75.6
405.933	116.56
406.142	89.94
406.35	126.8
406.559	122.71
406.768	120.66
406.977	32.6
407.185	116.56
407.394	165.71
407.603	77.65
407.812	157.52
408.02	155.47
408.229	132.95
408.438	159.57
408.646	139.09
408.855	44.88
409.064	126.8
409.272	126.8
409.481	130.9
409.69	124.76
409.898	110.42
410.107	266.07
410.315	143.19
410.524	159.57
410.733	216.91
410.941	200.53
411.15	173.91
411.358	206.67
411.567	268.11
411.775	212.82
411.984	294.74
412.192	184.15
412.401	245.59
412.609	315.22
412.818	253.78
413.026	315.22
413.234	350.03
413.443	309.07
413.651	323.41
413.86	272.21
414.068	364.37
414.276	356.18
414.485	345.94
414.693	448.33
414.901	434
415.11	413.52
415.318	438.09
415.526	390.99
415.734	499.53
415.943	411.47
416.151	472.91
416.359	376.66
416.567	483.15
416.776	597.84
416.984	452.43
417.192	585.55
417.4	513.87
417.608	462.67
417.817	524.11
418.025	520.01
418.233	640.84
418.441	632.65
418.649	665.42
418.857	747.34
419.065	671.56
419.273	737.1
419.481	841.54
419.689	845.64
419.897	831.3
420.105	819.02
420.313	837.45
420.521	943.94
420.729	927.56
420.937	853.83
421.145	982.85
421.353	1021.77
421.561	1083.2
421.769	1019.72
421.977	1253.19
422.185	1158.98
422.393	1228.61
422.601	1206.08
422.809	1269.57
423.017	1265.47
423.224	1359.68
423.432	1427.26
423.64	1427.26
423.848	1623.87
424.056	1486.65
424.263	1539.9
424.471	1601.34
424.679	1615.68
424.887	1658.68
425.094	1886.01
425.302	1765.18
425.51	1824.57
425.718	1894.2
425.925	1996.6
426.133	1892.15
426.341	2174.77
426.548	2146.1
426.756	2113.33
426.964	2152.24
427.171	2385.71
427.379	2430.77
427.586	2449.2
427.794	2443.06
428.001	2654
428.209	2688.81
428.417	2662.19
428.624	2864.94
428.832	2928.42
429.039	2899.75
429.247	2944.81
429.454	3030.82
429.662	3370.79
429.869	3260.2
430.076	3464.99
430.284	3280.68
430.491	3407.65
430.699	3508
430.906	3639.07
431.114	3745.56
431.321	3847.96
431.528	3823.39
431.736	4108.05
431.943	4294.42
432.15	4185.88
432.358	4177.69
432.565	4572.94
432.772	4435.73
432.979	4677.39
433.187	4917
433.394	4822.8
433.601	5058.31
433.808	4980.49
434.016	5023.5
434.223	5465.86
434.43	5652.22
434.637	5304.07
434.844	5934.84
435.052	5852.92
435.259	6041.34
435.466	6072.06
435.673	5934.84
435.88	6344.44
436.087	6717.17
436.294	6620.91
436.501	6610.67
436.708	6586.1
436.915	6932.2
437.122	7069.42
437.329	7100.14
437.537	7472.87
437.743	7431.91
437.95	7683.81
438.157	7880.41
438.364	8077.02
438.571	8046.3
438.778	8148.7
438.985	9080.52
439.192	8648.4
439.399	8830.67
439.606	8621.78
439.813	9160.39
440.02	9830.08
440.227	9490.12
440.433	9373.38
440.64	9719.49
440.847	9854.65
441.054	9946.81
441.261	10565.3
441.467	10624.69
441.674	10651.31
441.881	11148.97
442.088	11087.53
442.294	10843.82
442.501	11294.38
442.708	11599.52
442.914	11820.7
443.121	12287.64
443.328	12015.26
443.534	12988.05
443.741	12523.16
443.948	12414.62
444.154	13377.16
444.361	13459.08
444.568	13237.9
444.774	13473.42
444.981	13614.73
445.187	14012.03
445.394	14413.43
445.6	14304.89
445.807	15859.3
446.013	15052.4
446.22	15300.2
446.426	15785.57
446.633	16174.69
446.839	16571.99
447.046	15814.24
447.252	16909.91
447.459	16969.3
447.665	16909.91
447.871	17698.38
448.078	18206.27
448.284	17163.86
448.491	18091.59
448.697	18669.11
448.903	18835
449.11	18941.49
449.316	18916.92
449.522	18929.2
449.728	19584.55
449.935	19785.26
450.141	19627.56
450.347	20391.45
450.553	19400.24
450.76	19942.95
450.966	20456.99
451.172	20239.9
451.378	20755.99
451.584	20532.76
451.791	21188.11
451.997	20923.93
452.203	21483.02
452.409	21317.14
452.615	21564.94
452.821	20514.33
453.027	20299.3
453.233	21483.02
453.44	20930.07
453.646	20755.99
453.852	20846.1
454.058	21349.9
454.264	20760.09
454.47	21038.61
454.676	20389.41
454.882	21181.97
455.088	19748.39
455.294	20033.06
455.5	20110.88
455.705	20205.09
455.911	19381.81
456.117	19144.24
456.323	19103.28
456.529	17931.84
456.735	18583.1
456.941	18257.47
457.147	17677.9
457.352	17466.95
457.558	17063.5
457.764	17382.99
457.97	16993.87
458.176	16473.69
458.381	16399.96
458.587	15717.99
458.793	15603.3
458.999	14825.08
459.204	16154.21
459.41	15621.73
459.616	14659.19
459.821	14607.99
460.027	14573.17
460.233	14265.98
460.438	13790.85
460.644	13840
460.85	12988.05
461.055	12787.35
461.261	12881.55
461.466	11681.44
461.672	11329.19
461.878	12562.07
462.083	11527.85
462.289	11112.11
462.494	11120.3
462.7	10585.78
462.905	10413.75
463.111	10653.36
463.316	10698.42
463.522	10544.82
463.727	10698.42
463.932	10352.31
464.138	10225.34
464.343	10534.58
464.549	10094.27
464.754	10467
464.959	10378.93
465.165	10260.15
465.37	10002.11
465.575	9588.42
465.781	9993.92
465.986	9952.96
466.191	9608.9
466.397	9574.08
466.602	9002.7
466.807	9494.21
467.012	9205.45
467.218	9322.18
467.423	9144.01
467.628	9318.09
467.833	9696.96
468.038	9328.33
468.244	9004.75
468.449	9572.04
468.654	9242.31
468.859	8976.08
