Data from USB4F104151__66__13-12-04-296.txt Node

Date: Fri Mar 14 13:12:04 EDT 2025
User: louis
Spectrometer: USB4F10415
Trigger mode: 4
Integration Time (sec): 2.000000E-2
Scans to average: 1
Electric dark correction enabled: true
Nonlinearity correction enabled: false
Boxcar width: 0
XAxis mode: Wavelengths
Number of Pixels in Spectrum: 3648
>>>>>Begin Spectral Data<<<<<
178.204	-92.16
178.424	-92.16
178.644	-92.16
178.864	-126.97
179.084	-184.32
179.304	81.92
179.524	-49.15
179.744	-24.58
179.964	4.1
180.184	61.44
180.404	12.29
180.624	-16.38
180.844	22.53
181.064	-36.86
181.283	-12.29
181.503	-45.06
181.723	2.05
181.943	2.05
182.163	0
182.383	-4.1
182.602	53.25
182.822	102.4
183.042	40.96
183.262	16.38
183.482	30.72
183.701	6.14
183.921	81.92
184.141	-32.77
184.361	-2.05
184.58	-22.53
184.8	-32.77
185.02	-32.77
185.239	34.82
185.459	-73.73
185.679	55.3
185.898	-67.58
186.118	51.2
186.338	-20.48
186.557	32.77
186.777	61.44
186.997	-10.24
187.216	-34.82
187.436	55.3
187.655	2.05
187.875	106.49
188.095	-2.05
188.314	51.2
188.534	94.21
188.753	6.14
188.973	34.82
189.192	4.1
189.412	10.24
189.631	34.82
189.851	36.86
190.07	112.64
190.29	40.96
190.509	-18.43
190.729	36.86
190.948	6.14
191.168	176.13
191.387	45.06
191.607	77.82
191.826	36.86
192.045	30.72
192.265	69.63
192.484	51.2
192.704	20.48
192.923	53.25
193.142	102.4
193.362	-18.43
193.581	90.11
193.8	53.25
194.02	28.67
194.239	-75.77
194.458	38.91
194.678	10.24
194.897	4.1
195.116	-6.14
195.335	32.77
195.555	69.63
195.774	73.73
195.993	36.86
196.212	-2.05
196.432	-32.77
196.651	30.72
196.87	14.34
197.089	47.1
197.308	53.25
197.528	-8.19
197.747	-53.25
197.966	73.73
198.185	28.67
198.404	-73.73
198.623	57.34
198.842	32.77
199.062	-55.3
199.281	55.3
199.5	12.29
199.719	6.14
199.938	6.14
200.157	4.1
200.376	55.3
200.595	71.68
200.814	-12.29
201.033	14.34
201.252	26.62
201.471	-6.14
201.69	-14.34
201.909	47.1
202.128	8.19
202.347	-2.05
202.566	32.77
202.785	45.06
203.004	-12.29
203.223	47.1
203.442	-22.53
203.661	2.05
203.879	-26.62
204.098	12.29
204.317	32.77
204.536	40.96
204.755	63.49
204.974	90.11
205.193	24.58
205.411	-6.14
205.63	94.21
205.849	90.11
206.068	45.06
206.287	36.86
206.505	-4.1
206.724	45.06
206.943	65.54
207.162	-2.05
207.381	122.88
207.599	43.01
207.818	20.48
208.037	8.19
208.255	79.87
208.474	4.1
208.693	67.58
208.911	-22.53
209.13	45.06
209.349	61.44
209.567	24.58
209.786	8.19
210.005	32.77
210.223	34.82
210.442	-73.73
210.661	75.77
210.879	65.54
211.098	-6.14
211.316	-8.19
211.535	40.96
211.753	-67.58
211.972	0
212.191	-53.25
212.409	2.05
212.628	45.06
212.846	14.34
213.065	47.1
213.283	6.14
213.502	28.67
213.72	-28.67
213.938	-67.58
214.157	20.48
214.375	22.53
214.594	0
214.812	14.34
215.031	45.06
215.249	61.44
215.467	-12.29
215.686	-16.38
215.904	51.2
216.122	2.05
216.341	71.68
216.559	-2.05
216.778	-36.86
216.996	-18.43
217.214	-49.15
217.432	-40.96
217.651	83.97
217.869	-6.14
218.087	57.34
218.306	20.48
218.524	57.34
218.742	-73.73
218.96	30.72
219.179	4.1
219.397	6.14
219.615	49.15
219.833	77.82
220.051	8.19
220.27	38.91
220.488	-10.24
220.706	8.19
220.924	53.25
221.142	40.96
221.36	-32.77
221.578	53.25
221.796	-26.62
222.015	59.39
222.233	-18.43
222.451	110.59
222.669	-51.2
222.887	69.63
223.105	40.96
223.323	100.35
223.541	-18.43
223.759	79.87
223.977	-4.1
224.195	20.48
224.413	98.3
224.631	-20.48
224.849	34.82
225.067	73.73
225.285	-28.67
225.503	30.72
225.721	-43.01
225.939	104.45
226.157	-20.48
226.375	135.17
226.592	2.05
226.81	-28.67
227.028	30.72
227.246	81.92
227.464	-26.62
227.682	63.49
227.9	-67.58
228.117	73.73
228.335	14.34
228.553	4.1
228.771	24.58
228.989	45.06
229.206	8.19
229.424	36.86
229.642	-16.38
229.86	38.91
230.077	47.1
230.295	63.49
230.513	53.25
230.731	120.83
230.948	8.19
231.166	43.01
231.384	51.2
231.601	0
231.819	40.96
232.037	32.77
232.254	-47.1
232.472	55.3
232.689	40.96
232.907	77.82
233.125	49.15
233.342	6.14
233.56	32.77
233.777	73.73
233.995	71.68
234.213	81.92
234.43	-26.62
234.648	-79.87
234.865	30.72
235.083	22.53
235.3	-16.38
235.518	98.3
235.735	4.1
235.953	47.1
236.17	45.06
236.388	-18.43
236.605	20.48
236.822	49.15
237.04	63.49
237.257	20.48
237.475	-75.77
237.692	40.96
237.909	112.64
238.127	8.19
238.344	30.72
238.562	28.67
238.779	45.06
238.996	-8.19
239.214	49.15
239.431	8.19
239.648	47.1
239.865	-36.86
240.083	77.82
240.3	28.67
240.517	43.01
240.735	30.72
240.952	-51.2
241.169	28.67
241.386	-8.19
241.603	16.38
241.821	12.29
242.038	69.63
242.255	30.72
242.472	75.77
242.689	81.92
242.907	71.68
243.124	65.54
243.341	-2.05
243.558	-8.19
243.775	16.38
243.992	-10.24
244.209	81.92
244.426	30.72
244.643	-14.34
244.86	38.91
245.078	81.92
245.295	45.06
245.512	86.01
245.729	-18.43
245.946	14.34
246.163	-12.29
246.38	65.54
246.597	-4.1
246.814	36.86
247.031	12.29
247.248	8.19
247.464	2.05
247.681	-8.19
247.898	77.82
248.115	-16.38
248.332	20.48
248.549	45.06
248.766	65.54
248.983	8.19
249.2	22.53
249.417	71.68
249.633	20.48
249.85	63.49
250.067	86.01
250.284	38.91
250.501	36.86
250.717	26.62
250.934	59.39
251.151	32.77
251.368	-53.25
251.585	61.44
251.801	34.82
252.018	40.96
252.235	94.21
252.451	-20.48
252.668	-6.14
252.885	79.87
253.102	14.34
253.318	63.49
253.535	0
253.752	38.91
253.968	20.48
254.185	75.77
254.401	10.24
254.618	36.86
254.835	45.06
255.051	45.06
255.268	8.19
255.484	4.1
255.701	32.77
255.917	28.67
256.134	38.91
256.351	0
256.567	51.2
256.784	61.44
257	43.01
257.217	-4.1
257.433	6.14
257.65	67.58
257.866	49.15
258.082	-10.24
258.299	-4.1
258.515	34.82
258.732	0
258.948	49.15
259.165	55.3
259.381	-28.67
259.597	77.82
259.814	77.82
260.03	-10.24
260.246	77.82
260.463	24.58
260.679	51.2
260.895	88.06
261.112	110.59
261.328	36.86
261.544	81.92
261.761	118.78
261.977	57.34
262.193	38.91
262.409	40.96
262.626	26.62
262.842	53.25
263.058	8.19
263.274	8.19
263.49	30.72
263.707	36.86
263.923	38.91
264.139	-30.72
264.355	32.77
264.571	24.58
264.787	18.43
265.004	38.91
265.22	2.05
265.436	18.43
265.652	12.29
265.868	-24.58
266.084	12.29
266.3	26.62
266.516	18.43
266.732	2.05
266.948	12.29
267.164	20.48
267.38	104.45
267.596	118.78
267.812	14.34
268.028	-20.48
268.244	28.67
268.46	2.05
268.676	73.73
268.892	24.58
269.108	24.58
269.324	-8.19
269.54	-59.39
269.756	57.34
269.972	26.62
270.188	-2.05
270.403	34.82
270.619	-32.77
270.835	20.48
271.051	28.67
271.267	-14.34
271.483	0
271.698	20.48
271.914	81.92
272.13	43.01
272.346	45.06
272.562	73.73
272.777	6.14
272.993	16.38
273.209	20.48
273.425	32.77
273.64	38.91
273.856	102.4
274.072	-32.77
274.287	-10.24
274.503	16.38
274.719	36.86
274.934	79.87
275.15	16.38
275.366	-77.82
275.581	-2.05
275.797	-28.67
276.012	-18.43
276.228	73.73
276.444	51.2
276.659	30.72
276.875	20.48
277.09	34.82
277.306	77.82
277.521	22.53
277.737	-26.62
277.952	51.2
278.168	77.82
278.383	112.64
278.599	20.48
278.814	-49.15
279.03	22.53
279.245	-22.53
279.461	-4.1
279.676	-20.48
279.892	-18.43
280.107	-51.2
280.322	12.29
280.538	49.15
280.753	30.72
280.969	30.72
281.184	57.34
281.399	133.12
281.615	71.68
281.83	6.14
282.045	-38.91
282.26	24.58
282.476	14.34
282.691	67.58
282.906	-2.05
283.122	-16.38
283.337	0
283.552	49.15
283.767	-4.1
283.983	40.96
284.198	61.44
284.413	86.01
284.628	40.96
284.843	38.91
285.058	24.58
285.274	38.91
285.489	65.54
285.704	30.72
285.919	40.96
286.134	-24.58
286.349	22.53
286.564	57.34
286.779	6.14
286.995	22.53
287.21	-49.15
287.425	28.67
287.64	28.67
287.855	63.49
288.07	0
288.285	45.06
288.5	20.48
288.715	61.44
288.93	65.54
289.145	36.86
289.36	-4.1
289.575	20.48
289.79	43.01
290.004	61.44
290.219	51.2
290.434	53.25
290.649	8.19
290.864	36.86
291.079	69.63
291.294	63.49
291.509	36.86
291.724	6.14
291.938	-43.01
292.153	77.82
292.368	16.38
292.583	96.25
292.798	73.73
293.012	20.48
293.227	8.19
293.442	69.63
293.657	61.44
293.871	47.1
294.086	-6.14
294.301	65.54
294.516	36.86
294.73	45.06
294.945	45.06
295.16	-53.25
295.374	79.87
295.589	133.12
295.804	28.67
296.018	-30.72
296.233	77.82
296.447	63.49
296.662	-12.29
296.877	22.53
297.091	10.24
297.306	-10.24
297.52	63.49
297.735	-71.68
297.949	2.05
298.164	14.34
298.378	0
298.593	90.11
298.807	12.29
299.022	43.01
299.236	20.48
299.451	53.25
299.665	28.67
299.88	61.44
300.094	86.01
300.309	20.48
300.523	69.63
300.737	2.05
300.952	61.44
301.166	-49.15
301.381	51.2
301.595	6.14
301.809	8.19
302.024	47.1
302.238	18.43
302.452	28.67
302.667	45.06
302.881	149.5
303.095	12.29
303.309	36.86
303.524	-8.19
303.738	16.38
303.952	38.91
304.166	38.91
304.381	-22.53
304.595	12.29
304.809	61.44
305.023	61.44
305.237	34.82
305.452	-24.58
305.666	49.15
305.88	53.25
306.094	110.59
306.308	20.48
306.522	77.82
306.736	22.53
306.95	114.69
307.164	32.77
307.379	36.86
307.593	45.06
307.807	90.11
308.021	53.25
308.235	-77.82
308.449	18.43
308.663	-34.82
308.877	135.17
309.091	-4.1
309.305	12.29
309.519	49.15
309.733	81.92
309.947	32.77
310.161	-16.38
310.374	-2.05
310.588	55.3
310.802	18.43
311.016	43.01
311.23	30.72
311.444	61.44
311.658	110.59
311.872	12.29
312.085	22.53
312.299	63.49
312.513	63.49
312.727	-12.29
312.941	45.06
313.154	122.88
313.368	-2.05
313.582	73.73
313.796	26.62
314.009	16.38
314.223	-40.96
314.437	79.87
314.651	65.54
314.864	59.39
315.078	30.72
315.292	18.43
315.505	38.91
315.719	45.06
315.933	2.05
316.146	6.14
316.36	45.06
316.573	77.82
316.787	71.68
317.001	-10.24
317.214	30.72
317.428	22.53
317.641	-12.29
317.855	53.25
318.068	16.38
318.282	51.2
318.495	92.16
318.709	94.21
318.922	10.24
319.136	57.34
319.349	100.35
319.563	-30.72
319.776	40.96
319.99	4.1
320.203	-22.53
320.417	-20.48
320.63	20.48
320.843	122.88
321.057	49.15
321.27	34.82
321.483	-14.34
321.697	100.35
321.91	12.29
322.124	57.34
322.337	12.29
322.55	30.72
322.763	36.86
322.977	-45.06
323.19	61.44
323.403	16.38
323.617	77.82
323.83	88.06
324.043	83.97
324.256	14.34
324.469	16.38
324.683	77.82
324.896	24.58
325.109	47.1
325.322	26.62
325.535	114.69
325.748	61.44
325.962	61.44
326.175	18.43
326.388	6.14
326.601	116.73
326.814	32.77
327.027	69.63
327.24	69.63
327.453	14.34
327.666	2.05
327.879	47.1
328.092	102.4
328.305	38.91
328.518	38.91
328.731	16.38
328.944	30.72
329.157	32.77
329.37	8.19
329.583	69.63
329.796	30.72
330.009	53.25
330.222	4.1
330.435	40.96
330.648	65.54
330.861	57.34
331.073	32.77
331.286	63.49
331.499	40.96
331.712	63.49
331.925	45.06
332.138	2.05
332.35	110.59
332.563	77.82
332.776	8.19
332.989	28.67
333.202	10.24
333.414	49.15
333.627	69.63
333.84	45.06
334.053	24.58
334.265	67.58
334.478	16.38
334.691	51.2
334.903	55.3
335.116	18.43
335.329	47.1
335.541	36.86
335.754	57.34
335.966	4.1
336.179	55.3
336.392	-38.91
336.604	14.34
336.817	110.59
337.029	100.35
337.242	4.1
337.454	14.34
337.667	-14.34
337.88	94.21
338.092	-38.91
338.305	102.4
338.517	61.44
338.729	55.3
338.942	61.44
339.154	47.1
339.367	88.06
339.579	86.01
339.792	43.01
340.004	12.29
340.217	55.3
340.429	104.45
340.641	-2.05
340.854	14.34
341.066	38.91
341.278	55.3
341.491	71.68
341.703	30.72
341.915	75.77
342.128	112.64
342.34	32.77
342.552	61.44
342.764	51.2
342.977	34.82
343.189	47.1
343.401	-61.44
343.613	49.15
343.826	63.49
344.038	14.34
344.25	38.91
344.462	36.86
344.674	69.63
344.886	2.05
345.099	45.06
345.311	51.2
345.523	53.25
345.735	38.91
345.947	28.67
346.159	26.62
346.371	36.86
346.583	26.62
346.795	16.38
347.007	69.63
347.219	28.67
347.431	-10.24
347.643	79.87
347.855	77.82
348.067	65.54
348.279	-4.1
348.491	20.48
348.703	-8.19
348.915	0
349.127	30.72
349.339	-16.38
349.551	30.72
349.763	28.67
349.975	75.77
350.187	126.97
350.399	14.34
350.61	10.24
350.822	-28.67
351.034	102.4
351.246	12.29
351.458	12.29
351.669	-8.19
351.881	12.29
352.093	-8.19
352.305	126.97
352.517	71.68
352.728	61.44
352.94	77.82
353.152	114.69
353.363	24.58
353.575	71.68
353.787	8.19
353.999	71.68
354.21	16.38
354.422	-10.24
354.633	6.14
354.845	-2.05
355.057	-10.24
355.268	59.39
355.48	-14.34
355.692	47.1
355.903	-18.43
356.115	36.86
356.326	-30.72
356.538	86.01
356.749	49.15
356.961	96.25
357.172	67.58
357.384	53.25
357.595	135.17
357.807	6.14
358.018	65.54
358.23	94.21
358.441	32.77
358.653	-2.05
358.864	12.29
359.075	83.97
359.287	4.1
359.498	73.73
359.709	40.96
359.921	14.34
360.132	67.58
360.344	6.14
360.555	36.86
360.766	88.06
360.977	53.25
361.189	34.82
361.4	4.1
361.611	34.82
361.823	86.01
362.034	63.49
362.245	-53.25
362.456	59.39
362.667	131.07
362.879	69.63
363.09	49.15
363.301	151.55
363.512	114.69
363.723	65.54
363.935	45.06
364.146	59.39
364.357	26.62
364.568	65.54
364.779	45.06
364.99	92.16
365.201	10.24
365.412	16.38
365.623	8.19
365.834	141.31
366.045	63.49
366.256	-18.43
366.467	26.62
366.678	57.34
366.889	-32.77
367.1	135.17
367.311	86.01
367.522	79.87
367.733	-14.34
367.944	88.06
368.155	36.86
368.366	49.15
368.577	40.96
368.788	96.25
368.999	24.58
369.209	6.14
369.42	96.25
369.631	47.1
369.842	12.29
370.053	26.62
370.264	75.77
370.474	49.15
370.685	0
370.896	34.82
371.107	69.63
371.317	55.3
371.528	98.3
371.739	129.02
371.95	86.01
372.16	32.77
372.371	40.96
372.582	26.62
372.792	-14.34
373.003	88.06
373.214	53.25
373.424	88.06
373.635	18.43
373.846	28.67
374.056	38.91
374.267	-4.1
374.477	43.01
374.688	14.34
374.898	112.64
375.109	12.29
375.319	51.2
375.53	49.15
375.74	71.68
375.951	28.67
376.161	71.68
376.372	59.39
376.582	65.54
376.793	75.77
377.003	57.34
377.214	90.11
377.424	88.06
377.635	14.34
377.845	77.82
378.055	98.3
378.266	45.06
378.476	-12.29
378.686	40.96
378.897	104.45
379.107	40.96
379.317	63.49
379.528	20.48
379.738	92.16
379.948	4.1
380.158	12.29
380.369	16.38
380.579	28.67
380.789	92.16
380.999	53.25
381.21	49.15
381.42	65.54
381.63	53.25
381.84	88.06
382.05	77.82
382.261	51.2
382.471	61.44
382.681	96.25
382.891	143.36
383.101	22.53
383.311	26.62
383.521	-6.14
383.731	45.06
383.941	30.72
384.151	10.24
384.361	-10.24
384.571	81.92
384.781	-51.2
384.991	118.78
385.201	73.73
385.411	118.78
385.621	55.3
385.831	-4.1
386.041	28.67
386.251	49.15
386.461	-2.05
386.671	55.3
386.881	-6.14
387.091	40.96
387.301	167.93
387.511	98.3
387.72	26.62
387.93	32.77
388.14	53.25
388.35	63.49
388.56	69.63
388.769	79.87
388.979	88.06
389.189	77.82
389.399	114.69
389.609	61.44
389.818	92.16
390.028	43.01
390.238	77.82
390.447	16.38
390.657	67.58
390.867	45.06
391.076	-18.43
391.286	55.3
391.496	36.86
391.705	77.82
391.915	73.73
392.125	81.92
392.334	49.15
392.544	63.49
392.753	61.44
392.963	14.34
393.172	57.34
393.382	43.01
393.591	131.07
393.801	12.29
394.01	77.82
394.22	57.34
394.429	110.59
394.639	20.48
394.848	81.92
395.058	40.96
395.267	47.1
395.477	40.96
395.686	28.67
395.895	167.93
396.105	69.63
396.314	79.87
396.524	90.11
396.733	139.26
396.942	36.86
397.152	75.77
397.361	112.64
397.57	155.65
397.78	98.3
397.989	71.68
398.198	167.93
398.407	77.82
398.617	106.49
398.826	110.59
399.035	83.97
399.244	98.3
399.453	65.54
399.663	131.07
399.872	63.49
400.081	188.41
400.29	71.68
400.499	100.35
400.708	163.84
400.917	75.77
401.127	40.96
401.336	59.39
401.545	120.83
401.754	122.88
401.963	55.3
402.172	163.84
402.381	100.35
402.59	43.01
402.799	106.49
403.008	153.6
403.217	53.25
403.426	94.21
403.635	18.43
403.844	139.26
404.053	167.93
404.262	83.97
404.471	133.12
404.68	143.36
404.888	145.41
405.097	30.72
405.306	61.44
405.515	114.69
405.724	96.25
405.933	188.41
406.142	77.82
406.35	194.56
406.559	147.45
406.768	215.04
406.977	239.61
407.185	200.7
407.394	147.45
407.603	131.07
407.812	210.94
408.02	174.08
408.229	223.23
408.438	172.03
408.646	223.23
408.855	223.23
409.064	276.48
409.272	206.84
409.481	245.76
409.69	221.18
409.898	233.47
410.107	282.62
410.315	286.72
410.524	180.22
410.733	256
410.941	264.19
411.15	368.63
411.358	323.58
411.567	325.63
411.775	274.43
411.984	313.34
412.192	387.07
412.401	395.26
412.609	466.94
412.818	397.31
413.026	425.98
413.234	378.87
413.443	503.8
413.651	454.65
413.86	468.98
414.068	497.66
414.276	542.71
414.485	446.46
414.693	569.34
414.901	579.58
415.11	520.18
415.318	577.53
415.526	616.44
415.734	577.53
415.943	727.03
416.151	659.45
416.359	698.36
416.567	811
416.776	724.98
416.984	884.72
417.192	784.37
417.4	823.28
417.608	858.1
417.817	815.09
418.025	909.3
418.233	1042.42
418.441	937.97
418.649	1132.53
418.857	987.12
419.065	1150.96
419.273	987.12
419.481	1173.49
419.689	1144.81
419.897	1175.53
420.105	1261.55
420.313	1284.08
420.521	1382.38
420.729	1431.53
420.937	1501.16
421.145	1499.11
421.353	1495.02
421.561	1728.49
421.769	1673.19
421.977	1710.05
422.185	1826.79
422.393	1789.92
422.601	1986.53
422.809	1947.62
423.017	1914.85
423.224	2101.22
423.432	2070.5
423.64	2123.74
423.848	2213.85
424.056	2185.18
424.263	2373.6
424.471	2373.6
424.679	2353.12
424.887	2627.54
425.094	2707.41
425.302	2605.02
425.51	2822.1
425.718	2772.95
425.925	2938.84
426.133	2985.94
426.341	3041.23
426.548	3366.86
426.756	3295.18
426.964	3373
427.171	3606.47
427.379	3710.92
427.586	3696.58
427.794	3878.85
428.001	3995.59
428.209	4153.28
428.417	4130.75
428.624	4349.89
428.832	4349.89
429.039	4470.72
429.247	4440
429.454	4800.44
429.662	5015.48
429.869	4765.62
430.076	4966.32
430.284	5081.01
430.491	5214.13
430.699	5521.32
430.906	5498.8
431.114	5531.56
431.321	5762.98
431.528	5849
431.736	6268.83
431.943	6506.4
432.15	6266.78
432.358	6389.66
432.565	6737.82
432.772	6696.86
432.979	7221.14
433.187	7159.7
433.394	7278.48
433.601	7675.79
433.808	7942.02
434.016	7853.96
434.223	8040.33
434.43	8488.83
434.637	8202.11
434.844	8769.4
435.052	9006.97
435.259	8925.05
435.466	9189.24
435.673	9105.27
435.88	9549.68
436.087	9951.08
436.294	10006.38
436.501	9701.23
436.708	10137.45
436.915	10407.78
437.122	10870.62
437.329	10930.01
437.537	11132.76
437.743	11480.91
437.95	11349.84
438.157	11757.39
438.364	12144.45
438.571	12285.76
438.778	12240.71
438.985	13471.54
439.192	12980.03
439.399	13410.1
439.606	13057.85
439.813	13639.47
440.02	14720.8
440.227	14233.38
440.433	14128.94
440.64	14479.14
440.847	14225.19
441.054	15003.42
441.261	15785.74
441.467	15716.11
441.674	16006.92
441.881	16652.03
442.088	16619.27
442.294	16299.78
442.501	16873.21
442.708	17411.83
442.914	18013.93
443.121	18761.44
443.328	17889.01
443.534	19451.61
443.741	18937.57
443.948	18855.65
444.154	20025.04
444.361	20078.29
444.568	20074.19
444.774	19824.34
444.981	20037.33
445.187	20807.36
445.394	21745.33
445.6	21608.12
445.807	23727.77
446.013	22886.05
446.22	22722.21
446.426	23770.77
446.633	24204.94
446.839	25011.84
447.046	23924.37
447.252	25218.69
447.459	25208.45
447.665	24948.36
447.871	26508.91
448.078	27346.53
448.284	26076.79
448.491	26709.61
448.697	28126.8
448.903	28503.63
449.11	28429.9
449.316	28102.23
449.522	28614.22
449.728	28980.81
449.935	29615.68
450.141	29634.11
450.347	30246.45
450.553	29603.39
450.76	29863.48
450.966	30395.95
451.172	30330.42
451.378	30852.65
451.584	30203.44
451.791	30961.19
451.997	31182.37
452.203	31358.5
452.409	31780.38
452.615	31645.21
452.821	30680.62
453.027	30084.66
453.233	31819.29
453.44	30717.48
453.646	30643.76
453.852	31243.81
454.058	31551.01
454.264	30451.25
454.47	31651.36
454.676	30428.72
454.882	31743.52
455.088	28712.52
455.294	29560.38
455.5	29933.11
455.705	29994.55
455.911	28796.49
456.117	28573.26
456.323	28063.32
456.529	26396.27
456.735	27790.94
456.941	27041.38
457.147	26752.62
457.352	25611.9
457.558	25695.86
457.764	25527.93
457.97	25372.28
458.176	24811.14
458.381	24954.5
458.587	23549.59
458.793	23316.12
458.999	22144.69
459.204	23817.88
459.41	23303.84
459.616	21556.92
459.821	21720.76
460.027	21388.99
460.233	21081.79
460.438	20190.92
460.644	20432.58
460.85	19394.26
461.055	19349.21
461.261	19070.68
461.466	17743.6
461.672	17043.2
461.878	18265.83
462.083	17321.72
462.289	16983.8
462.494	16713.47
462.7	15855.37
462.905	15312.66
463.111	16008.97
463.316	16041.74
463.522	15931.15
463.727	15712.02
463.932	15689.49
464.138	15691.54
464.343	15613.71
464.549	15206.17
464.754	15460.12
464.959	15374.1
465.165	15376.15
465.37	14708.51
465.575	14165.8
465.781	14837.53
465.986	14972.7
466.191	14251.81
466.397	14184.23
466.602	13547.31
466.807	13981.48
467.012	13864.75
467.218	13827.89
467.423	13649.71
467.628	13633.33
467.833	14331.69
468.038	14047.02
468.244	13471.54
468.449	14026.54
468.654	13557.55
