Data from USB4F104151__58__13-11-44-358.txt Node

Date: Fri Mar 14 13:11:44 EDT 2025
User: louis
Spectrometer: USB4F10415
Trigger mode: 4
Integration Time (sec): 2.000000E-2
Scans to average: 1
Electric dark correction enabled: true
Nonlinearity correction enabled: false
Boxcar width: 0
XAxis mode: Wavelengths
Number of Pixels in Spectrum: 3648
>>>>>Begin Spectral Data<<<<<
178.204	-52.05
178.424	-52.05
178.644	-52.05
178.864	-121.68
179.084	-121.68
179.304	-47.96
179.524	-35.67
179.744	25.77
179.964	-19.29
180.184	31.91
180.404	-50
180.624	31.91
180.844	-25.43
181.064	23.72
181.283	27.82
181.503	29.87
181.723	7.34
181.943	-50
182.163	36.01
182.383	42.15
182.602	40.11
182.822	79.02
183.042	9.39
183.262	29.87
183.482	13.48
183.701	21.67
183.921	21.67
184.141	-35.67
184.361	-9.05
184.58	11.43
184.8	15.53
185.02	9.39
185.239	27.82
185.459	-2.9
185.679	7.34
185.898	-29.52
186.118	15.53
186.338	5.29
186.557	33.96
186.777	-35.67
186.997	-52.05
187.216	-37.72
187.436	62.63
187.655	72.87
187.875	42.15
188.095	-23.38
188.314	13.48
188.534	31.91
188.753	56.49
188.973	70.83
189.192	38.06
189.412	21.67
189.631	-15.19
189.851	-4.95
190.07	113.83
190.29	-31.57
190.509	105.64
190.729	-33.62
190.948	40.11
191.168	128.17
191.387	27.82
191.607	19.63
191.826	21.67
192.045	-27.48
192.265	-43.86
192.484	11.43
192.704	-23.38
192.923	38.06
193.142	25.77
193.362	70.83
193.581	23.72
193.8	54.44
194.02	38.06
194.239	15.53
194.458	23.72
194.678	42.15
194.897	23.72
195.116	27.82
195.335	-23.38
195.555	-35.67
195.774	-47.96
195.993	17.58
196.212	68.78
196.432	54.44
196.651	76.97
196.87	-60.24
197.089	138.41
197.308	21.67
197.528	-25.43
197.747	-19.29
197.966	33.96
198.185	56.49
198.404	17.58
198.623	15.53
198.842	-2.9
199.062	68.78
199.281	40.11
199.5	31.91
199.719	42.15
199.938	-15.19
200.157	70.83
200.376	-0.85
200.595	29.87
200.814	44.2
201.033	-37.72
201.252	56.49
201.471	36.01
201.69	83.11
201.909	105.64
202.128	36.01
202.347	79.02
202.566	17.58
202.785	19.63
203.004	-11.09
203.223	68.78
203.442	31.91
203.661	9.39
203.879	-0.85
204.098	29.87
204.317	9.39
204.536	42.15
204.755	-11.09
204.974	46.25
205.193	70.83
205.411	54.44
205.63	60.59
205.849	29.87
206.068	70.83
206.287	11.43
206.505	33.96
206.724	5.29
206.943	15.53
207.162	-15.19
207.381	3.24
207.599	62.63
207.818	62.63
208.037	15.53
208.255	15.53
208.474	-25.43
208.693	-15.19
208.911	7.34
209.13	27.82
209.349	31.91
209.567	38.06
209.786	50.35
210.005	-29.52
210.223	-11.09
210.442	-7
210.661	-11.09
210.879	17.58
211.098	9.39
211.316	107.69
211.535	48.3
211.753	54.44
211.972	38.06
212.191	-66.39
212.409	70.83
212.628	107.69
212.846	62.63
213.065	-33.62
213.283	42.15
213.502	79.02
213.72	-23.38
213.938	25.77
214.157	-41.81
214.375	93.35
214.594	103.59
214.812	-11.09
215.031	66.73
215.249	1.19
215.467	33.96
215.686	23.72
215.904	50.35
216.122	23.72
216.341	29.87
216.559	-31.57
216.778	17.58
216.996	76.97
217.214	3.24
217.432	17.58
217.651	56.49
217.869	23.72
218.087	54.44
218.306	40.11
218.524	36.01
218.742	-21.33
218.96	7.34
219.179	-2.9
219.397	-41.81
219.615	23.72
219.833	15.53
220.051	-41.81
220.27	83.11
220.488	36.01
220.706	29.87
220.924	-29.52
221.142	-13.14
221.36	19.63
221.578	70.83
221.796	136.36
222.015	50.35
222.233	5.29
222.451	19.63
222.669	68.78
222.887	23.72
223.105	-56.15
223.323	46.25
223.541	99.5
223.759	-50
223.977	42.15
224.195	56.49
224.413	66.73
224.631	-33.62
224.849	21.67
225.067	50.35
225.285	27.82
225.503	70.83
225.721	15.53
225.939	15.53
226.157	115.88
226.375	87.21
226.592	19.63
226.81	54.44
227.028	42.15
227.246	50.35
227.464	17.58
227.682	27.82
227.9	64.68
228.117	66.73
228.335	29.87
228.553	-11.09
228.771	-76.63
228.989	48.3
229.206	19.63
229.424	44.2
229.642	29.87
229.86	-72.53
230.077	-2.9
230.295	21.67
230.513	79.02
230.731	-2.9
230.948	66.73
231.166	13.48
231.384	25.77
231.601	17.58
231.819	13.48
232.037	-9.05
232.254	-19.29
232.472	23.72
232.689	23.72
232.907	48.3
233.125	-9.05
233.342	9.39
233.56	9.39
233.777	-11.09
233.995	-9.05
234.213	79.02
234.43	46.25
234.648	-82.77
234.865	-29.52
235.083	-29.52
235.3	-95.06
235.518	54.44
235.735	-43.86
235.953	48.3
236.17	-43.86
236.388	-9.05
236.605	7.34
236.822	36.01
237.04	54.44
237.257	-11.09
237.475	1.19
237.692	29.87
237.909	25.77
238.127	-17.24
238.344	25.77
238.562	-45.91
238.779	50.35
238.996	3.24
239.214	-27.48
239.431	-7
239.648	99.5
239.865	-17.24
240.083	-31.57
240.3	-7
240.517	40.11
240.735	58.54
240.952	46.25
241.169	-9.05
241.386	76.97
241.603	85.16
241.821	7.34
242.038	15.53
242.255	23.72
242.472	-4.95
242.689	66.73
242.907	48.3
243.124	-13.14
243.341	54.44
243.558	-2.9
243.775	48.3
243.992	-70.48
244.209	1.19
244.426	-0.85
244.643	50.35
244.86	5.29
245.078	81.07
245.295	-9.05
245.512	46.25
245.729	-15.19
245.946	72.87
246.163	29.87
246.38	54.44
246.597	52.39
246.814	56.49
247.031	46.25
247.248	60.59
247.464	50.35
247.681	29.87
247.898	44.2
248.115	1.19
248.332	-52.05
248.549	21.67
248.766	50.35
248.983	29.87
249.2	74.92
249.417	29.87
249.633	-17.24
249.85	68.78
250.067	5.29
250.284	27.82
250.501	91.31
250.717	40.11
250.934	-27.48
251.151	-54.1
251.368	38.06
251.585	27.82
251.801	17.58
252.018	-52.05
252.235	70.83
252.451	9.39
252.668	62.63
252.885	79.02
253.102	93.35
253.318	15.53
253.535	58.54
253.752	-41.81
253.968	7.34
254.185	-29.52
254.401	23.72
254.618	3.24
254.835	-7
255.051	97.45
255.268	126.12
255.484	52.39
255.701	1.19
255.917	1.19
256.134	5.29
256.351	48.3
256.567	-47.96
256.784	31.91
257	7.34
257.217	46.25
257.433	17.58
257.65	119.98
257.866	29.87
258.082	-93.01
258.299	52.39
258.515	-27.48
258.732	1.19
258.948	64.68
259.165	60.59
259.381	62.63
259.597	27.82
259.814	-9.05
260.03	-7
260.246	50.35
260.463	29.87
260.679	33.96
260.895	40.11
261.112	5.29
261.328	1.19
261.544	-7
261.761	87.21
261.977	3.24
262.193	15.53
262.409	23.72
262.626	38.06
262.842	23.72
263.058	52.39
263.274	46.25
263.49	54.44
263.707	27.82
263.923	56.49
264.139	44.2
264.355	-52.05
264.571	1.19
264.787	-11.09
265.004	66.73
265.22	36.01
265.436	19.63
265.652	-2.9
265.868	40.11
266.084	-33.62
266.3	3.24
266.516	-9.05
266.732	31.91
266.948	109.74
267.164	-7
267.38	5.29
267.596	38.06
267.812	62.63
268.028	21.67
268.244	-43.86
268.46	7.34
268.676	17.58
268.892	62.63
269.108	46.25
269.324	-74.58
269.54	1.19
269.756	91.31
269.972	13.48
270.188	62.63
270.403	-25.43
270.619	13.48
270.835	66.73
271.051	-25.43
271.267	-35.67
271.483	-35.67
271.698	50.35
271.914	97.45
272.13	3.24
272.346	70.83
272.562	-43.86
272.777	29.87
272.993	105.64
273.209	50.35
273.425	40.11
273.64	87.21
273.856	21.67
274.072	62.63
274.287	-11.09
274.503	23.72
274.719	-41.81
274.934	27.82
275.15	-76.63
275.366	-23.38
275.581	-9.05
275.797	17.58
276.012	97.45
276.228	54.44
276.444	42.15
276.659	60.59
276.875	-43.86
277.09	1.19
277.306	-17.24
277.521	19.63
277.737	-74.58
277.952	23.72
278.168	42.15
278.383	-35.67
278.599	29.87
278.814	-11.09
279.03	29.87
279.245	70.83
279.461	-58.2
279.676	-19.29
279.892	-76.63
280.107	7.34
280.322	-37.72
280.538	29.87
280.753	38.06
280.969	1.19
281.184	23.72
281.399	81.07
281.615	74.92
281.83	72.87
282.045	29.87
282.26	70.83
282.476	25.77
282.691	46.25
282.906	-64.34
283.122	21.67
283.337	5.29
283.552	-11.09
283.767	70.83
283.983	-25.43
284.198	79.02
284.413	150.7
284.628	-21.33
284.843	31.91
285.058	17.58
285.274	64.68
285.489	29.87
285.704	36.01
285.919	-95.06
286.134	9.39
286.349	52.39
286.564	29.87
286.779	79.02
286.995	87.21
287.21	1.19
287.425	81.07
287.64	13.48
287.855	27.82
288.07	3.24
288.285	46.25
288.5	5.29
288.715	-37.72
288.93	-27.48
289.145	5.29
289.36	17.58
289.575	40.11
289.79	79.02
290.004	31.91
290.219	56.49
290.434	97.45
290.649	38.06
290.864	44.2
291.079	17.58
291.294	-23.38
291.509	-33.62
291.724	5.29
291.938	1.19
292.153	48.3
292.368	-17.24
292.583	-9.05
292.798	19.63
293.012	40.11
293.227	23.72
293.442	-52.05
293.657	-41.81
293.871	38.06
294.086	40.11
294.301	-23.38
294.516	56.49
294.73	36.01
294.945	15.53
295.16	56.49
295.374	46.25
295.589	40.11
295.804	5.29
296.018	29.87
296.233	130.22
296.447	54.44
296.662	-31.57
296.877	54.44
297.091	93.35
297.306	-19.29
297.52	46.25
297.735	40.11
297.949	36.01
298.164	50.35
298.378	36.01
298.593	5.29
298.807	-60.24
299.022	-27.48
299.236	50.35
299.451	83.11
299.665	91.31
299.88	136.36
300.094	36.01
300.309	21.67
300.523	19.63
300.737	38.06
300.952	3.24
301.166	-19.29
301.381	-7
301.595	-11.09
301.809	33.96
302.024	56.49
302.238	-41.81
302.452	111.78
302.667	42.15
302.881	97.45
303.095	23.72
303.309	21.67
303.524	38.06
303.738	97.45
303.952	7.34
304.166	40.11
304.381	11.43
304.595	70.83
304.809	42.15
305.023	-11.09
305.237	-0.85
305.452	-0.85
305.666	19.63
305.88	54.44
306.094	97.45
306.308	46.25
306.522	83.11
306.736	33.96
306.95	103.59
307.164	36.01
307.379	40.11
307.593	91.31
307.807	83.11
308.021	56.49
308.235	31.91
308.449	-7
308.663	-33.62
308.877	58.54
309.091	17.58
309.305	62.63
309.519	64.68
309.733	15.53
309.947	-4.95
310.161	-13.14
310.374	29.87
310.588	72.87
310.802	40.11
311.016	-4.95
311.23	68.78
311.444	-2.9
311.658	46.25
311.872	27.82
312.085	11.43
312.299	119.98
312.513	91.31
312.727	-9.05
312.941	-7
313.154	44.2
313.368	5.29
313.582	50.35
313.796	-27.48
314.009	-19.29
314.223	48.3
314.437	-7
314.651	-17.24
314.864	-4.95
315.078	7.34
315.292	-15.19
315.505	27.82
315.719	7.34
315.933	23.72
316.146	-13.14
316.36	-23.38
316.573	-2.9
316.787	48.3
317.001	60.59
317.214	-2.9
317.428	9.39
317.641	54.44
317.855	48.3
318.068	5.29
318.282	60.59
318.495	21.67
318.709	29.87
318.922	-0.85
319.136	74.92
319.349	97.45
319.563	60.59
319.776	-2.9
319.99	-2.9
320.203	-2.9
320.417	81.07
320.63	15.53
320.843	62.63
321.057	-29.52
321.27	25.77
321.483	115.88
321.697	126.12
321.91	23.72
322.124	-7
322.337	11.43
322.55	19.63
322.763	7.34
322.977	-2.9
323.19	25.77
323.403	17.58
323.617	72.87
323.83	93.35
324.043	11.43
324.256	-0.85
324.469	-4.95
324.683	68.78
324.896	40.11
325.109	21.67
325.322	29.87
325.535	-58.2
325.748	23.72
325.962	29.87
326.175	54.44
326.388	9.39
326.601	-19.29
326.814	-4.95
327.027	38.06
327.24	-2.9
327.453	48.3
327.666	97.45
327.879	19.63
328.092	33.96
328.305	46.25
328.518	-29.52
328.731	56.49
328.944	27.82
329.157	83.11
329.37	-9.05
329.583	25.77
329.796	44.2
330.009	60.59
330.222	46.25
330.435	48.3
330.648	25.77
330.861	-23.38
331.073	21.67
331.286	72.87
331.499	68.78
331.712	-80.72
331.925	60.59
332.138	-25.43
332.35	13.48
332.563	-72.53
332.776	70.83
332.989	31.91
333.202	3.24
333.414	54.44
333.627	62.63
333.84	36.01
334.053	17.58
334.265	-50
334.478	50.35
334.691	40.11
334.903	3.24
335.116	38.06
335.329	-11.09
335.541	64.68
335.754	83.11
335.966	-2.9
336.179	23.72
336.392	31.91
336.604	85.16
336.817	38.06
337.029	72.87
337.242	-9.05
337.454	56.49
337.667	-64.34
337.88	3.24
338.092	40.11
338.305	56.49
338.517	21.67
338.729	33.96
338.942	62.63
339.154	7.34
339.367	50.35
339.579	27.82
339.792	-21.33
340.004	46.25
340.217	-13.14
340.429	76.97
340.641	-54.1
340.854	56.49
341.066	27.82
341.278	-52.05
341.491	66.73
341.703	5.29
341.915	25.77
342.128	58.54
342.34	-25.43
342.552	-13.14
342.764	-47.96
342.977	99.5
343.189	-4.95
343.401	50.35
343.613	-41.81
343.826	15.53
344.038	-21.33
344.25	58.54
344.462	36.01
344.674	38.06
344.886	91.31
345.099	-43.86
345.311	11.43
345.523	-2.9
345.735	3.24
345.947	66.73
346.159	-62.29
346.371	5.29
346.583	79.02
346.795	5.29
347.007	-2.9
347.219	15.53
347.431	-15.19
347.643	29.87
347.855	15.53
348.067	48.3
348.279	-43.86
348.491	54.44
348.703	-0.85
348.915	52.39
349.127	13.48
349.339	1.19
349.551	-13.14
349.763	87.21
349.975	-15.19
350.187	17.58
350.399	40.11
350.61	64.68
350.822	-47.96
351.034	52.39
351.246	-54.1
351.458	38.06
351.669	46.25
351.881	40.11
352.093	-11.09
352.305	58.54
352.517	29.87
352.728	17.58
352.94	13.48
353.152	17.58
353.363	-66.39
353.575	3.24
353.787	72.87
353.999	23.72
354.21	7.34
354.422	44.2
354.633	27.82
354.845	3.24
355.057	-0.85
355.268	-52.05
355.48	54.44
355.692	46.25
355.903	3.24
356.115	56.49
356.326	54.44
356.538	85.16
356.749	74.92
356.961	-0.85
357.172	29.87
357.384	97.45
357.595	87.21
357.807	-62.29
358.018	-21.33
358.23	-43.86
358.441	58.54
358.653	42.15
358.864	46.25
359.075	40.11
359.287	11.43
359.498	36.01
359.709	15.53
359.921	56.49
360.132	7.34
360.344	5.29
360.555	-4.95
360.766	42.15
360.977	27.82
361.189	66.73
361.4	25.77
361.611	19.63
361.823	38.06
362.034	38.06
362.245	-0.85
362.456	-11.09
362.667	23.72
362.879	-21.33
363.09	21.67
363.301	29.87
363.512	1.19
363.723	5.29
363.935	11.43
364.146	19.63
364.357	-0.85
364.568	9.39
364.779	29.87
364.99	130.22
365.201	31.91
365.412	56.49
365.623	-68.44
365.834	46.25
366.045	70.83
366.256	-25.43
366.467	13.48
366.678	21.67
366.889	40.11
367.1	23.72
367.311	29.87
367.522	13.48
367.733	79.02
367.944	64.68
368.155	70.83
368.366	76.97
368.577	13.48
368.788	17.58
368.999	40.11
369.209	101.55
369.42	60.59
369.631	79.02
369.842	62.63
370.053	58.54
370.264	146.6
370.474	81.07
370.685	17.58
370.896	-25.43
371.107	54.44
371.317	70.83
371.528	64.68
371.739	105.64
371.95	7.34
372.16	93.35
372.371	46.25
372.582	-41.81
372.792	58.54
373.003	87.21
373.214	17.58
373.424	38.06
373.635	5.29
373.846	64.68
374.056	-23.38
374.267	11.43
374.477	21.67
374.688	7.34
374.898	50.35
375.109	7.34
375.319	89.26
375.53	40.11
375.74	50.35
375.951	-19.29
376.161	31.91
376.372	64.68
376.582	-35.67
376.793	33.96
377.003	-11.09
377.214	83.11
377.424	1.19
377.635	13.48
377.845	-23.38
378.055	21.67
378.266	-13.14
378.476	3.24
378.686	9.39
378.897	-11.09
379.107	7.34
379.317	40.11
379.528	-35.67
379.738	68.78
379.948	-0.85
380.158	1.19
380.369	52.39
380.579	5.29
380.789	-2.9
380.999	-33.62
381.21	111.78
381.42	64.68
381.63	-17.24
381.84	29.87
382.05	29.87
382.261	52.39
382.471	74.92
382.681	-35.67
382.891	-23.38
383.101	11.43
383.311	-58.2
383.521	64.68
383.731	38.06
383.941	21.67
384.151	-9.05
384.361	48.3
384.571	-2.9
384.781	48.3
384.991	13.48
385.201	56.49
385.411	44.2
385.621	9.39
385.831	122.02
386.041	58.54
386.251	128.17
386.461	42.15
386.671	-33.62
386.881	38.06
387.091	9.39
387.301	15.53
387.511	79.02
387.72	66.73
387.93	-66.39
388.14	21.67
388.35	89.26
388.56	21.67
388.769	1.19
388.979	33.96
389.189	48.3
389.399	25.77
389.609	17.58
389.818	27.82
390.028	62.63
390.238	29.87
390.447	48.3
390.657	64.68
390.867	56.49
391.076	-19.29
391.286	54.44
391.496	72.87
391.705	27.82
391.915	5.29
392.125	25.77
392.334	11.43
392.544	-0.85
392.753	83.11
392.963	76.97
393.172	64.68
393.382	46.25
393.591	46.25
393.801	15.53
394.01	29.87
394.22	-19.29
394.429	95.4
394.639	-37.72
394.848	25.77
395.058	7.34
395.267	-2.9
395.477	122.02
395.686	44.2
395.895	83.11
396.105	48.3
396.314	52.39
396.524	23.72
396.733	81.07
396.942	52.39
397.152	91.31
397.361	19.63
397.57	-11.09
397.78	33.96
397.989	85.16
398.198	122.02
398.407	36.01
398.617	111.78
398.826	25.77
399.035	7.34
399.244	107.69
399.453	21.67
399.663	17.58
399.872	105.64
400.081	13.48
400.29	54.44
400.499	23.72
400.708	74.92
400.917	33.96
401.127	25.77
401.336	25.77
401.545	109.74
401.754	99.5
401.963	113.83
402.172	66.73
402.381	23.72
402.59	36.01
402.799	81.07
403.008	48.3
403.217	21.67
403.426	58.54
403.635	46.25
403.844	33.96
404.053	58.54
404.262	66.73
404.471	128.17
404.68	85.16
404.888	66.73
405.097	5.29
405.306	117.93
405.515	107.69
405.724	103.59
405.933	87.21
406.142	72.87
406.35	101.55
406.559	101.55
406.768	97.45
406.977	136.36
407.185	58.54
407.394	83.11
407.603	93.35
407.812	101.55
408.02	144.55
408.229	115.88
408.438	97.45
408.646	109.74
408.855	124.07
409.064	79.02
409.272	60.59
409.481	148.65
409.69	119.98
409.898	83.11
410.107	142.5
410.315	95.4
410.524	177.32
410.733	160.94
410.941	128.17
411.15	136.36
411.358	117.93
411.567	193.7
411.775	175.27
411.984	212.14
412.192	251.05
412.401	175.27
412.609	249
412.818	177.32
413.026	222.38
413.234	195.75
413.443	224.42
413.651	292.01
413.86	271.53
414.068	285.86
414.276	246.95
414.485	228.52
414.693	351.4
414.901	300.2
415.11	345.25
415.318	316.58
415.526	287.91
415.734	306.34
415.943	332.97
416.151	341.16
416.359	341.16
416.567	378.02
416.776	361.64
416.984	369.83
417.192	418.98
417.4	382.12
417.608	412.84
417.817	398.5
418.025	453.8
418.233	511.14
418.441	382.12
418.649	588.96
418.857	541.86
419.065	545.95
419.273	562.34
419.481	564.39
419.689	562.34
419.897	623.78
420.105	728.22
420.313	648.35
420.521	693.41
420.729	687.26
420.937	752.8
421.145	691.36
421.353	808.09
421.561	816.29
421.769	885.92
421.977	877.73
422.185	838.81
422.393	875.68
422.601	986.27
422.809	982.17
423.017	957.6
423.224	1045.66
423.432	1125.53
423.64	1039.51
423.848	1236.12
424.056	1051.8
424.263	1266.84
424.471	1250.46
424.679	1227.93
424.887	1344.66
425.094	1315.99
425.302	1352.85
425.51	1369.24
425.718	1528.98
425.925	1422.48
426.133	1463.44
426.341	1662.1
426.548	1787.02
426.756	1678.48
426.964	1737.87
427.171	1811.6
427.379	1922.19
427.586	1860.75
427.794	1860.75
428.001	2022.54
428.209	2065.55
428.417	2192.52
428.624	2184.33
428.832	2258.06
429.039	2210.95
429.247	1991.82
429.454	2434.18
429.662	2524.29
429.869	2469
430.076	2647.17
430.284	2522.24
430.491	2548.87
430.699	2792.58
430.906	2778.24
431.114	2888.83
431.321	3032.19
431.528	2974.85
431.736	3239.03
431.943	3380.34
432.15	3204.22
432.358	3175.55
432.565	3445.88
432.772	3499.13
432.979	3677.3
433.187	3736.69
433.394	3806.32
433.601	3896.43
433.808	4033.65
434.016	3845.23
434.223	4142.19
434.43	4303.98
434.637	4279.4
434.844	4578.4
435.052	4514.92
435.259	4662.37
435.466	4811.87
435.673	4510.82
435.88	5022.81
436.087	5061.73
436.294	5098.59
436.501	5065.82
436.708	5084.25
436.915	5233.75
437.122	5366.87
437.329	5557.33
437.537	5626.96
437.743	5821.52
437.95	5792.85
438.157	6141
438.364	6112.33
438.571	6276.17
438.778	6286.41
438.985	6808.64
439.192	6499.4
439.399	6790.21
439.606	6509.64
439.813	7064.64
440.02	7613.49
440.227	7304.25
440.433	7306.3
440.64	7709.75
440.847	7351.35
441.054	7586.87
441.261	8203.31
441.467	8197.17
441.674	8305.71
441.881	8565.8
442.088	8363.05
442.294	8492.07
442.501	8571.94
442.708	8795.17
442.914	9247.77
443.121	9538.59
443.328	9274.4
443.534	10077.2
443.741	9847.83
443.948	9577.5
444.154	10351.63
444.361	10214.41
444.568	10368.01
444.774	10449.93
444.981	10449.93
445.187	10685.45
445.394	10873.86
445.6	11064.32
445.807	12133.36
446.013	11637.75
446.22	11715.58
446.426	12198.9
446.633	12278.77
446.839	12891.11
447.046	12311.53
447.252	13095.91
447.459	13048.8
447.665	12975.08
447.871	13542.36
448.078	14078.93
448.284	13507.55
448.491	14068.69
448.697	14369.74
448.903	14977.99
449.11	14625.74
449.316	14582.73
449.522	14736.33
449.728	15426.5
449.935	15121.35
450.141	15393.73
450.347	15375.3
450.553	15021
450.76	15375.3
450.966	15807.42
451.172	15831.99
451.378	16096.18
451.584	16038.84
451.791	16352.18
451.997	16212.92
452.203	16481.2
452.409	16423.86
452.615	16489.39
452.821	15760.31
453.027	15569.85
453.233	16257.97
453.44	16014.26
453.646	16182.2
453.852	15948.73
454.058	16528.3
454.264	15948.73
454.47	16219.06
454.676	16083.89
454.882	16153.52
455.088	15197.12
455.294	15203.27
455.5	15432.64
455.705	15563.71
455.911	14988.23
456.117	14887.88
456.323	14556.11
456.529	13751.26
456.735	14330.83
456.941	14140.37
457.147	13808.6
457.352	13546.46
457.558	13204.45
457.764	13343.71
457.97	13071.33
458.176	12766.18
458.381	12889.06
458.587	12379.12
458.793	12270.58
458.999	11496.44
459.204	12311.53
459.41	12176.37
459.616	11256.83
459.821	11160.58
460.027	11250.69
460.233	10912.77
460.438	10368.01
460.644	10714.12
460.85	10155.02
461.055	9999.38
461.261	9802.77
461.466	9118.75
461.672	8885.28
461.878	9640.98
462.083	8819.75
462.289	8889.38
462.494	8604.71
462.7	8420.39
462.905	8156.21
463.111	8266.8
463.316	8338.48
463.522	8115.25
463.727	8135.73
463.932	8197.17
464.138	8043.57
464.343	8133.68
464.549	8088.62
464.754	8082.48
464.959	8131.63
465.165	7955.51
465.37	7427.13
465.575	7357.5
465.781	7787.57
465.986	7633.97
466.191	7416.89
466.397	7382.07
466.602	6908.99
466.807	7365.69
467.012	7117.89
467.218	7273.53
467.423	7183.42
467.628	7134.27
467.833	7650.36
468.038	7377.98
468.244	7138.37
468.449	7337.02
468.654	7142.46
468.859	7058.49
469.064	7130.17
469.269	6779.97
469.474	6698.05
469.679	6990.91
