Data from USB4F104151__7__13-10-20-627.txt Node

Date: Fri Mar 14 13:10:20 EDT 2025
User: louis
Spectrometer: USB4F10415
Trigger mode: 4
Integration Time (sec): 2.000000E-2
Scans to average: 1
Electric dark correction enabled: true
Nonlinearity correction enabled: false
Boxcar width: 0
XAxis mode: Wavelengths
Number of Pixels in Spectrum: 3648
>>>>>Begin Spectral Data<<<<<
178.204	-106.84
178.424	-106.84
178.644	-106.84
178.864	-80.21
179.084	-123.22
179.304	-31.06
179.524	16.04
179.744	16.04
179.964	28.33
180.184	-10.58
180.404	-10.58
180.624	3.75
180.844	38.57
181.064	-45.4
181.283	-51.54
181.503	24.23
181.723	22.19
181.943	-2.39
182.163	40.62
182.383	-12.63
182.602	-2.39
182.822	71.34
183.042	-16.73
183.262	-26.96
183.482	-29.01
183.701	7.85
183.921	57
184.141	-18.77
184.361	61.1
184.58	-10.58
184.8	30.38
185.02	18.09
185.239	54.95
185.459	65.19
185.679	67.24
185.898	9.9
186.118	87.72
186.338	110.25
186.557	143.02
186.777	20.14
186.997	30.38
187.216	-10.58
187.436	85.67
187.655	-24.92
187.875	71.34
188.095	-18.77
188.314	20.14
188.534	-20.82
188.753	7.85
188.973	44.71
189.192	73.39
189.412	30.38
189.631	3.75
189.851	-24.92
190.07	-2.39
190.29	-4.44
190.509	34.47
190.729	-45.4
190.948	42.67
191.168	122.54
191.387	116.39
191.607	-14.68
191.826	63.15
192.045	40.62
192.265	-4.44
192.484	13.99
192.704	-20.82
192.923	-135.51
193.142	106.15
193.362	-49.49
193.581	-14.68
193.8	93.87
194.02	116.39
194.239	9.9
194.458	75.43
194.678	-2.39
194.897	-0.34
195.116	16.04
195.335	24.23
195.555	-12.63
195.774	-0.34
195.993	16.04
196.212	46.76
196.432	9.9
196.651	38.57
196.87	5.8
197.089	69.29
197.308	-0.34
197.528	9.9
197.747	-61.78
197.966	28.33
198.185	93.87
198.404	-63.83
198.623	30.38
198.842	-26.96
199.062	57
199.281	-18.77
199.5	-61.78
199.719	48.81
199.938	-18.77
200.157	77.48
200.376	-39.25
200.595	65.19
200.814	59.05
201.033	11.95
201.252	-35.16
201.471	69.29
201.69	-12.63
201.909	104.11
202.128	48.81
202.347	28.33
202.566	3.75
202.785	59.05
203.004	-37.2
203.223	95.91
203.442	-2.39
203.661	24.23
203.879	61.1
204.098	24.23
204.317	11.95
204.536	22.19
204.755	-2.39
204.974	48.81
205.193	52.91
205.411	-2.39
205.63	44.71
205.849	7.85
206.068	13.99
206.287	77.48
206.505	30.38
206.724	91.82
206.943	-18.77
207.162	-12.63
207.381	-12.63
207.599	67.24
207.818	-33.11
208.037	52.91
208.255	95.91
208.474	-29.01
208.693	-8.53
208.911	100.01
209.13	30.38
209.349	71.34
209.567	87.72
209.786	83.63
210.005	44.71
210.223	30.38
210.442	-26.96
210.661	87.72
210.879	38.57
211.098	79.53
211.316	13.99
211.535	118.44
211.753	-49.49
211.972	18.09
212.191	-6.49
212.409	-26.96
212.628	38.57
212.846	16.04
213.065	5.8
213.283	52.91
213.502	-12.63
213.72	93.87
213.938	-26.96
214.157	-51.54
214.375	50.86
214.594	52.91
214.812	16.04
215.031	-4.44
215.249	36.52
215.467	36.52
215.686	89.77
215.904	40.62
216.122	-51.54
216.341	-33.11
216.559	110.25
216.778	-20.82
216.996	7.85
217.214	-18.77
217.432	42.67
217.651	18.09
217.869	-43.35
218.087	38.57
218.306	57
218.524	83.63
218.742	-2.39
218.96	52.91
219.179	3.75
219.397	54.95
219.615	71.34
219.833	-29.01
220.051	57
220.27	-16.73
220.488	93.87
220.706	-6.49
220.924	69.29
221.142	40.62
221.36	9.9
221.578	16.04
221.796	-16.73
222.015	85.67
222.233	63.15
222.451	44.71
222.669	-51.54
222.887	61.1
223.105	5.8
223.323	38.57
223.541	-45.4
223.759	77.48
223.977	3.75
224.195	126.63
224.413	93.87
224.631	81.58
224.849	-6.49
225.067	13.99
225.285	-24.92
225.503	7.85
225.721	-18.77
225.939	77.48
226.157	48.81
226.375	81.58
226.592	-4.44
226.81	106.15
227.028	38.57
227.246	106.15
227.464	50.86
227.682	-26.96
227.9	-10.58
228.117	48.81
228.335	71.34
228.553	77.48
228.771	65.19
228.989	54.95
229.206	54.95
229.424	-33.11
229.642	3.75
229.86	-8.53
230.077	-4.44
230.295	-14.68
230.513	-6.49
230.731	26.28
230.948	36.52
231.166	93.87
231.384	13.99
231.601	79.53
231.819	-22.87
232.037	26.28
232.254	-31.06
232.472	-10.58
232.689	34.47
232.907	-22.87
233.125	102.06
233.342	-45.4
233.56	79.53
233.777	36.52
233.995	11.95
234.213	104.11
234.43	93.87
234.648	65.19
234.865	-35.16
235.083	54.95
235.3	13.99
235.518	-45.4
235.735	79.53
235.953	85.67
236.17	28.33
236.388	69.29
236.605	42.67
236.822	120.49
237.04	108.2
237.257	1.71
237.475	-16.73
237.692	89.77
237.909	50.86
238.127	-33.11
238.344	34.47
238.562	52.91
238.779	-18.77
238.996	-33.11
239.214	81.58
239.431	57
239.648	-12.63
239.865	100.01
240.083	38.57
240.3	-55.64
240.517	52.91
240.735	87.72
240.952	71.34
241.169	-0.34
241.386	95.91
241.603	44.71
241.821	-16.73
242.038	97.96
242.255	81.58
242.472	32.43
242.689	97.96
242.907	61.1
243.124	-22.87
243.341	30.38
243.558	26.28
243.775	38.57
243.992	-18.77
244.209	11.95
244.426	65.19
244.643	30.38
244.86	22.19
245.078	106.15
245.295	83.63
245.512	-20.82
245.729	-14.68
245.946	28.33
246.163	7.85
246.38	57
246.597	65.19
246.814	63.15
247.031	-22.87
247.248	54.95
247.464	5.8
247.681	-4.44
247.898	-6.49
248.115	85.67
248.332	7.85
248.549	126.63
248.766	11.95
248.983	63.15
249.2	104.11
249.417	77.48
249.633	16.04
249.85	3.75
250.067	-29.01
250.284	3.75
250.501	77.48
250.717	71.34
250.934	93.87
251.151	71.34
251.368	-39.25
251.585	11.95
251.801	93.87
252.018	18.09
252.235	44.71
252.451	22.19
252.668	3.75
252.885	61.1
253.102	20.14
253.318	69.29
253.535	57
253.752	42.67
253.968	-33.11
254.185	-4.44
254.401	48.81
254.618	-20.82
254.835	36.52
255.051	50.86
255.268	122.54
255.484	-10.58
255.701	36.52
255.917	-14.68
256.134	-26.96
256.351	7.85
256.567	30.38
256.784	57
257	-0.34
257.217	75.43
257.433	26.28
257.65	-29.01
257.866	40.62
258.082	91.82
258.299	3.75
258.515	77.48
258.732	-4.44
258.948	44.71
259.165	63.15
259.381	32.43
259.597	-37.2
259.814	52.91
260.03	3.75
260.246	5.8
260.463	40.62
260.679	30.38
260.895	38.57
261.112	22.19
261.328	67.24
261.544	-29.01
261.761	81.58
261.977	30.38
262.193	-12.63
262.409	59.05
262.626	36.52
262.842	3.75
263.058	61.1
263.274	3.75
263.49	20.14
263.707	116.39
263.923	1.71
264.139	13.99
264.355	-16.73
264.571	30.38
264.787	52.91
265.004	16.04
265.22	-26.96
265.436	11.95
265.652	40.62
265.868	79.53
266.084	-31.06
266.3	7.85
266.516	42.67
266.732	-4.44
266.948	89.77
267.164	93.87
267.38	36.52
267.596	71.34
267.812	24.23
268.028	75.43
268.244	-18.77
268.46	42.67
268.676	42.67
268.892	97.96
269.108	42.67
269.324	67.24
269.54	-24.92
269.756	22.19
269.972	16.04
270.188	-2.39
270.403	7.85
270.619	46.76
270.835	57
271.051	57
271.267	-90.45
271.483	73.39
271.698	104.11
271.914	-16.73
272.13	-45.4
272.346	-35.16
272.562	22.19
272.777	85.67
272.993	48.81
273.209	46.76
273.425	87.72
273.64	5.8
273.856	75.43
274.072	40.62
274.287	7.85
274.503	85.67
274.719	44.71
274.934	36.52
275.15	-53.59
275.366	11.95
275.581	-31.06
275.797	46.76
276.012	42.67
276.228	61.1
276.444	16.04
276.659	42.67
276.875	-4.44
277.09	34.47
277.306	52.91
277.521	42.67
277.737	-37.2
277.952	106.15
278.168	-6.49
278.383	-10.58
278.599	9.9
278.814	5.8
279.03	93.87
279.245	13.99
279.461	46.76
279.676	159.4
279.892	3.75
280.107	-2.39
280.322	-20.82
280.538	7.85
280.753	61.1
280.969	65.19
281.184	22.19
281.399	83.63
281.615	7.85
281.83	71.34
282.045	-31.06
282.26	36.52
282.476	-47.44
282.691	-18.77
282.906	30.38
283.122	24.23
283.337	7.85
283.552	57
283.767	61.1
283.983	-65.88
284.198	24.23
284.413	50.86
284.628	3.75
284.843	11.95
285.058	61.1
285.274	-80.21
285.489	20.14
285.704	48.81
285.919	20.14
286.134	63.15
286.349	24.23
286.564	-43.35
286.779	91.82
286.995	13.99
287.21	36.52
287.425	32.43
287.64	13.99
287.855	-16.73
288.07	32.43
288.285	69.29
288.5	50.86
288.715	-6.49
288.93	102.06
289.145	11.95
289.36	20.14
289.575	22.19
289.79	71.34
290.004	26.28
290.219	28.33
290.434	9.9
290.649	3.75
290.864	32.43
291.079	46.76
291.294	42.67
291.509	36.52
291.724	63.15
291.938	11.95
292.153	-20.82
292.368	100.01
292.583	63.15
292.798	16.04
293.012	5.8
293.227	-4.44
293.442	42.67
293.657	75.43
293.871	-26.96
294.086	81.58
294.301	18.09
294.516	22.19
294.73	65.19
294.945	28.33
295.16	85.67
295.374	44.71
295.589	145.06
295.804	-29.01
296.018	-0.34
296.233	59.05
296.447	1.71
296.662	1.71
296.877	36.52
297.091	63.15
297.306	5.8
297.52	-12.63
297.735	46.76
297.949	67.24
298.164	13.99
298.378	59.05
298.593	57
298.807	24.23
299.022	42.67
299.236	102.06
299.451	40.62
299.665	-22.87
299.88	28.33
300.094	20.14
300.309	108.2
300.523	24.23
300.737	-29.01
300.952	34.47
301.166	3.75
301.381	-22.87
301.595	28.33
301.809	-4.44
302.024	32.43
302.238	-26.96
302.452	75.43
302.667	20.14
302.881	28.33
303.095	-22.87
303.309	11.95
303.524	61.1
303.738	-72.02
303.952	85.67
304.166	95.91
304.381	5.8
304.595	81.58
304.809	3.75
305.023	61.1
305.237	7.85
305.452	5.8
305.666	42.67
305.88	34.47
306.094	-0.34
306.308	-51.54
306.522	81.58
306.736	32.43
306.95	3.75
307.164	46.76
307.379	46.76
307.593	5.8
307.807	20.14
308.021	22.19
308.235	104.11
308.449	38.57
308.663	30.38
308.877	81.58
309.091	3.75
309.305	18.09
309.519	-43.35
309.733	97.96
309.947	16.04
310.161	-4.44
310.374	44.71
310.588	-12.63
310.802	9.9
311.016	48.81
311.23	52.91
311.444	102.06
311.658	44.71
311.872	95.91
312.085	-2.39
312.299	40.62
312.513	22.19
312.727	13.99
312.941	-82.26
313.154	-59.73
313.368	71.34
313.582	3.75
313.796	11.95
314.009	16.04
314.223	18.09
314.437	44.71
314.651	59.05
314.864	48.81
315.078	5.8
315.292	28.33
315.505	22.19
315.719	11.95
315.933	36.52
316.146	-10.58
316.36	30.38
316.573	87.72
316.787	69.29
317.001	44.71
317.214	26.28
317.428	114.34
317.641	44.71
317.855	118.44
318.068	46.76
318.282	54.95
318.495	63.15
318.709	-6.49
318.922	38.57
319.136	77.48
319.349	32.43
319.563	48.81
319.776	52.91
319.99	26.28
320.203	38.57
320.417	69.29
320.63	32.43
320.843	54.95
321.057	7.85
321.27	24.23
321.483	32.43
321.697	42.67
321.91	77.48
322.124	54.95
322.337	52.91
322.55	42.67
322.763	30.38
322.977	46.76
323.19	24.23
323.403	110.25
323.617	16.04
323.83	134.82
324.043	34.47
324.256	38.57
324.469	22.19
324.683	-10.58
324.896	44.71
325.109	7.85
325.322	24.23
325.535	79.53
325.748	40.62
325.962	81.58
326.175	3.75
326.388	11.95
326.601	22.19
326.814	77.48
327.027	54.95
327.24	104.11
327.453	46.76
327.666	52.91
327.879	44.71
328.092	122.54
328.305	28.33
328.518	-2.39
328.731	22.19
328.944	59.05
329.157	42.67
329.37	130.73
329.583	81.58
329.796	79.53
330.009	-18.77
330.222	79.53
330.435	-37.2
330.648	63.15
330.861	73.39
331.073	69.29
331.286	87.72
331.499	-0.34
331.712	-4.44
331.925	9.9
332.138	-57.68
332.35	38.57
332.563	24.23
332.776	38.57
332.989	11.95
333.202	-2.39
333.414	24.23
333.627	65.19
333.84	54.95
334.053	67.24
334.265	-20.82
334.478	54.95
334.691	48.81
334.903	124.58
335.116	-22.87
335.329	83.63
335.541	5.8
335.754	79.53
335.966	28.33
336.179	71.34
336.392	18.09
336.604	34.47
336.817	136.87
337.029	71.34
337.242	110.25
337.454	100.01
337.667	52.91
337.88	38.57
338.092	5.8
338.305	48.81
338.517	-4.44
338.729	61.1
338.942	9.9
339.154	61.1
339.367	-16.73
339.579	85.67
339.792	20.14
340.004	11.95
340.217	3.75
340.429	61.1
340.641	11.95
340.854	65.19
341.066	67.24
341.278	93.87
341.491	114.34
341.703	67.24
341.915	-0.34
342.128	95.91
342.34	67.24
342.552	28.33
342.764	81.58
342.977	46.76
343.189	18.09
343.401	112.3
343.613	57
343.826	54.95
344.038	-22.87
344.25	20.14
344.462	40.62
344.674	16.04
344.886	48.81
345.099	30.38
345.311	77.48
345.523	16.04
345.735	-43.35
345.947	20.14
346.159	3.75
346.371	22.19
346.583	36.52
346.795	79.53
347.007	38.57
347.219	73.39
347.431	34.47
347.643	95.91
347.855	65.19
348.067	5.8
348.279	38.57
348.491	40.62
348.703	26.28
348.915	65.19
349.127	20.14
349.339	89.77
349.551	69.29
349.763	61.1
349.975	87.72
350.187	38.57
350.399	48.81
350.61	3.75
350.822	114.34
351.034	-2.39
351.246	-2.39
351.458	44.71
351.669	-26.96
351.881	89.77
352.093	42.67
352.305	30.38
352.517	77.48
352.728	7.85
352.94	24.23
353.152	18.09
353.363	26.28
353.575	-18.77
353.787	104.11
353.999	81.58
354.21	95.91
354.422	-63.83
354.633	44.71
354.845	71.34
355.057	102.06
355.268	73.39
355.48	48.81
355.692	36.52
355.903	-31.06
356.115	-4.44
356.326	18.09
356.538	95.91
356.749	32.43
356.961	22.19
357.172	54.95
357.384	61.1
357.595	106.15
357.807	24.23
358.018	65.19
358.23	28.33
358.441	75.43
358.653	-20.82
358.864	52.91
359.075	63.15
359.287	-33.11
359.498	-2.39
359.709	67.24
359.921	77.48
360.132	16.04
360.344	42.67
360.555	114.34
360.766	46.76
360.977	13.99
361.189	71.34
361.4	28.33
361.611	79.53
361.823	83.63
362.034	57
362.245	65.19
362.456	-16.73
362.667	36.52
362.879	-20.82
363.09	52.91
363.301	71.34
363.512	18.09
363.723	5.8
363.935	48.81
364.146	7.85
364.357	85.67
364.568	145.06
364.779	-45.4
364.99	73.39
365.201	52.91
365.412	85.67
365.623	1.71
365.834	-45.4
366.045	63.15
366.256	61.1
366.467	40.62
366.678	-26.96
366.889	57
367.1	77.48
367.311	116.39
367.522	32.43
367.733	110.25
367.944	20.14
368.155	38.57
368.366	77.48
368.577	102.06
368.788	81.58
368.999	-8.53
369.209	114.34
369.42	87.72
369.631	97.96
369.842	-51.54
370.053	67.24
370.264	73.39
370.474	57
370.685	93.87
370.896	63.15
371.107	120.49
371.317	36.52
371.528	79.53
371.739	110.25
371.95	36.52
372.16	20.14
372.371	-18.77
372.582	7.85
372.792	83.63
373.003	59.05
373.214	87.72
373.424	104.11
373.635	-37.2
373.846	130.73
374.056	18.09
374.267	-4.44
374.477	42.67
374.688	69.29
374.898	30.38
375.109	143.02
375.319	100.01
375.53	7.85
375.74	30.38
375.951	-20.82
376.161	11.95
376.372	52.91
376.582	20.14
376.793	44.71
377.003	59.05
377.214	36.52
377.424	83.63
377.635	65.19
377.845	71.34
378.055	38.57
378.266	44.71
378.476	48.81
378.686	81.58
378.897	52.91
379.107	18.09
379.317	3.75
379.528	89.77
379.738	9.9
379.948	18.09
380.158	102.06
380.369	36.52
380.579	128.68
380.789	-16.73
380.999	54.95
381.21	77.48
381.42	108.2
381.63	46.76
381.84	120.49
382.05	114.34
382.261	77.48
382.471	34.47
382.681	26.28
382.891	124.58
383.101	46.76
383.311	-43.35
383.521	11.95
383.731	-2.39
383.941	57
384.151	-2.39
384.361	120.49
384.571	57
384.781	93.87
384.991	102.06
385.201	122.54
385.411	42.67
385.621	54.95
385.831	28.33
386.041	59.05
386.251	11.95
386.461	147.11
386.671	32.43
386.881	128.68
387.091	50.86
387.301	120.49
387.511	50.86
387.72	20.14
387.93	59.05
388.14	52.91
388.35	1.71
388.56	24.23
388.769	104.11
388.979	20.14
389.189	11.95
389.399	38.57
389.609	79.53
389.818	30.38
390.028	73.39
390.238	52.91
390.447	97.96
390.657	65.19
390.867	73.39
391.076	54.95
391.286	65.19
391.496	61.1
391.705	20.14
391.915	126.63
392.125	52.91
392.334	87.72
392.544	147.11
392.753	40.62
392.963	48.81
393.172	110.25
393.382	54.95
393.591	112.3
393.801	61.1
394.01	143.02
394.22	120.49
394.429	40.62
394.639	140.97
394.848	134.82
395.058	67.24
395.267	110.25
395.477	102.06
395.686	136.87
395.895	77.48
396.105	118.44
396.314	28.33
396.524	28.33
396.733	112.3
396.942	151.21
397.152	79.53
397.361	22.19
397.57	102.06
397.78	143.02
397.989	79.53
398.198	192.17
398.407	57
398.617	165.54
398.826	-16.73
399.035	89.77
399.244	114.34
399.453	85.67
399.663	65.19
399.872	126.63
400.081	188.07
400.29	138.92
400.499	38.57
400.708	112.3
400.917	65.19
401.127	126.63
401.336	83.63
401.545	120.49
401.754	79.53
401.963	181.93
402.172	153.26
402.381	128.68
402.59	153.26
402.799	173.74
403.008	95.91
403.217	151.21
403.426	73.39
403.635	34.47
403.844	112.3
404.053	108.2
404.262	138.92
404.471	226.98
404.68	145.06
404.888	153.26
405.097	130.73
405.306	132.78
405.515	104.11
405.724	175.78
405.933	204.46
406.142	204.46
406.35	163.5
406.559	265.89
406.768	249.51
406.977	220.84
407.185	169.64
407.394	241.32
407.603	216.74
407.812	212.65
408.02	249.51
408.229	224.94
408.438	229.03
408.646	183.98
408.855	251.56
409.064	241.32
409.272	204.46
409.481	308.9
409.69	272.04
409.898	243.37
410.107	364.2
410.315	343.72
410.524	358.05
410.733	347.81
410.941	339.62
411.15	331.43
411.358	474.79
411.567	388.77
411.775	431.78
411.984	384.68
412.192	487.08
412.401	431.78
412.609	511.65
412.818	568.99
413.026	536.23
413.234	507.55
413.443	568.99
413.651	560.8
413.86	566.95
414.068	626.34
414.276	671.39
414.485	642.72
414.693	691.87
414.901	730.78
415.11	798.37
415.318	741.02
415.526	810.65
415.734	775.84
415.943	878.24
416.151	841.37
416.359	796.32
416.567	904.86
416.776	906.91
416.984	1044.12
417.192	1072.79
417.4	941.72
417.608	908.96
417.817	1072.79
418.025	1136.28
418.233	1242.78
418.441	1132.19
418.649	1283.74
418.857	1322.65
419.065	1390.23
419.273	1302.17
419.481	1408.66
419.689	1486.48
419.897	1504.92
420.105	1621.65
420.313	1517.2
420.521	1683.09
420.729	1664.66
420.937	1752.72
421.145	1896.08
421.353	1883.79
421.561	2074.25
421.769	1986.19
421.977	2178.7
422.185	2039.44
422.393	2250.38
422.601	2297.48
422.809	2344.58
423.017	2412.17
423.224	2508.42
423.432	2537.09
423.64	2629.25
423.848	2811.52
424.056	2676.35
424.263	2920.06
424.471	2875.01
424.679	3034.75
424.887	3120.76
425.094	3276.41
425.302	3245.69
425.51	3391.09
425.718	3516.02
425.925	3577.46
426.133	3645.04
426.341	3733.11
426.548	4099.69
426.756	4140.65
426.964	4091.5
427.171	4472.42
427.379	4535.91
427.586	4521.57
427.794	4757.09
428.001	4890.21
428.209	5107.29
428.417	4916.83
428.624	5338.71
428.832	5459.54
429.039	5301.85
429.247	5369.43
429.454	5817.94
429.662	6250.06
429.869	5928.53
430.076	6250.06
430.284	6164.04
430.491	6385.23
430.699	6614.6
430.906	6696.52
431.114	6827.59
431.321	6991.42
431.528	7427.64
431.736	7626.29
431.943	8076.85
432.15	7804.47
432.358	7824.95
432.565	8242.73
432.772	8205.87
432.979	8758.82
433.187	8932.9
433.394	8990.24
433.601	9702.93
433.808	9541.15
434.016	9465.37
434.223	9999.89
434.43	10481.16
434.637	10286.61
434.844	10950.15
435.052	11007.49
435.259	11159.04
435.466	11197.95
435.673	11091.46
435.88	11881.97
436.087	12266.99
436.294	12418.54
436.501	12072.43
436.708	12553.71
436.915	12948.97
437.122	13268.45
437.329	13387.23
437.537	13921.75
437.743	13854.17
437.95	13923.8
438.157	14702.03
438.364	15244.74
438.571	15154.63
438.778	15195.59
438.985	16659.88
439.192	15949.24
439.399	16532.91
439.606	16162.23
439.813	17089.96
440.02	18054.55
440.227	17816.99
440.433	17601.95
440.64	18146.71
440.847	18242.96
441.054	18310.55
441.261	19658.11
441.467	19402.11
441.674	19805.56
441.881	20682.1
442.088	20753.77
442.294	20284.79
442.501	20649.33
442.708	21532
442.914	22078.81
443.121	22711.63
443.328	22478.16
443.534	23944.51
443.741	23514.44
443.948	23113.03
444.154	24896.81
444.361	24532.28
444.568	24935.73
444.774	24980.78
444.981	24986.93
445.187	25812.26
445.394	27086.09
445.6	26750.23
445.807	29336.81
446.013	28048.64
446.22	28560.63
446.426	29908.19
446.633	29865.19
446.839	30934.23
447.046	29625.57
447.252	31282.38
447.459	31661.26
447.665	31571.14
447.871	32521.4
448.078	34000.04
448.284	32464.06
448.491	33324.21
448.697	34722.97
448.903	35413.13
449.11	35566.73
449.316	34841.75
449.522	35462.29
449.728	36304
449.935	37092.47
450.141	36844.66
450.347	37454.96
450.553	36260.99
450.76	36967.54
450.966	38132.84
451.172	37694.57
451.378	38673.5
451.584	38284.39
451.791	38837.34
451.997	38661.21
452.203	39390.29
452.409	39855.18
452.615	39261.27
452.821	37756.01
453.027	37749.87
453.233	39488.59
453.44	38278.24
453.646	38624.35
453.852	38622.3
454.058	39439.44
454.264	37911.66
454.47	39173.2
454.676	37872.74
454.882	39720.01
455.088	35951.75
455.294	36834.42
455.5	37248.11
455.705	37569.65
455.911	36228.23
456.117	35630.22
456.323	35128.47
456.529	33359.02
456.735	34559.13
456.941	33854.63
457.147	33352.88
457.352	32279.74
457.558	32128.19
457.764	32025.79
457.97	31446.22
458.176	30903.51
458.381	30704.85
458.587	29304.04
458.793	29215.98
458.999	28042.49
459.204	29623.53
459.41	29404.39
459.616	27112.72
459.821	26940.69
460.027	26950.93
460.233	26301.72
460.438	25118
460.644	25275.69
460.85	24163.64
461.055	23520.58
461.261	23901.5
461.466	21839.2
461.672	21302.63
461.878	22801.74
462.083	21341.54
462.289	20757.87
462.494	20678
462.7	19830.14
462.905	19139.97
463.111	19819.9
463.316	19887.48
463.522	19527.04
463.727	19596.67
463.932	19697.02
464.138	19467.65
464.343	19600.77
464.549	18924.94
464.754	19737.98
464.959	19242.37
465.165	19269
465.37	18230.68
465.575	17929.63
465.781	18888.07
465.986	18652.56
466.191	17954.2
466.397	17712.54
466.602	16825.77
466.807	17560.99
467.012	17429.92
467.218	17325.47
467.423	17184.16
