Data from USB4F104151__79__13-12-29-193.txt Node

Date: Fri Mar 14 13:12:29 EDT 2025
User: louis
Spectrometer: USB4F10415
Trigger mode: 4
Integration Time (sec): 2.000000E-2
Scans to average: 1
Electric dark correction enabled: true
Nonlinearity correction enabled: false
Boxcar width: 0
XAxis mode: Wavelengths
Number of Pixels in Spectrum: 3648
>>>>>Begin Spectral Data<<<<<
178.204	-24.06
178.424	-24.06
178.644	-24.06
178.864	-112.13
179.084	-151.04
179.304	59.9
179.524	-69.12
179.744	12.8
179.964	70.14
180.184	-30.21
180.404	-46.59
180.624	29.18
180.844	12.8
181.064	-50.69
181.283	8.7
181.503	-7.68
181.723	10.75
181.943	-67.07
182.163	20.99
182.383	-87.55
182.602	2.56
182.822	37.38
183.042	27.14
183.262	2.56
183.482	25.09
183.701	51.71
183.921	-34.3
184.141	66.05
184.361	29.18
184.58	-19.97
184.8	-11.78
185.02	-13.82
185.239	47.62
185.459	-13.82
185.679	82.43
185.898	-38.4
186.118	10.75
186.338	-26.11
186.557	0.51
186.777	-38.4
186.997	-32.26
187.216	35.33
187.436	6.66
187.655	96.77
187.875	39.42
188.095	12.8
188.314	100.86
188.534	-7.68
188.753	10.75
188.973	82.43
189.192	18.94
189.412	74.24
189.631	29.18
189.851	29.18
190.07	70.14
190.29	4.61
190.509	29.18
190.729	-24.06
190.948	-30.21
191.168	94.72
191.387	109.05
191.607	-32.26
191.826	76.29
192.045	39.42
192.265	27.14
192.484	20.99
192.704	10.75
192.923	31.23
193.142	41.47
193.362	57.86
193.581	37.38
193.8	20.99
194.02	-11.78
194.239	-15.87
194.458	-34.3
194.678	-34.3
194.897	-19.97
195.116	49.66
195.335	41.47
195.555	-46.59
195.774	107.01
195.993	10.75
196.212	-73.21
196.432	-52.74
196.651	-11.78
196.87	-38.4
197.089	49.66
197.308	23.04
197.528	37.38
197.747	18.94
197.966	-40.45
198.185	41.47
198.404	25.09
198.623	41.47
198.842	-19.97
199.062	27.14
199.281	-5.63
199.5	-11.78
199.719	80.38
199.938	4.61
200.157	98.81
200.376	-13.82
200.595	68.09
200.814	37.38
201.033	-71.17
201.252	-34.3
201.471	4.61
201.69	0.51
201.909	-34.3
202.128	-13.82
202.347	33.28
202.566	-9.73
202.785	-22.02
203.004	-7.68
203.223	53.76
203.442	-15.87
203.661	43.52
203.879	4.61
204.098	-22.02
204.317	-15.87
204.536	-44.54
204.755	-24.06
204.974	57.86
205.193	-73.21
205.411	88.57
205.63	12.8
205.849	86.53
206.068	18.94
206.287	39.42
206.505	49.66
206.724	41.47
206.943	14.85
207.162	16.9
207.381	14.85
207.599	41.47
207.818	27.14
208.037	-11.78
208.255	84.48
208.474	-9.73
208.693	-19.97
208.911	25.09
209.13	37.38
209.349	74.24
209.567	74.24
209.786	8.7
210.005	57.86
210.223	16.9
210.442	-48.64
210.661	47.62
210.879	4.61
211.098	4.61
211.316	29.18
211.535	113.15
211.753	64
211.972	-28.16
212.191	-38.4
212.409	2.56
212.628	2.56
212.846	-22.02
213.065	43.52
213.283	51.71
213.502	-81.41
213.72	4.61
213.938	29.18
214.157	-36.35
214.375	6.66
214.594	39.42
214.812	-13.82
215.031	12.8
215.249	-44.54
215.467	10.75
215.686	33.28
215.904	78.33
216.122	-5.63
216.341	90.62
216.559	8.7
216.778	4.61
216.996	4.61
217.214	-22.02
217.432	29.18
217.651	-15.87
217.869	0.51
218.087	20.99
218.306	-9.73
218.524	-13.82
218.742	16.9
218.96	0.51
219.179	25.09
219.397	-62.98
219.615	74.24
219.833	2.56
220.051	-9.73
220.27	66.05
220.488	45.57
220.706	29.18
220.924	16.9
221.142	-52.74
221.36	-7.68
221.578	23.04
221.796	-3.58
222.015	-42.5
222.233	90.62
222.451	74.24
222.669	-5.63
222.887	84.48
223.105	-62.98
223.323	-17.92
223.541	53.76
223.759	82.43
223.977	-22.02
224.195	8.7
224.413	-15.87
224.631	43.52
224.849	-9.73
225.067	27.14
225.285	-89.6
225.503	-38.4
225.721	-30.21
225.939	20.99
226.157	84.48
226.375	109.05
226.592	12.8
226.81	0.51
227.028	12.8
227.246	111.1
227.464	51.71
227.682	-1.54
227.9	-9.73
228.117	-24.06
228.335	43.52
228.553	90.62
228.771	12.8
228.989	35.33
229.206	4.61
229.424	-30.21
229.642	-26.11
229.86	-11.78
230.077	2.56
230.295	-11.78
230.513	-36.35
230.731	8.7
230.948	31.23
231.166	8.7
231.384	-26.11
231.601	29.18
231.819	-24.06
232.037	-54.78
232.254	-19.97
232.472	72.19
232.689	-22.02
232.907	59.9
233.125	-15.87
233.342	-32.26
233.56	20.99
233.777	2.56
233.995	10.75
234.213	43.52
234.43	37.38
234.648	68.09
234.865	-11.78
235.083	70.14
235.3	18.94
235.518	25.09
235.735	41.47
235.953	61.95
236.17	-19.97
236.388	18.94
236.605	-44.54
236.822	33.28
237.04	43.52
237.257	-24.06
237.475	-34.3
237.692	45.57
237.909	-15.87
238.127	4.61
238.344	57.86
238.562	14.85
238.779	4.61
238.996	-89.6
239.214	-5.63
239.431	0.51
239.648	-54.78
239.865	57.86
240.083	59.9
240.3	-24.06
240.517	0.51
240.735	-13.82
240.952	14.85
241.169	113.15
241.386	37.38
241.603	-3.58
241.821	6.66
242.038	45.57
242.255	84.48
242.472	-5.63
242.689	-7.68
242.907	20.99
243.124	-48.64
243.341	64
243.558	18.94
243.775	27.14
243.992	20.99
244.209	0.51
244.426	-9.73
244.643	-30.21
244.86	-22.02
245.078	-38.4
245.295	18.94
245.512	115.2
245.729	-15.87
245.946	45.57
246.163	74.24
246.38	-11.78
246.597	57.86
246.814	90.62
247.031	-46.59
247.248	74.24
247.464	92.67
247.681	43.52
247.898	-46.59
248.115	27.14
248.332	6.66
248.549	43.52
248.766	109.05
248.983	14.85
249.2	37.38
249.417	53.76
249.633	53.76
249.85	8.7
250.067	-46.59
250.284	45.57
250.501	4.61
250.717	84.48
250.934	-71.17
251.151	33.28
251.368	57.86
251.585	-40.45
251.801	-28.16
252.018	10.75
252.235	92.67
252.451	6.66
252.668	25.09
252.885	61.95
253.102	-5.63
253.318	78.33
253.535	4.61
253.752	-60.93
253.968	49.66
254.185	18.94
254.401	0.51
254.618	27.14
254.835	0.51
255.051	45.57
255.268	27.14
255.484	-7.68
255.701	33.28
255.917	45.57
256.134	86.53
256.351	23.04
256.567	-22.02
256.784	12.8
257	6.66
257.217	70.14
257.433	-48.64
257.65	33.28
257.866	-5.63
258.082	45.57
258.299	-44.54
258.515	25.09
258.732	14.85
258.948	-26.11
259.165	68.09
259.381	0.51
259.597	43.52
259.814	49.66
260.03	41.47
260.246	-58.88
260.463	-7.68
260.679	86.53
260.895	49.66
261.112	-7.68
261.328	-34.3
261.544	25.09
261.761	45.57
261.977	4.61
262.193	-7.68
262.409	35.33
262.626	-36.35
262.842	23.04
263.058	-48.64
263.274	29.18
263.49	-40.45
263.707	8.7
263.923	70.14
264.139	-9.73
264.355	4.61
264.571	100.86
264.787	80.38
265.004	0.51
265.22	37.38
265.436	59.9
265.652	-26.11
265.868	70.14
266.084	-19.97
266.3	72.19
266.516	12.8
266.732	16.9
266.948	33.28
267.164	43.52
267.38	37.38
267.596	-5.63
267.812	61.95
268.028	18.94
268.244	-13.82
268.46	41.47
268.676	8.7
268.892	37.38
269.108	-73.21
269.324	76.29
269.54	27.14
269.756	92.67
269.972	-7.68
270.188	-54.78
270.403	0.51
270.619	-3.58
270.835	-3.58
271.051	10.75
271.267	-30.21
271.483	8.7
271.698	49.66
271.914	109.05
272.13	12.8
272.346	31.23
272.562	23.04
272.777	41.47
272.993	37.38
273.209	27.14
273.425	12.8
273.64	-13.82
273.856	-11.78
274.072	-24.06
274.287	4.61
274.503	59.9
274.719	2.56
274.934	-7.68
275.15	-67.07
275.366	35.33
275.581	8.7
275.797	39.42
276.012	68.09
276.228	27.14
276.444	27.14
276.659	53.76
276.875	43.52
277.09	-22.02
277.306	-50.69
277.521	-3.58
277.737	14.85
277.952	86.53
278.168	10.75
278.383	61.95
278.599	10.75
278.814	20.99
279.03	-13.82
279.245	94.72
279.461	25.09
279.676	92.67
279.892	25.09
280.107	16.9
280.322	27.14
280.538	51.71
280.753	72.19
280.969	18.94
281.184	39.42
281.399	0.51
281.615	64
281.83	16.9
282.045	0.51
282.26	41.47
282.476	33.28
282.691	64
282.906	37.38
283.122	-5.63
283.337	27.14
283.552	49.66
283.767	68.09
283.983	49.66
284.198	25.09
284.413	82.43
284.628	-11.78
284.843	35.33
285.058	27.14
285.274	53.76
285.489	-22.02
285.704	39.42
285.919	18.94
286.134	-3.58
286.349	25.09
286.564	-32.26
286.779	16.9
286.995	102.91
287.21	33.28
287.425	68.09
287.64	33.28
287.855	33.28
288.07	8.7
288.285	12.8
288.5	74.24
288.715	-44.54
288.93	-77.31
289.145	-56.83
289.36	20.99
289.575	-28.16
289.79	49.66
290.004	33.28
290.219	57.86
290.434	35.33
290.649	27.14
290.864	-60.93
291.079	-15.87
291.294	25.09
291.509	41.47
291.724	16.9
291.938	18.94
292.153	-13.82
292.368	35.33
292.583	2.56
292.798	72.19
293.012	-22.02
293.227	-5.63
293.442	18.94
293.657	76.29
293.871	64
294.086	2.56
294.301	115.2
294.516	10.75
294.73	55.81
294.945	41.47
295.16	16.9
295.374	82.43
295.589	-11.78
295.804	20.99
296.018	-30.21
296.233	121.34
296.447	18.94
296.662	20.99
296.877	43.52
297.091	29.18
297.306	29.18
297.52	-17.92
297.735	43.52
297.949	68.09
298.164	6.66
298.378	2.56
298.593	-30.21
298.807	98.81
299.022	6.66
299.236	66.05
299.451	18.94
299.665	10.75
299.88	-54.78
300.094	-38.4
300.309	-24.06
300.523	121.34
300.737	43.52
300.952	25.09
301.166	66.05
301.381	2.56
301.595	12.8
301.809	-54.78
302.024	-36.35
302.238	18.94
302.452	100.86
302.667	-42.5
302.881	59.9
303.095	16.9
303.309	-15.87
303.524	29.18
303.738	10.75
303.952	-13.82
304.166	25.09
304.381	-54.78
304.595	53.76
304.809	-3.58
305.023	25.09
305.237	59.9
305.452	25.09
305.666	51.71
305.88	20.99
306.094	72.19
306.308	33.28
306.522	107.01
306.736	80.38
306.95	27.14
307.164	-28.16
307.379	10.75
307.593	14.85
307.807	57.86
308.021	10.75
308.235	-7.68
308.449	66.05
308.663	0.51
308.877	45.57
309.091	70.14
309.305	39.42
309.519	-15.87
309.733	23.04
309.947	51.71
310.161	0.51
310.374	20.99
310.588	94.72
310.802	31.23
311.016	68.09
311.23	84.48
311.444	-46.59
311.658	-75.26
311.872	74.24
312.085	51.71
312.299	47.62
312.513	84.48
312.727	84.48
312.941	-3.58
313.154	18.94
313.368	90.62
313.582	41.47
313.796	-1.54
314.009	-30.21
314.223	-1.54
314.437	-44.54
314.651	96.77
314.864	-24.06
315.078	-7.68
315.292	-15.87
315.505	12.8
315.719	-11.78
315.933	-5.63
316.146	-19.97
316.36	-38.4
316.573	102.91
316.787	31.23
317.001	51.71
317.214	33.28
317.428	-26.11
317.641	8.7
317.855	-17.92
318.068	-52.74
318.282	2.56
318.495	143.87
318.709	-15.87
318.922	57.86
319.136	49.66
319.349	70.14
319.563	-24.06
319.776	-40.45
319.99	-56.83
320.203	47.62
320.417	25.09
320.63	-5.63
320.843	37.38
321.057	53.76
321.27	-24.06
321.483	23.04
321.697	59.9
321.91	68.09
322.124	53.76
322.337	-19.97
322.55	-24.06
322.763	-9.73
322.977	37.38
323.19	-50.69
323.403	33.28
323.617	-15.87
323.83	25.09
324.043	59.9
324.256	20.99
324.469	6.66
324.683	-42.5
324.896	37.38
325.109	18.94
325.322	-24.06
325.535	10.75
325.748	-7.68
325.962	37.38
326.175	59.9
326.388	-46.59
326.601	66.05
326.814	8.7
327.027	92.67
327.24	0.51
327.453	18.94
327.666	49.66
327.879	18.94
328.092	66.05
328.305	76.29
328.518	-15.87
328.731	61.95
328.944	10.75
329.157	90.62
329.37	23.04
329.583	94.72
329.796	20.99
330.009	20.99
330.222	45.57
330.435	2.56
330.648	18.94
330.861	33.28
331.073	8.7
331.286	0.51
331.499	25.09
331.712	20.99
331.925	2.56
332.138	31.23
332.35	25.09
332.563	-3.58
332.776	-19.97
332.989	25.09
333.202	41.47
333.414	12.8
333.627	23.04
333.84	27.14
334.053	8.7
334.265	-5.63
334.478	-7.68
334.691	-7.68
334.903	-7.68
335.116	18.94
335.329	49.66
335.541	84.48
335.754	64
335.966	-60.93
336.179	4.61
336.392	-75.26
336.604	18.94
336.817	-19.97
337.029	39.42
337.242	94.72
337.454	94.72
337.667	59.9
337.88	109.05
338.092	25.09
338.305	35.33
338.517	41.47
338.729	-30.21
338.942	27.14
339.154	37.38
339.367	27.14
339.579	45.57
339.792	-11.78
340.004	74.24
340.217	31.23
340.429	31.23
340.641	27.14
340.854	4.61
341.066	66.05
341.278	41.47
341.491	29.18
341.703	27.14
341.915	45.57
342.128	82.43
342.34	86.53
342.552	-9.73
342.764	29.18
342.977	-3.58
343.189	27.14
343.401	66.05
343.613	-28.16
343.826	8.7
344.038	4.61
344.25	14.85
344.462	51.71
344.674	10.75
344.886	2.56
345.099	57.86
345.311	20.99
345.523	-13.82
345.735	-11.78
345.947	57.86
346.159	25.09
346.371	98.81
346.583	53.76
346.795	49.66
347.007	4.61
347.219	41.47
347.431	12.8
347.643	2.56
347.855	-15.87
348.067	35.33
348.279	27.14
348.491	47.62
348.703	68.09
348.915	31.23
349.127	6.66
349.339	2.56
349.551	20.99
349.763	0.51
349.975	45.57
350.187	-24.06
350.399	88.57
350.61	-1.54
350.822	33.28
351.034	37.38
351.246	-15.87
351.458	78.33
351.669	29.18
351.881	-15.87
352.093	84.48
352.305	14.85
352.517	18.94
352.728	59.9
352.94	49.66
353.152	37.38
353.363	12.8
353.575	104.96
353.787	102.91
353.999	-62.98
354.21	43.52
354.422	45.57
354.633	0.51
354.845	43.52
355.057	78.33
355.268	33.28
355.48	29.18
355.692	16.9
355.903	37.38
356.115	18.94
356.326	-15.87
356.538	25.09
356.749	35.33
356.961	51.71
357.172	45.57
357.384	57.86
357.595	74.24
357.807	72.19
358.018	4.61
358.23	37.38
358.441	29.18
358.653	39.42
358.864	-38.4
359.075	57.86
359.287	2.56
359.498	27.14
359.709	68.09
359.921	49.66
360.132	-7.68
360.344	43.52
360.555	66.05
360.766	25.09
360.977	20.99
361.189	20.99
361.4	57.86
361.611	-24.06
361.823	-15.87
362.034	27.14
362.245	25.09
362.456	53.76
362.667	-3.58
362.879	35.33
363.09	-28.16
363.301	80.38
363.512	-7.68
363.723	59.9
363.935	49.66
364.146	76.29
364.357	49.66
364.568	64
364.779	-38.4
364.99	98.81
365.201	-1.54
365.412	72.19
365.623	39.42
365.834	59.9
366.045	-1.54
366.256	20.99
366.467	53.76
366.678	49.66
366.889	10.75
367.1	-32.26
367.311	49.66
367.522	35.33
367.733	-24.06
367.944	76.29
368.155	8.7
368.366	18.94
368.577	14.85
368.788	2.56
368.999	-28.16
369.209	76.29
369.42	111.1
369.631	72.19
369.842	74.24
370.053	43.52
370.264	33.28
370.474	-9.73
370.685	33.28
370.896	-5.63
371.107	55.81
371.317	4.61
371.528	37.38
371.739	59.9
371.95	-24.06
372.16	27.14
372.371	18.94
372.582	-62.98
372.792	66.05
373.003	41.47
373.214	27.14
373.424	-1.54
373.635	20.99
373.846	33.28
374.056	43.52
374.267	45.57
374.477	6.66
374.688	2.56
374.898	16.9
375.109	57.86
375.319	14.85
375.53	109.05
375.74	80.38
375.951	53.76
376.161	2.56
376.372	57.86
376.582	-85.5
376.793	31.23
377.003	10.75
377.214	78.33
377.424	-22.02
377.635	23.04
377.845	4.61
378.055	66.05
378.266	27.14
378.476	12.8
378.686	4.61
378.897	41.47
379.107	-28.16
379.317	27.14
379.528	102.91
379.738	18.94
379.948	25.09
380.158	-15.87
380.369	47.62
380.579	86.53
380.789	29.18
380.999	25.09
381.21	41.47
381.42	59.9
381.63	-5.63
381.84	23.04
382.05	8.7
382.261	35.33
382.471	25.09
382.681	-30.21
382.891	-34.3
383.101	16.9
383.311	-13.82
383.521	43.52
383.731	18.94
383.941	43.52
384.151	31.23
384.361	-54.78
384.571	6.66
384.781	31.23
384.991	92.67
385.201	104.96
385.411	76.29
385.621	27.14
385.831	59.9
386.041	33.28
386.251	45.57
386.461	64
386.671	0.51
386.881	-24.06
387.091	57.86
387.301	49.66
387.511	90.62
387.72	6.66
387.93	45.57
388.14	-48.64
388.35	-19.97
388.56	20.99
388.769	53.76
388.979	23.04
389.189	-1.54
389.399	41.47
389.609	14.85
389.818	49.66
390.028	33.28
390.238	-3.58
390.447	125.44
390.657	59.9
390.867	29.18
391.076	-40.45
391.286	12.8
391.496	68.09
391.705	-13.82
391.915	49.66
392.125	94.72
392.334	64
392.544	80.38
392.753	45.57
392.963	31.23
393.172	33.28
393.382	29.18
393.591	68.09
393.801	-3.58
394.01	57.86
394.22	104.96
394.429	43.52
394.639	55.81
394.848	152.06
395.058	53.76
395.267	49.66
395.477	55.81
395.686	43.52
395.895	107.01
396.105	109.05
396.314	72.19
396.524	66.05
396.733	47.62
396.942	53.76
397.152	59.9
397.361	47.62
397.57	96.77
397.78	84.48
397.989	82.43
398.198	121.34
398.407	72.19
398.617	98.81
398.826	53.76
399.035	94.72
399.244	117.25
399.453	96.77
399.663	43.52
399.872	43.52
400.081	64
400.29	109.05
400.499	31.23
400.708	98.81
400.917	59.9
401.127	29.18
401.336	98.81
401.545	131.58
401.754	82.43
401.963	59.9
402.172	92.67
402.381	49.66
402.59	98.81
402.799	139.77
403.008	18.94
403.217	125.44
403.426	96.77
403.635	115.2
403.844	74.24
404.053	115.2
404.262	133.63
404.471	131.58
404.68	119.29
404.888	92.67
405.097	133.63
405.306	147.97
405.515	117.25
405.724	137.73
405.933	88.57
406.142	147.97
406.35	150.01
406.559	133.63
406.768	143.87
406.977	143.87
407.185	86.53
407.394	133.63
407.603	152.06
407.812	84.48
408.02	240.12
408.229	119.29
408.438	125.44
408.646	176.64
408.855	225.79
409.064	211.45
409.272	242.17
409.481	201.21
409.69	176.64
409.898	223.74
410.107	221.69
410.315	287.23
410.524	205.31
410.733	283.13
410.941	254.46
411.15	285.18
411.358	274.94
411.567	350.71
411.775	295.42
411.984	311.8
412.192	272.89
412.401	352.76
412.609	371.19
412.818	403.96
413.026	381.43
413.234	393.72
413.443	363
413.651	479.74
413.86	395.77
414.068	459.26
414.276	545.27
414.485	438.78
414.693	541.18
414.901	543.22
415.11	623.09
415.318	551.42
415.526	610.81
415.734	668.15
415.943	664.05
416.151	614.9
416.359	616.95
416.567	707.06
416.776	729.59
416.984	829.94
417.192	852.47
417.4	737.78
417.608	745.97
417.817	838.13
418.025	969.2
418.233	911.86
418.441	899.57
418.649	1065.46
418.857	1038.83
419.065	1122.8
419.273	1057.26
419.481	1001.97
419.689	1108.46
419.897	1247.72
420.105	1270.25
420.313	1278.44
420.521	1253.87
420.729	1307.12
420.937	1300.97
421.145	1348.08
421.353	1516.01
421.561	1569.26
421.769	1571.3
421.977	1585.64
422.185	1589.74
422.393	1812.96
422.601	1829.35
422.809	1909.22
423.017	1896.93
423.224	1925.6
423.432	1980.9
423.64	2085.34
423.848	2148.83
424.056	2163.17
424.263	2310.62
424.471	2294.24
424.679	2410.97
424.887	2425.31
425.094	2419.16
425.302	2654.68
425.51	2662.87
425.718	2795.99
425.925	2793.94
426.133	2839
426.341	2939.35
426.548	3181.01
426.756	3062.23
426.964	3144.14
427.171	3459.53
427.379	3443.15
427.586	3504.59
427.794	3830.21
428.001	3891.65
428.209	3949
428.417	3809.73
428.624	4155.84
428.832	4213.18
429.039	4184.51
429.247	4219.33
429.454	4536.76
429.662	4866.49
429.869	4532.67
430.076	4843.96
430.284	4852.15
430.491	4882.87
430.699	5226.93
430.906	5169.59
431.114	5185.97
431.321	5392.81
431.528	5540.27
431.736	5970.34
431.943	6115.75
432.15	6242.72
432.358	6171.04
432.565	6424.99
432.772	6511
432.979	6771.1
433.187	6803.86
433.394	6875.54
433.601	7276.94
433.808	7391.63
434.016	7397.78
434.223	7752.07
434.43	8153.48
434.637	7940.49
434.844	8495.49
435.052	8604.03
435.259	8558.97
435.466	8651.13
435.673	8534.4
435.88	9111.92
436.087	9660.78
436.294	9671.02
436.501	9357.68
436.708	9650.54
436.915	9949.54
437.122	10432.86
437.329	10465.63
437.537	10946.9
437.743	10883.42
437.95	10781.02
438.157	11510.1
438.364	11653.45
438.571	11698.51
438.778	11645.26
438.985	12697.92
439.192	12366.15
439.399	12796.22
439.606	12329.28
439.813	13353.27
440.02	13889.84
440.227	13781.29
440.433	13533.49
440.64	14041.39
440.847	13769.01
441.054	14391.59
441.261	15132.95
441.467	14977.31
441.674	15452.44
441.881	15941.9
442.088	15931.66
442.294	16001.29
442.501	16197.9
442.708	16455.94
442.914	17088.76
443.121	17955.05
443.328	17490.17
443.534	18755.81
443.741	17967.34
443.948	17799.41
444.154	19052.77
444.361	19294.43
444.568	19314.91
444.774	19001.57
444.981	19392.73
445.187	19642.58
445.394	21113.02
445.6	20553.93
445.807	22706.34
446.013	21692.6
446.22	22077.62
446.426	22943.91
446.633	23351.45
446.839	23902.36
447.046	22583.46
447.252	24260.75
447.459	23965.84
447.665	23916.69
447.871	25309.31
448.078	26263.66
448.284	24723.59
448.491	25581.69
448.697	26959.97
448.903	27263.07
449.11	27504.73
449.316	26933.35
449.522	27244.64
449.728	28334.16
449.935	28012.63
450.141	28385.36
450.347	29280.32
450.553	27928.66
450.76	28475.47
450.966	29458.49
451.172	29093.96
451.378	29827.13
451.584	29567.04
451.791	30173.24
451.997	29968.44
452.203	30353.46
452.409	30787.63
452.615	30165.04
452.821	29395.01
453.027	28995.65
453.233	30670.89
453.44	29497.41
453.646	29937.72
453.852	29880.38
454.058	30494.77
454.264	29261.89
454.47	30363.7
454.676	29675.58
454.882	30623.79
455.088	27701.34
455.294	28182.61
455.5	28651.59
455.705	29112.39
455.911	27906.13
456.117	27428.96
456.323	27136.1
456.529	25716.86
456.735	26833
456.941	26355.82
457.147	25499.77
457.352	25141.38
457.558	24600.71
457.764	24619.14
457.97	24248.46
458.176	24025.23
458.381	23941.27
458.587	22458.54
458.793	22495.4
458.999	21342.39
459.204	23064.74
459.41	22329.52
459.616	20852.93
459.821	20863.17
460.027	20867.27
460.233	20265.16
460.438	19284.19
460.644	19476.69
460.85	18620.64
461.055	18372.84
461.261	18247.91
461.466	17094.91
461.672	16605.44
461.878	17590.52
462.083	16646.4
462.289	16013.58
462.494	15902.99
462.7	15223.06
462.905	14854.43
463.111	15327.51
463.316	15798.54
463.522	14960.92
463.727	14944.54
463.932	14991.64
464.138	15114.52
464.343	15010.07
464.549	14625.06
464.754	14852.38
464.959	14819.61
465.165	14700.83
465.37	14182.7
465.575	13824.3
465.781	14420.26
465.986	14569.76
466.191	13908.27
466.397	13496.63
466.602	13140.28
466.807	13302.07
467.012	13517.11
467.218	13375.8
467.423	13166.9
467.628	13373.75
467.833	13926.7
468.038	13306.16
468.244	12857.66
