Data from USB4F104151__44__13-11-14-501.txt Node

Date: Fri Mar 14 13:11:14 EDT 2025
User: louis
Spectrometer: USB4F10415
Trigger mode: 4
Integration Time (sec): 2.000000E-2
Scans to average: 1
Electric dark correction enabled: true
Nonlinearity correction enabled: false
Boxcar width: 0
XAxis mode: Wavelengths
Number of Pixels in Spectrum: 3648
>>>>>Begin Spectral Data<<<<<
178.204	-121.17
178.424	-121.17
178.644	-121.17
178.864	-53.59
179.084	-59.73
179.304	-8.53
179.524	-45.4
179.744	34.47
179.964	-22.87
180.184	-0.34
180.404	-74.07
180.624	28.33
180.844	-26.96
181.064	5.8
181.283	-2.39
181.503	20.14
181.723	91.82
181.943	-18.77
182.163	38.57
182.383	-51.54
182.602	57
182.822	87.72
183.042	-35.16
183.262	-37.2
183.482	44.71
183.701	-41.3
183.921	48.81
184.141	11.95
184.361	89.77
184.58	-6.49
184.8	13.99
185.02	-39.25
185.239	46.76
185.459	-59.73
185.679	5.8
185.898	-8.53
186.118	34.47
186.338	7.85
186.557	93.87
186.777	-43.35
186.997	59.05
187.216	-10.58
187.436	24.23
187.655	52.91
187.875	-33.11
188.095	30.38
188.314	46.76
188.534	67.24
188.753	16.04
188.973	-16.73
189.192	-49.49
189.412	-18.77
189.631	13.99
189.851	1.71
190.07	22.19
190.29	11.95
190.509	22.19
190.729	46.76
190.948	81.58
191.168	91.82
191.387	24.23
191.607	16.04
191.826	110.25
192.045	-8.53
192.265	-41.3
192.484	-29.01
192.704	20.14
192.923	-4.44
193.142	34.47
193.362	22.19
193.581	28.33
193.8	26.28
194.02	79.53
194.239	24.23
194.458	-16.73
194.678	1.71
194.897	59.05
195.116	-47.44
195.335	1.71
195.555	7.85
195.774	-2.39
195.993	-2.39
196.212	52.91
196.432	57
196.651	13.99
196.87	-26.96
197.089	114.34
197.308	71.34
197.528	108.2
197.747	-63.83
197.966	-67.92
198.185	-2.39
198.404	-45.4
198.623	16.04
198.842	7.85
199.062	46.76
199.281	-31.06
199.5	1.71
199.719	7.85
199.938	24.23
200.157	77.48
200.376	83.63
200.595	63.15
200.814	48.81
201.033	5.8
201.252	38.57
201.471	20.14
201.69	30.38
201.909	16.04
202.128	16.04
202.347	36.52
202.566	42.67
202.785	7.85
203.004	-22.87
203.223	48.81
203.442	20.14
203.661	-92.5
203.879	-55.64
204.098	73.39
204.317	-0.34
204.536	38.57
204.755	48.81
204.974	28.33
205.193	3.75
205.411	63.15
205.63	50.86
205.849	-33.11
206.068	-31.06
206.287	-39.25
206.505	110.25
206.724	54.95
206.943	89.77
207.162	26.28
207.381	-22.87
207.599	18.09
207.818	5.8
208.037	32.43
208.255	3.75
208.474	20.14
208.693	13.99
208.911	-26.96
209.13	48.81
209.349	40.62
209.567	18.09
209.786	-35.16
210.005	32.43
210.223	20.14
210.442	-12.63
210.661	46.76
210.879	-10.58
211.098	-31.06
211.316	20.14
211.535	-10.58
211.753	22.19
211.972	28.33
212.191	-6.49
212.409	54.95
212.628	5.8
212.846	-47.44
213.065	85.67
213.283	59.05
213.502	-12.63
213.72	-22.87
213.938	54.95
214.157	-10.58
214.375	38.57
214.594	22.19
214.812	61.1
215.031	71.34
215.249	5.8
215.467	-6.49
215.686	-8.53
215.904	32.43
216.122	67.24
216.341	11.95
216.559	38.57
216.778	112.3
216.996	-8.53
217.214	34.47
217.432	-14.68
217.651	18.09
217.869	-22.87
218.087	65.19
218.306	63.15
218.524	87.72
218.742	-26.96
218.96	-2.39
219.179	-18.77
219.397	9.9
219.615	34.47
219.833	48.81
220.051	13.99
220.27	69.29
220.488	5.8
220.706	11.95
220.924	-43.35
221.142	34.47
221.36	-24.92
221.578	-24.92
221.796	5.8
222.015	18.09
222.233	13.99
222.451	54.95
222.669	7.85
222.887	75.43
223.105	-43.35
223.323	7.85
223.541	-2.39
223.759	7.85
223.977	32.43
224.195	73.39
224.413	46.76
224.631	-16.73
224.849	18.09
225.067	149.16
225.285	1.71
225.503	13.99
225.721	-33.11
225.939	7.85
226.157	9.9
226.375	71.34
226.592	26.28
226.81	18.09
227.028	-39.25
227.246	130.73
227.464	65.19
227.682	50.86
227.9	-55.64
228.117	52.91
228.335	-57.68
228.553	16.04
228.771	5.8
228.989	48.81
229.206	16.04
229.424	67.24
229.642	-63.83
229.86	1.71
230.077	26.28
230.295	-2.39
230.513	-8.53
230.731	77.48
230.948	71.34
231.166	91.82
231.384	-10.58
231.601	16.04
231.819	48.81
232.037	-6.49
232.254	16.04
232.472	-18.77
232.689	54.95
232.907	34.47
233.125	7.85
233.342	-0.34
233.56	-26.96
233.777	34.47
233.995	-2.39
234.213	13.99
234.43	85.67
234.648	54.95
234.865	-39.25
235.083	59.05
235.3	22.19
235.518	87.72
235.735	5.8
235.953	28.33
236.17	48.81
236.388	-41.3
236.605	26.28
236.822	52.91
237.04	26.28
237.257	59.05
237.475	5.8
237.692	100.01
237.909	46.76
238.127	16.04
238.344	-14.68
238.562	34.47
238.779	-41.3
238.996	9.9
239.214	32.43
239.431	57
239.648	24.23
239.865	79.53
240.083	-4.44
240.3	-31.06
240.517	91.82
240.735	89.77
240.952	-18.77
241.169	104.11
241.386	16.04
241.603	1.71
241.821	-0.34
242.038	28.33
242.255	63.15
242.472	-37.2
242.689	52.91
242.907	75.43
243.124	30.38
243.341	38.57
243.558	52.91
243.775	-18.77
243.992	-22.87
244.209	102.06
244.426	126.63
244.643	81.58
244.86	-2.39
245.078	5.8
245.295	-22.87
245.512	54.95
245.729	7.85
245.946	-18.77
246.163	-20.82
246.38	11.95
246.597	24.23
246.814	-31.06
247.031	30.38
247.248	81.58
247.464	-24.92
247.681	-2.39
247.898	30.38
248.115	-12.63
248.332	-92.5
248.549	48.81
248.766	38.57
248.983	26.28
249.2	-12.63
249.417	7.85
249.633	7.85
249.85	-59.73
250.067	85.67
250.284	24.23
250.501	5.8
250.717	-0.34
250.934	59.05
251.151	-43.35
251.368	7.85
251.585	26.28
251.801	26.28
252.018	-51.54
252.235	-10.58
252.451	20.14
252.668	-14.68
252.885	22.19
253.102	54.95
253.318	9.9
253.535	44.71
253.752	54.95
253.968	-33.11
254.185	-26.96
254.401	-16.73
254.618	-20.82
254.835	-26.96
255.051	71.34
255.268	7.85
255.484	93.87
255.701	48.81
255.917	48.81
256.134	38.57
256.351	11.95
256.567	-10.58
256.784	40.62
257	26.28
257.217	24.23
257.433	38.57
257.65	40.62
257.866	16.04
258.082	-4.44
258.299	-43.35
258.515	30.38
258.732	46.76
258.948	-31.06
259.165	9.9
259.381	-57.68
259.597	-63.83
259.814	-31.06
260.03	38.57
260.246	-0.34
260.463	11.95
260.679	63.15
260.895	-16.73
261.112	-8.53
261.328	9.9
261.544	-57.68
261.761	32.43
261.977	100.01
262.193	-45.4
262.409	-35.16
262.626	11.95
262.842	-18.77
263.058	-4.44
263.274	-14.68
263.49	-2.39
263.707	63.15
263.923	69.29
264.139	38.57
264.355	13.99
264.571	46.76
264.787	9.9
265.004	1.71
265.22	9.9
265.436	116.39
265.652	54.95
265.868	46.76
266.084	-10.58
266.3	65.19
266.516	40.62
266.732	-4.44
266.948	26.28
267.164	36.52
267.38	1.71
267.596	42.67
267.812	67.24
268.028	-92.5
268.244	87.72
268.46	48.81
268.676	18.09
268.892	28.33
269.108	16.04
269.324	34.47
269.54	-20.82
269.756	-10.58
269.972	79.53
270.188	91.82
270.403	-2.39
270.619	57
270.835	40.62
271.051	32.43
271.267	13.99
271.483	-45.4
271.698	24.23
271.914	9.9
272.13	73.39
272.346	106.15
272.562	1.71
272.777	-0.34
272.993	67.24
273.209	-16.73
273.425	22.19
273.64	50.86
273.856	63.15
274.072	-4.44
274.287	-108.88
274.503	24.23
274.719	-10.58
274.934	22.19
275.15	13.99
275.366	-18.77
275.581	-43.35
275.797	16.04
276.012	-12.63
276.228	3.75
276.444	57
276.659	-26.96
276.875	42.67
277.09	71.34
277.306	-0.34
277.521	-0.34
277.737	-51.54
277.952	22.19
278.168	-43.35
278.383	-26.96
278.599	69.29
278.814	116.39
279.03	57
279.245	38.57
279.461	65.19
279.676	30.38
279.892	-8.53
280.107	75.43
280.322	34.47
280.538	95.91
280.753	-41.3
280.969	22.19
281.184	16.04
281.399	126.63
281.615	87.72
281.83	48.81
282.045	50.86
282.26	-22.87
282.476	118.44
282.691	85.67
282.906	16.04
283.122	61.1
283.337	-22.87
283.552	100.01
283.767	-10.58
283.983	-2.39
284.198	-6.49
284.413	59.05
284.628	-67.92
284.843	30.38
285.058	75.43
285.274	-18.77
285.489	22.19
285.704	5.8
285.919	38.57
286.134	7.85
286.349	95.91
286.564	38.57
286.779	40.62
286.995	100.01
287.21	-10.58
287.425	85.67
287.64	30.38
287.855	95.91
288.07	-8.53
288.285	30.38
288.5	91.82
288.715	122.54
288.93	-18.77
289.145	-2.39
289.36	-8.53
289.575	16.04
289.79	1.71
290.004	108.2
290.219	48.81
290.434	97.96
290.649	9.9
290.864	48.81
291.079	34.47
291.294	-6.49
291.509	32.43
291.724	67.24
291.938	1.71
292.153	-10.58
292.368	69.29
292.583	40.62
292.798	108.2
293.012	9.9
293.227	-0.34
293.442	87.72
293.657	38.57
293.871	34.47
294.086	16.04
294.301	36.52
294.516	9.9
294.73	-41.3
294.945	-55.64
295.16	-10.58
295.374	34.47
295.589	73.39
295.804	5.8
296.018	50.86
296.233	77.48
296.447	-6.49
296.662	-57.68
296.877	67.24
297.091	-24.92
297.306	-61.78
297.52	-41.3
297.735	-22.87
297.949	75.43
298.164	-39.25
298.378	71.34
298.593	-57.68
298.807	-37.2
299.022	50.86
299.236	1.71
299.451	61.1
299.665	75.43
299.88	16.04
300.094	89.77
300.309	13.99
300.523	30.38
300.737	-12.63
300.952	52.91
301.166	-8.53
301.381	18.09
301.595	9.9
301.809	1.71
302.024	-57.68
302.238	5.8
302.452	149.16
302.667	24.23
302.881	40.62
303.095	-47.44
303.309	-33.11
303.524	48.81
303.738	87.72
303.952	9.9
304.166	-0.34
304.381	11.95
304.595	-10.58
304.809	54.95
305.023	106.15
305.237	3.75
305.452	57
305.666	22.19
305.88	9.9
306.094	79.53
306.308	-0.34
306.522	100.01
306.736	54.95
306.95	5.8
307.164	-18.77
307.379	-61.78
307.593	57
307.807	102.06
308.021	48.81
308.235	50.86
308.449	-65.88
308.663	30.38
308.877	44.71
309.091	11.95
309.305	40.62
309.519	9.9
309.733	102.06
309.947	-10.58
310.161	52.91
310.374	32.43
310.588	77.48
310.802	-6.49
311.016	32.43
311.23	81.58
311.444	-39.25
311.658	7.85
311.872	32.43
312.085	75.43
312.299	-2.39
312.513	9.9
312.727	-2.39
312.941	63.15
313.154	-8.53
313.368	40.62
313.582	1.71
313.796	44.71
314.009	30.38
314.223	-18.77
314.437	40.62
314.651	13.99
314.864	100.01
315.078	9.9
315.292	-16.73
315.505	-20.82
315.719	46.76
315.933	-18.77
316.146	9.9
316.36	52.91
316.573	36.52
316.787	-37.2
317.001	36.52
317.214	5.8
317.428	36.52
317.641	-6.49
317.855	-10.58
318.068	16.04
318.282	57
318.495	11.95
318.709	30.38
318.922	67.24
319.136	-41.3
319.349	-2.39
319.563	46.76
319.776	93.87
319.99	46.76
320.203	63.15
320.417	54.95
320.63	48.81
320.843	22.19
321.057	5.8
321.27	63.15
321.483	32.43
321.697	85.67
321.91	-18.77
322.124	-2.39
322.337	61.1
322.55	-0.34
322.763	42.67
322.977	46.76
323.19	-22.87
323.403	65.19
323.617	-8.53
323.83	24.23
324.043	18.09
324.256	-16.73
324.469	24.23
324.683	95.91
324.896	73.39
325.109	-22.87
325.322	32.43
325.535	75.43
325.748	11.95
325.962	26.28
326.175	-26.96
326.388	13.99
326.601	63.15
326.814	30.38
327.027	22.19
327.24	38.57
327.453	-0.34
327.666	112.3
327.879	-0.34
328.092	95.91
328.305	30.38
328.518	63.15
328.731	5.8
328.944	-0.34
329.157	61.1
329.37	28.33
329.583	38.57
329.796	28.33
330.009	-2.39
330.222	65.19
330.435	30.38
330.648	77.48
330.861	24.23
331.073	1.71
331.286	30.38
331.499	57
331.712	-49.49
331.925	18.09
332.138	5.8
332.35	52.91
332.563	1.71
332.776	16.04
332.989	34.47
333.202	-12.63
333.414	81.58
333.627	-26.96
333.84	36.52
334.053	79.53
334.265	-16.73
334.478	59.05
334.691	7.85
334.903	16.04
335.116	22.19
335.329	67.24
335.541	40.62
335.754	79.53
335.966	-63.83
336.179	22.19
336.392	28.33
336.604	57
336.817	7.85
337.029	-14.68
337.242	-33.11
337.454	-37.2
337.667	42.67
337.88	-4.44
338.092	-55.64
338.305	38.57
338.517	48.81
338.729	75.43
338.942	42.67
339.154	73.39
339.367	-18.77
339.579	40.62
339.792	65.19
340.004	26.28
340.217	46.76
340.429	-33.11
340.641	22.19
340.854	26.28
341.066	48.81
341.278	73.39
341.491	16.04
341.703	54.95
341.915	5.8
342.128	63.15
342.34	-2.39
342.552	97.96
342.764	-0.34
342.977	34.47
343.189	59.05
343.401	100.01
343.613	-33.11
343.826	75.43
344.038	-14.68
344.25	36.52
344.462	22.19
344.674	22.19
344.886	54.95
345.099	46.76
345.311	11.95
345.523	-22.87
345.735	1.71
345.947	42.67
346.159	-29.01
346.371	44.71
346.583	20.14
346.795	-18.77
347.007	42.67
347.219	65.19
347.431	120.49
347.643	134.82
347.855	26.28
348.067	50.86
348.279	-24.92
348.491	87.72
348.703	40.62
348.915	65.19
349.127	3.75
349.339	50.86
349.551	-29.01
349.763	9.9
349.975	79.53
350.187	38.57
350.399	40.62
350.61	48.81
350.822	22.19
351.034	40.62
351.246	54.95
351.458	59.05
351.669	32.43
351.881	30.38
352.093	100.01
352.305	26.28
352.517	40.62
352.728	18.09
352.94	52.91
353.152	48.81
353.363	-4.44
353.575	71.34
353.787	57
353.999	28.33
354.21	42.67
354.422	54.95
354.633	-6.49
354.845	-2.39
355.057	46.76
355.268	-0.34
355.48	9.9
355.692	46.76
355.903	26.28
356.115	24.23
356.326	-2.39
356.538	32.43
356.749	28.33
356.961	100.01
357.172	59.05
357.384	42.67
357.595	-2.39
357.807	24.23
358.018	5.8
358.23	-37.2
358.441	73.39
358.653	116.39
358.864	-35.16
359.075	-8.53
359.287	46.76
359.498	67.24
359.709	9.9
359.921	-10.58
360.132	9.9
360.344	30.38
360.555	44.71
360.766	11.95
360.977	79.53
361.189	61.1
361.4	-6.49
361.611	32.43
361.823	77.48
362.034	18.09
362.245	-6.49
362.456	40.62
362.667	65.19
362.879	-24.92
363.09	24.23
363.301	126.63
363.512	-10.58
363.723	32.43
363.935	-18.77
364.146	67.24
364.357	67.24
364.568	30.38
364.779	16.04
364.99	128.68
365.201	13.99
365.412	52.91
365.623	-2.39
365.834	-57.68
366.045	20.14
366.256	118.44
366.467	-8.53
366.678	22.19
366.889	13.99
367.1	63.15
367.311	61.1
367.522	-39.25
367.733	75.43
367.944	42.67
368.155	1.71
368.366	42.67
368.577	104.11
368.788	69.29
368.999	-39.25
369.209	-24.92
369.42	87.72
369.631	132.78
369.842	57
370.053	54.95
370.264	69.29
370.474	112.3
370.685	-57.68
370.896	42.67
371.107	22.19
371.317	22.19
371.528	63.15
371.739	71.34
371.95	57
372.16	73.39
372.371	63.15
372.582	32.43
372.792	57
373.003	116.39
373.214	95.91
373.424	-49.49
373.635	42.67
373.846	67.24
374.056	13.99
374.267	-35.16
374.477	22.19
374.688	46.76
374.898	40.62
375.109	-55.64
375.319	71.34
375.53	87.72
375.74	79.53
375.951	-26.96
376.161	26.28
376.372	3.75
376.582	44.71
376.793	57
377.003	57
377.214	46.76
377.424	-14.68
377.635	57
377.845	61.1
378.055	46.76
378.266	34.47
378.476	87.72
378.686	32.43
378.897	85.67
379.107	40.62
379.317	38.57
379.528	38.57
379.738	59.05
379.948	-59.73
380.158	61.1
380.369	-2.39
380.579	97.96
380.789	75.43
380.999	-43.35
381.21	20.14
381.42	48.81
381.63	38.57
381.84	40.62
382.05	57
382.261	73.39
382.471	30.38
382.681	-22.87
382.891	93.87
383.101	65.19
383.311	7.85
383.521	106.15
383.731	104.11
383.941	85.67
384.151	26.28
384.361	20.14
384.571	81.58
384.781	54.95
384.991	114.34
385.201	71.34
385.411	122.54
385.621	24.23
385.831	24.23
386.041	77.48
386.251	20.14
386.461	18.09
386.671	24.23
386.881	30.38
387.091	-63.83
387.301	24.23
387.511	-0.34
387.72	83.63
387.93	79.53
388.14	9.9
388.35	46.76
388.56	143.02
388.769	91.82
388.979	-0.34
389.189	48.81
389.399	102.06
389.609	1.71
389.818	36.52
390.028	9.9
390.238	71.34
390.447	30.38
390.657	32.43
390.867	1.71
391.076	-31.06
391.286	71.34
391.496	38.57
391.705	57
391.915	-6.49
392.125	77.48
392.334	-35.16
392.544	26.28
392.753	59.05
392.963	46.76
393.172	26.28
393.382	75.43
393.591	95.91
393.801	65.19
394.01	73.39
394.22	38.57
394.429	87.72
394.639	89.77
394.848	30.38
395.058	54.95
395.267	102.06
395.477	61.1
395.686	46.76
395.895	83.63
396.105	112.3
396.314	91.82
396.524	83.63
396.733	73.39
396.942	112.3
397.152	13.99
397.361	85.67
397.57	122.54
397.78	97.96
397.989	44.71
398.198	83.63
398.407	87.72
398.617	116.39
398.826	52.91
399.035	104.11
399.244	48.81
399.453	79.53
399.663	32.43
399.872	108.2
400.081	95.91
400.29	87.72
400.499	40.62
400.708	179.88
400.917	20.14
401.127	97.96
401.336	73.39
401.545	110.25
401.754	54.95
401.963	85.67
402.172	85.67
402.381	65.19
402.59	112.3
402.799	48.81
403.008	167.59
403.217	95.91
403.426	161.45
403.635	57
403.844	85.67
404.053	89.77
404.262	130.73
404.471	171.69
404.68	112.3
404.888	126.63
405.097	132.78
405.306	54.95
405.515	124.58
405.724	149.16
405.933	122.54
406.142	161.45
406.35	42.67
406.559	134.82
406.768	181.93
406.977	161.45
407.185	104.11
407.394	114.34
407.603	108.2
407.812	97.96
408.02	163.5
408.229	102.06
408.438	132.78
408.646	87.72
408.855	163.5
409.064	173.74
409.272	161.45
409.481	216.74
409.69	179.88
409.898	288.42
410.107	179.88
410.315	196.26
410.524	278.18
410.733	265.89
410.941	226.98
411.15	239.27
411.358	333.48
411.567	239.27
411.775	315.05
411.984	278.18
412.192	325.29
412.401	329.38
412.609	319.14
412.818	407.2
413.026	362.15
413.234	319.14
413.443	272.04
413.651	349.86
413.86	431.78
414.068	458.4
414.276	474.79
414.485	464.55
414.693	448.16
414.901	468.64
415.11	528.03
415.318	513.7
415.526	532.13
415.734	554.66
415.943	577.19
416.151	577.19
416.359	605.86
416.567	607.91
416.776	693.92
416.984	669.34
417.192	726.69
417.4	720.54
417.608	652.96
417.817	753.31
418.025	784.03
418.233	870.05
418.441	847.52
418.649	949.92
418.857	978.59
419.065	945.82
419.273	1007.26
419.481	1025.69
419.689	1085.08
419.897	1087.13
420.105	1076.89
420.313	1193.62
420.521	1201.82
420.729	1265.3
420.937	1179.29
421.145	1390.23
421.353	1441.43
421.561	1396.37
421.769	1400.47
421.977	1535.64
422.185	1468.05
422.393	1603.22
422.601	1584.79
422.809	1762.96
423.017	1771.15
423.224	1779.34
423.432	1898.13
423.64	1969.8
423.848	2070.16
424.056	1965.71
424.263	2178.7
424.471	2098.83
424.679	2053.77
424.887	2317.96
425.094	2252.42
425.302	2506.37
425.51	2416.26
425.718	2588.29
425.925	2635.39
426.133	2563.72
426.341	2758.27
426.548	2932.35
426.756	2956.93
426.964	3047.04
427.171	3090.04
427.379	3214.97
427.586	3260.02
427.794	3430.01
428.001	3589.75
428.209	3712.63
428.417	3661.43
428.624	3831.41
428.832	3905.14
429.039	3987.05
429.247	3901.04
429.454	4257.39
429.662	4501.09
429.869	4173.42
430.076	4548.2
430.284	4548.2
430.491	4593.25
430.699	4669.03
430.906	4832.86
431.114	4929.12
431.321	5224.03
431.528	5236.31
431.736	5602.9
431.943	5815.89
432.15	5512.79
432.358	5715.54
432.565	6037.07
432.772	6069.84
432.979	6311.5
433.187	6372.94
433.394	6475.34
433.601	6848.07
433.808	6954.56
434.016	6815.3
434.223	7073.34
434.43	7634.49
434.637	7575.1
434.844	7960.11
435.052	8181.29
435.259	8250.92
435.466	8209.97
435.673	8046.13
435.88	8719.91
436.087	9137.7
436.294	9160.22
436.501	8853.03
436.708	9010.72
436.915	9276.96
437.122	9860.63
437.329	9846.29
437.537	10241.55
437.743	10354.19
437.95	10032.66
438.157	10466.83
438.364	11230.72
438.571	10995.2
438.778	10978.82
438.985	12162.55
439.192	11650.55
439.399	11931.12
439.606	11859.45
439.813	12342.77
440.02	13233.63
440.227	12928.49
440.433	12776.94
440.64	13231.58
440.847	13145.57
441.054	13508.06
441.261	14394.83
441.467	14075.35
441.674	14355.92
441.881	14998.98
442.088	15007.17
442.294	14910.92
442.501	15252.93
442.708	15549.89
442.914	16291.25
443.121	16872.87
443.328	16287.15
443.534	17692.06
443.741	17198.5
443.948	16924.07
444.154	17993.11
444.361	18040.22
444.568	18265.49
444.774	18230.68
444.981	18367.89
445.187	18728.33
445.394	19506.56
445.6	19465.6
445.807	21239.14
446.013	20690.29
446.22	20686.19
446.426	21755.23
446.633	21716.32
446.839	22623.57
447.046	21515.62
447.252	22986.06
447.459	22861.13
447.665	22785.36
447.871	23936.32
448.078	24874.29
448.284	24008
448.491	24655.15
448.697	25402.66
448.903	25894.18
449.11	25849.12
449.316	25394.47
449.522	26197.27
449.728	26807.57
449.935	26969.36
450.141	27073.81
450.347	28019.97
450.553	26613.01
450.76	27401.48
450.966	27903.23
451.172	28056.83
451.378	28675.32
451.584	28140.8
451.791	28585.21
451.997	28546.3
452.203	29068.53
452.409	28800.24
452.615	28912.88
452.821	27655.43
453.027	27634.95
453.233	29025.52
453.44	28046.59
453.646	28331.26
453.852	28388.6
454.058	28747
454.264	28110.08
454.47	28779.76
454.676	27911.42
454.882	29152.49
455.088	26539.29
455.294	27036.94
455.5	27186.44
455.705	27901.18
455.911	26805.52
456.117	26076.44
456.323	25769.25
456.529	24571.19
456.735	25453.86
456.941	24657.2
457.147	24470.84
457.352	23729.47
457.558	23162.19
457.764	23424.33
457.97	23033.16
458.176	22672.72
458.381	22900.05
458.587	21394.79
458.793	21368.16
458.999	20366.71
459.204	21835.1
459.41	21017.96
459.616	19690.88
459.821	19780.99
460.027	19576.19
460.233	19701.12
460.438	18597.26
460.644	18738.57
460.85	17892.76
461.055	17569.18
461.261	17845.66
461.466	16399.79
461.672	15404.48
461.878	16909.74
462.083	15484.35
462.289	15478.21
462.494	15201.73
462.7	14659.02
462.905	14255.57
463.111	14542.28
463.316	14833.1
463.522	14392.78
463.727	14607.82
463.932	14587.34
464.138	14390.74
464.343	14302.67
464.549	14224.85
464.754	14294.48
464.959	14106.07
465.165	14208.47
465.37	13555.16
465.575	13307.36
465.781	13854.17
465.986	13809.11
466.191	13116.9
466.397	13202.91
466.602	12195.31
466.807	13063.65
467.012	13018.6
467.218	12885.48
467.423	12506.6
467.628	12723.69
467.833	13155.81
468.038	12776.94
468.244	12371.44
