Data from USB4F104151__98__13-14-06-502.txt Node

Date: Fri Mar 14 13:14:06 EDT 2025
User: louis
Spectrometer: USB4F10415
Trigger mode: 4
Integration Time (sec): 2.000000E-2
Scans to average: 1
Electric dark correction enabled: true
Nonlinearity correction enabled: false
Boxcar width: 0
XAxis mode: Wavelengths
Number of Pixels in Spectrum: 3648
>>>>>Begin Spectral Data<<<<<
178.204	-71.34
178.424	-71.34
178.644	-71.34
178.864	-110.25
179.084	-67.24
179.304	-7.85
179.524	10.58
179.744	33.11
179.964	-50.86
180.184	72.02
180.404	26.96
180.624	-26.28
180.844	-85.67
181.064	-30.38
181.283	31.06
181.503	29.01
181.723	-1.71
181.943	-63.15
182.163	6.49
182.383	2.39
182.602	-5.8
182.822	39.25
183.042	-20.14
183.262	-36.52
183.482	51.54
183.701	26.96
183.921	-26.28
184.141	-26.28
184.361	78.16
184.58	51.54
184.8	-22.19
185.02	26.96
185.239	22.87
185.459	67.92
185.679	72.02
185.898	10.58
186.118	31.06
186.338	-22.19
186.557	2.39
186.777	-1.71
186.997	18.77
187.216	14.68
187.436	-1.71
187.655	14.68
187.875	86.36
188.095	29.01
188.314	18.77
188.534	10.58
188.753	-22.19
188.973	55.64
189.192	76.12
189.412	84.31
189.631	-28.33
189.851	59.73
190.07	78.16
190.29	41.3
190.509	2.39
190.729	-87.72
190.948	63.83
191.168	61.78
191.387	-26.28
191.607	-16.04
191.826	-7.85
192.045	-22.19
192.265	43.35
192.484	61.78
192.704	51.54
192.923	29.01
193.142	76.12
193.362	-5.8
193.581	43.35
193.8	-5.8
194.02	153.94
194.239	0.34
194.458	6.49
194.678	45.4
194.897	18.77
195.116	12.63
195.335	22.87
195.555	59.73
195.774	41.3
195.993	49.49
196.212	-1.71
196.432	18.77
196.651	-5.8
196.87	-69.29
197.089	45.4
197.308	4.44
197.528	65.88
197.747	26.96
197.966	-9.9
198.185	14.68
198.404	51.54
198.623	39.25
198.842	18.77
199.062	37.2
199.281	-34.47
199.5	-16.04
199.719	2.39
199.938	59.73
200.157	33.11
200.376	51.54
200.595	22.87
200.814	45.4
201.033	-5.8
201.252	18.77
201.471	2.39
201.69	72.02
201.909	-30.38
202.128	2.39
202.347	-26.28
202.566	63.83
202.785	29.01
203.004	51.54
203.223	2.39
203.442	31.06
203.661	59.73
203.879	45.4
204.098	26.96
204.317	41.3
204.536	22.87
204.755	29.01
204.974	26.96
205.193	-38.57
205.411	53.59
205.63	8.53
205.849	-36.52
206.068	37.2
206.287	53.59
206.505	26.96
206.724	45.4
206.943	49.49
207.162	-18.09
207.381	-30.38
207.599	43.35
207.818	2.39
208.037	22.87
208.255	31.06
208.474	29.01
208.693	41.3
208.911	-11.95
209.13	-59.05
209.349	-3.75
209.567	-18.09
209.786	67.92
210.005	-75.43
210.223	8.53
210.442	-26.28
210.661	16.73
210.879	80.21
211.098	-3.75
211.316	-1.71
211.535	18.77
211.753	59.73
211.972	31.06
212.191	37.2
212.409	-7.85
212.628	-38.57
212.846	-18.09
213.065	39.25
213.283	-3.75
213.502	-1.71
213.72	-20.14
213.938	20.82
214.157	4.44
214.375	45.4
214.594	2.39
214.812	67.92
215.031	8.53
215.249	-1.71
215.467	-38.57
215.686	24.92
215.904	41.3
216.122	10.58
216.341	18.77
216.559	57.68
216.778	12.63
216.996	-22.19
217.214	33.11
217.432	24.92
217.651	39.25
217.869	-3.75
218.087	29.01
218.306	45.4
218.524	8.53
218.742	-34.47
218.96	20.82
219.179	-13.99
219.397	53.59
219.615	-11.95
219.833	8.53
220.051	-16.04
220.27	55.64
220.488	51.54
220.706	-13.99
220.924	-50.86
221.142	14.68
221.36	2.39
221.578	18.77
221.796	22.87
222.015	-36.52
222.233	-46.76
222.451	45.4
222.669	-7.85
222.887	45.4
223.105	-36.52
223.323	-38.57
223.541	-61.1
223.759	55.64
223.977	35.16
224.195	43.35
224.413	-13.99
224.631	49.49
224.849	-20.14
225.067	33.11
225.285	-34.47
225.503	82.26
225.721	-16.04
225.939	2.39
226.157	88.4
226.375	47.44
226.592	22.87
226.81	67.92
227.028	57.68
227.246	4.44
227.464	14.68
227.682	20.82
227.9	84.31
228.117	-89.77
228.335	-44.71
228.553	-30.38
228.771	35.16
228.989	61.78
229.206	10.58
229.424	39.25
229.642	31.06
229.86	67.92
230.077	12.63
230.295	-28.33
230.513	37.2
230.731	80.21
230.948	76.12
231.166	59.73
231.384	12.63
231.601	-63.15
231.819	35.16
232.037	16.73
232.254	8.53
232.472	-73.39
232.689	-20.14
232.907	59.73
233.125	16.73
233.342	-52.91
233.56	86.36
233.777	18.77
233.995	-11.95
234.213	-3.75
234.43	69.97
234.648	-83.63
234.865	-40.62
235.083	0.34
235.3	20.82
235.518	-16.04
235.735	69.97
235.953	53.59
236.17	6.49
236.388	4.44
236.605	65.88
236.822	65.88
237.04	80.21
237.257	94.55
237.475	47.44
237.692	-42.67
237.909	-16.04
238.127	59.73
238.344	55.64
238.562	72.02
238.779	-87.72
238.996	2.39
239.214	35.16
239.431	-1.71
239.648	-48.81
239.865	-38.57
240.083	47.44
240.3	59.73
240.517	94.55
240.735	29.01
240.952	-26.28
241.169	49.49
241.386	88.4
241.603	18.77
241.821	24.92
242.038	37.2
242.255	-50.86
242.472	-5.8
242.689	10.58
242.907	55.64
243.124	-18.09
243.341	43.35
243.558	35.16
243.775	-13.99
243.992	-91.82
244.209	92.5
244.426	61.78
244.643	20.82
244.86	0.34
245.078	26.96
245.295	22.87
245.512	-26.28
245.729	-22.19
245.946	67.92
246.163	-42.67
246.38	-5.8
246.597	-3.75
246.814	39.25
247.031	-5.8
247.248	-11.95
247.464	0.34
247.681	39.25
247.898	59.73
248.115	-46.76
248.332	-3.75
248.549	61.78
248.766	-3.75
248.983	18.77
249.2	82.26
249.417	31.06
249.633	-50.86
249.85	0.34
250.067	-5.8
250.284	-9.9
250.501	18.77
250.717	-22.19
250.934	26.96
251.151	47.44
251.368	41.3
251.585	16.73
251.801	37.2
252.018	-46.76
252.235	43.35
252.451	76.12
252.668	-46.76
252.885	-1.71
253.102	14.68
253.318	10.58
253.535	31.06
253.752	-9.9
253.968	59.73
254.185	-30.38
254.401	-7.85
254.618	-13.99
254.835	-30.38
255.051	33.11
255.268	24.92
255.484	61.78
255.701	4.44
255.917	0.34
256.134	-24.23
256.351	-28.33
256.567	-34.47
256.784	47.44
257	4.44
257.217	22.87
257.433	59.73
257.65	86.36
257.866	74.07
258.082	-20.14
258.299	4.44
258.515	10.58
258.732	10.58
258.948	-13.99
259.165	-24.23
259.381	-13.99
259.597	72.02
259.814	-18.09
260.03	-22.19
260.246	76.12
260.463	8.53
260.679	12.63
260.895	-9.9
261.112	80.21
261.328	4.44
261.544	29.01
261.761	18.77
261.977	51.54
262.193	-46.76
262.409	72.02
262.626	10.58
262.842	61.78
263.058	-1.71
263.274	10.58
263.49	14.68
263.707	-11.95
263.923	14.68
264.139	20.82
264.355	-57
264.571	18.77
264.787	20.82
265.004	-26.28
265.22	63.83
265.436	2.39
265.652	-38.57
265.868	4.44
266.084	-59.05
266.3	4.44
266.516	-48.81
266.732	22.87
266.948	-30.38
267.164	22.87
267.38	88.4
267.596	69.97
267.812	-52.91
268.028	6.49
268.244	26.96
268.46	100.69
268.676	-5.8
268.892	22.87
269.108	14.68
269.324	2.39
269.54	-3.75
269.756	43.35
269.972	-22.19
270.188	-18.09
270.403	8.53
270.619	20.82
270.835	63.83
271.051	-28.33
271.267	24.92
271.483	29.01
271.698	35.16
271.914	63.83
272.13	100.69
272.346	57.68
272.562	57.68
272.777	108.88
272.993	-9.9
273.209	78.16
273.425	-22.19
273.64	22.87
273.856	-3.75
274.072	37.2
274.287	-40.62
274.503	24.92
274.719	43.35
274.934	-20.14
275.15	-11.95
275.366	4.44
275.581	45.4
275.797	-5.8
276.012	-30.38
276.228	-22.19
276.444	43.35
276.659	8.53
276.875	12.63
277.09	-30.38
277.306	57.68
277.521	10.58
277.737	29.01
277.952	-20.14
278.168	4.44
278.383	33.11
278.599	-44.71
278.814	0.34
279.03	8.53
279.245	0.34
279.461	-16.04
279.676	-36.52
279.892	-22.19
280.107	-34.47
280.322	-34.47
280.538	14.68
280.753	10.58
280.969	84.31
281.184	-5.8
281.399	49.49
281.615	-63.15
281.83	29.01
282.045	37.2
282.26	6.49
282.476	-16.04
282.691	26.96
282.906	-3.75
283.122	-13.99
283.337	29.01
283.552	55.64
283.767	72.02
283.983	55.64
284.198	-26.28
284.413	24.92
284.628	-3.75
284.843	47.44
285.058	47.44
285.274	24.92
285.489	37.2
285.704	-13.99
285.919	-40.62
286.134	47.44
286.349	18.77
286.564	10.58
286.779	8.53
286.995	45.4
287.21	-9.9
287.425	20.82
287.64	61.78
287.855	8.53
288.07	-46.76
288.285	-5.8
288.5	39.25
288.715	33.11
288.93	26.96
289.145	-36.52
289.36	31.06
289.575	10.58
289.79	-16.04
290.004	29.01
290.219	-5.8
290.434	69.97
290.649	-52.91
290.864	26.96
291.079	65.88
291.294	41.3
291.509	94.55
291.724	31.06
291.938	51.54
292.153	4.44
292.368	-63.15
292.583	18.77
292.798	29.01
293.012	-44.71
293.227	-22.19
293.442	20.82
293.657	-20.14
293.871	67.92
294.086	76.12
294.301	2.39
294.516	12.63
294.73	69.97
294.945	67.92
295.16	4.44
295.374	59.73
295.589	-24.23
295.804	-54.95
296.018	-22.19
296.233	61.78
296.447	76.12
296.662	-11.95
296.877	-42.67
297.091	-13.99
297.306	-7.85
297.52	35.16
297.735	47.44
297.949	43.35
298.164	-38.57
298.378	4.44
298.593	4.44
298.807	-30.38
299.022	72.02
299.236	26.96
299.451	49.49
299.665	16.73
299.88	-11.95
300.094	51.54
300.309	24.92
300.523	20.82
300.737	26.96
300.952	29.01
301.166	59.73
301.381	-28.33
301.595	-26.28
301.809	35.16
302.024	-1.71
302.238	-22.19
302.452	-3.75
302.667	10.58
302.881	18.77
303.095	12.63
303.309	110.93
303.524	26.96
303.738	-9.9
303.952	-46.76
304.166	10.58
304.381	-13.99
304.595	43.35
304.809	12.63
305.023	53.59
305.237	-38.57
305.452	96.6
305.666	26.96
305.88	2.39
306.094	2.39
306.308	43.35
306.522	61.78
306.736	78.16
306.95	43.35
307.164	57.68
307.379	-22.19
307.593	-22.19
307.807	53.59
308.021	29.01
308.235	0.34
308.449	-28.33
308.663	-54.95
308.877	59.73
309.091	-1.71
309.305	26.96
309.519	-13.99
309.733	49.49
309.947	10.58
310.161	-5.8
310.374	31.06
310.588	16.73
310.802	-34.47
311.016	-59.05
311.23	51.54
311.444	74.07
311.658	12.63
311.872	-9.9
312.085	51.54
312.299	-11.95
312.513	59.73
312.727	41.3
312.941	6.49
313.154	59.73
313.368	92.5
313.582	123.22
313.796	-18.09
314.009	18.77
314.223	96.6
314.437	20.82
314.651	76.12
314.864	-54.95
315.078	-9.9
315.292	0.34
315.505	20.82
315.719	51.54
315.933	35.16
316.146	67.92
316.36	-11.95
316.573	94.55
316.787	45.4
317.001	2.39
317.214	-18.09
317.428	76.12
317.641	33.11
317.855	22.87
318.068	26.96
318.282	47.44
318.495	26.96
318.709	51.54
318.922	10.58
319.136	-46.76
319.349	-13.99
319.563	-11.95
319.776	6.49
319.99	14.68
320.203	-13.99
320.417	2.39
320.63	51.54
320.843	-91.82
321.057	-3.75
321.27	10.58
321.483	84.31
321.697	88.4
321.91	-5.8
322.124	10.58
322.337	-36.52
322.55	-3.75
322.763	12.63
322.977	35.16
323.19	22.87
323.403	86.36
323.617	119.12
323.83	2.39
324.043	43.35
324.256	2.39
324.469	8.53
324.683	69.97
324.896	78.16
325.109	35.16
325.322	-20.14
325.535	12.63
325.748	26.96
325.962	82.26
326.175	-22.19
326.388	39.25
326.601	45.4
326.814	12.63
327.027	57.68
327.24	26.96
327.453	-13.99
327.666	2.39
327.879	35.16
328.092	16.73
328.305	-50.86
328.518	-26.28
328.731	-59.05
328.944	-20.14
329.157	76.12
329.37	-22.19
329.583	67.92
329.796	59.73
330.009	18.77
330.222	55.64
330.435	143.7
330.648	-32.43
330.861	12.63
331.073	-3.75
331.286	108.88
331.499	14.68
331.712	-16.04
331.925	51.54
332.138	92.5
332.35	86.36
332.563	16.73
332.776	100.69
332.989	-13.99
333.202	14.68
333.414	-30.38
333.627	-46.76
333.84	20.82
334.053	18.77
334.265	37.2
334.478	59.73
334.691	-11.95
334.903	61.78
335.116	14.68
335.329	49.49
335.541	4.44
335.754	-3.75
335.966	-9.9
336.179	-11.95
336.392	12.63
336.604	20.82
336.817	-26.28
337.029	0.34
337.242	61.78
337.454	10.58
337.667	-9.9
337.88	57.68
338.092	-54.95
338.305	92.5
338.517	2.39
338.729	37.2
338.942	67.92
339.154	69.97
339.367	20.82
339.579	-13.99
339.792	2.39
340.004	65.88
340.217	45.4
340.429	43.35
340.641	-44.71
340.854	22.87
341.066	-26.28
341.278	39.25
341.491	6.49
341.703	-11.95
341.915	6.49
342.128	18.77
342.34	39.25
342.552	14.68
342.764	-5.8
342.977	-9.9
343.189	-20.14
343.401	-44.71
343.613	-44.71
343.826	88.4
344.038	-26.28
344.25	26.96
344.462	26.96
344.674	4.44
344.886	12.63
345.099	63.83
345.311	29.01
345.523	78.16
345.735	-9.9
345.947	-3.75
346.159	-13.99
346.371	-5.8
346.583	14.68
346.795	29.01
347.007	33.11
347.219	49.49
347.431	20.82
347.643	84.31
347.855	29.01
348.067	22.87
348.279	-26.28
348.491	37.2
348.703	72.02
348.915	-57
349.127	-3.75
349.339	-67.24
349.551	92.5
349.763	24.92
349.975	-36.52
350.187	76.12
350.399	96.6
350.61	29.01
350.822	-24.23
351.034	18.77
351.246	12.63
351.458	59.73
351.669	31.06
351.881	72.02
352.093	125.27
352.305	47.44
352.517	86.36
352.728	78.16
352.94	6.49
353.152	14.68
353.363	-22.19
353.575	47.44
353.787	-24.23
353.999	35.16
354.21	-3.75
354.422	10.58
354.633	41.3
354.845	2.39
355.057	47.44
355.268	18.77
355.48	123.22
355.692	4.44
355.903	6.49
356.115	20.82
356.326	-77.48
356.538	6.49
356.749	78.16
356.961	88.4
357.172	-3.75
357.384	55.64
357.595	86.36
357.807	4.44
358.018	59.73
358.23	-26.28
358.441	90.45
358.653	51.54
358.864	49.49
359.075	10.58
359.287	-32.43
359.498	33.11
359.709	16.73
359.921	98.64
360.132	55.64
360.344	43.35
360.555	16.73
360.766	65.88
360.977	-22.19
361.189	47.44
361.4	-1.71
361.611	51.54
361.823	-7.85
362.034	-28.33
362.245	-1.71
362.456	-57
362.667	51.54
362.879	37.2
363.09	16.73
363.301	45.4
363.512	-18.09
363.723	4.44
363.935	31.06
364.146	4.44
364.357	35.16
364.568	67.92
364.779	-57
364.99	10.58
365.201	18.77
365.412	65.88
365.623	-34.47
365.834	-1.71
366.045	16.73
366.256	88.4
366.467	4.44
366.678	-24.23
366.889	47.44
367.1	45.4
367.311	29.01
367.522	-13.99
367.733	10.58
367.944	61.78
368.155	4.44
368.366	35.16
368.577	88.4
368.788	-11.95
368.999	29.01
369.209	108.88
369.42	59.73
369.631	76.12
369.842	26.96
370.053	-13.99
370.264	74.07
370.474	47.44
370.685	29.01
370.896	-36.52
371.107	-22.19
371.317	-42.67
371.528	22.87
371.739	12.63
371.95	2.39
372.16	78.16
372.371	8.53
372.582	39.25
372.792	26.96
373.003	-5.8
373.214	-30.38
373.424	-22.19
373.635	-77.48
373.846	4.44
374.056	45.4
374.267	-20.14
374.477	2.39
374.688	-3.75
374.898	2.39
375.109	80.21
375.319	29.01
375.53	49.49
375.74	84.31
375.951	33.11
376.161	57.68
376.372	104.79
376.582	16.73
376.793	24.92
377.003	59.73
377.214	-5.8
377.424	59.73
377.635	10.58
377.845	51.54
378.055	16.73
378.266	39.25
378.476	2.39
378.686	47.44
378.897	-46.76
379.107	41.3
379.317	86.36
379.528	26.96
379.738	-18.09
379.948	45.4
380.158	104.79
380.369	0.34
380.579	59.73
380.789	-18.09
380.999	43.35
381.21	72.02
381.42	43.35
381.63	18.77
381.84	45.4
382.05	-20.14
382.261	29.01
382.471	-24.23
382.681	20.82
382.891	37.2
383.101	6.49
383.311	43.35
383.521	55.64
383.731	-3.75
383.941	14.68
384.151	39.25
384.361	31.06
384.571	-5.8
384.781	45.4
384.991	-38.57
385.201	12.63
385.411	35.16
385.621	49.49
385.831	12.63
386.041	57.68
386.251	-30.38
386.461	33.11
386.671	65.88
386.881	14.68
387.091	-59.05
387.301	51.54
387.511	133.46
387.72	74.07
387.93	-11.95
388.14	20.82
388.35	12.63
388.56	74.07
388.769	35.16
388.979	20.82
389.189	63.83
389.399	65.88
389.609	14.68
389.818	65.88
390.028	63.83
390.238	37.2
390.447	26.96
390.657	33.11
390.867	10.58
391.076	-52.91
391.286	-18.09
391.496	51.54
391.705	47.44
391.915	35.16
392.125	69.97
392.334	72.02
392.544	43.35
392.753	-22.19
392.963	41.3
393.172	-7.85
393.382	-13.99
393.591	86.36
393.801	53.59
394.01	49.49
394.22	35.16
394.429	102.74
394.639	20.82
394.848	53.59
395.058	51.54
395.267	24.92
395.477	127.32
395.686	45.4
395.895	0.34
396.105	137.56
396.314	72.02
396.524	59.73
396.733	55.64
396.942	18.77
397.152	47.44
397.361	39.25
397.57	-7.85
397.78	92.5
397.989	102.74
398.198	117.08
398.407	31.06
398.617	127.32
398.826	-5.8
399.035	67.92
399.244	37.2
399.453	69.97
399.663	94.55
399.872	84.31
400.081	96.6
400.29	94.55
400.499	-24.23
400.708	92.5
400.917	-5.8
401.127	108.88
401.336	86.36
401.545	78.16
401.754	98.64
401.963	29.01
402.172	-5.8
402.381	24.92
402.59	133.46
402.799	4.44
403.008	94.55
403.217	2.39
403.426	127.32
403.635	104.79
403.844	104.79
404.053	125.27
404.262	35.16
404.471	108.88
404.68	43.35
404.888	69.97
405.097	84.31
405.306	39.25
405.515	72.02
405.724	86.36
405.933	112.98
406.142	51.54
406.35	104.79
406.559	78.16
406.768	53.59
406.977	155.99
407.185	145.75
407.394	176.47
407.603	180.56
407.812	80.21
408.02	96.6
408.229	174.42
408.438	49.49
408.646	110.93
408.855	209.23
409.064	102.74
409.272	145.75
409.481	137.56
409.69	149.84
409.898	59.73
410.107	135.51
410.315	217.43
410.524	82.26
410.733	227.67
410.941	196.95
411.15	211.28
411.358	151.89
411.567	237.91
411.775	217.43
411.984	227.67
412.192	223.57
412.401	246.1
412.609	291.15
412.818	303.44
413.026	303.44
413.234	266.58
413.443	309.58
413.651	229.71
413.86	295.25
414.068	401.74
414.276	360.78
414.485	258.39
414.693	381.26
414.901	416.08
415.11	344.4
415.318	366.93
415.526	448.85
415.734	409.94
415.943	502.09
416.151	452.94
416.359	442.7
416.567	502.09
416.776	512.33
416.984	567.63
417.192	524.62
417.4	477.52
417.608	616.78
417.817	559.44
418.025	641.36
418.233	735.56
418.441	627.02
418.649	694.6
418.857	731.47
419.065	717.13
419.273	792.91
419.481	733.51
419.689	792.91
419.897	940.36
420.105	813.38
420.313	864.58
420.521	930.12
420.729	921.93
420.937	962.89
421.145	1030.47
421.353	1007.94
421.561	1016.13
421.769	1147.2
421.977	1141.06
422.185	1233.22
422.393	1222.98
422.601	1233.22
422.809	1272.13
423.017	1319.23
423.224	1337.66
423.432	1315.14
423.64	1444.16
423.848	1569.09
424.056	1388.86
424.263	1612.09
424.471	1560.89
424.679	1567.04
424.887	1634.62
425.094	1804.6
425.302	1741.11
425.51	1868.09
425.718	1945.91
425.925	1878.33
426.133	2021.69
426.341	2169.14
426.548	2163
426.756	2126.13
426.964	2183.48
427.171	2380.08
427.379	2435.38
427.586	2527.53
427.794	2427.18
428.001	2576.69
428.209	2689.32
428.417	2697.52
428.624	2920.74
428.832	2783.53
429.039	2840.87
429.247	2783.53
429.454	3031.34
429.662	3379.49
429.869	3184.93
430.076	3434.78
430.284	3303.71
430.491	3387.68
430.699	3692.83
430.906	3582.24
431.114	3705.12
431.321	3809.56
431.528	3993.88
431.736	4178.2
431.943	4311.32
432.15	4110.61
432.358	4239.64
432.565	4505.87
432.772	4430.1
432.979	4638.99
433.187	4593.94
433.394	4684.05
433.601	5185.8
433.808	4925.71
434.016	5044.49
434.223	5193.99
434.43	5650.69
434.637	5538.05
434.844	5945.59
435.052	6041.85
435.259	5824.76
435.466	6150.39
435.673	6072.57
435.88	6283.51
436.087	6828.27
436.294	6764.78
436.501	6473.97
436.708	6488.31
436.915	6803.69
437.122	7143.66
437.329	7106.79
437.537	7612.64
437.743	7600.35
437.95	7497.95
438.157	8030.43
438.364	8249.56
438.571	8122.59
438.778	8026.33
438.985	9056.46
439.192	8816.85
439.399	8890.57
439.606	8763.6
439.813	9169.1
440.02	9613.51
440.227	9586.88
440.433	9318.6
440.64	9687.23
440.847	9595.07
441.054	10025.15
441.261	10528.95
441.467	10356.92
441.674	10754.23
441.881	10922.16
442.088	11176.11
442.294	10916.01
442.501	11188.39
442.708	11397.29
442.914	11935.9
443.121	12605.59
443.328	12023.97
443.534	12847.25
443.741	12484.76
443.948	12343.45
444.154	13455.5
444.361	13164.68
444.568	13224.08
444.774	13396.1
444.981	13449.35
445.187	13944.96
445.394	14366.84
445.6	14489.72
445.807	15458.41
446.013	14970.99
446.22	15243.37
446.426	15626.34
446.633	15997.03
446.839	16676.95
447.046	15988.83
447.252	16707.67
447.459	16982.1
447.665	16660.57
447.871	17473.61
448.078	18483.26
448.284	17360.97
448.491	17887.3
448.697	18548.79
448.903	18985.01
449.11	18899
449.316	18622.52
449.522	18812.98
449.728	19742.76
449.935	19687.46
450.141	19869.73
450.347	20428.83
450.553	19558.44
450.76	19984.42
450.966	20457.5
451.172	20211.74
451.378	20867.09
451.584	20420.64
451.791	21188.63
451.997	20873.24
452.203	21452.81
452.409	21202.96
452.615	21389.33
452.821	20516.89
453.027	20164.64
453.233	21379.09
453.44	20449.31
453.646	20944.92
453.852	20908.05
454.058	21217.3
454.264	20613.15
454.47	21278.74
454.676	20785.18
454.882	21260.3
455.088	19408.94
455.294	19679.27
455.5	20146.21
455.705	20406.3
455.911	19542.06
456.117	18972.72
456.323	18894.9
456.529	17963.08
456.735	18733.11
456.941	18192.45
457.147	17741.89
457.352	17483.85
457.558	17152.08
457.764	17182.8
457.97	16820.31
458.176	16435.29
458.381	16377.95
458.587	15822.95
458.793	15730.79
458.999	15028.34
459.204	15929.44
459.41	15503.46
459.616	14276.73
459.821	14618.74
460.027	14379.13
460.233	14182.52
460.438	13756.55
460.644	13637.77
460.85	13004.94
461.055	12824.72
461.261	12857.49
461.466	11745.44
461.672	11419.82
461.878	12214.43
462.083	11544.74
462.289	11317.42
462.494	11120.81
462.7	10922.16
462.905	10469.56
463.111	10805.42
463.316	10635.44
463.522	10496.18
463.727	10569.91
463.932	10440.89
464.138	10506.42
464.343	10266.81
464.549	10129.59
464.754	10553.52
464.959	10369.21
465.165	10356.92
465.37	10051.77
465.575	9521.35
465.781	10047.68
465.986	10023.1
466.191	9617.6
466.397	9500.87
466.602	9140.43
466.807	9277.64
467.012	9457.86
467.218	9285.83
467.423	9066.7
467.628	9390.28
467.833	9781.44
468.038	9253.06
468.244	8956.11
468.449	9578.69
