Data from USB4F104151__69__13-12-12-834.txt Node

Date: Fri Mar 14 13:12:12 EDT 2025
User: louis
Spectrometer: USB4F10415
Trigger mode: 4
Integration Time (sec): 2.000000E-2
Scans to average: 1
Electric dark correction enabled: true
Nonlinearity correction enabled: false
Boxcar width: 0
XAxis mode: Wavelengths
Number of Pixels in Spectrum: 3648
>>>>>Begin Spectral Data<<<<<
178.204	-72.36
178.424	-72.36
178.644	-72.36
178.864	-62.12
179.084	-96.94
179.304	-10.92
179.524	-41.64
179.744	25.94
179.964	-8.87
180.184	9.56
180.404	17.75
180.624	32.08
180.844	-4.78
181.064	3.41
181.283	-10.92
181.503	21.84
181.723	-33.45
181.943	-4.78
182.163	48.47
182.383	7.51
182.602	-29.35
182.822	32.08
183.042	-45.74
183.262	-17.07
183.482	11.61
183.701	-72.36
183.921	-8.87
184.141	-10.92
184.361	5.46
184.58	-23.21
184.8	-8.87
185.02	-15.02
185.239	30.04
185.459	42.32
185.679	25.94
185.898	-82.6
186.118	30.04
186.338	34.13
186.557	-49.83
186.777	-37.55
186.997	40.28
187.216	54.61
187.436	34.13
187.655	-51.88
187.875	32.08
188.095	-33.45
188.314	109.91
188.534	23.89
188.753	-17.07
188.973	13.65
189.192	19.8
189.412	68.95
189.631	46.42
189.851	3.41
190.07	46.42
190.29	-4.78
190.509	9.56
190.729	27.99
190.948	32.08
191.168	56.66
191.387	34.13
191.607	-8.87
191.826	93.52
192.045	-0.68
192.265	9.56
192.484	19.8
192.704	34.13
192.923	-17.07
193.142	71
193.362	25.94
193.581	75.09
193.8	52.56
194.02	25.94
194.239	-25.26
194.458	48.47
194.678	-29.35
194.897	1.37
195.116	-15.02
195.335	3.41
195.555	34.13
195.774	17.75
195.993	48.47
196.212	64.85
196.432	-41.64
196.651	85.33
196.87	-33.45
197.089	48.47
197.308	34.13
197.528	66.9
197.747	-82.6
197.966	52.56
198.185	77.14
198.404	-2.73
198.623	23.89
198.842	97.62
199.062	27.99
199.281	81.24
199.5	-76.46
199.719	83.28
199.938	-17.07
200.157	48.47
200.376	21.84
200.595	-41.64
200.814	-10.92
201.033	-6.83
201.252	23.89
201.471	1.37
201.69	81.24
201.909	54.61
202.128	21.84
202.347	36.18
202.566	-47.79
202.785	5.46
203.004	-109.23
203.223	34.13
203.442	-17.07
203.661	-0.68
203.879	17.75
204.098	7.51
204.317	15.7
204.536	13.65
204.755	-21.16
204.974	-31.4
205.193	-33.45
205.411	89.43
205.63	-17.07
205.849	44.37
206.068	11.61
206.287	3.41
206.505	32.08
206.724	-19.11
206.943	11.61
207.162	36.18
207.381	-25.26
207.599	-29.35
207.818	54.61
208.037	34.13
208.255	19.8
208.474	36.18
208.693	7.51
208.911	32.08
209.13	-133.8
209.349	-2.73
209.567	68.95
209.786	7.51
210.005	17.75
210.223	25.94
210.442	-35.5
210.661	107.86
210.879	9.56
211.098	36.18
211.316	34.13
211.535	85.33
211.753	-39.59
211.972	75.09
212.191	-27.31
212.409	21.84
212.628	60.76
212.846	7.51
213.065	91.48
213.283	1.37
213.502	-39.59
213.72	7.51
213.938	21.84
214.157	44.37
214.375	30.04
214.594	7.51
214.812	-0.68
215.031	17.75
215.249	-21.16
215.467	3.41
215.686	44.37
215.904	-17.07
216.122	-19.11
216.341	-8.87
216.559	-49.83
216.778	-19.11
216.996	-19.11
217.214	-47.79
217.432	32.08
217.651	-45.74
217.869	-53.93
218.087	42.32
218.306	-0.68
218.524	25.94
218.742	42.32
218.96	-64.17
219.179	71
219.397	-17.07
219.615	38.23
219.833	19.8
220.051	-0.68
220.27	-17.07
220.488	66.9
220.706	3.41
220.924	73.04
221.142	-47.79
221.36	-64.17
221.578	-35.5
221.796	1.37
222.015	23.89
222.233	23.89
222.451	66.9
222.669	38.23
222.887	46.42
223.105	-31.4
223.323	-31.4
223.541	-23.21
223.759	56.66
223.977	38.23
224.195	58.71
224.413	68.95
224.631	46.42
224.849	-12.97
225.067	68.95
225.285	-15.02
225.503	30.04
225.721	-12.97
225.939	54.61
226.157	3.41
226.375	40.28
226.592	1.37
226.81	66.9
227.028	7.51
227.246	48.47
227.464	89.43
227.682	56.66
227.9	38.23
228.117	11.61
228.335	-2.73
228.553	5.46
228.771	1.37
228.989	-17.07
229.206	21.84
229.424	-55.98
229.642	27.99
229.86	-17.07
230.077	40.28
230.295	1.37
230.513	13.65
230.731	60.76
230.948	126.29
231.166	-51.88
231.384	-8.87
231.601	77.14
231.819	48.47
232.037	58.71
232.254	-21.16
232.472	25.94
232.689	58.71
232.907	42.32
233.125	-12.97
233.342	-15.02
233.56	-21.16
233.777	66.9
233.995	-31.4
234.213	11.61
234.43	-47.79
234.648	50.52
234.865	17.75
235.083	7.51
235.3	-33.45
235.518	79.19
235.735	21.84
235.953	17.75
236.17	-51.88
236.388	34.13
236.605	-15.02
236.822	30.04
237.04	-47.79
237.257	48.47
237.475	-53.93
237.692	11.61
237.909	-41.64
238.127	50.52
238.344	30.04
238.562	11.61
238.779	-12.97
238.996	21.84
239.214	-8.87
239.431	-15.02
239.648	-15.02
239.865	58.71
240.083	19.8
240.3	-0.68
240.517	5.46
240.735	-84.65
240.952	58.71
241.169	-33.45
241.386	15.7
241.603	-0.68
241.821	23.89
242.038	87.38
242.255	23.89
242.472	56.66
242.689	3.41
242.907	-2.73
243.124	-8.87
243.341	-45.74
243.558	-12.97
243.775	7.51
243.992	-68.27
244.209	50.52
244.426	1.37
244.643	19.8
244.86	-25.26
245.078	44.37
245.295	54.61
245.512	-58.03
245.729	-6.83
245.946	3.41
246.163	-25.26
246.38	11.61
246.597	9.56
246.814	48.47
247.031	-27.31
247.248	1.37
247.464	50.52
247.681	7.51
247.898	-41.64
248.115	1.37
248.332	9.56
248.549	30.04
248.766	1.37
248.983	19.8
249.2	-25.26
249.417	1.37
249.633	38.23
249.85	64.85
250.067	17.75
250.284	97.62
250.501	81.24
250.717	-2.73
250.934	-53.93
251.151	-23.21
251.368	-27.31
251.585	-29.35
251.801	-6.83
252.018	60.76
252.235	23.89
252.451	-29.35
252.668	-15.02
252.885	42.32
253.102	7.51
253.318	81.24
253.535	-15.02
253.752	68.95
253.968	17.75
254.185	3.41
254.401	15.7
254.618	-21.16
254.835	101.72
255.051	42.32
255.268	-4.78
255.484	7.51
255.701	27.99
255.917	-12.97
256.134	7.51
256.351	-35.5
256.567	-78.51
256.784	-12.97
257	48.47
257.217	81.24
257.433	9.56
257.65	1.37
257.866	89.43
258.082	3.41
258.299	3.41
258.515	-8.87
258.732	36.18
258.948	-72.36
259.165	9.56
259.381	3.41
259.597	-25.26
259.814	75.09
260.03	36.18
260.246	7.51
260.463	52.56
260.679	5.46
260.895	56.66
261.112	-8.87
261.328	15.7
261.544	38.23
261.761	83.28
261.977	11.61
262.193	-66.22
262.409	60.76
262.626	-0.68
262.842	-37.55
263.058	44.37
263.274	91.48
263.49	17.75
263.707	77.14
263.923	64.85
264.139	-19.11
264.355	13.65
264.571	-8.87
264.787	-29.35
265.004	48.47
265.22	7.51
265.436	52.56
265.652	9.56
265.868	30.04
266.084	-25.26
266.3	-31.4
266.516	-17.07
266.732	-15.02
266.948	25.94
267.164	-6.83
267.38	-25.26
267.596	89.43
267.812	71
268.028	-0.68
268.244	-29.35
268.46	56.66
268.676	-21.16
268.892	19.8
269.108	25.94
269.324	-27.31
269.54	21.84
269.756	44.37
269.972	7.51
270.188	73.04
270.403	-6.83
270.619	48.47
270.835	9.56
271.051	13.65
271.267	-8.87
271.483	7.51
271.698	19.8
271.914	75.09
272.13	-17.07
272.346	38.23
272.562	-21.16
272.777	73.04
272.993	-58.03
273.209	19.8
273.425	-21.16
273.64	15.7
273.856	-25.26
274.072	-98.99
274.287	13.65
274.503	64.85
274.719	15.7
274.934	1.37
275.15	1.37
275.366	52.56
275.581	-8.87
275.797	32.08
276.012	-33.45
276.228	9.56
276.444	-23.21
276.659	34.13
276.875	21.84
277.09	23.89
277.306	79.19
277.521	-2.73
277.737	32.08
277.952	3.41
278.168	40.28
278.383	73.04
278.599	15.7
278.814	9.56
279.03	-39.59
279.245	36.18
279.461	73.04
279.676	83.28
279.892	-55.98
280.107	7.51
280.322	-43.69
280.538	11.61
280.753	15.7
280.969	-10.92
281.184	17.75
281.399	56.66
281.615	-12.97
281.83	7.51
282.045	11.61
282.26	3.41
282.476	5.46
282.691	25.94
282.906	40.28
283.122	38.23
283.337	-25.26
283.552	23.89
283.767	-45.74
283.983	44.37
284.198	-4.78
284.413	-31.4
284.628	19.8
284.843	3.41
285.058	48.47
285.274	23.89
285.489	-45.74
285.704	3.41
285.919	-19.11
286.134	32.08
286.349	17.75
286.564	48.47
286.779	87.38
286.995	7.51
287.21	-23.21
287.425	1.37
287.64	19.8
287.855	-23.21
288.07	11.61
288.285	120.15
288.5	23.89
288.715	54.61
288.93	-25.26
289.145	23.89
289.36	44.37
289.575	-12.97
289.79	-0.68
290.004	-0.68
290.219	17.75
290.434	38.23
290.649	9.56
290.864	5.46
291.079	25.94
291.294	-39.59
291.509	15.7
291.724	50.52
291.938	-29.35
292.153	25.94
292.368	15.7
292.583	-4.78
292.798	7.51
293.012	40.28
293.227	42.32
293.442	32.08
293.657	17.75
293.871	-19.11
294.086	-2.73
294.301	64.85
294.516	1.37
294.73	46.42
294.945	-8.87
295.16	1.37
295.374	-21.16
295.589	-8.87
295.804	7.51
296.018	83.28
296.233	87.38
296.447	32.08
296.662	-47.79
296.877	73.04
297.091	-6.83
297.306	87.38
297.52	-8.87
297.735	19.8
297.949	-4.78
298.164	34.13
298.378	11.61
298.593	5.46
298.807	38.23
299.022	52.56
299.236	60.76
299.451	3.41
299.665	-58.03
299.88	23.89
300.094	-10.92
300.309	-23.21
300.523	32.08
300.737	1.37
300.952	38.23
301.166	73.04
301.381	83.28
301.595	-41.64
301.809	-12.97
302.024	89.43
302.238	-10.92
302.452	-12.97
302.667	64.85
302.881	118.1
303.095	36.18
303.309	-12.97
303.524	-45.74
303.738	3.41
303.952	-10.92
304.166	32.08
304.381	1.37
304.595	62.8
304.809	56.66
305.023	-2.73
305.237	-8.87
305.452	-27.31
305.666	-6.83
305.88	34.13
306.094	87.38
306.308	-49.83
306.522	9.56
306.736	-17.07
306.95	1.37
307.164	9.56
307.379	-31.4
307.593	50.52
307.807	-35.5
308.021	23.89
308.235	-25.26
308.449	-25.26
308.663	-17.07
308.877	66.9
309.091	50.52
309.305	42.32
309.519	75.09
309.733	73.04
309.947	48.47
310.161	46.42
310.374	-64.17
310.588	-10.92
310.802	56.66
311.016	-15.02
311.23	93.52
311.444	3.41
311.658	1.37
311.872	60.76
312.085	54.61
312.299	-17.07
312.513	15.7
312.727	-15.02
312.941	-8.87
313.154	-23.21
313.368	19.8
313.582	23.89
313.796	-80.55
314.009	56.66
314.223	54.61
314.437	17.75
314.651	56.66
314.864	-12.97
315.078	25.94
315.292	-0.68
315.505	3.41
315.719	-4.78
315.933	9.56
316.146	-8.87
316.36	-17.07
316.573	58.71
316.787	-23.21
317.001	40.28
317.214	-4.78
317.428	1.37
317.641	-10.92
317.855	-0.68
318.068	7.51
318.282	-17.07
318.495	38.23
318.709	44.37
318.922	7.51
319.136	25.94
319.349	58.71
319.563	7.51
319.776	42.32
319.99	27.99
320.203	40.28
320.417	21.84
320.63	3.41
320.843	87.38
321.057	42.32
321.27	46.42
321.483	44.37
321.697	36.18
321.91	19.8
322.124	-29.35
322.337	-39.59
322.55	50.52
322.763	62.8
322.977	-2.73
323.19	-41.64
323.403	5.46
323.617	25.94
323.83	99.67
324.043	-17.07
324.256	-10.92
324.469	66.9
324.683	11.61
324.896	38.23
325.109	34.13
325.322	-8.87
325.535	25.94
325.748	42.32
325.962	-12.97
326.175	7.51
326.388	15.7
326.601	46.42
326.814	42.32
327.027	30.04
327.24	87.38
327.453	19.8
327.666	85.33
327.879	13.65
328.092	-23.21
328.305	42.32
328.518	-29.35
328.731	-6.83
328.944	73.04
329.157	7.51
329.37	3.41
329.583	116.05
329.796	124.24
330.009	23.89
330.222	56.66
330.435	42.32
330.648	7.51
330.861	17.75
331.073	3.41
331.286	40.28
331.499	-82.6
331.712	32.08
331.925	48.47
332.138	36.18
332.35	73.04
332.563	-66.22
332.776	-4.78
332.989	9.56
333.202	7.51
333.414	64.85
333.627	-6.83
333.84	-33.45
334.053	32.08
334.265	-51.88
334.478	-25.26
334.691	38.23
334.903	25.94
335.116	-6.83
335.329	17.75
335.541	46.42
335.754	1.37
335.966	21.84
336.179	-35.5
336.392	-21.16
336.604	17.75
336.817	32.08
337.029	93.52
337.242	42.32
337.454	25.94
337.667	-45.74
337.88	-47.79
338.092	11.61
338.305	5.46
338.517	40.28
338.729	23.89
338.942	3.41
339.154	44.37
339.367	-33.45
339.579	21.84
339.792	-25.26
340.004	-25.26
340.217	-23.21
340.429	32.08
340.641	-12.97
340.854	-55.98
341.066	56.66
341.278	48.47
341.491	-19.11
341.703	19.8
341.915	-10.92
342.128	93.52
342.34	25.94
342.552	-17.07
342.764	5.46
342.977	58.71
343.189	75.09
343.401	36.18
343.613	-55.98
343.826	58.71
344.038	-53.93
344.25	9.56
344.462	-8.87
344.674	36.18
344.886	52.56
345.099	77.14
345.311	13.65
345.523	36.18
345.735	-15.02
345.947	-0.68
346.159	5.46
346.371	25.94
346.583	52.56
346.795	27.99
347.007	42.32
347.219	32.08
347.431	-17.07
347.643	25.94
347.855	32.08
348.067	48.47
348.279	-49.83
348.491	19.8
348.703	58.71
348.915	9.56
349.127	-25.26
349.339	-6.83
349.551	17.75
349.763	23.89
349.975	-8.87
350.187	40.28
350.399	32.08
350.61	-45.74
350.822	91.48
351.034	-0.68
351.246	62.8
351.458	15.7
351.669	11.61
351.881	-55.98
352.093	40.28
352.305	48.47
352.517	52.56
352.728	32.08
352.94	-8.87
353.152	42.32
353.363	-72.36
353.575	-0.68
353.787	62.8
353.999	-12.97
354.21	48.47
354.422	-15.02
354.633	60.76
354.845	23.89
355.057	1.37
355.268	36.18
355.48	60.76
355.692	42.32
355.903	7.51
356.115	62.8
356.326	-12.97
356.538	17.75
356.749	66.9
356.961	60.76
357.172	17.75
357.384	-78.51
357.595	83.28
357.807	-25.26
358.018	36.18
358.23	-31.4
358.441	52.56
358.653	68.95
358.864	36.18
359.075	23.89
359.287	30.04
359.498	34.13
359.709	-21.16
359.921	50.52
360.132	32.08
360.344	89.43
360.555	21.84
360.766	66.9
360.977	27.99
361.189	9.56
361.4	-2.73
361.611	87.38
361.823	91.48
362.034	75.09
362.245	21.84
362.456	56.66
362.667	13.65
362.879	1.37
363.09	36.18
363.301	54.61
363.512	89.43
363.723	81.24
363.935	3.41
364.146	27.99
364.357	30.04
364.568	48.47
364.779	1.37
364.99	9.56
365.201	17.75
365.412	-6.83
365.623	13.65
365.834	50.52
366.045	32.08
366.256	50.52
366.467	15.7
366.678	-6.83
366.889	30.04
367.1	15.7
367.311	50.52
367.522	21.84
367.733	19.8
367.944	44.37
368.155	44.37
368.366	58.71
368.577	101.72
368.788	34.13
368.999	50.52
369.209	15.7
369.42	101.72
369.631	122.2
369.842	50.52
370.053	23.89
370.264	52.56
370.474	3.41
370.685	25.94
370.896	46.42
371.107	83.28
371.317	56.66
371.528	-8.87
371.739	81.24
371.95	-29.35
372.16	13.65
372.371	-8.87
372.582	27.99
372.792	23.89
373.003	46.42
373.214	36.18
373.424	40.28
373.635	-58.03
373.846	40.28
374.056	73.04
374.267	-4.78
374.477	9.56
374.688	-12.97
374.898	25.94
375.109	15.7
375.319	58.71
375.53	64.85
375.74	-4.78
375.951	-8.87
376.161	46.42
376.372	7.51
376.582	40.28
376.793	7.51
377.003	19.8
377.214	-76.46
377.424	81.24
377.635	-25.26
377.845	64.85
378.055	17.75
378.266	-68.27
378.476	23.89
378.686	-17.07
378.897	44.37
379.107	13.65
379.317	46.42
379.528	-29.35
379.738	62.8
379.948	-0.68
380.158	34.13
380.369	44.37
380.579	79.19
380.789	46.42
380.999	1.37
381.21	32.08
381.42	60.76
381.63	-21.16
381.84	-29.35
382.05	-29.35
382.261	11.61
382.471	42.32
382.681	9.56
382.891	77.14
383.101	97.62
383.311	19.8
383.521	17.75
383.731	97.62
383.941	-4.78
384.151	36.18
384.361	48.47
384.571	105.81
384.781	40.28
384.991	118.1
385.201	68.95
385.411	91.48
385.621	62.8
385.831	-6.83
386.041	73.04
386.251	21.84
386.461	17.75
386.671	-31.4
386.881	60.76
387.091	-0.68
387.301	-6.83
387.511	-31.4
387.72	7.51
387.93	-8.87
388.14	19.8
388.35	-19.11
388.56	30.04
388.769	21.84
388.979	50.52
389.189	50.52
389.399	64.85
389.609	-10.92
389.818	130.39
390.028	40.28
390.238	32.08
390.447	68.95
390.657	9.56
390.867	21.84
391.076	-10.92
391.286	-60.07
391.496	44.37
391.705	-15.02
391.915	85.33
392.125	-31.4
392.334	66.9
392.544	89.43
392.753	27.99
392.963	-25.26
393.172	23.89
393.382	13.65
393.591	97.62
393.801	-15.02
394.01	1.37
394.22	64.85
394.429	25.94
394.639	9.56
394.848	3.41
395.058	44.37
395.267	75.09
395.477	52.56
395.686	-10.92
395.895	73.04
396.105	91.48
396.314	-66.22
396.524	85.33
396.733	99.67
396.942	60.76
397.152	66.9
397.361	73.04
397.57	48.47
397.78	75.09
397.989	42.32
398.198	71
398.407	48.47
398.617	-74.41
398.826	68.95
399.035	66.9
399.244	30.04
399.453	66.9
399.663	64.85
399.872	38.23
400.081	111.96
400.29	91.48
400.499	87.38
400.708	93.52
400.917	97.62
401.127	56.66
401.336	50.52
401.545	101.72
401.754	44.37
401.963	56.66
402.172	34.13
402.381	32.08
402.59	62.8
402.799	-6.83
403.008	85.33
403.217	118.1
403.426	44.37
403.635	25.94
403.844	36.18
404.053	58.71
404.262	60.76
404.471	95.57
404.68	34.13
404.888	105.81
405.097	48.47
405.306	132.44
405.515	126.29
405.724	25.94
405.933	68.95
406.142	191.83
406.35	101.72
406.559	38.23
406.768	95.57
406.977	36.18
407.185	85.33
407.394	89.43
407.603	97.62
407.812	122.2
408.02	146.77
408.229	34.13
408.438	56.66
408.646	99.67
408.855	204.11
409.064	79.19
409.272	177.49
409.481	157.01
409.69	210.26
409.898	152.91
410.107	187.73
410.315	148.82
410.524	163.15
410.733	214.35
410.941	195.92
411.15	189.78
411.358	202.07
411.567	175.44
411.775	265.55
411.984	175.44
412.192	257.36
412.401	212.31
412.609	255.31
412.818	271.7
413.026	234.83
413.234	228.69
413.443	316.75
413.651	296.27
413.86	326.99
414.068	324.94
414.276	380.24
414.485	384.34
414.693	345.42
414.901	501.07
415.11	380.24
415.318	410.96
415.526	370
415.734	396.62
415.943	476.49
416.151	453.97
416.359	421.2
416.567	529.74
416.776	494.93
416.984	568.65
417.192	529.74
417.4	550.22
417.608	535.89
417.817	601.42
418.025	621.9
418.233	591.18
418.441	556.36
418.649	687.43
418.857	703.82
419.065	779.59
419.273	695.63
419.481	814.41
419.689	793.93
419.897	884.04
420.105	904.52
420.313	845.13
420.521	994.63
420.729	933.19
420.937	972.1
421.145	1070.4
421.353	988.49
421.561	1150.28
421.769	1244.48
421.977	1189.19
422.185	1193.28
422.393	1246.53
422.601	1344.83
422.809	1285.44
423.017	1310.02
423.224	1387.84
423.432	1496.38
423.64	1441.09
423.848	1537.34
424.056	1578.3
424.263	1711.42
424.471	1719.61
424.679	1688.89
424.887	1867.06
425.094	1787.19
425.302	1852.73
425.51	1922.36
425.718	2108.73
425.925	2078.01
426.133	2178.36
426.341	2231.6
426.548	2391.34
426.756	2207.03
426.964	2422.06
427.171	2325.81
427.379	2682.16
427.586	2637.1
427.794	2663.72
428.001	2823.47
428.209	2919.72
428.417	2907.43
428.624	2944.3
428.832	3091.75
429.039	2923.82
429.247	3073.32
429.454	3253.54
429.662	3556.64
429.869	3339.55
430.076	3560.73
430.284	3474.72
430.491	3654.94
430.699	3869.98
430.906	3800.35
431.114	3882.27
431.321	4066.58
431.528	4080.92
431.736	4289.81
431.943	4648.21
432.15	4472.08
432.358	4566.29
432.565	4773.13
432.772	4691.21
432.979	4893.96
433.187	4924.68
433.394	5086.47
433.601	5348.61
433.808	5420.29
434.016	5442.82
434.223	5577.98
434.43	5922.04
434.637	5897.47
434.844	6210.81
435.052	6386.93
435.259	6157.56
435.466	6388.98
435.673	6460.66
435.88	6673.65
436.087	7128.3
436.294	7081.19
436.501	7079.15
436.708	7054.57
436.915	7308.52
437.122	7718.11
437.329	7709.92
437.537	8010.97
437.743	8129.75
437.95	7931.1
438.157	8381.65
438.364	8658.13
438.571	8529.11
438.778	8647.89
438.985	9397.45
439.192	9168.07
439.399	9311.43
439.606	9166.03
439.813	9542.85
440.02	10435.77
440.227	10220.73
440.433	9882.81
440.64	10349.75
440.847	10323.13
441.054	10609.84
441.261	11424.93
441.467	11265.19
441.674	11402.41
441.881	11906.21
442.088	11986.08
442.294	11556
442.501	12002.46
442.708	12360.86
442.914	12711.06
443.121	13196.43
443.328	12874.9
443.534	13669.51
443.741	13470.86
443.948	13294.73
444.154	14326.91
444.361	14199.93
444.568	14279.8
444.774	14361.72
444.981	14503.03
445.187	15055.98
445.394	15391.85
445.6	15422.57
445.807	16706.65
446.013	15932.51
446.22	16403.55
446.426	17208.4
446.633	17169.49
446.839	17910.85
447.046	16954.45
447.252	17966.15
447.459	17710.15
447.665	17892.42
447.871	18576.44
448.078	19682.34
448.284	18869.3
448.491	19307.57
448.697	19790.89
448.903	20411.42
449.11	20245.54
449.316	20212.77
449.522	20429.85
449.728	21527.56
449.935	21351.44
450.141	21167.12
450.347	21881.86
450.553	21169.17
450.76	21345.3
450.966	21732.36
451.172	21873.67
451.378	22281.22
451.584	22195.2
451.791	22795.26
451.997	22328.32
452.203	22991.86
452.409	22881.27
452.615	22756.35
452.821	21931.01
453.027	21742.6
453.233	23016.44
453.44	22281.22
453.646	22121.48
453.852	22455.29
454.058	22572.03
454.264	22123.52
454.47	22676.48
454.676	21851.14
454.882	22903.8
455.088	20718.62
455.294	21404.69
455.5	21724.17
455.705	21873.67
455.911	20945.94
456.117	20522.01
456.323	20458.53
456.529	19385.39
456.735	20280.35
456.941	19674.15
457.147	19168.3
457.352	18668.6
457.558	18480.19
457.764	18435.13
457.97	18058.31
458.176	17701.96
458.381	17900.61
458.587	16880.72
458.793	16716.89
458.999	15866.98
459.204	17069.14
459.41	16434.27
459.616	15543.4
459.821	15635.56
460.027	15666.28
460.233	15367.27
460.438	14556.28
460.644	14613.62
460.85	14109.82
461.055	13874.31
461.261	13675.65
461.466	12913.81
461.672	12424.34
461.878	13212.81
462.083	12207.26
462.289	12020.89
462.494	11830.43
462.7	11578.53
462.905	11121.84
463.111	11519.14
463.316	11687.08
463.522	11396.26
463.727	11340.97
463.932	11418.79
464.138	11132.08
464.343	11203.75
464.549	10822.83
464.754	11318.44
464.959	11056.3
465.165	11031.73
465.37	10665.14
465.575	10384.57
465.781	10902.7
465.986	10843.31
466.191	10542.26
466.397	10177.72
466.602	9733.31
466.807	10063.04
467.012	10468.53
467.218	10003.64
467.423	10026.17
467.628	9995.45
467.833	10507.44
468.038	10165.43
468.244	9768.13
468.449	10140.86
