Data from USB4F104151__49__13-11-27-379.txt Node

Date: Fri Mar 14 13:11:27 EDT 2025
User: louis
Spectrometer: USB4F10415
Trigger mode: 4
Integration Time (sec): 2.000000E-2
Scans to average: 1
Electric dark correction enabled: true
Nonlinearity correction enabled: false
Boxcar width: 0
XAxis mode: Wavelengths
Number of Pixels in Spectrum: 3648
>>>>>Begin Spectral Data<<<<<
178.204	-103.59
178.424	-103.59
178.644	-103.59
178.864	-87.21
179.084	-105.64
179.304	-33.96
179.524	-36.01
179.744	37.72
179.964	31.57
180.184	-11.43
180.404	-7.34
180.624	-25.77
180.844	7
181.064	2.9
181.283	9.05
181.503	58.2
181.723	-31.91
181.943	-91.31
182.163	56.15
182.383	15.19
182.602	9.05
182.822	101.2
183.042	4.95
183.262	-58.54
183.482	2.9
183.701	-5.29
183.921	27.48
184.141	-66.73
184.361	19.29
184.58	4.95
184.8	68.44
185.02	-3.24
185.239	56.15
185.459	-56.49
185.679	-9.39
185.898	-40.11
186.118	29.52
186.338	17.24
186.557	66.39
186.777	-29.87
186.997	93.01
187.216	4.95
187.436	4.95
187.655	29.52
187.875	-13.48
188.095	29.52
188.314	35.67
188.534	76.63
188.753	-44.2
188.973	54.1
189.192	-3.24
189.412	-29.87
189.631	66.39
189.851	-44.2
190.07	13.14
190.29	-15.53
190.509	54.1
190.729	33.62
190.948	4.95
191.168	84.82
191.387	23.38
191.607	-74.92
191.826	11.09
192.045	-1.19
192.265	58.2
192.484	-11.43
192.704	29.52
192.923	21.33
193.142	21.33
193.362	27.48
193.581	35.67
193.8	21.33
194.02	101.2
194.239	-15.53
194.458	78.68
194.678	2.9
194.897	-7.34
195.116	-33.96
195.335	-3.24
195.555	-9.39
195.774	56.15
195.993	13.14
196.212	-13.48
196.432	-1.19
196.651	27.48
196.87	39.76
197.089	54.1
197.308	-62.63
197.528	33.62
197.747	-48.3
197.966	37.72
198.185	70.48
198.404	56.15
198.623	-11.43
198.842	-7.34
199.062	-7.34
199.281	43.86
199.5	-89.26
199.719	2.9
199.938	97.11
200.157	-23.72
200.376	-40.11
200.595	2.9
200.814	50
201.033	13.14
201.252	62.29
201.471	90.96
201.69	-5.29
201.909	23.38
202.128	23.38
202.347	-44.2
202.566	-44.2
202.785	21.33
203.004	-13.48
203.223	68.44
203.442	35.67
203.661	68.44
203.879	-29.87
204.098	119.64
204.317	-19.63
204.536	7
204.755	-3.24
204.974	31.57
205.193	-13.48
205.411	-9.39
205.63	13.14
205.849	54.1
206.068	2.9
206.287	47.96
206.505	-50.35
206.724	35.67
206.943	-7.34
207.162	29.52
207.381	-7.34
207.599	27.48
207.818	62.29
208.037	62.29
208.255	-25.77
208.474	-50.35
208.693	-13.48
208.911	-7.34
209.13	27.48
209.349	35.67
209.567	29.52
209.786	-19.63
210.005	37.72
210.223	-23.72
210.442	-62.63
210.661	-21.67
210.879	45.91
211.098	-85.16
211.316	-33.96
211.535	27.48
211.753	-64.68
211.972	4.95
212.191	107.35
212.409	-7.34
212.628	23.38
212.846	-42.15
213.065	31.57
213.283	-3.24
213.502	43.86
213.72	-52.39
213.938	-9.39
214.157	19.29
214.375	-40.11
214.594	50
214.812	50
215.031	45.91
215.249	-11.43
215.467	64.34
215.686	39.76
215.904	41.81
216.122	31.57
216.341	35.67
216.559	35.67
216.778	47.96
216.996	11.09
217.214	-5.29
217.432	-25.77
217.651	-29.87
217.869	27.48
218.087	54.1
218.306	-50.35
218.524	-1.19
218.742	-17.58
218.96	41.81
219.179	-25.77
219.397	2.9
219.615	17.24
219.833	-27.82
220.051	-52.39
220.27	23.38
220.488	-3.24
220.706	47.96
220.924	-21.67
221.142	-130.22
221.36	7
221.578	2.9
221.796	45.91
222.015	-40.11
222.233	-13.48
222.451	-60.59
222.669	-5.29
222.887	43.86
223.105	62.29
223.323	37.72
223.541	15.19
223.759	19.29
223.977	-27.82
224.195	66.39
224.413	-81.07
224.631	-13.48
224.849	11.09
225.067	-9.39
225.285	-3.24
225.503	21.33
225.721	-13.48
225.939	29.52
226.157	-13.48
226.375	68.44
226.592	43.86
226.81	-9.39
227.028	33.62
227.246	13.14
227.464	43.86
227.682	-31.91
227.9	-36.01
228.117	25.43
228.335	-23.72
228.553	19.29
228.771	-5.29
228.989	-3.24
229.206	52.05
229.424	23.38
229.642	17.24
229.86	4.95
230.077	72.53
230.295	-33.96
230.513	-3.24
230.731	88.92
230.948	-9.39
231.166	29.52
231.384	-74.92
231.601	-40.11
231.819	27.48
232.037	-13.48
232.254	-29.87
232.472	-54.44
232.689	-11.43
232.907	-19.63
233.125	-11.43
233.342	47.96
233.56	-44.2
233.777	68.44
233.995	35.67
234.213	90.96
234.43	2.9
234.648	2.9
234.865	-54.44
235.083	35.67
235.3	7
235.518	25.43
235.735	52.05
235.953	74.58
236.17	47.96
236.388	-17.58
236.605	-58.54
236.822	76.63
237.04	0.85
237.257	-15.53
237.475	29.52
237.692	41.81
237.909	-5.29
238.127	-46.25
238.344	-29.87
238.562	-21.67
238.779	27.48
238.996	45.91
239.214	-19.63
239.431	54.1
239.648	19.29
239.865	4.95
240.083	-66.73
240.3	0.85
240.517	29.52
240.735	41.81
240.952	39.76
241.169	15.19
241.386	39.76
241.603	17.24
241.821	-46.25
242.038	21.33
242.255	-54.44
242.472	-44.2
242.689	54.1
242.907	45.91
243.124	39.76
243.341	17.24
243.558	19.29
243.775	-5.29
243.992	-74.92
244.209	-5.29
244.426	35.67
244.643	72.53
244.86	-48.3
245.078	70.48
245.295	9.05
245.512	-52.39
245.729	-52.39
245.946	-1.19
246.163	19.29
246.38	47.96
246.597	41.81
246.814	-29.87
247.031	25.43
247.248	19.29
247.464	2.9
247.681	-66.73
247.898	60.24
248.115	39.76
248.332	-5.29
248.549	4.95
248.766	2.9
248.983	-3.24
249.2	29.52
249.417	-17.58
249.633	-19.63
249.85	-27.82
250.067	-13.48
250.284	7
250.501	86.87
250.717	37.72
250.934	11.09
251.151	-33.96
251.368	13.14
251.585	31.57
251.801	41.81
252.018	0.85
252.235	27.48
252.451	-5.29
252.668	39.76
252.885	4.95
253.102	66.39
253.318	23.38
253.535	7
253.752	-44.2
253.968	54.1
254.185	-33.96
254.401	35.67
254.618	68.44
254.835	-27.82
255.051	72.53
255.268	-25.77
255.484	25.43
255.701	-1.19
255.917	2.9
256.134	-76.97
256.351	11.09
256.567	2.9
256.784	60.24
257	-70.83
257.217	29.52
257.433	-1.19
257.65	13.14
257.866	15.19
258.082	-33.96
258.299	-42.15
258.515	-38.06
258.732	-27.82
258.948	-66.73
259.165	-3.24
259.381	13.14
259.597	-21.67
259.814	88.92
260.03	29.52
260.246	9.05
260.463	37.72
260.679	52.05
260.895	21.33
261.112	84.82
261.328	-9.39
261.544	-25.77
261.761	72.53
261.977	-7.34
262.193	-1.19
262.409	-21.67
262.626	39.76
262.842	-40.11
263.058	7
263.274	23.38
263.49	-13.48
263.707	50
263.923	-46.25
264.139	9.05
264.355	17.24
264.571	78.68
264.787	19.29
265.004	4.95
265.22	93.01
265.436	-29.87
265.652	9.05
265.868	74.58
266.084	31.57
266.3	31.57
266.516	-29.87
266.732	35.67
266.948	11.09
267.164	-11.43
267.38	11.09
267.596	-13.48
267.812	31.57
268.028	52.05
268.244	-11.43
268.46	19.29
268.676	37.72
268.892	29.52
269.108	-31.91
269.324	2.9
269.54	4.95
269.756	86.87
269.972	-25.77
270.188	19.29
270.403	-17.58
270.619	-17.58
270.835	13.14
271.051	76.63
271.267	-9.39
271.483	60.24
271.698	33.62
271.914	68.44
272.13	-46.25
272.346	19.29
272.562	-3.24
272.777	-7.34
272.993	72.53
273.209	-27.82
273.425	37.72
273.64	58.2
273.856	27.48
274.072	-33.96
274.287	-29.87
274.503	21.33
274.719	27.48
274.934	-11.43
275.15	-3.24
275.366	-11.43
275.581	25.43
275.797	43.86
276.012	29.52
276.228	-9.39
276.444	-13.48
276.659	33.62
276.875	13.14
277.09	-5.29
277.306	39.76
277.521	21.33
277.737	21.33
277.952	33.62
278.168	70.48
278.383	27.48
278.599	-29.87
278.814	-15.53
279.03	17.24
279.245	-11.43
279.461	-29.87
279.676	47.96
279.892	-70.83
280.107	-29.87
280.322	-17.58
280.538	17.24
280.753	-5.29
280.969	2.9
281.184	-38.06
281.399	39.76
281.615	-27.82
281.83	45.91
282.045	-79.02
282.26	11.09
282.476	-9.39
282.691	47.96
282.906	7
283.122	-25.77
283.337	35.67
283.552	-21.67
283.767	7
283.983	29.52
284.198	15.19
284.413	2.9
284.628	-13.48
284.843	45.91
285.058	-58.54
285.274	60.24
285.489	15.19
285.704	31.57
285.919	33.62
286.134	23.38
286.349	-13.48
286.564	-17.58
286.779	54.1
286.995	76.63
287.21	-7.34
287.425	39.76
287.64	19.29
287.855	-13.48
288.07	-3.24
288.285	-23.72
288.5	-7.34
288.715	-5.29
288.93	-3.24
289.145	-27.82
289.36	-48.3
289.575	-1.19
289.79	-9.39
290.004	43.86
290.219	39.76
290.434	2.9
290.649	-58.54
290.864	-11.43
291.079	-13.48
291.294	-15.53
291.509	19.29
291.724	7
291.938	-5.29
292.153	25.43
292.368	-21.67
292.583	-21.67
292.798	27.48
293.012	64.34
293.227	27.48
293.442	39.76
293.657	45.91
293.871	27.48
294.086	-9.39
294.301	52.05
294.516	60.24
294.73	-23.72
294.945	-46.25
295.16	-95.4
295.374	39.76
295.589	88.92
295.804	37.72
296.018	25.43
296.233	0.85
296.447	-52.39
296.662	52.05
296.877	29.52
297.091	45.91
297.306	33.62
297.52	-44.2
297.735	4.95
297.949	11.09
298.164	31.57
298.378	7
298.593	29.52
298.807	60.24
299.022	-29.87
299.236	39.76
299.451	19.29
299.665	29.52
299.88	27.48
300.094	-9.39
300.309	39.76
300.523	70.48
300.737	-48.3
300.952	52.05
301.166	-13.48
301.381	-9.39
301.595	-119.98
301.809	-36.01
302.024	47.96
302.238	9.05
302.452	105.3
302.667	-36.01
302.881	27.48
303.095	27.48
303.309	29.52
303.524	-3.24
303.738	19.29
303.952	-36.01
304.166	-11.43
304.381	-21.67
304.595	66.39
304.809	-89.26
305.023	103.25
305.237	-74.92
305.452	-3.24
305.666	-42.15
305.88	74.58
306.094	-27.82
306.308	56.15
306.522	11.09
306.736	37.72
306.95	33.62
307.164	-23.72
307.379	7
307.593	37.72
307.807	19.29
308.021	-1.19
308.235	-13.48
308.449	7
308.663	11.09
308.877	142.16
309.091	-1.19
309.305	0.85
309.519	9.05
309.733	52.05
309.947	-1.19
310.161	15.19
310.374	17.24
310.588	21.33
310.802	19.29
311.016	95.06
311.23	-33.96
311.444	-5.29
311.658	47.96
311.872	70.48
312.085	19.29
312.299	58.2
312.513	64.34
312.727	66.39
312.941	-17.58
313.154	-70.83
313.368	31.57
313.582	-19.63
313.796	35.67
314.009	25.43
314.223	76.63
314.437	25.43
314.651	43.86
314.864	17.24
315.078	21.33
315.292	-11.43
315.505	2.9
315.719	-7.34
315.933	-11.43
316.146	21.33
316.36	-25.77
316.573	19.29
316.787	33.62
317.001	2.9
317.214	-15.53
317.428	-38.06
317.641	2.9
317.855	-19.63
318.068	50
318.282	70.48
318.495	2.9
318.709	25.43
318.922	-3.24
319.136	-5.29
319.349	88.92
319.563	23.38
319.776	7
319.99	-25.77
320.203	29.52
320.417	64.34
320.63	31.57
320.843	-15.53
321.057	-11.43
321.27	13.14
321.483	9.05
321.697	15.19
321.91	68.44
322.124	56.15
322.337	11.09
322.55	-25.77
322.763	2.9
322.977	54.1
323.19	-33.96
323.403	64.34
323.617	7
323.83	33.62
324.043	-19.63
324.256	21.33
324.469	-1.19
324.683	47.96
324.896	19.29
325.109	-1.19
325.322	25.43
325.535	-25.77
325.748	-44.2
325.962	-13.48
326.175	62.29
326.388	45.91
326.601	62.29
326.814	35.67
327.027	-7.34
327.24	84.82
327.453	-42.15
327.666	-13.48
327.879	13.14
328.092	17.24
328.305	2.9
328.518	2.9
328.731	-111.78
328.944	-38.06
329.157	11.09
329.37	-1.19
329.583	7
329.796	-11.43
330.009	39.76
330.222	-19.63
330.435	0.85
330.648	35.67
330.861	25.43
331.073	-15.53
331.286	-31.91
331.499	15.19
331.712	13.14
331.925	74.58
332.138	72.53
332.35	90.96
332.563	0.85
332.776	19.29
332.989	39.76
333.202	-74.92
333.414	-11.43
333.627	47.96
333.84	4.95
334.053	-27.82
334.265	9.05
334.478	-46.25
334.691	86.87
334.903	-27.82
335.116	-95.4
335.329	-9.39
335.541	25.43
335.754	93.01
335.966	-81.07
336.179	-46.25
336.392	60.24
336.604	37.72
336.817	45.91
337.029	78.68
337.242	19.29
337.454	31.57
337.667	-5.29
337.88	11.09
338.092	64.34
338.305	11.09
338.517	11.09
338.729	54.1
338.942	-19.63
339.154	7
339.367	35.67
339.579	27.48
339.792	-17.58
340.004	56.15
340.217	35.67
340.429	33.62
340.641	45.91
340.854	4.95
341.066	35.67
341.278	-1.19
341.491	43.86
341.703	-15.53
341.915	45.91
342.128	2.9
342.34	43.86
342.552	37.72
342.764	4.95
342.977	-15.53
343.189	-40.11
343.401	-3.24
343.613	4.95
343.826	-5.29
344.038	27.48
344.25	17.24
344.462	-5.29
344.674	64.34
344.886	0.85
345.099	97.11
345.311	-21.67
345.523	9.05
345.735	-99.5
345.947	37.72
346.159	54.1
346.371	72.53
346.583	21.33
346.795	-33.96
347.007	0.85
347.219	-1.19
347.431	105.3
347.643	66.39
347.855	11.09
348.067	39.76
348.279	-19.63
348.491	2.9
348.703	60.24
348.915	25.43
349.127	43.86
349.339	27.48
349.551	-38.06
349.763	43.86
349.975	21.33
350.187	27.48
350.399	113.49
350.61	37.72
350.822	-54.44
351.034	2.9
351.246	27.48
351.458	21.33
351.669	-25.77
351.881	0.85
352.093	-15.53
352.305	-46.25
352.517	62.29
352.728	68.44
352.94	-17.58
353.152	45.91
353.363	-50.35
353.575	19.29
353.787	-68.78
353.999	-17.58
354.21	29.52
354.422	-64.68
354.633	-46.25
354.845	9.05
355.057	27.48
355.268	-11.43
355.48	-1.19
355.692	11.09
355.903	58.2
356.115	27.48
356.326	-7.34
356.538	43.86
356.749	2.9
356.961	41.81
357.172	-48.3
357.384	35.67
357.595	27.48
357.807	23.38
358.018	-38.06
358.23	35.67
358.441	84.82
358.653	4.95
358.864	23.38
359.075	47.96
359.287	-33.96
359.498	60.24
359.709	-36.01
359.921	29.52
360.132	-5.29
360.344	15.19
360.555	78.68
360.766	23.38
360.977	-21.67
361.189	-1.19
361.4	-44.2
361.611	80.72
361.823	76.63
362.034	39.76
362.245	-54.44
362.456	-38.06
362.667	9.05
362.879	76.63
363.09	-3.24
363.301	-25.77
363.512	68.44
363.723	11.09
363.935	80.72
364.146	45.91
364.357	-58.54
364.568	23.38
364.779	-44.2
364.99	45.91
365.201	21.33
365.412	43.86
365.623	-60.59
365.834	31.57
366.045	2.9
366.256	31.57
366.467	56.15
366.678	13.14
366.889	27.48
367.1	0.85
367.311	29.52
367.522	-5.29
367.733	54.1
367.944	23.38
368.155	-19.63
368.366	7
368.577	13.14
368.788	41.81
368.999	-19.63
369.209	27.48
369.42	80.72
369.631	105.3
369.842	45.91
370.053	43.86
370.264	-9.39
370.474	-29.87
370.685	11.09
370.896	-19.63
371.107	25.43
371.317	70.48
371.528	29.52
371.739	109.4
371.95	39.76
372.16	-5.29
372.371	23.38
372.582	-19.63
372.792	37.72
373.003	4.95
373.214	-15.53
373.424	37.72
373.635	9.05
373.846	41.81
374.056	13.14
374.267	27.48
374.477	54.1
374.688	-19.63
374.898	19.29
375.109	29.52
375.319	21.33
375.53	11.09
375.74	-11.43
375.951	-11.43
376.161	35.67
376.372	43.86
376.582	-38.06
376.793	17.24
377.003	47.96
377.214	27.48
377.424	-13.48
377.635	29.52
377.845	84.82
378.055	27.48
378.266	-36.01
378.476	54.1
378.686	17.24
378.897	-54.44
379.107	27.48
379.317	27.48
379.528	52.05
379.738	56.15
379.948	72.53
380.158	-36.01
380.369	-5.29
380.579	68.44
380.789	47.96
380.999	39.76
381.21	45.91
381.42	-9.39
381.63	-38.06
381.84	54.1
382.05	-21.67
382.261	39.76
382.471	31.57
382.681	23.38
382.891	2.9
383.101	68.44
383.311	-46.25
383.521	52.05
383.731	-15.53
383.941	78.68
384.151	-33.96
384.361	19.29
384.571	-7.34
384.781	58.2
384.991	23.38
385.201	21.33
385.411	21.33
385.621	29.52
385.831	41.81
386.041	-13.48
386.251	-11.43
386.461	23.38
386.671	70.48
386.881	17.24
387.091	35.67
387.301	37.72
387.511	-58.54
387.72	-3.24
387.93	13.14
388.14	-13.48
388.35	35.67
388.56	37.72
388.769	17.24
388.979	-56.49
389.189	19.29
389.399	19.29
389.609	66.39
389.818	68.44
390.028	19.29
390.238	95.06
390.447	-7.34
390.657	52.05
390.867	-62.63
391.076	35.67
391.286	52.05
391.496	74.58
391.705	72.53
391.915	80.72
392.125	99.16
392.334	4.95
392.544	-27.82
392.753	11.09
392.963	13.14
393.172	9.05
393.382	-1.19
393.591	107.35
393.801	45.91
394.01	37.72
394.22	119.64
394.429	41.81
394.639	-7.34
394.848	119.64
395.058	97.11
395.267	15.19
395.477	-29.87
395.686	66.39
395.895	74.58
396.105	113.49
396.314	-5.29
396.524	107.35
396.733	21.33
396.942	93.01
397.152	37.72
397.361	93.01
397.57	78.68
397.78	-19.63
397.989	107.35
398.198	97.11
398.407	68.44
398.617	74.58
398.826	31.57
399.035	93.01
399.244	115.54
399.453	72.53
399.663	-5.29
399.872	21.33
400.081	2.9
400.29	70.48
400.499	-48.3
400.708	70.48
400.917	-42.15
401.127	84.82
401.336	-1.19
401.545	129.88
401.754	86.87
401.963	62.29
402.172	68.44
402.381	117.59
402.59	29.52
402.799	23.38
403.008	84.82
403.217	50
403.426	-5.29
403.635	41.81
403.844	52.05
404.053	25.43
404.262	74.58
404.471	121.68
404.68	76.63
404.888	43.86
405.097	15.19
405.306	31.57
405.515	52.05
405.724	62.29
405.933	-11.43
406.142	47.96
406.35	140.12
406.559	-1.19
406.768	109.4
406.977	103.25
407.185	58.2
407.394	144.21
407.603	97.11
407.812	45.91
408.02	90.96
408.229	76.63
408.438	160.59
408.646	117.59
408.855	82.77
409.064	76.63
409.272	101.2
409.481	109.4
409.69	174.93
409.898	146.26
410.107	138.07
410.315	127.83
410.524	105.3
410.733	123.73
410.941	168.79
411.15	207.7
411.358	191.31
411.567	158.55
411.775	193.36
411.984	164.69
412.192	254.8
412.401	248.66
412.609	203.6
412.818	297.81
413.026	232.27
413.234	213.84
413.443	279.38
413.651	187.22
413.86	258.9
414.068	254.8
414.276	293.71
414.485	207.7
414.693	312.14
414.901	344.91
415.11	320.34
415.318	359.25
415.526	291.66
415.734	363.34
415.943	349.01
416.151	320.34
416.359	447.31
416.567	445.26
416.776	385.87
416.984	494.41
417.192	508.75
417.4	412.5
417.608	430.93
417.817	461.65
418.025	498.51
418.233	570.19
418.441	480.08
418.649	527.18
418.857	572.24
419.065	645.96
419.273	609.1
419.481	562
419.689	641.87
419.897	637.77
420.105	637.77
420.313	719.69
420.521	768.84
420.729	766.79
420.937	715.59
421.145	791.37
421.353	895.82
421.561	928.58
421.769	940.87
421.977	940.87
422.185	922.44
422.393	951.11
422.601	1190.72
422.809	1061.7
423.017	1078.08
423.224	1133.38
423.432	1143.62
423.64	1192.77
423.848	1239.87
424.056	1284.93
424.263	1272.64
424.471	1276.74
424.679	1313.6
424.887	1471.29
425.094	1485.63
425.302	1614.65
425.51	1508.16
425.718	1604.41
425.925	1641.28
426.133	1678.14
426.341	1733.43
426.548	1700.67
426.756	1837.88
426.964	1872.7
427.171	1891.13
427.379	2032.44
427.586	1977.14
427.794	2100.02
428.001	2202.42
428.209	2302.77
428.417	2188.08
428.624	2472.75
428.832	2315.06
429.039	2366.26
429.247	2317.11
429.454	2628.4
429.662	2771.76
429.869	2595.63
430.076	2747.18
430.284	2632.49
430.491	2997.03
430.699	3048.23
430.906	2923.3
431.114	3037.99
431.321	3087.14
431.528	3128.1
431.736	3330.85
431.943	3576.61
432.15	3466.02
432.358	3558.18
432.565	3617.57
432.772	3549.98
432.979	3896.09
433.187	3945.24
433.394	3887.9
433.601	4227.86
433.808	4217.62
434.016	4279.06
434.223	4346.64
434.43	4850.44
434.637	4485.9
434.844	5016.33
435.052	4918.03
435.259	4946.7
435.466	4915.98
435.673	4848.4
435.88	5327.62
436.087	5583.62
436.294	5501.7
436.501	5368.58
436.708	5563.14
436.915	5817.08
437.122	5997.31
437.329	5866.24
437.537	6204.15
437.743	6185.72
437.95	6159.1
438.157	6517.49
438.364	6632.18
438.571	6775.53
438.778	6615.79
438.985	7377.64
439.192	7148.26
439.399	7437.03
439.606	7156.46
439.813	7645.92
440.02	7926.49
440.227	7891.68
440.433	7758.56
440.64	8198.87
440.847	8057.56
441.054	8319.7
441.261	8704.72
441.467	8479.44
441.674	8835.79
441.881	9046.73
442.088	9165.51
442.294	9204.42
442.501	9097.93
442.708	9390.79
442.914	9919.17
443.121	10212.03
443.328	9814.72
443.534	10738.35
443.741	10433.21
443.948	10371.77
444.154	11049.64
444.361	11025.07
444.568	11055.79
444.774	11016.88
444.981	11160.24
445.187	11530.92
445.394	11879.07
445.6	11748
445.807	12993.17
446.013	12389.02
446.22	12595.86
446.426	13202.06
446.633	13236.88
446.839	13834.88
447.046	13273.74
447.252	13945.47
447.459	13869.7
447.665	13953.66
447.871	14363.26
448.078	15307.37
448.284	14283.39
448.491	14928.5
448.697	15426.15
448.903	15600.23
449.11	15684.2
449.316	15413.87
449.522	15587.94
449.728	16198.24
449.935	16484.95
450.141	16325.21
450.347	16681.56
450.553	16308.83
450.76	16249.44
450.966	16878.16
451.172	16489.05
451.378	17142.35
451.584	16906.84
451.791	17365.58
451.997	17478.22
452.203	17498.7
452.409	17580.62
452.615	17611.34
452.821	16648.79
453.027	16652.89
453.233	17320.53
453.44	16919.12
453.646	17111.63
453.852	17037.91
454.058	17416.78
454.264	17146.45
454.47	17242.7
454.676	16681.56
454.882	17449.55
455.088	16278.11
455.294	16132.7
455.5	16601.69
455.705	16642.65
455.911	15983.2
456.117	15747.69
456.323	15510.12
456.529	14731.89
456.735	15444.59
456.941	14918.26
457.147	14686.84
457.352	14439.03
457.558	14180.99
457.764	14228.09
457.97	14006.91
458.176	13458.06
458.381	13572.74
458.587	12915.34
458.793	12993.17
458.999	12503.7
459.204	13128.33
459.41	12886.67
459.616	11899.55
459.821	11756.19
460.027	11981.47
460.233	11600.55
460.438	10896.05
460.644	11272.87
460.85	10754.74
461.055	10648.24
461.261	10572.47
461.466	10005.18
461.672	9460.42
461.878	10152.63
462.083	9564.87
462.289	9349.83
462.494	9319.11
462.7	8753.87
462.905	8465.11
463.111	8792.78
463.316	8956.62
463.522	8674
463.727	8649.43
463.932	8696.53
464.138	8512.21
464.343	8379.09
464.549	8311.51
464.754	8671.95
464.959	8520.4
465.165	8587.99
465.37	8252.12
465.575	7693.02
465.781	8235.74
465.986	8227.54
466.191	8020.7
466.397	7891.68
466.602	7490.28
466.807	7801.57
467.012	8018.65
467.218	7727.84
467.423	7592.67
467.628	7639.78
467.833	8155.86
468.038	7738.08
468.244	7498.47
468.449	7647.97
468.654	7652.06
468.859	7416.55
469.064	7490.28
