Data from USB4F104151__97__13-14-06-163.txt Node

Date: Fri Mar 14 13:14:06 EDT 2025
User: louis
Spectrometer: USB4F10415
Trigger mode: 4
Integration Time (sec): 2.000000E-2
Scans to average: 1
Electric dark correction enabled: true
Nonlinearity correction enabled: false
Boxcar width: 0
XAxis mode: Wavelengths
Number of Pixels in Spectrum: 3648
>>>>>Begin Spectral Data<<<<<
178.204	-23.55
178.424	-23.55
178.644	-23.55
178.864	-115.71
179.084	-89.09
179.304	17.41
179.524	66.56
179.744	-35.84
179.964	44.03
180.184	-25.6
180.404	-23.55
180.624	7.17
180.844	-54.27
181.064	-33.79
181.283	-15.36
181.503	9.22
181.723	44.03
181.943	-29.7
182.163	15.36
182.383	-54.27
182.602	70.65
182.822	50.18
183.042	-37.89
183.262	-35.84
183.482	9.22
183.701	48.13
183.921	3.07
184.141	-68.61
184.361	84.99
184.58	1.02
184.8	66.56
185.02	41.98
185.239	54.27
185.459	54.27
185.679	80.89
185.898	-3.07
186.118	9.22
186.338	44.03
186.557	-5.12
186.777	48.13
186.997	31.74
187.216	-76.8
187.436	27.65
187.655	25.6
187.875	97.28
188.095	44.03
188.314	31.74
188.534	27.65
188.753	60.42
188.973	54.27
189.192	123.9
189.412	41.98
189.631	19.46
189.851	1.02
190.07	37.89
190.29	-23.55
190.509	50.18
190.729	64.51
190.948	64.51
191.168	54.27
191.387	17.41
191.607	9.22
191.826	1.02
192.045	50.18
192.265	-13.31
192.484	64.51
192.704	-5.12
192.923	-27.65
193.142	78.85
193.362	78.85
193.581	91.13
193.8	7.17
194.02	11.26
194.239	21.5
194.458	60.42
194.678	44.03
194.897	58.37
195.116	9.22
195.335	64.51
195.555	17.41
195.774	82.94
195.993	70.65
196.212	-3.07
196.432	13.31
196.651	-25.6
196.87	56.32
197.089	29.7
197.308	33.79
197.528	7.17
197.747	-23.55
197.966	33.79
198.185	7.17
198.404	37.89
198.623	64.51
198.842	46.08
199.062	23.55
199.281	39.94
199.5	29.7
199.719	-35.84
199.938	33.79
200.157	-7.17
200.376	-5.12
200.595	44.03
200.814	54.27
201.033	-5.12
201.252	11.26
201.471	33.79
201.69	68.61
201.909	101.37
202.128	-31.74
202.347	68.61
202.566	13.31
202.785	-37.89
203.004	-35.84
203.223	9.22
203.442	82.94
203.661	52.22
203.879	72.7
204.098	87.04
204.317	54.27
204.536	39.94
204.755	33.79
204.974	54.27
205.193	1.02
205.411	54.27
205.63	-19.46
205.849	13.31
206.068	21.5
206.287	15.36
206.505	7.17
206.724	56.32
206.943	46.08
207.162	44.03
207.381	-27.65
207.599	27.65
207.818	74.75
208.037	-11.26
208.255	54.27
208.474	11.26
208.693	33.79
208.911	5.12
209.13	-7.17
209.349	91.13
209.567	74.75
209.786	99.33
210.005	-15.36
210.223	52.22
210.442	-95.23
210.661	-27.65
210.879	74.75
211.098	25.6
211.316	-33.79
211.535	15.36
211.753	-9.22
211.972	-5.12
212.191	9.22
212.409	70.65
212.628	17.41
212.846	23.55
213.065	3.07
213.283	84.99
213.502	44.03
213.72	52.22
213.938	23.55
214.157	-1.02
214.375	64.51
214.594	19.46
214.812	-48.13
215.031	-11.26
215.249	21.5
215.467	41.98
215.686	19.46
215.904	41.98
216.122	25.6
216.341	97.28
216.559	87.04
216.778	37.89
216.996	3.07
217.214	-5.12
217.432	37.89
217.651	68.61
217.869	-87.04
218.087	48.13
218.306	-46.08
218.524	105.47
218.742	25.6
218.96	60.42
219.179	-76.8
219.397	-7.17
219.615	91.13
219.833	21.5
220.051	-11.26
220.27	46.08
220.488	121.85
220.706	-15.36
220.924	23.55
221.142	37.89
221.36	5.12
221.578	19.46
221.796	17.41
222.015	25.6
222.233	54.27
222.451	-11.26
222.669	-3.07
222.887	142.33
223.105	-15.36
223.323	27.65
223.541	50.18
223.759	-1.02
223.977	-3.07
224.195	44.03
224.413	72.7
224.631	3.07
224.849	-31.74
225.067	125.95
225.285	44.03
225.503	31.74
225.721	-15.36
225.939	-23.55
226.157	23.55
226.375	76.8
226.592	21.5
226.81	132.09
227.028	60.42
227.246	27.65
227.464	52.22
227.682	52.22
227.9	62.46
228.117	82.94
228.335	1.02
228.553	72.7
228.771	54.27
228.989	37.89
229.206	27.65
229.424	11.26
229.642	27.65
229.86	13.31
230.077	41.98
230.295	60.42
230.513	52.22
230.731	121.85
230.948	9.22
231.166	50.18
231.384	11.26
231.601	27.65
231.819	3.07
232.037	74.75
232.254	-54.27
232.472	-7.17
232.689	9.22
232.907	41.98
233.125	99.33
233.342	17.41
233.56	-19.46
233.777	37.89
233.995	17.41
234.213	166.91
234.43	11.26
234.648	41.98
234.865	21.5
235.083	17.41
235.3	-9.22
235.518	-9.22
235.735	50.18
235.953	107.52
236.17	17.41
236.388	72.7
236.605	39.94
236.822	5.12
237.04	5.12
237.257	72.7
237.475	19.46
237.692	17.41
237.909	25.6
238.127	25.6
238.344	62.46
238.562	66.56
238.779	1.02
238.996	37.89
239.214	60.42
239.431	48.13
239.648	-37.89
239.865	64.51
240.083	-33.79
240.3	1.02
240.517	80.89
240.735	29.7
240.952	74.75
241.169	52.22
241.386	27.65
241.603	17.41
241.821	87.04
242.038	35.84
242.255	-29.7
242.472	25.6
242.689	91.13
242.907	1.02
243.124	44.03
243.341	66.56
243.558	-76.8
243.775	13.31
243.992	44.03
244.209	27.65
244.426	64.51
244.643	52.22
244.86	17.41
245.078	74.75
245.295	60.42
245.512	105.47
245.729	9.22
245.946	-9.22
246.163	70.65
246.38	21.5
246.597	-9.22
246.814	15.36
247.031	56.32
247.248	95.23
247.464	33.79
247.681	35.84
247.898	3.07
248.115	48.13
248.332	33.79
248.549	31.74
248.766	52.22
248.983	21.5
249.2	80.89
249.417	-5.12
249.633	-17.41
249.85	52.22
250.067	-68.61
250.284	41.98
250.501	-39.94
250.717	15.36
250.934	54.27
251.151	7.17
251.368	-3.07
251.585	48.13
251.801	-15.36
252.018	-3.07
252.235	15.36
252.451	-31.74
252.668	31.74
252.885	60.42
253.102	50.18
253.318	84.99
253.535	33.79
253.752	41.98
253.968	-25.6
254.185	23.55
254.401	35.84
254.618	60.42
254.835	-46.08
255.051	68.61
255.268	91.13
255.484	54.27
255.701	37.89
255.917	74.75
256.134	5.12
256.351	1.02
256.567	87.04
256.784	44.03
257	-11.26
257.217	46.08
257.433	-17.41
257.65	9.22
257.866	19.46
258.082	-17.41
258.299	60.42
258.515	48.13
258.732	31.74
258.948	105.47
259.165	58.37
259.381	48.13
259.597	46.08
259.814	50.18
260.03	-27.65
260.246	78.85
260.463	95.23
260.679	1.02
260.895	52.22
261.112	58.37
261.328	-11.26
261.544	25.6
261.761	91.13
261.977	91.13
262.193	-72.7
262.409	27.65
262.626	66.56
262.842	91.13
263.058	19.46
263.274	95.23
263.49	46.08
263.707	87.04
263.923	19.46
264.139	33.79
264.355	-54.27
264.571	39.94
264.787	41.98
265.004	87.04
265.22	58.37
265.436	33.79
265.652	44.03
265.868	37.89
266.084	-19.46
266.3	78.85
266.516	33.79
266.732	21.5
266.948	80.89
267.164	52.22
267.38	95.23
267.596	66.56
267.812	101.37
268.028	44.03
268.244	39.94
268.46	142.33
268.676	-60.42
268.892	19.46
269.108	5.12
269.324	41.98
269.54	-7.17
269.756	50.18
269.972	74.75
270.188	-7.17
270.403	37.89
270.619	9.22
270.835	23.55
271.051	5.12
271.267	-70.65
271.483	27.65
271.698	-78.85
271.914	-39.94
272.13	50.18
272.346	62.46
272.562	62.46
272.777	121.85
272.993	25.6
273.209	23.55
273.425	27.65
273.64	31.74
273.856	58.37
274.072	-23.55
274.287	-3.07
274.503	121.85
274.719	-7.17
274.934	-13.31
275.15	66.56
275.366	-37.89
275.581	17.41
275.797	62.46
276.012	87.04
276.228	101.37
276.444	44.03
276.659	19.46
276.875	-3.07
277.09	19.46
277.306	58.37
277.521	103.42
277.737	19.46
277.952	-21.5
278.168	99.33
278.383	35.84
278.599	1.02
278.814	-15.36
279.03	41.98
279.245	74.75
279.461	-35.84
279.676	84.99
279.892	52.22
280.107	-1.02
280.322	17.41
280.538	66.56
280.753	54.27
280.969	76.8
281.184	39.94
281.399	27.65
281.615	46.08
281.83	29.7
282.045	-37.89
282.26	70.65
282.476	54.27
282.691	37.89
282.906	41.98
283.122	11.26
283.337	13.31
283.552	-27.65
283.767	25.6
283.983	54.27
284.198	58.37
284.413	9.22
284.628	74.75
284.843	58.37
285.058	44.03
285.274	41.98
285.489	19.46
285.704	25.6
285.919	9.22
286.134	76.8
286.349	35.84
286.564	54.27
286.779	99.33
286.995	60.42
287.21	15.36
287.425	60.42
287.64	50.18
287.855	44.03
288.07	119.81
288.285	62.46
288.5	31.74
288.715	64.51
288.93	76.8
289.145	33.79
289.36	27.65
289.575	87.04
289.79	39.94
290.004	27.65
290.219	66.56
290.434	15.36
290.649	3.07
290.864	48.13
291.079	11.26
291.294	-9.22
291.509	89.09
291.724	7.17
291.938	-39.94
292.153	15.36
292.368	-74.75
292.583	41.98
292.798	72.7
293.012	5.12
293.227	29.7
293.442	91.13
293.657	-35.84
293.871	87.04
294.086	-25.6
294.301	89.09
294.516	109.57
294.73	52.22
294.945	33.79
295.16	-68.61
295.374	37.89
295.589	21.5
295.804	-15.36
296.018	76.8
296.233	84.99
296.447	35.84
296.662	46.08
296.877	60.42
297.091	60.42
297.306	35.84
297.52	60.42
297.735	48.13
297.949	-3.07
298.164	48.13
298.378	44.03
298.593	21.5
298.807	60.42
299.022	82.94
299.236	62.46
299.451	27.65
299.665	101.37
299.88	84.99
300.094	74.75
300.309	-37.89
300.523	-1.02
300.737	74.75
300.952	136.19
301.166	60.42
301.381	1.02
301.595	76.8
301.809	-37.89
302.024	44.03
302.238	64.51
302.452	39.94
302.667	25.6
302.881	64.51
303.095	37.89
303.309	39.94
303.524	37.89
303.738	33.79
303.952	-7.17
304.166	125.95
304.381	-19.46
304.595	91.13
304.809	33.79
305.023	70.65
305.237	-52.22
305.452	50.18
305.666	91.13
305.88	82.94
306.094	-15.36
306.308	52.22
306.522	-5.12
306.736	41.98
306.95	54.27
307.164	21.5
307.379	54.27
307.593	60.42
307.807	29.7
308.021	1.02
308.235	29.7
308.449	54.27
308.663	31.74
308.877	115.71
309.091	97.28
309.305	93.18
309.519	5.12
309.733	50.18
309.947	-72.7
310.161	11.26
310.374	50.18
310.588	74.75
310.802	13.31
311.016	-25.6
311.23	46.08
311.444	-37.89
311.658	87.04
311.872	125.95
312.085	82.94
312.299	9.22
312.513	84.99
312.727	56.32
312.941	52.22
313.154	58.37
313.368	-1.02
313.582	109.57
313.796	-5.12
314.009	-35.84
314.223	91.13
314.437	27.65
314.651	15.36
314.864	52.22
315.078	58.37
315.292	11.26
315.505	23.55
315.719	41.98
315.933	37.89
316.146	52.22
316.36	39.94
316.573	27.65
316.787	66.56
317.001	27.65
317.214	62.46
317.428	29.7
317.641	-3.07
317.855	-11.26
318.068	21.5
318.282	19.46
318.495	35.84
318.709	80.89
318.922	-60.42
319.136	87.04
319.349	80.89
319.563	-7.17
319.776	56.32
319.99	11.26
320.203	64.51
320.417	-15.36
320.63	13.31
320.843	50.18
321.057	31.74
321.27	1.02
321.483	50.18
321.697	74.75
321.91	35.84
322.124	74.75
322.337	74.75
322.55	17.41
322.763	70.65
322.977	41.98
323.19	5.12
323.403	5.12
323.617	29.7
323.83	66.56
324.043	11.26
324.256	-31.74
324.469	19.46
324.683	74.75
324.896	9.22
325.109	15.36
325.322	58.37
325.535	82.94
325.748	56.32
325.962	37.89
326.175	95.23
326.388	132.09
326.601	111.61
326.814	93.18
327.027	-109.57
327.24	82.94
327.453	9.22
327.666	31.74
327.879	60.42
328.092	82.94
328.305	23.55
328.518	23.55
328.731	11.26
328.944	52.22
329.157	58.37
329.37	54.27
329.583	76.8
329.796	99.33
330.009	-39.94
330.222	37.89
330.435	99.33
330.648	11.26
330.861	-17.41
331.073	-60.42
331.286	70.65
331.499	-39.94
331.712	21.5
331.925	-17.41
332.138	23.55
332.35	95.23
332.563	58.37
332.776	64.51
332.989	117.76
333.202	1.02
333.414	39.94
333.627	11.26
333.84	17.41
334.053	25.6
334.265	-21.5
334.478	35.84
334.691	7.17
334.903	7.17
335.116	37.89
335.329	39.94
335.541	9.22
335.754	80.89
335.966	91.13
336.179	93.18
336.392	-39.94
336.604	27.65
336.817	76.8
337.029	13.31
337.242	23.55
337.454	70.65
337.667	66.56
337.88	33.79
338.092	25.6
338.305	-23.55
338.517	-66.56
338.729	33.79
338.942	76.8
339.154	3.07
339.367	41.98
339.579	66.56
339.792	15.36
340.004	25.6
340.217	-9.22
340.429	74.75
340.641	-29.7
340.854	78.85
341.066	1.02
341.278	19.46
341.491	46.08
341.703	95.23
341.915	27.65
342.128	33.79
342.34	41.98
342.552	41.98
342.764	3.07
342.977	21.5
343.189	1.02
343.401	5.12
343.613	-15.36
343.826	29.7
344.038	9.22
344.25	27.65
344.462	13.31
344.674	-13.31
344.886	-11.26
345.099	50.18
345.311	80.89
345.523	89.09
345.735	-7.17
345.947	5.12
346.159	72.7
346.371	-46.08
346.583	-11.26
346.795	23.55
347.007	19.46
347.219	23.55
347.431	33.79
347.643	99.33
347.855	23.55
348.067	111.61
348.279	-1.02
348.491	78.85
348.703	-37.89
348.915	60.42
349.127	-9.22
349.339	68.61
349.551	44.03
349.763	31.74
349.975	11.26
350.187	76.8
350.399	3.07
350.61	80.89
350.822	-9.22
351.034	3.07
351.246	50.18
351.458	87.04
351.669	54.27
351.881	84.99
352.093	-1.02
352.305	19.46
352.517	-21.5
352.728	41.98
352.94	13.31
353.152	58.37
353.363	17.41
353.575	82.94
353.787	78.85
353.999	66.56
354.21	115.71
354.422	25.6
354.633	-33.79
354.845	23.55
355.057	72.7
355.268	54.27
355.48	99.33
355.692	33.79
355.903	-15.36
356.115	35.84
356.326	-48.13
356.538	99.33
356.749	68.61
356.961	27.65
357.172	58.37
357.384	-46.08
357.595	89.09
357.807	91.13
358.018	46.08
358.23	11.26
358.441	-37.89
358.653	66.56
358.864	37.89
359.075	25.6
359.287	11.26
359.498	107.52
359.709	-11.26
359.921	27.65
360.132	13.31
360.344	-3.07
360.555	41.98
360.766	58.37
360.977	27.65
361.189	121.85
361.4	33.79
361.611	29.7
361.823	93.18
362.034	41.98
362.245	29.7
362.456	27.65
362.667	93.18
362.879	-1.02
363.09	-17.41
363.301	41.98
363.512	9.22
363.723	62.46
363.935	48.13
364.146	44.03
364.357	-21.5
364.568	52.22
364.779	-7.17
364.99	-23.55
365.201	3.07
365.412	66.56
365.623	9.22
365.834	27.65
366.045	-23.55
366.256	44.03
366.467	119.81
366.678	62.46
366.889	3.07
367.1	1.02
367.311	74.75
367.522	-21.5
367.733	46.08
367.944	72.7
368.155	9.22
368.366	-39.94
368.577	80.89
368.788	113.66
368.999	9.22
369.209	25.6
369.42	50.18
369.631	99.33
369.842	13.31
370.053	27.65
370.264	7.17
370.474	58.37
370.685	54.27
370.896	33.79
371.107	82.94
371.317	41.98
371.528	19.46
371.739	80.89
371.95	21.5
372.16	117.76
372.371	35.84
372.582	27.65
372.792	5.12
373.003	-15.36
373.214	84.99
373.424	115.71
373.635	70.65
373.846	48.13
374.056	9.22
374.267	56.32
374.477	15.36
374.688	76.8
374.898	41.98
375.109	44.03
375.319	89.09
375.53	50.18
375.74	60.42
375.951	58.37
376.161	58.37
376.372	115.71
376.582	95.23
376.793	62.46
377.003	78.85
377.214	78.85
377.424	95.23
377.635	103.42
377.845	21.5
378.055	99.33
378.266	41.98
378.476	99.33
378.686	72.7
378.897	9.22
379.107	68.61
379.317	84.99
379.528	-37.89
379.738	91.13
379.948	15.36
380.158	39.94
380.369	103.42
380.579	66.56
380.789	58.37
380.999	60.42
381.21	91.13
381.42	78.85
381.63	7.17
381.84	9.22
382.05	72.7
382.261	113.66
382.471	52.22
382.681	-64.51
382.891	82.94
383.101	99.33
383.311	11.26
383.521	82.94
383.731	74.75
383.941	52.22
384.151	78.85
384.361	33.79
384.571	52.22
384.781	29.7
384.991	103.42
385.201	76.8
385.411	21.5
385.621	125.95
385.831	17.41
386.041	50.18
386.251	46.08
386.461	19.46
386.671	5.12
386.881	74.75
387.091	74.75
387.301	50.18
387.511	44.03
387.72	44.03
387.93	109.57
388.14	23.55
388.35	21.5
388.56	29.7
388.769	115.71
388.979	74.75
389.189	41.98
389.399	109.57
389.609	93.18
389.818	21.5
390.028	62.46
390.238	66.56
390.447	-7.17
390.657	107.52
390.867	66.56
391.076	27.65
391.286	89.09
391.496	125.95
391.705	89.09
391.915	103.42
392.125	109.57
392.334	25.6
392.544	130.05
392.753	58.37
392.963	33.79
393.172	29.7
393.382	25.6
393.591	27.65
393.801	17.41
394.01	74.75
394.22	-1.02
394.429	164.86
394.639	15.36
394.848	134.14
395.058	15.36
395.267	72.7
395.477	-9.22
395.686	109.57
395.895	121.85
396.105	138.24
396.314	78.85
396.524	41.98
396.733	115.71
396.942	74.75
397.152	58.37
397.361	33.79
397.57	60.42
397.78	95.23
397.989	-5.12
398.198	60.42
398.407	74.75
398.617	13.31
398.826	66.56
399.035	99.33
399.244	99.33
399.453	54.27
399.663	105.47
399.872	72.7
400.081	7.17
400.29	117.76
400.499	41.98
400.708	91.13
400.917	74.75
401.127	68.61
401.336	25.6
401.545	62.46
401.754	87.04
401.963	123.9
402.172	62.46
402.381	99.33
402.59	82.94
402.799	87.04
403.008	52.22
403.217	115.71
403.426	95.23
403.635	103.42
403.844	95.23
404.053	80.89
404.262	27.65
404.471	78.85
404.68	109.57
404.888	138.24
405.097	121.85
405.306	107.52
405.515	99.33
405.724	54.27
405.933	56.32
406.142	101.37
406.35	140.29
406.559	87.04
406.768	74.75
406.977	125.95
407.185	132.09
407.394	148.48
407.603	134.14
407.812	128
408.02	175.1
408.229	117.76
408.438	123.9
408.646	123.9
408.855	123.9
409.064	216.06
409.272	205.82
409.481	187.39
409.69	160.77
409.898	187.39
410.107	191.49
410.315	199.68
410.524	123.9
410.733	222.2
410.941	134.14
411.15	207.87
411.358	250.88
411.567	242.68
411.775	146.43
411.984	216.06
412.192	254.97
412.401	250.88
412.609	304.12
412.818	295.93
413.026	273.4
413.234	273.4
413.443	310.27
413.651	269.31
413.86	392.19
414.068	365.56
414.276	437.24
414.485	267.26
414.693	345.08
414.901	451.58
415.11	404.47
415.318	455.67
415.526	275.45
415.734	513.02
415.943	494.58
416.151	457.72
416.359	545.78
416.567	521.21
416.776	529.4
416.984	558.07
417.192	570.36
417.4	543.74
417.608	504.82
417.817	627.7
418.025	656.37
418.233	660.47
418.441	619.51
418.649	707.57
418.857	717.81
419.065	762.87
419.273	779.25
419.481	795.64
419.689	762.87
419.897	840.69
420.105	836.6
420.313	934.9
420.521	842.74
420.729	963.57
420.937	922.61
421.145	943.09
421.353	967.67
421.561	1072.11
421.769	1029.1
421.977	1188.85
422.185	1223.66
422.393	1135.6
422.601	1262.57
422.809	1321.96
423.017	1356.78
423.224	1270.76
423.432	1430.51
423.64	1594.34
423.848	1514.47
424.056	1518.57
424.263	1479.66
424.471	1663.97
424.679	1776.61
424.887	1733.61
425.094	1721.32
425.302	1858.53
425.51	1942.5
425.718	1836
425.925	1889.25
426.133	2010.08
426.341	2128.86
426.548	2216.93
426.756	2264.03
426.964	2167.77
427.171	2382.81
427.379	2403.29
427.586	2372.57
427.794	2444.25
428.001	2663.38
428.209	2778.07
428.417	2692.05
428.624	2874.32
428.832	3077.07
429.039	2837.46
429.247	2853.84
429.454	3177.42
429.662	3320.78
429.869	3210.19
430.076	3349.45
430.284	3234.77
430.491	3365.84
430.699	3673.03
430.906	3673.03
431.114	3736.52
431.321	3806.15
431.528	4006.85
431.736	4176.83
431.943	4371.39
432.15	4252.61
432.358	4326.33
432.565	4467.64
432.772	4410.3
432.979	4762.55
433.187	4875.19
433.394	4946.87
433.601	5153.71
433.808	5122.99
434.016	5090.23
434.223	5309.36
434.43	5571.5
434.637	5407.66
434.844	5845.93
435.052	6142.88
435.259	5919.65
435.466	6069.16
435.673	6038.44
435.88	6372.25
436.087	6400.93
436.294	6665.11
436.501	6536.09
436.708	6755.22
436.915	6902.68
437.122	7242.64
437.329	7070.61
437.537	7402.38
437.743	7586.7
437.95	7689.1
438.157	8053.64
438.364	8059.78
438.571	7996.29
438.778	8143.75
438.985	8803.19
439.192	8498.05
439.399	8936.31
439.606	8600.44
439.813	9120.63
440.02	9728.88
440.227	9737.07
440.433	9554.8
440.64	9747.31
440.847	9728.88
441.054	9866.09
441.261	10640.22
441.467	10308.45
441.674	10685.28
441.881	11027.29
442.088	10988.38
442.294	10859.35
442.501	11211.6
442.708	11463.51
442.914	11721.55
443.121	12485.44
443.328	12174.15
443.534	13028.15
443.741	12659.52
443.948	12260.16
444.154	13495.09
444.361	13185.85
444.568	13392.69
444.774	13390.64
444.981	13419.32
445.187	13884.2
445.394	14641.95
445.6	14443.3
445.807	15704.85
446.013	15250.2
446.22	15285.01
446.426	15778.58
446.633	16147.21
446.839	16741.12
447.046	15756.05
447.252	16888.57
447.459	16788.22
447.665	16495.36
447.871	17332.98
448.078	18412.26
448.284	17384.18
448.491	17865.46
448.697	18660.07
448.903	19098.33
449.11	19194.59
449.316	18875.1
449.522	19100.38
449.728	19716.82
449.935	19620.56
450.141	19919.57
450.347	20374.22
450.553	19454.68
450.76	20079.31
450.966	20456.14
451.172	20357.83
451.378	20978.37
451.584	20546.25
451.791	21023.42
451.997	20841.15
452.203	21355.19
452.409	21383.87
452.615	21115.58
452.821	20402.89
453.027	20392.65
453.233	21578.42
453.44	20624.07
453.646	21004.99
453.852	20794.05
454.058	21428.92
454.264	20572.87
454.47	21258.94
454.676	20576.97
454.882	21234.36
455.088	19157.72
455.294	19784.4
455.5	19899.09
455.705	20120.27
455.911	19714.77
456.117	19047.13
456.323	19038.94
456.529	18057.96
456.735	18875.1
456.941	18158.31
457.147	18060.01
457.352	17375.99
457.558	17412.85
457.764	17232.63
457.97	17126.14
458.176	16505.6
458.381	16710.4
458.587	15676.18
458.793	15657.75
458.999	15022.87
459.204	16048.91
459.41	15629.07
459.616	14633.76
459.821	14424.87
460.027	14431.01
460.233	14082.86
460.438	13663.02
460.644	13773.61
460.85	13124.41
461.055	12733.25
461.261	12897.08
461.466	11785.04
461.672	11434.83
461.878	12069.7
462.083	11469.65
462.289	11322.2
462.494	11197.27
462.7	10611.55
462.905	10408.8
463.111	10550.11
463.316	10666.85
463.522	10562.4
463.727	10806.11
463.932	10589.02
464.138	10390.37
464.343	10593.12
464.549	10218.34
464.754	10720.09
464.959	10212.2
465.165	10353.51
465.37	9948.01
465.575	9618.29
465.781	9980.78
465.986	10138.47
466.191	9806.7
466.397	9659.24
466.602	9110.39
466.807	9311.09
467.012	9237.36
467.218	9247.6
467.423	9249.65
467.628	9173.88
467.833	9790.31
468.038	9284.47
468.244	9104.25
468.449	9270.13
468.654	8995.7
468.859	8948.6
469.064	9161.59
469.269	8700.8
