Data from USB4F104151__71__13-12-13-554.txt Node

Date: Fri Mar 14 13:12:13 EDT 2025
User: louis
Spectrometer: USB4F10415
Trigger mode: 4
Integration Time (sec): 2.000000E-2
Scans to average: 1
Electric dark correction enabled: true
Nonlinearity correction enabled: false
Boxcar width: 0
XAxis mode: Wavelengths
Number of Pixels in Spectrum: 3648
>>>>>Begin Spectral Data<<<<<
178.204	-99.67
178.424	-99.67
178.644	-99.67
178.864	-64.85
179.084	-75.09
179.304	6.83
179.524	23.21
179.744	-64.85
179.964	25.26
180.184	-32.08
180.404	80.55
180.624	25.26
180.844	-7.51
181.064	-58.71
181.283	-17.75
181.503	-68.95
181.723	88.75
181.943	-32.08
182.163	82.6
182.383	37.55
182.602	64.17
182.822	45.74
183.042	70.31
183.262	12.97
183.482	55.98
183.701	47.79
183.921	55.98
184.141	-1.37
184.361	33.45
184.58	23.21
184.8	39.59
185.02	-1.37
185.239	21.16
185.459	43.69
185.679	55.98
185.898	-21.84
186.118	25.26
186.338	-13.65
186.557	60.07
186.777	-23.89
186.997	60.07
187.216	72.36
187.436	137.9
187.655	76.46
187.875	58.03
188.095	68.27
188.314	78.51
188.534	68.27
188.753	15.02
188.973	-17.75
189.192	74.41
189.412	31.4
189.631	88.75
189.851	58.03
190.07	66.22
190.29	-25.94
190.509	-56.66
190.729	-1.37
190.948	33.45
191.168	82.6
191.387	101.03
191.607	80.55
191.826	64.17
192.045	41.64
192.265	-1.37
192.484	27.31
192.704	107.18
192.923	53.93
193.142	98.99
193.362	27.31
193.581	113.32
193.8	25.26
194.02	15.02
194.239	2.73
194.458	31.4
194.678	-32.08
194.897	35.5
195.116	74.41
195.335	-11.61
195.555	2.73
195.774	-9.56
195.993	33.45
196.212	-13.65
196.432	23.21
196.651	31.4
196.87	-23.89
197.089	39.59
197.308	19.11
197.528	35.5
197.747	4.78
197.966	37.55
198.185	88.75
198.404	-56.66
198.623	60.07
198.842	-23.89
199.062	31.4
199.281	92.84
199.5	0.68
199.719	31.4
199.938	-15.7
200.157	64.17
200.376	70.31
200.595	51.88
200.814	-38.23
201.033	-17.75
201.252	12.97
201.471	51.88
201.69	88.75
201.909	10.92
202.128	37.55
202.347	96.94
202.566	129.7
202.785	8.87
203.004	10.92
203.223	117.42
203.442	25.26
203.661	23.21
203.879	2.73
204.098	-38.23
204.317	-17.75
204.536	-9.56
204.755	82.6
204.974	35.5
205.193	80.55
205.411	29.35
205.63	29.35
205.849	23.21
206.068	-13.65
206.287	37.55
206.505	8.87
206.724	17.07
206.943	-89.43
207.162	66.22
207.381	-58.71
207.599	17.07
207.818	4.78
208.037	25.26
208.255	66.22
208.474	12.97
208.693	72.36
208.911	66.22
209.13	68.27
209.349	66.22
209.567	88.75
209.786	70.31
210.005	39.59
210.223	43.69
210.442	27.31
210.661	39.59
210.879	43.69
211.098	37.55
211.316	-1.37
211.535	49.83
211.753	37.55
211.972	-1.37
212.191	86.7
212.409	58.03
212.628	-1.37
212.846	64.17
213.065	60.07
213.283	60.07
213.502	8.87
213.72	19.11
213.938	25.26
214.157	15.02
214.375	101.03
214.594	-34.13
214.812	21.16
215.031	15.02
215.249	6.83
215.467	60.07
215.686	49.83
215.904	4.78
216.122	-17.75
216.341	35.5
216.559	-32.08
216.778	51.88
216.996	123.56
217.214	58.03
217.432	78.51
217.651	-17.75
217.869	55.98
218.087	-27.99
218.306	-25.94
218.524	53.93
218.742	43.69
218.96	27.31
219.179	6.83
219.397	62.12
219.615	-19.8
219.833	39.59
220.051	66.22
220.27	43.69
220.488	78.51
220.706	49.83
220.924	-30.04
221.142	51.88
221.36	72.36
221.578	84.65
221.796	41.64
222.015	25.26
222.233	10.92
222.451	113.32
222.669	19.11
222.887	-9.56
223.105	41.64
223.323	76.46
223.541	-15.7
223.759	113.32
223.977	-17.75
224.195	88.75
224.413	17.07
224.631	39.59
224.849	31.4
225.067	17.07
225.285	25.26
225.503	31.4
225.721	-38.23
225.939	64.17
226.157	47.79
226.375	39.59
226.592	15.02
226.81	47.79
227.028	111.27
227.246	60.07
227.464	23.21
227.682	84.65
227.9	72.36
228.117	64.17
228.335	96.94
228.553	29.35
228.771	41.64
228.989	55.98
229.206	33.45
229.424	-7.51
229.642	2.73
229.86	19.11
230.077	31.4
230.295	66.22
230.513	88.75
230.731	55.98
230.948	139.94
231.166	35.5
231.384	33.45
231.601	92.84
231.819	96.94
232.037	39.59
232.254	31.4
232.472	27.31
232.689	-25.94
232.907	60.07
233.125	-9.56
233.342	23.21
233.56	80.55
233.777	23.21
233.995	43.69
234.213	82.6
234.43	41.64
234.648	111.27
234.865	2.73
235.083	15.02
235.3	10.92
235.518	-5.46
235.735	68.27
235.953	64.17
236.17	62.12
236.388	-9.56
236.605	29.35
236.822	88.75
237.04	25.26
237.257	31.4
237.475	45.74
237.692	88.75
237.909	-9.56
238.127	-15.7
238.344	31.4
238.562	45.74
238.779	-50.52
238.996	-40.28
239.214	45.74
239.431	160.42
239.648	8.87
239.865	39.59
240.083	19.11
240.3	31.4
240.517	47.79
240.735	-21.84
240.952	68.27
241.169	0.68
241.386	27.31
241.603	-3.41
241.821	-17.75
242.038	60.07
242.255	156.33
242.472	4.78
242.689	23.21
242.907	45.74
243.124	37.55
243.341	19.11
243.558	2.73
243.775	-32.08
243.992	10.92
244.209	80.55
244.426	125.61
244.643	0.68
244.86	-9.56
245.078	51.88
245.295	84.65
245.512	41.64
245.729	-17.75
245.946	39.59
246.163	55.98
246.38	0.68
246.597	-21.84
246.814	-17.75
247.031	2.73
247.248	82.6
247.464	-30.04
247.681	-9.56
247.898	64.17
248.115	25.26
248.332	19.11
248.549	55.98
248.766	80.55
248.983	68.27
249.2	-3.41
249.417	-7.51
249.633	47.79
249.85	6.83
250.067	58.03
250.284	41.64
250.501	-40.28
250.717	76.46
250.934	-15.7
251.151	39.59
251.368	19.11
251.585	96.94
251.801	113.32
252.018	17.07
252.235	64.17
252.451	-1.37
252.668	43.69
252.885	2.73
253.102	-21.84
253.318	-34.13
253.535	10.92
253.752	29.35
253.968	-1.37
254.185	19.11
254.401	70.31
254.618	60.07
254.835	31.4
255.051	10.92
255.268	41.64
255.484	55.98
255.701	19.11
255.917	55.98
256.134	-89.43
256.351	76.46
256.567	-48.47
256.784	72.36
257	-23.89
257.217	66.22
257.433	55.98
257.65	64.17
257.866	33.45
258.082	15.02
258.299	27.31
258.515	31.4
258.732	39.59
258.948	-42.32
259.165	-23.89
259.381	-1.37
259.597	94.89
259.814	15.02
260.03	6.83
260.246	31.4
260.463	70.31
260.679	33.45
260.895	43.69
261.112	-9.56
261.328	51.88
261.544	-1.37
261.761	84.65
261.977	41.64
262.193	6.83
262.409	-17.75
262.626	12.97
262.842	74.41
263.058	-34.13
263.274	55.98
263.49	15.02
263.707	64.17
263.923	25.26
264.139	6.83
264.355	-32.08
264.571	25.26
264.787	72.36
265.004	6.83
265.22	33.45
265.436	31.4
265.652	41.64
265.868	17.07
266.084	74.41
266.3	43.69
266.516	-58.71
266.732	17.07
266.948	92.84
267.164	58.03
267.38	-17.75
267.596	8.87
267.812	66.22
268.028	-27.99
268.244	29.35
268.46	51.88
268.676	60.07
268.892	105.13
269.108	31.4
269.324	47.79
269.54	31.4
269.756	51.88
269.972	45.74
270.188	78.51
270.403	21.16
270.619	47.79
270.835	-1.37
271.051	35.5
271.267	15.02
271.483	6.83
271.698	37.55
271.914	64.17
272.13	-7.51
272.346	10.92
272.562	31.4
272.777	37.55
272.993	17.07
273.209	121.51
273.425	-30.04
273.64	25.26
273.856	62.12
274.072	-15.7
274.287	31.4
274.503	15.02
274.719	88.75
274.934	-15.7
275.15	29.35
275.366	-21.84
275.581	-42.32
275.797	60.07
276.012	62.12
276.228	29.35
276.444	43.69
276.659	55.98
276.875	33.45
277.09	43.69
277.306	51.88
277.521	84.65
277.737	-3.41
277.952	25.26
278.168	158.38
278.383	180.9
278.599	-21.84
278.814	47.79
279.03	-66.9
279.245	80.55
279.461	58.03
279.676	39.59
279.892	60.07
280.107	35.5
280.322	33.45
280.538	82.6
280.753	-25.94
280.969	-27.99
281.184	45.74
281.399	74.41
281.615	62.12
281.83	64.17
282.045	6.83
282.26	6.83
282.476	-46.42
282.691	29.35
282.906	-1.37
283.122	76.46
283.337	64.17
283.552	45.74
283.767	-23.89
283.983	64.17
284.198	27.31
284.413	53.93
284.628	96.94
284.843	27.31
285.058	55.98
285.274	31.4
285.489	25.26
285.704	66.22
285.919	25.26
286.134	0.68
286.349	-40.28
286.564	35.5
286.779	19.11
286.995	33.45
287.21	4.78
287.425	119.46
287.64	-9.56
287.855	6.83
288.07	98.99
288.285	82.6
288.5	33.45
288.715	121.51
288.93	62.12
289.145	41.64
289.36	21.16
289.575	29.35
289.79	25.26
290.004	60.07
290.219	86.7
290.434	-15.7
290.649	-11.61
290.864	33.45
291.079	0.68
291.294	10.92
291.509	55.98
291.724	39.59
291.938	-1.37
292.153	64.17
292.368	37.55
292.583	2.73
292.798	72.36
293.012	41.64
293.227	31.4
293.442	17.07
293.657	8.87
293.871	31.4
294.086	-17.75
294.301	107.18
294.516	121.51
294.73	62.12
294.945	-13.65
295.16	6.83
295.374	27.31
295.589	80.55
295.804	35.5
296.018	-21.84
296.233	80.55
296.447	-11.61
296.662	27.31
296.877	6.83
297.091	31.4
297.306	-9.56
297.52	-34.13
297.735	17.07
297.949	72.36
298.164	23.21
298.378	31.4
298.593	12.97
298.807	-23.89
299.022	74.41
299.236	10.92
299.451	88.75
299.665	-1.37
299.88	4.78
300.094	-15.7
300.309	0.68
300.523	90.79
300.737	10.92
300.952	113.32
301.166	94.89
301.381	-5.46
301.595	-13.65
301.809	62.12
302.024	-17.75
302.238	111.27
302.452	105.13
302.667	10.92
302.881	-27.99
303.095	-30.04
303.309	55.98
303.524	17.07
303.738	15.02
303.952	33.45
304.166	37.55
304.381	35.5
304.595	68.27
304.809	-48.47
305.023	37.55
305.237	2.73
305.452	17.07
305.666	47.79
305.88	66.22
306.094	86.7
306.308	17.07
306.522	78.51
306.736	15.02
306.95	139.94
307.164	39.59
307.379	19.11
307.593	41.64
307.807	39.59
308.021	-19.8
308.235	55.98
308.449	35.5
308.663	74.41
308.877	84.65
309.091	23.21
309.305	115.37
309.519	-15.7
309.733	98.99
309.947	-7.51
310.161	-5.46
310.374	103.08
310.588	76.46
310.802	-17.75
311.016	98.99
311.23	12.97
311.444	10.92
311.658	23.21
311.872	49.83
312.085	96.94
312.299	23.21
312.513	109.23
312.727	94.89
312.941	43.69
313.154	-21.84
313.368	27.31
313.582	41.64
313.796	17.07
314.009	51.88
314.223	66.22
314.437	70.31
314.651	-15.7
314.864	15.02
315.078	23.21
315.292	12.97
315.505	80.55
315.719	64.17
315.933	70.31
316.146	17.07
316.36	49.83
316.573	76.46
316.787	6.83
317.001	55.98
317.214	25.26
317.428	31.4
317.641	35.5
317.855	37.55
318.068	55.98
318.282	51.88
318.495	90.79
318.709	-5.46
318.922	-3.41
319.136	113.32
319.349	70.31
319.563	51.88
319.776	27.31
319.99	-13.65
320.203	19.11
320.417	21.16
320.63	4.78
320.843	64.17
321.057	64.17
321.27	-9.56
321.483	19.11
321.697	72.36
321.91	43.69
322.124	55.98
322.337	12.97
322.55	-1.37
322.763	-5.46
322.977	31.4
323.19	-46.42
323.403	39.59
323.617	-9.56
323.83	2.73
324.043	31.4
324.256	41.64
324.469	-83.28
324.683	15.02
324.896	55.98
325.109	23.21
325.322	-15.7
325.535	64.17
325.748	103.08
325.962	-9.56
326.175	-38.23
326.388	45.74
326.601	133.8
326.814	-40.28
327.027	62.12
327.24	72.36
327.453	33.45
327.666	-19.8
327.879	37.55
328.092	66.22
328.305	107.18
328.518	6.83
328.731	15.02
328.944	-42.32
329.157	-19.8
329.37	29.35
329.583	53.93
329.796	43.69
330.009	88.75
330.222	76.46
330.435	17.07
330.648	64.17
330.861	103.08
331.073	39.59
331.286	37.55
331.499	15.02
331.712	45.74
331.925	74.41
332.138	86.7
332.35	29.35
332.563	-11.61
332.776	29.35
332.989	-1.37
333.202	-19.8
333.414	-3.41
333.627	-13.65
333.84	66.22
334.053	82.6
334.265	62.12
334.478	-5.46
334.691	2.73
334.903	94.89
335.116	76.46
335.329	21.16
335.541	47.79
335.754	64.17
335.966	-5.46
336.179	-17.75
336.392	-44.37
336.604	0.68
336.817	-32.08
337.029	31.4
337.242	27.31
337.454	58.03
337.667	164.52
337.88	64.17
338.092	17.07
338.305	0.68
338.517	58.03
338.729	27.31
338.942	144.04
339.154	-7.51
339.367	27.31
339.579	121.51
339.792	17.07
340.004	6.83
340.217	80.55
340.429	-3.41
340.641	55.98
340.854	55.98
341.066	72.36
341.278	74.41
341.491	86.7
341.703	94.89
341.915	8.87
342.128	51.88
342.34	90.79
342.552	23.21
342.764	107.18
342.977	-9.56
343.189	37.55
343.401	146.09
343.613	23.21
343.826	78.51
344.038	-5.46
344.25	15.02
344.462	58.03
344.674	66.22
344.886	-48.47
345.099	127.66
345.311	55.98
345.523	41.64
345.735	35.5
345.947	98.99
346.159	88.75
346.371	41.64
346.583	58.03
346.795	86.7
347.007	27.31
347.219	-13.65
347.431	78.51
347.643	88.75
347.855	47.79
348.067	82.6
348.279	-50.52
348.491	41.64
348.703	17.07
348.915	113.32
349.127	43.69
349.339	37.55
349.551	8.87
349.763	17.07
349.975	29.35
350.187	12.97
350.399	49.83
350.61	121.51
350.822	21.16
351.034	64.17
351.246	45.74
351.458	66.22
351.669	62.12
351.881	80.55
352.093	49.83
352.305	66.22
352.517	4.78
352.728	76.46
352.94	-30.04
353.152	115.37
353.363	19.11
353.575	80.55
353.787	66.22
353.999	31.4
354.21	96.94
354.422	66.22
354.633	96.94
354.845	80.55
355.057	58.03
355.268	80.55
355.48	12.97
355.692	27.31
355.903	35.5
356.115	31.4
356.326	-3.41
356.538	88.75
356.749	51.88
356.961	23.21
357.172	21.16
357.384	133.8
357.595	113.32
357.807	96.94
358.018	27.31
358.23	72.36
358.441	86.7
358.653	58.03
358.864	15.02
359.075	47.79
359.287	39.59
359.498	72.36
359.709	82.6
359.921	10.92
360.132	41.64
360.344	49.83
360.555	60.07
360.766	53.93
360.977	82.6
361.189	47.79
361.4	33.45
361.611	62.12
361.823	98.99
362.034	-15.7
362.245	41.64
362.456	88.75
362.667	66.22
362.879	58.03
363.09	101.03
363.301	10.92
363.512	60.07
363.723	25.26
363.935	31.4
364.146	43.69
364.357	72.36
364.568	137.9
364.779	-42.32
364.99	25.26
365.201	-17.75
365.412	109.23
365.623	-25.94
365.834	8.87
366.045	47.79
366.256	55.98
366.467	146.09
366.678	-1.37
366.889	55.98
367.1	27.31
367.311	25.26
367.522	27.31
367.733	39.59
367.944	60.07
368.155	2.73
368.366	45.74
368.577	74.41
368.788	23.21
368.999	6.83
369.209	55.98
369.42	92.84
369.631	105.13
369.842	43.69
370.053	21.16
370.264	74.41
370.474	72.36
370.685	60.07
370.896	35.5
371.107	78.51
371.317	58.03
371.528	98.99
371.739	60.07
371.95	47.79
372.16	19.11
372.371	-1.37
372.582	-19.8
372.792	62.12
373.003	58.03
373.214	72.36
373.424	84.65
373.635	29.35
373.846	107.18
374.056	2.73
374.267	39.59
374.477	92.84
374.688	4.78
374.898	51.88
375.109	78.51
375.319	37.55
375.53	37.55
375.74	-7.51
375.951	60.07
376.161	17.07
376.372	55.98
376.582	88.75
376.793	35.5
377.003	64.17
377.214	23.21
377.424	31.4
377.635	82.6
377.845	49.83
378.055	39.59
378.266	53.93
378.476	35.5
378.686	98.99
378.897	31.4
379.107	-1.37
379.317	55.98
379.528	39.59
379.738	62.12
379.948	-5.46
380.158	78.51
380.369	-7.51
380.579	72.36
380.789	-5.46
380.999	45.74
381.21	-7.51
381.42	137.9
381.63	45.74
381.84	123.56
382.05	-19.8
382.261	58.03
382.471	109.23
382.681	66.22
382.891	35.5
383.101	88.75
383.311	23.21
383.521	-1.37
383.731	125.61
383.941	88.75
384.151	84.65
384.361	51.88
384.571	98.99
384.781	70.31
384.991	82.6
385.201	109.23
385.411	74.41
385.621	113.32
385.831	80.55
386.041	78.51
386.251	-7.51
386.461	74.41
386.671	2.73
386.881	31.4
387.091	55.98
387.301	101.03
387.511	39.59
387.72	80.55
387.93	51.88
388.14	51.88
388.35	12.97
388.56	60.07
388.769	113.32
388.979	74.41
389.189	47.79
389.399	90.79
389.609	51.88
389.818	55.98
390.028	74.41
390.238	197.29
390.447	15.02
390.657	68.27
390.867	98.99
391.076	15.02
391.286	109.23
391.496	51.88
391.705	62.12
391.915	109.23
392.125	144.04
392.334	25.26
392.544	29.35
392.753	129.7
392.963	15.02
393.172	92.84
393.382	29.35
393.591	66.22
393.801	70.31
394.01	98.99
394.22	88.75
394.429	53.93
394.639	31.4
394.848	103.08
395.058	78.51
395.267	60.07
395.477	49.83
395.686	113.32
395.895	72.36
396.105	17.07
396.314	88.75
396.524	55.98
396.733	47.79
396.942	101.03
397.152	105.13
397.361	74.41
397.57	37.55
397.78	25.26
397.989	82.6
398.198	121.51
398.407	62.12
398.617	113.32
398.826	66.22
399.035	68.27
399.244	144.04
399.453	105.13
399.663	23.21
399.872	55.98
400.081	21.16
400.29	107.18
400.499	82.6
400.708	131.75
400.917	55.98
401.127	115.37
401.336	25.26
401.545	154.28
401.754	80.55
401.963	72.36
402.172	43.69
402.381	74.41
402.59	47.79
402.799	86.7
403.008	92.84
403.217	29.35
403.426	-3.41
403.635	74.41
403.844	39.59
404.053	154.28
404.262	94.89
404.471	137.9
404.68	180.9
404.888	49.83
405.097	43.69
405.306	98.99
405.515	125.61
405.724	164.52
405.933	113.32
406.142	33.45
406.35	150.18
406.559	123.56
406.768	107.18
406.977	152.23
407.185	185
407.394	121.51
407.603	10.92
407.812	148.14
408.02	199.34
408.229	137.9
408.438	131.75
408.646	129.7
408.855	176.81
409.064	156.33
409.272	115.37
409.481	154.28
409.69	180.9
409.898	230.06
410.107	129.7
410.315	156.33
410.524	303.78
410.733	219.82
410.941	268.97
411.15	221.86
411.358	154.28
411.567	277.16
411.775	230.06
411.984	264.87
412.192	264.87
412.401	273.06
412.609	322.21
412.818	254.63
413.026	350.89
413.234	389.8
413.443	301.73
413.651	342.69
413.86	354.98
414.068	432.8
414.276	393.89
414.485	363.17
414.693	391.84
414.901	453.28
415.11	418.47
415.318	516.77
415.526	447.14
415.734	402.08
415.943	486.05
416.151	467.62
416.359	508.58
416.567	551.59
416.776	625.31
416.984	623.27
417.192	662.18
417.4	682.66
417.608	660.13
417.817	596.64
418.025	639.65
418.233	797.34
418.441	637.6
418.649	756.38
418.857	725.66
419.065	776.86
419.273	795.29
419.481	817.82
419.689	846.49
419.897	926.36
420.105	940.7
420.313	854.69
420.521	950.94
420.729	998.04
420.937	1014.43
421.145	1112.73
421.353	1108.63
421.561	1243.8
421.769	1231.51
421.977	1145.5
422.185	1227.42
422.393	1211.03
422.601	1383.06
422.809	1444.5
423.017	1524.37
423.224	1419.92
423.432	1518.23
423.64	1507.99
423.848	1669.78
424.056	1591.95
424.263	1815.18
424.471	1632.91
424.679	1710.74
424.887	1839.76
425.094	1852.05
425.302	1997.45
425.51	1983.12
425.718	2112.14
425.925	2015.88
426.133	2159.24
426.341	2161.29
426.548	2325.13
426.756	2323.08
426.964	2427.53
427.171	2548.36
427.379	2687.62
427.586	2687.62
427.794	2730.62
428.001	2816.64
428.209	2994.81
428.417	2990.72
428.624	3144.31
428.832	3230.33
429.039	3119.74
429.247	3078.78
429.454	3431.03
429.662	3537.52
429.869	3451.51
430.076	3568.24
430.284	3527.28
430.491	3867.25
430.699	3857.01
430.906	3859.06
431.114	4049.52
431.321	4164.2
431.528	4262.51
431.736	4440.68
431.943	4891.23
432.15	4629.09
432.358	4618.85
432.565	4854.37
432.772	4794.98
432.979	5030.49
433.187	5286.49
433.394	5278.3
433.601	5425.75
433.808	5696.08
434.016	5522.01
434.223	5808.72
434.43	6064.72
434.637	5812.82
434.844	6410.82
435.052	6435.4
435.259	6502.98
435.466	6423.11
435.673	6373.96
435.88	6982.21
436.087	7279.16
436.294	7289.4
436.501	7066.17
436.708	7270.97
436.915	7479.86
437.122	7688.76
437.329	7881.27
437.537	7920.18
437.743	8176.17
437.95	8092.21
438.157	8550.95
438.364	8872.48
438.571	8905.25
438.778	8856.1
438.985	9656.86
439.192	9435.67
439.399	9683.48
439.606	9607.7
439.813	10041.87
440.02	10672.65
440.227	10379.79
440.433	10238.48
440.64	10668.55
440.847	10551.82
441.054	10881.54
441.261	11551.23
441.467	11440.64
441.674	11655.67
441.881	12020.21
442.088	12046.83
442.294	11911.67
442.501	12327.41
442.708	12524.01
442.914	12802.54
443.121	13619.67
443.328	13263.33
443.534	14035.41
443.741	13779.42
443.948	13486.56
444.154	14660.04
444.361	14604.75
444.568	14711.24
444.774	14793.16
444.981	14932.42
445.187	15202.75
445.394	15985.08
445.6	15692.22
445.807	17299.87
446.013	16343.47
446.22	16753.07
446.426	17406.37
446.633	17445.28
446.839	18098.58
447.046	17148.33
447.252	18551.18
447.459	18393.49
447.665	18530.7
447.871	19032.46
448.078	19997.05
448.284	19155.33
448.491	19605.89
448.697	20453.75
448.903	20750.7
449.11	21113.19
449.316	20326.77
449.522	20887.92
449.728	21467.49
449.935	21784.93
450.141	21686.62
450.347	22266.2
450.553	21338.47
450.76	21961.05
450.966	22612.31
451.172	22337.88
451.378	23044.43
451.584	22503.76
451.791	23302.47
451.997	23066.95
452.203	23458.12
452.409	23615.81
452.615	23462.21
452.821	22346.07
453.027	22073.69
453.233	23337.29
453.44	22389.08
453.646	22997.32
453.852	22946.12
454.058	23265.61
454.264	22397.27
454.47	23210.31
454.676	22520.15
454.882	23099.72
455.088	21563.75
455.294	21426.53
455.5	21813.6
455.705	22264.15
455.911	21168.49
456.117	21193.06
456.323	20670.83
456.529	19351.94
456.735	20576.62
456.941	19886.46
457.147	19661.18
457.352	18798.99
457.558	18893.19
457.764	18831.76
457.97	18504.08
458.176	18049.43
458.381	18160.02
458.587	17389.99
458.793	17420.7
458.999	16259.51
459.204	17471.9
459.41	17088.93
459.616	15741.37
459.821	15966.65
460.027	15927.74
460.233	15436.22
460.438	14778.83
460.644	15090.12
460.85	14225.87
461.055	14266.83
461.261	14264.78
461.466	13064.68
461.672	12517.87
461.878	13433.31
462.083	12702.18
462.289	12216.82
462.494	12184.05
462.7	11657.72
462.905	11379.2
463.111	11678.2
463.316	11876.85
463.522	11469.31
463.727	11502.08
463.932	11614.71
464.138	11153.92
464.343	11545.08
464.549	11110.91
464.754	11504.12
464.959	11393.53
465.165	11366.91
465.37	10803.72
465.575	10605.06
465.781	11045.38
465.986	11168.26
466.191	10539.53
466.397	10375.69
466.602	10029.59
466.807	10480.14
467.012	10566.15
467.218	10215.95
467.423	10050.07
467.628	10336.78
467.833	10623.5
468.038	10183.18
468.244	10066.45
