Data from USB4F104151__78__13-12-28-853.txt Node

Date: Fri Mar 14 13:12:28 EDT 2025
User: louis
Spectrometer: USB4F10415
Trigger mode: 4
Integration Time (sec): 2.000000E-2
Scans to average: 1
Electric dark correction enabled: true
Nonlinearity correction enabled: false
Boxcar width: 0
XAxis mode: Wavelengths
Number of Pixels in Spectrum: 3648
>>>>>Begin Spectral Data<<<<<
178.204	-80.21
178.424	-80.21
178.644	-80.21
178.864	-53.59
179.084	-57.68
179.304	-6.49
179.524	-35.16
179.744	-18.77
179.964	40.62
180.184	-8.53
180.404	50.86
180.624	3.75
180.844	24.23
181.064	5.8
181.283	-10.58
181.503	-31.06
181.723	-14.68
181.943	-35.16
182.163	48.81
182.383	24.23
182.602	89.77
182.822	65.19
183.042	3.75
183.262	7.85
183.482	59.05
183.701	50.86
183.921	9.9
184.141	32.43
184.361	-12.63
184.58	-0.34
184.8	59.05
185.02	-10.58
185.239	36.52
185.459	16.04
185.679	38.57
185.898	22.19
186.118	57
186.338	20.14
186.557	67.24
186.777	-6.49
186.997	87.72
187.216	-0.34
187.436	26.28
187.655	-4.44
187.875	75.43
188.095	-65.88
188.314	42.67
188.534	36.52
188.753	-41.3
188.973	16.04
189.192	102.06
189.412	11.95
189.631	87.72
189.851	30.38
190.07	7.85
190.29	-24.92
190.509	52.91
190.729	36.52
190.948	28.33
191.168	106.15
191.387	85.67
191.607	57
191.826	75.43
192.045	-4.44
192.265	18.09
192.484	54.95
192.704	1.71
192.923	-20.82
193.142	-4.44
193.362	24.23
193.581	46.76
193.8	26.28
194.02	48.81
194.239	34.47
194.458	52.91
194.678	7.85
194.897	26.28
195.116	7.85
195.335	77.48
195.555	9.9
195.774	-0.34
195.993	-45.4
196.212	32.43
196.432	28.33
196.651	-22.87
196.87	-6.49
197.089	32.43
197.308	71.34
197.528	22.19
197.747	-86.36
197.966	42.67
198.185	38.57
198.404	30.38
198.623	34.47
198.842	67.24
199.062	71.34
199.281	44.71
199.5	-0.34
199.719	79.53
199.938	116.39
200.157	63.15
200.376	132.78
200.595	18.09
200.814	20.14
201.033	-8.53
201.252	-72.02
201.471	50.86
201.69	24.23
201.909	-4.44
202.128	30.38
202.347	7.85
202.566	57
202.785	16.04
203.004	52.91
203.223	73.39
203.442	-0.34
203.661	63.15
203.879	71.34
204.098	57
204.317	9.9
204.536	63.15
204.755	44.71
204.974	26.28
205.193	65.19
205.411	71.34
205.63	44.71
205.849	1.71
206.068	-61.78
206.287	18.09
206.505	52.91
206.724	65.19
206.943	57
207.162	3.75
207.381	30.38
207.599	28.33
207.818	50.86
208.037	11.95
208.255	-14.68
208.474	32.43
208.693	26.28
208.911	-0.34
209.13	54.95
209.349	-0.34
209.567	-0.34
209.786	67.24
210.005	16.04
210.223	5.8
210.442	-35.16
210.661	116.39
210.879	-67.92
211.098	-8.53
211.316	36.52
211.535	13.99
211.753	16.04
211.972	52.91
212.191	-31.06
212.409	18.09
212.628	-2.39
212.846	-0.34
213.065	57
213.283	83.63
213.502	40.62
213.72	28.33
213.938	-2.39
214.157	69.29
214.375	22.19
214.594	-4.44
214.812	75.43
215.031	87.72
215.249	-0.34
215.467	36.52
215.686	30.38
215.904	114.34
216.122	91.82
216.341	-33.11
216.559	73.39
216.778	44.71
216.996	89.77
217.214	-37.2
217.432	40.62
217.651	32.43
217.869	59.05
218.087	83.63
218.306	-24.92
218.524	24.23
218.742	32.43
218.96	18.09
219.179	40.62
219.397	65.19
219.615	85.67
219.833	9.9
220.051	-6.49
220.27	3.75
220.488	71.34
220.706	36.52
220.924	42.67
221.142	26.28
221.36	57
221.578	20.14
221.796	-41.3
222.015	20.14
222.233	26.28
222.451	54.95
222.669	-65.88
222.887	71.34
223.105	-14.68
223.323	79.53
223.541	-0.34
223.759	42.67
223.977	7.85
224.195	77.48
224.413	1.71
224.631	32.43
224.849	93.87
225.067	97.96
225.285	71.34
225.503	7.85
225.721	-82.26
225.939	34.47
226.157	79.53
226.375	110.25
226.592	34.47
226.81	-98.64
227.028	-41.3
227.246	79.53
227.464	34.47
227.682	59.05
227.9	13.99
228.117	81.58
228.335	77.48
228.553	-74.07
228.771	16.04
228.989	87.72
229.206	11.95
229.424	63.15
229.642	30.38
229.86	13.99
230.077	24.23
230.295	-10.58
230.513	130.73
230.731	48.81
230.948	36.52
231.166	97.96
231.384	5.8
231.601	79.53
231.819	50.86
232.037	44.71
232.254	-20.82
232.472	59.05
232.689	-33.11
232.907	24.23
233.125	22.19
233.342	-16.73
233.56	-51.54
233.777	11.95
233.995	28.33
234.213	126.63
234.43	-45.4
234.648	1.71
234.865	38.57
235.083	36.52
235.3	-8.53
235.518	59.05
235.735	65.19
235.953	57
236.17	79.53
236.388	83.63
236.605	24.23
236.822	34.47
237.04	5.8
237.257	32.43
237.475	42.67
237.692	36.52
237.909	-20.82
238.127	3.75
238.344	50.86
238.562	54.95
238.779	-14.68
238.996	32.43
239.214	57
239.431	-22.87
239.648	38.57
239.865	13.99
240.083	36.52
240.3	9.9
240.517	-16.73
240.735	102.06
240.952	7.85
241.169	91.82
241.386	-8.53
241.603	57
241.821	-16.73
242.038	7.85
242.255	95.91
242.472	-80.21
242.689	57
242.907	59.05
243.124	61.1
243.341	1.71
243.558	40.62
243.775	16.04
243.992	-6.49
244.209	32.43
244.426	120.49
244.643	16.04
244.86	-61.78
245.078	40.62
245.295	-57.68
245.512	67.24
245.729	18.09
245.946	57
246.163	-24.92
246.38	26.28
246.597	16.04
246.814	63.15
247.031	22.19
247.248	73.39
247.464	-0.34
247.681	-33.11
247.898	89.77
248.115	34.47
248.332	28.33
248.549	-8.53
248.766	81.58
248.983	83.63
249.2	38.57
249.417	9.9
249.633	-29.01
249.85	40.62
250.067	97.96
250.284	-29.01
250.501	34.47
250.717	-51.54
250.934	50.86
251.151	63.15
251.368	1.71
251.585	73.39
251.801	18.09
252.018	16.04
252.235	83.63
252.451	3.75
252.668	16.04
252.885	67.24
253.102	97.96
253.318	11.95
253.535	3.75
253.752	22.19
253.968	69.29
254.185	26.28
254.401	9.9
254.618	36.52
254.835	26.28
255.051	73.39
255.268	-6.49
255.484	44.71
255.701	44.71
255.917	24.23
256.134	1.71
256.351	85.67
256.567	42.67
256.784	28.33
257	7.85
257.217	18.09
257.433	89.77
257.65	26.28
257.866	1.71
258.082	59.05
258.299	44.71
258.515	-10.58
258.732	106.15
258.948	-39.25
259.165	40.62
259.381	24.23
259.597	32.43
259.814	104.11
260.03	52.91
260.246	28.33
260.463	57
260.679	28.33
260.895	73.39
261.112	50.86
261.328	57
261.544	-6.49
261.761	155.3
261.977	42.67
262.193	75.43
262.409	57
262.626	32.43
262.842	106.15
263.058	-8.53
263.274	36.52
263.49	44.71
263.707	42.67
263.923	-12.63
264.139	20.14
264.355	59.05
264.571	-8.53
264.787	-33.11
265.004	61.1
265.22	54.95
265.436	48.81
265.652	26.28
265.868	20.14
266.084	3.75
266.3	-16.73
266.516	-8.53
266.732	24.23
266.948	75.43
267.164	11.95
267.38	-6.49
267.596	24.23
267.812	149.16
268.028	48.81
268.244	24.23
268.46	40.62
268.676	69.29
268.892	7.85
269.108	26.28
269.324	-10.58
269.54	52.91
269.756	26.28
269.972	-20.82
270.188	22.19
270.403	-6.49
270.619	155.3
270.835	-29.01
271.051	44.71
271.267	-20.82
271.483	-16.73
271.698	161.45
271.914	16.04
272.13	75.43
272.346	85.67
272.562	69.29
272.777	73.39
272.993	87.72
273.209	-20.82
273.425	75.43
273.64	44.71
273.856	54.95
274.072	48.81
274.287	16.04
274.503	3.75
274.719	73.39
274.934	59.05
275.15	-61.78
275.366	-33.11
275.581	46.76
275.797	-41.3
276.012	59.05
276.228	-26.96
276.444	87.72
276.659	59.05
276.875	11.95
277.09	42.67
277.306	-49.49
277.521	3.75
277.737	112.3
277.952	50.86
278.168	34.47
278.383	38.57
278.599	32.43
278.814	67.24
279.03	20.14
279.245	85.67
279.461	87.72
279.676	32.43
279.892	32.43
280.107	34.47
280.322	38.57
280.538	1.71
280.753	-16.73
280.969	18.09
281.184	28.33
281.399	61.1
281.615	50.86
281.83	75.43
282.045	54.95
282.26	26.28
282.476	63.15
282.691	83.63
282.906	-22.87
283.122	83.63
283.337	32.43
283.552	57
283.767	24.23
283.983	50.86
284.198	-12.63
284.413	50.86
284.628	-57.68
284.843	65.19
285.058	50.86
285.274	22.19
285.489	1.71
285.704	93.87
285.919	48.81
286.134	106.15
286.349	24.23
286.564	40.62
286.779	48.81
286.995	-2.39
287.21	-24.92
287.425	48.81
287.64	46.76
287.855	65.19
288.07	3.75
288.285	73.39
288.5	59.05
288.715	40.62
288.93	36.52
289.145	-8.53
289.36	48.81
289.575	20.14
289.79	65.19
290.004	61.1
290.219	61.1
290.434	40.62
290.649	11.95
290.864	-6.49
291.079	36.52
291.294	110.25
291.509	-16.73
291.724	44.71
291.938	-12.63
292.153	81.58
292.368	16.04
292.583	50.86
292.798	40.62
293.012	-10.58
293.227	22.19
293.442	22.19
293.657	13.99
293.871	89.77
294.086	-61.78
294.301	97.96
294.516	16.04
294.73	85.67
294.945	54.95
295.16	50.86
295.374	-22.87
295.589	122.54
295.804	81.58
296.018	42.67
296.233	20.14
296.447	40.62
296.662	42.67
296.877	5.8
297.091	24.23
297.306	30.38
297.52	-57.68
297.735	24.23
297.949	77.48
298.164	34.47
298.378	77.48
298.593	1.71
298.807	44.71
299.022	32.43
299.236	59.05
299.451	77.48
299.665	-0.34
299.88	126.63
300.094	5.8
300.309	-22.87
300.523	32.43
300.737	24.23
300.952	61.1
301.166	36.52
301.381	-12.63
301.595	7.85
301.809	-12.63
302.024	63.15
302.238	20.14
302.452	26.28
302.667	52.91
302.881	40.62
303.095	40.62
303.309	34.47
303.524	34.47
303.738	44.71
303.952	-12.63
304.166	75.43
304.381	-0.34
304.595	81.58
304.809	20.14
305.023	81.58
305.237	42.67
305.452	34.47
305.666	36.52
305.88	-14.68
306.094	-0.34
306.308	40.62
306.522	40.62
306.736	79.53
306.95	20.14
307.164	106.15
307.379	42.67
307.593	52.91
307.807	3.75
308.021	73.39
308.235	81.58
308.449	-0.34
308.663	-20.82
308.877	83.63
309.091	-8.53
309.305	38.57
309.519	18.09
309.733	-24.92
309.947	36.52
310.161	13.99
310.374	16.04
310.588	75.43
310.802	32.43
311.016	-24.92
311.23	67.24
311.444	-4.44
311.658	71.34
311.872	57
312.085	48.81
312.299	26.28
312.513	61.1
312.727	69.29
312.941	22.19
313.154	32.43
313.368	91.82
313.582	26.28
313.796	-39.25
314.009	-6.49
314.223	104.11
314.437	38.57
314.651	-6.49
314.864	-10.58
315.078	-35.16
315.292	120.49
315.505	42.67
315.719	93.87
315.933	57
316.146	48.81
316.36	46.76
316.573	48.81
316.787	50.86
317.001	48.81
317.214	3.75
317.428	38.57
317.641	-51.54
317.855	87.72
318.068	11.95
318.282	59.05
318.495	52.91
318.709	132.78
318.922	73.39
319.136	65.19
319.349	122.54
319.563	36.52
319.776	30.38
319.99	34.47
320.203	52.91
320.417	69.29
320.63	69.29
320.843	48.81
321.057	-0.34
321.27	1.71
321.483	-18.77
321.697	16.04
321.91	11.95
322.124	36.52
322.337	40.62
322.55	-12.63
322.763	54.95
322.977	16.04
323.19	-51.54
323.403	-14.68
323.617	-24.92
323.83	-12.63
324.043	5.8
324.256	57
324.469	1.71
324.683	118.44
324.896	79.53
325.109	50.86
325.322	1.71
325.535	81.58
325.748	40.62
325.962	11.95
326.175	18.09
326.388	34.47
326.601	85.67
326.814	42.67
327.027	69.29
327.24	73.39
327.453	57
327.666	36.52
327.879	65.19
328.092	67.24
328.305	97.96
328.518	-12.63
328.731	34.47
328.944	40.62
329.157	11.95
329.37	65.19
329.583	104.11
329.796	54.95
330.009	-4.44
330.222	11.95
330.435	30.38
330.648	16.04
330.861	-0.34
331.073	34.47
331.286	48.81
331.499	54.95
331.712	40.62
331.925	32.43
332.138	-35.16
332.35	83.63
332.563	-18.77
332.776	-22.87
332.989	67.24
333.202	-22.87
333.414	-0.34
333.627	81.58
333.84	77.48
334.053	44.71
334.265	59.05
334.478	-12.63
334.691	100.01
334.903	44.71
335.116	16.04
335.329	61.1
335.541	11.95
335.754	52.91
335.966	34.47
336.179	-10.58
336.392	52.91
336.604	93.87
336.817	54.95
337.029	38.57
337.242	22.19
337.454	-4.44
337.667	73.39
337.88	-22.87
338.092	65.19
338.305	77.48
338.517	5.8
338.729	28.33
338.942	79.53
339.154	38.57
339.367	16.04
339.579	73.39
339.792	42.67
340.004	65.19
340.217	48.81
340.429	11.95
340.641	52.91
340.854	-49.49
341.066	65.19
341.278	50.86
341.491	36.52
341.703	20.14
341.915	40.62
342.128	77.48
342.34	40.62
342.552	36.52
342.764	52.91
342.977	50.86
343.189	-51.54
343.401	-29.01
343.613	28.33
343.826	3.75
344.038	-12.63
344.25	7.85
344.462	65.19
344.674	106.15
344.886	-6.49
345.099	52.91
345.311	42.67
345.523	69.29
345.735	-26.96
345.947	32.43
346.159	24.23
346.371	61.1
346.583	18.09
346.795	102.06
347.007	73.39
347.219	77.48
347.431	16.04
347.643	48.81
347.855	24.23
348.067	97.96
348.279	5.8
348.491	61.1
348.703	36.52
348.915	71.34
349.127	59.05
349.339	7.85
349.551	87.72
349.763	63.15
349.975	-14.68
350.187	34.47
350.399	61.1
350.61	16.04
350.822	-16.73
351.034	50.86
351.246	106.15
351.458	50.86
351.669	40.62
351.881	165.54
352.093	67.24
352.305	57
352.517	93.87
352.728	36.52
352.94	-22.87
353.152	28.33
353.363	3.75
353.575	52.91
353.787	16.04
353.999	106.15
354.21	48.81
354.422	-10.58
354.633	-6.49
354.845	28.33
355.057	77.48
355.268	11.95
355.48	40.62
355.692	11.95
355.903	100.01
356.115	83.63
356.326	46.76
356.538	81.58
356.749	65.19
356.961	16.04
357.172	-10.58
357.384	-2.39
357.595	108.2
357.807	-24.92
358.018	73.39
358.23	110.25
358.441	112.3
358.653	122.54
358.864	16.04
359.075	69.29
359.287	16.04
359.498	89.77
359.709	20.14
359.921	44.71
360.132	54.95
360.344	57
360.555	28.33
360.766	13.99
360.977	30.38
361.189	18.09
361.4	-8.53
361.611	61.1
361.823	67.24
362.034	81.58
362.245	83.63
362.456	32.43
362.667	65.19
362.879	-0.34
363.09	69.29
363.301	7.85
363.512	18.09
363.723	16.04
363.935	50.86
364.146	50.86
364.357	-0.34
364.568	-8.53
364.779	3.75
364.99	97.96
365.201	7.85
365.412	67.24
365.623	18.09
365.834	65.19
366.045	89.77
366.256	97.96
366.467	44.71
366.678	26.28
366.889	50.86
367.1	-0.34
367.311	75.43
367.522	32.43
367.733	-18.77
367.944	59.05
368.155	16.04
368.366	102.06
368.577	85.67
368.788	-4.44
368.999	7.85
369.209	57
369.42	85.67
369.631	65.19
369.842	73.39
370.053	67.24
370.264	138.92
370.474	48.81
370.685	91.82
370.896	28.33
371.107	61.1
371.317	69.29
371.528	63.15
371.739	85.67
371.95	81.58
372.16	50.86
372.371	81.58
372.582	50.86
372.792	16.04
373.003	32.43
373.214	89.77
373.424	36.52
373.635	-26.96
373.846	102.06
374.056	32.43
374.267	61.1
374.477	91.82
374.688	48.81
374.898	102.06
375.109	32.43
375.319	50.86
375.53	65.19
375.74	1.71
375.951	75.43
376.161	36.52
376.372	67.24
376.582	-35.16
376.793	42.67
377.003	67.24
377.214	50.86
377.424	44.71
377.635	36.52
377.845	46.76
378.055	61.1
378.266	34.47
378.476	40.62
378.686	42.67
378.897	16.04
379.107	46.76
379.317	138.92
379.528	48.81
379.738	36.52
379.948	118.44
380.158	73.39
380.369	81.58
380.579	22.19
380.789	9.9
380.999	73.39
381.21	93.87
381.42	32.43
381.63	20.14
381.84	87.72
382.05	69.29
382.261	42.67
382.471	26.28
382.681	18.09
382.891	32.43
383.101	118.44
383.311	32.43
383.521	22.19
383.731	73.39
383.941	75.43
384.151	-8.53
384.361	32.43
384.571	24.23
384.781	97.96
384.991	40.62
385.201	89.77
385.411	52.91
385.621	38.57
385.831	-22.87
386.041	42.67
386.251	57
386.461	128.68
386.671	-10.58
386.881	97.96
387.091	114.34
387.301	5.8
387.511	75.43
387.72	106.15
387.93	108.2
388.14	26.28
388.35	48.81
388.56	26.28
388.769	87.72
388.979	112.3
389.189	32.43
389.399	59.05
389.609	-16.73
389.818	75.43
390.028	32.43
390.238	42.67
390.447	28.33
390.657	59.05
390.867	83.63
391.076	61.1
391.286	81.58
391.496	73.39
391.705	69.29
391.915	34.47
392.125	89.77
392.334	100.01
392.544	95.91
392.753	106.15
392.963	48.81
393.172	77.48
393.382	32.43
393.591	13.99
393.801	9.9
394.01	112.3
394.22	97.96
394.429	67.24
394.639	93.87
394.848	32.43
395.058	38.57
395.267	57
395.477	59.05
395.686	128.68
395.895	116.39
396.105	114.34
396.314	71.34
396.524	22.19
396.733	108.2
396.942	30.38
397.152	63.15
397.361	100.01
397.57	89.77
397.78	89.77
397.989	147.11
398.198	108.2
398.407	71.34
398.617	106.15
398.826	83.63
399.035	102.06
399.244	18.09
399.453	104.11
399.663	108.2
399.872	143.02
400.081	40.62
400.29	69.29
400.499	40.62
400.708	108.2
400.917	46.76
401.127	151.21
401.336	-0.34
401.545	132.78
401.754	97.96
401.963	124.58
402.172	95.91
402.381	57
402.59	69.29
402.799	126.63
403.008	83.63
403.217	122.54
403.426	130.73
403.635	114.34
403.844	151.21
404.053	97.96
404.262	69.29
404.471	208.55
404.68	114.34
404.888	122.54
405.097	147.11
405.306	138.92
405.515	120.49
405.724	112.3
405.933	134.82
406.142	138.92
406.35	97.96
406.559	212.65
406.768	188.07
406.977	120.49
407.185	140.97
407.394	183.98
407.603	183.98
407.812	163.5
408.02	233.13
408.229	202.41
408.438	249.51
408.646	224.94
408.855	198.31
409.064	251.56
409.272	212.65
409.481	278.18
409.69	202.41
409.898	247.46
410.107	251.56
410.315	253.61
410.524	167.59
410.733	306.85
410.941	231.08
411.15	294.57
411.358	243.37
411.567	329.38
411.775	231.08
411.984	331.43
412.192	337.57
412.401	351.91
412.609	384.68
412.818	399.01
413.026	386.72
413.234	401.06
413.443	409.25
413.651	515.75
413.86	437.92
414.068	528.03
414.276	546.47
414.485	583.33
414.693	589.47
414.901	601.76
415.11	609.95
415.318	566.95
415.526	585.38
415.734	738.98
415.943	657.06
416.151	700.06
416.359	687.78
416.567	687.78
416.776	712.35
416.984	827.04
417.192	773.79
417.4	724.64
417.608	794.27
417.817	876.19
418.025	863.9
418.233	990.88
418.441	902.81
418.649	986.78
418.857	1027.74
419.065	1058.46
419.273	1042.07
419.481	1167
419.689	1210.01
419.897	1212.06
420.105	1310.36
420.313	1384.09
420.521	1279.64
420.729	1365.65
420.937	1412.76
421.145	1451.67
421.353	1535.64
421.561	1607.31
421.769	1568.4
421.977	1672.85
422.185	1621.65
422.393	1722
422.601	1818.25
422.809	1918.61
423.017	1908.37
423.224	1926.8
423.432	1998.48
423.64	2115.21
423.848	2217.61
424.056	2127.5
424.263	2322.06
424.471	2317.96
424.679	2289.29
424.887	2565.76
425.094	2528.9
425.302	2582.15
425.51	2541.19
425.718	2719.36
425.925	2653.83
426.133	2715.27
426.341	3079.8
426.548	3178.11
426.756	3192.44
426.964	3151.48
427.171	3391.09
427.379	3511.93
427.586	3530.36
427.794	3640.95
428.001	4005.49
428.209	3999.34
428.417	3841.65
428.624	4128.36
428.832	4191.85
429.039	4028.01
429.247	4265.58
429.454	4546.15
429.662	4888.16
429.869	4540.01
430.076	5002.85
430.284	4632.16
430.491	4877.92
430.699	5232.22
430.906	5232.22
431.114	5328.47
431.321	5416.54
431.528	5563.99
431.736	5914.19
431.943	6381.13
432.15	6035.02
432.358	6045.26
432.565	6479.43
432.772	6510.15
432.979	6749.76
433.187	6766.15
433.394	7009.86
433.601	7448.12
433.808	7388.73
434.016	7286.33
434.223	7622.2
434.43	8080.94
434.637	8003.12
434.844	8601.13
435.052	8795.68
435.259	8556.07
435.466	8637.99
435.673	8513.06
435.88	9340.44
436.087	9747.99
436.294	9575.96
436.501	9545.24
436.708	9647.64
436.915	9965.07
437.122	10360.33
437.329	10313.23
437.537	10642.95
437.743	10780.17
437.95	10688.01
438.157	11329.02
438.364	11750.9
438.571	11832.82
438.778	11822.58
438.985	13057.51
439.192	12111.35
439.399	13053.41
439.606	12664.3
439.813	13241.82
440.02	13960.66
440.227	13876.69
440.433	13487.58
440.64	14067.16
440.847	13991.38
441.054	14165.46
441.261	15146.44
441.467	15095.24
441.674	15330.75
441.881	16080.31
442.088	15904.18
442.294	15889.85
442.501	16106.93
442.708	16573.87
442.914	17317.28
443.121	17913.24
443.328	17501.6
443.534	18664.85
443.741	18077.08
443.948	17952.15
444.154	19010.95
444.361	19019.14
444.568	19127.69
444.774	19269
444.981	19467.65
445.187	19940.73
445.394	20872.56
445.6	20794.73
445.807	22881.61
446.013	21511.52
446.22	21984.6
446.426	22922.57
446.633	23293.26
446.839	23983.42
447.046	23115.08
447.252	24018.24
447.459	24454.45
447.665	23921.98
447.871	25341.22
448.078	26342.68
448.284	25152.81
448.491	25808.16
448.697	26828.05
448.903	27458.82
449.11	27198.73
449.316	27084.05
449.522	27577.61
449.728	28136.7
449.935	28617.97
450.141	28491
450.347	29504.74
450.553	28134.65
450.76	28708.08
450.966	29451.5
451.172	29199.6
451.378	29863.14
451.584	29494.5
451.791	30110.94
451.997	30074.08
452.203	30665.94
452.409	30778.58
452.615	30520.54
452.821	29361.39
453.027	29162.73
453.233	30663.89
453.44	29666.53
453.646	29621.48
453.852	29820.13
454.058	30491.87
454.264	29621.48
454.47	30188.77
454.676	29281.52
454.882	30428.38
455.088	27897.09
455.294	28288.25
455.5	28685.56
455.705	28804.34
455.911	28046.59
456.117	27512.07
456.323	26998.03
456.529	25619.75
456.735	26699.03
456.941	25888.03
457.147	25279.78
457.352	24997.17
457.558	24671.54
457.764	24782.13
457.97	24243.51
458.176	23844.16
458.381	23633.22
458.587	22467.92
458.793	22590.8
458.999	21701.98
459.204	23225.67
459.41	22105.43
459.616	20860.27
459.821	20655.47
460.027	20831.6
460.233	20413.81
460.438	19408.26
460.644	19547.52
460.85	18939.27
461.055	18644.37
461.261	18468.24
461.466	17055.14
461.672	16473.52
461.878	17769.88
462.083	16629.16
462.289	16324.02
462.494	15807.93
462.7	15187.39
462.905	14908.87
463.111	15379.9
463.316	15365.57
463.522	15121.86
463.727	15271.36
463.932	15185.35
464.138	15033.8
464.343	14867.91
464.549	14550.48
464.754	15007.17
464.959	15017.41
465.165	14792.14
465.37	14073.3
465.575	13641.18
465.781	14378.45
465.986	14339.54
466.191	13821.4
466.397	13669.85
466.602	13258.21
466.807	13602.27
467.012	13499.87
467.218	13540.83
467.423	13168.1
467.628	13491.68
467.833	13979.09
468.038	13327.84
468.244	12860.9
468.449	13438.43
