Data from USB4F104151__36__13-11-00-342.txt Node

Date: Fri Mar 14 13:11:00 EDT 2025
User: louis
Spectrometer: USB4F10415
Trigger mode: 4
Integration Time (sec): 2.000000E-2
Scans to average: 1
Electric dark correction enabled: true
Nonlinearity correction enabled: false
Boxcar width: 0
XAxis mode: Wavelengths
Number of Pixels in Spectrum: 3648
>>>>>Begin Spectral Data<<<<<
178.204	-119.12
178.424	-119.12
178.644	-119.12
178.864	-131.41
179.084	-112.98
179.304	11.95
179.524	-31.06
179.744	11.95
179.964	61.1
180.184	-14.68
180.404	38.57
180.624	1.71
180.844	1.71
181.064	-57.68
181.283	26.28
181.503	-2.39
181.723	-47.44
181.943	-59.73
182.163	67.24
182.383	-2.39
182.602	71.34
182.822	28.33
183.042	26.28
183.262	36.52
183.482	-69.97
183.701	104.11
183.921	26.28
184.141	-12.63
184.361	36.52
184.58	3.75
184.8	-6.49
185.02	16.04
185.239	34.47
185.459	46.76
185.679	-6.49
185.898	22.19
186.118	-49.49
186.338	-16.73
186.557	3.75
186.777	-86.36
186.997	9.9
187.216	-14.68
187.436	16.04
187.655	44.71
187.875	9.9
188.095	59.05
188.314	40.62
188.534	-14.68
188.753	24.23
188.973	57
189.192	-18.77
189.412	13.99
189.631	83.63
189.851	91.82
190.07	28.33
190.29	-55.64
190.509	-43.35
190.729	38.57
190.948	5.8
191.168	83.63
191.387	7.85
191.607	7.85
191.826	42.67
192.045	5.8
192.265	32.43
192.484	11.95
192.704	42.67
192.923	1.71
193.142	46.76
193.362	50.86
193.581	26.28
193.8	42.67
194.02	54.95
194.239	5.8
194.458	32.43
194.678	-45.4
194.897	-29.01
195.116	44.71
195.335	30.38
195.555	30.38
195.774	52.91
195.993	-65.88
196.212	-12.63
196.432	-41.3
196.651	-37.2
196.87	-55.64
197.089	67.24
197.308	73.39
197.528	-0.34
197.747	-55.64
197.966	-35.16
198.185	79.53
198.404	-24.92
198.623	18.09
198.842	-14.68
199.062	65.19
199.281	97.96
199.5	-24.92
199.719	46.76
199.938	-18.77
200.157	28.33
200.376	54.95
200.595	38.57
200.814	-35.16
201.033	52.91
201.252	91.82
201.471	-49.49
201.69	44.71
201.909	9.9
202.128	32.43
202.347	-47.44
202.566	67.24
202.785	28.33
203.004	-24.92
203.223	71.34
203.442	59.05
203.661	-39.25
203.879	-61.78
204.098	75.43
204.317	-35.16
204.536	40.62
204.755	13.99
204.974	85.67
205.193	9.9
205.411	118.44
205.63	-41.3
205.849	-53.59
206.068	18.09
206.287	36.52
206.505	1.71
206.724	-43.35
206.943	34.47
207.162	50.86
207.381	67.24
207.599	-2.39
207.818	-24.92
208.037	9.9
208.255	46.76
208.474	46.76
208.693	-2.39
208.911	-6.49
209.13	9.9
209.349	50.86
209.567	36.52
209.786	16.04
210.005	26.28
210.223	18.09
210.442	-65.88
210.661	30.38
210.879	48.81
211.098	50.86
211.316	-10.58
211.535	26.28
211.753	18.09
211.972	-4.44
212.191	-20.82
212.409	-2.39
212.628	65.19
212.846	26.28
213.065	26.28
213.283	42.67
213.502	38.57
213.72	7.85
213.938	32.43
214.157	-8.53
214.375	11.95
214.594	-41.3
214.812	1.71
215.031	79.53
215.249	28.33
215.467	-8.53
215.686	28.33
215.904	-16.73
216.122	-57.68
216.341	79.53
216.559	11.95
216.778	38.57
216.996	42.67
217.214	75.43
217.432	26.28
217.651	52.91
217.869	-4.44
218.087	46.76
218.306	38.57
218.524	67.24
218.742	-49.49
218.96	26.28
219.179	36.52
219.397	40.62
219.615	50.86
219.833	50.86
220.051	-2.39
220.27	7.85
220.488	30.38
220.706	-12.63
220.924	16.04
221.142	30.38
221.36	22.19
221.578	3.75
221.796	-16.73
222.015	46.76
222.233	-49.49
222.451	-14.68
222.669	-37.2
222.887	-12.63
223.105	50.86
223.323	7.85
223.541	-2.39
223.759	22.19
223.977	67.24
224.195	157.35
224.413	16.04
224.631	63.15
224.849	3.75
225.067	59.05
225.285	-0.34
225.503	44.71
225.721	-35.16
225.939	-14.68
226.157	-2.39
226.375	147.11
226.592	-14.68
226.81	85.67
227.028	-12.63
227.246	77.48
227.464	28.33
227.682	7.85
227.9	-74.07
228.117	46.76
228.335	-6.49
228.553	5.8
228.771	20.14
228.989	-14.68
229.206	-14.68
229.424	50.86
229.642	18.09
229.86	-4.44
230.077	59.05
230.295	-26.96
230.513	-10.58
230.731	-0.34
230.948	85.67
231.166	63.15
231.384	44.71
231.601	18.09
231.819	-53.59
232.037	30.38
232.254	-22.87
232.472	-16.73
232.689	11.95
232.907	59.05
233.125	-43.35
233.342	34.47
233.56	50.86
233.777	1.71
233.995	100.01
234.213	-10.58
234.43	-12.63
234.648	38.57
234.865	46.76
235.083	75.43
235.3	38.57
235.518	81.58
235.735	77.48
235.953	102.06
236.17	63.15
236.388	-20.82
236.605	18.09
236.822	50.86
237.04	32.43
237.257	-8.53
237.475	-47.44
237.692	18.09
237.909	-0.34
238.127	18.09
238.344	16.04
238.562	100.01
238.779	52.91
238.996	1.71
239.214	20.14
239.431	91.82
239.648	-2.39
239.865	3.75
240.083	71.34
240.3	-53.59
240.517	-115.03
240.735	7.85
240.952	52.91
241.169	54.95
241.386	34.47
241.603	54.95
241.821	-53.59
242.038	30.38
242.255	106.15
242.472	24.23
242.689	20.14
242.907	71.34
243.124	16.04
243.341	38.57
243.558	26.28
243.775	13.99
243.992	-12.63
244.209	-35.16
244.426	11.95
244.643	3.75
244.86	28.33
245.078	34.47
245.295	-0.34
245.512	-45.4
245.729	18.09
245.946	-43.35
246.163	16.04
246.38	-47.44
246.597	-6.49
246.814	46.76
247.031	69.29
247.248	24.23
247.464	13.99
247.681	16.04
247.898	3.75
248.115	61.1
248.332	-12.63
248.549	-45.4
248.766	112.3
248.983	9.9
249.2	-29.01
249.417	85.67
249.633	-41.3
249.85	-4.44
250.067	63.15
250.284	-4.44
250.501	52.91
250.717	36.52
250.934	54.95
251.151	-22.87
251.368	46.76
251.585	24.23
251.801	32.43
252.018	65.19
252.235	-2.39
252.451	26.28
252.668	-24.92
252.885	85.67
253.102	-18.77
253.318	48.81
253.535	-29.01
253.752	42.67
253.968	-4.44
254.185	63.15
254.401	36.52
254.618	50.86
254.835	61.1
255.051	85.67
255.268	46.76
255.484	61.1
255.701	40.62
255.917	36.52
256.134	-2.39
256.351	-4.44
256.567	-20.82
256.784	-43.35
257	28.33
257.217	38.57
257.433	59.05
257.65	20.14
257.866	63.15
258.082	-26.96
258.299	26.28
258.515	-10.58
258.732	44.71
258.948	-53.59
259.165	-18.77
259.381	36.52
259.597	24.23
259.814	26.28
260.03	30.38
260.246	-39.25
260.463	54.95
260.679	73.39
260.895	28.33
261.112	87.72
261.328	-4.44
261.544	-6.49
261.761	75.43
261.977	-10.58
262.193	-22.87
262.409	20.14
262.626	36.52
262.842	63.15
263.058	-20.82
263.274	145.06
263.49	75.43
263.707	128.68
263.923	-12.63
264.139	-20.82
264.355	54.95
264.571	118.44
264.787	36.52
265.004	18.09
265.22	63.15
265.436	20.14
265.652	63.15
265.868	85.67
266.084	-55.64
266.3	32.43
266.516	-53.59
266.732	18.09
266.948	65.19
267.164	18.09
267.38	-8.53
267.596	26.28
267.812	22.19
268.028	22.19
268.244	1.71
268.46	67.24
268.676	32.43
268.892	-16.73
269.108	-0.34
269.324	-4.44
269.54	-12.63
269.756	44.71
269.972	-0.34
270.188	-4.44
270.403	-33.11
270.619	7.85
270.835	-24.92
271.051	-59.73
271.267	30.38
271.483	1.71
271.698	42.67
271.914	161.45
272.13	-18.77
272.346	7.85
272.562	-55.64
272.777	22.19
272.993	24.23
273.209	-2.39
273.425	36.52
273.64	-10.58
273.856	44.71
274.072	59.05
274.287	-61.78
274.503	-22.87
274.719	24.23
274.934	40.62
275.15	83.63
275.366	1.71
275.581	-4.44
275.797	3.75
276.012	9.9
276.228	38.57
276.444	-31.06
276.659	13.99
276.875	-29.01
277.09	9.9
277.306	13.99
277.521	36.52
277.737	-14.68
277.952	32.43
278.168	54.95
278.383	-2.39
278.599	24.23
278.814	-80.21
279.03	-35.16
279.245	63.15
279.461	-14.68
279.676	-0.34
279.892	28.33
280.107	87.72
280.322	65.19
280.538	-35.16
280.753	-90.45
280.969	13.99
281.184	-16.73
281.399	81.58
281.615	-53.59
281.83	13.99
282.045	13.99
282.26	48.81
282.476	-43.35
282.691	120.49
282.906	-12.63
283.122	3.75
283.337	13.99
283.552	-33.11
283.767	-2.39
283.983	30.38
284.198	9.9
284.413	75.43
284.628	-35.16
284.843	11.95
285.058	-14.68
285.274	9.9
285.489	-16.73
285.704	18.09
285.919	-26.96
286.134	13.99
286.349	-12.63
286.564	-43.35
286.779	18.09
286.995	1.71
287.21	-14.68
287.425	5.8
287.64	-14.68
287.855	50.86
288.07	-26.96
288.285	61.1
288.5	-14.68
288.715	3.75
288.93	-57.68
289.145	38.57
289.36	32.43
289.575	42.67
289.79	3.75
290.004	-53.59
290.219	75.43
290.434	34.47
290.649	104.11
290.864	28.33
291.079	5.8
291.294	-10.58
291.509	-39.25
291.724	87.72
291.938	-6.49
292.153	34.47
292.368	-20.82
292.583	50.86
292.798	-26.96
293.012	100.01
293.227	26.28
293.442	-72.02
293.657	24.23
293.871	132.78
294.086	52.91
294.301	77.48
294.516	20.14
294.73	-2.39
294.945	95.91
295.16	42.67
295.374	-10.58
295.589	61.1
295.804	16.04
296.018	67.24
296.233	73.39
296.447	44.71
296.662	34.47
296.877	61.1
297.091	54.95
297.306	42.67
297.52	18.09
297.735	30.38
297.949	54.95
298.164	26.28
298.378	1.71
298.593	13.99
298.807	44.71
299.022	61.1
299.236	73.39
299.451	1.71
299.665	59.05
299.88	-51.54
300.094	26.28
300.309	28.33
300.523	28.33
300.737	-14.68
300.952	44.71
301.166	118.44
301.381	-10.58
301.595	26.28
301.809	5.8
302.024	52.91
302.238	-22.87
302.452	18.09
302.667	-12.63
302.881	-12.63
303.095	50.86
303.309	57
303.524	24.23
303.738	18.09
303.952	44.71
304.166	50.86
304.381	-51.54
304.595	91.82
304.809	-20.82
305.023	9.9
305.237	13.99
305.452	91.82
305.666	63.15
305.88	20.14
306.094	46.76
306.308	38.57
306.522	50.86
306.736	-59.73
306.95	18.09
307.164	28.33
307.379	30.38
307.593	63.15
307.807	87.72
308.021	5.8
308.235	28.33
308.449	7.85
308.663	-10.58
308.877	116.39
309.091	100.01
309.305	-20.82
309.519	30.38
309.733	57
309.947	-16.73
310.161	-2.39
310.374	5.8
310.588	59.05
310.802	36.52
311.016	13.99
311.23	50.86
311.444	-4.44
311.658	1.71
311.872	34.47
312.085	26.28
312.299	108.2
312.513	59.05
312.727	50.86
312.941	79.53
313.154	52.91
313.368	30.38
313.582	54.95
313.796	40.62
314.009	38.57
314.223	100.01
314.437	22.19
314.651	7.85
314.864	13.99
315.078	11.95
315.292	-18.77
315.505	102.06
315.719	40.62
315.933	83.63
316.146	85.67
316.36	18.09
316.573	79.53
316.787	54.95
317.001	52.91
317.214	-47.44
317.428	13.99
317.641	71.34
317.855	7.85
318.068	38.57
318.282	9.9
318.495	16.04
318.709	-29.01
318.922	132.78
319.136	-45.4
319.349	46.76
319.563	46.76
319.776	-2.39
319.99	9.9
320.203	67.24
320.417	32.43
320.63	50.86
320.843	16.04
321.057	42.67
321.27	-2.39
321.483	13.99
321.697	50.86
321.91	26.28
322.124	18.09
322.337	77.48
322.55	-12.63
322.763	-33.11
322.977	30.38
323.19	11.95
323.403	20.14
323.617	-14.68
323.83	67.24
324.043	11.95
324.256	30.38
324.469	-33.11
324.683	67.24
324.896	-76.12
325.109	102.06
325.322	79.53
325.535	57
325.748	5.8
325.962	-8.53
326.175	11.95
326.388	42.67
326.601	38.57
326.814	26.28
327.027	87.72
327.24	9.9
327.453	5.8
327.666	73.39
327.879	38.57
328.092	-0.34
328.305	48.81
328.518	1.71
328.731	40.62
328.944	3.75
329.157	67.24
329.37	26.28
329.583	-8.53
329.796	116.39
330.009	38.57
330.222	54.95
330.435	-6.49
330.648	-18.77
330.861	5.8
331.073	-6.49
331.286	143.02
331.499	9.9
331.712	-18.77
331.925	44.71
332.138	-6.49
332.35	52.91
332.563	32.43
332.776	28.33
332.989	3.75
333.202	28.33
333.414	46.76
333.627	38.57
333.84	13.99
334.053	57
334.265	3.75
334.478	26.28
334.691	87.72
334.903	50.86
335.116	38.57
335.329	65.19
335.541	38.57
335.754	97.96
335.966	32.43
336.179	67.24
336.392	69.29
336.604	-22.87
336.817	20.14
337.029	57
337.242	-4.44
337.454	1.71
337.667	75.43
337.88	3.75
338.092	20.14
338.305	32.43
338.517	3.75
338.729	100.01
338.942	63.15
339.154	28.33
339.367	13.99
339.579	-45.4
339.792	-47.44
340.004	93.87
340.217	28.33
340.429	67.24
340.641	-12.63
340.854	16.04
341.066	28.33
341.278	126.63
341.491	26.28
341.703	-6.49
341.915	38.57
342.128	34.47
342.34	34.47
342.552	106.15
342.764	-41.3
342.977	79.53
343.189	5.8
343.401	50.86
343.613	-18.77
343.826	116.39
344.038	34.47
344.25	16.04
344.462	-6.49
344.674	79.53
344.886	71.34
345.099	42.67
345.311	11.95
345.523	83.63
345.735	-4.44
345.947	67.24
346.159	-12.63
346.371	26.28
346.583	-45.4
346.795	67.24
347.007	-22.87
347.219	75.43
347.431	-45.4
347.643	110.25
347.855	9.9
348.067	9.9
348.279	28.33
348.491	24.23
348.703	30.38
348.915	50.86
349.127	-61.78
349.339	-47.44
349.551	18.09
349.763	73.39
349.975	38.57
350.187	20.14
350.399	83.63
350.61	44.71
350.822	52.91
351.034	120.49
351.246	67.24
351.458	34.47
351.669	32.43
351.881	22.19
352.093	77.48
352.305	3.75
352.517	65.19
352.728	42.67
352.94	13.99
353.152	9.9
353.363	-47.44
353.575	26.28
353.787	-12.63
353.999	85.67
354.21	124.58
354.422	54.95
354.633	-31.06
354.845	38.57
355.057	71.34
355.268	52.91
355.48	42.67
355.692	-74.07
355.903	5.8
356.115	32.43
356.326	48.81
356.538	3.75
356.749	-2.39
356.961	120.49
357.172	50.86
357.384	-18.77
357.595	71.34
357.807	28.33
358.018	1.71
358.23	106.15
358.441	65.19
358.653	102.06
358.864	13.99
359.075	50.86
359.287	52.91
359.498	9.9
359.709	5.8
359.921	36.52
360.132	-57.68
360.344	42.67
360.555	30.38
360.766	-6.49
360.977	38.57
361.189	59.05
361.4	-2.39
361.611	28.33
361.823	9.9
362.034	73.39
362.245	-31.06
362.456	38.57
362.667	-31.06
362.879	50.86
363.09	9.9
363.301	132.78
363.512	48.81
363.723	67.24
363.935	-39.25
364.146	30.38
364.357	1.71
364.568	46.76
364.779	22.19
364.99	71.34
365.201	69.29
365.412	13.99
365.623	-24.92
365.834	59.05
366.045	57
366.256	112.3
366.467	34.47
366.678	18.09
366.889	85.67
367.1	38.57
367.311	44.71
367.522	-82.26
367.733	32.43
367.944	83.63
368.155	42.67
368.366	-55.64
368.577	-4.44
368.788	77.48
368.999	-2.39
369.209	-8.53
369.42	77.48
369.631	-4.44
369.842	87.72
370.053	20.14
370.264	69.29
370.474	26.28
370.685	30.38
370.896	42.67
371.107	30.38
371.317	57
371.528	54.95
371.739	71.34
371.95	87.72
372.16	30.38
372.371	85.67
372.582	26.28
372.792	59.05
373.003	-8.53
373.214	65.19
373.424	-16.73
373.635	-82.26
373.846	73.39
374.056	24.23
374.267	11.95
374.477	59.05
374.688	52.91
374.898	36.52
375.109	-4.44
375.319	26.28
375.53	59.05
375.74	42.67
375.951	11.95
376.161	9.9
376.372	61.1
376.582	3.75
376.793	1.71
377.003	102.06
377.214	16.04
377.424	-16.73
377.635	42.67
377.845	34.47
378.055	18.09
378.266	18.09
378.476	75.43
378.686	3.75
378.897	-4.44
379.107	-14.68
379.317	-10.58
379.528	-20.82
379.738	26.28
379.948	34.47
380.158	-26.96
380.369	11.95
380.579	26.28
380.789	69.29
380.999	73.39
381.21	36.52
381.42	124.58
381.63	46.76
381.84	59.05
382.05	30.38
382.261	36.52
382.471	61.1
382.681	28.33
382.891	46.76
383.101	36.52
383.311	30.38
383.521	42.67
383.731	63.15
383.941	50.86
384.151	136.87
384.361	42.67
384.571	157.35
384.781	42.67
384.991	36.52
385.201	95.91
385.411	97.96
385.621	61.1
385.831	179.88
386.041	57
386.251	26.28
386.461	61.1
386.671	-43.35
386.881	9.9
387.091	77.48
387.301	50.86
387.511	52.91
387.72	3.75
387.93	52.91
388.14	-53.59
388.35	11.95
388.56	18.09
388.769	38.57
388.979	59.05
389.189	1.71
389.399	42.67
389.609	-10.58
389.818	81.58
390.028	69.29
390.238	140.97
390.447	-0.34
390.657	61.1
390.867	3.75
391.076	40.62
391.286	26.28
391.496	48.81
391.705	22.19
391.915	85.67
392.125	28.33
392.334	67.24
392.544	38.57
392.753	71.34
392.963	1.71
393.172	38.57
393.382	75.43
393.591	-22.87
393.801	-18.77
394.01	161.45
394.22	1.71
394.429	85.67
394.639	67.24
394.848	26.28
395.058	48.81
395.267	36.52
395.477	24.23
395.686	38.57
395.895	-6.49
396.105	114.34
396.314	18.09
396.524	83.63
396.733	71.34
396.942	-35.16
397.152	83.63
397.361	26.28
397.57	30.38
397.78	3.75
397.989	22.19
398.198	118.44
398.407	18.09
398.617	59.05
398.826	132.78
399.035	89.77
399.244	18.09
399.453	95.91
399.663	102.06
399.872	67.24
400.081	34.47
400.29	77.48
400.499	97.96
400.708	95.91
400.917	110.25
401.127	48.81
401.336	42.67
401.545	116.39
401.754	159.4
401.963	149.16
402.172	116.39
402.381	28.33
402.59	32.43
402.799	132.78
403.008	89.77
403.217	175.78
403.426	136.87
403.635	124.58
403.844	147.11
404.053	110.25
404.262	91.82
404.471	89.77
404.68	46.76
404.888	93.87
405.097	110.25
405.306	151.21
405.515	75.43
405.724	128.68
405.933	140.97
406.142	173.74
406.35	177.83
406.559	112.3
406.768	171.69
406.977	124.58
407.185	87.72
407.394	140.97
407.603	106.15
407.812	194.22
408.02	222.89
408.229	143.02
408.438	128.68
408.646	183.98
408.855	157.35
409.064	145.06
409.272	140.97
409.481	229.03
409.69	186.02
409.898	247.46
410.107	202.41
410.315	198.31
410.524	231.08
410.733	208.55
410.941	310.95
411.15	364.2
411.358	288.42
411.567	396.96
411.775	302.76
411.984	339.62
412.192	380.58
412.401	333.48
412.609	345.77
412.818	349.86
413.026	351.91
413.234	345.77
413.443	427.68
413.651	343.72
413.86	376.48
414.068	413.35
414.276	419.49
414.485	456.36
414.693	403.11
414.901	573.09
415.11	429.73
415.318	525.99
415.526	536.23
415.734	501.41
415.943	532.13
416.151	571.04
416.359	626.34
416.567	573.09
416.776	612
416.984	722.59
417.192	755.36
417.4	730.78
417.608	689.82
417.817	788.13
418.025	734.88
418.233	831.13
418.441	804.51
418.649	810.65
418.857	880.29
419.065	984.73
419.273	939.68
419.481	980.64
419.689	954.01
419.897	1109.66
420.105	1052.31
420.313	1117.85
420.521	1140.38
420.729	1181.34
420.937	1150.62
421.145	1345.17
421.353	1242.78
421.561	1443.48
421.769	1306.26
421.977	1558.16
422.185	1468.05
422.393	1482.39
422.601	1652.37
422.809	1623.7
423.017	1633.94
423.224	1758.86
423.432	1773.2
423.64	1748.62
423.848	2002.57
424.056	1848.97
424.263	2037.39
424.471	2150.03
424.679	2233.99
424.887	2113.16
425.094	2207.37
425.302	2305.67
425.51	2246.28
425.718	2578.05
425.925	2438.79
426.133	2412.17
426.341	2678.4
426.548	2788.99
426.756	2684.55
426.964	2809.47
427.171	3026.56
427.379	3110.52
427.586	3044.99
427.794	3229.31
428.001	3434.1
428.209	3614.32
428.417	3458.68
428.624	3724.91
428.832	3712.63
429.039	3671.67
429.247	3720.82
429.454	4083.31
429.662	4263.53
429.869	4163.18
430.076	4288.11
430.284	4236.91
430.491	4533.86
430.699	4484.71
430.906	4580.96
431.114	4683.36
431.321	5023.33
431.528	5097.05
431.736	5232.22
431.943	5568.09
432.15	5422.68
432.358	5465.69
432.565	5678.68
432.772	5822.03
432.979	6049.36
433.187	6022.73
433.394	6045.26
433.601	6622.79
433.808	6628.93
434.016	6508.1
434.223	6547.01
434.43	7327.29
434.637	7046.72
434.844	7648.82
435.052	7732.79
435.259	7720.5
435.466	7890.48
435.673	7765.56
435.88	8044.08
436.087	8578.6
436.294	8674.85
436.501	8349.23
436.708	8441.39
436.915	8775.2
437.122	9315.87
437.329	9397.79
437.537	9590.3
437.743	9741.85
437.95	9635.35
438.157	10173.97
438.364	10425.87
438.571	10495.5
438.778	10565.13
438.985	11470.33
439.192	11003.39
439.399	11593.21
439.606	11079.17
439.813	11798.01
440.02	12565.99
440.227	12281.33
440.433	12180.98
440.64	12629.48
440.847	12283.38
441.054	12627.43
441.261	13579.74
441.467	13442.53
441.674	13778.39
441.881	14149.07
442.088	14214.61
442.294	13972.95
442.501	14398.93
442.708	14650.83
442.914	15293.89
443.121	15953.34
443.328	15644.09
443.534	16655.79
443.741	16192.95
443.948	15994.29
444.154	16919.98
444.361	16956.84
444.568	17143.21
444.774	17204.64
444.981	17397.15
445.187	17929.63
445.394	18630.03
445.6	18455.95
445.807	20168.05
446.013	19119.49
446.22	19750.27
446.426	20446.58
446.633	20827.5
446.839	21488.99
447.046	20475.25
447.252	21634.4
447.459	21585.25
447.665	21585.25
447.871	22420.82
448.078	23233.86
448.284	22467.92
448.491	23133.51
448.697	23899.45
448.903	24479.03
449.11	24286.52
449.316	24257.85
449.522	24347.96
449.728	25355.56
449.935	25378.09
450.141	25550.12
450.347	26121.5
450.553	25204.01
450.76	25699.62
450.966	26232.09
451.172	26019.1
451.378	26905.87
451.584	26539.29
451.791	27315.47
451.997	27082
452.203	27522.31
452.409	27577.61
452.615	27245.83
452.821	26447.13
453.027	25922.85
453.233	27434.25
453.44	26543.38
453.646	26735.89
453.852	27018.51
454.058	27092.24
454.264	26586.39
454.47	27026.7
454.676	25967.9
454.882	27653.38
455.088	24970.54
455.294	25664.8
455.5	25486.63
455.705	26262.81
455.911	25277.74
456.117	24563
456.323	24483.13
456.529	22906.19
456.735	23993.66
456.941	23594.31
457.147	23221.58
457.352	22687.06
457.558	22177.11
457.764	22220.12
457.97	21941.6
458.176	21538.15
458.381	21572.96
458.587	20389.24
458.793	20313.46
458.999	19176.84
459.204	20591.98
459.41	20174.2
459.616	18945.42
459.821	18986.38
460.027	18781.58
460.233	18310.55
460.438	17452.45
460.644	17792.41
460.85	16833.96
461.055	16526.77
461.261	16541.1
461.466	15222.21
461.672	14915.02
461.878	15945.14
462.083	15019.46
462.289	14697.93
462.494	14570.96
462.7	13710.81
462.905	13352.41
463.111	13985.24
463.316	14063.06
463.522	13712.86
463.727	13735.39
463.932	13538.78
464.138	13532.64
464.343	13731.29
464.549	13071.84
464.754	13340.13
464.959	13495.77
465.165	13372.89
465.37	12813.8
465.575	12518.89
465.781	12967.4
465.986	13090.27
466.191	12670.44
466.397	12269.04
466.602	11671.03
466.807	12314.09
467.012	12158.45
467.218	11970.04
467.423	12170.74
467.628	12125.68
