Data from USB4F104151__62__13-11-59-016.txt Node

Date: Fri Mar 14 13:11:59 EDT 2025
User: louis
Spectrometer: USB4F10415
Trigger mode: 4
Integration Time (sec): 2.000000E-2
Scans to average: 1
Electric dark correction enabled: true
Nonlinearity correction enabled: false
Boxcar width: 0
XAxis mode: Wavelengths
Number of Pixels in Spectrum: 3648
>>>>>Begin Spectral Data<<<<<
178.204	-108.37
178.424	-108.37
178.644	-108.37
178.864	-137.04
179.084	-120.66
179.304	6.31
179.524	12.46
179.744	-32.6
179.964	110.76
180.184	-22.36
180.404	12.46
180.624	-51.03
180.844	8.36
181.064	-34.64
181.283	-18.26
181.503	6.31
181.723	2.22
181.943	2.22
182.163	110.76
182.383	4.27
182.602	-8.02
182.822	75.95
183.042	10.41
183.262	0.17
183.482	-16.21
183.701	28.84
183.921	-1.88
184.141	-12.12
184.361	59.56
184.58	67.75
184.8	28.84
185.02	41.13
185.239	133.29
185.459	16.55
185.679	75.95
185.898	-28.5
186.118	61.61
186.338	-46.93
186.557	63.66
186.777	41.13
186.997	4.27
187.216	2.22
187.436	53.42
187.655	88.23
187.875	20.65
188.095	16.55
188.314	12.46
188.534	53.42
188.753	12.46
188.973	34.99
189.192	123.05
189.412	43.18
189.631	-24.4
189.851	30.89
190.07	73.9
190.29	32.94
190.509	-16.21
190.729	14.51
190.948	75.95
191.168	149.67
191.387	75.95
191.607	43.18
191.826	51.37
192.045	45.23
192.265	53.42
192.484	18.6
192.704	112.81
192.923	28.84
193.142	-14.17
193.362	39.08
193.581	82.09
193.8	-8.02
194.02	-10.07
194.239	30.89
194.458	26.79
194.678	18.6
194.897	37.03
195.116	84.14
195.335	30.89
195.555	45.23
195.774	-1.88
195.993	30.89
196.212	55.47
196.432	-57.17
196.651	-8.02
196.87	14.51
197.089	34.99
197.308	41.13
197.528	34.99
197.747	30.89
197.966	4.27
198.185	143.53
198.404	51.37
198.623	73.9
198.842	10.41
199.062	57.51
199.281	129.19
199.5	86.19
199.719	34.99
199.938	20.65
200.157	34.99
200.376	2.22
200.595	166.06
200.814	2.22
201.033	14.51
201.252	34.99
201.471	22.7
201.69	53.42
201.909	30.89
202.128	-1.88
202.347	34.99
202.566	-10.07
202.785	47.27
203.004	-16.21
203.223	116.9
203.442	30.89
203.661	2.22
203.879	39.08
204.098	59.56
204.317	43.18
204.536	94.38
204.755	98.47
204.974	98.47
205.193	-36.69
205.411	51.37
205.63	37.03
205.849	77.99
206.068	34.99
206.287	80.04
206.505	20.65
206.724	28.84
206.943	45.23
207.162	37.03
207.381	86.19
207.599	32.94
207.818	24.75
208.037	69.8
208.255	41.13
208.474	32.94
208.693	-1.88
208.911	51.37
209.13	14.51
209.349	30.89
209.567	37.03
209.786	88.23
210.005	102.57
210.223	88.23
210.442	20.65
210.661	57.51
210.879	-14.17
211.098	114.86
211.316	10.41
211.535	39.08
211.753	37.03
211.972	67.75
212.191	118.95
212.409	18.6
212.628	65.71
212.846	-3.93
213.065	86.19
213.283	75.95
213.502	96.43
213.72	67.75
213.938	49.32
214.157	75.95
214.375	-3.93
214.594	32.94
214.812	84.14
215.031	4.27
215.249	49.32
215.467	84.14
215.686	26.79
215.904	149.67
216.122	-12.12
216.341	6.31
216.559	53.42
216.778	92.33
216.996	-1.88
217.214	39.08
217.432	43.18
217.651	-14.17
217.869	43.18
218.087	39.08
218.306	53.42
218.524	108.71
218.742	10.41
218.96	53.42
219.179	24.75
219.397	43.18
219.615	80.04
219.833	37.03
220.051	28.84
220.27	12.46
220.488	53.42
220.706	-40.79
220.924	18.6
221.142	43.18
221.36	22.7
221.578	49.32
221.796	34.99
222.015	26.79
222.233	110.76
222.451	61.61
222.669	-14.17
222.887	51.37
223.105	82.09
223.323	53.42
223.541	12.46
223.759	118.95
223.977	10.41
224.195	39.08
224.413	73.9
224.631	86.19
224.849	100.52
225.067	90.28
225.285	37.03
225.503	2.22
225.721	-40.79
225.939	10.41
226.157	133.29
226.375	121
226.592	2.22
226.81	75.95
227.028	18.6
227.246	92.33
227.464	45.23
227.682	55.47
227.9	28.84
228.117	51.37
228.335	41.13
228.553	-3.93
228.771	67.75
228.989	41.13
229.206	92.33
229.424	49.32
229.642	55.47
229.86	-10.07
230.077	90.28
230.295	8.36
230.513	69.8
230.731	57.51
230.948	69.8
231.166	26.79
231.384	94.38
231.601	-3.93
231.819	86.19
232.037	39.08
232.254	8.36
232.472	-14.17
232.689	57.51
232.907	41.13
233.125	-8.02
233.342	2.22
233.56	88.23
233.777	96.43
233.995	2.22
234.213	34.99
234.43	55.47
234.648	-18.26
234.865	37.03
235.083	47.27
235.3	110.76
235.518	43.18
235.735	55.47
235.953	61.61
236.17	14.51
236.388	-8.02
236.605	-1.88
236.822	75.95
237.04	53.42
237.257	14.51
237.475	57.51
237.692	6.31
237.909	22.7
238.127	61.61
238.344	43.18
238.562	100.52
238.779	88.23
238.996	57.51
239.214	24.75
239.431	20.65
239.648	34.99
239.865	69.8
240.083	108.71
240.3	59.56
240.517	32.94
240.735	22.7
240.952	96.43
241.169	73.9
241.386	34.99
241.603	28.84
241.821	18.6
242.038	43.18
242.255	94.38
242.472	6.31
242.689	-1.88
242.907	57.51
243.124	43.18
243.341	45.23
243.558	-42.84
243.775	-3.93
243.992	28.84
244.209	4.27
244.426	96.43
244.643	55.47
244.86	69.8
245.078	80.04
245.295	34.99
245.512	65.71
245.729	30.89
245.946	67.75
246.163	63.66
246.38	18.6
246.597	-12.12
246.814	18.6
247.031	37.03
247.248	55.47
247.464	133.29
247.681	69.8
247.898	57.51
248.115	2.22
248.332	47.27
248.549	43.18
248.766	98.47
248.983	10.41
249.2	90.28
249.417	18.6
249.633	-22.36
249.85	2.22
250.067	73.9
250.284	73.9
250.501	20.65
250.717	-22.36
250.934	34.99
251.151	18.6
251.368	-55.12
251.585	2.22
251.801	18.6
252.018	24.75
252.235	106.67
252.451	14.51
252.668	-42.84
252.885	137.38
253.102	45.23
253.318	37.03
253.535	12.46
253.752	37.03
253.968	67.75
254.185	-36.69
254.401	-22.36
254.618	28.84
254.835	22.7
255.051	125.1
255.268	18.6
255.484	-26.45
255.701	20.65
255.917	63.66
256.134	55.47
256.351	-1.88
256.567	137.38
256.784	59.56
257	-14.17
257.217	90.28
257.433	30.89
257.65	49.32
257.866	55.47
258.082	-36.69
258.299	37.03
258.515	67.75
258.732	59.56
258.948	51.37
259.165	75.95
259.381	53.42
259.597	-22.36
259.814	47.27
260.03	86.19
260.246	6.31
260.463	4.27
260.679	88.23
260.895	108.71
261.112	59.56
261.328	-14.17
261.544	8.36
261.761	26.79
261.977	28.84
262.193	22.7
262.409	30.89
262.626	20.65
262.842	28.84
263.058	65.71
263.274	92.33
263.49	10.41
263.707	49.32
263.923	18.6
264.139	26.79
264.355	-5.97
264.571	-18.26
264.787	45.23
265.004	45.23
265.22	77.99
265.436	49.32
265.652	37.03
265.868	-14.17
266.084	67.75
266.3	10.41
266.516	12.46
266.732	-1.88
266.948	37.03
267.164	94.38
267.38	53.42
267.596	34.99
267.812	51.37
268.028	-22.36
268.244	47.27
268.46	88.23
268.676	65.71
268.892	28.84
269.108	-28.5
269.324	47.27
269.54	-16.21
269.756	18.6
269.972	51.37
270.188	92.33
270.403	16.55
270.619	4.27
270.835	34.99
271.051	10.41
271.267	28.84
271.483	12.46
271.698	55.47
271.914	47.27
272.13	63.66
272.346	51.37
272.562	51.37
272.777	6.31
272.993	-8.02
273.209	28.84
273.425	88.23
273.64	22.7
273.856	61.61
274.072	22.7
274.287	2.22
274.503	26.79
274.719	30.89
274.934	12.46
275.15	63.66
275.366	41.13
275.581	-20.31
275.797	77.99
276.012	55.47
276.228	30.89
276.444	41.13
276.659	26.79
276.875	-26.45
277.09	26.79
277.306	-14.17
277.521	53.42
277.737	26.79
277.952	-3.93
278.168	137.38
278.383	49.32
278.599	26.79
278.814	92.33
279.03	0.17
279.245	47.27
279.461	161.96
279.676	26.79
279.892	39.08
280.107	61.61
280.322	80.04
280.538	30.89
280.753	57.51
280.969	55.47
281.184	-1.88
281.399	90.28
281.615	-28.5
281.83	147.62
282.045	18.6
282.26	26.79
282.476	32.94
282.691	121
282.906	45.23
283.122	14.51
283.337	10.41
283.552	20.65
283.767	12.46
283.983	67.75
284.198	-42.84
284.413	26.79
284.628	77.99
284.843	53.42
285.058	84.14
285.274	75.95
285.489	18.6
285.704	88.23
285.919	37.03
286.134	24.75
286.349	61.61
286.564	37.03
286.779	106.67
286.995	-16.21
287.21	-14.17
287.425	-16.21
287.64	10.41
287.855	116.9
288.07	18.6
288.285	22.7
288.5	34.99
288.715	-3.93
288.93	53.42
289.145	94.38
289.36	45.23
289.575	10.41
289.79	45.23
290.004	10.41
290.219	143.53
290.434	-5.97
290.649	45.23
290.864	-63.32
291.079	30.89
291.294	-36.69
291.509	57.51
291.724	0.17
291.938	10.41
292.153	127.14
292.368	73.9
292.583	129.19
292.798	67.75
293.012	14.51
293.227	45.23
293.442	-5.97
293.657	67.75
293.871	108.71
294.086	34.99
294.301	37.03
294.516	63.66
294.73	65.71
294.945	-28.5
295.16	59.56
295.374	114.86
295.589	110.76
295.804	63.66
296.018	75.95
296.233	67.75
296.447	45.23
296.662	-26.45
296.877	96.43
297.091	63.66
297.306	82.09
297.52	47.27
297.735	-14.17
297.949	77.99
298.164	98.47
298.378	90.28
298.593	12.46
298.807	-34.64
299.022	26.79
299.236	73.9
299.451	26.79
299.665	49.32
299.88	41.13
300.094	129.19
300.309	67.75
300.523	34.99
300.737	59.56
300.952	121
301.166	34.99
301.381	34.99
301.595	63.66
301.809	-40.79
302.024	22.7
302.238	77.99
302.452	135.34
302.667	71.85
302.881	63.66
303.095	75.95
303.309	24.75
303.524	59.56
303.738	37.03
303.952	4.27
304.166	24.75
304.381	16.55
304.595	84.14
304.809	47.27
305.023	53.42
305.237	51.37
305.452	77.99
305.666	45.23
305.88	102.57
306.094	112.81
306.308	55.47
306.522	63.66
306.736	84.14
306.95	22.7
307.164	49.32
307.379	-12.12
307.593	112.81
307.807	14.51
308.021	34.99
308.235	63.66
308.449	34.99
308.663	10.41
308.877	49.32
309.091	-40.79
309.305	43.18
309.519	0.17
309.733	32.94
309.947	18.6
310.161	125.1
310.374	118.95
310.588	10.41
310.802	57.51
311.016	59.56
311.23	121
311.444	63.66
311.658	67.75
311.872	-5.97
312.085	59.56
312.299	135.34
312.513	98.47
312.727	43.18
312.941	-5.97
313.154	22.7
313.368	53.42
313.582	-51.03
313.796	24.75
314.009	-18.26
314.223	67.75
314.437	67.75
314.651	80.04
314.864	61.61
315.078	-20.31
315.292	37.03
315.505	47.27
315.719	30.89
315.933	55.47
316.146	71.85
316.36	94.38
316.573	96.43
316.787	65.71
317.001	26.79
317.214	-20.31
317.428	106.67
317.641	125.1
317.855	-14.17
318.068	96.43
318.282	98.47
318.495	135.34
318.709	39.08
318.922	67.75
319.136	28.84
319.349	86.19
319.563	57.51
319.776	41.13
319.99	-3.93
320.203	71.85
320.417	92.33
320.63	39.08
320.843	92.33
321.057	6.31
321.27	4.27
321.483	18.6
321.697	59.56
321.91	-26.45
322.124	59.56
322.337	125.1
322.55	47.27
322.763	-5.97
322.977	39.08
323.19	57.51
323.403	53.42
323.617	47.27
323.83	166.06
324.043	37.03
324.256	8.36
324.469	51.37
324.683	116.9
324.896	-20.31
325.109	84.14
325.322	61.61
325.535	75.95
325.748	43.18
325.962	6.31
326.175	55.47
326.388	41.13
326.601	51.37
326.814	49.32
327.027	55.47
327.24	20.65
327.453	-48.98
327.666	18.6
327.879	106.67
328.092	32.94
328.305	96.43
328.518	22.7
328.731	12.46
328.944	34.99
329.157	43.18
329.37	69.8
329.583	26.79
329.796	127.14
330.009	34.99
330.222	22.7
330.435	18.6
330.648	20.65
330.861	14.51
331.073	67.75
331.286	98.47
331.499	71.85
331.712	41.13
331.925	45.23
332.138	53.42
332.35	86.19
332.563	90.28
332.776	94.38
332.989	59.56
333.202	59.56
333.414	41.13
333.627	100.52
333.84	20.65
334.053	18.6
334.265	69.8
334.478	32.94
334.691	55.47
334.903	39.08
335.116	-1.88
335.329	37.03
335.541	90.28
335.754	75.95
335.966	49.32
336.179	28.84
336.392	92.33
336.604	90.28
336.817	18.6
337.029	84.14
337.242	82.09
337.454	26.79
337.667	73.9
337.88	75.95
338.092	73.9
338.305	34.99
338.517	8.36
338.729	100.52
338.942	75.95
339.154	53.42
339.367	-12.12
339.579	123.05
339.792	4.27
340.004	47.27
340.217	90.28
340.429	28.84
340.641	-10.07
340.854	10.41
341.066	125.1
341.278	82.09
341.491	86.19
341.703	32.94
341.915	14.51
342.128	127.14
342.34	59.56
342.552	55.47
342.764	94.38
342.977	-12.12
343.189	30.89
343.401	82.09
343.613	26.79
343.826	84.14
344.038	6.31
344.25	112.81
344.462	77.99
344.674	34.99
344.886	10.41
345.099	63.66
345.311	55.47
345.523	55.47
345.735	22.7
345.947	34.99
346.159	96.43
346.371	47.27
346.583	-5.97
346.795	2.22
347.007	84.14
347.219	0.17
347.431	10.41
347.643	149.67
347.855	37.03
348.067	71.85
348.279	20.65
348.491	82.09
348.703	32.94
348.915	61.61
349.127	61.61
349.339	-3.93
349.551	20.65
349.763	84.14
349.975	-12.12
350.187	30.89
350.399	24.75
350.61	59.56
350.822	43.18
351.034	61.61
351.246	145.58
351.458	90.28
351.669	55.47
351.881	75.95
352.093	45.23
352.305	39.08
352.517	67.75
352.728	135.34
352.94	63.66
353.152	45.23
353.363	2.22
353.575	14.51
353.787	75.95
353.999	96.43
354.21	8.36
354.422	37.03
354.633	94.38
354.845	55.47
355.057	28.84
355.268	-48.98
355.48	37.03
355.692	63.66
355.903	51.37
356.115	88.23
356.326	18.6
356.538	32.94
356.749	92.33
356.961	100.52
357.172	110.76
357.384	28.84
357.595	41.13
357.807	53.42
358.018	24.75
358.23	30.89
358.441	137.38
358.653	55.47
358.864	63.66
359.075	20.65
359.287	53.42
359.498	43.18
359.709	63.66
359.921	106.67
360.132	88.23
360.344	51.37
360.555	-1.88
360.766	4.27
360.977	49.32
361.189	77.99
361.4	24.75
361.611	39.08
361.823	41.13
362.034	71.85
362.245	0.17
362.456	43.18
362.667	41.13
362.879	4.27
363.09	30.89
363.301	32.94
363.512	67.75
363.723	-10.07
363.935	86.19
364.146	123.05
364.357	49.32
364.568	75.95
364.779	-22.36
364.99	63.66
365.201	-3.93
365.412	69.8
365.623	55.47
365.834	125.1
366.045	37.03
366.256	59.56
366.467	20.65
366.678	-12.12
366.889	77.99
367.1	18.6
367.311	-1.88
367.522	-5.97
367.733	43.18
367.944	96.43
368.155	37.03
368.366	26.79
368.577	51.37
368.788	65.71
368.999	-26.45
369.209	20.65
369.42	86.19
369.631	84.14
369.842	39.08
370.053	88.23
370.264	10.41
370.474	43.18
370.685	22.7
370.896	53.42
371.107	133.29
371.317	114.86
371.528	57.51
371.739	127.14
371.95	51.37
372.16	49.32
372.371	-34.64
372.582	4.27
372.792	114.86
373.003	77.99
373.214	43.18
373.424	65.71
373.635	14.51
373.846	-61.27
374.056	59.56
374.267	-5.97
374.477	102.57
374.688	73.9
374.898	26.79
375.109	82.09
375.319	75.95
375.53	59.56
375.74	67.75
375.951	53.42
376.161	55.47
376.372	65.71
376.582	51.37
376.793	69.8
377.003	51.37
377.214	61.61
377.424	69.8
377.635	49.32
377.845	22.7
378.055	34.99
378.266	77.99
378.476	10.41
378.686	6.31
378.897	141.48
379.107	30.89
379.317	77.99
379.528	34.99
379.738	80.04
379.948	0.17
380.158	61.61
380.369	0.17
380.579	14.51
380.789	106.67
380.999	63.66
381.21	63.66
381.42	71.85
381.63	4.27
381.84	125.1
382.05	59.56
382.261	59.56
382.471	-1.88
382.681	49.32
382.891	104.62
383.101	108.71
383.311	67.75
383.521	41.13
383.731	63.66
383.941	82.09
384.151	125.1
384.361	77.99
384.571	92.33
384.781	100.52
384.991	67.75
385.201	110.76
385.411	49.32
385.621	164.01
385.831	-32.6
386.041	4.27
386.251	-36.69
386.461	94.38
386.671	-18.26
386.881	-3.93
387.091	43.18
387.301	96.43
387.511	51.37
387.72	98.47
387.93	51.37
388.14	12.46
388.35	26.79
388.56	34.99
388.769	147.62
388.979	90.28
389.189	53.42
389.399	65.71
389.609	94.38
389.818	47.27
390.028	43.18
390.238	-22.36
390.447	41.13
390.657	47.27
390.867	118.95
391.076	88.23
391.286	39.08
391.496	55.47
391.705	45.23
391.915	102.57
392.125	53.42
392.334	41.13
392.544	26.79
392.753	0.17
392.963	32.94
393.172	-8.02
393.382	6.31
393.591	118.95
393.801	53.42
394.01	51.37
394.22	96.43
394.429	102.57
394.639	94.38
394.848	108.71
395.058	45.23
395.267	59.56
395.477	47.27
395.686	157.86
395.895	106.67
396.105	135.34
396.314	43.18
396.524	108.71
396.733	80.04
396.942	137.38
397.152	77.99
397.361	110.76
397.57	118.95
397.78	84.14
397.989	88.23
398.198	184.49
398.407	77.99
398.617	143.53
398.826	47.27
399.035	133.29
399.244	24.75
399.453	90.28
399.663	84.14
399.872	51.37
400.081	75.95
400.29	131.24
400.499	45.23
400.708	110.76
400.917	84.14
401.127	77.99
401.336	47.27
401.545	108.71
401.754	108.71
401.963	92.33
402.172	75.95
402.381	24.75
402.59	96.43
402.799	59.56
403.008	125.1
403.217	88.23
403.426	63.66
403.635	161.96
403.844	92.33
404.053	137.38
404.262	137.38
404.471	178.34
404.68	75.95
404.888	137.38
405.097	166.06
405.306	104.62
405.515	45.23
405.724	174.25
405.933	198.82
406.142	149.67
406.35	157.86
406.559	141.48
406.768	129.19
406.977	161.96
407.185	159.91
407.394	166.06
407.603	106.67
407.812	96.43
408.02	116.9
408.229	186.54
408.438	143.53
408.646	141.48
408.855	141.48
409.064	200.87
409.272	225.45
409.481	243.88
409.69	141.48
409.898	250.02
410.107	295.08
410.315	258.21
410.524	256.17
410.733	235.69
410.941	297.13
411.15	250.02
411.358	301.22
411.567	338.09
411.775	309.41
411.984	338.09
412.192	264.36
412.401	311.46
412.609	420
412.818	348.33
413.026	329.89
413.234	366.76
413.443	430.24
413.651	313.51
413.86	438.44
414.068	409.76
414.276	450.72
414.485	403.62
414.693	436.39
414.901	546.98
415.11	551.07
415.318	485.54
415.526	555.17
415.734	618.66
415.943	551.07
416.151	649.38
416.359	612.51
416.567	549.03
416.776	684.19
416.984	682.14
417.192	598.18
417.4	698.53
417.608	610.47
417.817	762.02
418.025	710.82
418.233	798.88
418.441	829.6
418.649	870.56
418.857	917.66
419.065	915.61
419.273	831.65
419.481	888.99
419.689	1009.82
419.897	936.09
420.105	1044.63
420.313	1052.83
420.521	1226.9
420.729	1261.72
420.937	1192.09
421.145	1226.9
421.353	1239.19
421.561	1378.45
421.769	1388.69
421.977	1396.89
422.185	1357.97
422.393	1495.19
422.601	1628.31
422.809	1642.64
423.017	1542.29
423.224	1685.65
423.432	1775.76
423.64	1693.84
423.848	1925.26
424.056	1802.38
424.263	1998.99
424.471	2048.14
424.679	2046.09
424.887	2211.98
425.094	2365.57
425.302	2187.4
425.51	2349.19
425.718	2203.79
425.925	2429.06
426.133	2590.85
426.341	2510.98
426.548	2752.64
426.756	2777.22
426.964	2951.29
427.171	2941.05
427.379	2932.86
427.586	3070.08
427.794	3209.34
428.001	3313.78
428.209	3489.91
428.417	3264.63
428.624	3672.18
428.832	3541.11
429.039	3721.33
429.247	3661.94
429.454	3995.76
429.662	4294.76
429.869	4026.48
430.076	4196.46
430.284	4100.2
430.491	4257.9
430.699	4460.65
430.906	4507.75
431.114	4599.91
431.321	4659.3
431.528	4679.78
431.736	4980.83
431.943	5322.84
432.15	5245.02
432.358	5316.7
432.565	5566.55
432.772	5509.21
432.979	5816.4
433.187	6010.96
433.394	6064.21
433.601	6430.79
433.808	6469.7
434.016	6367.31
434.223	6819.91
434.43	7217.21
434.637	6877.25
434.844	7401.53
435.052	7493.69
435.259	7565.37
435.466	7565.37
435.673	7528.5
435.88	7901.23
436.087	8458.28
436.294	8534.06
436.501	8247.34
436.708	8325.16
436.915	8773.67
437.122	9013.28
437.329	9103.39
437.537	9267.23
437.743	9490.46
437.95	9512.99
438.157	9814.04
438.364	10139.66
438.571	10170.38
438.778	10250.25
438.985	11001.86
439.192	10709
439.399	11130.88
439.606	10928.13
439.813	11446.27
440.02	12195.82
440.227	12050.42
440.433	11862.01
440.64	12208.11
440.847	12201.97
441.054	12509.16
441.261	13463.52
441.467	13260.77
441.674	13522.91
441.881	13871.06
442.088	13942.74
442.294	13647.83
442.501	14190.55
442.708	14462.93
442.914	14849.99
443.121	15468.48
443.328	15290.31
443.534	16492.46
443.741	15941.56
443.948	15620.03
444.154	16914.34
444.361	16752.56
444.568	16824.23
444.774	16725.93
444.981	16920.49
445.187	17631.13
445.394	18286.48
445.6	18040.73
445.807	19898.24
446.013	18741.13
446.22	19416.96
446.426	20103.03
446.633	20242.29
446.839	20961.13
447.046	20338.55
447.252	21366.63
447.459	21147.5
447.665	21172.07
447.871	22040.41
448.078	23328.58
448.284	21929.82
448.491	22517.59
448.697	23562.05
448.903	23766.85
449.11	24098.62
449.316	23684.93
449.522	24196.92
449.728	24815.41
449.935	24999.73
450.141	24926
450.347	25626.4
450.553	24731.44
450.76	25016.11
450.966	25700.13
451.172	25626.4
451.378	26093.34
451.584	25988.89
451.791	26261.27
451.997	26365.72
452.203	26797.84
452.409	26662.68
452.615	26808.08
452.821	25718.56
453.027	25642.79
453.233	26773.27
453.44	25728.8
453.646	26404.63
453.852	26421.02
454.058	26650.39
454.264	25876.26
454.47	26556.18
454.676	25870.11
454.882	26615.57
455.088	24420.15
455.294	24657.71
455.5	25409.32
455.705	25474.85
455.911	24244.02
456.117	23955.26
456.323	23684.93
456.529	22474.58
456.735	23594.82
456.941	23097.16
457.147	22757.2
457.352	21808.99
457.558	21710.69
457.764	21757.79
457.97	21514.08
458.176	20782.96
458.381	20825.96
458.587	19713.92
458.793	19885.95
458.999	18610.06
459.204	20064.12
459.41	19281.8
459.616	18061.21
459.821	18182.04
460.027	18134.93
460.233	17827.74
460.438	16879.53
460.644	17211.3
460.85	16371.63
461.055	16123.83
461.261	16070.58
461.466	14876.62
461.672	14567.37
461.878	15378.37
462.083	14510.03
462.289	14008.28
462.494	14184.4
462.7	13279.2
462.905	13051.88
463.111	13629.4
463.316	13506.52
463.522	13078.5
463.727	13219.81
463.932	13232.1
464.138	13049.83
464.343	13015.01
464.549	12601.32
464.754	13137.89
464.959	13123.55
465.165	13072.36
465.37	12531.69
465.575	12060.66
465.781	12660.71
465.986	12521.45
466.191	12107.76
466.397	12079.09
466.602	11481.08
466.807	11866.1
467.012	11624.44
467.218	11857.91
467.423	11730.94
467.628	11696.12
467.833	12079.09
468.038	11814.9
