Data from USB4F104151__68__13-12-04-935.txt Node

Date: Fri Mar 14 13:12:04 EDT 2025
User: louis
Spectrometer: USB4F10415
Trigger mode: 4
Integration Time (sec): 2.000000E-2
Scans to average: 1
Electric dark correction enabled: true
Nonlinearity correction enabled: false
Boxcar width: 0
XAxis mode: Wavelengths
Number of Pixels in Spectrum: 3648
>>>>>Begin Spectral Data<<<<<
178.204	-61.95
178.424	-61.95
178.644	-61.95
178.864	-64
179.084	-111.1
179.304	5.63
179.524	-29.18
179.744	46.59
179.964	-8.7
180.184	-43.52
180.404	-35.33
180.624	-10.75
180.844	30.21
181.064	-10.75
181.283	-6.66
181.503	3.58
181.723	58.88
181.943	13.82
182.163	56.83
182.383	32.26
182.602	5.63
182.822	-2.56
183.042	54.78
183.262	15.87
183.482	19.97
183.701	58.88
183.921	42.5
184.141	54.78
184.361	1.54
184.58	5.63
184.8	24.06
185.02	11.78
185.239	22.02
185.459	26.11
185.679	153.09
185.898	-16.9
186.118	15.87
186.338	-10.75
186.557	-8.7
186.777	54.78
186.997	26.11
187.216	-18.94
187.436	46.59
187.655	56.83
187.875	26.11
188.095	-20.99
188.314	91.65
188.534	-35.33
188.753	1.54
188.973	30.21
189.192	87.55
189.412	85.5
189.631	17.92
189.851	38.4
190.07	75.26
190.29	65.02
190.509	34.3
190.729	24.06
190.948	30.21
191.168	163.33
191.387	85.5
191.607	65.02
191.826	30.21
192.045	46.59
192.265	62.98
192.484	38.4
192.704	56.83
192.923	32.26
193.142	91.65
193.362	75.26
193.581	116.22
193.8	122.37
194.02	65.02
194.239	62.98
194.458	87.55
194.678	40.45
194.897	81.41
195.116	28.16
195.335	58.88
195.555	36.35
195.774	56.83
195.993	24.06
196.212	32.26
196.432	30.21
196.651	65.02
196.87	73.21
197.089	56.83
197.308	19.97
197.528	38.4
197.747	-0.51
197.966	58.88
198.185	73.21
198.404	34.3
198.623	22.02
198.842	99.84
199.062	26.11
199.281	32.26
199.5	15.87
199.719	73.21
199.938	62.98
200.157	79.36
200.376	83.45
200.595	79.36
200.814	69.12
201.033	71.17
201.252	91.65
201.471	58.88
201.69	67.07
201.909	13.82
202.128	71.17
202.347	56.83
202.566	38.4
202.785	128.51
203.004	13.82
203.223	22.02
203.442	-10.75
203.661	95.74
203.879	-12.8
204.098	56.83
204.317	44.54
204.536	81.41
204.755	13.82
204.974	67.07
205.193	50.69
205.411	71.17
205.63	110.08
205.849	95.74
206.068	19.97
206.287	56.83
206.505	36.35
206.724	69.12
206.943	24.06
207.162	52.74
207.381	40.45
207.599	79.36
207.818	67.07
208.037	-31.23
208.255	40.45
208.474	93.69
208.693	71.17
208.911	71.17
209.13	54.78
209.349	67.07
209.567	17.92
209.786	87.55
210.005	62.98
210.223	105.98
210.442	5.63
210.661	36.35
210.879	22.02
211.098	103.93
211.316	1.54
211.535	81.41
211.753	34.3
211.972	40.45
212.191	73.21
212.409	56.83
212.628	81.41
212.846	22.02
213.065	89.6
213.283	46.59
213.502	87.55
213.72	19.97
213.938	77.31
214.157	40.45
214.375	54.78
214.594	30.21
214.812	103.93
215.031	28.16
215.249	42.5
215.467	15.87
215.686	-18.94
215.904	-61.95
216.122	73.21
216.341	87.55
216.559	-29.18
216.778	103.93
216.996	58.88
217.214	95.74
217.432	-8.7
217.651	91.65
217.869	-10.75
218.087	11.78
218.306	75.26
218.524	52.74
218.742	17.92
218.96	77.31
219.179	26.11
219.397	30.21
219.615	81.41
219.833	28.16
220.051	15.87
220.27	73.21
220.488	65.02
220.706	69.12
220.924	-14.85
221.142	11.78
221.36	79.36
221.578	118.27
221.796	46.59
222.015	48.64
222.233	54.78
222.451	30.21
222.669	24.06
222.887	-27.14
223.105	24.06
223.323	13.82
223.541	-27.14
223.759	97.79
223.977	52.74
224.195	60.93
224.413	34.3
224.631	54.78
224.849	89.6
225.067	54.78
225.285	91.65
225.503	101.89
225.721	-12.8
225.939	103.93
226.157	15.87
226.375	52.74
226.592	5.63
226.81	69.12
227.028	95.74
227.246	28.16
227.464	79.36
227.682	15.87
227.9	36.35
228.117	38.4
228.335	46.59
228.553	56.83
228.771	28.16
228.989	46.59
229.206	7.68
229.424	71.17
229.642	91.65
229.86	42.5
230.077	36.35
230.295	116.22
230.513	118.27
230.731	85.5
230.948	58.88
231.166	17.92
231.384	89.6
231.601	22.02
231.819	132.61
232.037	38.4
232.254	3.58
232.472	11.78
232.689	9.73
232.907	28.16
233.125	-18.94
233.342	56.83
233.56	-12.8
233.777	54.78
233.995	26.11
234.213	95.74
234.43	112.13
234.648	91.65
234.865	22.02
235.083	77.31
235.3	-2.56
235.518	28.16
235.735	54.78
235.953	67.07
236.17	38.4
236.388	56.83
236.605	38.4
236.822	114.17
237.04	87.55
237.257	32.26
237.475	77.31
237.692	46.59
237.909	71.17
238.127	103.93
238.344	13.82
238.562	65.02
238.779	-18.94
238.996	54.78
239.214	5.63
239.431	46.59
239.648	-49.66
239.865	128.51
240.083	56.83
240.3	52.74
240.517	-2.56
240.735	26.11
240.952	42.5
241.169	3.58
241.386	81.41
241.603	54.78
241.821	52.74
242.038	87.55
242.255	83.45
242.472	19.97
242.689	32.26
242.907	65.02
243.124	1.54
243.341	87.55
243.558	79.36
243.775	44.54
243.992	24.06
244.209	75.26
244.426	122.37
244.643	11.78
244.86	67.07
245.078	13.82
245.295	71.17
245.512	-10.75
245.729	42.5
245.946	75.26
246.163	9.73
246.38	50.69
246.597	-8.7
246.814	28.16
247.031	17.92
247.248	65.02
247.464	46.59
247.681	87.55
247.898	30.21
248.115	56.83
248.332	34.3
248.549	62.98
248.766	54.78
248.983	87.55
249.2	56.83
249.417	140.8
249.633	62.98
249.85	134.65
250.067	24.06
250.284	54.78
250.501	118.27
250.717	101.89
250.934	5.63
251.151	13.82
251.368	22.02
251.585	81.41
251.801	-16.9
252.018	54.78
252.235	19.97
252.451	-68.09
252.668	44.54
252.885	-6.66
253.102	146.94
253.318	-76.29
253.535	60.93
253.752	48.64
253.968	67.07
254.185	-10.75
254.401	95.74
254.618	17.92
254.835	-10.75
255.051	124.41
255.268	73.21
255.484	77.31
255.701	71.17
255.917	83.45
256.134	81.41
256.351	91.65
256.567	24.06
256.784	24.06
257	36.35
257.217	124.41
257.433	-4.61
257.65	62.98
257.866	38.4
258.082	-51.71
258.299	46.59
258.515	79.36
258.732	89.6
258.948	50.69
259.165	110.08
259.381	-2.56
259.597	15.87
259.814	62.98
260.03	71.17
260.246	69.12
260.463	73.21
260.679	97.79
260.895	67.07
261.112	-4.61
261.328	15.87
261.544	1.54
261.761	83.45
261.977	42.5
262.193	17.92
262.409	-25.09
262.626	-12.8
262.842	13.82
263.058	40.45
263.274	48.64
263.49	42.5
263.707	187.9
263.923	60.93
264.139	38.4
264.355	52.74
264.571	114.17
264.787	-39.42
265.004	46.59
265.22	50.69
265.436	7.68
265.652	36.35
265.868	77.31
266.084	73.21
266.3	-2.56
266.516	50.69
266.732	87.55
266.948	62.98
267.164	42.5
267.38	22.02
267.596	52.74
267.812	71.17
268.028	34.3
268.244	24.06
268.46	67.07
268.676	62.98
268.892	19.97
269.108	56.83
269.324	3.58
269.54	28.16
269.756	30.21
269.972	36.35
270.188	52.74
270.403	87.55
270.619	-25.09
270.835	17.92
271.051	44.54
271.267	26.11
271.483	30.21
271.698	101.89
271.914	140.8
272.13	116.22
272.346	103.93
272.562	56.83
272.777	42.5
272.993	3.58
273.209	9.73
273.425	24.06
273.64	103.93
273.856	79.36
274.072	38.4
274.287	30.21
274.503	151.04
274.719	79.36
274.934	15.87
275.15	75.26
275.366	13.82
275.581	34.3
275.797	34.3
276.012	32.26
276.228	54.78
276.444	7.68
276.659	-4.61
276.875	83.45
277.09	83.45
277.306	58.88
277.521	120.32
277.737	30.21
277.952	54.78
278.168	58.88
278.383	120.32
278.599	34.3
278.814	36.35
279.03	58.88
279.245	148.99
279.461	95.74
279.676	7.68
279.892	5.63
280.107	1.54
280.322	62.98
280.538	69.12
280.753	28.16
280.969	19.97
281.184	58.88
281.399	60.93
281.615	52.74
281.83	87.55
282.045	-2.56
282.26	32.26
282.476	-18.94
282.691	38.4
282.906	26.11
283.122	91.65
283.337	75.26
283.552	52.74
283.767	58.88
283.983	26.11
284.198	-25.09
284.413	95.74
284.628	-4.61
284.843	48.64
285.058	-29.18
285.274	62.98
285.489	-49.66
285.704	95.74
285.919	77.31
286.134	103.93
286.349	40.45
286.564	65.02
286.779	93.69
286.995	54.78
287.21	50.69
287.425	62.98
287.64	89.6
287.855	112.13
288.07	3.58
288.285	52.74
288.5	73.21
288.715	83.45
288.93	-49.66
289.145	114.17
289.36	34.3
289.575	71.17
289.79	48.64
290.004	5.63
290.219	97.79
290.434	7.68
290.649	-14.85
290.864	24.06
291.079	22.02
291.294	50.69
291.509	44.54
291.724	30.21
291.938	48.64
292.153	69.12
292.368	62.98
292.583	97.79
292.798	30.21
293.012	17.92
293.227	38.4
293.442	38.4
293.657	54.78
293.871	144.89
294.086	52.74
294.301	30.21
294.516	75.26
294.73	30.21
294.945	42.5
295.16	28.16
295.374	65.02
295.589	-4.61
295.804	34.3
296.018	77.31
296.233	83.45
296.447	36.35
296.662	50.69
296.877	89.6
297.091	22.02
297.306	54.78
297.52	22.02
297.735	58.88
297.949	34.3
298.164	91.65
298.378	65.02
298.593	-2.56
298.807	-16.9
299.022	44.54
299.236	95.74
299.451	62.98
299.665	77.31
299.88	34.3
300.094	65.02
300.309	15.87
300.523	54.78
300.737	9.73
300.952	36.35
301.166	138.75
301.381	58.88
301.595	81.41
301.809	95.74
302.024	-10.75
302.238	13.82
302.452	73.21
302.667	79.36
302.881	28.16
303.095	38.4
303.309	65.02
303.524	34.3
303.738	46.59
303.952	42.5
304.166	65.02
304.381	-4.61
304.595	132.61
304.809	46.59
305.023	-8.7
305.237	56.83
305.452	120.32
305.666	-4.61
305.88	40.45
306.094	81.41
306.308	40.45
306.522	71.17
306.736	-25.09
306.95	38.4
307.164	36.35
307.379	42.5
307.593	171.52
307.807	93.69
308.021	118.27
308.235	-41.47
308.449	81.41
308.663	60.93
308.877	105.98
309.091	79.36
309.305	60.93
309.519	34.3
309.733	65.02
309.947	26.11
310.161	50.69
310.374	58.88
310.588	1.54
310.802	44.54
311.016	-10.75
311.23	40.45
311.444	30.21
311.658	54.78
311.872	89.6
312.085	136.7
312.299	71.17
312.513	65.02
312.727	-0.51
312.941	30.21
313.154	7.68
313.368	48.64
313.582	128.51
313.796	15.87
314.009	5.63
314.223	114.17
314.437	65.02
314.651	11.78
314.864	1.54
315.078	58.88
315.292	26.11
315.505	9.73
315.719	71.17
315.933	34.3
316.146	91.65
316.36	50.69
316.573	73.21
316.787	30.21
317.001	19.97
317.214	9.73
317.428	-23.04
317.641	122.37
317.855	81.41
318.068	97.79
318.282	50.69
318.495	85.5
318.709	95.74
318.922	28.16
319.136	144.89
319.349	138.75
319.563	15.87
319.776	32.26
319.99	26.11
320.203	22.02
320.417	42.5
320.63	19.97
320.843	81.41
321.057	46.59
321.27	77.31
321.483	13.82
321.697	87.55
321.91	67.07
322.124	24.06
322.337	83.45
322.55	71.17
322.763	79.36
322.977	99.84
323.19	114.17
323.403	40.45
323.617	40.45
323.83	91.65
324.043	42.5
324.256	89.6
324.469	71.17
324.683	71.17
324.896	48.64
325.109	60.93
325.322	52.74
325.535	120.32
325.748	30.21
325.962	38.4
326.175	54.78
326.388	60.93
326.601	103.93
326.814	138.75
327.027	-25.09
327.24	38.4
327.453	-14.85
327.666	128.51
327.879	40.45
328.092	79.36
328.305	60.93
328.518	-8.7
328.731	77.31
328.944	62.98
329.157	36.35
329.37	108.03
329.583	44.54
329.796	56.83
330.009	28.16
330.222	79.36
330.435	19.97
330.648	120.32
330.861	89.6
331.073	44.54
331.286	48.64
331.499	58.88
331.712	9.73
331.925	79.36
332.138	130.56
332.35	22.02
332.563	15.87
332.776	38.4
332.989	17.92
333.202	89.6
333.414	30.21
333.627	60.93
333.84	24.06
334.053	91.65
334.265	-0.51
334.478	19.97
334.691	30.21
334.903	-6.66
335.116	-20.99
335.329	99.84
335.541	91.65
335.754	34.3
335.966	108.03
336.179	79.36
336.392	71.17
336.604	67.07
336.817	36.35
337.029	56.83
337.242	30.21
337.454	99.84
337.667	81.41
337.88	118.27
338.092	79.36
338.305	112.13
338.517	9.73
338.729	13.82
338.942	73.21
339.154	73.21
339.367	73.21
339.579	65.02
339.792	44.54
340.004	62.98
340.217	-92.67
340.429	19.97
340.641	5.63
340.854	87.55
341.066	52.74
341.278	75.26
341.491	97.79
341.703	75.26
341.915	40.45
342.128	89.6
342.34	38.4
342.552	-8.7
342.764	77.31
342.977	40.45
343.189	24.06
343.401	165.37
343.613	75.26
343.826	97.79
344.038	151.04
344.25	108.03
344.462	-12.8
344.674	79.36
344.886	54.78
345.099	40.45
345.311	38.4
345.523	19.97
345.735	54.78
345.947	60.93
346.159	58.88
346.371	7.68
346.583	-31.23
346.795	124.41
347.007	34.3
347.219	38.4
347.431	30.21
347.643	19.97
347.855	-23.04
348.067	40.45
348.279	65.02
348.491	48.64
348.703	93.69
348.915	79.36
349.127	5.63
349.339	-2.56
349.551	44.54
349.763	32.26
349.975	26.11
350.187	95.74
350.399	65.02
350.61	65.02
350.822	36.35
351.034	99.84
351.246	75.26
351.458	79.36
351.669	19.97
351.881	130.56
352.093	28.16
352.305	114.17
352.517	87.55
352.728	148.99
352.94	65.02
353.152	87.55
353.363	28.16
353.575	83.45
353.787	62.98
353.999	11.78
354.21	58.88
354.422	148.99
354.633	56.83
354.845	81.41
355.057	58.88
355.268	38.4
355.48	99.84
355.692	-2.56
355.903	36.35
356.115	81.41
356.326	11.78
356.538	148.99
356.749	56.83
356.961	38.4
357.172	110.08
357.384	97.79
357.595	77.31
357.807	93.69
358.018	42.5
358.23	58.88
358.441	81.41
358.653	97.79
358.864	58.88
359.075	58.88
359.287	99.84
359.498	95.74
359.709	48.64
359.921	54.78
360.132	58.88
360.344	40.45
360.555	58.88
360.766	71.17
360.977	26.11
361.189	75.26
361.4	50.69
361.611	32.26
361.823	87.55
362.034	79.36
362.245	-16.9
362.456	67.07
362.667	58.88
362.879	48.64
363.09	32.26
363.301	42.5
363.512	83.45
363.723	19.97
363.935	11.78
364.146	5.63
364.357	46.59
364.568	65.02
364.779	60.93
364.99	24.06
365.201	110.08
365.412	124.41
365.623	3.58
365.834	101.89
366.045	15.87
366.256	54.78
366.467	38.4
366.678	157.18
366.889	46.59
367.1	103.93
367.311	73.21
367.522	99.84
367.733	40.45
367.944	83.45
368.155	30.21
368.366	95.74
368.577	91.65
368.788	50.69
368.999	40.45
369.209	79.36
369.42	130.56
369.631	85.5
369.842	73.21
370.053	105.98
370.264	89.6
370.474	-37.38
370.685	122.37
370.896	89.6
371.107	71.17
371.317	73.21
371.528	69.12
371.739	38.4
371.95	42.5
372.16	15.87
372.371	62.98
372.582	124.41
372.792	83.45
373.003	124.41
373.214	71.17
373.424	71.17
373.635	-4.61
373.846	126.46
374.056	67.07
374.267	48.64
374.477	114.17
374.688	103.93
374.898	97.79
375.109	58.88
375.319	44.54
375.53	81.41
375.74	101.89
375.951	79.36
376.161	60.93
376.372	99.84
376.582	42.5
376.793	19.97
377.003	44.54
377.214	24.06
377.424	54.78
377.635	87.55
377.845	17.92
378.055	95.74
378.266	67.07
378.476	62.98
378.686	83.45
378.897	58.88
379.107	58.88
379.317	116.22
379.528	110.08
379.738	110.08
379.948	62.98
380.158	54.78
380.369	89.6
380.579	93.69
380.789	15.87
380.999	58.88
381.21	58.88
381.42	77.31
381.63	60.93
381.84	83.45
382.05	93.69
382.261	30.21
382.471	69.12
382.681	26.11
382.891	99.84
383.101	110.08
383.311	48.64
383.521	22.02
383.731	87.55
383.941	97.79
384.151	75.26
384.361	95.74
384.571	114.17
384.781	138.75
384.991	138.75
385.201	48.64
385.411	124.41
385.621	108.03
385.831	71.17
386.041	46.59
386.251	62.98
386.461	128.51
386.671	136.7
386.881	159.23
387.091	105.98
387.301	87.55
387.511	28.16
387.72	42.5
387.93	128.51
388.14	81.41
388.35	153.09
388.56	99.84
388.769	95.74
388.979	36.35
389.189	30.21
389.399	56.83
389.609	34.3
389.818	81.41
390.028	50.69
390.238	97.79
390.447	24.06
390.657	177.66
390.867	67.07
391.076	7.68
391.286	54.78
391.496	103.93
391.705	126.46
391.915	42.5
392.125	95.74
392.334	101.89
392.544	89.6
392.753	116.22
392.963	22.02
393.172	118.27
393.382	118.27
393.591	122.37
393.801	99.84
394.01	91.65
394.22	81.41
394.429	101.89
394.639	116.22
394.848	108.03
395.058	58.88
395.267	65.02
395.477	118.27
395.686	144.89
395.895	95.74
396.105	83.45
396.314	116.22
396.524	128.51
396.733	87.55
396.942	122.37
397.152	126.46
397.361	126.46
397.57	50.69
397.78	101.89
397.989	108.03
398.198	112.13
398.407	67.07
398.617	175.61
398.826	85.5
399.035	95.74
399.244	118.27
399.453	71.17
399.663	173.57
399.872	91.65
400.081	73.21
400.29	112.13
400.499	103.93
400.708	239.1
400.917	95.74
401.127	136.7
401.336	105.98
401.545	157.18
401.754	101.89
401.963	73.21
402.172	136.7
402.381	93.69
402.59	34.3
402.799	81.41
403.008	97.79
403.217	173.57
403.426	189.95
403.635	38.4
403.844	177.66
404.053	118.27
404.262	208.38
404.471	173.57
404.68	185.85
404.888	177.66
405.097	95.74
405.306	67.07
405.515	112.13
405.724	144.89
405.933	196.09
406.142	198.14
406.35	189.95
406.559	163.33
406.768	165.37
406.977	259.58
407.185	175.61
407.394	216.57
407.603	171.52
407.812	214.52
408.02	255.48
408.229	214.52
408.438	198.14
408.646	185.85
408.855	220.67
409.064	237.05
409.272	177.66
409.481	228.86
409.69	286.2
409.898	181.76
410.107	316.92
410.315	290.3
410.524	318.97
410.733	218.62
410.941	318.97
411.15	413.18
411.358	335.35
411.567	345.59
411.775	318.97
411.984	378.36
412.192	345.59
412.401	415.23
412.609	437.75
412.818	486.9
413.026	468.47
413.234	394.75
413.443	488.95
413.651	431.61
413.86	480.76
414.068	595.45
414.276	562.68
414.485	550.39
414.693	632.31
414.901	628.21
415.11	597.49
415.318	669.17
415.526	751.09
415.734	574.97
415.943	622.07
416.151	744.95
416.359	665.08
416.567	722.42
416.776	710.13
416.984	820.72
417.192	855.54
417.4	865.78
417.608	861.68
417.817	818.68
418.025	1000.94
418.233	1066.48
418.441	953.84
418.649	1007.09
418.857	1146.35
419.065	1086.96
419.273	1052.14
419.481	1222.13
419.689	1172.97
419.897	1310.19
420.105	1254.89
420.313	1334.76
420.521	1322.48
420.729	1377.77
420.937	1474.03
421.145	1539.56
421.353	1564.14
421.561	1689.06
421.769	1687.01
421.977	1834.47
422.185	1775.08
422.393	1818.08
422.601	1934.82
422.809	1848.8
423.017	2037.22
423.224	2024.93
423.432	2106.85
423.64	2072.03
423.848	2235.87
424.056	2276.83
424.263	2424.28
424.471	2577.88
424.679	2502.11
424.887	2547.16
425.094	2725.33
425.302	2645.46
425.51	2784.73
425.718	2883.03
425.925	2891.22
426.133	3063.25
426.341	3112.4
426.548	3306.96
426.756	3415.5
426.964	3343.82
427.171	3528.14
427.379	3708.36
427.586	3571.15
427.794	3800.52
428.001	4044.23
428.209	4148.67
428.417	4150.72
428.624	4451.77
428.832	4419
429.039	4474.3
429.247	4437.44
429.454	4707.77
429.662	5055.92
429.869	4748.73
430.076	5125.55
430.284	5068.21
430.491	5238.19
430.699	5592.49
430.906	5453.23
431.114	5703.08
431.321	5977.51
431.528	5860.77
431.736	6018.47
431.943	6372.77
432.15	6276.51
432.358	6493.6
432.565	6741.4
432.772	6743.45
432.979	7003.54
433.187	7275.92
433.394	7134.61
433.601	7615.88
433.808	7828.87
434.016	7611.79
434.223	7964.04
434.43	8684.92
434.637	8312.19
434.844	8682.88
435.052	9151.86
435.259	9061.75
435.466	8930.68
435.673	8961.4
435.88	9608.56
436.087	10020.2
436.294	10042.73
436.501	9938.28
436.708	9973.1
436.915	10302.82
437.122	10900.83
437.329	10722.65
437.537	11218.26
437.743	11375.95
437.95	11361.62
438.157	11892.04
438.364	12430.66
438.571	12223.81
438.778	12229.96
438.985	13282.61
439.192	13149.5
439.399	13276.47
439.606	13059.38
439.813	13743.41
440.02	14697.76
440.227	14425.38
440.433	14183.72
440.64	14718.24
440.847	14751.01
441.054	14898.46
441.261	15820.05
441.467	15582.48
441.674	15957.26
441.881	16792.83
442.088	16647.43
442.294	16334.09
442.501	16905.47
442.708	17173.75
442.914	17902.83
443.121	18719.97
443.328	18197.74
443.534	19547.35
443.741	18685.15
443.948	18842.85
444.154	19899.6
444.361	19860.69
444.568	19961.04
444.774	20391.11
444.981	20280.52
445.187	20987.07
445.394	21642.42
445.6	21423.29
445.807	23778.45
446.013	22590.63
446.22	22779.04
446.426	23983.25
446.633	24069.26
446.839	24859.78
447.046	23747.73
447.252	25267.33
447.459	25162.88
447.665	25265.28
447.871	26244.21
448.078	27419.74
448.284	26422.38
448.491	26913.89
448.697	27944.02
448.903	28263.5
449.11	28353.62
449.316	27925.59
449.522	28742.73
449.728	29365.31
449.935	29881.4
450.141	29621.31
450.347	30110.77
450.553	29269.06
450.76	29912.12
450.966	30745.64
451.172	30456.88
451.378	31058.98
451.584	30661.68
451.791	31210.53
451.997	31089.7
452.203	31978.52
452.409	31923.22
452.615	31872.03
452.821	30483.5
453.027	30348.34
453.233	31808.54
453.44	30510.13
453.646	31108.13
453.852	31048.74
454.058	31849.5
454.264	30501.93
454.47	31454.24
454.676	30755.88
454.882	31482.91
455.088	29109.32
455.294	29484.09
455.5	29725.75
455.705	30176.31
455.911	28877.9
456.117	28552.27
456.323	28523.6
456.529	26399.85
456.735	27868.25
456.941	27444.32
457.147	26705
457.352	25834.61
457.558	25660.54
457.764	25769.08
457.97	25259.13
458.176	24743.05
458.381	24689.8
458.587	23370.91
458.793	23256.22
458.999	22111.41
459.204	23798.93
459.41	23110.82
459.616	21402.81
459.821	21855.41
460.027	21714.1
460.233	20915.39
460.438	20118.73
460.644	20296.91
460.85	19793.11
461.055	19160.28
461.261	19037.41
461.466	17464.57
461.672	16971.01
461.878	18361.58
462.083	16895.23
462.289	16645.38
462.494	16522.5
462.7	15908.11
462.905	15340.82
463.111	16117
463.316	16067.85
463.522	15836.43
463.727	15848.72
463.932	15652.11
464.138	15586.58
464.343	15541.52
464.549	15234.33
464.754	15668.5
464.959	15398.17
465.165	15242.52
465.37	14808.35
465.575	14431.52
465.781	14796.06
465.986	14755.1
466.191	14462.24
466.397	14169.38
466.602	13587.76
466.807	13954.35
467.012	13751.6
467.218	14118.18
467.423	13587.76
467.628	13894.96
467.833	14349.61
