Data from USB4F104151__16__13-10-26-966.txt Node

Date: Fri Mar 14 13:10:26 EDT 2025
User: louis
Spectrometer: USB4F10415
Trigger mode: 4
Integration Time (sec): 2.000000E-2
Scans to average: 1
Electric dark correction enabled: true
Nonlinearity correction enabled: false
Boxcar width: 0
XAxis mode: Wavelengths
Number of Pixels in Spectrum: 3648
>>>>>Begin Spectral Data<<<<<
178.204	-103.08
178.424	-103.08
178.644	-103.08
178.864	-164.52
179.084	-70.31
179.304	-10.92
179.524	42.32
179.744	-74.41
179.964	32.08
180.184	-4.78
180.404	17.75
180.624	21.85
180.844	-66.22
181.064	-37.55
181.283	19.8
181.503	71
181.723	-10.92
181.943	-76.46
182.163	42.32
182.383	46.42
182.602	30.04
182.822	-21.16
183.042	-10.92
183.262	38.23
183.482	9.56
183.701	48.47
183.921	-8.87
184.141	-4.78
184.361	87.38
184.58	23.89
184.8	-25.26
185.02	1.37
185.239	40.28
185.459	15.7
185.679	25.94
185.898	-53.93
186.118	68.95
186.338	-15.02
186.557	77.14
186.777	-17.07
186.997	109.91
187.216	-15.02
187.436	68.95
187.655	36.18
187.875	56.66
188.095	5.46
188.314	50.52
188.534	87.38
188.753	40.28
188.973	15.7
189.192	54.61
189.412	13.65
189.631	-45.74
189.851	30.04
190.07	52.56
190.29	-74.41
190.509	-70.31
190.729	15.7
190.948	81.24
191.168	138.58
191.387	87.38
191.607	-64.17
191.826	77.14
192.045	79.19
192.265	-0.68
192.484	66.9
192.704	-10.92
192.923	30.04
193.142	77.14
193.362	11.61
193.581	79.19
193.8	-33.45
194.02	101.72
194.239	68.95
194.458	27.99
194.678	-12.97
194.897	11.61
195.116	19.8
195.335	46.42
195.555	60.76
195.774	15.7
195.993	-2.73
196.212	-0.68
196.432	-49.83
196.651	36.18
196.87	-6.83
197.089	109.91
197.308	56.66
197.528	46.42
197.747	-23.21
197.966	34.13
198.185	7.51
198.404	23.89
198.623	-39.59
198.842	11.61
199.062	-19.11
199.281	58.71
199.5	-6.83
199.719	-39.59
199.938	107.86
200.157	30.04
200.376	-12.97
200.595	44.37
200.814	-27.31
201.033	25.94
201.252	52.56
201.471	3.41
201.69	5.46
201.909	15.7
202.128	-15.02
202.347	-27.31
202.566	3.41
202.785	25.94
203.004	42.32
203.223	17.75
203.442	34.13
203.661	54.61
203.879	44.37
204.098	42.32
204.317	-15.02
204.536	-10.92
204.755	34.13
204.974	114
205.193	58.71
205.411	52.56
205.63	25.94
205.849	38.23
206.068	-29.35
206.287	-43.69
206.505	23.89
206.724	9.56
206.943	-35.5
207.162	50.52
207.381	95.57
207.599	-4.78
207.818	3.41
208.037	77.14
208.255	-17.07
208.474	-19.11
208.693	-21.16
208.911	-19.11
209.13	-4.78
209.349	50.52
209.567	81.24
209.786	128.34
210.005	-12.97
210.223	36.18
210.442	-17.07
210.661	32.08
210.879	32.08
211.098	42.32
211.316	-60.07
211.535	19.8
211.753	27.99
211.972	-23.21
212.191	-31.4
212.409	-2.73
212.628	11.61
212.846	5.46
213.065	11.61
213.283	21.85
213.502	-86.7
213.72	58.71
213.938	1.37
214.157	36.18
214.375	83.28
214.594	48.47
214.812	-49.83
215.031	-31.4
215.249	60.76
215.467	-10.92
215.686	-21.16
215.904	27.99
216.122	-86.7
216.341	58.71
216.559	-2.73
216.778	17.75
216.996	-2.73
217.214	62.8
217.432	-23.21
217.651	-12.97
217.869	-37.55
218.087	38.23
218.306	36.18
218.524	32.08
218.742	19.8
218.96	68.95
219.179	36.18
219.397	-37.55
219.615	-33.45
219.833	54.61
220.051	44.37
220.27	77.14
220.488	38.23
220.706	-12.97
220.924	30.04
221.142	13.65
221.36	7.51
221.578	79.19
221.796	77.14
222.015	-27.31
222.233	21.85
222.451	21.85
222.669	23.89
222.887	99.67
223.105	5.46
223.323	17.75
223.541	-45.74
223.759	36.18
223.977	-33.45
224.195	60.76
224.413	38.23
224.631	21.85
224.849	1.37
225.067	101.72
225.285	-17.07
225.503	-35.5
225.721	-74.41
225.939	25.94
226.157	25.94
226.375	66.9
226.592	19.8
226.81	101.72
227.028	-49.83
227.246	-0.68
227.464	27.99
227.682	30.04
227.9	34.13
228.117	56.66
228.335	-12.97
228.553	-8.87
228.771	-8.87
228.989	13.65
229.206	40.28
229.424	64.85
229.642	42.32
229.86	-27.31
230.077	23.89
230.295	-10.92
230.513	77.14
230.731	13.65
230.948	54.61
231.166	44.37
231.384	38.23
231.601	11.61
231.819	60.76
232.037	46.42
232.254	-41.64
232.472	68.95
232.689	68.95
232.907	81.24
233.125	-33.45
233.342	64.85
233.56	13.65
233.777	-6.83
233.995	-25.26
234.213	46.42
234.43	81.24
234.648	46.42
234.865	-6.83
235.083	91.48
235.3	1.37
235.518	48.47
235.735	60.76
235.953	21.85
236.17	-33.45
236.388	-27.31
236.605	42.32
236.822	103.76
237.04	38.23
237.257	64.85
237.475	58.71
237.692	23.89
237.909	11.61
238.127	-33.45
238.344	44.37
238.562	5.46
238.779	-2.73
238.996	-19.11
239.214	13.65
239.431	66.9
239.648	62.8
239.865	9.56
240.083	19.8
240.3	44.37
240.517	3.41
240.735	116.05
240.952	46.42
241.169	95.57
241.386	23.89
241.603	11.61
241.821	50.52
242.038	23.89
242.255	42.32
242.472	46.42
242.689	-62.12
242.907	-25.26
243.124	-21.16
243.341	-12.97
243.558	23.89
243.775	-27.31
243.992	21.85
244.209	-6.83
244.426	15.7
244.643	77.14
244.86	-45.74
245.078	3.41
245.295	-4.78
245.512	32.08
245.729	-62.12
245.946	56.66
246.163	-29.35
246.38	66.9
246.597	25.94
246.814	-25.26
247.031	-0.68
247.248	48.47
247.464	27.99
247.681	17.75
247.898	38.23
248.115	25.94
248.332	-0.68
248.549	3.41
248.766	71
248.983	109.91
249.2	17.75
249.417	15.7
249.633	-8.87
249.85	13.65
250.067	-27.31
250.284	19.8
250.501	3.41
250.717	30.04
250.934	-21.16
251.151	5.46
251.368	23.89
251.585	-51.88
251.801	44.37
252.018	-19.11
252.235	97.62
252.451	40.28
252.668	-17.07
252.885	46.42
253.102	101.72
253.318	-4.78
253.535	-12.97
253.752	38.23
253.968	50.52
254.185	-2.73
254.401	-33.45
254.618	-4.78
254.835	30.04
255.051	93.52
255.268	52.56
255.484	-2.73
255.701	42.32
255.917	85.33
256.134	-10.92
256.351	60.76
256.567	120.15
256.784	5.46
257	-2.73
257.217	54.61
257.433	-25.26
257.65	83.28
257.866	36.18
258.082	-53.93
258.299	-35.5
258.515	68.95
258.732	54.61
258.948	62.8
259.165	25.94
259.381	-2.73
259.597	62.8
259.814	-41.64
260.03	-0.68
260.246	85.33
260.463	52.56
260.679	15.7
260.895	32.08
261.112	48.47
261.328	38.23
261.544	-25.26
261.761	101.72
261.977	54.61
262.193	21.85
262.409	3.41
262.626	17.75
262.842	5.46
263.058	-60.07
263.274	23.89
263.49	19.8
263.707	-21.16
263.923	64.85
264.139	-4.78
264.355	-35.5
264.571	62.8
264.787	-33.45
265.004	109.91
265.22	21.85
265.436	11.61
265.652	30.04
265.868	25.94
266.084	-10.92
266.3	5.46
266.516	-4.78
266.732	44.37
266.948	-4.78
267.164	3.41
267.38	-21.16
267.596	50.52
267.812	83.28
268.028	99.67
268.244	1.37
268.46	32.08
268.676	-62.12
268.892	38.23
269.108	58.71
269.324	5.46
269.54	-12.97
269.756	83.28
269.972	42.32
270.188	1.37
270.403	-45.74
270.619	-8.87
270.835	30.04
271.051	9.56
271.267	-60.07
271.483	-21.16
271.698	-17.07
271.914	-8.87
272.13	5.46
272.346	15.7
272.562	32.08
272.777	52.56
272.993	-4.78
273.209	11.61
273.425	48.47
273.64	58.71
273.856	11.61
274.072	77.14
274.287	40.28
274.503	34.13
274.719	62.8
274.934	-10.92
275.15	-21.16
275.366	3.41
275.581	-55.98
275.797	64.85
276.012	-58.03
276.228	-37.55
276.444	-4.78
276.659	103.76
276.875	13.65
277.09	87.38
277.306	11.61
277.521	38.23
277.737	17.75
277.952	54.61
278.168	21.85
278.383	-12.97
278.599	-4.78
278.814	50.52
279.03	75.09
279.245	73.04
279.461	15.7
279.676	7.51
279.892	-21.16
280.107	50.52
280.322	19.8
280.538	27.99
280.753	36.18
280.969	19.8
281.184	46.42
281.399	46.42
281.615	30.04
281.83	52.56
282.045	-6.83
282.26	38.23
282.476	60.76
282.691	140.63
282.906	23.89
283.122	-0.68
283.337	-25.26
283.552	19.8
283.767	-60.07
283.983	83.28
284.198	-23.21
284.413	-17.07
284.628	-53.93
284.843	79.19
285.058	-4.78
285.274	34.13
285.489	-23.21
285.704	-10.92
285.919	-4.78
286.134	3.41
286.349	11.61
286.564	79.19
286.779	85.33
286.995	71
287.21	3.41
287.425	75.09
287.64	-17.07
287.855	54.61
288.07	48.47
288.285	52.56
288.5	17.75
288.715	7.51
288.93	19.8
289.145	87.38
289.36	27.99
289.575	-33.45
289.79	52.56
290.004	36.18
290.219	66.9
290.434	27.99
290.649	54.61
290.864	19.8
291.079	32.08
291.294	73.04
291.509	-10.92
291.724	50.52
291.938	1.37
292.153	-45.74
292.368	15.7
292.583	9.56
292.798	56.66
293.012	11.61
293.227	-21.16
293.442	60.76
293.657	64.85
293.871	81.24
294.086	36.18
294.301	62.8
294.516	30.04
294.73	3.41
294.945	-23.21
295.16	-8.87
295.374	32.08
295.589	11.61
295.804	7.51
296.018	87.38
296.233	17.75
296.447	-0.68
296.662	-64.17
296.877	77.14
297.091	21.85
297.306	-49.83
297.52	-12.97
297.735	-21.16
297.949	36.18
298.164	13.65
298.378	-8.87
298.593	38.23
298.807	-4.78
299.022	68.95
299.236	-15.02
299.451	9.56
299.665	-72.36
299.88	30.04
300.094	-15.02
300.309	13.65
300.523	42.32
300.737	71
300.952	23.89
301.166	36.18
301.381	15.7
301.595	60.76
301.809	60.76
302.024	25.94
302.238	-15.02
302.452	79.19
302.667	7.51
302.881	56.66
303.095	-0.68
303.309	79.19
303.524	34.13
303.738	-21.16
303.952	-10.92
304.166	77.14
304.381	34.13
304.595	73.04
304.809	-17.07
305.023	1.37
305.237	-2.73
305.452	27.99
305.666	-17.07
305.88	64.85
306.094	46.42
306.308	21.85
306.522	3.41
306.736	60.76
306.95	111.96
307.164	-15.02
307.379	27.99
307.593	54.61
307.807	64.85
308.021	95.57
308.235	13.65
308.449	71
308.663	7.51
308.877	77.14
309.091	-6.83
309.305	34.13
309.519	-51.88
309.733	34.13
309.947	-62.12
310.161	64.85
310.374	66.9
310.588	21.85
310.802	-17.07
311.016	60.76
311.23	-15.02
311.444	-29.35
311.658	-2.73
311.872	85.33
312.085	85.33
312.299	50.52
312.513	85.33
312.727	-55.98
312.941	62.8
313.154	58.71
313.368	71
313.582	89.43
313.796	11.61
314.009	40.28
314.223	-29.35
314.437	30.04
314.651	46.42
314.864	5.46
315.078	7.51
315.292	25.94
315.505	27.99
315.719	87.38
315.933	30.04
316.146	27.99
316.36	-4.78
316.573	-53.93
316.787	62.8
317.001	48.47
317.214	-53.93
317.428	60.76
317.641	15.7
317.855	50.52
318.068	36.18
318.282	-53.93
318.495	87.38
318.709	93.52
318.922	64.85
319.136	40.28
319.349	68.95
319.563	-39.59
319.776	-21.16
319.99	-47.79
320.203	109.91
320.417	11.61
320.63	40.28
320.843	13.65
321.057	5.46
321.27	81.24
321.483	5.46
321.697	3.41
321.91	11.61
322.124	38.23
322.337	66.9
322.55	32.08
322.763	71
322.977	21.85
323.19	9.56
323.403	44.37
323.617	62.8
323.83	27.99
324.043	42.32
324.256	-0.68
324.469	21.85
324.683	-10.92
324.896	36.18
325.109	13.65
325.322	1.37
325.535	111.96
325.748	-8.87
325.962	56.66
326.175	-53.93
326.388	71
326.601	7.51
326.814	-15.02
327.027	46.42
327.24	101.72
327.453	11.61
327.666	13.65
327.879	-0.68
328.092	36.18
328.305	13.65
328.518	27.99
328.731	36.18
328.944	56.66
329.157	-2.73
329.37	-10.92
329.583	9.56
329.796	46.42
330.009	44.37
330.222	68.95
330.435	40.28
330.648	62.8
330.861	32.08
331.073	77.14
331.286	124.24
331.499	-8.87
331.712	11.61
331.925	-45.74
332.138	-15.02
332.35	38.23
332.563	-70.31
332.776	116.05
332.989	-84.65
333.202	23.89
333.414	52.56
333.627	-51.88
333.84	9.56
334.053	68.95
334.265	-19.11
334.478	21.85
334.691	-39.59
334.903	-19.11
335.116	-10.92
335.329	7.51
335.541	38.23
335.754	91.48
335.966	-15.02
336.179	68.95
336.392	27.99
336.604	44.37
336.817	89.43
337.029	42.32
337.242	81.24
337.454	48.47
337.667	27.99
337.88	50.52
338.092	75.09
338.305	64.85
338.517	32.08
338.729	75.09
338.942	-29.35
339.154	56.66
339.367	-66.22
339.579	-0.68
339.792	71
340.004	68.95
340.217	46.42
340.429	-12.97
340.641	56.66
340.854	-2.73
341.066	-10.92
341.278	159.06
341.491	7.51
341.703	38.23
341.915	-0.68
342.128	89.43
342.34	1.37
342.552	21.85
342.764	25.94
342.977	21.85
343.189	52.56
343.401	15.7
343.613	3.41
343.826	54.61
344.038	-47.79
344.25	-41.64
344.462	71
344.674	54.61
344.886	44.37
345.099	93.52
345.311	-33.45
345.523	48.47
345.735	-37.55
345.947	-15.02
346.159	58.71
346.371	13.65
346.583	-39.59
346.795	32.08
347.007	-58.03
347.219	11.61
347.431	7.51
347.643	77.14
347.855	-47.79
348.067	7.51
348.279	1.37
348.491	-6.83
348.703	114
348.915	-15.02
349.127	32.08
349.339	36.18
349.551	54.61
349.763	46.42
349.975	3.41
350.187	46.42
350.399	46.42
350.61	-0.68
350.822	38.23
351.034	30.04
351.246	23.89
351.458	44.37
351.669	46.42
351.881	79.19
352.093	34.13
352.305	101.72
352.517	7.51
352.728	5.46
352.94	77.14
353.152	54.61
353.363	-10.92
353.575	9.56
353.787	50.52
353.999	54.61
354.21	66.9
354.422	73.04
354.633	9.56
354.845	60.76
355.057	62.8
355.268	71
355.48	34.13
355.692	30.04
355.903	-15.02
356.115	71
356.326	-25.26
356.538	23.89
356.749	60.76
356.961	3.41
357.172	27.99
357.384	19.8
357.595	-12.97
357.807	30.04
358.018	3.41
358.23	54.61
358.441	44.37
358.653	-17.07
358.864	85.33
359.075	46.42
359.287	-33.45
359.498	97.62
359.709	13.65
359.921	11.61
360.132	107.86
360.344	-29.35
360.555	32.08
360.766	17.75
360.977	27.99
361.189	73.04
361.4	-12.97
361.611	42.32
361.823	89.43
362.034	25.94
362.245	23.89
362.456	38.23
362.667	71
362.879	60.76
363.09	42.32
363.301	44.37
363.512	60.76
363.723	36.18
363.935	54.61
364.146	58.71
364.357	5.46
364.568	11.61
364.779	66.9
364.99	23.89
365.201	68.95
365.412	52.56
365.623	-4.78
365.834	93.52
366.045	7.51
366.256	95.57
366.467	19.8
366.678	130.39
366.889	83.28
367.1	48.47
367.311	38.23
367.522	-21.16
367.733	71
367.944	64.85
368.155	17.75
368.366	1.37
368.577	-17.07
368.788	97.62
368.999	-8.87
369.209	38.23
369.42	144.72
369.631	23.89
369.842	15.7
370.053	79.19
370.264	85.33
370.474	62.8
370.685	40.28
370.896	64.85
371.107	15.7
371.317	5.46
371.528	56.66
371.739	11.61
371.95	36.18
372.16	-12.97
372.371	40.28
372.582	52.56
372.792	58.71
373.003	62.8
373.214	-2.73
373.424	-12.97
373.635	34.13
373.846	54.61
374.056	44.37
374.267	-0.68
374.477	95.57
374.688	-15.02
374.898	68.95
375.109	19.8
375.319	36.18
375.53	40.28
375.74	52.56
375.951	17.75
376.161	48.47
376.372	142.68
376.582	79.19
376.793	-12.97
377.003	50.52
377.214	23.89
377.424	36.18
377.635	105.81
377.845	5.46
378.055	173.39
378.266	-4.78
378.476	87.38
378.686	64.85
378.897	71
379.107	17.75
379.317	3.41
379.528	15.7
379.738	3.41
379.948	-66.22
380.158	136.53
380.369	124.24
380.579	60.76
380.789	44.37
380.999	52.56
381.21	68.95
381.42	36.18
381.63	11.61
381.84	54.61
382.05	105.81
382.261	11.61
382.471	38.23
382.681	-8.87
382.891	77.14
383.101	95.57
383.311	-21.16
383.521	34.13
383.731	52.56
383.941	38.23
384.151	73.04
384.361	-12.97
384.571	71
384.781	64.85
384.991	130.39
385.201	-8.87
385.411	30.04
385.621	3.41
385.831	-17.07
386.041	-17.07
386.251	36.18
386.461	126.29
386.671	42.32
386.881	1.37
387.091	11.61
387.301	36.18
387.511	13.65
387.72	60.76
387.93	23.89
388.14	13.65
388.35	-6.83
388.56	83.28
388.769	46.42
388.979	83.28
389.189	15.7
389.399	60.76
389.609	-2.73
389.818	62.8
390.028	27.99
390.238	87.38
390.447	64.85
390.657	54.61
390.867	32.08
391.076	114
391.286	87.38
391.496	17.75
391.705	93.52
391.915	75.09
392.125	77.14
392.334	95.57
392.544	19.8
392.753	79.19
392.963	85.33
393.172	3.41
393.382	15.7
393.591	-0.68
393.801	36.18
394.01	116.05
394.22	124.24
394.429	44.37
394.639	11.61
394.848	130.39
395.058	23.89
395.267	58.71
395.477	169.3
395.686	95.57
395.895	128.34
396.105	124.24
396.314	25.94
396.524	52.56
396.733	13.65
396.942	71
397.152	136.53
397.361	130.39
397.57	11.61
397.78	52.56
397.989	48.47
398.198	154.96
398.407	138.58
398.617	111.96
398.826	91.48
399.035	56.66
399.244	105.81
399.453	15.7
399.663	165.2
399.872	132.44
400.081	56.66
400.29	142.68
400.499	40.28
400.708	62.8
400.917	75.09
401.127	46.42
401.336	99.67
401.545	118.1
401.754	54.61
401.963	105.81
402.172	109.91
402.381	120.15
402.59	101.72
402.799	120.15
403.008	71
403.217	130.39
403.426	107.86
403.635	216.4
403.844	161.11
404.053	150.87
404.262	58.71
404.471	130.39
404.68	103.76
404.888	136.53
405.097	73.04
405.306	111.96
405.515	114
405.724	97.62
405.933	103.76
406.142	167.25
406.35	171.35
406.559	128.34
406.768	81.24
406.977	167.25
407.185	83.28
407.394	120.15
407.603	132.44
407.812	187.73
408.02	171.35
408.229	228.69
408.438	226.64
408.646	138.58
408.855	152.92
409.064	238.93
409.272	240.98
409.481	265.55
409.69	230.74
409.898	234.83
410.107	347.47
410.315	347.47
410.524	251.22
410.733	240.98
410.941	361.81
411.15	367.95
411.358	292.18
411.567	281.94
411.775	343.38
411.984	349.52
412.192	331.09
412.401	384.34
412.609	480.59
412.818	439.63
413.026	349.52
413.234	447.82
413.443	511.31
413.651	421.2
413.86	515.41
414.068	453.97
414.276	544.08
414.485	531.79
414.693	619.85
414.901	554.32
415.11	666.96
415.318	564.56
415.526	634.19
415.734	611.66
415.943	675.15
416.151	691.53
416.359	726.35
416.567	707.91
416.776	689.48
416.984	847.18
417.192	810.31
417.4	773.45
417.608	847.18
417.817	894.28
418.025	916.81
418.233	943.43
418.441	853.32
418.649	1054.02
418.857	1043.78
419.065	1080.64
419.273	1045.83
419.481	1133.89
419.689	1183.04
419.897	1158.47
420.105	1228.1
420.313	1289.54
420.521	1363.26
420.729	1267.01
420.937	1451.33
421.145	1559.87
421.353	1545.53
421.561	1692.99
421.769	1588.54
421.977	1742.14
422.185	1666.36
422.393	1822.01
422.601	1928.5
422.809	1862.97
423.017	1928.5
423.224	2092.34
423.432	2164.02
423.64	2121.01
423.848	2379.06
424.056	2096.44
424.263	2401.58
424.471	2389.3
424.679	2452.78
424.887	2518.32
425.094	2610.48
425.302	2649.39
425.51	2762.03
425.718	2788.65
425.925	2897.19
426.133	2981.16
426.341	3206.44
426.548	3155.24
426.756	3292.45
426.964	3380.51
427.171	3484.96
427.379	3538.21
427.586	3792.16
427.794	3863.83
428.001	3900.7
428.209	4197.65
428.417	4044.06
428.624	4314.39
428.832	4168.98
429.039	4334.87
429.247	4398.35
429.454	4762.89
429.662	4859.15
429.869	4881.67
430.076	5002.51
430.284	4902.15
430.491	5004.55
430.699	5399.81
430.906	5485.83
431.114	5610.75
431.321	5786.88
431.528	5823.74
431.736	6208.76
431.943	6450.42
432.15	6407.41
432.358	6319.35
432.565	6812.91
432.772	6550.77
432.979	7116.01
433.187	7054.57
433.394	7077.1
433.601	7652.58
433.808	7658.72
434.016	7709.92
434.223	8047.83
434.43	8393.94
434.637	8457.43
434.844	8666.32
435.052	9006.28
435.259	9002.19
435.466	9069.77
435.673	9016.52
435.88	9555.14
436.087	10218.68
436.294	10112.19
436.501	9858.24
436.708	10079.42
436.915	10343.61
437.122	10759.35
437.329	10605.75
437.537	11087.02
437.743	11381.93
437.95	11232.43
438.157	11863.2
438.364	12121.24
438.571	12162.2
438.778	12364.95
438.985	13417.61
439.192	12596.37
439.399	13231.24
439.606	13036.69
439.813	13632.65
440.02	14427.26
440.227	14392.44
440.433	14003.33
440.64	14371.96
440.847	14564.47
441.054	14730.36
441.261	15756.39
441.467	15740.01
441.674	15928.42
441.881	16555.1
442.088	16452.7
442.294	16374.88
442.501	16632.92
442.708	17091.66
442.914	17720.39
443.121	18402.36
443.328	18127.94
443.534	19049.52
443.741	19016.76
443.948	18474.04
444.154	19930.15
444.361	19655.72
444.568	19815.46
444.774	19940.39
444.981	20077.6
445.187	20735
445.394	21408.78
445.6	21408.78
445.807	23325.68
446.013	22236.16
446.22	22950.9
446.426	23682.03
446.633	23991.27
446.839	24558.56
447.046	23849.96
447.252	25072.6
447.459	25072.6
447.665	24859.61
447.871	26258.37
448.078	27337.65
448.284	26092.49
448.491	26708.93
448.697	27892.65
448.903	28183.46
449.11	28437.41
449.316	27741.1
449.522	28289.96
449.728	28969.88
449.935	29635.47
450.141	29387.67
450.347	30026.64
450.553	29119.38
450.76	29336.47
450.966	30534.53
451.172	30032.78
451.378	31210.36
451.584	30337.93
451.791	30899.07
451.997	30903.17
452.203	31456.12
452.409	31644.53
452.615	31638.39
452.821	30557.06
453.027	30233.48
453.233	31656.82
453.44	30524.29
453.646	30616.45
453.852	31048.57
454.058	31202.17
454.264	30243.72
454.47	31196.03
454.676	30438.28
454.882	31339.38
455.088	28963.74
455.294	29053.85
455.5	29580.18
455.705	29778.83
455.911	28818.33
456.117	28187.56
456.323	27982.76
456.529	26571.71
456.735	27734.96
456.941	26778.56
457.147	26209.22
457.352	25351.12
457.558	25301.97
457.764	25039.83
457.97	24873.95
458.176	24464.35
458.381	24292.32
458.587	23221.24
458.793	23131.12
458.999	22150.15
459.204	23804.91
459.41	22834.17
459.616	21396.49
459.821	21441.55
460.027	21310.48
460.233	21083.16
460.438	20016.16
460.644	20126.75
460.85	19158.06
461.055	18973.75
461.261	19053.62
461.466	17470.54
461.672	16784.47
461.878	18449.47
462.083	16968.79
462.289	16548.95
462.494	16536.67
462.7	15805.54
462.905	15117.42
463.111	15690.85
463.316	15905.89
463.522	15549.54
463.727	15658.09
463.932	15576.17
464.138	15424.62
464.343	15185.01
464.549	14797.94
464.754	15344.75
464.959	15328.36
465.165	15387.75
465.37	14259.32
465.575	14511.22
465.781	14740.6
465.986	14754.93
466.191	14304.38
466.397	13882.5
466.602	13247.63
466.807	13767.81
467.012	13913.22
467.218	13876.35
467.423	13773.96
467.628	13495.43
