Data from USB4F104151__25__13-10-40-405.txt Node

Date: Fri Mar 14 13:10:40 EDT 2025
User: louis
Spectrometer: USB4F10415
Trigger mode: 4
Integration Time (sec): 2.000000E-2
Scans to average: 1
Electric dark correction enabled: true
Nonlinearity correction enabled: false
Boxcar width: 0
XAxis mode: Wavelengths
Number of Pixels in Spectrum: 3648
>>>>>Begin Spectral Data<<<<<
178.204	-0.17
178.424	-0.17
178.644	-0.17
178.864	-123.05
179.084	-110.76
179.304	-55.47
179.524	30.55
179.744	48.98
179.964	-6.31
180.184	5.97
180.404	-63.66
180.624	55.12
180.844	-12.46
181.064	-84.14
181.283	57.17
181.503	-16.55
181.723	40.79
181.943	-26.79
182.163	44.88
182.383	-12.46
182.602	14.17
182.822	42.84
183.042	-24.75
183.262	38.74
183.482	-22.7
183.701	-20.65
183.921	-32.94
184.141	48.98
184.361	-0.17
184.58	87.89
184.8	30.55
185.02	42.84
185.239	57.17
185.459	28.5
185.679	1.88
185.898	53.08
186.118	69.46
186.338	-24.75
186.557	34.64
186.777	40.79
186.997	26.45
187.216	-32.94
187.436	73.56
187.655	46.93
187.875	-39.08
188.095	28.5
188.314	114.52
188.534	16.21
188.753	36.69
188.973	10.07
189.192	106.32
189.412	26.45
189.631	-0.17
189.851	61.27
190.07	42.84
190.29	67.41
190.509	73.56
190.729	42.84
190.948	32.6
191.168	122.71
191.387	65.36
191.607	-6.31
191.826	24.4
192.045	104.28
192.265	26.45
192.484	75.6
192.704	55.12
192.923	-22.7
193.142	112.47
193.362	104.28
193.581	48.98
193.8	-32.94
194.02	63.32
194.239	46.93
194.458	1.88
194.678	18.26
194.897	65.36
195.116	12.12
195.335	3.93
195.555	-2.22
195.774	57.17
195.993	89.94
196.212	-2.22
196.432	-0.17
196.651	16.21
196.87	28.5
197.089	34.64
197.308	87.89
197.528	-22.7
197.747	-8.36
197.966	1.88
198.185	22.36
198.404	44.88
198.623	22.36
198.842	32.6
199.062	16.21
199.281	24.4
199.5	20.31
199.719	24.4
199.938	8.02
200.157	71.51
200.376	38.74
200.595	122.71
200.814	14.17
201.033	42.84
201.252	26.45
201.471	96.08
201.69	81.75
201.909	106.32
202.128	34.64
202.347	100.18
202.566	5.97
202.785	22.36
203.004	-20.65
203.223	77.65
203.442	44.88
203.661	-55.47
203.879	40.79
204.098	44.88
204.317	26.45
204.536	61.27
204.755	12.12
204.974	73.56
205.193	34.64
205.411	100.18
205.63	24.4
205.849	-14.51
206.068	8.02
206.287	8.02
206.505	91.99
206.724	100.18
206.943	-6.31
207.162	10.07
207.381	22.36
207.599	48.98
207.818	44.88
208.037	22.36
208.255	5.97
208.474	61.27
208.693	38.74
208.911	-16.55
209.13	3.93
209.349	20.31
209.567	24.4
209.786	46.93
210.005	100.18
210.223	-2.22
210.442	-37.03
210.661	147.28
210.879	71.51
211.098	10.07
211.316	46.93
211.535	-6.31
211.753	-28.84
211.972	69.46
212.191	18.26
212.409	69.46
212.628	63.32
212.846	-2.22
213.065	26.45
213.283	-20.65
213.502	3.93
213.72	28.5
213.938	18.26
214.157	165.71
214.375	46.93
214.594	75.6
214.812	22.36
215.031	59.22
215.249	48.98
215.467	51.03
215.686	61.27
215.904	145.24
216.122	79.7
216.341	32.6
216.559	14.17
216.778	-0.17
216.996	122.71
217.214	71.51
217.432	5.97
217.651	-8.36
217.869	-77.99
218.087	-47.27
218.306	26.45
218.524	14.17
218.742	26.45
218.96	63.32
219.179	36.69
219.397	48.98
219.615	91.99
219.833	85.84
220.051	-18.6
220.27	104.28
220.488	8.02
220.706	5.97
220.924	48.98
221.142	53.08
221.36	42.84
221.578	44.88
221.796	59.22
222.015	40.79
222.233	65.36
222.451	16.21
222.669	16.21
222.887	40.79
223.105	-24.75
223.323	16.21
223.541	18.26
223.759	-12.46
223.977	26.45
224.195	83.8
224.413	-4.27
224.631	38.74
224.849	32.6
225.067	75.6
225.285	42.84
225.503	-8.36
225.721	12.12
225.939	30.55
226.157	-47.27
226.375	112.47
226.592	44.88
226.81	71.51
227.028	40.79
227.246	77.65
227.464	75.6
227.682	69.46
227.9	30.55
228.117	30.55
228.335	61.27
228.553	-8.36
228.771	28.5
228.989	20.31
229.206	-4.27
229.424	16.21
229.642	-20.65
229.86	30.55
230.077	51.03
230.295	79.7
230.513	12.12
230.731	57.17
230.948	94.04
231.166	59.22
231.384	16.21
231.601	44.88
231.819	14.17
232.037	75.6
232.254	-82.09
232.472	32.6
232.689	28.5
232.907	1.88
233.125	-4.27
233.342	5.97
233.56	73.56
233.777	-26.79
233.995	116.56
234.213	73.56
234.43	-12.46
234.648	-4.27
234.865	-32.94
235.083	-8.36
235.3	32.6
235.518	57.17
235.735	61.27
235.953	87.89
236.17	67.41
236.388	61.27
236.605	10.07
236.822	83.8
237.04	40.79
237.257	-41.13
237.475	16.21
237.692	98.13
237.909	-39.08
238.127	87.89
238.344	-30.89
238.562	32.6
238.779	-41.13
238.996	55.12
239.214	40.79
239.431	71.51
239.648	10.07
239.865	28.5
240.083	81.75
240.3	-18.6
240.517	-24.75
240.735	59.22
240.952	-32.94
241.169	34.64
241.386	-0.17
241.603	24.4
241.821	149.33
242.038	-8.36
242.255	38.74
242.472	10.07
242.689	10.07
242.907	143.19
243.124	61.27
243.341	61.27
243.558	-14.51
243.775	32.6
243.992	-57.51
244.209	42.84
244.426	71.51
244.643	-12.46
244.86	-67.75
245.078	53.08
245.295	48.98
245.512	79.7
245.729	-12.46
245.946	184.15
246.163	59.22
246.38	83.8
246.597	10.07
246.814	-8.36
247.031	40.79
247.248	24.4
247.464	-28.84
247.681	-32.94
247.898	-37.03
248.115	18.26
248.332	-24.75
248.549	57.17
248.766	108.37
248.983	110.42
249.2	61.27
249.417	51.03
249.633	55.12
249.85	96.08
250.067	57.17
250.284	18.26
250.501	55.12
250.717	-2.22
250.934	-61.61
251.151	-8.36
251.368	44.88
251.585	69.46
251.801	40.79
252.018	48.98
252.235	30.55
252.451	51.03
252.668	1.88
252.885	42.84
253.102	24.4
253.318	18.26
253.535	57.17
253.752	-0.17
253.968	-49.32
254.185	32.6
254.401	-4.27
254.618	-2.22
254.835	44.88
255.051	38.74
255.268	106.32
255.484	1.88
255.701	-51.37
255.917	59.22
256.134	65.36
256.351	106.32
256.567	57.17
256.784	106.32
257	-22.7
257.217	32.6
257.433	-12.46
257.65	8.02
257.866	38.74
258.082	-24.75
258.299	-4.27
258.515	75.6
258.732	30.55
258.948	3.93
259.165	51.03
259.381	-0.17
259.597	44.88
259.814	59.22
260.03	69.46
260.246	16.21
260.463	42.84
260.679	96.08
260.895	18.26
261.112	18.26
261.328	-34.99
261.544	57.17
261.761	89.94
261.977	34.64
262.193	-0.17
262.409	36.69
262.626	32.6
262.842	69.46
263.058	-12.46
263.274	104.28
263.49	-6.31
263.707	32.6
263.923	77.65
264.139	-8.36
264.355	81.75
264.571	44.88
264.787	40.79
265.004	34.64
265.22	-28.84
265.436	69.46
265.652	-4.27
265.868	69.46
266.084	42.84
266.3	65.36
266.516	-34.99
266.732	51.03
266.948	69.46
267.164	46.93
267.38	18.26
267.596	65.36
267.812	75.6
268.028	10.07
268.244	16.21
268.46	-34.99
268.676	69.46
268.892	73.56
269.108	1.88
269.324	22.36
269.54	38.74
269.756	20.31
269.972	16.21
270.188	57.17
270.403	3.93
270.619	16.21
270.835	55.12
271.051	-2.22
271.267	44.88
271.483	83.8
271.698	36.69
271.914	48.98
272.13	-41.13
272.346	83.8
272.562	81.75
272.777	-2.22
272.993	77.65
273.209	26.45
273.425	48.98
273.64	3.93
273.856	-4.27
274.072	-12.46
274.287	28.5
274.503	-41.13
274.719	67.41
274.934	51.03
275.15	-39.08
275.366	-4.27
275.581	10.07
275.797	104.28
276.012	26.45
276.228	48.98
276.444	57.17
276.659	-0.17
276.875	46.93
277.09	10.07
277.306	71.51
277.521	98.13
277.737	20.31
277.952	24.4
278.168	28.5
278.383	1.88
278.599	-28.84
278.814	18.26
279.03	57.17
279.245	110.42
279.461	75.6
279.676	69.46
279.892	65.36
280.107	20.31
280.322	40.79
280.538	38.74
280.753	-69.8
280.969	65.36
281.184	67.41
281.399	51.03
281.615	20.31
281.83	-6.31
282.045	-39.08
282.26	40.79
282.476	-26.79
282.691	10.07
282.906	67.41
283.122	-12.46
283.337	8.02
283.552	-16.55
283.767	-24.75
283.983	67.41
284.198	-8.36
284.413	51.03
284.628	-12.46
284.843	46.93
285.058	65.36
285.274	85.84
285.489	-49.32
285.704	30.55
285.919	-41.13
286.134	3.93
286.349	-65.71
286.564	34.64
286.779	-14.51
286.995	-10.41
287.21	69.46
287.425	57.17
287.64	-16.55
287.855	55.12
288.07	30.55
288.285	24.4
288.5	89.94
288.715	28.5
288.93	-6.31
289.145	-26.79
289.36	1.88
289.575	28.5
289.79	-0.17
290.004	42.84
290.219	5.97
290.434	53.08
290.649	-59.56
290.864	40.79
291.079	1.88
291.294	38.74
291.509	57.17
291.724	-8.36
291.938	-24.75
292.153	-0.17
292.368	-2.22
292.583	28.5
292.798	3.93
293.012	79.7
293.227	32.6
293.442	10.07
293.657	-0.17
293.871	26.45
294.086	96.08
294.301	65.36
294.516	44.88
294.73	16.21
294.945	22.36
295.16	12.12
295.374	83.8
295.589	24.4
295.804	61.27
296.018	-32.94
296.233	53.08
296.447	79.7
296.662	53.08
296.877	32.6
297.091	67.41
297.306	-18.6
297.52	8.02
297.735	30.55
297.949	1.88
298.164	42.84
298.378	12.12
298.593	-6.31
298.807	-26.79
299.022	32.6
299.236	53.08
299.451	73.56
299.665	57.17
299.88	91.99
300.094	-2.22
300.309	-24.75
300.523	59.22
300.737	-6.31
300.952	63.32
301.166	51.03
301.381	26.45
301.595	79.7
301.809	-8.36
302.024	26.45
302.238	59.22
302.452	51.03
302.667	-14.51
302.881	94.04
303.095	-30.89
303.309	26.45
303.524	26.45
303.738	79.7
303.952	48.98
304.166	20.31
304.381	-32.94
304.595	108.37
304.809	10.07
305.023	10.07
305.237	16.21
305.452	94.04
305.666	-47.27
305.88	98.13
306.094	98.13
306.308	26.45
306.522	77.65
306.736	16.21
306.95	-16.55
307.164	36.69
307.379	3.93
307.593	65.36
307.807	48.98
308.021	10.07
308.235	51.03
308.449	-16.55
308.663	-20.65
308.877	100.18
309.091	112.47
309.305	65.36
309.519	-18.6
309.733	42.84
309.947	48.98
310.161	108.37
310.374	-14.51
310.588	67.41
310.802	55.12
311.016	-0.17
311.23	10.07
311.444	34.64
311.658	32.6
311.872	83.8
312.085	67.41
312.299	63.32
312.513	42.84
312.727	-8.36
312.941	-41.13
313.154	75.6
313.368	16.21
313.582	32.6
313.796	26.45
314.009	5.97
314.223	65.36
314.437	67.41
314.651	73.56
314.864	-20.65
315.078	98.13
315.292	67.41
315.505	48.98
315.719	-0.17
315.933	59.22
316.146	1.88
316.36	18.26
316.573	81.75
316.787	16.21
317.001	65.36
317.214	-0.17
317.428	32.6
317.641	22.36
317.855	85.84
318.068	34.64
318.282	44.88
318.495	57.17
318.709	-8.36
318.922	40.79
319.136	30.55
319.349	10.07
319.563	22.36
319.776	77.65
319.99	-77.99
320.203	94.04
320.417	-37.03
320.63	46.93
320.843	108.37
321.057	32.6
321.27	114.52
321.483	20.31
321.697	118.61
321.91	3.93
322.124	77.65
322.337	55.12
322.55	26.45
322.763	57.17
322.977	40.79
323.19	5.97
323.403	20.31
323.617	48.98
323.83	63.32
324.043	40.79
324.256	3.93
324.469	28.5
324.683	28.5
324.896	3.93
325.109	-53.42
325.322	53.08
325.535	96.08
325.748	77.65
325.962	73.56
326.175	-12.46
326.388	61.27
326.601	73.56
326.814	3.93
327.027	-6.31
327.24	108.37
327.453	-41.13
327.666	81.75
327.879	57.17
328.092	61.27
328.305	32.6
328.518	51.03
328.731	114.52
328.944	59.22
329.157	30.55
329.37	114.52
329.583	57.17
329.796	59.22
330.009	-22.7
330.222	69.46
330.435	51.03
330.648	28.5
330.861	5.97
331.073	89.94
331.286	26.45
331.499	-4.27
331.712	36.69
331.925	61.27
332.138	48.98
332.35	118.61
332.563	-14.51
332.776	73.56
332.989	34.64
333.202	16.21
333.414	53.08
333.627	55.12
333.84	-2.22
334.053	73.56
334.265	67.41
334.478	77.65
334.691	-10.41
334.903	24.4
335.116	-61.61
335.329	48.98
335.541	89.94
335.754	46.93
335.966	-51.37
336.179	8.02
336.392	48.98
336.604	53.08
336.817	28.5
337.029	48.98
337.242	30.55
337.454	69.46
337.667	1.88
337.88	65.36
338.092	10.07
338.305	24.4
338.517	-24.75
338.729	32.6
338.942	38.74
339.154	-2.22
339.367	10.07
339.579	46.93
339.792	94.04
340.004	-0.17
340.217	55.12
340.429	5.97
340.641	57.17
340.854	3.93
341.066	65.36
341.278	48.98
341.491	81.75
341.703	32.6
341.915	79.7
342.128	-4.27
342.34	-14.51
342.552	106.32
342.764	5.97
342.977	53.08
343.189	96.08
343.401	77.65
343.613	-51.37
343.826	1.88
344.038	53.08
344.25	100.18
344.462	65.36
344.674	67.41
344.886	59.22
345.099	16.21
345.311	87.89
345.523	79.7
345.735	5.97
345.947	73.56
346.159	8.02
346.371	12.12
346.583	42.84
346.795	51.03
347.007	46.93
347.219	38.74
347.431	44.88
347.643	137.04
347.855	-8.36
348.067	-18.6
348.279	32.6
348.491	65.36
348.703	16.21
348.915	-0.17
349.127	30.55
349.339	100.18
349.551	63.32
349.763	83.8
349.975	38.74
350.187	8.02
350.399	165.71
350.61	30.55
350.822	53.08
351.034	46.93
351.246	83.8
351.458	57.17
351.669	69.46
351.881	114.52
352.093	85.84
352.305	77.65
352.517	69.46
352.728	83.8
352.94	14.17
353.152	55.12
353.363	-53.42
353.575	48.98
353.787	32.6
353.999	57.17
354.21	44.88
354.422	-10.41
354.633	18.26
354.845	91.99
355.057	20.31
355.268	42.84
355.48	28.5
355.692	55.12
355.903	34.64
356.115	59.22
356.326	-6.31
356.538	114.52
356.749	51.03
356.961	32.6
357.172	-49.32
357.384	22.36
357.595	81.75
357.807	16.21
358.018	51.03
358.23	44.88
358.441	44.88
358.653	22.36
358.864	-0.17
359.075	42.84
359.287	16.21
359.498	5.97
359.709	65.36
359.921	-8.36
360.132	65.36
360.344	51.03
360.555	34.64
360.766	55.12
360.977	53.08
361.189	63.32
361.4	98.13
361.611	98.13
361.823	122.71
362.034	83.8
362.245	26.45
362.456	57.17
362.667	16.21
362.879	51.03
363.09	40.79
363.301	-37.03
363.512	65.36
363.723	42.84
363.935	79.7
364.146	65.36
364.357	44.88
364.568	24.4
364.779	-45.23
364.99	89.94
365.201	98.13
365.412	116.56
365.623	59.22
365.834	67.41
366.045	67.41
366.256	98.13
366.467	16.21
366.678	30.55
366.889	53.08
367.1	118.61
367.311	87.89
367.522	61.27
367.733	36.69
367.944	98.13
368.155	48.98
368.366	63.32
368.577	130.9
368.788	85.84
368.999	65.36
369.209	120.66
369.42	57.17
369.631	143.19
369.842	65.36
370.053	-12.46
370.264	71.51
370.474	91.99
370.685	16.21
370.896	65.36
371.107	124.76
371.317	130.9
371.528	36.69
371.739	-34.99
371.95	48.98
372.16	69.46
372.371	26.45
372.582	8.02
372.792	67.41
373.003	44.88
373.214	-32.94
373.424	112.47
373.635	28.5
373.846	130.9
374.056	-8.36
374.267	14.17
374.477	98.13
374.688	8.02
374.898	34.64
375.109	26.45
375.319	44.88
375.53	28.5
375.74	147.28
375.951	32.6
376.161	1.88
376.372	59.22
376.582	-49.32
376.793	98.13
377.003	-20.65
377.214	12.12
377.424	57.17
377.635	73.56
377.845	46.93
378.055	34.64
378.266	65.36
378.476	46.93
378.686	16.21
378.897	71.51
379.107	153.43
379.317	8.02
379.528	118.61
379.738	20.31
379.948	-22.7
380.158	102.23
380.369	18.26
380.579	57.17
380.789	-4.27
380.999	48.98
381.21	83.8
381.42	67.41
381.63	16.21
381.84	89.94
382.05	100.18
382.261	24.4
382.471	28.5
382.681	-32.94
382.891	10.07
383.101	24.4
383.311	75.6
383.521	36.69
383.731	16.21
383.941	71.51
384.151	81.75
384.361	48.98
384.571	14.17
384.781	94.04
384.991	79.7
385.201	51.03
385.411	59.22
385.621	69.46
385.831	118.61
386.041	85.84
386.251	10.07
386.461	51.03
386.671	-20.65
386.881	114.52
387.091	-10.41
387.301	69.46
387.511	22.36
387.72	100.18
387.93	118.61
388.14	-6.31
388.35	30.55
388.56	104.28
388.769	16.21
388.979	114.52
389.189	-51.37
389.399	48.98
389.609	96.08
389.818	89.94
390.028	96.08
390.238	120.66
390.447	46.93
390.657	102.23
390.867	38.74
391.076	71.51
391.286	98.13
391.496	53.08
391.705	-47.27
391.915	118.61
392.125	5.97
392.334	98.13
392.544	137.04
392.753	14.17
392.963	48.98
393.172	57.17
393.382	75.6
393.591	63.32
393.801	48.98
394.01	87.89
394.22	59.22
394.429	87.89
394.639	32.6
394.848	145.24
395.058	79.7
395.267	59.22
395.477	85.84
395.686	-6.31
395.895	75.6
396.105	155.47
396.314	112.47
396.524	69.46
396.733	75.6
396.942	94.04
397.152	36.69
397.361	36.69
397.57	28.5
397.78	108.37
397.989	77.65
398.198	143.19
398.407	73.56
398.617	38.74
398.826	96.08
399.035	94.04
399.244	147.28
399.453	102.23
399.663	141.14
399.872	75.6
400.081	98.13
400.29	89.94
400.499	51.03
400.708	124.76
400.917	132.95
401.127	61.27
401.336	51.03
401.545	57.17
401.754	96.08
401.963	128.85
402.172	75.6
402.381	85.84
402.59	106.32
402.799	81.75
403.008	89.94
403.217	75.6
403.426	91.99
403.635	57.17
403.844	36.69
404.053	208.72
404.262	94.04
404.471	126.8
404.68	163.67
404.888	137.04
405.097	178
405.306	163.67
405.515	106.32
405.724	124.76
405.933	171.86
406.142	155.47
406.35	169.81
406.559	91.99
406.768	141.14
406.977	243.54
407.185	227.15
407.394	147.28
407.603	147.28
407.812	202.58
408.02	214.87
408.229	198.48
408.438	169.81
408.646	173.91
408.855	221.01
409.064	186.19
409.272	192.34
409.481	319.31
409.69	239.44
409.898	237.39
410.107	259.92
410.315	327.5
410.524	304.98
410.733	317.26
410.941	333.65
411.15	315.22
411.358	323.41
411.567	407.38
411.775	374.61
411.984	399.18
412.192	444.24
412.401	409.42
412.609	479.05
412.818	577.36
413.026	393.04
413.234	352.08
413.443	477.01
413.651	511.82
413.86	497.49
414.068	505.68
414.276	575.31
414.485	483.15
414.693	550.73
414.901	630.6
415.11	616.27
415.318	610.12
415.526	657.23
415.734	685.9
415.943	751.43
416.151	696.14
416.359	634.7
416.567	853.83
416.776	800.59
416.984	890.7
417.192	870.22
417.4	878.41
417.608	821.06
417.817	878.41
418.025	876.36
418.233	1042.25
418.441	859.98
418.649	968.52
418.857	1062.73
419.065	1130.31
419.273	1068.87
419.481	1111.88
419.689	1179.46
419.897	1265.47
420.105	1290.05
420.313	1455.94
420.521	1369.92
420.729	1367.87
420.937	1392.45
421.145	1425.22
421.353	1544
421.561	1638.2
421.769	1582.91
421.977	1789.75
422.185	1761.08
422.393	1875.77
422.601	1918.78
422.809	1924.92
423.017	2092.85
423.224	2088.76
423.432	2135.86
423.64	2178.87
423.848	2385.71
424.056	2293.55
424.263	2441.01
424.471	2502.45
424.679	2455.34
424.887	2631.47
425.094	2733.87
425.302	2850.6
425.51	2834.22
425.718	2946.86
425.925	2899.75
426.133	3145.51
426.341	3190.56
426.548	3436.32
426.756	3454.75
426.964	3442.46
427.171	3596.06
427.379	3653.41
427.586	3809.05
427.794	3882.78
428.001	4071.19
428.209	4224.79
428.417	4237.08
428.624	4531.98
428.832	4570.9
429.039	4493.07
429.247	4499.22
429.454	4812.56
429.662	5062.41
429.869	4808.46
430.076	5304.07
430.284	4992.78
430.491	5281.54
430.699	5572.35
430.906	5547.78
431.114	5869.31
431.321	5861.12
431.528	5981.95
431.736	6391.54
431.943	6670.06
432.15	6420.21
432.358	6625.01
432.565	6960.88
432.772	6874.86
432.979	7272.17
433.187	7519.97
433.394	7370.47
433.601	7913.18
433.808	8089.31
434.016	7890.65
434.223	8214.23
434.43	8564.43
434.637	8609.49
434.844	9023.18
435.052	9201.35
435.259	9105.1
435.466	9270.98
435.673	9168.59
435.88	9731.78
436.087	10059.45
436.294	10221.24
436.501	9979.58
436.708	10518.2
436.915	10772.14
437.122	11015.85
437.329	11146.92
437.537	11361.96
437.743	11744.93
437.95	11503.27
438.157	12050.08
438.364	12664.47
438.571	12484.25
438.778	12449.43
438.985	13831.81
439.192	13305.48
439.399	13532.81
439.606	13334.15
439.813	13969.02
440.02	15068.78
440.227	14734.96
440.433	14665.33
440.64	15148.65
440.847	15181.42
441.054	15226.48
441.261	16223.84
441.467	16297.56
441.674	16535.13
441.881	17100.37
442.088	17098.32
442.294	16768.6
442.501	17251.92
442.708	17761.86
442.914	18368.06
443.121	19119.67
443.328	18730.55
443.534	19908.13
443.741	19621.42
443.948	19240.5
444.154	20538.91
444.361	20450.85
444.568	20461.09
444.774	20536.86
444.981	20788.76
445.187	21392.91
445.394	22388.22
445.6	22115.84
445.807	24126.95
446.013	23145.97
446.22	23768.55
446.426	24896.99
446.633	24716.76
446.839	25812.43
447.046	24575.45
447.252	25855.43
447.459	26209.73
447.665	25837
447.871	27153.85
448.078	28157.35
448.284	26953.15
448.491	27696.56
448.697	28853.66
448.903	29318.55
449.11	28954.01
449.316	28951.96
449.522	29541.78
449.728	30291.34
449.935	30418.31
450.141	30592.39
450.347	31278.46
450.553	30301.57
450.76	30758.27
450.966	31481.2
451.172	31387
451.378	32406.89
451.584	31350.13
451.791	32705.89
451.997	32255.34
452.203	32929.12
452.409	32826.72
452.615	32361.83
452.821	31735.15
453.027	31268.22
453.233	33060.19
453.44	31806.83
453.646	32140.65
453.852	31980.91
454.058	32861.54
454.264	31874.41
454.47	32621.92
454.676	31710.58
454.882	32791.9
455.088	29990.28
455.294	30279.05
455.5	31102.33
455.705	31323.51
455.911	30014.86
456.117	29500.82
456.323	28880.28
456.529	27661.74
456.735	28792.22
456.941	28063.15
457.147	27534.77
457.352	26860.99
457.558	26465.73
457.764	26549.7
457.97	25998.79
458.176	25650.64
458.381	25556.43
458.587	24126.95
458.793	24464.86
458.999	22988.28
459.204	24563.17
459.41	23946.73
459.616	22613.5
459.821	22547.97
460.027	22308.35
460.233	21777.93
460.438	20909.59
460.644	21038.61
460.85	20352.54
461.055	19875.37
461.261	19842.6
461.466	18345.53
461.672	17559.11
461.878	18785.85
462.083	17890.88
462.289	17589.83
462.494	17358.41
462.7	16328.28
462.905	15844.96
463.111	16504.41
463.316	16658.01
463.522	16354.91
463.727	16133.73
463.932	16334.43
464.138	16023.14
464.343	16328.28
464.549	15564.39
464.754	16270.94
464.959	15902.31
465.165	15763.04
465.37	15328.88
465.575	14726.77
465.781	15607.4
465.986	15623.78
466.191	14829.17
466.397	14724.72
466.602	13946.5
466.807	14478.97
467.012	14481.02
467.218	14415.48
467.423	14333.56
467.628	14245.5
467.833	15097.45
