Data from USB4F104151__83__13-12-35-313.txt Node

Date: Fri Mar 14 13:12:35 EDT 2025
User: louis
Spectrometer: USB4F10415
Trigger mode: 4
Integration Time (sec): 2.000000E-2
Scans to average: 1
Electric dark correction enabled: true
Nonlinearity correction enabled: false
Boxcar width: 0
XAxis mode: Wavelengths
Number of Pixels in Spectrum: 3648
>>>>>Begin Spectral Data<<<<<
178.204	-85.16
178.424	-85.16
178.644	-85.16
178.864	-74.92
179.084	-109.74
179.304	37.72
179.524	19.29
179.744	-54.44
179.964	-29.87
180.184	-58.54
180.404	2.9
180.624	-68.78
180.844	4.95
181.064	82.77
181.283	2.9
181.503	62.29
181.723	-1.19
181.943	29.52
182.163	2.9
182.383	-25.77
182.602	35.67
182.822	-25.77
183.042	-9.39
183.262	7
183.482	23.38
183.701	19.29
183.921	2.9
184.141	-91.31
184.361	21.33
184.58	7
184.8	-58.54
185.02	-62.63
185.239	35.67
185.459	0.85
185.679	15.19
185.898	-40.11
186.118	-9.39
186.338	-21.67
186.557	4.95
186.777	-44.2
186.997	-17.58
187.216	25.43
187.436	35.67
187.655	33.62
187.875	17.24
188.095	9.05
188.314	35.67
188.534	19.29
188.753	-25.77
188.973	-11.43
189.192	-42.15
189.412	60.24
189.631	-27.82
189.851	-79.02
190.07	27.48
190.29	2.9
190.509	95.06
190.729	7
190.948	-76.97
191.168	7
191.387	2.9
191.607	27.48
191.826	4.95
192.045	-44.2
192.265	-19.63
192.484	58.2
192.704	78.68
192.923	-79.02
193.142	76.63
193.362	9.05
193.581	50
193.8	76.63
194.02	35.67
194.239	-38.06
194.458	-13.48
194.678	37.72
194.897	-19.63
195.116	-1.19
195.335	60.24
195.555	-7.34
195.774	-11.43
195.993	58.2
196.212	43.86
196.432	0.85
196.651	-19.63
196.87	-25.77
197.089	113.49
197.308	39.76
197.528	78.68
197.747	2.9
197.966	-27.82
198.185	-5.29
198.404	70.48
198.623	-70.83
198.842	21.33
199.062	58.2
199.281	64.34
199.5	-31.91
199.719	56.15
199.938	-7.34
200.157	43.86
200.376	-56.49
200.595	4.95
200.814	-46.25
201.033	29.52
201.252	27.48
201.471	90.96
201.69	7
201.909	7
202.128	-29.87
202.347	-13.48
202.566	39.76
202.785	-25.77
203.004	-15.53
203.223	129.88
203.442	9.05
203.661	-38.06
203.879	-3.24
204.098	93.01
204.317	-56.49
204.536	-15.53
204.755	-13.48
204.974	19.29
205.193	-3.24
205.411	58.2
205.63	-19.63
205.849	-21.67
206.068	35.67
206.287	7
206.505	52.05
206.724	35.67
206.943	-42.15
207.162	21.33
207.381	-3.24
207.599	-81.07
207.818	-36.01
208.037	-62.63
208.255	-36.01
208.474	2.9
208.693	7
208.911	15.19
209.13	29.52
209.349	-31.91
209.567	60.24
209.786	78.68
210.005	41.81
210.223	21.33
210.442	-72.87
210.661	50
210.879	-13.48
211.098	43.86
211.316	-44.2
211.535	-3.24
211.753	21.33
211.972	-29.87
212.191	35.67
212.409	41.81
212.628	-5.29
212.846	43.86
213.065	37.72
213.283	45.91
213.502	13.14
213.72	19.29
213.938	17.24
214.157	21.33
214.375	-9.39
214.594	-13.48
214.812	60.24
215.031	27.48
215.249	-3.24
215.467	27.48
215.686	-23.72
215.904	-3.24
216.122	-15.53
216.341	13.14
216.559	27.48
216.778	37.72
216.996	17.24
217.214	60.24
217.432	39.76
217.651	97.11
217.869	35.67
218.087	29.52
218.306	-17.58
218.524	60.24
218.742	33.62
218.96	2.9
219.179	-46.25
219.397	37.72
219.615	21.33
219.833	-19.63
220.051	-11.43
220.27	70.48
220.488	-64.68
220.706	27.48
220.924	4.95
221.142	41.81
221.36	-13.48
221.578	25.43
221.796	7
222.015	-42.15
222.233	43.86
222.451	11.09
222.669	-23.72
222.887	-36.01
223.105	-9.39
223.323	52.05
223.541	52.05
223.759	9.05
223.977	13.14
224.195	-1.19
224.413	2.9
224.631	-17.58
224.849	23.38
225.067	78.68
225.285	2.9
225.503	-27.82
225.721	-44.2
225.939	-9.39
226.157	23.38
226.375	97.11
226.592	-50.35
226.81	13.14
227.028	-19.63
227.246	60.24
227.464	25.43
227.682	-5.29
227.9	62.29
228.117	-3.24
228.335	15.19
228.553	47.96
228.771	-76.97
228.989	-15.53
229.206	23.38
229.424	-33.96
229.642	11.09
229.86	19.29
230.077	7
230.295	-9.39
230.513	17.24
230.731	35.67
230.948	33.62
231.166	45.91
231.384	-23.72
231.601	82.77
231.819	7
232.037	-1.19
232.254	-36.01
232.472	-54.44
232.689	27.48
232.907	7
233.125	52.05
233.342	-29.87
233.56	-27.82
233.777	-5.29
233.995	76.63
234.213	0.85
234.43	33.62
234.648	-58.54
234.865	-23.72
235.083	2.9
235.3	-1.19
235.518	23.38
235.735	-25.77
235.953	60.24
236.17	-19.63
236.388	-23.72
236.605	-29.87
236.822	37.72
237.04	-7.34
237.257	-62.63
237.475	-21.67
237.692	-40.11
237.909	7
238.127	39.76
238.344	27.48
238.562	-15.53
238.779	-74.92
238.996	21.33
239.214	-38.06
239.431	39.76
239.648	23.38
239.865	-42.15
240.083	64.34
240.3	-115.88
240.517	41.81
240.735	4.95
240.952	21.33
241.169	-1.19
241.386	25.43
241.603	-7.34
241.821	-19.63
242.038	64.34
242.255	19.29
242.472	-107.69
242.689	-54.44
242.907	21.33
243.124	76.63
243.341	-9.39
243.558	21.33
243.775	-70.83
243.992	2.9
244.209	56.15
244.426	-36.01
244.643	23.38
244.86	-23.72
245.078	-48.3
245.295	11.09
245.512	72.53
245.729	21.33
245.946	35.67
246.163	21.33
246.38	19.29
246.597	-19.63
246.814	52.05
247.031	-40.11
247.248	-46.25
247.464	54.1
247.681	-27.82
247.898	-48.3
248.115	-21.67
248.332	19.29
248.549	39.76
248.766	90.96
248.983	11.09
249.2	-38.06
249.417	45.91
249.633	-42.15
249.85	-27.82
250.067	-44.2
250.284	15.19
250.501	-44.2
250.717	0.85
250.934	-29.87
251.151	-103.59
251.368	54.1
251.585	111.44
251.801	41.81
252.018	-46.25
252.235	-36.01
252.451	-38.06
252.668	-60.59
252.885	-46.25
253.102	29.52
253.318	21.33
253.535	15.19
253.752	7
253.968	25.43
254.185	-44.2
254.401	2.9
254.618	62.29
254.835	-27.82
255.051	19.29
255.268	11.09
255.484	43.86
255.701	-25.77
255.917	50
256.134	-68.78
256.351	2.9
256.567	78.68
256.784	-11.43
257	0.85
257.217	45.91
257.433	39.76
257.65	11.09
257.866	21.33
258.082	-13.48
258.299	-7.34
258.515	-79.02
258.732	-3.24
258.948	-19.63
259.165	27.48
259.381	21.33
259.597	70.48
259.814	-1.19
260.03	-25.77
260.246	-17.58
260.463	86.87
260.679	33.62
260.895	-19.63
261.112	-33.96
261.328	-50.35
261.544	15.19
261.761	52.05
261.977	9.05
262.193	-50.35
262.409	13.14
262.626	-91.31
262.842	-9.39
263.058	-79.02
263.274	29.52
263.49	-11.43
263.707	4.95
263.923	-70.83
264.139	-11.43
264.355	21.33
264.571	23.38
264.787	66.39
265.004	-13.48
265.22	50
265.436	4.95
265.652	101.2
265.868	-27.82
266.084	25.43
266.3	-48.3
266.516	56.15
266.732	-42.15
266.948	23.38
267.164	-3.24
267.38	-11.43
267.596	45.91
267.812	78.68
268.028	-7.34
268.244	-21.67
268.46	-3.24
268.676	-25.77
268.892	37.72
269.108	-33.96
269.324	-115.88
269.54	-7.34
269.756	-19.63
269.972	2.9
270.188	15.19
270.403	-7.34
270.619	21.33
270.835	-38.06
271.051	-9.39
271.267	0.85
271.483	-13.48
271.698	-3.24
271.914	-60.59
272.13	60.24
272.346	19.29
272.562	23.38
272.777	70.48
272.993	-50.35
273.209	-11.43
273.425	-3.24
273.64	-38.06
273.856	-11.43
274.072	-3.24
274.287	-50.35
274.503	4.95
274.719	13.14
274.934	-1.19
275.15	-19.63
275.366	9.05
275.581	-46.25
275.797	-29.87
276.012	-29.87
276.228	2.9
276.444	-5.29
276.659	13.14
276.875	-7.34
277.09	-27.82
277.306	-40.11
277.521	21.33
277.737	-3.24
277.952	27.48
278.168	27.48
278.383	2.9
278.599	-11.43
278.814	-25.77
279.03	4.95
279.245	-1.19
279.461	-25.77
279.676	13.14
279.892	-1.19
280.107	35.67
280.322	-21.67
280.538	27.48
280.753	13.14
280.969	-11.43
281.184	-19.63
281.399	95.06
281.615	56.15
281.83	-19.63
282.045	-5.29
282.26	-50.35
282.476	-23.72
282.691	-62.63
282.906	-42.15
283.122	78.68
283.337	31.57
283.552	17.24
283.767	-11.43
283.983	-52.39
284.198	13.14
284.413	58.2
284.628	-46.25
284.843	15.19
285.058	11.09
285.274	50
285.489	21.33
285.704	-42.15
285.919	-56.49
286.134	-3.24
286.349	-17.58
286.564	13.14
286.779	70.48
286.995	-42.15
287.21	-54.44
287.425	-5.29
287.64	-60.59
287.855	-17.58
288.07	-36.01
288.285	25.43
288.5	27.48
288.715	23.38
288.93	-11.43
289.145	15.19
289.36	9.05
289.575	13.14
289.79	31.57
290.004	-54.44
290.219	27.48
290.434	74.58
290.649	11.09
290.864	-107.69
291.079	-54.44
291.294	-11.43
291.509	19.29
291.724	11.09
291.938	-79.02
292.153	4.95
292.368	-38.06
292.583	99.16
292.798	11.09
293.012	27.48
293.227	2.9
293.442	43.86
293.657	105.3
293.871	50
294.086	37.72
294.301	88.92
294.516	-15.53
294.73	72.53
294.945	-52.39
295.16	4.95
295.374	52.05
295.589	68.44
295.804	-9.39
296.018	37.72
296.233	15.19
296.447	9.05
296.662	-46.25
296.877	-21.67
297.091	37.72
297.306	-21.67
297.52	19.29
297.735	31.57
297.949	0.85
298.164	-15.53
298.378	4.95
298.593	-29.87
298.807	-36.01
299.022	-36.01
299.236	39.76
299.451	-17.58
299.665	39.76
299.88	-91.31
300.094	58.2
300.309	31.57
300.523	-3.24
300.737	-5.29
300.952	-21.67
301.166	-13.48
301.381	-21.67
301.595	-13.48
301.809	-48.3
302.024	-95.4
302.238	-25.77
302.452	7
302.667	-9.39
302.881	13.14
303.095	35.67
303.309	54.1
303.524	-97.45
303.738	-44.2
303.952	-38.06
304.166	17.24
304.381	-56.49
304.595	41.81
304.809	47.96
305.023	33.62
305.237	84.82
305.452	-54.44
305.666	52.05
305.88	25.43
306.094	-25.77
306.308	62.29
306.522	-33.96
306.736	29.52
306.95	21.33
307.164	15.19
307.379	29.52
307.593	37.72
307.807	-36.01
308.021	66.39
308.235	11.09
308.449	-9.39
308.663	31.57
308.877	0.85
309.091	-11.43
309.305	43.86
309.519	-48.3
309.733	-50.35
309.947	-50.35
310.161	-27.82
310.374	23.38
310.588	33.62
310.802	-56.49
311.016	-70.83
311.23	29.52
311.444	-13.48
311.658	68.44
311.872	76.63
312.085	-17.58
312.299	70.48
312.513	21.33
312.727	37.72
312.941	-5.29
313.154	68.44
313.368	-42.15
313.582	50
313.796	-7.34
314.009	-25.77
314.223	-36.01
314.437	21.33
314.651	-3.24
314.864	-38.06
315.078	11.09
315.292	-42.15
315.505	47.96
315.719	11.09
315.933	60.24
316.146	-5.29
316.36	-52.39
316.573	7
316.787	27.48
317.001	-23.72
317.214	-5.29
317.428	0.85
317.641	-54.44
317.855	41.81
318.068	66.39
318.282	-9.39
318.495	47.96
318.709	29.52
318.922	43.86
319.136	2.9
319.349	-17.58
319.563	-25.77
319.776	-21.67
319.99	-3.24
320.203	-38.06
320.417	21.33
320.63	33.62
320.843	-19.63
321.057	-9.39
321.27	13.14
321.483	-5.29
321.697	37.72
321.91	86.87
322.124	-33.96
322.337	56.15
322.55	13.14
322.763	-5.29
322.977	-29.87
323.19	-68.78
323.403	25.43
323.617	-46.25
323.83	68.44
324.043	43.86
324.256	-29.87
324.469	-52.39
324.683	78.68
324.896	7
325.109	43.86
325.322	-36.01
325.535	68.44
325.748	-21.67
325.962	-126.12
326.175	-23.72
326.388	62.29
326.601	19.29
326.814	4.95
327.027	29.52
327.24	-1.19
327.453	-7.34
327.666	27.48
327.879	31.57
328.092	45.91
328.305	45.91
328.518	-66.73
328.731	25.43
328.944	21.33
329.157	-15.53
329.37	11.09
329.583	27.48
329.796	64.34
330.009	35.67
330.222	45.91
330.435	19.29
330.648	29.52
330.861	-50.35
331.073	-19.63
331.286	-21.67
331.499	-31.91
331.712	60.24
331.925	-54.44
332.138	-62.63
332.35	-36.01
332.563	-48.3
332.776	31.57
332.989	-29.87
333.202	23.38
333.414	-25.77
333.627	-21.67
333.84	-3.24
334.053	-29.87
334.265	-54.44
334.478	52.05
334.691	-17.58
334.903	2.9
335.116	-56.49
335.329	-9.39
335.541	0.85
335.754	13.14
335.966	-5.29
336.179	31.57
336.392	-44.2
336.604	21.33
336.817	11.09
337.029	27.48
337.242	35.67
337.454	-25.77
337.667	-23.72
337.88	2.9
338.092	60.24
338.305	-27.82
338.517	47.96
338.729	13.14
338.942	-56.49
339.154	-58.54
339.367	-52.39
339.579	-13.48
339.792	-83.11
340.004	17.24
340.217	-40.11
340.429	27.48
340.641	31.57
340.854	-52.39
341.066	-9.39
341.278	-31.91
341.491	-40.11
341.703	84.82
341.915	-29.87
342.128	45.91
342.34	-3.24
342.552	0.85
342.764	-29.87
342.977	-17.58
343.189	-23.72
343.401	27.48
343.613	-91.31
343.826	39.76
344.038	-11.43
344.25	-11.43
344.462	-46.25
344.674	-31.91
344.886	13.14
345.099	70.48
345.311	66.39
345.523	-36.01
345.735	11.09
345.947	23.38
346.159	-3.24
346.371	-46.25
346.583	19.29
346.795	-38.06
347.007	9.05
347.219	23.38
347.431	-9.39
347.643	76.63
347.855	-50.35
348.067	-25.77
348.279	13.14
348.491	-7.34
348.703	23.38
348.915	-42.15
349.127	41.81
349.339	2.9
349.551	-54.44
349.763	37.72
349.975	-48.3
350.187	-44.2
350.399	9.05
350.61	-11.43
350.822	-46.25
351.034	-1.19
351.246	2.9
351.458	-1.19
351.669	9.05
351.881	-25.77
352.093	-29.87
352.305	0.85
352.517	27.48
352.728	11.09
352.94	-11.43
353.152	54.1
353.363	-3.24
353.575	11.09
353.787	-52.39
353.999	25.43
354.21	-5.29
354.422	-48.3
354.633	-38.06
354.845	-31.91
355.057	15.19
355.268	43.86
355.48	-17.58
355.692	52.05
355.903	15.19
356.115	-42.15
356.326	-101.55
356.538	64.34
356.749	27.48
356.961	45.91
357.172	-13.48
357.384	-31.91
357.595	27.48
357.807	13.14
358.018	-9.39
358.23	37.72
358.441	-1.19
358.653	-68.78
358.864	-74.92
359.075	27.48
359.287	-68.78
359.498	52.05
359.709	93.01
359.921	-25.77
360.132	60.24
360.344	-13.48
360.555	-13.48
360.766	-5.29
360.977	-36.01
361.189	15.19
361.4	68.44
361.611	47.96
361.823	47.96
362.034	21.33
362.245	54.1
362.456	-46.25
362.667	45.91
362.879	-19.63
363.09	-21.67
363.301	-25.77
363.512	11.09
363.723	-9.39
363.935	-7.34
364.146	-38.06
364.357	-5.29
364.568	50
364.779	-79.02
364.99	11.09
365.201	-27.82
365.412	-66.73
365.623	-33.96
365.834	-7.34
366.045	-21.67
366.256	-33.96
366.467	7
366.678	-7.34
366.889	2.9
367.1	-66.73
367.311	-31.91
367.522	-9.39
367.733	29.52
367.944	2.9
368.155	-36.01
368.366	-66.73
368.577	45.91
368.788	90.96
368.999	-72.87
369.209	64.34
369.42	62.29
369.631	113.49
369.842	-29.87
370.053	23.38
370.264	15.19
370.474	-62.63
370.685	35.67
370.896	13.14
371.107	62.29
371.317	27.48
371.528	64.34
371.739	86.87
371.95	0.85
372.16	-9.39
372.371	-46.25
372.582	9.05
372.792	-1.19
373.003	-5.29
373.214	-11.43
373.424	-21.67
373.635	0.85
373.846	74.58
374.056	13.14
374.267	2.9
374.477	35.67
374.688	-13.48
374.898	39.76
375.109	45.91
375.319	-89.26
375.53	33.62
375.74	-33.96
375.951	43.86
376.161	4.95
376.372	-25.77
376.582	47.96
376.793	-19.63
377.003	39.76
377.214	-27.82
377.424	-3.24
377.635	17.24
377.845	23.38
378.055	-3.24
378.266	-19.63
378.476	21.33
378.686	13.14
378.897	-54.44
379.107	7
379.317	19.29
379.528	-7.34
379.738	58.2
379.948	-29.87
380.158	84.82
380.369	-38.06
380.579	13.14
380.789	-15.53
380.999	23.38
381.21	-11.43
381.42	31.57
381.63	-42.15
381.84	13.14
382.05	-19.63
382.261	-33.96
382.471	9.05
382.681	27.48
382.891	-13.48
383.101	19.29
383.311	-27.82
383.521	-17.58
383.731	-38.06
383.941	58.2
384.151	4.95
384.361	54.1
384.571	2.9
384.781	50
384.991	41.81
385.201	4.95
385.411	31.57
385.621	29.52
385.831	-36.01
386.041	27.48
386.251	-27.82
386.461	84.82
386.671	15.19
386.881	-17.58
387.091	-23.72
387.301	-23.72
387.511	-27.82
387.72	27.48
387.93	-5.29
388.14	-9.39
388.35	-5.29
388.56	19.29
388.769	21.33
388.979	47.96
389.189	-21.67
389.399	25.43
389.609	-11.43
389.818	23.38
390.028	13.14
390.238	58.2
390.447	13.14
390.657	56.15
390.867	-23.72
391.076	13.14
391.286	-36.01
391.496	13.14
391.705	-36.01
391.915	23.38
392.125	33.62
392.334	31.57
392.544	45.91
392.753	-13.48
392.963	86.87
393.172	76.63
393.382	78.68
393.591	72.53
393.801	4.95
394.01	13.14
394.22	-13.48
394.429	-29.87
394.639	-23.72
394.848	19.29
395.058	-33.96
395.267	29.52
395.477	-1.19
395.686	37.72
395.895	64.34
396.105	43.86
396.314	-46.25
396.524	19.29
396.733	-44.2
396.942	-3.24
397.152	-50.35
397.361	43.86
397.57	13.14
397.78	62.29
397.989	39.76
398.198	29.52
398.407	43.86
398.617	4.95
398.826	-19.63
399.035	31.57
399.244	21.33
399.453	15.19
399.663	-60.59
399.872	62.29
400.081	31.57
400.29	29.52
400.499	-21.67
400.708	60.24
400.917	70.48
401.127	-54.44
401.336	-1.19
401.545	29.52
401.754	-5.29
401.963	-11.43
402.172	-9.39
402.381	15.19
402.59	-1.19
402.799	31.57
403.008	11.09
403.217	-95.4
403.426	-1.19
403.635	-9.39
403.844	9.05
404.053	-29.87
404.262	-72.87
404.471	21.33
404.68	11.09
404.888	-5.29
405.097	7
405.306	-46.25
405.515	25.43
405.724	-89.26
405.933	11.09
406.142	13.14
406.35	86.87
406.559	-15.53
406.768	72.53
406.977	19.29
407.185	72.53
407.394	-3.24
407.603	7
407.812	19.29
408.02	-5.29
408.229	-42.15
408.438	25.43
408.646	47.96
408.855	-11.43
409.064	29.52
409.272	-60.59
409.481	56.15
409.69	2.9
409.898	-60.59
410.107	-52.39
410.315	39.76
410.524	-9.39
410.733	-1.19
410.941	43.86
411.15	-33.96
411.358	15.19
411.567	37.72
411.775	-15.53
411.984	7
412.192	0.85
412.401	21.33
412.609	35.67
412.818	47.96
413.026	31.57
413.234	15.19
413.443	35.67
413.651	4.95
413.86	-66.73
414.068	35.67
414.276	19.29
414.485	11.09
414.693	58.2
414.901	11.09
415.11	17.24
415.318	9.05
415.526	-1.19
415.734	43.86
415.943	-11.43
416.151	-17.58
416.359	41.81
416.567	4.95
416.776	29.52
416.984	21.33
417.192	56.15
417.4	9.05
417.608	39.76
417.817	45.91
418.025	31.57
418.233	109.4
418.441	15.19
418.649	2.9
418.857	19.29
419.065	88.92
419.273	31.57
419.481	29.52
419.689	56.15
419.897	47.96
420.105	4.95
420.313	86.87
420.521	117.59
420.729	37.72
420.937	-17.58
421.145	80.72
421.353	95.06
421.561	142.16
421.769	138.07
421.977	52.05
422.185	90.96
422.393	47.96
422.601	119.64
422.809	136.02
423.017	172.88
423.224	133.97
423.432	127.83
423.64	150.36
423.848	168.79
424.056	191.31
424.263	174.93
424.471	187.22
424.679	160.59
424.887	129.88
425.094	275.28
425.302	246.61
425.51	179.03
425.718	256.85
425.925	211.79
426.133	222.03
426.341	389.97
426.548	371.54
426.756	340.82
426.964	349.01
427.171	361.3
427.379	379.73
427.586	310.1
427.794	437.07
428.001	420.69
428.209	365.39
428.417	553.8
428.624	480.08
428.832	547.66
429.039	541.52
429.247	562
429.454	596.81
429.662	699.21
429.869	691.02
430.076	713.55
430.284	727.88
430.491	684.87
430.699	828.23
430.906	791.37
431.114	783.18
431.321	887.62
431.528	830.28
431.736	877.38
431.943	973.64
432.15	920.39
432.358	979.78
432.565	1049.41
432.772	957.25
432.979	990.02
433.187	1127.24
433.394	1190.72
433.601	1317.7
433.808	1246.02
434.016	1282.88
434.223	1182.53
434.43	1334.08
434.637	1340.22
434.844	1329.99
435.052	1438.53
435.259	1418.05
435.466	1411.9
435.673	1405.76
435.88	1477.44
436.087	1618.75
436.294	1563.45
436.501	1510.21
436.708	1643.32
436.915	1643.32
437.122	1665.85
437.329	1786.68
437.537	1774.39
437.743	1786.68
437.95	1753.91
438.157	1870.65
438.364	1891.13
438.571	1985.34
438.778	2028.34
438.985	2167.6
439.192	1993.53
439.399	2100.02
439.606	2165.56
439.813	2208.56
440.02	2444.08
440.227	2394.93
440.433	2341.68
440.64	2468.66
440.847	2356.02
441.054	2485.04
441.261	2650.92
441.467	2577.2
441.674	2593.58
441.881	2693.93
442.088	2607.92
442.294	2640.69
442.501	2691.88
442.708	2757.42
442.914	2913.06
443.121	3003.18
443.328	2814.76
443.534	3287.84
443.741	3046.18
443.948	2960.17
444.154	3197.73
444.361	3355.43
444.568	3347.23
444.774	3240.74
444.981	3310.37
445.187	3468.06
445.394	3552.03
445.6	3496.74
445.807	3840.79
446.013	3838.75
446.22	3738.4
446.426	3975.96
446.633	3982.1
446.839	4059.93
447.046	3693.34
447.252	4127.51
447.459	4107.03
447.665	4094.74
447.871	4279.06
448.078	4487.95
448.284	4387.6
448.491	4504.34
448.697	4573.97
448.903	4668.17
449.11	4770.57
449.316	4649.74
449.522	4637.45
449.728	4979.47
449.935	4795.15
450.141	4870.92
450.347	5006.09
450.553	4832.01
450.76	4877.07
450.966	5229.32
451.172	5016.33
451.378	5040.9
451.584	5008.14
451.791	5206.79
451.997	5180.17
452.203	5167.88
452.409	5141.25
452.615	5380.87
452.821	5018.38
453.027	5042.95
453.233	5208.84
453.44	4958.99
453.646	5088.01
453.852	5071.62
454.058	5169.93
454.264	4973.32
454.47	5153.54
454.676	5141.25
454.882	5401.35
455.088	4934.41
455.294	4883.21
455.5	4915.98
455.705	5040.9
455.911	4981.51
456.117	4700.94
456.323	4678.41
456.529	4344.6
456.735	4721.42
456.941	4414.23
457.147	4487.95
457.352	4260.63
457.558	4152.09
457.764	4293.4
457.97	4299.54
458.176	4191
458.381	4088.6
458.587	3994.39
458.793	3935
458.999	3586.85
459.204	3930.91
459.41	3754.78
459.616	3590.94
459.821	3648.29
460.027	3670.81
460.233	3541.79
460.438	3451.68
460.644	3451.68
460.85	3248.93
461.055	3267.36
461.261	3259.17
461.466	2915.11
461.672	2892.59
461.878	3070.76
462.083	2767.66
462.289	2779.95
462.494	2845.48
462.7	2730.8
462.905	2517.81
463.111	2591.53
463.316	2728.75
463.522	2728.75
463.727	2587.44
463.932	2628.4
464.138	2636.59
464.343	2659.12
464.549	2478.9
464.754	2575.15
464.959	2628.4
465.165	2585.39
465.37	2444.08
465.575	2360.11
465.781	2403.12
465.986	2550.57
466.191	2403.12
466.397	2372.4
466.602	2257.71
466.807	2304.82
467.012	2306.87
467.218	2401.07
467.423	2308.91
467.628	2296.63
467.833	2298.67
468.038	2454.32
468.244	2272.05
468.449	2319.15
468.654	2333.49
468.859	2347.83
469.064	2329.39
469.269	2233.14
469.474	2216.76
469.679	2290.48
469.885	2159.41
470.09	2222.9
470.295	2194.23
470.5	2106.17
