Data from USB4F104151__74__13-12-21-454.txt Node

Date: Fri Mar 14 13:12:21 EDT 2025
User: louis
Spectrometer: USB4F10415
Trigger mode: 4
Integration Time (sec): 2.000000E-2
Scans to average: 1
Electric dark correction enabled: true
Nonlinearity correction enabled: false
Boxcar width: 0
XAxis mode: Wavelengths
Number of Pixels in Spectrum: 3648
>>>>>Begin Spectral Data<<<<<
178.204	-115.88
178.424	-115.88
178.644	-115.88
178.864	-87.21
179.084	-76.97
179.304	-1.19
179.524	-44.2
179.744	9.05
179.964	-33.96
180.184	-9.39
180.404	21.33
180.624	95.06
180.844	7
181.064	-44.2
181.283	37.72
181.503	-40.11
181.723	2.9
181.943	-89.26
182.163	7
182.383	60.24
182.602	-56.49
182.822	60.24
183.042	-11.43
183.262	-31.91
183.482	39.76
183.701	41.81
183.921	-62.63
184.141	-36.01
184.361	86.87
184.58	-1.19
184.8	99.16
185.02	-31.91
185.239	-13.48
185.459	9.05
185.679	35.67
185.898	-15.53
186.118	25.43
186.338	50
186.557	-42.15
186.777	-19.63
186.997	31.57
187.216	-1.19
187.436	56.15
187.655	21.33
187.875	0.85
188.095	-9.39
188.314	78.68
188.534	60.24
188.753	-9.39
188.973	37.72
189.192	39.76
189.412	52.05
189.631	-13.48
189.851	47.96
190.07	25.43
190.29	17.24
190.509	9.05
190.729	-21.67
190.948	19.29
191.168	93.01
191.387	-7.34
191.607	-19.63
191.826	13.14
192.045	-17.58
192.265	-9.39
192.484	-5.29
192.704	54.1
192.923	-23.72
193.142	127.83
193.362	-36.01
193.581	72.53
193.8	52.05
194.02	19.29
194.239	60.24
194.458	78.68
194.678	-81.07
194.897	25.43
195.116	-21.67
195.335	27.48
195.555	19.29
195.774	54.1
195.993	35.67
196.212	62.29
196.432	-33.96
196.651	11.09
196.87	-9.39
197.089	133.97
197.308	-31.91
197.528	4.95
197.747	-25.77
197.966	-52.39
198.185	2.9
198.404	21.33
198.623	11.09
198.842	-23.72
199.062	35.67
199.281	-5.29
199.5	54.1
199.719	-17.58
199.938	39.76
200.157	52.05
200.376	154.45
200.595	-46.25
200.814	9.05
201.033	-9.39
201.252	86.87
201.471	-11.43
201.69	68.44
201.909	19.29
202.128	13.14
202.347	11.09
202.566	-7.34
202.785	-25.77
203.004	11.09
203.223	101.2
203.442	-1.19
203.661	-9.39
203.879	-62.63
204.098	4.95
204.317	-31.91
204.536	19.29
204.755	86.87
204.974	90.96
205.193	23.38
205.411	58.2
205.63	54.1
205.849	-44.2
206.068	27.48
206.287	41.81
206.505	27.48
206.724	70.48
206.943	35.67
207.162	-64.68
207.381	4.95
207.599	-42.15
207.818	-5.29
208.037	-17.58
208.255	-17.58
208.474	2.9
208.693	13.14
208.911	39.76
209.13	21.33
209.349	35.67
209.567	-58.54
209.786	45.91
210.005	15.19
210.223	-9.39
210.442	7
210.661	7
210.879	-11.43
211.098	-3.24
211.316	45.91
211.535	-3.24
211.753	-27.82
211.972	-38.06
212.191	11.09
212.409	72.53
212.628	-3.24
212.846	27.48
213.065	-13.48
213.283	140.12
213.502	45.91
213.72	33.62
213.938	-19.63
214.157	43.86
214.375	9.05
214.594	21.33
214.812	90.96
215.031	-9.39
215.249	23.38
215.467	45.91
215.686	4.95
215.904	-13.48
216.122	-1.19
216.341	43.86
216.559	39.76
216.778	31.57
216.996	88.92
217.214	76.63
217.432	13.14
217.651	-7.34
217.869	54.1
218.087	4.95
218.306	11.09
218.524	4.95
218.742	27.48
218.96	64.34
219.179	43.86
219.397	-27.82
219.615	31.57
219.833	43.86
220.051	-42.15
220.27	29.52
220.488	39.76
220.706	-11.43
220.924	-50.35
221.142	9.05
221.36	-11.43
221.578	43.86
221.796	9.05
222.015	68.44
222.233	-13.48
222.451	-11.43
222.669	29.52
222.887	66.39
223.105	13.14
223.323	17.24
223.541	-25.77
223.759	-25.77
223.977	-11.43
224.195	50
224.413	27.48
224.631	70.48
224.849	-15.53
225.067	19.29
225.285	-11.43
225.503	0.85
225.721	-58.54
225.939	74.58
226.157	47.96
226.375	70.48
226.592	43.86
226.81	-5.29
227.028	-38.06
227.246	119.64
227.464	-60.59
227.682	-7.34
227.9	-11.43
228.117	27.48
228.335	15.19
228.553	-52.39
228.771	33.62
228.989	23.38
229.206	33.62
229.424	-40.11
229.642	-54.44
229.86	13.14
230.077	-1.19
230.295	-33.96
230.513	27.48
230.731	-19.63
230.948	-1.19
231.166	29.52
231.384	-56.49
231.601	33.62
231.819	-5.29
232.037	-9.39
232.254	-29.87
232.472	-36.01
232.689	-25.77
232.907	23.38
233.125	60.24
233.342	15.19
233.56	-21.67
233.777	74.58
233.995	-23.72
234.213	101.2
234.43	39.76
234.648	58.2
234.865	13.14
235.083	52.05
235.3	-9.39
235.518	54.1
235.735	35.67
235.953	-19.63
236.17	7
236.388	33.62
236.605	19.29
236.822	43.86
237.04	58.2
237.257	11.09
237.475	-46.25
237.692	-5.29
237.909	15.19
238.127	45.91
238.344	58.2
238.562	56.15
238.779	15.19
238.996	-21.67
239.214	-42.15
239.431	25.43
239.648	78.68
239.865	-21.67
240.083	35.67
240.3	-7.34
240.517	33.62
240.735	62.29
240.952	-52.39
241.169	-1.19
241.386	27.48
241.603	-7.34
241.821	33.62
242.038	47.96
242.255	109.4
242.472	-42.15
242.689	-1.19
242.907	103.25
243.124	15.19
243.341	-9.39
243.558	-13.48
243.775	27.48
243.992	-29.87
244.209	-42.15
244.426	0.85
244.643	39.76
244.86	-29.87
245.078	9.05
245.295	54.1
245.512	60.24
245.729	-5.29
245.946	-52.39
246.163	43.86
246.38	4.95
246.597	7
246.814	13.14
247.031	60.24
247.248	-23.72
247.464	37.72
247.681	43.86
247.898	29.52
248.115	-15.53
248.332	25.43
248.549	29.52
248.766	-17.58
248.983	39.76
249.2	43.86
249.417	19.29
249.633	62.29
249.85	35.67
250.067	31.57
250.284	-50.35
250.501	52.05
250.717	21.33
250.934	-56.49
251.151	76.63
251.368	-27.82
251.585	107.35
251.801	-21.67
252.018	-17.58
252.235	-36.01
252.451	-3.24
252.668	-62.63
252.885	13.14
253.102	37.72
253.318	21.33
253.535	2.9
253.752	-27.82
253.968	-3.24
254.185	23.38
254.401	27.48
254.618	-5.29
254.835	2.9
255.051	64.34
255.268	-7.34
255.484	7
255.701	111.44
255.917	35.67
256.134	17.24
256.351	52.05
256.567	-29.87
256.784	4.95
257	-13.48
257.217	58.2
257.433	-27.82
257.65	127.83
257.866	62.29
258.082	35.67
258.299	-25.77
258.515	43.86
258.732	-11.43
258.948	-52.39
259.165	88.92
259.381	31.57
259.597	78.68
259.814	-21.67
260.03	17.24
260.246	27.48
260.463	-38.06
260.679	105.3
260.895	50
261.112	37.72
261.328	58.2
261.544	-1.19
261.761	31.57
261.977	-13.48
262.193	-29.87
262.409	-1.19
262.626	86.87
262.842	39.76
263.058	43.86
263.274	60.24
263.49	27.48
263.707	9.05
263.923	2.9
264.139	19.29
264.355	19.29
264.571	27.48
264.787	66.39
265.004	35.67
265.22	4.95
265.436	19.29
265.652	-3.24
265.868	41.81
266.084	-64.68
266.3	-33.96
266.516	-9.39
266.732	35.67
266.948	35.67
267.164	45.91
267.38	50
267.596	43.86
267.812	52.05
268.028	56.15
268.244	33.62
268.46	35.67
268.676	-23.72
268.892	52.05
269.108	19.29
269.324	-38.06
269.54	-54.44
269.756	19.29
269.972	-40.11
270.188	50
270.403	-66.73
270.619	-29.87
270.835	66.39
271.051	-11.43
271.267	-13.48
271.483	-11.43
271.698	-13.48
271.914	82.77
272.13	-19.63
272.346	56.15
272.562	45.91
272.777	29.52
272.993	-25.77
273.209	-19.63
273.425	35.67
273.64	27.48
273.856	2.9
274.072	-29.87
274.287	43.86
274.503	-17.58
274.719	68.44
274.934	-87.21
275.15	-23.72
275.366	86.87
275.581	-19.63
275.797	-58.54
276.012	15.19
276.228	-9.39
276.444	4.95
276.659	68.44
276.875	43.86
277.09	56.15
277.306	45.91
277.521	54.1
277.737	13.14
277.952	-7.34
278.168	25.43
278.383	27.48
278.599	19.29
278.814	-23.72
279.03	52.05
279.245	25.43
279.461	11.09
279.676	-5.29
279.892	15.19
280.107	-21.67
280.322	13.14
280.538	43.86
280.753	88.92
280.969	62.29
281.184	115.54
281.399	66.39
281.615	-25.77
281.83	23.38
282.045	-27.82
282.26	-38.06
282.476	7
282.691	-27.82
282.906	2.9
283.122	-11.43
283.337	43.86
283.552	-27.82
283.767	-11.43
283.983	82.77
284.198	50
284.413	82.77
284.628	35.67
284.843	101.2
285.058	68.44
285.274	-13.48
285.489	0.85
285.704	19.29
285.919	23.38
286.134	19.29
286.349	19.29
286.564	97.11
286.779	80.72
286.995	-15.53
287.21	-23.72
287.425	15.19
287.64	-25.77
287.855	-1.19
288.07	31.57
288.285	47.96
288.5	74.58
288.715	15.19
288.93	54.1
289.145	-31.91
289.36	0.85
289.575	37.72
289.79	62.29
290.004	-9.39
290.219	2.9
290.434	21.33
290.649	-15.53
290.864	31.57
291.079	-33.96
291.294	11.09
291.509	72.53
291.724	33.62
291.938	52.05
292.153	25.43
292.368	37.72
292.583	27.48
292.798	56.15
293.012	15.19
293.227	11.09
293.442	25.43
293.657	58.2
293.871	88.92
294.086	29.52
294.301	0.85
294.516	45.91
294.73	60.24
294.945	2.9
295.16	33.62
295.374	-36.01
295.589	4.95
295.804	41.81
296.018	-13.48
296.233	13.14
296.447	41.81
296.662	88.92
296.877	64.34
297.091	7
297.306	43.86
297.52	37.72
297.735	21.33
297.949	-46.25
298.164	78.68
298.378	-21.67
298.593	11.09
298.807	9.05
299.022	25.43
299.236	-21.67
299.451	37.72
299.665	-62.63
299.88	-11.43
300.094	60.24
300.309	35.67
300.523	-40.11
300.737	4.95
300.952	-11.43
301.166	2.9
301.381	13.14
301.595	-15.53
301.809	-1.19
302.024	-44.2
302.238	-21.67
302.452	136.02
302.667	95.06
302.881	35.67
303.095	43.86
303.309	125.78
303.524	17.24
303.738	-95.4
303.952	-25.77
304.166	136.02
304.381	-33.96
304.595	84.82
304.809	27.48
305.023	31.57
305.237	-15.53
305.452	52.05
305.666	54.1
305.88	62.29
306.094	52.05
306.308	-9.39
306.522	13.14
306.736	17.24
306.95	-13.48
307.164	-40.11
307.379	33.62
307.593	70.48
307.807	7
308.021	43.86
308.235	-21.67
308.449	-3.24
308.663	189.27
308.877	138.07
309.091	113.49
309.305	19.29
309.519	9.05
309.733	62.29
309.947	-46.25
310.161	37.72
310.374	23.38
310.588	74.58
310.802	-70.83
311.016	93.01
311.23	78.68
311.444	54.1
311.658	-13.48
311.872	29.52
312.085	45.91
312.299	60.24
312.513	-27.82
312.727	9.05
312.941	-44.2
313.154	-5.29
313.368	35.67
313.582	62.29
313.796	64.34
314.009	7
314.223	2.9
314.437	41.81
314.651	39.76
314.864	-15.53
315.078	39.76
315.292	13.14
315.505	41.81
315.719	45.91
315.933	-11.43
316.146	2.9
316.36	-11.43
316.573	136.02
316.787	7
317.001	62.29
317.214	29.52
317.428	54.1
317.641	54.1
317.855	13.14
318.068	2.9
318.282	11.09
318.495	13.14
318.709	31.57
318.922	27.48
319.136	-44.2
319.349	60.24
319.563	-5.29
319.776	19.29
319.99	29.52
320.203	-25.77
320.417	64.34
320.63	105.3
320.843	109.4
321.057	-38.06
321.27	43.86
321.483	35.67
321.697	80.72
321.91	19.29
322.124	4.95
322.337	15.19
322.55	0.85
322.763	-64.68
322.977	7
323.19	13.14
323.403	45.91
323.617	33.62
323.83	41.81
324.043	64.34
324.256	27.48
324.469	21.33
324.683	2.9
324.896	60.24
325.109	19.29
325.322	27.48
325.535	43.86
325.748	35.67
325.962	2.9
326.175	17.24
326.388	52.05
326.601	76.63
326.814	101.2
327.027	7
327.24	35.67
327.453	-52.39
327.666	29.52
327.879	17.24
328.092	2.9
328.305	13.14
328.518	-5.29
328.731	50
328.944	15.19
329.157	35.67
329.37	60.24
329.583	23.38
329.796	41.81
330.009	41.81
330.222	31.57
330.435	23.38
330.648	39.76
330.861	-17.58
331.073	70.48
331.286	2.9
331.499	23.38
331.712	35.67
331.925	125.78
332.138	7
332.35	107.35
332.563	35.67
332.776	117.59
332.989	13.14
333.202	35.67
333.414	25.43
333.627	101.2
333.84	52.05
334.053	43.86
334.265	29.52
334.478	4.95
334.691	-11.43
334.903	72.53
335.116	-25.77
335.329	86.87
335.541	-3.24
335.754	21.33
335.966	2.9
336.179	-52.39
336.392	-33.96
336.604	4.95
336.817	41.81
337.029	-17.58
337.242	29.52
337.454	27.48
337.667	17.24
337.88	54.1
338.092	-7.34
338.305	19.29
338.517	54.1
338.729	45.91
338.942	25.43
339.154	52.05
339.367	-66.73
339.579	93.01
339.792	13.14
340.004	15.19
340.217	-5.29
340.429	68.44
340.641	19.29
340.854	19.29
341.066	-74.92
341.278	-1.19
341.491	-27.82
341.703	109.4
341.915	-48.3
342.128	31.57
342.34	66.39
342.552	-3.24
342.764	-3.24
342.977	39.76
343.189	-19.63
343.401	11.09
343.613	-1.19
343.826	74.58
344.038	9.05
344.25	29.52
344.462	54.1
344.674	-3.24
344.886	11.09
345.099	125.78
345.311	68.44
345.523	29.52
345.735	2.9
345.947	133.97
346.159	58.2
346.371	58.2
346.583	60.24
346.795	60.24
347.007	29.52
347.219	70.48
347.431	50
347.643	-5.29
347.855	21.33
348.067	54.1
348.279	33.62
348.491	25.43
348.703	60.24
348.915	0.85
349.127	74.58
349.339	60.24
349.551	37.72
349.763	7
349.975	62.29
350.187	31.57
350.399	13.14
350.61	2.9
350.822	-31.91
351.034	29.52
351.246	23.38
351.458	13.14
351.669	76.63
351.881	101.2
352.093	76.63
352.305	43.86
352.517	2.9
352.728	66.39
352.94	7
353.152	45.91
353.363	0.85
353.575	27.48
353.787	17.24
353.999	9.05
354.21	72.53
354.422	23.38
354.633	-11.43
354.845	-15.53
355.057	93.01
355.268	0.85
355.48	11.09
355.692	15.19
355.903	35.67
356.115	-1.19
356.326	-19.63
356.538	52.05
356.749	27.48
356.961	39.76
357.172	82.77
357.384	-3.24
357.595	-9.39
357.807	7
358.018	17.24
358.23	-3.24
358.441	9.05
358.653	-38.06
358.864	95.06
359.075	7
359.287	-3.24
359.498	52.05
359.709	19.29
359.921	-36.01
360.132	25.43
360.344	13.14
360.555	33.62
360.766	9.05
360.977	37.72
361.189	39.76
361.4	7
361.611	93.01
361.823	21.33
362.034	41.81
362.245	4.95
362.456	35.67
362.667	70.48
362.879	31.57
363.09	-3.24
363.301	66.39
363.512	2.9
363.723	13.14
363.935	64.34
364.146	19.29
364.357	-23.72
364.568	17.24
364.779	25.43
364.99	82.77
365.201	-9.39
365.412	47.96
365.623	2.9
365.834	66.39
366.045	35.67
366.256	17.24
366.467	60.24
366.678	33.62
366.889	74.58
367.1	17.24
367.311	52.05
367.522	-5.29
367.733	-15.53
367.944	0.85
368.155	39.76
368.366	119.64
368.577	111.44
368.788	43.86
368.999	4.95
369.209	-15.53
369.42	152.4
369.631	62.29
369.842	74.58
370.053	88.92
370.264	11.09
370.474	19.29
370.685	70.48
370.896	76.63
371.107	11.09
371.317	54.1
371.528	41.81
371.739	29.52
371.95	0.85
372.16	86.87
372.371	-5.29
372.582	45.91
372.792	72.53
373.003	41.81
373.214	-13.48
373.424	2.9
373.635	47.96
373.846	88.92
374.056	62.29
374.267	41.81
374.477	41.81
374.688	-15.53
374.898	-1.19
375.109	11.09
375.319	47.96
375.53	7
375.74	-36.01
375.951	-13.48
376.161	52.05
376.372	50
376.582	33.62
376.793	-50.35
377.003	35.67
377.214	4.95
377.424	-36.01
377.635	33.62
377.845	41.81
378.055	105.3
378.266	82.77
378.476	56.15
378.686	-54.44
378.897	17.24
379.107	52.05
379.317	72.53
379.528	-21.67
379.738	56.15
379.948	78.68
380.158	13.14
380.369	-3.24
380.579	103.25
380.789	23.38
380.999	-46.25
381.21	4.95
381.42	119.64
381.63	-29.87
381.84	60.24
382.05	11.09
382.261	68.44
382.471	93.01
382.681	27.48
382.891	107.35
383.101	70.48
383.311	11.09
383.521	21.33
383.731	103.25
383.941	31.57
384.151	9.05
384.361	4.95
384.571	43.86
384.781	4.95
384.991	25.43
385.201	78.68
385.411	86.87
385.621	101.2
385.831	60.24
386.041	21.33
386.251	21.33
386.461	29.52
386.671	19.29
386.881	107.35
387.091	-3.24
387.301	4.95
387.511	43.86
387.72	-1.19
387.93	-3.24
388.14	27.48
388.35	-15.53
388.56	68.44
388.769	86.87
388.979	39.76
389.189	-70.83
389.399	47.96
389.609	43.86
389.818	70.48
390.028	31.57
390.238	68.44
390.447	80.72
390.657	-33.96
390.867	-23.72
391.076	17.24
391.286	95.06
391.496	41.81
391.705	-15.53
391.915	66.39
392.125	27.48
392.334	31.57
392.544	101.2
392.753	76.63
392.963	-50.35
393.172	-23.72
393.382	72.53
393.591	62.29
393.801	4.95
394.01	152.4
394.22	43.86
394.429	45.91
394.639	47.96
394.848	97.11
395.058	60.24
395.267	58.2
395.477	50
395.686	56.15
395.895	144.21
396.105	152.4
396.314	47.96
396.524	72.53
396.733	39.76
396.942	88.92
397.152	117.59
397.361	52.05
397.57	76.63
397.78	13.14
397.989	31.57
398.198	138.07
398.407	90.96
398.617	70.48
398.826	72.53
399.035	-95.4
399.244	62.29
399.453	150.36
399.663	45.91
399.872	113.49
400.081	13.14
400.29	41.81
400.499	-3.24
400.708	168.79
400.917	52.05
401.127	127.83
401.336	76.63
401.545	183.12
401.754	88.92
401.963	80.72
402.172	88.92
402.381	140.12
402.59	64.34
402.799	78.68
403.008	160.59
403.217	158.55
403.426	76.63
403.635	31.57
403.844	154.45
404.053	90.96
404.262	129.88
404.471	127.83
404.68	97.11
404.888	138.07
405.097	136.02
405.306	103.25
405.515	207.7
405.724	117.59
405.933	162.64
406.142	84.82
406.35	152.4
406.559	119.64
406.768	113.49
406.977	224.08
407.185	179.03
407.394	107.35
407.603	142.16
407.812	115.54
408.02	174.93
408.229	154.45
408.438	256.85
408.646	230.23
408.855	179.03
409.064	207.7
409.272	250.71
409.481	230.23
409.69	297.81
409.898	211.79
410.107	275.28
410.315	244.56
410.524	287.57
410.733	277.33
410.941	344.91
411.15	332.62
411.358	332.62
411.567	271.19
411.775	306
411.984	310.1
412.192	383.82
412.401	346.96
412.609	371.54
412.818	365.39
413.026	461.65
413.234	416.59
413.443	365.39
413.651	387.92
413.86	447.31
414.068	510.8
414.276	494.41
414.485	437.07
414.693	543.57
414.901	500.56
415.11	572.24
415.318	588.62
415.526	576.33
415.734	609.1
415.943	652.11
416.151	650.06
416.359	666.44
416.567	822.09
416.776	676.68
416.984	797.51
417.192	791.37
417.4	809.8
417.608	805.71
417.817	854.86
418.025	910.15
418.233	965.45
418.441	981.83
418.649	940.87
418.857	1057.61
419.065	1088.32
419.273	1002.31
419.481	1145.67
419.689	1174.34
419.897	1280.83
420.105	1237.83
420.313	1305.41
420.521	1342.27
420.729	1512.25
420.937	1358.66
421.145	1487.68
421.353	1428.29
421.561	1657.66
421.769	1592.13
421.977	1743.67
422.185	1583.93
422.393	1792.83
422.601	1938.23
422.809	1907.51
423.017	1975.1
423.224	1925.94
423.432	2075.45
423.64	2095.93
423.848	2202.42
424.056	2067.25
424.263	2472.75
424.471	2327.35
424.679	2403.12
424.887	2468.66
425.094	2700.08
425.302	2630.45
425.51	2724.65
425.718	2874.15
425.925	2825
426.133	2927.4
426.341	3087.14
426.548	3277.6
426.756	3351.33
426.964	3109.67
427.171	3482.4
427.379	3601.18
427.586	3582.75
427.794	3627.81
428.001	4006.68
428.209	4178.71
428.417	4018.97
428.624	4467.47
428.832	4303.64
429.039	4266.77
429.247	4160.28
429.454	4680.46
429.662	5081.86
429.869	4713.23
430.076	4993.8
430.284	4877.07
430.491	5024.52
430.699	5413.63
430.906	5327.62
431.114	5491.46
431.321	5614.34
431.528	5731.07
431.736	6019.83
431.943	6236.92
432.15	6298.36
432.358	6157.05
432.565	6759.15
432.772	6759.15
432.979	6884.08
433.187	7191.27
433.394	7271.14
433.601	7559.91
433.808	7498.47
434.016	7637.73
434.223	7844.57
434.43	8282.84
434.637	8315.61
434.844	8669.91
435.052	8964.81
435.259	9026.25
435.466	8829.65
435.673	8848.08
435.88	9536.2
436.087	9757.38
436.294	9910.97
436.501	9566.92
436.708	9786.05
436.915	10232.51
437.122	10795.7
437.329	10490.55
437.537	10902.19
437.743	11264.68
437.95	11125.42
438.157	11432.61
438.364	11952.8
438.571	11983.52
438.778	12243.61
438.985	12993.17
439.192	12731.03
439.399	13068.94
439.606	12888.72
439.813	13486.73
440.02	14498.42
440.227	14082.69
440.433	14125.69
440.64	14297.72
440.847	14314.11
441.054	14742.13
441.261	15776.36
441.467	15614.57
441.674	15700.58
441.881	16314.97
442.088	16335.45
442.294	16167.52
442.501	16695.89
442.708	16988.75
442.914	17386.06
443.121	18303.55
443.328	17863.24
443.534	19280.43
443.741	18557.5
443.948	18459.2
444.154	19851.81
444.361	19614.25
444.568	19329.58
444.774	19841.57
444.981	19884.58
445.187	20597.28
445.394	21299.73
445.6	21350.93
445.807	23259.63
446.013	22147.59
446.22	22731.26
446.426	23298.55
446.633	23593.45
446.839	24447.46
447.046	23622.12
447.252	24811.99
447.459	24539.61
447.665	24920.54
447.871	25858.51
448.078	27083.19
448.284	25795.02
448.491	26509.76
448.697	27574.7
448.903	28000.68
449.11	27892.14
449.316	27259.32
449.522	28205.48
449.728	28971.42
449.935	29190.55
450.141	29094.3
450.347	29845.9
450.553	28740
450.76	29096.35
450.966	30314.89
451.172	30294.41
451.378	30648.71
451.584	29804.94
451.791	30906.75
451.997	30939.52
452.203	31455.61
452.409	31650.16
452.615	31394.17
452.821	30058.89
453.027	29841.81
453.233	31715.7
453.44	30208.39
453.646	30443.91
453.852	30577.03
454.058	31220.09
454.264	30017.93
454.47	31267.19
454.676	30288.26
454.882	31144.31
455.088	28473.76
455.294	28762.53
455.5	29743.5
455.705	29651.34
455.911	28688.8
456.117	28303.78
456.323	27992.49
456.529	26243.52
456.735	27423.15
456.941	26638.78
457.147	26542.53
457.352	25387.47
457.558	25287.12
457.764	25203.16
457.97	24576.48
458.176	24150.5
458.381	24248.8
458.587	23267.83
458.793	23112.18
458.999	21811.72
459.204	23503.34
459.41	22819.32
459.616	21355.02
459.821	21266.96
460.027	21322.26
460.233	20632.09
460.438	20124.19
460.644	19915.3
460.85	19010.1
461.055	18870.84
461.261	18942.52
461.466	17498.7
461.672	16978.51
461.878	18125.38
462.083	16648.79
462.289	16591.45
462.494	16480.86
462.7	15350.38
462.905	15149.68
463.111	15596.14
463.316	15723.11
463.522	15460.97
463.727	15536.74
463.932	15491.69
464.138	15194.73
464.343	15164.01
464.549	15094.38
464.754	15401.58
464.959	15219.31
465.165	15032.94
465.37	14690.93
465.575	14097.02
465.781	14752.37
465.986	14570.1
466.191	14154.37
466.397	14088.83
466.602	13357.71
466.807	13757.06
467.012	13800.07
467.218	13931.14
467.423	13441.67
467.628	13466.25
467.833	14183.04
468.038	13595.27
468.244	13167.24
468.449	13806.21
