Data from USB4F104151__70__13-12-13-195.txt Node

Date: Fri Mar 14 13:12:13 EDT 2025
User: louis
Spectrometer: USB4F10415
Trigger mode: 4
Integration Time (sec): 2.000000E-2
Scans to average: 1
Electric dark correction enabled: true
Nonlinearity correction enabled: false
Boxcar width: 0
XAxis mode: Wavelengths
Number of Pixels in Spectrum: 3648
>>>>>Begin Spectral Data<<<<<
178.204	-78.51
178.424	-78.51
178.644	-78.51
178.864	-60.07
179.084	-94.89
179.304	5.46
179.524	-31.4
179.744	25.94
179.964	-8.87
180.184	-31.4
180.404	38.23
180.624	19.8
180.844	-17.07
181.064	-4.78
181.283	21.85
181.503	-39.59
181.723	21.85
181.943	-31.4
182.163	46.42
182.383	21.85
182.602	116.05
182.822	62.8
183.042	30.04
183.262	17.75
183.482	52.56
183.701	-4.78
183.921	60.76
184.141	-6.83
184.361	25.94
184.58	-6.83
184.8	58.71
185.02	11.61
185.239	75.09
185.459	17.75
185.679	136.53
185.898	32.08
186.118	40.28
186.338	66.9
186.557	9.56
186.777	-12.97
186.997	27.99
187.216	23.89
187.436	25.94
187.655	25.94
187.875	-6.83
188.095	83.28
188.314	-31.4
188.534	5.46
188.753	-2.73
188.973	-6.83
189.192	21.85
189.412	79.19
189.631	-45.74
189.851	85.33
190.07	91.48
190.29	9.56
190.509	42.32
190.729	-12.97
190.948	32.08
191.168	79.19
191.387	122.2
191.607	83.28
191.826	56.66
192.045	85.33
192.265	-4.78
192.484	99.67
192.704	75.09
192.923	50.52
193.142	101.72
193.362	46.42
193.581	91.48
193.8	52.56
194.02	34.13
194.239	19.8
194.458	83.28
194.678	-29.35
194.897	81.24
195.116	95.57
195.335	91.48
195.555	85.33
195.774	50.52
195.993	36.18
196.212	-6.83
196.432	48.47
196.651	52.56
196.87	46.42
197.089	144.72
197.308	52.56
197.528	11.61
197.747	-25.26
197.966	44.37
198.185	114
198.404	-39.59
198.623	93.52
198.842	71
199.062	-27.31
199.281	5.46
199.5	32.08
199.719	52.56
199.938	1.37
200.157	97.62
200.376	1.37
200.595	17.75
200.814	21.85
201.033	-37.55
201.252	79.19
201.471	-15.02
201.69	58.71
201.909	1.37
202.128	17.75
202.347	93.52
202.566	66.9
202.785	17.75
203.004	-33.45
203.223	95.57
203.442	-10.92
203.661	1.37
203.879	-23.21
204.098	66.9
204.317	-19.11
204.536	42.32
204.755	38.23
204.974	42.32
205.193	52.56
205.411	142.68
205.63	93.52
205.849	-78.51
206.068	19.8
206.287	-4.78
206.505	27.99
206.724	40.28
206.943	54.61
207.162	30.04
207.381	-15.02
207.599	-12.97
207.818	81.24
208.037	-15.02
208.255	111.96
208.474	17.75
208.693	36.18
208.911	5.46
209.13	54.61
209.349	-31.4
209.567	30.04
209.786	40.28
210.005	5.46
210.223	50.52
210.442	5.46
210.661	50.52
210.879	50.52
211.098	52.56
211.316	81.24
211.535	3.41
211.753	9.56
211.972	75.09
212.191	42.32
212.409	-0.68
212.628	38.23
212.846	5.46
213.065	58.71
213.283	34.13
213.502	-15.02
213.72	-29.35
213.938	25.94
214.157	52.56
214.375	89.43
214.594	42.32
214.812	73.04
215.031	50.52
215.249	-6.83
215.467	103.76
215.686	-21.16
215.904	13.65
216.122	30.04
216.341	83.28
216.559	25.94
216.778	118.1
216.996	56.66
217.214	50.52
217.432	91.48
217.651	7.51
217.869	19.8
218.087	50.52
218.306	-29.35
218.524	27.99
218.742	58.71
218.96	5.46
219.179	17.75
219.397	48.47
219.615	79.19
219.833	62.8
220.051	42.32
220.27	62.8
220.488	17.75
220.706	13.65
220.924	77.14
221.142	-21.16
221.36	118.1
221.578	46.42
221.796	40.28
222.015	48.47
222.233	93.52
222.451	38.23
222.669	21.85
222.887	-8.87
223.105	30.04
223.323	77.14
223.541	60.76
223.759	11.61
223.977	-29.35
224.195	75.09
224.413	-12.97
224.631	9.56
224.849	81.24
225.067	77.14
225.285	38.23
225.503	-4.78
225.721	-2.73
225.939	34.13
226.157	73.04
226.375	148.82
226.592	34.13
226.81	-6.83
227.028	32.08
227.246	64.85
227.464	-4.78
227.682	91.48
227.9	48.47
228.117	34.13
228.335	9.56
228.553	32.08
228.771	1.37
228.989	34.13
229.206	73.04
229.424	66.9
229.642	-0.68
229.86	32.08
230.077	99.67
230.295	83.28
230.513	9.56
230.731	3.41
230.948	97.62
231.166	81.24
231.384	30.04
231.601	48.47
231.819	99.67
232.037	3.41
232.254	27.99
232.472	68.95
232.689	5.46
232.907	50.52
233.125	38.23
233.342	-15.02
233.56	9.56
233.777	58.71
233.995	36.18
234.213	116.05
234.43	105.81
234.648	64.85
234.865	58.71
235.083	93.52
235.3	13.65
235.518	-23.21
235.735	68.95
235.953	116.05
236.17	48.47
236.388	7.51
236.605	77.14
236.822	-6.83
237.04	30.04
237.257	25.94
237.475	165.2
237.692	101.72
237.909	36.18
238.127	93.52
238.344	52.56
238.562	52.56
238.779	15.7
238.996	-72.36
239.214	73.04
239.431	75.09
239.648	11.61
239.865	83.28
240.083	13.65
240.3	17.75
240.517	66.9
240.735	50.52
240.952	109.91
241.169	93.52
241.386	81.24
241.603	83.28
241.821	13.65
242.038	128.34
242.255	19.8
242.472	30.04
242.689	79.19
242.907	85.33
243.124	30.04
243.341	19.8
243.558	-43.69
243.775	21.85
243.992	105.81
244.209	54.61
244.426	83.28
244.643	118.1
244.86	54.61
245.078	118.1
245.295	75.09
245.512	75.09
245.729	87.38
245.946	93.52
246.163	75.09
246.38	46.42
246.597	77.14
246.814	5.46
247.031	52.56
247.248	83.28
247.464	1.37
247.681	103.76
247.898	17.75
248.115	52.56
248.332	27.99
248.549	50.52
248.766	101.72
248.983	85.33
249.2	-2.73
249.417	75.09
249.633	19.8
249.85	75.09
250.067	91.48
250.284	44.37
250.501	42.32
250.717	60.76
250.934	42.32
251.151	48.47
251.368	77.14
251.585	56.66
251.801	48.47
252.018	9.56
252.235	52.56
252.451	-23.21
252.668	75.09
252.885	52.56
253.102	71
253.318	44.37
253.535	46.42
253.752	5.46
253.968	52.56
254.185	-53.93
254.401	-0.68
254.618	34.13
254.835	-10.92
255.051	-27.31
255.268	38.23
255.484	-25.26
255.701	42.32
255.917	81.24
256.134	13.65
256.351	19.8
256.567	9.56
256.784	19.8
257	56.66
257.217	-17.07
257.433	36.18
257.65	38.23
257.866	48.47
258.082	27.99
258.299	17.75
258.515	36.18
258.732	46.42
258.948	77.14
259.165	21.85
259.381	50.52
259.597	89.43
259.814	17.75
260.03	42.32
260.246	91.48
260.463	1.37
260.679	42.32
260.895	48.47
261.112	64.85
261.328	83.28
261.544	81.24
261.761	68.95
261.977	11.61
262.193	23.89
262.409	89.43
262.626	71
262.842	42.32
263.058	-70.31
263.274	111.96
263.49	3.41
263.707	81.24
263.923	34.13
264.139	-2.73
264.355	27.99
264.571	128.34
264.787	99.67
265.004	27.99
265.22	66.9
265.436	-15.02
265.652	50.52
265.868	17.75
266.084	56.66
266.3	71
266.516	7.51
266.732	48.47
266.948	25.94
267.164	75.09
267.38	101.72
267.596	101.72
267.812	27.99
268.028	46.42
268.244	36.18
268.46	109.91
268.676	34.13
268.892	58.71
269.108	83.28
269.324	36.18
269.54	34.13
269.756	32.08
269.972	50.52
270.188	11.61
270.403	3.41
270.619	-39.59
270.835	48.47
271.051	7.51
271.267	66.9
271.483	19.8
271.698	52.56
271.914	87.38
272.13	19.8
272.346	87.38
272.562	21.85
272.777	85.33
272.993	-39.59
273.209	58.71
273.425	54.61
273.64	-2.73
273.856	3.41
274.072	64.85
274.287	54.61
274.503	52.56
274.719	17.75
274.934	9.56
275.15	1.37
275.366	73.04
275.581	42.32
275.797	23.89
276.012	77.14
276.228	87.38
276.444	7.51
276.659	95.57
276.875	19.8
277.09	30.04
277.306	34.13
277.521	25.94
277.737	46.42
277.952	66.9
278.168	50.52
278.383	109.91
278.599	32.08
278.814	32.08
279.03	-15.02
279.245	77.14
279.461	71
279.676	46.42
279.892	3.41
280.107	-25.26
280.322	25.94
280.538	64.85
280.753	54.61
280.969	73.04
281.184	85.33
281.399	25.94
281.615	32.08
281.83	58.71
282.045	-72.36
282.26	3.41
282.476	1.37
282.691	128.34
282.906	103.76
283.122	54.61
283.337	17.75
283.552	-29.35
283.767	36.18
283.983	136.53
284.198	66.9
284.413	17.75
284.628	44.37
284.843	9.56
285.058	-45.74
285.274	1.37
285.489	-43.69
285.704	52.56
285.919	11.61
286.134	36.18
286.349	36.18
286.564	-27.31
286.779	60.76
286.995	60.76
287.21	34.13
287.425	91.48
287.64	9.56
287.855	75.09
288.07	36.18
288.285	114
288.5	1.37
288.715	93.52
288.93	38.23
289.145	25.94
289.36	40.28
289.575	13.65
289.79	-2.73
290.004	99.67
290.219	64.85
290.434	-2.73
290.649	-29.35
290.864	7.51
291.079	42.32
291.294	-6.83
291.509	52.56
291.724	11.61
291.938	36.18
292.153	1.37
292.368	124.24
292.583	9.56
292.798	19.8
293.012	15.7
293.227	83.28
293.442	42.32
293.657	89.43
293.871	42.32
294.086	62.8
294.301	-2.73
294.516	11.61
294.73	36.18
294.945	5.46
295.16	60.76
295.374	9.56
295.589	58.71
295.804	32.08
296.018	25.94
296.233	107.86
296.447	-6.83
296.662	46.42
296.877	60.76
297.091	62.8
297.306	54.61
297.52	1.37
297.735	71
297.949	27.99
298.164	68.95
298.378	15.7
298.593	1.37
298.807	-2.73
299.022	-2.73
299.236	32.08
299.451	5.46
299.665	48.47
299.88	-6.83
300.094	30.04
300.309	95.57
300.523	9.56
300.737	27.99
300.952	44.37
301.166	25.94
301.381	19.8
301.595	52.56
301.809	54.61
302.024	-10.92
302.238	85.33
302.452	56.66
302.667	13.65
302.881	73.04
303.095	25.94
303.309	9.56
303.524	19.8
303.738	71
303.952	66.9
304.166	52.56
304.381	27.99
304.595	71
304.809	91.48
305.023	62.8
305.237	5.46
305.452	87.38
305.666	13.65
305.88	-35.5
306.094	27.99
306.308	27.99
306.522	48.47
306.736	60.76
306.95	36.18
307.164	36.18
307.379	71
307.593	3.41
307.807	77.14
308.021	50.52
308.235	1.37
308.449	5.46
308.663	25.94
308.877	50.52
309.091	75.09
309.305	-6.83
309.519	66.9
309.733	62.8
309.947	-53.93
310.161	42.32
310.374	124.24
310.588	44.37
310.802	44.37
311.016	13.65
311.23	1.37
311.444	-8.87
311.658	38.23
311.872	60.76
312.085	44.37
312.299	85.33
312.513	17.75
312.727	60.76
312.941	-29.35
313.154	130.39
313.368	-6.83
313.582	-10.92
313.796	73.04
314.009	-23.21
314.223	152.91
314.437	-21.16
314.651	-33.45
314.864	7.51
315.078	68.95
315.292	62.8
315.505	34.13
315.719	73.04
315.933	9.56
316.146	79.19
316.36	-25.26
316.573	99.67
316.787	3.41
317.001	77.14
317.214	5.46
317.428	19.8
317.641	36.18
317.855	-4.78
318.068	-2.73
318.282	60.76
318.495	140.63
318.709	75.09
318.922	71
319.136	71
319.349	77.14
319.563	83.28
319.776	-12.97
319.99	17.75
320.203	85.33
320.417	-31.4
320.63	38.23
320.843	11.61
321.057	101.72
321.27	99.67
321.483	5.46
321.697	44.37
321.91	30.04
322.124	85.33
322.337	79.19
322.55	48.47
322.763	21.85
322.977	13.65
323.19	1.37
323.403	17.75
323.617	44.37
323.83	50.52
324.043	-15.02
324.256	91.48
324.469	-29.35
324.683	83.28
324.896	54.61
325.109	93.52
325.322	1.37
325.535	83.28
325.748	17.75
325.962	114
326.175	66.9
326.388	-6.83
326.601	161.11
326.814	17.75
327.027	66.9
327.24	46.42
327.453	42.32
327.666	42.32
327.879	40.28
328.092	91.48
328.305	52.56
328.518	17.75
328.731	-35.5
328.944	36.18
329.157	-23.21
329.37	46.42
329.583	75.09
329.796	9.56
330.009	50.52
330.222	77.14
330.435	58.71
330.648	-55.98
330.861	105.81
331.073	107.86
331.286	62.8
331.499	3.41
331.712	34.13
331.925	-51.88
332.138	66.9
332.35	89.43
332.563	109.91
332.776	52.56
332.989	58.71
333.202	-2.73
333.414	-0.68
333.627	-2.73
333.84	3.41
334.053	52.56
334.265	91.48
334.478	66.9
334.691	40.28
334.903	-19.11
335.116	-12.97
335.329	46.42
335.541	9.56
335.754	134.48
335.966	-8.87
336.179	19.8
336.392	50.52
336.604	58.71
336.817	38.23
337.029	75.09
337.242	-12.97
337.454	21.85
337.667	87.38
337.88	68.95
338.092	7.51
338.305	68.95
338.517	77.14
338.729	38.23
338.942	85.33
339.154	25.94
339.367	62.8
339.579	48.47
339.792	17.75
340.004	34.13
340.217	13.65
340.429	32.08
340.641	-2.73
340.854	-39.59
341.066	62.8
341.278	138.58
341.491	75.09
341.703	32.08
341.915	50.52
342.128	42.32
342.34	46.42
342.552	11.61
342.764	38.23
342.977	48.47
343.189	83.28
343.401	77.14
343.613	-0.68
343.826	99.67
344.038	68.95
344.25	111.96
344.462	-31.4
344.674	148.82
344.886	54.61
345.099	105.81
345.311	136.53
345.523	81.24
345.735	13.65
345.947	25.94
346.159	66.9
346.371	99.67
346.583	27.99
346.795	124.24
347.007	50.52
347.219	32.08
347.431	36.18
347.643	1.37
347.855	32.08
348.067	-10.92
348.279	50.52
348.491	44.37
348.703	1.37
348.915	42.32
349.127	-10.92
349.339	60.76
349.551	5.46
349.763	103.76
349.975	-8.87
350.187	132.44
350.399	64.85
350.61	-21.16
350.822	-2.73
351.034	34.13
351.246	30.04
351.458	17.75
351.669	44.37
351.881	83.28
352.093	30.04
352.305	99.67
352.517	-21.16
352.728	42.32
352.94	62.8
353.152	62.8
353.363	-8.87
353.575	19.8
353.787	85.33
353.999	48.47
354.21	-12.97
354.422	-4.78
354.633	-35.5
354.845	7.51
355.057	32.08
355.268	109.91
355.48	-49.83
355.692	17.75
355.903	99.67
356.115	-21.16
356.326	36.18
356.538	93.52
356.749	1.37
356.961	34.13
357.172	9.56
357.384	64.85
357.595	107.86
357.807	-17.07
358.018	-2.73
358.23	34.13
358.441	23.89
358.653	111.96
358.864	50.52
359.075	42.32
359.287	83.28
359.498	66.9
359.709	17.75
359.921	27.99
360.132	-2.73
360.344	13.65
360.555	-25.26
360.766	13.65
360.977	91.48
361.189	-6.83
361.4	9.56
361.611	25.94
361.823	32.08
362.034	38.23
362.245	36.18
362.456	5.46
362.667	7.51
362.879	116.05
363.09	44.37
363.301	44.37
363.512	34.13
363.723	71
363.935	-17.07
364.146	52.56
364.357	52.56
364.568	60.76
364.779	56.66
364.99	159.06
365.201	103.76
365.412	52.56
365.623	46.42
365.834	30.04
366.045	36.18
366.256	27.99
366.467	13.65
366.678	-4.78
366.889	44.37
367.1	54.61
367.311	71
367.522	101.72
367.733	42.32
367.944	60.76
368.155	3.41
368.366	85.33
368.577	103.76
368.788	171.35
368.999	23.89
369.209	42.32
369.42	42.32
369.631	81.24
369.842	62.8
370.053	60.76
370.264	7.51
370.474	-21.16
370.685	81.24
370.896	66.9
371.107	161.11
371.317	46.42
371.528	-21.16
371.739	34.13
371.95	103.76
372.16	30.04
372.371	-17.07
372.582	79.19
372.792	68.95
373.003	11.61
373.214	5.46
373.424	58.71
373.635	58.71
373.846	93.52
374.056	-39.59
374.267	134.48
374.477	73.04
374.688	-10.92
374.898	134.48
375.109	68.95
375.319	77.14
375.53	58.71
375.74	71
375.951	9.56
376.161	124.24
376.372	54.61
376.582	-21.16
376.793	68.95
377.003	52.56
377.214	52.56
377.424	-6.83
377.635	50.52
377.845	-19.11
378.055	226.64
378.266	103.76
378.476	83.28
378.686	48.47
378.897	103.76
379.107	95.57
379.317	46.42
379.528	-4.78
379.738	91.48
379.948	11.61
380.158	42.32
380.369	5.46
380.579	103.76
380.789	44.37
380.999	97.62
381.21	58.71
381.42	77.14
381.63	140.63
381.84	52.56
382.05	91.48
382.261	60.76
382.471	107.86
382.681	132.44
382.891	81.24
383.101	79.19
383.311	66.9
383.521	-15.02
383.731	9.56
383.941	36.18
384.151	95.57
384.361	52.56
384.571	75.09
384.781	75.09
384.991	60.76
385.201	109.91
385.411	83.28
385.621	25.94
385.831	36.18
386.041	77.14
386.251	-31.4
386.461	60.76
386.671	32.08
386.881	-12.97
387.091	71
387.301	68.95
387.511	34.13
387.72	48.47
387.93	152.91
388.14	44.37
388.35	48.47
388.56	48.47
388.769	99.67
388.979	46.42
389.189	46.42
389.399	93.52
389.609	-10.92
389.818	60.76
390.028	25.94
390.238	44.37
390.447	75.09
390.657	75.09
390.867	105.81
391.076	21.85
391.286	38.23
391.496	30.04
391.705	60.76
391.915	58.71
392.125	87.38
392.334	42.32
392.544	85.33
392.753	62.8
392.963	44.37
393.172	60.76
393.382	21.85
393.591	142.68
393.801	1.37
394.01	79.19
394.22	71
394.429	77.14
394.639	75.09
394.848	124.24
395.058	89.43
395.267	34.13
395.477	17.75
395.686	85.33
395.895	66.9
396.105	140.63
396.314	44.37
396.524	-4.78
396.733	73.04
396.942	64.85
397.152	150.87
397.361	83.28
397.57	40.28
397.78	138.58
397.989	1.37
398.198	161.11
398.407	68.95
398.617	83.28
398.826	44.37
399.035	111.96
399.244	38.23
399.453	93.52
399.663	83.28
399.872	124.24
400.081	27.99
400.29	111.96
400.499	73.04
400.708	75.09
400.917	68.95
401.127	36.18
401.336	79.19
401.545	97.62
401.754	95.57
401.963	19.8
402.172	124.24
402.381	21.85
402.59	111.96
402.799	148.82
403.008	99.67
403.217	101.72
403.426	169.3
403.635	62.8
403.844	32.08
404.053	103.76
404.262	101.72
404.471	134.48
404.68	128.34
404.888	99.67
405.097	97.62
405.306	101.72
405.515	103.76
405.724	183.63
405.933	85.33
406.142	114
406.35	187.73
406.559	134.48
406.768	114
406.977	189.78
407.185	73.04
407.394	234.83
407.603	171.35
407.812	177.49
408.02	148.82
408.229	206.16
408.438	103.76
408.646	75.09
408.855	140.63
409.064	173.39
409.272	206.16
409.481	222.55
409.69	175.44
409.898	181.59
410.107	177.49
410.315	238.93
410.524	169.3
410.733	232.79
410.941	173.39
411.15	226.64
411.358	247.12
411.567	247.12
411.775	177.49
411.984	357.71
412.192	281.94
412.401	222.55
412.609	318.8
412.818	292.18
413.026	300.37
413.234	304.46
413.443	335.18
413.651	337.23
413.86	304.46
414.068	365.9
414.276	380.24
414.485	392.53
414.693	400.72
414.901	435.53
415.11	427.34
415.318	386.38
415.526	421.2
415.734	408.91
415.943	460.11
416.151	525.65
416.359	570.7
416.567	582.99
416.776	550.22
416.984	652.62
417.192	640.33
417.4	626
417.608	582.99
417.817	601.42
418.025	681.29
418.233	714.06
418.441	654.67
418.649	712.01
418.857	734.54
419.065	808.26
419.273	709.96
419.481	877.9
419.689	802.12
419.897	865.61
420.105	953.67
420.313	933.19
420.521	959.81
420.729	1000.77
420.937	945.48
421.145	1101.12
421.353	1135.94
421.561	1160.52
421.769	1258.82
421.977	1228.1
422.185	1258.82
422.393	1320.26
422.601	1402.18
422.809	1271.11
423.017	1436.99
423.224	1377.6
423.432	1463.61
423.64	1451.33
423.848	1584.45
424.056	1566.01
424.263	1672.51
424.471	1746.23
424.679	1580.35
424.887	1822.01
425.094	1832.25
425.302	1918.26
425.51	1914.17
425.718	2030.9
425.925	2010.42
426.133	2114.87
426.341	2250.03
426.548	2401.58
426.756	2274.61
426.964	2385.2
427.171	2501.94
427.379	2612.53
427.586	2626.86
427.794	2655.53
428.001	2719.02
428.209	2970.92
428.417	2962.73
428.624	3054.89
428.832	3056.93
429.039	3022.12
429.247	3128.61
429.454	3298.6
429.662	3640.61
429.869	3394.85
430.076	3654.94
430.284	3466.53
430.491	3763.48
430.699	4033.82
430.906	3845.4
431.114	3921.18
431.321	3982.62
431.528	4166.93
431.736	4424.98
431.943	4568.34
432.15	4474.13
432.358	4498.7
432.565	4769.04
432.772	4640.01
432.979	5139.72
433.187	5020.94
433.394	5008.65
433.601	5457.15
433.808	5473.54
434.016	5393.67
434.223	5664
434.43	5858.56
434.637	5786.88
434.844	6208.76
435.052	6370.55
435.259	6268.15
435.466	6362.36
435.673	6460.66
435.88	6694.13
436.087	7218.41
436.294	7068.91
436.501	6890.73
436.708	6991.08
436.915	7304.42
437.122	7726.3
437.329	7773.41
437.537	7683.3
437.743	7916.76
437.95	7871.71
438.157	8471.76
438.364	8576.21
438.571	8525.01
438.778	8723.66
438.985	9454.79
439.192	9280.71
439.399	9467.08
439.606	9168.07
439.813	9915.58
440.02	10190.01
440.227	10220.73
440.433	10134.71
440.64	10491.06
440.847	10357.94
441.054	10450.1
441.261	11181.23
441.467	11236.52
441.674	11406.5
441.881	11936.93
442.088	11807.91
442.294	11605.16
442.501	12090.52
442.708	12151.96
442.914	12887.18
443.121	13173.9
443.328	12827.79
443.534	13784.19
443.741	13331.59
443.948	13249.68
444.154	14165.12
444.361	14259.32
444.568	14044.29
444.774	14132.35
444.981	14345.34
445.187	14814.32
445.394	15238.25
445.6	15154.29
445.807	16612.44
446.013	16063.58
446.22	16288.86
446.426	16852.05
446.633	17050.71
446.839	17673.29
447.046	16925.78
447.252	17863.75
447.459	17835.08
447.665	18041.92
447.871	18730.04
448.078	19590.19
448.284	18486.33
448.491	19289.13
448.697	19842.09
448.903	20257.82
449.11	20341.79
449.316	19958.82
449.522	20407.33
449.728	20728.86
449.935	21019.67
450.141	21216.27
450.347	21877.77
450.553	21009.43
450.76	21216.27
450.966	22496.25
451.172	21742.6
451.378	22197.25
451.584	21849.1
451.791	22621.18
451.997	22500.35
452.203	22680.57
452.409	22569.98
452.615	22838.26
452.821	21920.77
453.027	21750.79
453.233	22998.01
453.44	21855.24
453.646	22268.93
453.852	22338.56
454.058	22653.95
454.264	22101
454.47	22658.04
454.676	21963.78
454.882	22813.69
455.088	20888.6
455.294	21287.95
455.5	21564.43
455.705	21894.15
455.911	20663.32
456.117	20440.09
456.323	20128.8
456.529	19211.31
456.735	19725.35
456.941	19416.11
457.147	19182.64
457.352	18572.35
457.558	18342.97
457.764	18476.09
457.97	18238.53
458.176	17648.71
458.381	17779.78
458.587	16778.33
458.793	16864.34
458.999	16065.63
459.204	17200.21
459.41	16688.21
459.616	15527.02
459.821	15770.72
460.027	15389.8
460.233	15017.07
460.438	14324.86
460.644	14605.43
460.85	14175.36
461.055	13579.4
461.261	13841.54
461.466	12651.67
461.672	12344.47
461.878	13151.37
462.083	12422.3
462.289	12119.2
462.494	11893.92
462.7	11369.64
462.905	11082.92
463.111	11340.97
463.316	11453.61
463.522	11252.91
463.727	11447.46
463.932	11379.88
464.138	11168.94
464.343	11359.4
464.549	10992.81
464.754	11447.46
464.959	11056.3
465.165	11314.34
465.37	10759.35
465.575	10486.97
465.781	10671.28
465.986	10876.08
466.191	10503.35
466.397	10151.1
466.602	9569.48
466.807	10042.56
467.012	10202.3
467.218	10067.13
467.423	9829.57
467.628	10058.94
467.833	10403
468.038	10079.42
468.244	9639.11
468.449	10147
468.654	9856.19
468.859	9870.53
469.064	9612.48
469.269	9170.12
469.474	9411.78
