Data from USB4F104151__17__13-10-31-385.txt Node

Date: Fri Mar 14 13:10:31 EDT 2025
User: louis
Spectrometer: USB4F10415
Trigger mode: 4
Integration Time (sec): 2.000000E-2
Scans to average: 1
Electric dark correction enabled: true
Nonlinearity correction enabled: false
Boxcar width: 0
XAxis mode: Wavelengths
Number of Pixels in Spectrum: 3648
>>>>>Begin Spectral Data<<<<<
178.204	-84.99
178.424	-84.99
178.644	-84.99
178.864	-74.75
179.084	-56.32
179.304	-11.26
179.524	39.94
179.744	-7.17
179.964	41.98
180.184	-35.84
180.404	23.55
180.624	9.22
180.844	9.22
181.064	-41.98
181.283	11.26
181.503	-60.42
181.723	21.5
181.943	-78.85
182.163	82.94
182.383	56.32
182.602	54.27
182.822	7.17
183.042	15.36
183.262	-44.03
183.482	125.95
183.701	76.8
183.921	31.74
184.141	13.31
184.361	80.89
184.58	33.79
184.8	56.32
185.02	3.07
185.239	60.42
185.459	-25.6
185.679	21.5
185.898	-11.26
186.118	44.03
186.338	-13.31
186.557	-3.07
186.777	44.03
186.997	1.02
187.216	3.07
187.436	13.31
187.655	62.46
187.875	46.08
188.095	-3.07
188.314	74.75
188.534	37.89
188.753	37.89
188.973	21.5
189.192	3.07
189.412	48.13
189.631	15.36
189.851	-1.02
190.07	25.6
190.29	23.55
190.509	62.46
190.729	23.55
190.948	97.28
191.168	158.72
191.387	66.56
191.607	-58.37
191.826	5.12
192.045	-11.26
192.265	29.7
192.484	-11.26
192.704	-1.02
192.923	-15.36
193.142	17.41
193.362	54.27
193.581	89.09
193.8	29.7
194.02	52.22
194.239	29.7
194.458	44.03
194.678	-1.02
194.897	19.46
195.116	82.94
195.335	48.13
195.555	58.37
195.774	23.55
195.993	13.31
196.212	21.5
196.432	3.07
196.651	44.03
196.87	-9.22
197.089	64.51
197.308	64.51
197.528	78.85
197.747	23.55
197.966	3.07
198.185	123.9
198.404	46.08
198.623	7.17
198.842	44.03
199.062	-15.36
199.281	101.37
199.5	-25.6
199.719	78.85
199.938	-50.18
200.157	54.27
200.376	35.84
200.595	33.79
200.814	115.71
201.033	9.22
201.252	23.55
201.471	21.5
201.69	105.47
201.909	29.7
202.128	44.03
202.347	70.65
202.566	29.7
202.785	5.12
203.004	11.26
203.223	48.13
203.442	9.22
203.661	54.27
203.879	78.85
204.098	64.51
204.317	1.02
204.536	29.7
204.755	-35.84
204.974	37.89
205.193	68.61
205.411	35.84
205.63	52.22
205.849	5.12
206.068	37.89
206.287	-11.26
206.505	95.23
206.724	68.61
206.943	44.03
207.162	15.36
207.381	17.41
207.599	56.32
207.818	46.08
208.037	19.46
208.255	64.51
208.474	3.07
208.693	80.89
208.911	62.46
209.13	-13.31
209.349	82.94
209.567	78.85
209.786	109.57
210.005	84.99
210.223	-21.5
210.442	-3.07
210.661	95.23
210.879	3.07
211.098	29.7
211.316	50.18
211.535	48.13
211.753	17.41
211.972	13.31
212.191	-21.5
212.409	56.32
212.628	15.36
212.846	9.22
213.065	31.74
213.283	9.22
213.502	9.22
213.72	64.51
213.938	-21.5
214.157	78.85
214.375	33.79
214.594	15.36
214.812	62.46
215.031	27.65
215.249	3.07
215.467	46.08
215.686	-7.17
215.904	-1.02
216.122	1.02
216.341	21.5
216.559	66.56
216.778	95.23
216.996	23.55
217.214	5.12
217.432	35.84
217.651	105.47
217.869	39.94
218.087	-7.17
218.306	91.13
218.524	58.37
218.742	58.37
218.96	64.51
219.179	50.18
219.397	103.42
219.615	78.85
219.833	31.74
220.051	25.6
220.27	66.56
220.488	105.47
220.706	25.6
220.924	-9.22
221.142	33.79
221.36	29.7
221.578	103.42
221.796	-1.02
222.015	54.27
222.233	21.5
222.451	41.98
222.669	-15.36
222.887	74.75
223.105	84.99
223.323	62.46
223.541	-31.74
223.759	78.85
223.977	-11.26
224.195	29.7
224.413	78.85
224.631	62.46
224.849	41.98
225.067	60.42
225.285	-99.33
225.503	44.03
225.721	-29.7
225.939	82.94
226.157	48.13
226.375	140.29
226.592	-19.46
226.81	80.89
227.028	72.7
227.246	89.09
227.464	13.31
227.682	97.28
227.9	64.51
228.117	23.55
228.335	62.46
228.553	7.17
228.771	3.07
228.989	15.36
229.206	5.12
229.424	3.07
229.642	9.22
229.86	-58.37
230.077	105.47
230.295	54.27
230.513	31.74
230.731	3.07
230.948	66.56
231.166	140.29
231.384	62.46
231.601	-1.02
231.819	80.89
232.037	52.22
232.254	52.22
232.472	-15.36
232.689	-13.31
232.907	35.84
233.125	41.98
233.342	33.79
233.56	-3.07
233.777	5.12
233.995	52.22
234.213	48.13
234.43	-11.26
234.648	46.08
234.865	-23.55
235.083	80.89
235.3	11.26
235.518	52.22
235.735	33.79
235.953	58.37
236.17	7.17
236.388	1.02
236.605	35.84
236.822	80.89
237.04	27.65
237.257	80.89
237.475	52.22
237.692	46.08
237.909	66.56
238.127	21.5
238.344	58.37
238.562	103.42
238.779	54.27
238.996	-7.17
239.214	84.99
239.431	93.18
239.648	-17.41
239.865	62.46
240.083	105.47
240.3	31.74
240.517	95.23
240.735	17.41
240.952	46.08
241.169	46.08
241.386	44.03
241.603	33.79
241.821	-37.89
242.038	64.51
242.255	58.37
242.472	-11.26
242.689	29.7
242.907	5.12
243.124	33.79
243.341	23.55
243.558	3.07
243.775	-35.84
243.992	-82.94
244.209	87.04
244.426	25.6
244.643	9.22
244.86	-11.26
245.078	31.74
245.295	64.51
245.512	7.17
245.729	-3.07
245.946	148.48
246.163	105.47
246.38	97.28
246.597	-15.36
246.814	5.12
247.031	54.27
247.248	-46.08
247.464	68.61
247.681	50.18
247.898	62.46
248.115	25.6
248.332	27.65
248.549	91.13
248.766	66.56
248.983	87.04
249.2	23.55
249.417	-1.02
249.633	37.89
249.85	37.89
250.067	99.33
250.284	1.02
250.501	15.36
250.717	60.42
250.934	-7.17
251.151	-21.5
251.368	-31.74
251.585	54.27
251.801	-11.26
252.018	58.37
252.235	35.84
252.451	21.5
252.668	62.46
252.885	111.61
253.102	-31.74
253.318	46.08
253.535	19.46
253.752	-35.84
253.968	9.22
254.185	7.17
254.401	-37.89
254.618	52.22
254.835	58.37
255.051	46.08
255.268	11.26
255.484	33.79
255.701	25.6
255.917	-19.46
256.134	64.51
256.351	136.19
256.567	80.89
256.784	-3.07
257	-54.27
257.217	58.37
257.433	7.17
257.65	74.75
257.866	-7.17
258.082	50.18
258.299	46.08
258.515	37.89
258.732	-39.94
258.948	-13.31
259.165	-13.31
259.381	-7.17
259.597	44.03
259.814	54.27
260.03	62.46
260.246	5.12
260.463	91.13
260.679	74.75
260.895	64.51
261.112	78.85
261.328	52.22
261.544	41.98
261.761	95.23
261.977	-23.55
262.193	84.99
262.409	-9.22
262.626	21.5
262.842	21.5
263.058	29.7
263.274	13.31
263.49	48.13
263.707	15.36
263.923	64.51
264.139	21.5
264.355	33.79
264.571	87.04
264.787	-3.07
265.004	62.46
265.22	25.6
265.436	46.08
265.652	5.12
265.868	115.71
266.084	37.89
266.3	74.75
266.516	25.6
266.732	64.51
266.948	5.12
267.164	7.17
267.38	54.27
267.596	48.13
267.812	48.13
268.028	113.66
268.244	19.46
268.46	21.5
268.676	35.84
268.892	41.98
269.108	74.75
269.324	103.42
269.54	19.46
269.756	27.65
269.972	17.41
270.188	31.74
270.403	-19.46
270.619	-9.22
270.835	-11.26
271.051	23.55
271.267	17.41
271.483	33.79
271.698	15.36
271.914	56.32
272.13	97.28
272.346	93.18
272.562	-25.6
272.777	84.99
272.993	11.26
273.209	52.22
273.425	-9.22
273.64	-7.17
273.856	54.27
274.072	31.74
274.287	17.41
274.503	7.17
274.719	7.17
274.934	-7.17
275.15	99.33
275.366	46.08
275.581	19.46
275.797	-15.36
276.012	103.42
276.228	27.65
276.444	25.6
276.659	52.22
276.875	31.74
277.09	15.36
277.306	87.04
277.521	56.32
277.737	9.22
277.952	58.37
278.168	37.89
278.383	56.32
278.599	44.03
278.814	48.13
279.03	70.65
279.245	13.31
279.461	29.7
279.676	7.17
279.892	-1.02
280.107	39.94
280.322	27.65
280.538	60.42
280.753	-13.31
280.969	97.28
281.184	60.42
281.399	62.46
281.615	29.7
281.83	33.79
282.045	11.26
282.26	-17.41
282.476	-50.18
282.691	101.37
282.906	56.32
283.122	-5.12
283.337	50.18
283.552	-11.26
283.767	9.22
283.983	33.79
284.198	-15.36
284.413	70.65
284.628	-52.22
284.843	78.85
285.058	60.42
285.274	7.17
285.489	25.6
285.704	19.46
285.919	1.02
286.134	-1.02
286.349	27.65
286.564	54.27
286.779	89.09
286.995	-29.7
287.21	-44.03
287.425	113.66
287.64	41.98
287.855	50.18
288.07	-27.65
288.285	31.74
288.5	-13.31
288.715	93.18
288.93	-19.46
289.145	56.32
289.36	64.51
289.575	-3.07
289.79	111.61
290.004	78.85
290.219	62.46
290.434	-21.5
290.649	-3.07
290.864	29.7
291.079	15.36
291.294	87.04
291.509	5.12
291.724	5.12
291.938	-7.17
292.153	74.75
292.368	29.7
292.583	41.98
292.798	15.36
293.012	95.23
293.227	25.6
293.442	54.27
293.657	60.42
293.871	54.27
294.086	35.84
294.301	99.33
294.516	152.57
294.73	19.46
294.945	-17.41
295.16	39.94
295.374	91.13
295.589	119.81
295.804	11.26
296.018	-37.89
296.233	56.32
296.447	-17.41
296.662	60.42
296.877	91.13
297.091	17.41
297.306	95.23
297.52	15.36
297.735	50.18
297.949	97.28
298.164	66.56
298.378	44.03
298.593	-11.26
298.807	-52.22
299.022	-23.55
299.236	21.5
299.451	31.74
299.665	54.27
299.88	25.6
300.094	33.79
300.309	13.31
300.523	25.6
300.737	-21.5
300.952	-1.02
301.166	31.74
301.381	29.7
301.595	64.51
301.809	41.98
302.024	5.12
302.238	-39.94
302.452	33.79
302.667	29.7
302.881	140.29
303.095	56.32
303.309	-35.84
303.524	7.17
303.738	23.55
303.952	7.17
304.166	58.37
304.381	-52.22
304.595	140.29
304.809	29.7
305.023	39.94
305.237	50.18
305.452	-27.65
305.666	-5.12
305.88	-29.7
306.094	31.74
306.308	-7.17
306.522	-3.07
306.736	23.55
306.95	-7.17
307.164	109.57
307.379	27.65
307.593	7.17
307.807	62.46
308.021	111.61
308.235	-17.41
308.449	37.89
308.663	-17.41
308.877	119.81
309.091	46.08
309.305	31.74
309.519	37.89
309.733	29.7
309.947	74.75
310.161	-29.7
310.374	31.74
310.588	68.61
310.802	62.46
311.016	23.55
311.23	52.22
311.444	74.75
311.658	-1.02
311.872	46.08
312.085	39.94
312.299	1.02
312.513	33.79
312.727	23.55
312.941	72.7
313.154	13.31
313.368	33.79
313.582	52.22
313.796	52.22
314.009	-29.7
314.223	84.99
314.437	23.55
314.651	70.65
314.864	84.99
315.078	5.12
315.292	13.31
315.505	15.36
315.719	27.65
315.933	54.27
316.146	70.65
316.36	91.13
316.573	41.98
316.787	148.48
317.001	19.46
317.214	-19.46
317.428	64.51
317.641	23.55
317.855	13.31
318.068	50.18
318.282	99.33
318.495	39.94
318.709	117.76
318.922	9.22
319.136	13.31
319.349	-17.41
319.563	-15.36
319.776	70.65
319.99	56.32
320.203	68.61
320.417	9.22
320.63	56.32
320.843	138.24
321.057	113.66
321.27	72.7
321.483	93.18
321.697	56.32
321.91	48.13
322.124	13.31
322.337	-11.26
322.55	58.37
322.763	37.89
322.977	-17.41
323.19	37.89
323.403	66.56
323.617	31.74
323.83	70.65
324.043	21.5
324.256	78.85
324.469	25.6
324.683	72.7
324.896	64.51
325.109	52.22
325.322	3.07
325.535	107.52
325.748	78.85
325.962	107.52
326.175	80.89
326.388	82.94
326.601	89.09
326.814	39.94
327.027	33.79
327.24	150.53
327.453	3.07
327.666	5.12
327.879	109.57
328.092	64.51
328.305	58.37
328.518	95.23
328.731	-3.07
328.944	76.8
329.157	54.27
329.37	-39.94
329.583	93.18
329.796	41.98
330.009	56.32
330.222	21.5
330.435	37.89
330.648	50.18
330.861	37.89
331.073	5.12
331.286	66.56
331.499	68.61
331.712	44.03
331.925	-41.98
332.138	78.85
332.35	48.13
332.563	54.27
332.776	48.13
332.989	5.12
333.202	91.13
333.414	39.94
333.627	54.27
333.84	56.32
334.053	50.18
334.265	48.13
334.478	23.55
334.691	68.61
334.903	46.08
335.116	9.22
335.329	82.94
335.541	54.27
335.754	68.61
335.966	13.31
336.179	5.12
336.392	66.56
336.604	21.5
336.817	15.36
337.029	64.51
337.242	54.27
337.454	99.33
337.667	23.55
337.88	105.47
338.092	33.79
338.305	33.79
338.517	-41.98
338.729	54.27
338.942	99.33
339.154	-5.12
339.367	56.32
339.579	62.46
339.792	-31.74
340.004	48.13
340.217	29.7
340.429	62.46
340.641	37.89
340.854	111.61
341.066	111.61
341.278	25.6
341.491	107.52
341.703	46.08
341.915	-3.07
342.128	44.03
342.34	27.65
342.552	48.13
342.764	-23.55
342.977	64.51
343.189	23.55
343.401	25.6
343.613	25.6
343.826	9.22
344.038	15.36
344.25	68.61
344.462	33.79
344.674	62.46
344.886	9.22
345.099	84.99
345.311	64.51
345.523	46.08
345.735	39.94
345.947	128
346.159	1.02
346.371	35.84
346.583	72.7
346.795	33.79
347.007	7.17
347.219	31.74
347.431	46.08
347.643	62.46
347.855	-15.36
348.067	46.08
348.279	7.17
348.491	80.89
348.703	-1.02
348.915	46.08
349.127	9.22
349.339	54.27
349.551	60.42
349.763	27.65
349.975	58.37
350.187	93.18
350.399	15.36
350.61	17.41
350.822	93.18
351.034	7.17
351.246	78.85
351.458	107.52
351.669	58.37
351.881	37.89
352.093	72.7
352.305	54.27
352.517	33.79
352.728	60.42
352.94	25.6
353.152	39.94
353.363	-35.84
353.575	64.51
353.787	136.19
353.999	27.65
354.21	13.31
354.422	17.41
354.633	13.31
354.845	13.31
355.057	33.79
355.268	84.99
355.48	70.65
355.692	25.6
355.903	33.79
356.115	58.37
356.326	15.36
356.538	76.8
356.749	37.89
356.961	62.46
357.172	52.22
357.384	93.18
357.595	82.94
357.807	-9.22
358.018	-9.22
358.23	89.09
358.441	107.52
358.653	87.04
358.864	33.79
359.075	35.84
359.287	82.94
359.498	78.85
359.709	76.8
359.921	80.89
360.132	138.24
360.344	58.37
360.555	-31.74
360.766	35.84
360.977	31.74
361.189	64.51
361.4	9.22
361.611	113.66
361.823	15.36
362.034	72.7
362.245	-17.41
362.456	115.71
362.667	11.26
362.879	33.79
363.09	13.31
363.301	82.94
363.512	91.13
363.723	60.42
363.935	29.7
364.146	21.5
364.357	58.37
364.568	54.27
364.779	-19.46
364.99	128
365.201	48.13
365.412	91.13
365.623	48.13
365.834	29.7
366.045	56.32
366.256	5.12
366.467	-5.12
366.678	33.79
366.889	105.47
367.1	37.89
367.311	111.61
367.522	37.89
367.733	89.09
367.944	70.65
368.155	105.47
368.366	107.52
368.577	17.41
368.788	29.7
368.999	21.5
369.209	62.46
369.42	56.32
369.631	33.79
369.842	111.61
370.053	95.23
370.264	78.85
370.474	23.55
370.685	44.03
370.896	62.46
371.107	56.32
371.317	56.32
371.528	84.99
371.739	56.32
371.95	74.75
372.16	60.42
372.371	44.03
372.582	52.22
372.792	99.33
373.003	64.51
373.214	87.04
373.424	48.13
373.635	50.18
373.846	72.7
374.056	23.55
374.267	41.98
374.477	19.46
374.688	136.19
374.898	7.17
375.109	50.18
375.319	11.26
375.53	48.13
375.74	101.37
375.951	11.26
376.161	111.61
376.372	179.2
376.582	-23.55
376.793	115.71
377.003	74.75
377.214	15.36
377.424	17.41
377.635	27.65
377.845	-1.02
378.055	25.6
378.266	46.08
378.476	70.65
378.686	48.13
378.897	52.22
379.107	48.13
379.317	48.13
379.528	89.09
379.738	128
379.948	-39.94
380.158	44.03
380.369	78.85
380.579	15.36
380.789	27.65
380.999	87.04
381.21	60.42
381.42	3.07
381.63	60.42
381.84	68.61
382.05	111.61
382.261	78.85
382.471	82.94
382.681	39.94
382.891	48.13
383.101	119.81
383.311	13.31
383.521	82.94
383.731	64.51
383.941	87.04
384.151	62.46
384.361	64.51
384.571	89.09
384.781	48.13
384.991	93.18
385.201	82.94
385.411	72.7
385.621	91.13
385.831	119.81
386.041	46.08
386.251	39.94
386.461	76.8
386.671	64.51
386.881	89.09
387.091	27.65
387.301	37.89
387.511	74.75
387.72	33.79
387.93	78.85
388.14	82.94
388.35	44.03
388.56	105.47
388.769	21.5
388.979	123.9
389.189	-9.22
389.399	35.84
389.609	113.66
389.818	54.27
390.028	72.7
390.238	93.18
390.447	97.28
390.657	48.13
390.867	41.98
391.076	64.51
391.286	97.28
391.496	21.5
391.705	121.85
391.915	99.33
392.125	113.66
392.334	46.08
392.544	68.61
392.753	17.41
392.963	46.08
393.172	128
393.382	39.94
393.591	132.09
393.801	93.18
394.01	109.57
394.22	66.56
394.429	95.23
394.639	-11.26
394.848	13.31
395.058	97.28
395.267	37.89
395.477	70.65
395.686	87.04
395.895	111.61
396.105	158.72
396.314	54.27
396.524	21.5
396.733	80.89
396.942	74.75
397.152	130.05
397.361	68.61
397.57	25.6
397.78	111.61
397.989	78.85
398.198	154.62
398.407	105.47
398.617	78.85
398.826	111.61
399.035	48.13
399.244	78.85
399.453	113.66
399.663	103.42
399.872	209.92
400.081	70.65
400.29	91.13
400.499	82.94
400.708	144.38
400.917	46.08
401.127	21.5
401.336	84.99
401.545	84.99
401.754	101.37
401.963	144.38
402.172	103.42
402.381	134.14
402.59	168.96
402.799	142.33
403.008	164.86
403.217	119.81
403.426	230.4
403.635	115.71
403.844	95.23
404.053	103.42
404.262	171.01
404.471	244.73
404.68	130.05
404.888	138.24
405.097	144.38
405.306	185.34
405.515	152.57
405.724	187.39
405.933	173.05
406.142	181.25
406.35	156.67
406.559	152.57
406.768	62.46
406.977	140.29
407.185	205.82
407.394	152.57
407.603	203.77
407.812	140.29
408.02	152.57
408.229	185.34
408.438	146.43
408.646	121.85
408.855	234.49
409.064	244.73
409.272	205.82
409.481	228.35
409.69	175.1
409.898	293.88
410.107	234.49
410.315	310.27
410.524	242.68
410.733	357.37
410.941	277.5
411.15	386.04
411.358	338.94
411.567	359.42
411.775	398.33
411.984	332.79
412.192	332.79
412.401	402.43
412.609	388.09
412.818	414.71
413.026	396.28
413.234	420.86
413.443	396.28
413.651	455.67
413.86	494.58
414.068	574.46
414.276	576.5
414.485	488.44
414.693	605.17
414.901	504.82
415.11	504.82
415.318	611.32
415.526	621.56
415.734	639.99
415.943	646.13
416.151	648.18
416.359	633.85
416.567	781.3
416.776	752.63
416.984	906.23
417.192	797.68
417.4	812.02
417.608	748.53
417.817	875.51
418.025	859.12
418.233	992.24
418.441	898.03
418.649	1084.4
418.857	1094.64
419.065	1049.58
419.273	1029.1
419.481	1176.56
419.689	1184.75
419.897	1217.52
420.105	1203.18
420.313	1307.63
420.521	1385.45
420.729	1403.88
420.937	1381.35
421.145	1369.07
421.353	1397.74
421.561	1616.87
421.769	1588.2
421.977	1727.46
422.185	1684.45
422.393	1782.76
422.601	2003.94
422.809	1850.34
423.017	1817.57
423.224	1928.16
423.432	1995.75
423.64	2073.57
423.848	2284.51
424.056	2198.49
424.263	2431.96
424.471	2368.48
424.679	2434.01
424.887	2444.25
425.094	2544.6
425.302	2642.9
425.51	2653.14
425.718	2827.22
425.925	2825.17
426.133	2757.59
426.341	3113.94
426.548	3333.07
426.756	3230.67
426.964	3304.4
427.171	3619.78
427.379	3458
427.586	3685.32
427.794	3658.7
428.001	3883.97
428.209	4037.57
428.417	4072.39
428.624	4139.97
428.832	4326.33
429.039	4338.62
429.247	4213.7
429.454	4688.82
429.662	4957.11
429.869	4694.97
430.076	4961.2
430.284	4750.26
430.491	5092.27
430.699	5426.09
430.906	5346.22
431.114	5366.7
431.321	5809.06
431.528	5841.83
431.736	6044.58
431.943	6353.82
432.15	6159.27
432.358	6353.82
432.565	6501.28
432.772	6470.56
432.979	6787.99
433.187	7132.05
433.394	7009.17
433.601	7584.65
433.808	7644.04
434.016	7558.03
434.223	8012.68
434.43	8577.92
434.637	8151.94
434.844	8776.57
435.052	8881.02
435.259	8862.58
435.466	8864.63
435.673	8706.94
435.88	9431.92
436.087	9759.6
436.294	9931.62
436.501	9818.99
436.708	9747.31
436.915	10029.93
437.122	10828.63
437.329	10543.97
437.537	10965.85
437.743	11019.1
437.95	11117.4
438.157	11549.52
438.364	12057.42
438.571	11942.73
438.778	12022.6
438.985	13177.65
439.192	12534.59
439.399	12874.56
439.606	12702.53
439.813	13665.07
440.02	14340.9
440.227	14125.86
440.433	14101.29
440.64	14486.31
440.847	14283.56
441.054	14514.98
441.261	15612.69
441.467	15381.27
441.674	15751.95
441.881	16425.73
442.088	16352.01
442.294	16302.86
442.501	16849.66
442.708	16995.07
442.914	17496.82
443.121	18238.19
443.328	17810.16
443.534	18809.57
443.741	18569.96
443.948	18012.91
444.154	19620.56
444.361	19651.28
444.568	19669.72
444.774	19856.08
444.981	19870.42
445.187	20273.87
445.394	21365.43
445.6	21039.81
445.807	23030.43
446.013	22368.94
446.22	22436.52
446.426	23437.98
446.633	23825.04
446.839	24277.65
447.046	23485.08
447.252	24750.73
447.459	24814.21
447.665	24582.79
447.871	25891.44
448.078	26985.06
448.284	25799.29
448.491	26258.03
448.697	27501.15
448.903	28236.37
449.11	27785.82
449.316	27763.29
449.522	27867.73
449.728	28977.73
449.935	29123.14
450.141	29049.41
450.347	30075.45
450.553	28678.73
450.76	29309.5
450.966	30347.82
451.172	30206.52
451.378	30939.69
451.584	30050.87
451.791	31142.44
451.997	30652.97
452.203	31250.98
452.409	31435.3
452.615	31207.97
452.821	29923.9
453.027	29870.65
453.233	31537.69
453.44	29962.81
453.646	30659.12
453.852	30614.06
454.058	31164.96
454.264	30413.36
454.47	31023.65
454.676	30114.36
454.882	31226.4
455.088	28398.16
455.294	29108.8
455.5	29082.18
455.705	29655.61
455.911	28539.47
456.117	27927.13
456.323	27857.49
456.529	26464.88
456.735	27376.22
456.941	26729.06
457.147	26456.68
457.352	25379.45
457.558	25408.12
457.764	25154.18
457.97	24638.09
458.176	24521.35
458.381	24320.65
458.587	23036.58
458.793	23536.28
458.999	21734.07
459.204	23478.94
459.41	22833.83
459.616	21336.76
459.821	21293.76
460.027	21222.08
460.233	20869.83
460.438	19737.3
460.644	20177.61
460.85	19141.34
461.055	18641.64
461.261	19063.52
461.466	17429.24
461.672	17101.56
461.878	18223.85
462.083	16808.7
462.289	16579.33
462.494	16456.45
462.7	15575.83
462.905	15455
463.111	15862.54
463.316	15946.51
463.522	15485.72
463.727	15526.68
463.932	15469.33
464.138	15446.8
464.343	15604.5
464.549	14873.37
464.754	15442.71
464.959	15213.34
465.165	15209.24
465.37	14621.47
465.575	14138.15
465.781	14842.65
465.986	14703.39
466.191	14250.79
466.397	14011.18
466.602	13499.19
466.807	13599.54
467.012	13923.12
467.218	13976.36
467.423	13544.24
467.628	13953.84
467.833	14183.21
468.038	13818.67
468.244	13443.89
