Data from USB4F104151__77__13-12-28-533.txt Node

Date: Fri Mar 14 13:12:28 EDT 2025
User: louis
Spectrometer: USB4F10415
Trigger mode: 4
Integration Time (sec): 2.000000E-2
Scans to average: 1
Electric dark correction enabled: true
Nonlinearity correction enabled: false
Boxcar width: 0
XAxis mode: Wavelengths
Number of Pixels in Spectrum: 3648
>>>>>Begin Spectral Data<<<<<
178.204	-73.56
178.424	-73.56
178.644	-73.56
178.864	-81.75
179.084	-145.24
179.304	-40.79
179.524	-22.36
179.744	-38.74
179.964	37.03
180.184	55.47
180.404	6.31
180.624	49.32
180.844	24.75
181.064	-69.46
181.283	-42.84
181.503	18.6
181.723	22.7
181.943	-42.84
182.163	24.75
182.383	-32.6
182.602	59.56
182.822	96.43
183.042	43.18
183.262	-30.55
183.482	16.55
183.701	2.22
183.921	-42.84
184.141	100.52
184.361	53.42
184.58	26.79
184.8	61.61
185.02	-26.45
185.239	47.27
185.459	34.99
185.679	-44.88
185.898	-32.6
186.118	39.08
186.338	-28.5
186.557	47.27
186.777	10.41
186.997	37.03
187.216	59.56
187.436	61.61
187.655	45.23
187.875	90.28
188.095	59.56
188.314	98.47
188.534	51.37
188.753	-3.93
188.973	12.46
189.192	92.33
189.412	8.36
189.631	65.71
189.851	22.7
190.07	65.71
190.29	-55.12
190.509	-32.6
190.729	18.6
190.948	57.51
191.168	67.75
191.387	6.31
191.607	-73.56
191.826	51.37
192.045	65.71
192.265	39.08
192.484	67.75
192.704	-36.69
192.923	-46.93
193.142	73.9
193.362	-8.02
193.581	112.81
193.8	77.99
194.02	53.42
194.239	8.36
194.458	43.18
194.678	-14.17
194.897	34.99
195.116	8.36
195.335	98.47
195.555	30.89
195.774	53.42
195.993	26.79
196.212	32.94
196.432	-20.31
196.651	-12.12
196.87	77.99
197.089	73.9
197.308	28.84
197.528	-10.07
197.747	-40.79
197.966	24.75
198.185	73.9
198.404	84.14
198.623	39.08
198.842	71.85
199.062	-34.64
199.281	39.08
199.5	45.23
199.719	-5.97
199.938	51.37
200.157	69.8
200.376	4.27
200.595	37.03
200.814	-12.12
201.033	69.8
201.252	28.84
201.471	16.55
201.69	-18.26
201.909	77.99
202.128	16.55
202.347	65.71
202.566	34.99
202.785	-24.4
203.004	6.31
203.223	51.37
203.442	26.79
203.661	8.36
203.879	2.22
204.098	65.71
204.317	-48.98
204.536	30.89
204.755	75.95
204.974	-36.69
205.193	22.7
205.411	-14.17
205.63	26.79
205.849	20.65
206.068	16.55
206.287	84.14
206.505	53.42
206.724	49.32
206.943	49.32
207.162	-28.5
207.381	65.71
207.599	88.23
207.818	22.7
208.037	8.36
208.255	16.55
208.474	49.32
208.693	63.66
208.911	10.41
209.13	67.75
209.349	47.27
209.567	-30.55
209.786	32.94
210.005	4.27
210.223	16.55
210.442	-34.64
210.661	10.41
210.879	32.94
211.098	32.94
211.316	22.7
211.535	49.32
211.753	37.03
211.972	45.23
212.191	-1.88
212.409	49.32
212.628	69.8
212.846	16.55
213.065	71.85
213.283	12.46
213.502	30.89
213.72	71.85
213.938	14.51
214.157	0.17
214.375	39.08
214.594	16.55
214.812	12.46
215.031	12.46
215.249	-32.6
215.467	16.55
215.686	123.05
215.904	26.79
216.122	73.9
216.341	118.95
216.559	49.32
216.778	-71.51
216.996	41.13
217.214	-30.55
217.432	12.46
217.651	-24.4
217.869	67.75
218.087	32.94
218.306	65.71
218.524	-30.55
218.742	0.17
218.96	39.08
219.179	39.08
219.397	2.22
219.615	84.14
219.833	37.03
220.051	-18.26
220.27	73.9
220.488	18.6
220.706	45.23
220.924	57.51
221.142	16.55
221.36	100.52
221.578	-22.36
221.796	22.7
222.015	12.46
222.233	24.75
222.451	16.55
222.669	-34.64
222.887	22.7
223.105	16.55
223.323	0.17
223.541	18.6
223.759	28.84
223.977	14.51
224.195	37.03
224.413	10.41
224.631	98.47
224.849	-3.93
225.067	51.37
225.285	-28.5
225.503	41.13
225.721	-10.07
225.939	18.6
226.157	-14.17
226.375	18.6
226.592	18.6
226.81	30.89
227.028	32.94
227.246	16.55
227.464	-16.21
227.682	-40.79
227.9	-12.12
228.117	43.18
228.335	59.56
228.553	88.23
228.771	55.47
228.989	80.04
229.206	2.22
229.424	49.32
229.642	-22.36
229.86	86.19
230.077	59.56
230.295	75.95
230.513	-16.21
230.731	34.99
230.948	67.75
231.166	106.67
231.384	71.85
231.601	24.75
231.819	65.71
232.037	-24.4
232.254	4.27
232.472	86.19
232.689	-24.4
232.907	0.17
233.125	37.03
233.342	37.03
233.56	-8.02
233.777	69.8
233.995	28.84
234.213	24.75
234.43	88.23
234.648	43.18
234.865	61.61
235.083	-20.31
235.3	-16.21
235.518	26.79
235.735	71.85
235.953	73.9
236.17	77.99
236.388	75.95
236.605	86.19
236.822	88.23
237.04	6.31
237.257	2.22
237.475	32.94
237.692	65.71
237.909	-16.21
238.127	-14.17
238.344	34.99
238.562	26.79
238.779	-14.17
238.996	57.51
239.214	84.14
239.431	22.7
239.648	22.7
239.865	104.62
240.083	2.22
240.3	18.6
240.517	77.99
240.735	-12.12
240.952	59.56
241.169	141.48
241.386	88.23
241.603	73.9
241.821	43.18
242.038	39.08
242.255	34.99
242.472	-30.55
242.689	86.19
242.907	82.09
243.124	75.95
243.341	0.17
243.558	61.61
243.775	-16.21
243.992	24.75
244.209	37.03
244.426	92.33
244.643	69.8
244.86	-32.6
245.078	75.95
245.295	41.13
245.512	65.71
245.729	39.08
245.946	8.36
246.163	16.55
246.38	77.99
246.597	-20.31
246.814	-5.97
247.031	2.22
247.248	16.55
247.464	43.18
247.681	37.03
247.898	20.65
248.115	65.71
248.332	55.47
248.549	51.37
248.766	65.71
248.983	65.71
249.2	73.9
249.417	75.95
249.633	51.37
249.85	67.75
250.067	18.6
250.284	16.55
250.501	37.03
250.717	16.55
250.934	53.42
251.151	-1.88
251.368	4.27
251.585	57.51
251.801	49.32
252.018	41.13
252.235	34.99
252.451	37.03
252.668	-46.93
252.885	57.51
253.102	8.36
253.318	67.75
253.535	-12.12
253.752	12.46
253.968	49.32
254.185	16.55
254.401	55.47
254.618	20.65
254.835	-8.02
255.051	16.55
255.268	41.13
255.484	102.57
255.701	86.19
255.917	28.84
256.134	53.42
256.351	12.46
256.567	-32.6
256.784	-16.21
257	-85.84
257.217	-22.36
257.433	67.75
257.65	26.79
257.866	82.09
258.082	-14.17
258.299	10.41
258.515	88.23
258.732	-3.93
258.948	24.75
259.165	-22.36
259.381	30.89
259.597	0.17
259.814	118.95
260.03	41.13
260.246	0.17
260.463	-5.97
260.679	82.09
260.895	20.65
261.112	0.17
261.328	57.51
261.544	6.31
261.761	20.65
261.977	6.31
262.193	53.42
262.409	59.56
262.626	0.17
262.842	41.13
263.058	6.31
263.274	12.46
263.49	63.66
263.707	108.71
263.923	47.27
264.139	43.18
264.355	0.17
264.571	182.44
264.787	67.75
265.004	-20.31
265.22	63.66
265.436	-28.5
265.652	49.32
265.868	12.46
266.084	16.55
266.3	22.7
266.516	-57.17
266.732	41.13
266.948	49.32
267.164	-12.12
267.38	65.71
267.596	-46.93
267.812	53.42
268.028	82.09
268.244	6.31
268.46	45.23
268.676	34.99
268.892	104.62
269.108	63.66
269.324	82.09
269.54	22.7
269.756	32.94
269.972	-26.45
270.188	43.18
270.403	26.79
270.619	8.36
270.835	2.22
271.051	-22.36
271.267	-24.4
271.483	51.37
271.698	114.86
271.914	73.9
272.13	34.99
272.346	-24.4
272.562	123.05
272.777	24.75
272.993	12.46
273.209	57.51
273.425	16.55
273.64	-10.07
273.856	65.71
274.072	-51.03
274.287	34.99
274.503	49.32
274.719	55.47
274.934	4.27
275.15	-20.31
275.366	28.84
275.581	-3.93
275.797	43.18
276.012	39.08
276.228	10.41
276.444	28.84
276.659	123.05
276.875	-51.03
277.09	59.56
277.306	-8.02
277.521	73.9
277.737	90.28
277.952	114.86
278.168	41.13
278.383	2.22
278.599	63.66
278.814	-38.74
279.03	-5.97
279.245	168.1
279.461	-16.21
279.676	16.55
279.892	-26.45
280.107	90.28
280.322	73.9
280.538	-12.12
280.753	43.18
280.969	0.17
281.184	51.37
281.399	90.28
281.615	34.99
281.83	-1.88
282.045	32.94
282.26	37.03
282.476	34.99
282.691	112.81
282.906	-1.88
283.122	-5.97
283.337	0.17
283.552	37.03
283.767	65.71
283.983	32.94
284.198	53.42
284.413	-46.93
284.628	-8.02
284.843	108.71
285.058	20.65
285.274	22.7
285.489	41.13
285.704	34.99
285.919	-8.02
286.134	45.23
286.349	-3.93
286.564	57.51
286.779	32.94
286.995	0.17
287.21	14.51
287.425	57.51
287.64	4.27
287.855	55.47
288.07	-5.97
288.285	24.75
288.5	86.19
288.715	32.94
288.93	63.66
289.145	6.31
289.36	26.79
289.575	0.17
289.79	49.32
290.004	30.89
290.219	80.04
290.434	41.13
290.649	22.7
290.864	0.17
291.079	84.14
291.294	84.14
291.509	28.84
291.724	102.57
291.938	75.95
292.153	16.55
292.368	37.03
292.583	32.94
292.798	37.03
293.012	2.22
293.227	75.95
293.442	-24.4
293.657	-3.93
293.871	90.28
294.086	24.75
294.301	118.95
294.516	-18.26
294.73	47.27
294.945	18.6
295.16	32.94
295.374	41.13
295.589	80.04
295.804	10.41
296.018	41.13
296.233	4.27
296.447	32.94
296.662	51.37
296.877	41.13
297.091	75.95
297.306	-5.97
297.52	32.94
297.735	57.51
297.949	-10.07
298.164	-16.21
298.378	71.85
298.593	49.32
298.807	10.41
299.022	82.09
299.236	45.23
299.451	16.55
299.665	-24.4
299.88	65.71
300.094	73.9
300.309	-57.17
300.523	-10.07
300.737	55.47
300.952	75.95
301.166	94.38
301.381	37.03
301.595	-55.12
301.809	30.89
302.024	2.22
302.238	16.55
302.452	102.57
302.667	69.8
302.881	12.46
303.095	28.84
303.309	20.65
303.524	-24.4
303.738	82.09
303.952	0.17
304.166	20.65
304.381	-18.26
304.595	114.86
304.809	75.95
305.023	20.65
305.237	-24.4
305.452	10.41
305.666	65.71
305.88	77.99
306.094	-14.17
306.308	4.27
306.522	55.47
306.736	108.71
306.95	39.08
307.164	43.18
307.379	131.24
307.593	59.56
307.807	102.57
308.021	6.31
308.235	-16.21
308.449	73.9
308.663	57.51
308.877	98.47
309.091	-5.97
309.305	57.51
309.519	20.65
309.733	-3.93
309.947	0.17
310.161	141.48
310.374	26.79
310.588	41.13
310.802	53.42
311.016	-18.26
311.23	104.62
311.444	-3.93
311.658	55.47
311.872	135.34
312.085	10.41
312.299	71.85
312.513	47.27
312.727	18.6
312.941	-1.88
313.154	14.51
313.368	2.22
313.582	73.9
313.796	37.03
314.009	53.42
314.223	61.61
314.437	20.65
314.651	63.66
314.864	51.37
315.078	-20.31
315.292	28.84
315.505	-24.4
315.719	4.27
315.933	55.47
316.146	59.56
316.36	-30.55
316.573	0.17
316.787	61.61
317.001	80.04
317.214	22.7
317.428	61.61
317.641	20.65
317.855	32.94
318.068	51.37
318.282	24.75
318.495	67.75
318.709	108.71
318.922	30.89
319.136	67.75
319.349	53.42
319.563	131.24
319.776	53.42
319.99	47.27
320.203	96.43
320.417	18.6
320.63	10.41
320.843	2.22
321.057	34.99
321.27	10.41
321.483	43.18
321.697	102.57
321.91	-32.6
322.124	0.17
322.337	43.18
322.55	30.89
322.763	32.94
322.977	16.55
323.19	59.56
323.403	41.13
323.617	80.04
323.83	75.95
324.043	26.79
324.256	114.86
324.469	28.84
324.683	133.29
324.896	90.28
325.109	65.71
325.322	-59.22
325.535	88.23
325.748	43.18
325.962	71.85
326.175	118.95
326.388	65.71
326.601	92.33
326.814	2.22
327.027	-20.31
327.24	75.95
327.453	0.17
327.666	69.8
327.879	-3.93
328.092	30.89
328.305	22.7
328.518	-22.36
328.731	4.27
328.944	90.28
329.157	22.7
329.37	82.09
329.583	12.46
329.796	73.9
330.009	-3.93
330.222	82.09
330.435	53.42
330.648	32.94
330.861	2.22
331.073	16.55
331.286	37.03
331.499	67.75
331.712	4.27
331.925	55.47
332.138	37.03
332.35	57.51
332.563	-1.88
332.776	53.42
332.989	86.19
333.202	53.42
333.414	2.22
333.627	57.51
333.84	8.36
334.053	55.47
334.265	73.9
334.478	10.41
334.691	49.32
334.903	43.18
335.116	-28.5
335.329	71.85
335.541	59.56
335.754	98.47
335.966	12.46
336.179	16.55
336.392	8.36
336.604	34.99
336.817	82.09
337.029	80.04
337.242	57.51
337.454	57.51
337.667	37.03
337.88	106.67
338.092	32.94
338.305	49.32
338.517	49.32
338.729	61.61
338.942	80.04
339.154	61.61
339.367	63.66
339.579	86.19
339.792	8.36
340.004	43.18
340.217	10.41
340.429	98.47
340.641	0.17
340.854	16.55
341.066	-14.17
341.278	30.89
341.491	43.18
341.703	37.03
341.915	-3.93
342.128	41.13
342.34	84.14
342.552	18.6
342.764	82.09
342.977	73.9
343.189	53.42
343.401	63.66
343.613	16.55
343.826	69.8
344.038	37.03
344.25	18.6
344.462	8.36
344.674	24.75
344.886	2.22
345.099	73.9
345.311	80.04
345.523	26.79
345.735	-40.79
345.947	-12.12
346.159	55.47
346.371	45.23
346.583	-22.36
346.795	55.47
347.007	69.8
347.219	16.55
347.431	32.94
347.643	6.31
347.855	49.32
348.067	116.9
348.279	8.36
348.491	57.51
348.703	6.31
348.915	73.9
349.127	-8.02
349.339	-5.97
349.551	41.13
349.763	57.51
349.975	26.79
350.187	123.05
350.399	86.19
350.61	106.67
350.822	-34.64
351.034	59.56
351.246	39.08
351.458	51.37
351.669	57.51
351.881	65.71
352.093	102.57
352.305	131.24
352.517	41.13
352.728	133.29
352.94	57.51
353.152	53.42
353.363	10.41
353.575	57.51
353.787	75.95
353.999	98.47
354.21	69.8
354.422	108.71
354.633	41.13
354.845	82.09
355.057	49.32
355.268	53.42
355.48	53.42
355.692	61.61
355.903	20.65
356.115	8.36
356.326	10.41
356.538	75.95
356.749	16.55
356.961	53.42
357.172	43.18
357.384	22.7
357.595	57.51
357.807	-24.4
358.018	-22.36
358.23	26.79
358.441	96.43
358.653	73.9
358.864	73.9
359.075	16.55
359.287	90.28
359.498	47.27
359.709	-44.88
359.921	30.89
360.132	-40.79
360.344	-16.21
360.555	2.22
360.766	-8.02
360.977	86.19
361.189	131.24
361.4	55.47
361.611	14.51
361.823	51.37
362.034	65.71
362.245	63.66
362.456	-26.45
362.667	-34.64
362.879	57.51
363.09	67.75
363.301	82.09
363.512	41.13
363.723	30.89
363.935	71.85
364.146	92.33
364.357	4.27
364.568	-14.17
364.779	73.9
364.99	77.99
365.201	45.23
365.412	61.61
365.623	-3.93
365.834	71.85
366.045	41.13
366.256	75.95
366.467	49.32
366.678	20.65
366.889	26.79
367.1	37.03
367.311	71.85
367.522	-24.4
367.733	2.22
367.944	24.75
368.155	84.14
368.366	67.75
368.577	41.13
368.788	57.51
368.999	57.51
369.209	24.75
369.42	98.47
369.631	57.51
369.842	-14.17
370.053	22.7
370.264	32.94
370.474	16.55
370.685	131.24
370.896	63.66
371.107	63.66
371.317	96.43
371.528	106.67
371.739	10.41
371.95	-1.88
372.16	53.42
372.371	75.95
372.582	24.75
372.792	-3.93
373.003	80.04
373.214	0.17
373.424	112.81
373.635	8.36
373.846	59.56
374.056	28.84
374.267	80.04
374.477	12.46
374.688	30.89
374.898	18.6
375.109	24.75
375.319	-24.4
375.53	57.51
375.74	-1.88
375.951	49.32
376.161	118.95
376.372	43.18
376.582	106.67
376.793	92.33
377.003	61.61
377.214	55.47
377.424	71.85
377.635	80.04
377.845	41.13
378.055	51.37
378.266	26.79
378.476	75.95
378.686	-5.97
378.897	24.75
379.107	2.22
379.317	24.75
379.528	102.57
379.738	61.61
379.948	37.03
380.158	65.71
380.369	53.42
380.579	73.9
380.789	26.79
380.999	161.96
381.21	30.89
381.42	26.79
381.63	47.27
381.84	57.51
382.05	37.03
382.261	63.66
382.471	-36.69
382.681	12.46
382.891	41.13
383.101	10.41
383.311	4.27
383.521	39.08
383.731	75.95
383.941	106.67
384.151	82.09
384.361	71.85
384.571	65.71
384.781	98.47
384.991	22.7
385.201	53.42
385.411	-8.02
385.621	20.65
385.831	-8.02
386.041	77.99
386.251	90.28
386.461	98.47
386.671	92.33
386.881	45.23
387.091	57.51
387.301	26.79
387.511	-10.07
387.72	32.94
387.93	20.65
388.14	59.56
388.35	18.6
388.56	104.62
388.769	63.66
388.979	6.31
389.189	14.51
389.399	131.24
389.609	41.13
389.818	84.14
390.028	98.47
390.238	106.67
390.447	49.32
390.657	67.75
390.867	51.37
391.076	26.79
391.286	55.47
391.496	39.08
391.705	45.23
391.915	90.28
392.125	0.17
392.334	127.14
392.544	-51.03
392.753	90.28
392.963	-24.4
393.172	57.51
393.382	39.08
393.591	80.04
393.801	100.52
394.01	135.34
394.22	39.08
394.429	63.66
394.639	55.47
394.848	43.18
395.058	86.19
395.267	82.09
395.477	24.75
395.686	88.23
395.895	104.62
396.105	32.94
396.314	61.61
396.524	75.95
396.733	49.32
396.942	131.24
397.152	92.33
397.361	96.43
397.57	129.19
397.78	86.19
397.989	80.04
398.198	108.71
398.407	69.8
398.617	106.67
398.826	77.99
399.035	49.32
399.244	155.82
399.453	90.28
399.663	86.19
399.872	168.1
400.081	88.23
400.29	94.38
400.499	92.33
400.708	94.38
400.917	180.39
401.127	45.23
401.336	43.18
401.545	176.3
401.754	100.52
401.963	135.34
402.172	125.1
402.381	88.23
402.59	34.99
402.799	75.95
403.008	110.76
403.217	131.24
403.426	176.3
403.635	45.23
403.844	104.62
404.053	155.82
404.262	84.14
404.471	174.25
404.68	164.01
404.888	125.1
405.097	110.76
405.306	155.82
405.515	123.05
405.724	77.99
405.933	172.2
406.142	159.91
406.35	114.86
406.559	149.67
406.768	225.45
406.977	139.43
407.185	159.91
407.394	215.21
407.603	182.44
407.812	264.36
408.02	196.78
408.229	243.88
408.438	180.39
408.646	221.35
408.855	266.41
409.064	172.2
409.272	272.55
409.481	250.02
409.69	245.93
409.898	207.02
410.107	274.6
410.315	336.04
410.524	258.21
410.733	147.62
410.941	231.59
411.15	331.94
411.358	295.08
411.567	379.04
411.775	280.74
411.984	368.81
412.192	352.42
412.401	387.24
412.609	377
412.818	434.34
413.026	383.14
413.234	385.19
413.443	471.2
413.651	409.76
413.86	479.4
414.068	493.73
414.276	538.79
414.485	594.08
414.693	401.57
414.901	585.89
415.11	663.71
415.318	544.93
415.526	577.7
415.734	594.08
415.943	618.66
416.151	622.75
416.359	704.67
416.567	714.91
416.776	788.64
416.984	772.25
417.192	749.73
417.4	837.79
417.608	725.15
417.817	852.13
418.025	876.7
418.233	870.56
418.441	927.9
418.649	952.48
418.857	995.48
419.065	1093.79
419.273	1009.82
419.481	1116.31
419.689	1237.14
419.897	1247.38
420.105	1282.2
420.313	1304.73
420.521	1347.73
420.729	1366.17
420.937	1343.64
421.145	1448.08
421.353	1513.62
421.561	1525.91
421.769	1628.31
421.977	1656.98
422.185	1665.17
422.393	1745.04
422.601	1945.74
422.809	1849.49
423.017	1937.55
423.224	1853.58
423.432	2005.13
423.64	1978.51
423.848	2205.83
424.056	2226.31
424.263	2363.53
424.471	2295.94
424.679	2355.33
424.887	2572.42
425.094	2545.8
425.302	2461.83
425.51	2728.07
425.718	2752.64
425.925	2744.45
426.133	2783.36
426.341	3053.69
426.548	3178.62
426.756	3125.37
426.964	3170.43
427.171	3440.76
427.379	3455.09
427.586	3543.16
427.794	3612.79
428.001	3932.27
428.209	3958.89
428.417	3954.8
428.624	4124.78
428.832	4305
429.039	4178.03
429.247	4178.03
429.454	4663.4
429.662	4737.12
429.869	4624.48
430.076	4958.3
430.284	4847.71
430.491	4909.15
430.699	5271.64
430.906	5136.48
431.114	5341.27
431.321	5474.39
431.528	5482.58
431.736	5947.47
431.943	6180.94
432.15	5965.9
432.358	6191.18
432.565	6422.6
432.772	6342.73
432.979	6701.12
433.187	6881.35
433.394	7071.81
433.601	7458.87
433.808	7364.67
434.016	7469.11
434.223	7579.7
434.43	8210.48
434.637	8038.45
434.844	8544.3
435.052	8689.7
435.259	8683.56
435.466	8810.53
435.673	8798.24
435.88	9166.88
436.087	9596.95
436.294	9785.37
436.501	9461.79
436.708	9605.14
436.915	9889.81
437.122	10455.05
437.329	10426.38
437.537	10770.44
437.743	10854.41
437.95	10768.39
438.157	11501.56
438.364	11747.32
438.571	11657.21
438.778	11810.81
438.985	12842.98
439.192	12388.33
439.399	12840.93
439.606	12500.97
439.813	13311.97
440.02	14245.84
440.227	13772.76
440.433	13484
440.64	13936.6
440.847	13899.73
441.054	14198.74
441.261	15497.15
441.467	15101.89
441.674	15425.47
441.881	15876.02
442.088	15704
442.294	15708.09
442.501	16201.65
442.708	16578.48
442.914	17194.92
443.121	17846.17
443.328	17442.72
443.534	18710.41
443.741	17967
443.948	17967
444.154	19324.8
444.361	19283.84
444.568	19240.84
444.774	19242.89
444.981	19478.4
445.187	19974.01
445.394	20924.27
445.6	20664.18
445.807	22564.69
446.013	21397.35
446.22	22118.23
446.426	23236.42
446.633	22880.08
446.839	23766.85
447.046	22939.47
447.252	24211.26
447.459	24000.32
447.665	24098.62
447.871	25392.94
448.078	26414.87
448.284	25042.73
448.491	26033.95
448.697	26869.52
448.903	27264.78
449.11	27291.4
449.316	26906.38
449.522	27834.11
449.728	28229.37
449.935	28499.7
450.141	28139.26
450.347	29118.19
450.553	28043.01
450.76	28462.84
450.966	29746.92
451.172	29329.13
451.378	29896.42
451.584	29486.82
451.791	29937.38
451.997	29800.16
452.203	30240.48
452.409	30545.62
452.615	30457.56
452.821	29550.31
453.027	28993.26
453.233	30420.7
453.44	29574.89
453.646	29634.28
453.852	30131.93
454.058	30568.15
454.264	29411.05
454.47	30422.75
454.676	29447.91
454.882	30492.38
455.088	27922.18
455.294	28280.57
455.5	28589.81
455.705	29234.92
455.911	27940.61
456.117	27172.62
456.323	26871.57
456.529	25689.89
456.735	26668.82
456.941	26103.58
457.147	25769.76
457.352	24907.57
457.558	24960.81
457.764	24495.92
457.97	24465.21
458.176	23703.36
458.381	23983.93
458.587	22613.84
458.793	22282.07
458.999	21391.2
459.204	23045.96
459.41	22310.74
459.616	20860.78
459.821	21112.68
460.027	20979.56
460.233	20209.53
460.438	19498.88
460.644	19689.34
460.85	18632.59
461.055	18425.75
461.261	18407.31
461.466	17045.41
461.672	16586.67
461.878	17930.14
462.083	16443.31
462.289	16281.52
462.494	16347.06
462.7	15128.52
462.905	15159.24
463.111	15454.14
463.316	15476.67
463.522	14991.3
463.727	15183.81
463.932	15120.32
464.138	14884.81
464.343	14960.58
464.549	14690.25
464.754	15306.69
464.959	14755.79
465.165	14641.1
465.37	14188.5
465.575	13869.02
465.781	14356.43
465.986	14546.89
466.191	13842.39
466.397	13510.62
466.602	12890.09
466.807	13555.68
467.012	13371.36
467.218	13492.19
467.423	13090.79
467.628	13445.09
467.833	13952.98
468.038	13283.3
468.244	13000.68
