Data from USB4F104151__91__13-13-12-068.txt Node

Date: Fri Mar 14 13:13:12 EDT 2025
User: louis
Spectrometer: USB4F10415
Trigger mode: 4
Integration Time (sec): 2.000000E-2
Scans to average: 1
Electric dark correction enabled: true
Nonlinearity correction enabled: false
Boxcar width: 0
XAxis mode: Wavelengths
Number of Pixels in Spectrum: 3648
>>>>>Begin Spectral Data<<<<<
178.204	-112.47
178.424	-112.47
178.644	-112.47
178.864	-91.99
179.084	-91.99
179.304	-16.21
179.524	34.99
179.744	32.94
179.964	-18.26
180.184	-42.84
180.404	4.27
180.624	-8.02
180.844	20.65
181.064	-5.97
181.283	-5.97
181.503	0.17
181.723	4.27
181.943	-106.32
182.163	51.37
182.383	37.03
182.602	61.61
182.822	51.37
183.042	41.13
183.262	-28.5
183.482	65.71
183.701	14.51
183.921	-36.69
184.141	104.62
184.361	123.05
184.58	88.23
184.8	22.7
185.02	43.18
185.239	30.89
185.459	-12.12
185.679	47.27
185.898	-32.6
186.118	-26.45
186.338	39.08
186.557	59.56
186.777	61.61
186.997	69.8
187.216	49.32
187.436	12.46
187.655	82.09
187.875	-26.45
188.095	73.9
188.314	-16.21
188.534	108.71
188.753	69.8
188.973	-10.07
189.192	82.09
189.412	16.55
189.631	65.71
189.851	67.75
190.07	-8.02
190.29	-36.69
190.509	59.56
190.729	14.51
190.948	75.95
191.168	84.14
191.387	28.84
191.607	75.95
191.826	47.27
192.045	65.71
192.265	47.27
192.484	-32.6
192.704	-10.07
192.923	-24.4
193.142	82.09
193.362	20.65
193.581	90.28
193.8	32.94
194.02	47.27
194.239	47.27
194.458	61.61
194.678	8.36
194.897	18.6
195.116	22.7
195.335	100.52
195.555	-8.02
195.774	71.85
195.993	39.08
196.212	18.6
196.432	32.94
196.651	-20.31
196.87	-5.97
197.089	26.79
197.308	32.94
197.528	51.37
197.747	37.03
197.966	28.84
198.185	16.55
198.404	34.99
198.623	39.08
198.842	41.13
199.062	88.23
199.281	55.47
199.5	51.37
199.719	49.32
199.938	73.9
200.157	43.18
200.376	6.31
200.595	53.42
200.814	84.14
201.033	75.95
201.252	67.75
201.471	-22.36
201.69	104.62
201.909	55.47
202.128	108.71
202.347	98.47
202.566	28.84
202.785	39.08
203.004	-12.12
203.223	16.55
203.442	88.23
203.661	49.32
203.879	-38.74
204.098	88.23
204.317	18.6
204.536	106.67
204.755	-24.4
204.974	34.99
205.193	39.08
205.411	139.43
205.63	86.19
205.849	14.51
206.068	12.46
206.287	10.41
206.505	-24.4
206.724	92.33
206.943	24.75
207.162	-24.4
207.381	41.13
207.599	67.75
207.818	90.28
208.037	28.84
208.255	86.19
208.474	96.43
208.693	63.66
208.911	65.71
209.13	10.41
209.349	77.99
209.567	61.61
209.786	75.95
210.005	32.94
210.223	28.84
210.442	2.22
210.661	0.17
210.879	37.03
211.098	-16.21
211.316	102.57
211.535	61.61
211.753	24.75
211.972	12.46
212.191	92.33
212.409	94.38
212.628	28.84
212.846	-1.88
213.065	100.52
213.283	73.9
213.502	37.03
213.72	67.75
213.938	32.94
214.157	10.41
214.375	67.75
214.594	-8.02
214.812	-18.26
215.031	61.61
215.249	47.27
215.467	129.19
215.686	32.94
215.904	16.55
216.122	-57.17
216.341	30.89
216.559	-3.93
216.778	71.85
216.996	106.67
217.214	-5.97
217.432	28.84
217.651	24.75
217.869	90.28
218.087	-8.02
218.306	94.38
218.524	61.61
218.742	-5.97
218.96	0.17
219.179	34.99
219.397	51.37
219.615	63.66
219.833	65.71
220.051	16.55
220.27	-5.97
220.488	75.95
220.706	57.51
220.924	-38.74
221.142	6.31
221.36	8.36
221.578	24.75
221.796	-18.26
222.015	34.99
222.233	43.18
222.451	18.6
222.669	-24.4
222.887	63.66
223.105	24.75
223.323	59.56
223.541	82.09
223.759	114.86
223.977	20.65
224.195	39.08
224.413	114.86
224.631	96.43
224.849	51.37
225.067	106.67
225.285	-5.97
225.503	61.61
225.721	63.66
225.939	53.42
226.157	28.84
226.375	88.23
226.592	-16.21
226.81	65.71
227.028	45.23
227.246	41.13
227.464	34.99
227.682	39.08
227.9	45.23
228.117	57.51
228.335	67.75
228.553	12.46
228.771	-20.31
228.989	57.51
229.206	71.85
229.424	34.99
229.642	12.46
229.86	41.13
230.077	123.05
230.295	59.56
230.513	32.94
230.731	102.57
230.948	67.75
231.166	61.61
231.384	49.32
231.601	45.23
231.819	34.99
232.037	37.03
232.254	41.13
232.472	16.55
232.689	-16.21
232.907	37.03
233.125	51.37
233.342	41.13
233.56	41.13
233.777	47.27
233.995	-10.07
234.213	37.03
234.43	24.75
234.648	34.99
234.865	24.75
235.083	57.51
235.3	59.56
235.518	41.13
235.735	4.27
235.953	0.17
236.17	30.89
236.388	2.22
236.605	-57.17
236.822	102.57
237.04	32.94
237.257	-24.4
237.475	90.28
237.692	59.56
237.909	45.23
238.127	32.94
238.344	49.32
238.562	63.66
238.779	37.03
238.996	24.75
239.214	37.03
239.431	-18.26
239.648	32.94
239.865	32.94
240.083	10.41
240.3	37.03
240.517	51.37
240.735	100.52
240.952	133.29
241.169	-14.17
241.386	30.89
241.603	84.14
241.821	69.8
242.038	102.57
242.255	82.09
242.472	-46.93
242.689	57.51
242.907	34.99
243.124	86.19
243.341	84.14
243.558	-18.26
243.775	22.7
243.992	32.94
244.209	-8.02
244.426	77.99
244.643	63.66
244.86	43.18
245.078	63.66
245.295	96.43
245.512	49.32
245.729	57.51
245.946	51.37
246.163	75.95
246.38	0.17
246.597	-14.17
246.814	34.99
247.031	24.75
247.248	75.95
247.464	-24.4
247.681	6.31
247.898	14.51
248.115	90.28
248.332	34.99
248.549	77.99
248.766	57.51
248.983	116.9
249.2	14.51
249.417	114.86
249.633	47.27
249.85	92.33
250.067	18.6
250.284	90.28
250.501	24.75
250.717	55.47
250.934	-3.93
251.151	6.31
251.368	-26.45
251.585	94.38
251.801	-8.02
252.018	-28.5
252.235	51.37
252.451	-28.5
252.668	80.04
252.885	24.75
253.102	86.19
253.318	121
253.535	41.13
253.752	59.56
253.968	-3.93
254.185	61.61
254.401	75.95
254.618	26.79
254.835	2.22
255.051	61.61
255.268	39.08
255.484	39.08
255.701	-69.46
255.917	37.03
256.134	16.55
256.351	32.94
256.567	26.79
256.784	65.71
257	75.95
257.217	82.09
257.433	139.43
257.65	39.08
257.866	32.94
258.082	49.32
258.299	82.09
258.515	14.51
258.732	4.27
258.948	4.27
259.165	-12.12
259.381	16.55
259.597	32.94
259.814	34.99
260.03	-22.36
260.246	65.71
260.463	32.94
260.679	116.9
260.895	73.9
261.112	59.56
261.328	-14.17
261.544	-16.21
261.761	-32.6
261.977	77.99
262.193	59.56
262.409	49.32
262.626	-1.88
262.842	-14.17
263.058	-32.6
263.274	71.85
263.49	82.09
263.707	47.27
263.923	73.9
264.139	-20.31
264.355	-34.64
264.571	114.86
264.787	24.75
265.004	16.55
265.22	112.81
265.436	39.08
265.652	61.61
265.868	0.17
266.084	49.32
266.3	16.55
266.516	53.42
266.732	4.27
266.948	39.08
267.164	-20.31
267.38	-8.02
267.596	-24.4
267.812	37.03
268.028	-42.84
268.244	6.31
268.46	51.37
268.676	22.7
268.892	41.13
269.108	73.9
269.324	8.36
269.54	65.71
269.756	59.56
269.972	-34.64
270.188	12.46
270.403	16.55
270.619	-5.97
270.835	57.51
271.051	-16.21
271.267	-77.65
271.483	108.71
271.698	75.95
271.914	90.28
272.13	65.71
272.346	67.75
272.562	75.95
272.777	53.42
272.993	37.03
273.209	4.27
273.425	-51.03
273.64	8.36
273.856	65.71
274.072	-8.02
274.287	47.27
274.503	92.33
274.719	34.99
274.934	2.22
275.15	61.61
275.366	-14.17
275.581	20.65
275.797	77.99
276.012	80.04
276.228	43.18
276.444	-42.84
276.659	24.75
276.875	45.23
277.09	63.66
277.306	-8.02
277.521	41.13
277.737	-1.88
277.952	51.37
278.168	30.89
278.383	65.71
278.599	61.61
278.814	16.55
279.03	37.03
279.245	49.32
279.461	37.03
279.676	84.14
279.892	-1.88
280.107	-16.21
280.322	22.7
280.538	82.09
280.753	41.13
280.969	104.62
281.184	2.22
281.399	-14.17
281.615	86.19
281.83	73.9
282.045	-26.45
282.26	-32.6
282.476	8.36
282.691	-3.93
282.906	92.33
283.122	75.95
283.337	28.84
283.552	49.32
283.767	2.22
283.983	86.19
284.198	39.08
284.413	10.41
284.628	-16.21
284.843	49.32
285.058	34.99
285.274	118.95
285.489	12.46
285.704	24.75
285.919	26.79
286.134	59.56
286.349	75.95
286.564	88.23
286.779	77.99
286.995	94.38
287.21	34.99
287.425	41.13
287.64	-5.97
287.855	82.09
288.07	-3.93
288.285	8.36
288.5	61.61
288.715	65.71
288.93	14.51
289.145	106.67
289.36	80.04
289.575	51.37
289.79	96.43
290.004	84.14
290.219	32.94
290.434	-20.31
290.649	-5.97
290.864	28.84
291.079	47.27
291.294	18.6
291.509	131.24
291.724	94.38
291.938	57.51
292.153	100.52
292.368	80.04
292.583	10.41
292.798	86.19
293.012	77.99
293.227	84.14
293.442	-8.02
293.657	20.65
293.871	67.75
294.086	37.03
294.301	61.61
294.516	-8.02
294.73	84.14
294.945	41.13
295.16	0.17
295.374	39.08
295.589	96.43
295.804	26.79
296.018	10.41
296.233	151.72
296.447	59.56
296.662	-8.02
296.877	16.55
297.091	96.43
297.306	80.04
297.52	92.33
297.735	-10.07
297.949	49.32
298.164	110.76
298.378	-26.45
298.593	-3.93
298.807	69.8
299.022	32.94
299.236	71.85
299.451	59.56
299.665	73.9
299.88	65.71
300.094	73.9
300.309	-16.21
300.523	67.75
300.737	41.13
300.952	-12.12
301.166	121
301.381	24.75
301.595	71.85
301.809	75.95
302.024	24.75
302.238	80.04
302.452	16.55
302.667	32.94
302.881	18.6
303.095	61.61
303.309	24.75
303.524	10.41
303.738	-5.97
303.952	26.79
304.166	-24.4
304.381	57.51
304.595	86.19
304.809	-18.26
305.023	63.66
305.237	32.94
305.452	28.84
305.666	75.95
305.88	34.99
306.094	102.57
306.308	16.55
306.522	61.61
306.736	22.7
306.95	65.71
307.164	22.7
307.379	2.22
307.593	110.76
307.807	63.66
308.021	80.04
308.235	26.79
308.449	0.17
308.663	2.22
308.877	63.66
309.091	14.51
309.305	82.09
309.519	-32.6
309.733	53.42
309.947	41.13
310.161	147.62
310.374	24.75
310.588	110.76
310.802	-34.64
311.016	121
311.23	55.47
311.444	65.71
311.658	47.27
311.872	24.75
312.085	51.37
312.299	98.47
312.513	41.13
312.727	39.08
312.941	8.36
313.154	10.41
313.368	2.22
313.582	41.13
313.796	69.8
314.009	84.14
314.223	82.09
314.437	-3.93
314.651	82.09
314.864	24.75
315.078	-18.26
315.292	43.18
315.505	0.17
315.719	69.8
315.933	63.66
316.146	55.47
316.36	16.55
316.573	47.27
316.787	71.85
317.001	18.6
317.214	-1.88
317.428	59.56
317.641	84.14
317.855	98.47
318.068	-18.26
318.282	75.95
318.495	131.24
318.709	16.55
318.922	16.55
319.136	16.55
319.349	-12.12
319.563	141.48
319.776	108.71
319.99	32.94
320.203	39.08
320.417	37.03
320.63	108.71
320.843	84.14
321.057	100.52
321.27	39.08
321.483	2.22
321.697	45.23
321.91	88.23
322.124	43.18
322.337	65.71
322.55	-12.12
322.763	10.41
322.977	61.61
323.19	26.79
323.403	71.85
323.617	43.18
323.83	108.71
324.043	34.99
324.256	82.09
324.469	53.42
324.683	110.76
324.896	-30.55
325.109	114.86
325.322	8.36
325.535	57.51
325.748	-5.97
325.962	28.84
326.175	10.41
326.388	96.43
326.601	49.32
326.814	59.56
327.027	34.99
327.24	129.19
327.453	-10.07
327.666	37.03
327.879	61.61
328.092	65.71
328.305	-3.93
328.518	67.75
328.731	43.18
328.944	0.17
329.157	24.75
329.37	57.51
329.583	104.62
329.796	75.95
330.009	22.7
330.222	47.27
330.435	16.55
330.648	24.75
330.861	24.75
331.073	-10.07
331.286	49.32
331.499	53.42
331.712	-5.97
331.925	53.42
332.138	92.33
332.35	53.42
332.563	108.71
332.776	39.08
332.989	32.94
333.202	16.55
333.414	102.57
333.627	90.28
333.84	-16.21
334.053	82.09
334.265	37.03
334.478	-24.4
334.691	24.75
334.903	104.62
335.116	6.31
335.329	10.41
335.541	14.51
335.754	55.47
335.966	82.09
336.179	75.95
336.392	65.71
336.604	59.56
336.817	88.23
337.029	-8.02
337.242	8.36
337.454	106.67
337.667	-30.55
337.88	49.32
338.092	67.75
338.305	41.13
338.517	73.9
338.729	37.03
338.942	41.13
339.154	41.13
339.367	-5.97
339.579	90.28
339.792	53.42
340.004	16.55
340.217	10.41
340.429	16.55
340.641	12.46
340.854	-12.12
341.066	106.67
341.278	106.67
341.491	112.81
341.703	30.89
341.915	-30.55
342.128	37.03
342.34	84.14
342.552	47.27
342.764	53.42
342.977	65.71
343.189	41.13
343.401	2.22
343.613	28.84
343.826	30.89
344.038	-16.21
344.25	114.86
344.462	4.27
344.674	57.51
344.886	37.03
345.099	28.84
345.311	49.32
345.523	30.89
345.735	34.99
345.947	8.36
346.159	-16.21
346.371	6.31
346.583	61.61
346.795	94.38
347.007	69.8
347.219	84.14
347.431	55.47
347.643	86.19
347.855	-48.98
348.067	49.32
348.279	26.79
348.491	34.99
348.703	57.51
348.915	12.46
349.127	49.32
349.339	94.38
349.551	82.09
349.763	82.09
349.975	63.66
350.187	59.56
350.399	98.47
350.61	47.27
350.822	88.23
351.034	39.08
351.246	-10.07
351.458	47.27
351.669	69.8
351.881	51.37
352.093	147.62
352.305	71.85
352.517	41.13
352.728	98.47
352.94	10.41
353.152	71.85
353.363	32.94
353.575	16.55
353.787	90.28
353.999	8.36
354.21	127.14
354.422	-14.17
354.633	16.55
354.845	65.71
355.057	98.47
355.268	57.51
355.48	51.37
355.692	26.79
355.903	4.27
356.115	39.08
356.326	-3.93
356.538	131.24
356.749	12.46
356.961	161.96
357.172	2.22
357.384	176.3
357.595	41.13
357.807	102.57
358.018	0.17
358.23	16.55
358.441	47.27
358.653	59.56
358.864	-77.65
359.075	-34.64
359.287	65.71
359.498	110.76
359.709	37.03
359.921	32.94
360.132	24.75
360.344	90.28
360.555	102.57
360.766	8.36
360.977	39.08
361.189	114.86
361.4	53.42
361.611	131.24
361.823	28.84
362.034	73.9
362.245	-5.97
362.456	45.23
362.667	22.7
362.879	55.47
363.09	4.27
363.301	59.56
363.512	88.23
363.723	34.99
363.935	34.99
364.146	157.86
364.357	67.75
364.568	49.32
364.779	65.71
364.99	82.09
365.201	77.99
365.412	67.75
365.623	24.75
365.834	75.95
366.045	43.18
366.256	26.79
366.467	45.23
366.678	2.22
366.889	47.27
367.1	59.56
367.311	49.32
367.522	45.23
367.733	73.9
367.944	41.13
368.155	-46.93
368.366	59.56
368.577	32.94
368.788	57.51
368.999	73.9
369.209	53.42
369.42	77.99
369.631	84.14
369.842	49.32
370.053	18.6
370.264	43.18
370.474	100.52
370.685	67.75
370.896	80.04
371.107	59.56
371.317	51.37
371.528	82.09
371.739	28.84
371.95	73.9
372.16	26.79
372.371	10.41
372.582	65.71
372.792	30.89
373.003	32.94
373.214	137.38
373.424	63.66
373.635	73.9
373.846	69.8
374.056	28.84
374.267	82.09
374.477	43.18
374.688	-16.21
374.898	75.95
375.109	24.75
375.319	37.03
375.53	53.42
375.74	37.03
375.951	22.7
376.161	51.37
376.372	90.28
376.582	43.18
376.793	47.27
377.003	39.08
377.214	98.47
377.424	86.19
377.635	26.79
377.845	37.03
378.055	69.8
378.266	75.95
378.476	37.03
378.686	57.51
378.897	73.9
379.107	2.22
379.317	28.84
379.528	51.37
379.738	32.94
379.948	45.23
380.158	-5.97
380.369	98.47
380.579	121
380.789	108.71
380.999	82.09
381.21	61.61
381.42	55.47
381.63	73.9
381.84	43.18
382.05	61.61
382.261	86.19
382.471	20.65
382.681	0.17
382.891	75.95
383.101	28.84
383.311	59.56
383.521	49.32
383.731	82.09
383.941	73.9
384.151	69.8
384.361	133.29
384.571	28.84
384.781	-44.88
384.991	49.32
385.201	67.75
385.411	-51.03
385.621	34.99
385.831	39.08
386.041	86.19
386.251	2.22
386.461	63.66
386.671	28.84
386.881	-1.88
387.091	34.99
387.301	24.75
387.511	47.27
387.72	106.67
387.93	41.13
388.14	-24.4
388.35	2.22
388.56	139.43
388.769	47.27
388.979	118.95
389.189	57.51
389.399	8.36
389.609	2.22
389.818	14.51
390.028	92.33
390.238	86.19
390.447	4.27
390.657	28.84
390.867	131.24
391.076	43.18
391.286	43.18
391.496	57.51
391.705	57.51
391.915	94.38
392.125	51.37
392.334	106.67
392.544	45.23
392.753	96.43
392.963	45.23
393.172	59.56
393.382	16.55
393.591	18.6
393.801	77.99
394.01	80.04
394.22	102.57
394.429	41.13
394.639	51.37
394.848	104.62
395.058	65.71
395.267	108.71
395.477	18.6
395.686	59.56
395.895	116.9
396.105	118.95
396.314	92.33
396.524	61.61
396.733	116.9
396.942	133.29
397.152	16.55
397.361	129.19
397.57	10.41
397.78	55.47
397.989	94.38
398.198	151.72
398.407	57.51
398.617	157.86
398.826	45.23
399.035	123.05
399.244	118.95
399.453	34.99
399.663	73.9
399.872	94.38
400.081	118.95
400.29	90.28
400.499	-22.36
400.708	86.19
400.917	57.51
401.127	20.65
401.336	94.38
401.545	182.44
401.754	112.81
401.963	188.58
402.172	73.9
402.381	96.43
402.59	129.19
402.799	131.24
403.008	69.8
403.217	88.23
403.426	133.29
403.635	39.08
403.844	67.75
404.053	116.9
404.262	155.82
404.471	123.05
404.68	123.05
404.888	127.14
405.097	114.86
405.306	143.53
405.515	125.1
405.724	98.47
405.933	161.96
406.142	172.2
406.35	131.24
406.559	73.9
406.768	127.14
406.977	247.97
407.185	135.34
407.394	198.82
407.603	245.93
407.812	182.44
408.02	184.49
408.229	151.72
408.438	164.01
408.646	155.82
408.855	180.39
409.064	239.78
409.272	188.58
409.481	213.16
409.69	217.26
409.898	207.02
410.107	276.65
410.315	260.26
410.524	256.17
410.733	243.88
410.941	233.64
411.15	258.21
411.358	295.08
411.567	315.56
411.775	282.79
411.984	288.93
412.192	288.93
412.401	207.02
412.609	336.04
412.818	358.57
413.026	393.38
413.234	397.48
413.443	446.63
413.651	336.04
413.86	358.57
414.068	411.81
414.276	417.96
414.485	467.11
414.693	370.85
414.901	483.49
415.11	401.57
415.318	444.58
415.526	487.59
415.734	503.97
415.943	569.51
416.151	571.55
416.359	561.31
416.567	659.62
416.776	608.42
416.984	702.62
417.192	721.06
417.4	671.9
417.608	645.28
417.817	643.23
418.025	747.68
418.233	845.98
418.441	739.49
418.649	845.98
418.857	770.21
419.065	954.52
419.273	880.8
419.481	938.14
419.689	983.2
419.897	1022.11
420.105	1011.87
420.313	1159.32
420.521	1073.31
420.729	1050.78
420.937	1142.94
421.145	1112.22
421.353	1280.15
421.561	1280.15
421.769	1286.3
421.977	1386.65
422.185	1376.41
422.393	1405.08
422.601	1484.95
422.809	1558.67
423.017	1556.63
423.224	1581.2
423.432	1728.66
423.64	1652.88
423.848	1949.84
424.056	1851.53
424.263	1900.69
424.471	1915.02
424.679	1927.31
424.887	2097.29
425.094	2097.29
425.302	2195.59
425.51	2164.87
425.718	2318.47
425.925	2304.14
426.133	2474.12
426.341	2502.79
426.548	2666.63
426.756	2586.76
426.964	2670.72
427.171	2797.7
427.379	2924.67
427.586	2900.09
427.794	2934.91
428.001	3170.43
428.209	3311.74
428.417	3262.58
428.624	3522.68
428.832	3498.1
429.039	3463.29
429.247	3348.6
429.454	3817.58
429.662	4040.81
429.869	3932.27
430.076	4098.16
430.284	3913.84
430.491	4143.21
430.699	4198.51
430.906	4298.86
431.114	4474.98
431.321	4673.64
431.528	4671.59
431.736	4976.73
431.943	5150.81
432.15	5075.04
432.358	5027.93
432.565	5314.65
432.772	5398.62
432.979	5677.14
433.187	5732.44
433.394	5802.07
433.601	6318.15
433.808	6258.76
434.016	6035.53
434.223	6361.16
434.43	6883.39
434.637	6729.8
434.844	6934.59
435.052	7223.36
435.259	7077.95
435.466	7254.08
435.673	7192.64
435.88	7618.61
436.087	8015.92
436.294	7938.1
436.501	7825.46
436.708	8083.5
436.915	8271.92
437.122	8824.87
437.329	8757.29
437.537	8884.26
437.743	8892.45
437.95	9050.14
438.157	9553.94
438.364	9701.4
438.571	9859.09
438.778	10084.37
438.985	10674.18
439.192	10311.69
439.399	10635.27
439.606	10395.66
439.813	11198.46
440.02	11749.37
440.227	11440.12
440.433	11390.97
440.64	11775.99
440.847	11732.98
441.054	11878.39
441.261	12795.88
441.467	12609.51
441.674	12861.41
441.881	13256.67
442.088	13318.11
442.294	13324.26
442.501	13518.81
442.708	13739.99
442.914	14440.4
443.121	14938.05
443.328	14544.84
443.534	15626.17
443.741	15058.88
443.948	14829.51
444.154	16084.92
444.361	15976.37
444.568	16109.49
444.774	16295.86
444.981	16265.14
445.187	16795.56
445.394	17444.77
445.6	17506.21
445.807	19144.58
446.013	18311.06
446.22	18442.13
446.426	18988.94
446.633	19472.26
446.839	20215.67
447.046	19224.45
447.252	20203.38
447.459	20477.81
447.665	20279.16
447.871	21323.62
448.078	22359.89
448.284	21190.5
448.491	21583.71
448.697	22603.6
448.903	23150.41
449.11	23082.83
449.316	22740.82
449.522	23058.25
449.728	23906.11
449.935	23869.25
450.141	23828.29
450.347	24489.78
450.553	23715.65
450.76	23955.26
450.966	24942.38
451.172	24350.52
451.378	25190.19
451.584	24715.06
451.791	25128.75
451.997	25417.51
452.203	25784.1
452.409	25640.74
452.615	25591.59
452.821	24868.66
453.027	24547.12
453.233	25515.81
453.44	24747.83
453.646	25409.32
453.852	25364.26
454.058	25872.16
454.264	24776.5
454.47	25351.98
454.676	24928.05
454.882	25851.68
455.088	23488.32
455.294	23906.11
455.5	24164.15
455.705	24323.9
455.911	23650.11
456.117	22890.32
456.323	22994.76
456.529	21596
456.735	22527.83
456.941	22087.51
457.147	21600.1
457.352	21084.01
457.558	20897.64
457.764	20729.71
457.97	20260.73
458.176	20017.02
458.381	19967.87
458.587	18884.49
458.793	19064.71
458.999	18034.58
459.204	19365.76
459.41	18726.8
459.616	17641.37
459.821	17704.86
460.027	17639.33
460.233	17057.7
460.438	16345.01
460.644	16545.71
460.85	15839.16
461.055	15380.42
461.261	15454.14
461.466	14512.08
461.672	13895.64
461.878	15026.12
462.083	13858.78
462.289	13533.15
462.494	13459.42
462.7	12984.29
462.905	12718.06
463.111	13068.26
463.316	13363.17
463.522	12599.27
463.727	12939.24
463.932	12853.22
464.138	12605.42
464.343	12734.44
464.549	12169.2
464.754	12711.91
464.959	12599.27
465.165	12517.36
465.37	11829.24
465.575	11458.56
465.781	12158.96
465.986	12111.86
466.191	11642.87
466.397	11651.06
466.602	11005.95
466.807	11290.62
467.012	11438.08
467.218	11489.28
467.423	11163.65
467.628	11241.47
467.833	11618.3
