Data from USB4F104151__31__13-10-49-064.txt Node

Date: Fri Mar 14 13:10:49 EDT 2025
User: louis
Spectrometer: USB4F10415
Trigger mode: 4
Integration Time (sec): 2.000000E-2
Scans to average: 1
Electric dark correction enabled: true
Nonlinearity correction enabled: false
Boxcar width: 0
XAxis mode: Wavelengths
Number of Pixels in Spectrum: 3648
>>>>>Begin Spectral Data<<<<<
178.204	-48.47
178.424	-48.47
178.644	-48.47
178.864	-101.72
179.084	-97.62
179.304	-56.66
179.524	21.16
179.744	-42.32
179.964	-9.56
180.184	-9.56
180.404	27.31
180.624	0.68
180.844	41.64
181.064	-5.46
181.283	78.51
181.503	-13.65
181.723	-32.08
181.943	-25.94
182.163	31.4
182.383	-9.56
182.602	58.03
182.822	92.84
183.042	47.79
183.262	21.16
183.482	-73.04
183.701	55.98
183.921	96.94
184.141	45.74
184.361	64.17
184.58	8.87
184.8	45.74
185.02	84.65
185.239	129.7
185.459	8.87
185.679	107.18
185.898	37.55
186.118	49.83
186.338	39.59
186.557	6.83
186.777	15.02
186.997	64.17
187.216	82.6
187.436	-3.41
187.655	64.17
187.875	25.26
188.095	31.4
188.314	49.83
188.534	92.84
188.753	-15.7
188.973	70.31
189.192	72.36
189.412	-5.46
189.631	25.26
189.851	-25.94
190.07	17.07
190.29	-9.56
190.509	19.11
190.729	62.12
190.948	31.4
191.168	131.75
191.387	2.73
191.607	74.41
191.826	64.17
192.045	45.74
192.265	-17.75
192.484	2.73
192.704	88.75
192.923	19.11
193.142	98.99
193.362	47.79
193.581	105.13
193.8	78.51
194.02	115.37
194.239	-34.13
194.458	66.22
194.678	82.6
194.897	15.02
195.116	101.03
195.335	29.35
195.555	49.83
195.774	-5.46
195.993	51.88
196.212	23.21
196.432	58.03
196.651	60.07
196.87	37.55
197.089	49.83
197.308	-19.8
197.528	37.55
197.747	27.31
197.966	21.16
198.185	80.55
198.404	0.68
198.623	43.69
198.842	33.45
199.062	39.59
199.281	-32.08
199.5	29.35
199.719	45.74
199.938	6.83
200.157	101.03
200.376	-9.56
200.595	43.69
200.814	19.11
201.033	41.64
201.252	25.26
201.471	55.98
201.69	92.84
201.909	115.37
202.128	33.45
202.347	41.64
202.566	47.79
202.785	15.02
203.004	27.31
203.223	80.55
203.442	135.85
203.661	15.02
203.879	37.55
204.098	55.98
204.317	68.27
204.536	-1.37
204.755	6.83
204.974	49.83
205.193	15.02
205.411	47.79
205.63	64.17
205.849	55.98
206.068	15.02
206.287	-1.37
206.505	-7.51
206.724	31.4
206.943	78.51
207.162	29.35
207.381	84.65
207.599	31.4
207.818	-7.51
208.037	41.64
208.255	-17.75
208.474	55.98
208.693	2.73
208.911	60.07
209.13	72.36
209.349	-42.32
209.567	62.12
209.786	31.4
210.005	25.26
210.223	72.36
210.442	82.6
210.661	47.79
210.879	-1.37
211.098	51.88
211.316	35.5
211.535	64.17
211.753	101.03
211.972	31.4
212.191	33.45
212.409	68.27
212.628	55.98
212.846	23.21
213.065	66.22
213.283	62.12
213.502	103.08
213.72	17.07
213.938	76.46
214.157	47.79
214.375	31.4
214.594	39.59
214.812	41.64
215.031	37.55
215.249	47.79
215.467	-23.89
215.686	39.59
215.904	70.31
216.122	-9.56
216.341	39.59
216.559	62.12
216.778	121.51
216.996	55.98
217.214	23.21
217.432	31.4
217.651	80.55
217.869	58.03
218.087	84.65
218.306	27.31
218.524	94.89
218.742	2.73
218.96	55.98
219.179	68.27
219.397	121.51
219.615	53.93
219.833	-30.04
220.051	8.87
220.27	74.41
220.488	2.73
220.706	2.73
220.924	-50.52
221.142	-3.41
221.36	2.73
221.578	66.22
221.796	-34.13
222.015	82.6
222.233	55.98
222.451	90.79
222.669	68.27
222.887	8.87
223.105	37.55
223.323	-1.37
223.541	35.5
223.759	55.98
223.977	2.73
224.195	51.88
224.413	8.87
224.631	23.21
224.849	47.79
225.067	148.14
225.285	-17.75
225.503	47.79
225.721	55.98
225.939	0.68
226.157	17.07
226.375	82.6
226.592	45.74
226.81	51.88
227.028	78.51
227.246	25.26
227.464	47.79
227.682	68.27
227.9	49.83
228.117	76.46
228.335	25.26
228.553	64.17
228.771	19.11
228.989	31.4
229.206	-1.37
229.424	25.26
229.642	58.03
229.86	-5.46
230.077	84.65
230.295	66.22
230.513	-3.41
230.731	37.55
230.948	68.27
231.166	98.99
231.384	78.51
231.601	8.87
231.819	37.55
232.037	21.16
232.254	35.5
232.472	74.41
232.689	-15.7
232.907	66.22
233.125	-5.46
233.342	25.26
233.56	8.87
233.777	53.93
233.995	66.22
234.213	31.4
234.43	47.79
234.648	62.12
234.865	19.11
235.083	0.68
235.3	6.83
235.518	-60.76
235.735	90.79
235.953	10.92
236.17	25.26
236.388	96.94
236.605	39.59
236.822	-5.46
237.04	29.35
237.257	101.03
237.475	21.16
237.692	-13.65
237.909	17.07
238.127	25.26
238.344	2.73
238.562	45.74
238.779	58.03
238.996	49.83
239.214	74.41
239.431	27.31
239.648	-21.85
239.865	47.79
240.083	164.52
240.3	29.35
240.517	68.27
240.735	45.74
240.952	96.94
241.169	98.99
241.386	49.83
241.603	76.46
241.821	-68.95
242.038	113.32
242.255	58.03
242.472	76.46
242.689	0.68
242.907	80.55
243.124	37.55
243.341	0.68
243.558	29.35
243.775	76.46
243.992	-56.66
244.209	51.88
244.426	60.07
244.643	105.13
244.86	53.93
245.078	64.17
245.295	94.89
245.512	47.79
245.729	-38.23
245.946	47.79
246.163	39.59
246.38	-7.51
246.597	55.98
246.814	68.27
247.031	76.46
247.248	43.69
247.464	29.35
247.681	105.13
247.898	35.5
248.115	-13.65
248.332	-1.37
248.549	39.59
248.766	29.35
248.983	-17.75
249.2	0.68
249.417	35.5
249.633	68.27
249.85	47.79
250.067	17.07
250.284	84.65
250.501	10.92
250.717	-1.37
250.934	62.12
251.151	115.37
251.368	96.94
251.585	39.59
251.801	29.35
252.018	6.83
252.235	-21.85
252.451	72.36
252.668	10.92
252.885	35.5
253.102	86.7
253.318	37.55
253.535	-34.13
253.752	35.5
253.968	51.88
254.185	31.4
254.401	6.83
254.618	94.89
254.835	-19.8
255.051	70.31
255.268	-9.56
255.484	90.79
255.701	72.36
255.917	-34.13
256.134	21.16
256.351	19.11
256.567	35.5
256.784	51.88
257	60.07
257.217	74.41
257.433	6.83
257.65	70.31
257.866	39.59
258.082	39.59
258.299	10.92
258.515	-3.41
258.732	35.5
258.948	31.4
259.165	25.26
259.381	43.69
259.597	-9.56
259.814	51.88
260.03	68.27
260.246	39.59
260.463	109.22
260.679	98.99
260.895	-17.75
261.112	58.03
261.328	47.79
261.544	29.35
261.761	72.36
261.977	17.07
262.193	2.73
262.409	53.93
262.626	60.07
262.842	98.99
263.058	23.21
263.274	115.37
263.49	-17.75
263.707	80.55
263.923	19.11
264.139	2.73
264.355	-1.37
264.571	31.4
264.787	98.99
265.004	131.75
265.22	17.07
265.436	-7.51
265.652	17.07
265.868	-15.7
266.084	-7.51
266.3	70.31
266.516	35.5
266.732	80.55
266.948	-9.56
267.164	31.4
267.38	96.94
267.596	101.03
267.812	101.03
268.028	49.83
268.244	72.36
268.46	-19.8
268.676	68.27
268.892	80.55
269.108	23.21
269.324	15.02
269.54	23.21
269.756	70.31
269.972	23.21
270.188	78.51
270.403	27.31
270.619	33.45
270.835	17.07
271.051	21.16
271.267	60.07
271.483	39.59
271.698	41.64
271.914	64.17
272.13	19.11
272.346	39.59
272.562	8.87
272.777	68.27
272.993	74.41
273.209	33.45
273.425	55.98
273.64	39.59
273.856	8.87
274.072	45.74
274.287	-99.67
274.503	41.64
274.719	25.26
274.934	60.07
275.15	10.92
275.366	49.83
275.581	74.41
275.797	58.03
276.012	0.68
276.228	-1.37
276.444	84.65
276.659	72.36
276.875	64.17
277.09	27.31
277.306	72.36
277.521	66.22
277.737	19.11
277.952	41.64
278.168	25.26
278.383	74.41
278.599	113.32
278.814	49.83
279.03	27.31
279.245	33.45
279.461	39.59
279.676	113.32
279.892	-25.94
280.107	-38.23
280.322	-11.61
280.538	58.03
280.753	-1.37
280.969	15.02
281.184	74.41
281.399	29.35
281.615	41.64
281.83	72.36
282.045	-34.13
282.26	58.03
282.476	37.55
282.691	58.03
282.906	37.55
283.122	-1.37
283.337	35.5
283.552	82.6
283.767	53.93
283.983	76.46
284.198	45.74
284.413	68.27
284.628	41.64
284.843	21.16
285.058	58.03
285.274	43.69
285.489	64.17
285.704	111.27
285.919	72.36
286.134	41.64
286.349	47.79
286.564	88.75
286.779	72.36
286.995	-5.46
287.21	12.97
287.425	-21.85
287.64	-15.7
287.855	43.69
288.07	72.36
288.285	8.87
288.5	90.79
288.715	82.6
288.93	49.83
289.145	19.11
289.36	21.16
289.575	92.84
289.79	80.55
290.004	27.31
290.219	96.94
290.434	-3.41
290.649	27.31
290.864	144.04
291.079	15.02
291.294	10.92
291.509	64.17
291.724	70.31
291.938	82.6
292.153	31.4
292.368	23.21
292.583	45.74
292.798	19.11
293.012	10.92
293.227	62.12
293.442	55.98
293.657	58.03
293.871	86.7
294.086	49.83
294.301	80.55
294.516	107.18
294.73	37.55
294.945	39.59
295.16	84.65
295.374	80.55
295.589	58.03
295.804	23.21
296.018	-1.37
296.233	35.5
296.447	90.79
296.662	58.03
296.877	31.4
297.091	8.87
297.306	53.93
297.52	8.87
297.735	33.45
297.949	62.12
298.164	90.79
298.378	-19.8
298.593	51.88
298.807	-9.56
299.022	64.17
299.236	23.21
299.451	6.83
299.665	2.73
299.88	25.26
300.094	64.17
300.309	15.02
300.523	27.31
300.737	64.17
300.952	82.6
301.166	90.79
301.381	-32.08
301.595	39.59
301.809	-36.18
302.024	31.4
302.238	0.68
302.452	94.89
302.667	49.83
302.881	-21.85
303.095	17.07
303.309	41.64
303.524	53.93
303.738	121.51
303.952	39.59
304.166	101.03
304.381	-15.7
304.595	55.98
304.809	15.02
305.023	12.97
305.237	12.97
305.452	47.79
305.666	62.12
305.88	31.4
306.094	23.21
306.308	55.98
306.522	101.03
306.736	170.66
306.95	31.4
307.164	41.64
307.379	17.07
307.593	55.98
307.807	-34.13
308.021	101.03
308.235	47.79
308.449	-5.46
308.663	80.55
308.877	170.66
309.091	105.13
309.305	-9.56
309.519	-3.41
309.733	58.03
309.947	12.97
310.161	23.21
310.374	12.97
310.588	45.74
310.802	25.26
311.016	15.02
311.23	-1.37
311.444	43.69
311.658	-25.94
311.872	60.07
312.085	43.69
312.299	115.37
312.513	15.02
312.727	101.03
312.941	0.68
313.154	129.7
313.368	53.93
313.582	45.74
313.796	86.7
314.009	35.5
314.223	121.51
314.437	27.31
314.651	96.94
314.864	-50.52
315.078	72.36
315.292	2.73
315.505	35.5
315.719	29.35
315.933	94.89
316.146	49.83
316.36	39.59
316.573	-11.61
316.787	-3.41
317.001	2.73
317.214	0.68
317.428	64.17
317.641	10.92
317.855	17.07
318.068	17.07
318.282	62.12
318.495	133.8
318.709	74.41
318.922	0.68
319.136	98.99
319.349	86.7
319.563	-9.56
319.776	49.83
319.99	-34.13
320.203	90.79
320.417	12.97
320.63	-44.37
320.843	88.75
321.057	15.02
321.27	0.68
321.483	-1.37
321.697	76.46
321.91	33.45
322.124	-7.51
322.337	37.55
322.55	27.31
322.763	-34.13
322.977	78.51
323.19	23.21
323.403	17.07
323.617	76.46
323.83	127.66
324.043	-32.08
324.256	68.27
324.469	17.07
324.683	19.11
324.896	-25.94
325.109	45.74
325.322	58.03
325.535	84.65
325.748	64.17
325.962	72.36
326.175	43.69
326.388	51.88
326.601	80.55
326.814	21.16
327.027	19.11
327.24	55.98
327.453	21.16
327.666	76.46
327.879	76.46
328.092	74.41
328.305	58.03
328.518	23.21
328.731	-15.7
328.944	72.36
329.157	74.41
329.37	90.79
329.583	6.83
329.796	133.8
330.009	74.41
330.222	123.56
330.435	76.46
330.648	33.45
330.861	86.7
331.073	88.75
331.286	51.88
331.499	66.22
331.712	23.21
331.925	66.22
332.138	72.36
332.35	96.94
332.563	8.87
332.776	72.36
332.989	33.45
333.202	64.17
333.414	27.31
333.627	39.59
333.84	23.21
334.053	47.79
334.265	-32.08
334.478	10.92
334.691	51.88
334.903	49.83
335.116	64.17
335.329	-34.13
335.541	144.04
335.754	58.03
335.966	2.73
336.179	111.27
336.392	55.98
336.604	49.83
336.817	49.83
337.029	60.07
337.242	33.45
337.454	53.93
337.667	105.13
337.88	107.18
338.092	74.41
338.305	58.03
338.517	37.55
338.729	23.21
338.942	12.97
339.154	76.46
339.367	4.78
339.579	47.79
339.792	37.55
340.004	88.75
340.217	0.68
340.429	68.27
340.641	78.51
340.854	-62.8
341.066	80.55
341.278	37.55
341.491	111.27
341.703	-25.94
341.915	43.69
342.128	74.41
342.34	129.7
342.552	41.64
342.764	10.92
342.977	15.02
343.189	70.31
343.401	25.26
343.613	15.02
343.826	47.79
344.038	-1.37
344.25	107.18
344.462	-19.8
344.674	80.55
344.886	66.22
345.099	55.98
345.311	154.28
345.523	15.02
345.735	49.83
345.947	49.83
346.159	2.73
346.371	37.55
346.583	6.83
346.795	76.46
347.007	64.17
347.219	111.27
347.431	31.4
347.643	127.66
347.855	90.79
348.067	-11.61
348.279	-1.37
348.491	55.98
348.703	60.07
348.915	49.83
349.127	66.22
349.339	53.93
349.551	98.99
349.763	88.75
349.975	-5.46
350.187	94.89
350.399	90.79
350.61	39.59
350.822	12.97
351.034	17.07
351.246	43.69
351.458	74.41
351.669	76.46
351.881	51.88
352.093	27.31
352.305	43.69
352.517	107.18
352.728	154.28
352.94	98.99
353.152	64.17
353.363	66.22
353.575	115.37
353.787	58.03
353.999	31.4
354.21	96.94
354.422	51.88
354.633	33.45
354.845	76.46
355.057	33.45
355.268	33.45
355.48	10.92
355.692	-17.75
355.903	-1.37
356.115	31.4
356.326	37.55
356.538	35.5
356.749	31.4
356.961	86.7
357.172	66.22
357.384	29.35
357.595	90.79
357.807	37.55
358.018	19.11
358.23	29.35
358.441	68.27
358.653	-7.51
358.864	82.6
359.075	101.03
359.287	64.17
359.498	105.13
359.709	154.28
359.921	64.17
360.132	-5.46
360.344	70.31
360.555	39.59
360.766	82.6
360.977	72.36
361.189	123.56
361.4	49.83
361.611	105.13
361.823	121.51
362.034	68.27
362.245	37.55
362.456	84.65
362.667	29.35
362.879	84.65
363.09	49.83
363.301	64.17
363.512	72.36
363.723	0.68
363.935	53.93
364.146	82.6
364.357	31.4
364.568	23.21
364.779	43.69
364.99	12.97
365.201	45.74
365.412	103.08
365.623	6.83
365.834	4.78
366.045	98.99
366.256	117.42
366.467	113.32
366.678	105.13
366.889	64.17
367.1	55.98
367.311	47.79
367.522	78.51
367.733	107.18
367.944	98.99
368.155	6.83
368.366	29.35
368.577	162.47
368.788	96.94
368.999	15.02
369.209	49.83
369.42	58.03
369.631	66.22
369.842	82.6
370.053	25.26
370.264	76.46
370.474	64.17
370.685	86.7
370.896	47.79
371.107	58.03
371.317	76.46
371.528	-1.37
371.739	80.55
371.95	27.31
372.16	135.85
372.371	15.02
372.582	72.36
372.792	6.83
373.003	88.75
373.214	76.46
373.424	119.46
373.635	39.59
373.846	117.42
374.056	58.03
374.267	86.7
374.477	72.36
374.688	37.55
374.898	88.75
375.109	41.64
375.319	88.75
375.53	86.7
375.74	55.98
375.951	47.79
376.161	-1.37
376.372	111.27
376.582	25.26
376.793	66.22
377.003	27.31
377.214	60.07
377.424	98.99
377.635	72.36
377.845	-23.89
378.055	103.08
378.266	90.79
378.476	17.07
378.686	84.65
378.897	51.88
379.107	76.46
379.317	27.31
379.528	49.83
379.738	98.99
379.948	23.21
380.158	195.24
380.369	96.94
380.579	15.02
380.789	98.99
380.999	121.51
381.21	74.41
381.42	109.22
381.63	-40.28
381.84	72.36
382.05	-13.65
382.261	51.88
382.471	84.65
382.681	58.03
382.891	21.16
383.101	117.42
383.311	88.75
383.521	58.03
383.731	82.6
383.941	0.68
384.151	41.64
384.361	119.46
384.571	60.07
384.781	66.22
384.991	72.36
385.201	156.33
385.411	86.7
385.621	47.79
385.831	45.74
386.041	12.97
386.251	60.07
386.461	80.55
386.671	146.09
386.881	72.36
387.091	19.11
387.301	68.27
387.511	68.27
387.72	76.46
387.93	90.79
388.14	-7.51
388.35	64.17
388.56	82.6
388.769	96.94
388.979	66.22
389.189	88.75
389.399	72.36
389.609	105.13
389.818	119.46
390.028	80.55
390.238	47.79
390.447	103.08
390.657	146.09
390.867	107.18
391.076	72.36
391.286	76.46
391.496	82.6
391.705	21.16
391.915	94.89
392.125	115.37
392.334	53.93
392.544	119.46
392.753	107.18
392.963	68.27
393.172	72.36
393.382	101.03
393.591	68.27
393.801	72.36
394.01	107.18
394.22	80.55
394.429	96.94
394.639	66.22
394.848	105.13
395.058	31.4
395.267	123.56
395.477	68.27
395.686	144.04
395.895	53.93
396.105	111.27
396.314	76.46
396.524	180.9
396.733	144.04
396.942	160.42
397.152	94.89
397.361	105.13
397.57	109.22
397.78	137.9
397.989	146.09
398.198	139.94
398.407	137.9
398.617	76.46
398.826	154.28
399.035	88.75
399.244	131.75
399.453	96.94
399.663	135.85
399.872	176.81
400.081	139.94
400.29	117.42
400.499	211.62
400.708	172.71
400.917	174.76
401.127	158.38
401.336	139.94
401.545	189.1
401.754	141.99
401.963	92.84
402.172	113.32
402.381	107.18
402.59	98.99
402.799	178.86
403.008	92.84
403.217	129.7
403.426	105.13
403.635	121.51
403.844	135.85
404.053	152.23
404.262	137.9
404.471	191.14
404.68	189.1
404.888	158.38
405.097	166.57
405.306	197.29
405.515	170.66
405.724	191.14
405.933	148.14
406.142	221.86
406.35	137.9
406.559	262.82
406.768	225.96
406.977	287.4
407.185	221.86
407.394	205.48
407.603	250.53
407.812	203.43
408.02	258.73
408.229	203.43
408.438	283.3
408.646	271.01
408.855	268.97
409.064	285.35
409.272	246.44
409.481	404.13
409.69	307.88
409.898	271.01
410.107	336.55
410.315	275.11
410.524	361.13
410.733	340.65
410.941	344.74
411.15	354.98
411.358	522.91
411.567	408.23
411.775	492.2
411.984	434.85
412.192	393.89
412.401	402.08
412.609	400.04
412.818	522.91
413.026	543.39
413.234	572.07
413.443	518.82
413.651	653.98
413.86	535.2
414.068	625.31
414.276	635.55
414.485	635.55
414.693	686.75
414.901	713.38
415.11	721.57
415.318	737.95
415.526	694.94
415.734	768.67
415.943	793.25
416.151	881.31
416.359	844.45
416.567	877.21
416.776	912.03
416.984	1016.48
417.192	1008.28
417.4	1016.48
417.608	1030.81
417.817	1022.62
418.025	1100.44
418.233	1190.55
418.441	1120.92
418.649	1172.12
418.857	1303.19
419.065	1407.64
419.273	1360.53
419.481	1397.4
419.689	1516.18
419.897	1536.66
420.105	1415.83
420.313	1692.3
420.521	1657.49
420.729	1618.58
420.937	1680.02
421.145	1890.96
421.353	2005.64
421.561	1921.68
421.769	2032.27
421.977	2179.72
422.185	2093.71
422.393	2222.73
422.601	2273.93
422.809	2275.98
423.017	2325.13
423.224	2484.87
423.432	2491.01
423.64	2531.97
423.848	2634.37
424.056	2845.31
424.263	2871.93
424.471	3007.1
424.679	2996.86
424.887	3162.75
425.094	3193.47
425.302	3414.65
425.51	3431.03
425.718	3508.85
425.925	3467.89
426.133	3668.59
426.341	3951.21
426.548	4004.46
426.756	4082.28
426.964	4022.89
427.171	4323.94
427.379	4366.95
427.586	4420.2
427.794	4538.98
428.001	4954.72
428.209	5110.36
428.417	4944.48
428.624	5270.11
428.832	5325.4
429.039	5247.58
429.247	5331.55
429.454	5806.67
429.662	6097.49
429.869	5767.76
430.076	6173.26
430.284	6115.92
430.491	6365.77
430.699	6617.67
430.906	6603.33
431.114	6756.93
431.321	6998.59
431.528	7258.68
431.736	7502.39
431.943	7995.95
432.15	7709.24
432.358	7934.51
432.565	8303.15
432.772	8221.23
432.979	8761.89
433.187	8630.82
433.394	8933.92
433.601	9423.39
433.808	9470.49
434.016	9450.01
434.223	9781.78
434.43	10361.36
434.637	10289.68
434.844	10930.69
435.052	11063.81
435.259	10947.08
435.466	11074.05
435.673	11035.14
435.88	11598.33
436.087	12366.32
436.294	12358.13
436.501	11975.16
436.708	12425.71
436.915	12659.18
437.122	13423.07
437.329	13314.53
437.537	13810.14
437.743	13707.74
437.95	13623.77
438.157	14277.07
438.364	15053.25
438.571	14922.18
438.778	14711.24
438.985	16327.09
439.192	15765.95
439.399	16247.22
439.606	15952.31
439.813	16859.56
440.02	17695.13
440.227	17420.7
440.433	17404.32
440.64	18033.05
440.847	17811.87
441.054	18407.83
441.261	19659.13
441.467	19208.58
441.674	19743.1
441.881	20365.68
442.088	20269.43
442.294	20193.65
442.501	20619.63
442.708	21082.47
442.914	21842.27
443.121	22643.03
443.328	22292.82
443.534	23998.78
443.741	22995.28
443.948	22921.55
444.154	24592.69
444.361	24279.35
444.568	24514.87
444.774	24785.2
444.981	25008.43
445.187	25618.72
445.394	26568.98
445.6	26306.84
445.807	28909.81
446.013	27656.45
446.22	28221.69
446.426	29419.75
446.633	29901.03
446.839	30507.23
447.046	29405.42
447.252	30996.69
447.459	31115.47
447.665	31049.94
447.871	32303.29
448.078	33446.06
448.284	31916.23
448.491	32948.4
448.697	34320.54
448.903	34883.73
449.11	35223.7
449.316	34308.26
449.522	35520.65
449.728	35997.83
449.935	36436.09
450.141	36417.66
450.347	37404.78
450.553	36204.67
450.76	36432
450.966	37636.2
451.172	37257.33
451.378	38508.64
451.584	37650.54
451.791	38426.72
451.997	38832.22
452.203	39288.92
452.409	39256.15
452.615	38844.51
452.821	38021.22
453.027	37374.06
453.233	39030.87
453.44	37945.45
453.646	38250.6
453.852	38541.41
454.058	39045.21
454.264	37785.71
454.47	38551.65
454.676	37777.51
454.882	38953.05
455.088	35848.33
455.294	36272.26
455.5	37474.41
455.705	37345.39
455.911	35506.32
456.117	35203.22
456.323	34961.56
456.529	33097.91
456.735	34517.15
456.941	33308.85
457.147	32889.01
457.352	31897.8
457.558	31903.94
457.764	31770.82
457.97	31416.52
458.176	30660.82
458.381	30712.02
458.587	29325.55
458.793	29028.59
458.999	27881.73
459.204	29468.9
459.41	28719.35
459.616	26958.1
459.821	27250.95
460.027	26700.05
460.233	26464.53
460.438	25166.12
460.644	25319.72
460.85	23937.34
461.055	23746.88
461.261	23845.18
461.466	22081.88
461.672	21616.99
461.878	22692.18
462.083	21373.28
462.289	20797.81
462.494	20713.84
462.7	19724.67
462.905	19141
463.111	19757.44
463.316	19984.76
463.522	19485.06
463.727	19745.15
463.932	19753.34
464.138	19298.69
464.343	19616.13
464.549	18868.62
464.754	19270.02
464.959	19126.66
465.165	19079.56
465.37	18381.2
465.575	17533.34
465.781	18717.07
465.986	18667.92
466.191	18059.67
466.397	17605.02
466.602	16757.16
466.807	17400.23
467.012	17574.3
467.218	17346.98
467.423	17185.19
