Data from USB4F104151__73__13-12-21-114.txt Node

Date: Fri Mar 14 13:12:21 EDT 2025
User: louis
Spectrometer: USB4F10415
Trigger mode: 4
Integration Time (sec): 2.000000E-2
Scans to average: 1
Electric dark correction enabled: true
Nonlinearity correction enabled: false
Boxcar width: 0
XAxis mode: Wavelengths
Number of Pixels in Spectrum: 3648
>>>>>Begin Spectral Data<<<<<
178.204	-47.79
178.424	-47.79
178.644	-47.79
178.864	-111.27
179.084	-60.07
179.304	1.37
179.524	1.37
179.744	13.65
179.964	-17.07
180.184	-23.21
180.404	9.56
180.624	-17.07
180.844	-21.16
181.064	-15.02
181.283	32.08
181.503	-64.17
181.723	99.67
181.943	25.94
182.163	36.18
182.383	19.8
182.602	95.57
182.822	34.13
183.042	36.18
183.262	50.52
183.482	3.41
183.701	23.89
183.921	44.37
184.141	-51.88
184.361	-47.79
184.58	58.71
184.8	1.37
185.02	27.99
185.239	1.37
185.459	25.94
185.679	66.9
185.898	-21.16
186.118	52.56
186.338	-10.92
186.557	83.28
186.777	-6.83
186.997	-15.02
187.216	-21.16
187.436	103.76
187.655	-12.97
187.875	30.04
188.095	-33.45
188.314	66.9
188.534	17.75
188.753	-37.55
188.973	99.67
189.192	40.28
189.412	9.56
189.631	44.37
189.851	21.84
190.07	50.52
190.29	-31.4
190.509	50.52
190.729	-60.07
190.948	3.41
191.168	105.81
191.387	56.66
191.607	-29.35
191.826	48.47
192.045	66.9
192.265	9.56
192.484	77.14
192.704	75.09
192.923	-23.21
193.142	81.24
193.362	77.14
193.581	38.23
193.8	3.41
194.02	73.04
194.239	9.56
194.458	52.56
194.678	89.43
194.897	-23.21
195.116	66.9
195.335	42.32
195.555	32.08
195.774	42.32
195.993	27.99
196.212	13.65
196.432	-19.11
196.651	19.8
196.87	60.76
197.089	103.76
197.308	48.47
197.528	-41.64
197.747	66.9
197.966	-6.83
198.185	13.65
198.404	13.65
198.623	62.8
198.842	27.99
199.062	-4.78
199.281	128.34
199.5	1.37
199.719	-37.55
199.938	48.47
200.157	73.04
200.376	42.32
200.595	52.56
200.814	15.7
201.033	81.24
201.252	38.23
201.471	27.99
201.69	79.19
201.909	-23.21
202.128	52.56
202.347	5.46
202.566	30.04
202.785	44.37
203.004	34.13
203.223	99.67
203.442	9.56
203.661	44.37
203.879	15.7
204.098	68.95
204.317	-21.16
204.536	73.04
204.755	73.04
204.974	21.84
205.193	17.75
205.411	66.9
205.63	25.94
205.849	-37.55
206.068	79.19
206.287	-15.02
206.505	19.8
206.724	46.42
206.943	13.65
207.162	34.13
207.381	81.24
207.599	25.94
207.818	7.51
208.037	73.04
208.255	7.51
208.474	91.48
208.693	21.84
208.911	60.76
209.13	68.95
209.349	32.08
209.567	-4.78
209.786	66.9
210.005	-25.26
210.223	-19.11
210.442	-39.59
210.661	25.94
210.879	-19.11
211.098	3.41
211.316	56.66
211.535	134.48
211.753	-4.78
211.972	27.99
212.191	-15.02
212.409	25.94
212.628	9.56
212.846	13.65
213.065	77.14
213.283	42.32
213.502	38.23
213.72	62.8
213.938	13.65
214.157	-0.68
214.375	64.85
214.594	89.43
214.812	71
215.031	44.37
215.249	23.89
215.467	32.08
215.686	3.41
215.904	5.46
216.122	13.65
216.341	93.52
216.559	11.61
216.778	17.75
216.996	79.19
217.214	15.7
217.432	64.85
217.651	23.89
217.869	58.71
218.087	7.51
218.306	5.46
218.524	-2.73
218.742	52.56
218.96	5.46
219.179	32.08
219.397	30.04
219.615	66.9
219.833	9.56
220.051	85.33
220.27	71
220.488	38.23
220.706	83.28
220.924	-27.31
221.142	9.56
221.36	-4.78
221.578	38.23
221.796	54.61
222.015	-2.73
222.233	-2.73
222.451	9.56
222.669	7.51
222.887	-6.83
223.105	23.89
223.323	42.32
223.541	66.9
223.759	81.24
223.977	13.65
224.195	19.8
224.413	34.13
224.631	105.81
224.849	52.56
225.067	48.47
225.285	-43.69
225.503	114
225.721	-21.16
225.939	54.61
226.157	-12.97
226.375	44.37
226.592	-15.02
226.81	5.46
227.028	1.37
227.246	128.34
227.464	19.8
227.682	-2.73
227.9	62.8
228.117	30.04
228.335	36.18
228.553	-4.78
228.771	30.04
228.989	54.61
229.206	9.56
229.424	40.28
229.642	109.91
229.86	11.61
230.077	19.8
230.295	3.41
230.513	13.65
230.731	87.38
230.948	11.61
231.166	60.76
231.384	68.95
231.601	9.56
231.819	19.8
232.037	-39.59
232.254	48.47
232.472	9.56
232.689	-47.79
232.907	40.28
233.125	79.19
233.342	46.42
233.56	27.99
233.777	-25.26
233.995	-55.98
234.213	27.99
234.43	21.84
234.648	-10.92
234.865	60.76
235.083	77.14
235.3	21.84
235.518	-21.16
235.735	79.19
235.953	25.94
236.17	-6.83
236.388	52.56
236.605	9.56
236.822	66.9
237.04	42.32
237.257	13.65
237.475	99.67
237.692	50.52
237.909	-43.69
238.127	1.37
238.344	89.43
238.562	3.41
238.779	-31.4
238.996	25.94
239.214	-12.97
239.431	36.18
239.648	54.61
239.865	56.66
240.083	58.71
240.3	44.37
240.517	-6.83
240.735	62.8
240.952	68.95
241.169	-6.83
241.386	68.95
241.603	60.76
241.821	19.8
242.038	21.84
242.255	13.65
242.472	9.56
242.689	89.43
242.907	58.71
243.124	48.47
243.341	77.14
243.558	15.7
243.775	13.65
243.992	-39.59
244.209	-0.68
244.426	111.96
244.643	109.91
244.86	48.47
245.078	46.42
245.295	52.56
245.512	42.32
245.729	27.99
245.946	68.95
246.163	95.57
246.38	25.94
246.597	48.47
246.814	-8.87
247.031	32.08
247.248	-23.21
247.464	5.46
247.681	50.52
247.898	-21.16
248.115	66.9
248.332	36.18
248.549	-29.35
248.766	21.84
248.983	150.87
249.2	21.84
249.417	-43.69
249.633	11.61
249.85	34.13
250.067	34.13
250.284	91.48
250.501	-6.83
250.717	11.61
250.934	15.7
251.151	-31.4
251.368	11.61
251.585	77.14
251.801	11.61
252.018	-6.83
252.235	50.52
252.451	83.28
252.668	85.33
252.885	34.13
253.102	25.94
253.318	36.18
253.535	71
253.752	30.04
253.968	91.48
254.185	87.38
254.401	19.8
254.618	-45.74
254.835	19.8
255.051	42.32
255.268	77.14
255.484	13.65
255.701	-6.83
255.917	116.05
256.134	36.18
256.351	9.56
256.567	50.52
256.784	38.23
257	62.8
257.217	52.56
257.433	36.18
257.65	48.47
257.866	122.2
258.082	42.32
258.299	25.94
258.515	-8.87
258.732	101.72
258.948	25.94
259.165	32.08
259.381	42.32
259.597	17.75
259.814	9.56
260.03	60.76
260.246	-27.31
260.463	-23.21
260.679	50.52
260.895	27.99
261.112	77.14
261.328	-6.83
261.544	-31.4
261.761	21.84
261.977	36.18
262.193	17.75
262.409	93.52
262.626	44.37
262.842	60.76
263.058	36.18
263.274	83.28
263.49	17.75
263.707	64.85
263.923	60.76
264.139	-4.78
264.355	44.37
264.571	87.38
264.787	52.56
265.004	52.56
265.22	54.61
265.436	27.99
265.652	3.41
265.868	44.37
266.084	50.52
266.3	42.32
266.516	17.75
266.732	99.67
266.948	34.13
267.164	-2.73
267.38	-37.55
267.596	99.67
267.812	58.71
268.028	46.42
268.244	34.13
268.46	-6.83
268.676	54.61
268.892	9.56
269.108	-25.26
269.324	58.71
269.54	-2.73
269.756	17.75
269.972	13.65
270.188	25.94
270.403	-60.07
270.619	52.56
270.835	-12.97
271.051	44.37
271.267	-23.21
271.483	66.9
271.698	-62.12
271.914	32.08
272.13	36.18
272.346	58.71
272.562	-27.31
272.777	81.24
272.993	5.46
273.209	32.08
273.425	79.19
273.64	21.84
273.856	81.24
274.072	44.37
274.287	46.42
274.503	62.8
274.719	5.46
274.934	40.28
275.15	13.65
275.366	-29.35
275.581	19.8
275.797	3.41
276.012	11.61
276.228	1.37
276.444	71
276.659	87.38
276.875	23.89
277.09	25.94
277.306	-10.92
277.521	71
277.737	32.08
277.952	56.66
278.168	54.61
278.383	48.47
278.599	-10.92
278.814	-19.11
279.03	-10.92
279.245	9.56
279.461	44.37
279.676	91.48
279.892	15.7
280.107	62.8
280.322	-43.69
280.538	25.94
280.753	34.13
280.969	5.46
281.184	-27.31
281.399	99.67
281.615	107.86
281.83	1.37
282.045	-25.26
282.26	44.37
282.476	66.9
282.691	34.13
282.906	-2.73
283.122	5.46
283.337	95.57
283.552	38.23
283.767	-15.02
283.983	-12.97
284.198	25.94
284.413	9.56
284.628	25.94
284.843	-45.74
285.058	-2.73
285.274	11.61
285.489	-51.88
285.704	-6.83
285.919	83.28
286.134	-55.98
286.349	-35.5
286.564	-27.31
286.779	11.61
286.995	-31.4
287.21	-31.4
287.425	75.09
287.64	1.37
287.855	17.75
288.07	7.51
288.285	91.48
288.5	36.18
288.715	-12.97
288.93	34.13
289.145	50.52
289.36	34.13
289.575	42.32
289.79	34.13
290.004	64.85
290.219	38.23
290.434	48.47
290.649	5.46
290.864	71
291.079	-12.97
291.294	77.14
291.509	93.52
291.724	50.52
291.938	52.56
292.153	3.41
292.368	11.61
292.583	-39.59
292.798	58.71
293.012	66.9
293.227	62.8
293.442	-8.87
293.657	77.14
293.871	58.71
294.086	-49.83
294.301	30.04
294.516	40.28
294.73	93.52
294.945	99.67
295.16	27.99
295.374	77.14
295.589	-2.73
295.804	7.51
296.018	17.75
296.233	60.76
296.447	46.42
296.662	48.47
296.877	93.52
297.091	32.08
297.306	17.75
297.52	25.94
297.735	42.32
297.949	36.18
298.164	-10.92
298.378	11.61
298.593	25.94
298.807	32.08
299.022	17.75
299.236	46.42
299.451	38.23
299.665	-4.78
299.88	21.84
300.094	19.8
300.309	-4.78
300.523	17.75
300.737	1.37
300.952	-4.78
301.166	66.9
301.381	23.89
301.595	107.86
301.809	-37.55
302.024	27.99
302.238	-10.92
302.452	91.48
302.667	-27.31
302.881	91.48
303.095	122.2
303.309	21.84
303.524	3.41
303.738	60.76
303.952	60.76
304.166	32.08
304.381	21.84
304.595	56.66
304.809	34.13
305.023	11.61
305.237	34.13
305.452	44.37
305.666	161.11
305.88	83.28
306.094	52.56
306.308	27.99
306.522	120.15
306.736	54.61
306.95	60.76
307.164	34.13
307.379	-12.97
307.593	15.7
307.807	75.09
308.021	-70.31
308.235	114
308.449	1.37
308.663	9.56
308.877	101.72
309.091	71
309.305	73.04
309.519	-21.16
309.733	42.32
309.947	-25.26
310.161	-35.5
310.374	105.81
310.588	66.9
310.802	66.9
311.016	54.61
311.23	79.19
311.444	48.47
311.658	54.61
311.872	42.32
312.085	-2.73
312.299	79.19
312.513	48.47
312.727	27.99
312.941	3.41
313.154	62.8
313.368	-39.59
313.582	91.48
313.796	25.94
314.009	15.7
314.223	58.71
314.437	40.28
314.651	48.47
314.864	-2.73
315.078	34.13
315.292	-6.83
315.505	79.19
315.719	17.75
315.933	19.8
316.146	40.28
316.36	13.65
316.573	5.46
316.787	50.52
317.001	73.04
317.214	11.61
317.428	21.84
317.641	15.7
317.855	5.46
318.068	58.71
318.282	-27.31
318.495	95.57
318.709	91.48
318.922	9.56
319.136	66.9
319.349	15.7
319.563	23.89
319.776	42.32
319.99	42.32
320.203	42.32
320.417	105.81
320.63	48.47
320.843	73.04
321.057	99.67
321.27	27.99
321.483	-21.16
321.697	25.94
321.91	54.61
322.124	34.13
322.337	-2.73
322.55	3.41
322.763	75.09
322.977	44.37
323.19	17.75
323.403	58.71
323.617	-6.83
323.83	44.37
324.043	13.65
324.256	7.51
324.469	-55.98
324.683	66.9
324.896	64.85
325.109	107.86
325.322	38.23
325.535	-31.4
325.748	58.71
325.962	-21.16
326.175	101.72
326.388	36.18
326.601	75.09
326.814	52.56
327.027	13.65
327.24	99.67
327.453	38.23
327.666	38.23
327.879	50.52
328.092	136.53
328.305	58.71
328.518	-2.73
328.731	85.33
328.944	-19.11
329.157	46.42
329.37	77.14
329.583	46.42
329.796	32.08
330.009	17.75
330.222	81.24
330.435	83.28
330.648	85.33
330.861	36.18
331.073	25.94
331.286	11.61
331.499	27.99
331.712	34.13
331.925	21.84
332.138	52.56
332.35	-21.16
332.563	-51.88
332.776	58.71
332.989	46.42
333.202	50.52
333.414	15.7
333.627	60.76
333.84	101.72
334.053	-0.68
334.265	46.42
334.478	21.84
334.691	81.24
334.903	19.8
335.116	27.99
335.329	56.66
335.541	-4.78
335.754	25.94
335.966	-49.83
336.179	85.33
336.392	73.04
336.604	9.56
336.817	142.68
337.029	50.52
337.242	13.65
337.454	50.52
337.667	71
337.88	30.04
338.092	25.94
338.305	81.24
338.517	-33.45
338.729	42.32
338.942	54.61
339.154	46.42
339.367	3.41
339.579	11.61
339.792	62.8
340.004	36.18
340.217	7.51
340.429	64.85
340.641	25.94
340.854	50.52
341.066	-23.21
341.278	107.86
341.491	79.19
341.703	-2.73
341.915	68.95
342.128	97.62
342.34	44.37
342.552	109.91
342.764	19.8
342.977	73.04
343.189	21.84
343.401	-4.78
343.613	-23.21
343.826	-23.21
344.038	71
344.25	116.05
344.462	75.09
344.674	-2.73
344.886	-6.83
345.099	120.15
345.311	71
345.523	50.52
345.735	-23.21
345.947	-19.11
346.159	44.37
346.371	44.37
346.583	44.37
346.795	89.43
347.007	15.7
347.219	62.8
347.431	27.99
347.643	138.58
347.855	46.42
348.067	71
348.279	-66.22
348.491	81.24
348.703	34.13
348.915	126.29
349.127	-10.92
349.339	42.32
349.551	17.75
349.763	30.04
349.975	23.89
350.187	73.04
350.399	44.37
350.61	93.52
350.822	93.52
351.034	60.76
351.246	42.32
351.458	111.96
351.669	11.61
351.881	42.32
352.093	44.37
352.305	73.04
352.517	66.9
352.728	58.71
352.94	44.37
353.152	19.8
353.363	38.23
353.575	87.38
353.787	83.28
353.999	21.84
354.21	105.81
354.422	30.04
354.633	-23.21
354.845	60.76
355.057	11.61
355.268	42.32
355.48	116.05
355.692	-12.97
355.903	-17.07
356.115	66.9
356.326	44.37
356.538	75.09
356.749	-29.35
356.961	103.76
357.172	7.51
357.384	62.8
357.595	95.57
357.807	75.09
358.018	54.61
358.23	62.8
358.441	128.34
358.653	38.23
358.864	1.37
359.075	9.56
359.287	60.76
359.498	27.99
359.709	77.14
359.921	1.37
360.132	42.32
360.344	42.32
360.555	142.68
360.766	54.61
360.977	54.61
361.189	107.86
361.4	-94.89
361.611	66.9
361.823	34.13
362.034	44.37
362.245	9.56
362.456	5.46
362.667	42.32
362.879	81.24
363.09	58.71
363.301	56.66
363.512	58.71
363.723	46.42
363.935	23.89
364.146	62.8
364.357	50.52
364.568	50.52
364.779	-33.45
364.99	42.32
365.201	-31.4
365.412	107.86
365.623	15.7
365.834	21.84
366.045	44.37
366.256	107.86
366.467	54.61
366.678	62.8
366.889	1.37
367.1	9.56
367.311	66.9
367.522	3.41
367.733	136.53
367.944	165.2
368.155	60.76
368.366	54.61
368.577	5.46
368.788	91.48
368.999	36.18
369.209	50.52
369.42	95.57
369.631	103.76
369.842	62.8
370.053	42.32
370.264	-23.21
370.474	48.47
370.685	132.44
370.896	54.61
371.107	44.37
371.317	60.76
371.528	13.65
371.739	81.24
371.95	36.18
372.16	42.32
372.371	42.32
372.582	5.46
372.792	13.65
373.003	40.28
373.214	25.94
373.424	34.13
373.635	48.47
373.846	148.82
374.056	13.65
374.267	99.67
374.477	15.7
374.688	77.14
374.898	7.51
375.109	30.04
375.319	83.28
375.53	79.19
375.74	116.05
375.951	91.48
376.161	-6.83
376.372	1.37
376.582	25.94
376.793	50.52
377.003	9.56
377.214	9.56
377.424	52.56
377.635	71
377.845	9.56
378.055	83.28
378.266	-53.93
378.476	62.8
378.686	109.91
378.897	25.94
379.107	27.99
379.317	66.9
379.528	5.46
379.738	56.66
379.948	68.95
380.158	27.99
380.369	75.09
380.579	79.19
380.789	136.53
380.999	79.19
381.21	15.7
381.42	71
381.63	44.37
381.84	75.09
382.05	17.75
382.261	93.52
382.471	3.41
382.681	30.04
382.891	97.62
383.101	77.14
383.311	83.28
383.521	25.94
383.731	64.85
383.941	62.8
384.151	1.37
384.361	83.28
384.571	52.56
384.781	56.66
384.991	118.1
385.201	58.71
385.411	3.41
385.621	103.76
385.831	85.33
386.041	95.57
386.251	97.62
386.461	-15.02
386.671	13.65
386.881	62.8
387.091	30.04
387.301	81.24
387.511	-15.02
387.72	60.76
387.93	-19.11
388.14	83.28
388.35	101.72
388.56	93.52
388.769	56.66
388.979	32.08
389.189	11.61
389.399	107.86
389.609	42.32
389.818	93.52
390.028	42.32
390.238	85.33
390.447	111.96
390.657	91.48
390.867	27.99
391.076	11.61
391.286	101.72
391.496	25.94
391.705	-12.97
391.915	79.19
392.125	97.62
392.334	77.14
392.544	101.72
392.753	15.7
392.963	105.81
393.172	116.05
393.382	71
393.591	83.28
393.801	83.28
394.01	36.18
394.22	42.32
394.429	42.32
394.639	17.75
394.848	66.9
395.058	107.86
395.267	132.44
395.477	81.24
395.686	116.05
395.895	83.28
396.105	169.3
396.314	161.11
396.524	66.9
396.733	118.1
396.942	50.52
397.152	128.34
397.361	107.86
397.57	85.33
397.78	114
397.989	189.78
398.198	124.24
398.407	107.86
398.617	79.19
398.826	73.04
399.035	116.05
399.244	116.05
399.453	85.33
399.663	46.42
399.872	179.54
400.081	75.09
400.29	193.87
400.499	58.71
400.708	109.91
400.917	116.05
401.127	116.05
401.336	44.37
401.545	132.44
401.754	116.05
401.963	148.82
402.172	140.63
402.381	85.33
402.59	107.86
402.799	77.14
403.008	46.42
403.217	91.48
403.426	116.05
403.635	42.32
403.844	48.47
404.053	116.05
404.262	159.06
404.471	177.49
404.68	116.05
404.888	75.09
405.097	109.91
405.306	83.28
405.515	144.72
405.724	77.14
405.933	99.67
406.142	120.15
406.35	202.07
406.559	140.63
406.768	296.27
406.977	228.69
407.185	185.68
407.394	214.35
407.603	171.35
407.812	251.22
408.02	208.21
408.229	202.07
408.438	189.78
408.646	136.53
408.855	234.83
409.064	238.93
409.272	263.51
409.481	255.31
409.69	222.55
409.898	206.16
410.107	304.46
410.315	329.04
410.524	214.35
410.733	251.22
410.941	306.51
411.15	378.19
411.358	349.52
411.567	355.66
411.775	410.96
411.984	271.7
412.192	349.52
412.401	349.52
412.609	378.19
412.818	499.02
413.026	404.82
413.234	351.57
413.443	427.34
413.651	382.29
413.86	490.83
414.068	484.69
414.276	544.08
414.485	488.78
414.693	544.08
414.901	656.72
415.11	597.32
415.318	591.18
415.526	673.1
415.734	605.52
415.943	587.08
416.151	707.91
416.359	714.06
416.567	755.02
416.776	718.15
416.984	787.79
417.192	814.41
417.4	795.98
417.608	707.91
417.817	884.04
418.025	992.58
418.233	949.57
418.441	939.33
418.649	980.29
418.857	1121.6
419.065	1037.64
419.273	1051.97
419.481	1119.56
419.689	1170.76
419.897	1305.92
420.105	1264.96
420.313	1271.11
420.521	1375.55
420.729	1379.65
420.937	1305.92
421.145	1443.14
421.353	1506.62
421.561	1459.52
421.769	1574.21
421.977	1701.18
422.185	1735.99
422.393	1764.67
422.601	1867.06
422.809	1967.42
423.017	1850.68
423.224	1959.22
423.432	2090.29
423.64	2082.1
423.848	2278.71
424.056	2155.83
424.263	2458.93
424.471	2379.06
424.679	2428.21
424.887	2544.94
425.094	2540.85
425.302	2590
425.51	2815.27
425.718	2725.16
425.925	2784.55
426.133	2948.39
426.341	3091.75
426.548	3140.9
426.756	3269.92
426.964	3331.36
427.171	3425.57
427.379	3630.37
427.586	3646.75
427.794	3804.44
428.001	3851.55
428.209	3994.9
428.417	3929.37
428.624	4068.63
428.832	4218.13
429.039	4203.8
429.247	4269.33
429.454	4797.71
429.662	5016.84
429.869	4687.12
430.076	5016.84
430.284	4728.08
430.491	5129.48
430.699	5362.95
430.906	5369.09
431.114	5514.5
431.321	5704.96
431.528	5711.1
431.736	6374.64
431.943	6323.44
432.15	6245.62
432.358	6255.86
432.565	6640.88
432.772	6571.25
432.979	6878.44
433.187	7052.52
433.394	7128.3
433.601	7605.47
433.808	7607.52
434.016	7503.07
434.223	7689.44
434.43	8312.02
434.637	8355.03
434.844	8830.16
435.052	8944.84
435.259	8834.25
435.466	8826.06
435.673	8869.07
435.88	9299.14
436.087	9723.07
436.294	9884.86
436.501	9622.72
436.708	9817.28
436.915	10394.81
437.122	10640.56
437.329	10773.68
437.537	10890.42
437.743	11109.55
437.95	11117.74
438.157	11410.6
438.364	12074.14
438.571	11986.08
438.778	12135.58
438.985	13204.62
439.192	12629.14
439.399	13192.33
439.606	12807.31
439.813	13505.67
440.02	14546.04
440.227	14128.25
440.433	14191.74
440.64	14480.5
440.847	14541.94
441.054	14777.46
441.261	15543.4
441.467	15359.08
441.674	15789.16
441.881	16272.48
442.088	16524.38
442.294	15969.38
442.501	16684.12
442.708	16888.92
442.914	17634.38
443.121	18289.73
443.328	17800.26
443.534	19178.54
443.741	18562.11
443.948	18390.08
444.154	19604.52
444.361	19751.98
444.568	19711.02
444.774	19770.41
444.981	19942.44
445.187	20718.62
445.394	21392.4
445.6	20933.65
445.807	22791.16
446.013	22289.41
446.22	22240.26
446.426	24069.09
446.633	23901.16
446.839	24880.09
447.046	23641.07
447.252	24796.12
447.459	24992.73
447.665	24740.83
447.871	25777.1
448.078	27280.31
448.284	25650.13
448.491	26629.06
448.697	27640.75
448.903	28304.29
449.11	27894.7
449.316	27882.41
449.522	28269.48
449.728	28902.3
449.935	29410.2
450.141	29369.24
450.347	29823.89
450.553	29041.56
450.76	28957.6
450.966	30180.23
451.172	29746.06
451.378	30864.25
451.584	30325.64
451.791	30548.87
451.997	30892.93
452.203	31687.54
452.409	31292.28
452.615	31277.94
452.821	30018.44
453.027	29965.2
453.233	31462.26
453.44	30141.32
453.646	30839.68
453.852	30722.94
454.058	31052.67
454.264	30253.96
454.47	30839.68
454.676	30301.06
454.882	31529.84
455.088	28771.23
455.294	29068.19
455.5	29490.07
455.705	29725.58
455.911	28578.72
456.117	27919.28
456.323	27628.46
456.529	26299.33
456.735	27587.5
456.941	26645.44
457.147	26508.22
457.352	25422.8
457.558	25177.05
457.764	25455.57
457.97	24871.9
458.176	24220.64
458.381	24161.25
458.587	23215.09
458.793	23045.11
458.999	21881.86
459.204	23573.49
459.41	22985.72
459.616	21195.79
459.821	21421.07
460.027	21371.92
460.233	20841.5
460.438	19670.06
460.644	19940.39
460.85	19141.68
461.055	18580.54
461.261	18838.58
461.466	17214.54
461.672	16788.57
461.878	18232.38
462.083	16919.64
462.289	16487.51
462.494	16450.65
462.7	15639.65
462.905	15600.74
463.111	15617.13
463.316	16245.85
463.522	15397.99
463.727	15596.65
463.932	15617.13
464.138	15346.8
464.343	15397.99
464.549	14584.95
464.754	14945.39
464.959	15182.96
465.165	15084.66
465.37	14537.85
465.575	14050.43
465.781	14791.8
465.986	14707.83
466.191	14148.73
466.397	13894.79
466.602	13366.41
466.807	13710.47
467.012	13755.52
467.218	13739.14
467.423	13597.83
467.628	13839.49
467.833	14226.56
468.038	13898.88
468.244	13286.54
468.449	14130.3
468.654	13274.25
