Data from USB4F104151__63__13-11-59-376.txt Node

Date: Fri Mar 14 13:11:59 EDT 2025
User: louis
Spectrometer: USB4F10415
Trigger mode: 4
Integration Time (sec): 2.000000E-2
Scans to average: 1
Electric dark correction enabled: true
Nonlinearity correction enabled: false
Boxcar width: 0
XAxis mode: Wavelengths
Number of Pixels in Spectrum: 3648
>>>>>Begin Spectral Data<<<<<
178.204	-19.46
178.424	-19.46
178.644	-19.46
178.864	-164.86
179.084	-103.42
179.304	-39.94
179.524	-23.55
179.744	-5.12
179.964	60.42
180.184	17.41
180.404	5.12
180.624	-21.5
180.844	52.22
181.064	-33.79
181.283	44.03
181.503	-23.55
181.723	-31.74
181.943	-13.31
182.163	70.65
182.383	50.18
182.602	78.85
182.822	-7.17
183.042	7.17
183.262	5.12
183.482	19.46
183.701	48.13
183.921	58.37
184.141	-17.41
184.361	-7.17
184.58	-1.02
184.8	3.07
185.02	72.7
185.239	1.02
185.459	27.65
185.679	50.18
185.898	-5.12
186.118	68.61
186.338	74.75
186.557	54.27
186.777	19.46
186.997	13.31
187.216	13.31
187.436	27.65
187.655	74.75
187.875	130.05
188.095	39.94
188.314	-1.02
188.534	111.61
188.753	25.6
188.973	-11.26
189.192	66.56
189.412	-5.12
189.631	3.07
189.851	111.61
190.07	68.61
190.29	-9.22
190.509	99.33
190.729	87.04
190.948	117.76
191.168	117.76
191.387	91.13
191.607	68.61
191.826	138.24
192.045	84.99
192.265	31.74
192.484	44.03
192.704	84.99
192.923	33.79
193.142	54.27
193.362	23.55
193.581	64.51
193.8	48.13
194.02	87.04
194.239	70.65
194.458	56.32
194.678	-37.89
194.897	-3.07
195.116	111.61
195.335	-19.46
195.555	50.18
195.774	54.27
195.993	-9.22
196.212	-3.07
196.432	39.94
196.651	-3.07
196.87	1.02
197.089	103.42
197.308	50.18
197.528	48.13
197.747	58.37
197.966	29.7
198.185	138.24
198.404	50.18
198.623	11.26
198.842	31.74
199.062	68.61
199.281	91.13
199.5	9.22
199.719	72.7
199.938	37.89
200.157	35.84
200.376	3.07
200.595	31.74
200.814	-74.75
201.033	13.31
201.252	72.7
201.471	39.94
201.69	9.22
201.909	54.27
202.128	-21.5
202.347	46.08
202.566	66.56
202.785	-29.7
203.004	-3.07
203.223	84.99
203.442	-29.7
203.661	31.74
203.879	70.65
204.098	46.08
204.317	-23.55
204.536	-3.07
204.755	54.27
204.974	23.55
205.193	52.22
205.411	70.65
205.63	-5.12
205.849	15.36
206.068	5.12
206.287	-11.26
206.505	62.46
206.724	21.5
206.943	23.55
207.162	-19.46
207.381	-11.26
207.599	60.42
207.818	19.46
208.037	29.7
208.255	-3.07
208.474	109.57
208.693	107.52
208.911	44.03
209.13	37.89
209.349	54.27
209.567	27.65
209.786	87.04
210.005	70.65
210.223	84.99
210.442	89.09
210.661	74.75
210.879	9.22
211.098	-44.03
211.316	27.65
211.535	29.7
211.753	89.09
211.972	35.84
212.191	25.6
212.409	74.75
212.628	-5.12
212.846	68.61
213.065	89.09
213.283	60.42
213.502	23.55
213.72	23.55
213.938	56.32
214.157	5.12
214.375	93.18
214.594	-37.89
214.812	48.13
215.031	89.09
215.249	33.79
215.467	-7.17
215.686	109.57
215.904	5.12
216.122	64.51
216.341	35.84
216.559	15.36
216.778	9.22
216.996	21.5
217.214	44.03
217.432	109.57
217.651	-33.79
217.869	70.65
218.087	41.98
218.306	37.89
218.524	37.89
218.742	64.51
218.96	68.61
219.179	9.22
219.397	-13.31
219.615	123.9
219.833	-7.17
220.051	7.17
220.27	46.08
220.488	119.81
220.706	48.13
220.924	-25.6
221.142	19.46
221.36	31.74
221.578	62.46
221.796	25.6
222.015	17.41
222.233	29.7
222.451	132.09
222.669	25.6
222.887	41.98
223.105	-19.46
223.323	21.5
223.541	-13.31
223.759	31.74
223.977	-5.12
224.195	27.65
224.413	31.74
224.631	19.46
224.849	50.18
225.067	103.42
225.285	44.03
225.503	62.46
225.721	-29.7
225.939	50.18
226.157	21.5
226.375	54.27
226.592	-41.98
226.81	39.94
227.028	27.65
227.246	35.84
227.464	35.84
227.682	1.02
227.9	56.32
228.117	35.84
228.335	3.07
228.553	64.51
228.771	76.8
228.989	31.74
229.206	17.41
229.424	25.6
229.642	-29.7
229.86	72.7
230.077	84.99
230.295	23.55
230.513	-1.02
230.731	17.41
230.948	64.51
231.166	97.28
231.384	105.47
231.601	15.36
231.819	76.8
232.037	11.26
232.254	37.89
232.472	29.7
232.689	-1.02
232.907	17.41
233.125	13.31
233.342	50.18
233.56	-33.79
233.777	23.55
233.995	-25.6
234.213	87.04
234.43	68.61
234.648	-39.94
234.865	44.03
235.083	29.7
235.3	-1.02
235.518	31.74
235.735	68.61
235.953	95.23
236.17	13.31
236.388	-11.26
236.605	-1.02
236.822	29.7
237.04	56.32
237.257	142.33
237.475	27.65
237.692	17.41
237.909	103.42
238.127	-13.31
238.344	-3.07
238.562	74.75
238.779	-50.18
238.996	-44.03
239.214	50.18
239.431	68.61
239.648	21.5
239.865	41.98
240.083	17.41
240.3	-19.46
240.517	21.5
240.735	-35.84
240.952	-1.02
241.169	76.8
241.386	44.03
241.603	-29.7
241.821	-15.36
242.038	9.22
242.255	23.55
242.472	91.13
242.689	48.13
242.907	19.46
243.124	76.8
243.341	52.22
243.558	58.37
243.775	29.7
243.992	21.5
244.209	-13.31
244.426	70.65
244.643	101.37
244.86	-9.22
245.078	64.51
245.295	19.46
245.512	113.66
245.729	-9.22
245.946	60.42
246.163	-29.7
246.38	74.75
246.597	5.12
246.814	76.8
247.031	25.6
247.248	19.46
247.464	60.42
247.681	-21.5
247.898	50.18
248.115	105.47
248.332	-64.51
248.549	13.31
248.766	179.2
248.983	15.36
249.2	21.5
249.417	56.32
249.633	41.98
249.85	29.7
250.067	-5.12
250.284	13.31
250.501	52.22
250.717	11.26
250.934	-5.12
251.151	35.84
251.368	44.03
251.585	11.26
251.801	29.7
252.018	21.5
252.235	105.47
252.451	1.02
252.668	15.36
252.885	99.33
253.102	41.98
253.318	17.41
253.535	-58.37
253.752	50.18
253.968	64.51
254.185	39.94
254.401	44.03
254.618	-11.26
254.835	-33.79
255.051	31.74
255.268	70.65
255.484	25.6
255.701	29.7
255.917	74.75
256.134	39.94
256.351	41.98
256.567	52.22
256.784	121.85
257	-19.46
257.217	-17.41
257.433	48.13
257.65	33.79
257.866	46.08
258.082	89.09
258.299	11.26
258.515	27.65
258.732	23.55
258.948	56.32
259.165	25.6
259.381	-1.02
259.597	58.37
259.814	33.79
260.03	107.52
260.246	48.13
260.463	70.65
260.679	109.57
260.895	-9.22
261.112	11.26
261.328	44.03
261.544	21.5
261.761	84.99
261.977	1.02
262.193	-19.46
262.409	7.17
262.626	39.94
262.842	52.22
263.058	31.74
263.274	87.04
263.49	-46.08
263.707	68.61
263.923	95.23
264.139	-3.07
264.355	37.89
264.571	111.61
264.787	33.79
265.004	56.32
265.22	101.37
265.436	-9.22
265.652	-56.32
265.868	23.55
266.084	56.32
266.3	1.02
266.516	-3.07
266.732	25.6
266.948	11.26
267.164	37.89
267.38	17.41
267.596	52.22
267.812	29.7
268.028	-3.07
268.244	-35.84
268.46	13.31
268.676	35.84
268.892	21.5
269.108	31.74
269.324	-29.7
269.54	-9.22
269.756	91.13
269.972	-7.17
270.188	64.51
270.403	-21.5
270.619	29.7
270.835	44.03
271.051	15.36
271.267	19.46
271.483	50.18
271.698	60.42
271.914	35.84
272.13	23.55
272.346	11.26
272.562	48.13
272.777	70.65
272.993	39.94
273.209	3.07
273.425	74.75
273.64	66.56
273.856	56.32
274.072	66.56
274.287	21.5
274.503	142.33
274.719	82.94
274.934	76.8
275.15	-44.03
275.366	-9.22
275.581	-1.02
275.797	87.04
276.012	25.6
276.228	44.03
276.444	17.41
276.659	121.85
276.875	9.22
277.09	48.13
277.306	48.13
277.521	44.03
277.737	-39.94
277.952	56.32
278.168	37.89
278.383	15.36
278.599	11.26
278.814	68.61
279.03	25.6
279.245	93.18
279.461	21.5
279.676	35.84
279.892	13.31
280.107	41.98
280.322	-21.5
280.538	48.13
280.753	-9.22
280.969	25.6
281.184	21.5
281.399	87.04
281.615	11.26
281.83	17.41
282.045	-3.07
282.26	3.07
282.476	54.27
282.691	95.23
282.906	1.02
283.122	3.07
283.337	11.26
283.552	101.37
283.767	-13.31
283.983	54.27
284.198	13.31
284.413	52.22
284.628	7.17
284.843	11.26
285.058	19.46
285.274	5.12
285.489	-3.07
285.704	109.57
285.919	136.19
286.134	11.26
286.349	11.26
286.564	35.84
286.779	56.32
286.995	21.5
287.21	15.36
287.425	19.46
287.64	54.27
287.855	35.84
288.07	15.36
288.285	56.32
288.5	23.55
288.715	119.81
288.93	-27.65
289.145	21.5
289.36	66.56
289.575	5.12
289.79	87.04
290.004	33.79
290.219	50.18
290.434	19.46
290.649	-5.12
290.864	66.56
291.079	29.7
291.294	68.61
291.509	97.28
291.724	-9.22
291.938	56.32
292.153	84.99
292.368	76.8
292.583	72.7
292.798	-19.46
293.012	44.03
293.227	78.85
293.442	-11.26
293.657	33.79
293.871	35.84
294.086	-1.02
294.301	70.65
294.516	46.08
294.73	56.32
294.945	-35.84
295.16	21.5
295.374	44.03
295.589	-1.02
295.804	-99.33
296.018	44.03
296.233	35.84
296.447	60.42
296.662	-25.6
296.877	89.09
297.091	1.02
297.306	29.7
297.52	17.41
297.735	111.61
297.949	23.55
298.164	35.84
298.378	-9.22
298.593	-48.13
298.807	48.13
299.022	72.7
299.236	91.13
299.451	41.98
299.665	23.55
299.88	23.55
300.094	-35.84
300.309	5.12
300.523	56.32
300.737	72.7
300.952	27.65
301.166	-21.5
301.381	-13.31
301.595	60.42
301.809	27.65
302.024	3.07
302.238	3.07
302.452	107.52
302.667	7.17
302.881	54.27
303.095	58.37
303.309	68.61
303.524	21.5
303.738	-33.79
303.952	19.46
304.166	11.26
304.381	-50.18
304.595	19.46
304.809	-15.36
305.023	35.84
305.237	21.5
305.452	17.41
305.666	56.32
305.88	74.75
306.094	80.89
306.308	64.51
306.522	41.98
306.736	-31.74
306.95	-3.07
307.164	52.22
307.379	9.22
307.593	70.65
307.807	56.32
308.021	56.32
308.235	29.7
308.449	35.84
308.663	29.7
308.877	60.42
309.091	27.65
309.305	-50.18
309.519	13.31
309.733	41.98
309.947	-3.07
310.161	-7.17
310.374	11.26
310.588	27.65
310.802	44.03
311.016	35.84
311.23	56.32
311.444	50.18
311.658	50.18
311.872	3.07
312.085	15.36
312.299	76.8
312.513	87.04
312.727	50.18
312.941	-27.65
313.154	-33.79
313.368	93.18
313.582	21.5
313.796	35.84
314.009	23.55
314.223	76.8
314.437	44.03
314.651	58.37
314.864	11.26
315.078	60.42
315.292	54.27
315.505	66.56
315.719	52.22
315.933	56.32
316.146	35.84
316.36	-21.5
316.573	84.99
316.787	140.29
317.001	-39.94
317.214	31.74
317.428	39.94
317.641	19.46
317.855	60.42
318.068	23.55
318.282	23.55
318.495	46.08
318.709	87.04
318.922	123.9
319.136	52.22
319.349	115.71
319.563	-15.36
319.776	64.51
319.99	17.41
320.203	29.7
320.417	-5.12
320.63	70.65
320.843	128
321.057	82.94
321.27	125.95
321.483	78.85
321.697	84.99
321.91	25.6
322.124	117.76
322.337	19.46
322.55	37.89
322.763	35.84
322.977	35.84
323.19	-3.07
323.403	84.99
323.617	-21.5
323.83	37.89
324.043	44.03
324.256	52.22
324.469	-3.07
324.683	54.27
324.896	23.55
325.109	70.65
325.322	56.32
325.535	113.66
325.748	93.18
325.962	31.74
326.175	21.5
326.388	66.56
326.601	-3.07
326.814	15.36
327.027	58.37
327.24	89.09
327.453	23.55
327.666	46.08
327.879	39.94
328.092	136.19
328.305	56.32
328.518	39.94
328.731	-25.6
328.944	-25.6
329.157	78.85
329.37	72.7
329.583	62.46
329.796	78.85
330.009	56.32
330.222	48.13
330.435	91.13
330.648	17.41
330.861	17.41
331.073	3.07
331.286	5.12
331.499	50.18
331.712	1.02
331.925	-31.74
332.138	60.42
332.35	17.41
332.563	29.7
332.776	7.17
332.989	7.17
333.202	50.18
333.414	-29.7
333.627	3.07
333.84	80.89
334.053	72.7
334.265	35.84
334.478	27.65
334.691	54.27
334.903	68.61
335.116	15.36
335.329	44.03
335.541	105.47
335.754	31.74
335.966	-44.03
336.179	13.31
336.392	7.17
336.604	21.5
336.817	60.42
337.029	25.6
337.242	21.5
337.454	35.84
337.667	52.22
337.88	21.5
338.092	19.46
338.305	125.95
338.517	93.18
338.729	76.8
338.942	72.7
339.154	50.18
339.367	-23.55
339.579	150.53
339.792	-15.36
340.004	31.74
340.217	19.46
340.429	125.95
340.641	52.22
340.854	1.02
341.066	-19.46
341.278	50.18
341.491	87.04
341.703	41.98
341.915	35.84
342.128	97.28
342.34	33.79
342.552	66.56
342.764	31.74
342.977	48.13
343.189	60.42
343.401	27.65
343.613	7.17
343.826	62.46
344.038	46.08
344.25	15.36
344.462	128
344.674	72.7
344.886	-3.07
345.099	76.8
345.311	119.81
345.523	80.89
345.735	11.26
345.947	64.51
346.159	152.57
346.371	-60.42
346.583	17.41
346.795	72.7
347.007	72.7
347.219	15.36
347.431	19.46
347.643	84.99
347.855	48.13
348.067	60.42
348.279	27.65
348.491	87.04
348.703	5.12
348.915	39.94
349.127	35.84
349.339	-27.65
349.551	-23.55
349.763	117.76
349.975	111.61
350.187	50.18
350.399	76.8
350.61	99.33
350.822	19.46
351.034	54.27
351.246	-5.12
351.458	70.65
351.669	19.46
351.881	48.13
352.093	70.65
352.305	39.94
352.517	7.17
352.728	74.75
352.94	48.13
353.152	70.65
353.363	62.46
353.575	95.23
353.787	101.37
353.999	74.75
354.21	68.61
354.422	27.65
354.633	84.99
354.845	9.22
355.057	1.02
355.268	37.89
355.48	-1.02
355.692	56.32
355.903	76.8
356.115	23.55
356.326	11.26
356.538	-37.89
356.749	60.42
356.961	142.33
357.172	23.55
357.384	78.85
357.595	39.94
357.807	7.17
358.018	84.99
358.23	27.65
358.441	78.85
358.653	27.65
358.864	74.75
359.075	1.02
359.287	56.32
359.498	113.66
359.709	29.7
359.921	-13.31
360.132	54.27
360.344	23.55
360.555	-15.36
360.766	70.65
360.977	33.79
361.189	99.33
361.4	70.65
361.611	11.26
361.823	115.71
362.034	76.8
362.245	-9.22
362.456	13.31
362.667	109.57
362.879	64.51
363.09	-9.22
363.301	72.7
363.512	21.5
363.723	-9.22
363.935	44.03
364.146	41.98
364.357	-1.02
364.568	158.72
364.779	37.89
364.99	74.75
365.201	17.41
365.412	54.27
365.623	-11.26
365.834	48.13
366.045	48.13
366.256	41.98
366.467	64.51
366.678	89.09
366.889	37.89
367.1	37.89
367.311	11.26
367.522	15.36
367.733	117.76
367.944	17.41
368.155	3.07
368.366	27.65
368.577	128
368.788	95.23
368.999	-3.07
369.209	58.37
369.42	148.48
369.631	103.42
369.842	60.42
370.053	13.31
370.264	89.09
370.474	31.74
370.685	31.74
370.896	-3.07
371.107	68.61
371.317	50.18
371.528	25.6
371.739	62.46
371.95	60.42
372.16	60.42
372.371	9.22
372.582	60.42
372.792	31.74
373.003	101.37
373.214	23.55
373.424	56.32
373.635	-13.31
373.846	84.99
374.056	35.84
374.267	119.81
374.477	103.42
374.688	93.18
374.898	54.27
375.109	50.18
375.319	76.8
375.53	29.7
375.74	60.42
375.951	35.84
376.161	5.12
376.372	142.33
376.582	29.7
376.793	91.13
377.003	39.94
377.214	68.61
377.424	46.08
377.635	54.27
377.845	80.89
378.055	41.98
378.266	-7.17
378.476	46.08
378.686	44.03
378.897	142.33
379.107	64.51
379.317	62.46
379.528	46.08
379.738	84.99
379.948	60.42
380.158	39.94
380.369	46.08
380.579	48.13
380.789	52.22
380.999	50.18
381.21	3.07
381.42	117.76
381.63	50.18
381.84	72.7
382.05	78.85
382.261	56.32
382.471	76.8
382.681	48.13
382.891	95.23
383.101	64.51
383.311	48.13
383.521	76.8
383.731	62.46
383.941	54.27
384.151	46.08
384.361	23.55
384.571	29.7
384.781	64.51
384.991	46.08
385.201	-21.5
385.411	76.8
385.621	19.46
385.831	93.18
386.041	60.42
386.251	27.65
386.461	19.46
386.671	50.18
386.881	44.03
387.091	48.13
387.301	80.89
387.511	17.41
387.72	35.84
387.93	31.74
388.14	66.56
388.35	101.37
388.56	31.74
388.769	109.57
388.979	-5.12
389.189	13.31
389.399	64.51
389.609	37.89
389.818	62.46
390.028	15.36
390.238	54.27
390.447	-39.94
390.657	5.12
390.867	27.65
391.076	97.28
391.286	99.33
391.496	89.09
391.705	68.61
391.915	80.89
392.125	68.61
392.334	39.94
392.544	62.46
392.753	93.18
392.963	70.65
393.172	84.99
393.382	23.55
393.591	64.51
393.801	7.17
394.01	44.03
394.22	136.19
394.429	33.79
394.639	46.08
394.848	111.61
395.058	5.12
395.267	54.27
395.477	80.89
395.686	119.81
395.895	84.99
396.105	168.96
396.314	35.84
396.524	11.26
396.733	80.89
396.942	93.18
397.152	121.85
397.361	21.5
397.57	46.08
397.78	107.52
397.989	109.57
398.198	84.99
398.407	37.89
398.617	105.47
398.826	62.46
399.035	154.62
399.244	74.75
399.453	105.47
399.663	132.09
399.872	136.19
400.081	58.37
400.29	113.66
400.499	68.61
400.708	128
400.917	9.22
401.127	117.76
401.336	128
401.545	160.77
401.754	117.76
401.963	72.7
402.172	35.84
402.381	33.79
402.59	150.53
402.799	70.65
403.008	68.61
403.217	89.09
403.426	168.96
403.635	101.37
403.844	146.43
404.053	56.32
404.262	76.8
404.471	148.48
404.68	64.51
404.888	82.94
405.097	109.57
405.306	166.91
405.515	144.38
405.724	93.18
405.933	123.9
406.142	152.57
406.35	158.72
406.559	62.46
406.768	142.33
406.977	160.77
407.185	97.28
407.394	191.49
407.603	132.09
407.812	76.8
408.02	166.91
408.229	95.23
408.438	158.72
408.646	87.04
408.855	142.33
409.064	228.35
409.272	140.29
409.481	197.63
409.69	103.42
409.898	257.02
410.107	230.4
410.315	218.11
410.524	230.4
410.733	228.35
410.941	318.46
411.15	291.84
411.358	257.02
411.567	390.14
411.775	338.94
411.984	302.08
412.192	275.45
412.401	347.13
412.609	287.74
412.818	324.6
413.026	353.27
413.234	330.75
413.443	326.65
413.651	340.99
413.86	355.32
414.068	447.48
414.276	390.14
414.485	429.05
414.693	455.67
414.901	504.82
415.11	437.24
415.318	422.91
415.526	553.98
415.734	594.93
415.943	543.74
416.151	576.5
416.359	637.94
416.567	701.43
416.776	603.13
416.984	584.7
417.192	707.57
417.4	678.9
417.608	691.19
417.817	732.15
418.025	805.88
418.233	836.6
418.441	760.82
418.649	797.68
418.857	883.7
419.065	924.66
419.273	859.12
419.481	814.07
419.689	1096.69
419.897	957.43
420.105	1108.98
420.313	1004.53
420.521	1129.45
420.729	1215.47
420.937	1131.5
421.145	1199.09
421.353	1346.54
421.561	1264.62
421.769	1379.31
421.977	1489.9
422.185	1483.75
422.393	1526.76
422.601	1641.45
422.809	1649.64
423.017	1596.39
423.224	1825.76
423.432	1862.63
423.64	1823.72
423.848	1913.83
424.056	1903.59
424.263	1977.31
424.471	2026.47
424.679	2059.23
424.887	2147.3
425.094	2175.97
425.302	2251.74
425.51	2339.8
425.718	2481.11
425.925	2419.68
426.133	2505.69
426.341	2583.51
426.548	2792.41
426.756	2655.19
426.964	2773.97
427.171	2896.85
427.379	3021.78
427.586	3025.87
427.794	3140.56
428.001	3310.54
428.209	3435.47
428.417	3369.93
428.624	3523.53
428.832	3695.56
429.039	3560.39
429.247	3677.13
429.454	4115.39
429.662	4221.89
429.869	3939.27
430.076	4135.87
430.284	4238.27
430.491	4414.4
430.699	4502.46
430.906	4531.13
431.114	4627.39
431.321	4623.29
431.528	4864.95
431.736	5190.58
431.943	5383.09
432.15	5311.41
432.358	5301.17
432.565	5694.38
432.772	5637.03
432.979	5958.57
433.187	6101.92
433.394	6108.07
433.601	6493.08
433.808	6405.02
434.016	6458.27
434.223	6605.72
434.43	7035.8
434.637	6957.97
434.844	7474.06
435.052	7504.78
435.259	7443.34
435.466	7656.33
435.673	7482.25
435.88	7959.43
436.087	8520.57
436.294	8428.42
436.501	8244.1
436.708	8291.2
436.915	8643.45
437.122	9016.18
437.329	8913.78
437.537	9266.03
437.743	9579.37
437.95	9495.41
438.157	9939.82
438.364	10392.42
438.571	10124.13
438.778	10183.52
438.985	11227.99
439.192	10924.89
439.399	11160.41
439.606	10830.68
439.813	11676.49
440.02	12235.59
440.227	11873.1
440.433	12034.89
440.64	12118.86
440.847	12147.53
441.054	12350.28
441.261	13212.47
441.467	13161.27
441.674	13437.75
441.881	14125.86
442.088	13820.72
442.294	13630.26
442.501	13994.79
442.708	14414.63
442.914	14828.32
443.121	15596.31
443.328	15180.57
443.534	16257.8
443.741	15635.22
443.948	15727.38
444.154	16499.46
444.361	16687.87
444.568	16870.14
444.774	17136.38
444.981	17130.23
445.187	17404.66
445.394	18010.86
445.6	17887.98
445.807	19862.22
446.013	18979.55
446.22	19239.64
446.426	19966.67
446.633	20341.45
446.839	20951.74
447.046	19966.67
447.252	21269.18
447.459	21306.04
447.665	21025.47
447.871	22112.94
448.078	22885.03
448.284	21715.64
448.491	22442.67
448.697	23534.23
448.903	23968.4
449.11	24126.1
449.316	23720.6
449.522	23982.74
449.728	24779.4
449.935	24621.7
450.141	24773.25
450.347	25395.84
450.553	24996.48
450.76	25297.53
450.966	25940.6
451.172	25440.89
451.378	26182.26
451.584	25883.25
451.791	26600.04
451.997	26223.22
452.203	26976.87
452.409	26931.81
452.615	26462.83
452.821	25721.46
453.027	25524.86
453.233	27005.54
453.44	25926.26
453.646	26163.82
453.852	26045.04
454.058	26778.22
454.264	25782.9
454.47	26385.01
454.676	25627.26
454.882	26860.13
455.088	24347.28
455.294	24818.31
455.5	25090.69
455.705	25531
455.911	24521.35
456.117	24093.33
456.323	23751.32
456.529	22377.13
456.735	23534.23
456.941	22645.41
457.147	22399.66
457.352	21738.16
457.558	21381.82
457.764	21539.51
457.97	21125.82
458.176	21015.23
458.381	20845.25
458.587	19696.34
458.793	19589.85
458.999	18569.96
459.204	20191.95
459.41	19524.31
459.616	18320.1
459.821	18359.02
460.027	18084.59
460.233	17814.26
460.438	17050.36
460.644	17124.09
460.85	16452.36
461.055	16063.24
461.261	15993.61
461.466	14797.6
461.672	14537.51
461.878	15379.22
462.083	14388
462.289	13959.98
462.494	14166.82
462.7	13189.94
462.905	13003.58
463.111	13407.03
463.316	13462.32
463.522	13374.26
463.727	13036.35
463.932	13318.96
464.138	12944.19
464.343	13243.19
464.549	12634.94
464.754	13075.26
464.959	12964.67
465.165	12878.65
465.37	12536.64
465.575	12065.61
465.781	12516.16
465.986	12698.43
466.191	12424
466.397	12053.32
466.602	11301.72
466.807	11782.99
467.012	12002.12
467.218	11889.48
467.423	11647.82
467.628	11856.72
467.833	12192.58
468.038	11768.65
468.244	11449.17
468.449	11715.41
468.654	11361.11
