Data from USB4F104151__1__13-10-07-794.txt Node

Date: Fri Mar 14 13:10:07 EDT 2025
User: louis
Spectrometer: USB4F10415
Trigger mode: 4
Integration Time (sec): 2.000000E-2
Scans to average: 1
Electric dark correction enabled: true
Nonlinearity correction enabled: false
Boxcar width: 0
XAxis mode: Wavelengths
Number of Pixels in Spectrum: 3648
>>>>>Begin Spectral Data<<<<<
178.204	-86.53
178.424	-86.53
178.644	-86.53
178.864	-125.44
179.084	-96.77
179.304	19.97
179.524	-23.04
179.744	-18.94
179.964	11.78
180.184	5.63
180.404	34.3
180.624	56.83
180.844	-10.75
181.064	-45.57
181.283	-18.94
181.503	-29.18
181.723	17.92
181.943	5.63
182.163	24.06
182.383	-0.51
182.602	44.54
182.822	34.3
183.042	58.88
183.262	91.65
183.482	30.21
183.701	44.54
183.921	26.11
184.141	-37.38
184.361	77.31
184.58	-6.66
184.8	67.07
185.02	13.82
185.239	-18.94
185.459	19.97
185.679	-4.61
185.898	-18.94
186.118	36.35
186.338	62.98
186.557	62.98
186.777	5.63
186.997	65.02
187.216	13.82
187.436	71.17
187.655	1.54
187.875	48.64
188.095	1.54
188.314	1.54
188.534	34.3
188.753	24.06
188.973	-10.75
189.192	110.08
189.412	48.64
189.631	91.65
189.851	24.06
190.07	40.45
190.29	32.26
190.509	13.82
190.729	-23.04
190.948	42.5
191.168	77.31
191.387	56.83
191.607	5.63
191.826	77.31
192.045	-31.23
192.265	-4.61
192.484	17.92
192.704	-43.52
192.923	-55.81
193.142	60.93
193.362	-16.9
193.581	54.78
193.8	42.5
194.02	91.65
194.239	85.5
194.458	40.45
194.678	-10.75
194.897	34.3
195.116	7.68
195.335	1.54
195.555	-2.56
195.774	58.88
195.993	46.59
196.212	5.63
196.432	-33.28
196.651	24.06
196.87	99.84
197.089	130.56
197.308	46.59
197.528	22.02
197.747	19.97
197.966	52.74
198.185	83.45
198.404	62.98
198.623	11.78
198.842	110.08
199.062	28.16
199.281	26.11
199.5	1.54
199.719	38.4
199.938	-10.75
200.157	85.5
200.376	9.73
200.595	24.06
200.814	105.98
201.033	87.55
201.252	85.5
201.471	-53.76
201.69	38.4
201.909	87.55
202.128	34.3
202.347	83.45
202.566	40.45
202.785	42.5
203.004	17.92
203.223	62.98
203.442	-39.42
203.661	54.78
203.879	36.35
204.098	5.63
204.317	-25.09
204.536	-2.56
204.755	85.5
204.974	99.84
205.193	34.3
205.411	101.89
205.63	40.45
205.849	36.35
206.068	99.84
206.287	58.88
206.505	83.45
206.724	-39.42
206.943	28.16
207.162	30.21
207.381	118.27
207.599	85.5
207.818	-4.61
208.037	-23.04
208.255	-2.56
208.474	17.92
208.693	-8.7
208.911	50.69
209.13	-41.47
209.349	56.83
209.567	48.64
209.786	48.64
210.005	-18.94
210.223	30.21
210.442	52.74
210.661	32.26
210.879	36.35
211.098	9.73
211.316	-10.75
211.535	1.54
211.753	-23.04
211.972	46.59
212.191	36.35
212.409	32.26
212.628	54.78
212.846	9.73
213.065	69.12
213.283	69.12
213.502	-33.28
213.72	1.54
213.938	50.69
214.157	48.64
214.375	112.13
214.594	83.45
214.812	19.97
215.031	-59.9
215.249	87.55
215.467	108.03
215.686	75.26
215.904	81.41
216.122	-10.75
216.341	36.35
216.559	19.97
216.778	-20.99
216.996	99.84
217.214	24.06
217.432	71.17
217.651	-133.63
217.869	58.88
218.087	30.21
218.306	42.5
218.524	34.3
218.742	17.92
218.96	28.16
219.179	24.06
219.397	81.41
219.615	62.98
219.833	54.78
220.051	36.35
220.27	17.92
220.488	67.07
220.706	28.16
220.924	-10.75
221.142	110.08
221.36	3.58
221.578	-6.66
221.796	48.64
222.015	46.59
222.233	-18.94
222.451	-16.9
222.669	5.63
222.887	38.4
223.105	24.06
223.323	-23.04
223.541	-4.61
223.759	5.63
223.977	30.21
224.195	67.07
224.413	22.02
224.631	9.73
224.849	19.97
225.067	89.6
225.285	-84.48
225.503	103.93
225.721	26.11
225.939	5.63
226.157	52.74
226.375	48.64
226.592	54.78
226.81	99.84
227.028	17.92
227.246	50.69
227.464	-14.85
227.682	71.17
227.9	93.69
228.117	-0.51
228.335	75.26
228.553	26.11
228.771	69.12
228.989	34.3
229.206	9.73
229.424	17.92
229.642	-23.04
229.86	24.06
230.077	56.83
230.295	-31.23
230.513	28.16
230.731	87.55
230.948	48.64
231.166	91.65
231.384	28.16
231.601	-8.7
231.819	50.69
232.037	17.92
232.254	-27.14
232.472	52.74
232.689	62.98
232.907	36.35
233.125	9.73
233.342	28.16
233.56	-43.52
233.777	5.63
233.995	-43.52
234.213	83.45
234.43	-37.38
234.648	60.93
234.865	5.63
235.083	81.41
235.3	-33.28
235.518	38.4
235.735	-35.33
235.953	132.61
236.17	50.69
236.388	32.26
236.605	11.78
236.822	42.5
237.04	26.11
237.257	-4.61
237.475	-10.75
237.692	71.17
237.909	83.45
238.127	58.88
238.344	28.16
238.562	1.54
238.779	-23.04
238.996	58.88
239.214	13.82
239.431	52.74
239.648	-33.28
239.865	13.82
240.083	-2.56
240.3	50.69
240.517	9.73
240.735	-43.52
240.952	91.65
241.169	26.11
241.386	15.87
241.603	38.4
241.821	-6.66
242.038	79.36
242.255	58.88
242.472	5.63
242.689	36.35
242.907	62.98
243.124	-2.56
243.341	40.45
243.558	11.78
243.775	44.54
243.992	-20.99
244.209	22.02
244.426	3.58
244.643	42.5
244.86	32.26
245.078	73.21
245.295	42.5
245.512	54.78
245.729	-12.8
245.946	-8.7
246.163	28.16
246.38	69.12
246.597	54.78
246.814	34.3
247.031	128.51
247.248	32.26
247.464	38.4
247.681	32.26
247.898	3.58
248.115	93.69
248.332	19.97
248.549	75.26
248.766	3.58
248.983	34.3
249.2	71.17
249.417	65.02
249.633	17.92
249.85	71.17
250.067	3.58
250.284	-6.66
250.501	44.54
250.717	83.45
250.934	22.02
251.151	91.65
251.368	42.5
251.585	32.26
251.801	22.02
252.018	17.92
252.235	69.12
252.451	9.73
252.668	28.16
252.885	-10.75
253.102	17.92
253.318	91.65
253.535	112.13
253.752	9.73
253.968	17.92
254.185	52.74
254.401	67.07
254.618	44.54
254.835	67.07
255.051	-6.66
255.268	44.54
255.484	11.78
255.701	91.65
255.917	11.78
256.134	1.54
256.351	-23.04
256.567	34.3
256.784	-27.14
257	75.26
257.217	79.36
257.433	-6.66
257.65	11.78
257.866	42.5
258.082	-14.85
258.299	-16.9
258.515	32.26
258.732	-27.14
258.948	-18.94
259.165	58.88
259.381	-25.09
259.597	58.88
259.814	-8.7
260.03	52.74
260.246	24.06
260.463	56.83
260.679	134.65
260.895	3.58
261.112	71.17
261.328	19.97
261.544	54.78
261.761	58.88
261.977	-39.42
262.193	7.68
262.409	69.12
262.626	50.69
262.842	-27.14
263.058	17.92
263.274	71.17
263.49	32.26
263.707	50.69
263.923	79.36
264.139	-14.85
264.355	7.68
264.571	67.07
264.787	22.02
265.004	110.08
265.22	40.45
265.436	52.74
265.652	-20.99
265.868	85.5
266.084	-16.9
266.3	9.73
266.516	-14.85
266.732	-53.76
266.948	-25.09
267.164	30.21
267.38	62.98
267.596	116.22
267.812	91.65
268.028	42.5
268.244	32.26
268.46	36.35
268.676	38.4
268.892	13.82
269.108	13.82
269.324	3.58
269.54	28.16
269.756	48.64
269.972	67.07
270.188	-37.38
270.403	-31.23
270.619	62.98
270.835	105.98
271.051	-6.66
271.267	62.98
271.483	52.74
271.698	77.31
271.914	36.35
272.13	56.83
272.346	65.02
272.562	-2.56
272.777	60.93
272.993	13.82
273.209	1.54
273.425	7.68
273.64	-27.14
273.856	95.74
274.072	-39.42
274.287	26.11
274.503	38.4
274.719	62.98
274.934	56.83
275.15	17.92
275.366	36.35
275.581	30.21
275.797	42.5
276.012	34.3
276.228	60.93
276.444	-18.94
276.659	-6.66
276.875	-31.23
277.09	-20.99
277.306	34.3
277.521	62.98
277.737	-4.61
277.952	-41.47
278.168	-4.61
278.383	77.31
278.599	52.74
278.814	1.54
279.03	73.21
279.245	93.69
279.461	11.78
279.676	9.73
279.892	11.78
280.107	-39.42
280.322	36.35
280.538	62.98
280.753	42.5
280.969	26.11
281.184	-33.28
281.399	116.22
281.615	11.78
281.83	17.92
282.045	32.26
282.26	-39.42
282.476	40.45
282.691	52.74
282.906	34.3
283.122	-55.81
283.337	13.82
283.552	73.21
283.767	46.59
283.983	77.31
284.198	34.3
284.413	36.35
284.628	-49.66
284.843	1.54
285.058	11.78
285.274	26.11
285.489	34.3
285.704	1.54
285.919	19.97
286.134	89.6
286.349	75.26
286.564	28.16
286.779	17.92
286.995	42.5
287.21	-10.75
287.425	-8.7
287.64	13.82
287.855	77.31
288.07	42.5
288.285	42.5
288.5	91.65
288.715	69.12
288.93	9.73
289.145	24.06
289.36	77.31
289.575	22.02
289.79	32.26
290.004	9.73
290.219	52.74
290.434	7.68
290.649	1.54
290.864	58.88
291.079	42.5
291.294	52.74
291.509	75.26
291.724	-4.61
291.938	34.3
292.153	17.92
292.368	36.35
292.583	5.63
292.798	71.17
293.012	-10.75
293.227	-6.66
293.442	19.97
293.657	48.64
293.871	108.03
294.086	28.16
294.301	87.55
294.516	17.92
294.73	67.07
294.945	34.3
295.16	-6.66
295.374	46.59
295.589	34.3
295.804	48.64
296.018	65.02
296.233	15.87
296.447	44.54
296.662	58.88
296.877	77.31
297.091	-51.71
297.306	48.64
297.52	-0.51
297.735	77.31
297.949	-29.18
298.164	36.35
298.378	116.22
298.593	17.92
298.807	7.68
299.022	40.45
299.236	32.26
299.451	38.4
299.665	62.98
299.88	50.69
300.094	28.16
300.309	-35.33
300.523	69.12
300.737	50.69
300.952	19.97
301.166	-55.81
301.381	19.97
301.595	85.5
301.809	71.17
302.024	17.92
302.238	56.83
302.452	56.83
302.667	-86.53
302.881	40.45
303.095	48.64
303.309	-6.66
303.524	38.4
303.738	19.97
303.952	-12.8
304.166	69.12
304.381	-16.9
304.595	-14.85
304.809	17.92
305.023	24.06
305.237	52.74
305.452	75.26
305.666	24.06
305.88	46.59
306.094	32.26
306.308	28.16
306.522	3.58
306.736	83.45
306.95	-59.9
307.164	1.54
307.379	-0.51
307.593	44.54
307.807	42.5
308.021	60.93
308.235	46.59
308.449	-41.47
308.663	54.78
308.877	3.58
309.091	46.59
309.305	60.93
309.519	9.73
309.733	54.78
309.947	-29.18
310.161	15.87
310.374	99.84
310.588	-6.66
310.802	126.46
311.016	-43.52
311.23	-0.51
311.444	5.63
311.658	40.45
311.872	79.36
312.085	67.07
312.299	28.16
312.513	60.93
312.727	32.26
312.941	5.63
313.154	28.16
313.368	54.78
313.582	85.5
313.796	7.68
314.009	7.68
314.223	-6.66
314.437	99.84
314.651	-31.23
314.864	81.41
315.078	3.58
315.292	62.98
315.505	-59.9
315.719	1.54
315.933	5.63
316.146	-2.56
316.36	19.97
316.573	11.78
316.787	-4.61
317.001	3.58
317.214	7.68
317.428	-8.7
317.641	-47.62
317.855	7.68
318.068	91.65
318.282	3.58
318.495	75.26
318.709	40.45
318.922	11.78
319.136	83.45
319.349	69.12
319.563	13.82
319.776	85.5
319.99	-0.51
320.203	44.54
320.417	17.92
320.63	79.36
320.843	58.88
321.057	24.06
321.27	58.88
321.483	-23.04
321.697	40.45
321.91	58.88
322.124	38.4
322.337	30.21
322.55	36.35
322.763	58.88
322.977	26.11
323.19	-29.18
323.403	24.06
323.617	9.73
323.83	28.16
324.043	46.59
324.256	89.6
324.469	-4.61
324.683	17.92
324.896	-10.75
325.109	1.54
325.322	22.02
325.535	60.93
325.748	40.45
325.962	34.3
326.175	36.35
326.388	30.21
326.601	44.54
326.814	28.16
327.027	-33.28
327.24	79.36
327.453	-10.75
327.666	-2.56
327.879	19.97
328.092	9.73
328.305	93.69
328.518	42.5
328.731	65.02
328.944	126.46
329.157	58.88
329.37	1.54
329.583	32.26
329.796	85.5
330.009	32.26
330.222	52.74
330.435	105.98
330.648	48.64
330.861	-35.33
331.073	85.5
331.286	42.5
331.499	36.35
331.712	30.21
331.925	52.74
332.138	-10.75
332.35	83.45
332.563	52.74
332.776	95.74
332.989	38.4
333.202	54.78
333.414	28.16
333.627	83.45
333.84	73.21
334.053	26.11
334.265	38.4
334.478	-10.75
334.691	95.74
334.903	54.78
335.116	-47.62
335.329	91.65
335.541	50.69
335.754	71.17
335.966	-27.14
336.179	22.02
336.392	-14.85
336.604	28.16
336.817	124.41
337.029	67.07
337.242	34.3
337.454	67.07
337.667	56.83
337.88	140.8
338.092	17.92
338.305	-8.7
338.517	52.74
338.729	26.11
338.942	17.92
339.154	3.58
339.367	19.97
339.579	112.13
339.792	-8.7
340.004	62.98
340.217	67.07
340.429	-10.75
340.641	-57.86
340.854	62.98
341.066	1.54
341.278	81.41
341.491	46.59
341.703	34.3
341.915	69.12
342.128	7.68
342.34	-12.8
342.552	-14.85
342.764	93.69
342.977	54.78
343.189	24.06
343.401	22.02
343.613	32.26
343.826	46.59
344.038	42.5
344.25	-20.99
344.462	-33.28
344.674	103.93
344.886	-0.51
345.099	65.02
345.311	40.45
345.523	40.45
345.735	28.16
345.947	46.59
346.159	11.78
346.371	36.35
346.583	-23.04
346.795	62.98
347.007	-10.75
347.219	32.26
347.431	73.21
347.643	67.07
347.855	36.35
348.067	67.07
348.279	69.12
348.491	95.74
348.703	48.64
348.915	24.06
349.127	-37.38
349.339	38.4
349.551	-64
349.763	67.07
349.975	15.87
350.187	40.45
350.399	118.27
350.61	-12.8
350.822	17.92
351.034	50.69
351.246	22.02
351.458	9.73
351.669	50.69
351.881	89.6
352.093	60.93
352.305	110.08
352.517	30.21
352.728	32.26
352.94	99.84
353.152	26.11
353.363	32.26
353.575	9.73
353.787	151.04
353.999	38.4
354.21	9.73
354.422	32.26
354.633	-20.99
354.845	93.69
355.057	87.55
355.268	44.54
355.48	17.92
355.692	17.92
355.903	7.68
356.115	-6.66
356.326	26.11
356.538	87.55
356.749	26.11
356.961	58.88
357.172	93.69
357.384	1.54
357.595	122.37
357.807	-31.23
358.018	54.78
358.23	85.5
358.441	99.84
358.653	50.69
358.864	26.11
359.075	22.02
359.287	46.59
359.498	26.11
359.709	34.3
359.921	58.88
360.132	36.35
360.344	99.84
360.555	3.58
360.766	69.12
360.977	67.07
361.189	69.12
361.4	-33.28
361.611	3.58
361.823	17.92
362.034	22.02
362.245	-31.23
362.456	67.07
362.667	77.31
362.879	24.06
363.09	81.41
363.301	75.26
363.512	-14.85
363.723	89.6
363.935	-4.61
364.146	112.13
364.357	65.02
364.568	-23.04
364.779	9.73
364.99	50.69
365.201	97.79
365.412	50.69
365.623	17.92
365.834	-4.61
366.045	116.22
366.256	28.16
366.467	77.31
366.678	42.5
366.889	-20.99
367.1	1.54
367.311	26.11
367.522	1.54
367.733	114.17
367.944	58.88
368.155	24.06
368.366	116.22
368.577	38.4
368.788	-29.18
368.999	-14.85
369.209	77.31
369.42	65.02
369.631	62.98
369.842	67.07
370.053	17.92
370.264	97.79
370.474	-0.51
370.685	77.31
370.896	71.17
371.107	91.65
371.317	91.65
371.528	93.69
371.739	132.61
371.95	40.45
372.16	50.69
372.371	3.58
372.582	19.97
372.792	24.06
373.003	138.75
373.214	62.98
373.424	36.35
373.635	67.07
373.846	19.97
374.056	85.5
374.267	60.93
374.477	67.07
374.688	-14.85
374.898	22.02
375.109	77.31
375.319	87.55
375.53	54.78
375.74	50.69
375.951	32.26
376.161	5.63
376.372	26.11
376.582	83.45
376.793	67.07
377.003	79.36
377.214	1.54
377.424	11.78
377.635	46.59
377.845	52.74
378.055	44.54
378.266	-39.42
378.476	89.6
378.686	73.21
378.897	65.02
379.107	97.79
379.317	44.54
379.528	79.36
379.738	52.74
379.948	-8.7
380.158	9.73
380.369	36.35
380.579	77.31
380.789	22.02
380.999	73.21
381.21	116.22
381.42	42.5
381.63	99.84
381.84	116.22
382.05	60.93
382.261	62.98
382.471	67.07
382.681	58.88
382.891	60.93
383.101	120.32
383.311	58.88
383.521	44.54
383.731	112.13
383.941	48.64
384.151	52.74
384.361	46.59
384.571	48.64
384.781	85.5
384.991	30.21
385.201	142.85
385.411	124.41
385.621	126.46
385.831	101.89
386.041	32.26
386.251	36.35
386.461	112.13
386.671	30.21
386.881	110.08
387.091	13.82
387.301	93.69
387.511	9.73
387.72	124.41
387.93	56.83
388.14	19.97
388.35	36.35
388.56	50.69
388.769	118.27
388.979	40.45
389.189	3.58
389.399	89.6
389.609	9.73
389.818	42.5
390.028	28.16
390.238	103.93
390.447	30.21
390.657	38.4
390.867	19.97
391.076	32.26
391.286	40.45
391.496	83.45
391.705	46.59
391.915	93.69
392.125	71.17
392.334	5.63
392.544	93.69
392.753	62.98
392.963	3.58
393.172	75.26
393.382	79.36
393.591	87.55
393.801	-27.14
394.01	36.35
394.22	95.74
394.429	79.36
394.639	101.89
394.848	40.45
395.058	62.98
395.267	54.78
395.477	54.78
395.686	112.13
395.895	77.31
396.105	58.88
396.314	60.93
396.524	28.16
396.733	9.73
396.942	95.74
397.152	101.89
397.361	118.27
397.57	34.3
397.78	101.89
397.989	-10.75
398.198	146.94
398.407	71.17
398.617	91.65
398.826	142.85
399.035	60.93
399.244	124.41
399.453	126.46
399.663	62.98
399.872	85.5
400.081	87.55
400.29	79.36
400.499	-23.04
400.708	85.5
400.917	5.63
401.127	75.26
401.336	17.92
401.545	99.84
401.754	110.08
401.963	110.08
402.172	202.24
402.381	101.89
402.59	60.93
402.799	52.74
403.008	155.13
403.217	58.88
403.426	71.17
403.635	11.78
403.844	99.84
404.053	222.72
404.262	83.45
404.471	148.99
404.68	126.46
404.888	142.85
405.097	28.16
405.306	157.18
405.515	89.6
405.724	116.22
405.933	126.46
406.142	148.99
406.35	140.8
406.559	144.89
406.768	116.22
406.977	140.8
407.185	173.57
407.394	124.41
407.603	136.7
407.812	146.94
408.02	157.18
408.229	232.96
408.438	97.79
408.646	173.57
408.855	235
409.064	187.9
409.272	140.8
409.481	239.1
409.69	216.57
409.898	132.61
410.107	173.57
410.315	292.35
410.524	284.16
410.733	167.42
410.941	300.54
411.15	312.83
411.358	228.86
411.567	312.83
411.775	237.05
411.984	316.92
412.192	282.11
412.401	271.87
412.609	323.07
412.818	407.03
413.026	235
413.234	372.22
413.443	351.74
413.651	374.27
413.86	439.8
414.068	499.19
414.276	460.28
414.485	443.9
414.693	507.38
414.901	529.91
415.11	501.24
415.318	460.28
415.526	501.24
415.734	562.68
415.943	542.2
416.151	574.97
416.359	552.44
416.567	628.21
416.776	663.03
416.984	749.04
417.192	749.04
417.4	636.41
417.608	749.04
417.817	744.95
418.025	826.87
418.233	849.4
418.441	804.34
418.649	865.78
418.857	841.2
419.065	1005.04
419.273	1009.14
419.481	1000.94
419.689	1058.29
419.897	1134.06
420.105	1134.06
420.313	1166.83
420.521	1220.08
420.729	1177.07
420.937	1183.21
421.145	1211.89
421.353	1273.32
421.561	1338.86
421.769	1426.92
421.977	1455.59
422.185	1474.03
422.393	1601
422.601	1646.05
422.809	1676.77
423.017	1562.09
423.224	1752.55
423.432	1764.84
423.64	1789.41
423.848	2029.03
424.056	1961.44
424.263	2008.55
424.471	2024.93
424.679	2282.97
424.887	2246.11
425.094	2340.32
425.302	2418.14
425.51	2479.58
425.718	2393.56
425.925	2422.24
426.133	2647.51
426.341	2805.21
426.548	2737.62
426.756	2811.35
426.964	2934.23
427.171	3016.15
427.379	3247.57
427.586	3155.41
427.794	3306.96
428.001	3442.12
428.209	3472.84
428.417	3464.65
428.624	3734.98
428.832	3728.84
429.039	3782.09
429.247	3792.33
429.454	4142.53
429.662	4419
429.869	4011.46
430.076	4367.81
430.284	4154.82
430.491	4261.31
430.699	4609.47
430.906	4611.51
431.114	4720.06
431.321	4879.8
431.528	5039.54
431.736	5361.07
431.943	5678.51
432.15	5412.27
432.358	5393.84
432.565	5830.06
432.772	5748.14
432.979	6088.1
433.187	6258.08
433.394	6225.31
433.601	6571.42
433.808	6671.77
434.016	6671.77
434.223	6901.14
434.43	7257.49
434.637	7062.93
434.844	7525.77
435.052	7642.51
435.259	7603.6
435.466	7632.27
435.673	7697.8
435.88	8000.9
436.087	8738.17
436.294	8547.71
436.501	8414.59
436.708	8611.2
436.915	8740.22
437.122	9332.08
437.329	9342.32
437.537	9588.08
437.743	9901.42
437.95	9618.8
438.157	10167.65
438.364	10472.8
438.571	10704.22
438.778	10517.86
438.985	11496.78
439.192	11076.95
439.399	11378
439.606	11068.76
439.813	11892.04
440.02	12576.06
440.227	12244.29
440.433	12186.95
440.64	12580.16
440.847	12424.51
441.054	12979.51
441.261	13763.89
441.467	13303.09
441.674	13675.82
441.881	14349.61
442.088	13997.35
442.294	13974.83
442.501	14239.01
442.708	14834.97
442.914	15248.66
443.121	15992.08
443.328	15637.78
443.534	16919.81
443.741	16626.95
443.948	15869.2
444.154	17315.06
444.361	17200.38
444.568	17151.23
444.774	17444.09
444.981	17341.69
445.187	17640.69
445.394	18713.83
445.6	18558.18
445.807	19934.42
446.013	19313.88
446.22	19459.29
446.426	20466.89
446.633	20722.88
446.839	21310.65
447.046	20485.32
447.252	21652.66
447.459	21628.09
447.665	21648.57
447.871	22256.81
448.078	23616.66
448.284	22502.57
448.491	23073.95
448.697	24136.85
448.903	24470.67
449.11	24726.66
449.316	24056.98
449.522	24706.18
449.728	25371.77
449.935	25375.87
450.141	25296
450.347	26104.95
450.553	25123.97
450.76	25736.31
450.966	26770.54
451.172	25971.83
451.378	26741.86
451.584	26336.37
451.791	27026.53
451.997	26936.42
452.203	27286.62
452.409	27614.3
452.615	26887.27
452.821	26293.36
453.027	25814.13
453.233	27491.42
453.44	26584.17
453.646	26494.06
453.852	26848.36
454.058	26897.51
454.264	26408.05
454.47	27028.58
454.676	26502.25
454.882	27366.49
455.088	25285.76
455.294	25302.14
455.5	25455.74
455.705	25941.11
455.911	24966.28
456.117	24528.01
456.323	24063.12
456.529	22705.32
456.735	23669.91
456.941	23379.1
457.147	22863.01
457.352	22043.82
457.558	22097.07
457.764	22365.35
457.97	21392.57
458.176	21286.08
458.381	21284.03
458.587	19946.7
458.793	20301
458.999	19043.55
459.204	20372.68
459.41	20165.84
459.616	18414.82
459.821	18703.59
460.027	18314.47
460.233	18181.35
460.438	17272.06
460.644	17423.61
460.85	16477.44
461.055	16514.31
461.261	16436.49
461.466	15301.91
461.672	14839.07
461.878	15680.78
462.083	14781.73
462.289	14284.07
462.494	14325.03
462.7	13511.99
462.905	13108.54
463.111	13645.1
463.316	13851.95
463.522	13403.44
463.727	13516.08
463.932	13411.64
464.138	13507.89
464.343	13409.59
464.549	12961.08
464.754	13432.12
464.959	13387.06
465.165	13190.45
465.37	12510.53
465.575	12422.47
465.781	12870.97
465.986	12868.92
466.191	12365.12
466.397	12201.29
466.602	11439.44
466.807	12084.55
467.012	12102.98
467.218	11715.92
467.423	11846.99
467.628	11902.28
467.833	12471.62
468.038	12016.97
468.244	11709.77
468.449	12107.08
468.654	11658.57
