Data from USB4F104151__15__13-10-26-586.txt Node

Date: Fri Mar 14 13:10:26 EDT 2025
User: louis
Spectrometer: USB4F10415
Trigger mode: 4
Integration Time (sec): 2.000000E-2
Scans to average: 1
Electric dark correction enabled: true
Nonlinearity correction enabled: false
Boxcar width: 0
XAxis mode: Wavelengths
Number of Pixels in Spectrum: 3648
>>>>>Begin Spectral Data<<<<<
178.204	14.17
178.424	14.17
178.644	14.17
178.864	-77.99
179.084	-98.47
179.304	-71.85
179.524	-26.79
179.744	-4.27
179.964	46.93
180.184	10.07
180.404	42.84
180.624	-14.51
180.844	36.69
181.064	8.02
181.283	-41.13
181.503	-8.36
181.723	22.36
181.943	30.55
182.163	40.79
182.383	-28.84
182.602	44.88
182.822	5.97
183.042	108.37
183.262	10.07
183.482	102.23
183.701	3.93
183.921	55.12
184.141	-6.31
184.361	94.04
184.58	40.79
184.8	18.26
185.02	87.89
185.239	69.46
185.459	1.88
185.679	85.84
185.898	-30.89
186.118	-4.27
186.338	44.88
186.557	91.99
186.777	-45.23
186.997	46.93
187.216	98.13
187.436	114.52
187.655	81.75
187.875	79.7
188.095	98.13
188.314	126.8
188.534	5.97
188.753	18.26
188.973	53.08
189.192	59.22
189.412	61.27
189.631	3.93
189.851	-0.17
190.07	157.52
190.29	18.26
190.509	53.08
190.729	14.17
190.948	118.61
191.168	118.61
191.387	8.02
191.607	20.31
191.826	59.22
192.045	8.02
192.265	79.7
192.484	69.46
192.704	61.27
192.923	30.55
193.142	67.41
193.362	-34.99
193.581	94.04
193.8	71.51
194.02	1.88
194.239	61.27
194.458	46.93
194.678	55.12
194.897	67.41
195.116	3.93
195.335	81.75
195.555	34.64
195.774	20.31
195.993	28.5
196.212	51.03
196.432	81.75
196.651	51.03
196.87	-22.7
197.089	20.31
197.308	51.03
197.528	83.8
197.747	44.88
197.966	102.23
198.185	53.08
198.404	18.26
198.623	38.74
198.842	161.62
199.062	63.32
199.281	18.26
199.5	71.51
199.719	30.55
199.938	139.09
200.157	10.07
200.376	30.55
200.595	26.45
200.814	10.07
201.033	8.02
201.252	108.37
201.471	20.31
201.69	85.84
201.909	3.93
202.128	100.18
202.347	-22.7
202.566	69.46
202.785	53.08
203.004	8.02
203.223	26.45
203.442	102.23
203.661	30.55
203.879	65.36
204.098	53.08
204.317	-45.23
204.536	16.21
204.755	-18.6
204.974	65.36
205.193	24.4
205.411	40.79
205.63	28.5
205.849	46.93
206.068	65.36
206.287	100.18
206.505	81.75
206.724	110.42
206.943	32.6
207.162	5.97
207.381	18.26
207.599	67.41
207.818	63.32
208.037	10.07
208.255	55.12
208.474	26.45
208.693	18.26
208.911	14.17
209.13	108.37
209.349	30.55
209.567	51.03
209.786	-4.27
210.005	87.89
210.223	-37.03
210.442	8.02
210.661	59.22
210.879	48.98
211.098	85.84
211.316	71.51
211.535	79.7
211.753	51.03
211.972	83.8
212.191	51.03
212.409	3.93
212.628	28.5
212.846	42.84
213.065	36.69
213.283	149.33
213.502	30.55
213.72	-45.23
213.938	14.17
214.157	-20.65
214.375	8.02
214.594	55.12
214.812	59.22
215.031	20.31
215.249	24.4
215.467	-14.51
215.686	57.17
215.904	-12.46
216.122	-14.51
216.341	67.41
216.559	116.56
216.778	102.23
216.996	26.45
217.214	-0.17
217.432	-20.65
217.651	-4.27
217.869	32.6
218.087	36.69
218.306	20.31
218.524	69.46
218.742	48.98
218.96	-18.6
219.179	65.36
219.397	102.23
219.615	61.27
219.833	1.88
220.051	67.41
220.27	94.04
220.488	91.99
220.706	36.69
220.924	-0.17
221.142	55.12
221.36	8.02
221.578	89.94
221.796	22.36
222.015	57.17
222.233	26.45
222.451	61.27
222.669	48.98
222.887	91.99
223.105	53.08
223.323	-12.46
223.541	36.69
223.759	36.69
223.977	-2.22
224.195	71.51
224.413	46.93
224.631	30.55
224.849	30.55
225.067	73.56
225.285	-43.18
225.503	28.5
225.721	-4.27
225.939	51.03
226.157	77.65
226.375	132.95
226.592	18.26
226.81	16.21
227.028	69.46
227.246	53.08
227.464	-55.47
227.682	87.89
227.9	28.5
228.117	40.79
228.335	71.51
228.553	-37.03
228.771	81.75
228.989	46.93
229.206	65.36
229.424	20.31
229.642	53.08
229.86	22.36
230.077	96.08
230.295	-14.51
230.513	53.08
230.731	91.99
230.948	28.5
231.166	53.08
231.384	-20.65
231.601	51.03
231.819	20.31
232.037	-2.22
232.254	16.21
232.472	32.6
232.689	69.46
232.907	34.64
233.125	8.02
233.342	-8.36
233.56	34.64
233.777	28.5
233.995	48.98
234.213	57.17
234.43	79.7
234.648	-69.8
234.865	-34.99
235.083	61.27
235.3	83.8
235.518	16.21
235.735	18.26
235.953	57.17
236.17	-4.27
236.388	104.28
236.605	85.84
236.822	61.27
237.04	-14.51
237.257	73.56
237.475	-12.46
237.692	53.08
237.909	98.13
238.127	18.26
238.344	16.21
238.562	128.85
238.779	51.03
238.996	34.64
239.214	65.36
239.431	91.99
239.648	16.21
239.865	57.17
240.083	34.64
240.3	28.5
240.517	-26.79
240.735	-20.65
240.952	51.03
241.169	16.21
241.386	61.27
241.603	44.88
241.821	42.84
242.038	30.55
242.255	79.7
242.472	-16.55
242.689	132.95
242.907	44.88
243.124	-6.31
243.341	67.41
243.558	30.55
243.775	-22.7
243.992	57.17
244.209	83.8
244.426	171.86
244.643	24.4
244.86	-4.27
245.078	-30.89
245.295	14.17
245.512	59.22
245.729	32.6
245.946	44.88
246.163	34.64
246.38	36.69
246.597	102.23
246.814	40.79
247.031	75.6
247.248	57.17
247.464	-12.46
247.681	118.61
247.898	73.56
248.115	104.28
248.332	12.12
248.549	20.31
248.766	63.32
248.983	100.18
249.2	87.89
249.417	61.27
249.633	-20.65
249.85	67.41
250.067	-14.51
250.284	63.32
250.501	18.26
250.717	104.28
250.934	-30.89
251.151	108.37
251.368	-2.22
251.585	79.7
251.801	36.69
252.018	42.84
252.235	48.98
252.451	16.21
252.668	-43.18
252.885	-10.41
253.102	81.75
253.318	48.98
253.535	18.26
253.752	28.5
253.968	26.45
254.185	75.6
254.401	87.89
254.618	22.36
254.835	-34.99
255.051	20.31
255.268	16.21
255.484	65.36
255.701	38.74
255.917	55.12
256.134	20.31
256.351	96.08
256.567	10.07
256.784	-37.03
257	32.6
257.217	-63.66
257.433	55.12
257.65	36.69
257.866	14.17
258.082	77.65
258.299	-30.89
258.515	24.4
258.732	55.12
258.948	-0.17
259.165	32.6
259.381	10.07
259.597	91.99
259.814	69.46
260.03	28.5
260.246	26.45
260.463	34.64
260.679	55.12
260.895	118.61
261.112	-4.27
261.328	59.22
261.544	30.55
261.761	71.51
261.977	14.17
262.193	-6.31
262.409	65.36
262.626	26.45
262.842	53.08
263.058	12.12
263.274	-26.79
263.49	1.88
263.707	89.94
263.923	100.18
264.139	51.03
264.355	-18.6
264.571	51.03
264.787	28.5
265.004	10.07
265.22	110.42
265.436	71.51
265.652	20.31
265.868	18.26
266.084	-30.89
266.3	61.27
266.516	-0.17
266.732	53.08
266.948	77.65
267.164	81.75
267.38	67.41
267.596	108.37
267.812	77.65
268.028	79.7
268.244	53.08
268.46	42.84
268.676	57.17
268.892	-12.46
269.108	34.64
269.324	73.56
269.54	28.5
269.756	69.46
269.972	5.97
270.188	-4.27
270.403	-39.08
270.619	-2.22
270.835	85.84
271.051	14.17
271.267	36.69
271.483	20.31
271.698	28.5
271.914	81.75
272.13	83.8
272.346	14.17
272.562	81.75
272.777	12.12
272.993	26.45
273.209	59.22
273.425	-10.41
273.64	28.5
273.856	-0.17
274.072	18.26
274.287	20.31
274.503	91.99
274.719	36.69
274.934	46.93
275.15	36.69
275.366	24.4
275.581	18.26
275.797	83.8
276.012	34.64
276.228	10.07
276.444	10.07
276.659	-12.46
276.875	-20.65
277.09	85.84
277.306	-10.41
277.521	20.31
277.737	10.07
277.952	114.52
278.168	96.08
278.383	67.41
278.599	44.88
278.814	18.26
279.03	14.17
279.245	118.61
279.461	18.26
279.676	71.51
279.892	38.74
280.107	44.88
280.322	-2.22
280.538	32.6
280.753	22.36
280.969	-28.84
281.184	61.27
281.399	55.12
281.615	32.6
281.83	36.69
282.045	-18.6
282.26	44.88
282.476	-12.46
282.691	36.69
282.906	-30.89
283.122	22.36
283.337	1.88
283.552	59.22
283.767	-37.03
283.983	51.03
284.198	14.17
284.413	118.61
284.628	-6.31
284.843	20.31
285.058	28.5
285.274	10.07
285.489	-12.46
285.704	141.14
285.919	51.03
286.134	94.04
286.349	-2.22
286.564	96.08
286.779	57.17
286.995	36.69
287.21	-20.65
287.425	20.31
287.64	-6.31
287.855	81.75
288.07	1.88
288.285	59.22
288.5	96.08
288.715	26.45
288.93	61.27
289.145	61.27
289.36	14.17
289.575	18.26
289.79	102.23
290.004	-0.17
290.219	18.26
290.434	5.97
290.649	18.26
290.864	71.51
291.079	8.02
291.294	51.03
291.509	75.6
291.724	20.31
291.938	42.84
292.153	91.99
292.368	20.31
292.583	3.93
292.798	85.84
293.012	67.41
293.227	42.84
293.442	34.64
293.657	12.12
293.871	57.17
294.086	26.45
294.301	36.69
294.516	108.37
294.73	1.88
294.945	-22.7
295.16	46.93
295.374	36.69
295.589	130.9
295.804	42.84
296.018	96.08
296.233	59.22
296.447	89.94
296.662	1.88
296.877	59.22
297.091	20.31
297.306	22.36
297.52	32.6
297.735	42.84
297.949	30.55
298.164	91.99
298.378	55.12
298.593	59.22
298.807	-28.84
299.022	44.88
299.236	75.6
299.451	55.12
299.665	18.26
299.88	69.46
300.094	44.88
300.309	34.64
300.523	57.17
300.737	55.12
300.952	28.5
301.166	44.88
301.381	55.12
301.595	59.22
301.809	32.6
302.024	-30.89
302.238	5.97
302.452	67.41
302.667	44.88
302.881	-4.27
303.095	104.28
303.309	36.69
303.524	34.64
303.738	1.88
303.952	5.97
304.166	40.79
304.381	-10.41
304.595	14.17
304.809	65.36
305.023	20.31
305.237	65.36
305.452	3.93
305.666	108.37
305.88	-22.7
306.094	81.75
306.308	59.22
306.522	46.93
306.736	12.12
306.95	40.79
307.164	34.64
307.379	22.36
307.593	36.69
307.807	67.41
308.021	18.26
308.235	55.12
308.449	34.64
308.663	22.36
308.877	75.6
309.091	61.27
309.305	14.17
309.519	10.07
309.733	32.6
309.947	26.45
310.161	61.27
310.374	12.12
310.588	44.88
310.802	30.55
311.016	42.84
311.23	26.45
311.444	22.36
311.658	-12.46
311.872	14.17
312.085	89.94
312.299	12.12
312.513	108.37
312.727	91.99
312.941	-32.94
313.154	116.56
313.368	55.12
313.582	55.12
313.796	61.27
314.009	40.79
314.223	-2.22
314.437	-77.99
314.651	5.97
314.864	26.45
315.078	73.56
315.292	102.23
315.505	26.45
315.719	81.75
315.933	98.13
316.146	30.55
316.36	-14.51
316.573	67.41
316.787	36.69
317.001	67.41
317.214	1.88
317.428	65.36
317.641	3.93
317.855	57.17
318.068	61.27
318.282	-4.27
318.495	108.37
318.709	98.13
318.922	55.12
319.136	67.41
319.349	71.51
319.563	59.22
319.776	63.32
319.99	-16.55
320.203	34.64
320.417	-16.55
320.63	91.99
320.843	102.23
321.057	26.45
321.27	55.12
321.483	71.51
321.697	48.98
321.91	18.26
322.124	16.21
322.337	28.5
322.55	-12.46
322.763	36.69
322.977	65.36
323.19	-16.55
323.403	8.02
323.617	-18.6
323.83	8.02
324.043	36.69
324.256	53.08
324.469	-37.03
324.683	46.93
324.896	-39.08
325.109	30.55
325.322	87.89
325.535	139.09
325.748	81.75
325.962	67.41
326.175	40.79
326.388	51.03
326.601	10.07
326.814	59.22
327.027	10.07
327.24	44.88
327.453	-12.46
327.666	116.56
327.879	48.98
328.092	30.55
328.305	10.07
328.518	24.4
328.731	18.26
328.944	71.51
329.157	71.51
329.37	3.93
329.583	110.42
329.796	30.55
330.009	24.4
330.222	14.17
330.435	51.03
330.648	67.41
330.861	108.37
331.073	73.56
331.286	79.7
331.499	94.04
331.712	69.46
331.925	44.88
332.138	22.36
332.35	57.17
332.563	-26.79
332.776	36.69
332.989	44.88
333.202	59.22
333.414	-39.08
333.627	18.26
333.84	32.6
334.053	120.66
334.265	26.45
334.478	104.28
334.691	77.65
334.903	28.5
335.116	-37.03
335.329	98.13
335.541	30.55
335.754	20.31
335.966	8.02
336.179	114.52
336.392	24.4
336.604	24.4
336.817	75.6
337.029	-0.17
337.242	-45.23
337.454	-6.31
337.667	46.93
337.88	83.8
338.092	5.97
338.305	-4.27
338.517	51.03
338.729	8.02
338.942	59.22
339.154	83.8
339.367	67.41
339.579	67.41
339.792	34.64
340.004	100.18
340.217	122.71
340.429	51.03
340.641	-6.31
340.854	18.26
341.066	108.37
341.278	46.93
341.491	22.36
341.703	91.99
341.915	67.41
342.128	55.12
342.34	53.08
342.552	26.45
342.764	51.03
342.977	20.31
343.189	79.7
343.401	34.64
343.613	71.51
343.826	-2.22
344.038	10.07
344.25	98.13
344.462	51.03
344.674	46.93
344.886	26.45
345.099	91.99
345.311	46.93
345.523	16.21
345.735	28.5
345.947	46.93
346.159	-10.41
346.371	1.88
346.583	38.74
346.795	132.95
347.007	1.88
347.219	40.79
347.431	36.69
347.643	102.23
347.855	-2.22
348.067	71.51
348.279	-26.79
348.491	96.08
348.703	-41.13
348.915	-45.23
349.127	32.6
349.339	-6.31
349.551	10.07
349.763	53.08
349.975	51.03
350.187	-8.36
350.399	48.98
350.61	83.8
350.822	20.31
351.034	34.64
351.246	53.08
351.458	79.7
351.669	46.93
351.881	34.64
352.093	71.51
352.305	26.45
352.517	34.64
352.728	104.28
352.94	94.04
353.152	12.12
353.363	32.6
353.575	53.08
353.787	36.69
353.999	96.08
354.21	44.88
354.422	59.22
354.633	141.14
354.845	22.36
355.057	30.55
355.268	42.84
355.48	46.93
355.692	30.55
355.903	55.12
356.115	38.74
356.326	98.13
356.538	137.04
356.749	20.31
356.961	91.99
357.172	77.65
357.384	24.4
357.595	91.99
357.807	-4.27
358.018	-30.89
358.23	135
358.441	44.88
358.653	44.88
358.864	96.08
359.075	63.32
359.287	65.36
359.498	75.6
359.709	18.26
359.921	34.64
360.132	94.04
360.344	61.27
360.555	-2.22
360.766	42.84
360.977	48.98
361.189	44.88
361.4	71.51
361.611	36.69
361.823	104.28
362.034	5.97
362.245	-2.22
362.456	-39.08
362.667	10.07
362.879	81.75
363.09	108.37
363.301	1.88
363.512	145.24
363.723	14.17
363.935	-18.6
364.146	102.23
364.357	102.23
364.568	63.32
364.779	3.93
364.99	75.6
365.201	63.32
365.412	55.12
365.623	38.74
365.834	106.32
366.045	18.26
366.256	59.22
366.467	104.28
366.678	51.03
366.889	100.18
367.1	30.55
367.311	44.88
367.522	34.64
367.733	63.32
367.944	65.36
368.155	57.17
368.366	89.94
368.577	53.08
368.788	22.36
368.999	12.12
369.209	-0.17
369.42	42.84
369.631	42.84
369.842	108.37
370.053	75.6
370.264	-24.75
370.474	75.6
370.685	-2.22
370.896	46.93
371.107	26.45
371.317	75.6
371.528	112.47
371.739	67.41
371.95	102.23
372.16	53.08
372.371	63.32
372.582	42.84
372.792	38.74
373.003	59.22
373.214	22.36
373.424	61.27
373.635	34.64
373.846	106.32
374.056	28.5
374.267	81.75
374.477	91.99
374.688	34.64
374.898	18.26
375.109	34.64
375.319	42.84
375.53	116.56
375.74	69.46
375.951	85.84
376.161	28.5
376.372	110.42
376.582	44.88
376.793	83.8
377.003	20.31
377.214	18.26
377.424	69.46
377.635	1.88
377.845	-12.46
378.055	26.45
378.266	-24.75
378.476	-12.46
378.686	75.6
378.897	114.52
379.107	132.95
379.317	71.51
379.528	51.03
379.738	128.85
379.948	-2.22
380.158	65.36
380.369	38.74
380.579	59.22
380.789	69.46
380.999	79.7
381.21	1.88
381.42	135
381.63	83.8
381.84	26.45
382.05	118.61
382.261	75.6
382.471	87.89
382.681	57.17
382.891	112.47
383.101	79.7
383.311	71.51
383.521	5.97
383.731	102.23
383.941	81.75
384.151	91.99
384.361	116.56
384.571	79.7
384.781	100.18
384.991	77.65
385.201	85.84
385.411	46.93
385.621	110.42
385.831	73.56
386.041	53.08
386.251	116.56
386.461	135
386.671	36.69
386.881	116.56
387.091	46.93
387.301	53.08
387.511	42.84
387.72	69.46
387.93	65.36
388.14	14.17
388.35	63.32
388.56	108.37
388.769	67.41
388.979	63.32
389.189	55.12
389.399	59.22
389.609	24.4
389.818	57.17
390.028	44.88
390.238	106.32
390.447	91.99
390.657	71.51
390.867	3.93
391.076	26.45
391.286	18.26
391.496	128.85
391.705	-14.51
391.915	83.8
392.125	110.42
392.334	108.37
392.544	114.52
392.753	118.61
392.963	-12.46
393.172	98.13
393.382	53.08
393.591	126.8
393.801	46.93
394.01	161.62
394.22	38.74
394.429	75.6
394.639	94.04
394.848	178
395.058	5.97
395.267	67.41
395.477	96.08
395.686	124.76
395.895	89.94
396.105	57.17
396.314	85.84
396.524	48.98
396.733	89.94
396.942	108.37
397.152	108.37
397.361	137.04
397.57	110.42
397.78	71.51
397.989	104.28
398.198	135
398.407	16.21
398.617	141.14
398.826	46.93
399.035	128.85
399.244	26.45
399.453	102.23
399.663	114.52
399.872	110.42
400.081	151.38
400.29	116.56
400.499	67.41
400.708	149.33
400.917	75.6
401.127	83.8
401.336	108.37
401.545	151.38
401.754	73.56
401.963	145.24
402.172	124.76
402.381	149.33
402.59	87.89
402.799	147.28
403.008	128.85
403.217	100.18
403.426	128.85
403.635	63.32
403.844	75.6
404.053	96.08
404.262	157.52
404.471	241.49
404.68	157.52
404.888	182.1
405.097	38.74
405.306	106.32
405.515	124.76
405.724	112.47
405.933	180.05
406.142	157.52
406.35	171.86
406.559	233.3
406.768	153.43
406.977	247.63
407.185	180.05
407.394	163.67
407.603	122.71
407.812	128.85
408.02	229.2
408.229	206.67
408.438	151.38
408.646	163.67
408.855	239.44
409.064	264.02
409.272	206.67
409.481	239.44
409.69	284.5
409.898	261.97
410.107	266.07
410.315	325.46
410.524	358.22
410.733	341.84
410.941	307.02
411.15	327.5
411.358	288.59
411.567	356.18
411.775	339.79
411.984	360.27
412.192	378.7
412.401	331.6
412.609	368.46
412.818	427.85
413.026	415.57
413.234	368.46
413.443	511.82
413.651	464.72
413.86	427.85
414.068	489.29
414.276	601.93
414.485	454.48
414.693	583.5
414.901	591.69
415.11	585.55
415.318	513.87
415.526	657.23
415.734	653.13
415.943	683.85
416.151	714.57
416.359	743.24
416.567	786.25
416.776	782.15
416.984	847.69
417.192	866.12
417.4	788.3
417.608	767.82
417.817	886.6
418.025	974.66
418.233	950.09
418.441	989
418.649	995.14
418.857	1171.27
419.065	1124.16
419.273	1132.36
419.481	1113.92
419.689	1161.03
419.897	1335.1
420.105	1206.08
420.313	1339.2
420.521	1394.5
420.729	1378.11
420.937	1425.22
421.145	1482.56
421.353	1546.05
421.561	1570.62
421.769	1744.7
421.977	1709.88
422.185	1638.2
422.393	1949.5
422.601	1908.54
422.809	1867.58
423.017	1875.77
423.224	1984.31
423.432	2025.27
423.64	2189.11
423.848	2391.86
424.056	2217.78
424.263	2365.23
424.471	2434.86
424.679	2510.64
424.887	2518.83
425.094	2676.52
425.302	2733.87
425.51	2754.35
425.718	2922.28
425.925	2893.61
426.133	2967.34
426.341	3331.87
426.548	3262.24
426.756	3268.39
426.964	3428.13
427.171	3540.77
427.379	3632.93
427.586	3589.92
427.794	3682.08
428.001	3952.41
428.209	4149.01
428.417	4026.14
428.624	4384.53
428.832	4351.76
429.039	4351.76
429.247	4226.84
429.454	4804.36
429.662	4970.25
429.869	4767.5
430.076	5060.36
430.284	4976.39
430.491	5193.48
430.699	5476.1
430.906	5365.51
431.114	5447.43
431.321	5816.06
431.528	5699.33
431.736	6145.78
431.943	6473.46
432.15	6328.05
432.358	6366.96
432.565	6620.91
432.772	6731.5
432.979	7091.95
433.187	7042.79
433.394	7149.29
433.601	7640.8
433.808	7771.87
434.016	7646.94
434.223	7978.72
434.43	8535.76
434.637	8464.08
434.844	8675.02
435.052	8900.3
435.259	8904.4
435.466	8928.97
435.673	9017.04
435.88	9402.05
436.087	10118.84
436.294	10139.32
436.501	9623.23
436.708	9936.57
436.915	10362.55
437.122	10960.56
437.329	10839.73
437.537	11173.55
437.743	11298.47
437.95	11153.07
438.157	11814.56
438.364	12349.08
438.571	12115.61
438.778	12127.9
438.985	13188.75
439.192	12873.36
439.399	13127.31
439.606	12990.1
439.813	13502.09
440.02	14399.1
440.227	14286.46
440.433	14155.39
440.64	14626.42
440.847	14366.33
441.054	14784.12
441.261	15865.44
441.467	15705.7
441.674	15836.77
441.881	16608.86
442.088	16508.51
442.294	16344.67
442.501	16735.83
442.708	17036.88
442.914	17600.07
443.121	18523.71
443.328	17944.13
443.534	19400.24
443.741	18685.5
443.948	18427.45
444.154	19836.45
444.361	19525.16
444.568	19916.33
444.774	19781.16
444.981	20274.72
445.187	20880.92
445.394	21562.89
445.6	21597.71
445.807	23404.02
446.013	22410.75
446.22	22838.78
446.426	23682.54
446.633	24180.2
446.839	24614.37
447.046	23897.58
447.252	25056.73
447.459	25523.66
447.665	25146.84
447.871	26320.32
448.078	26901.95
448.284	25843.15
448.491	26426.82
448.697	27796.91
448.903	27913.64
449.11	28188.07
449.316	27846.06
449.522	28261.8
449.728	29234.58
449.935	29400.47
450.141	29152.66
450.347	29859.21
450.553	29181.34
450.76	29562.26
450.966	30627.2
451.172	30252.42
451.378	31001.98
451.584	30320.01
451.791	31096.19
451.997	30883.2
452.203	31679.86
452.409	31536.5
452.615	31243.64
452.821	30414.21
453.027	29683.09
453.233	31430.01
453.44	30469.51
453.646	30717.31
453.852	30662.02
454.058	31374.71
454.264	30424.45
454.47	31339.9
454.676	30434.69
454.882	31126.91
455.088	28872.09
455.294	29162.9
455.5	29601.17
455.705	30117.26
455.911	28935.58
456.117	28071.34
456.323	28095.91
456.529	26435.01
456.735	27860.4
456.941	26746.3
457.147	26365.38
457.352	25619.92
457.558	25179.61
457.764	25484.75
457.97	25097.69
458.176	24307.17
458.381	24468.96
458.587	23422.45
458.793	23354.86
458.999	22162.95
459.204	24122.85
459.41	22910.46
459.616	21423.63
459.821	21356.05
460.027	21544.46
460.233	20895.25
460.438	19883.56
460.644	20278.82
460.85	19340.85
461.055	18669.11
461.261	18796.09
461.466	17675.85
461.672	16881.24
461.878	17913.41
462.083	16879.19
462.289	16528.99
462.494	16518.75
462.7	15586.92
462.905	15281.77
463.111	15941.22
463.316	15937.12
463.522	15525.48
463.727	15599.21
463.932	15386.22
464.138	15529.58
464.343	15431.27
464.549	14984.82
464.754	15560.3
464.959	15400.55
465.165	15101.55
465.37	14837.36
465.575	14165.63
465.781	14950
465.986	14675.57
466.191	14245.5
466.397	14177.92
466.602	13356.68
466.807	13753.99
467.012	14075.52
467.218	13809.28
467.423	13659.78
467.628	13741.7
467.833	13997.7
