Data from USB4F104151__33__13-10-56-383.txt Node

Date: Fri Mar 14 13:10:56 EDT 2025
User: louis
Spectrometer: USB4F10415
Trigger mode: 4
Integration Time (sec): 2.000000E-2
Scans to average: 1
Electric dark correction enabled: true
Nonlinearity correction enabled: false
Boxcar width: 0
XAxis mode: Wavelengths
Number of Pixels in Spectrum: 3648
>>>>>Begin Spectral Data<<<<<
178.204	-38.4
178.424	-38.4
178.644	-38.4
178.864	-91.65
179.084	-91.65
179.304	45.57
179.524	8.7
179.744	0.51
179.964	4.61
180.184	16.9
180.404	43.52
180.624	-3.58
180.844	25.09
181.064	0.51
181.283	-34.3
181.503	-30.21
181.723	-77.31
181.943	-5.63
182.163	51.71
182.383	59.9
182.602	25.09
182.822	-1.54
183.042	90.62
183.262	74.24
183.482	14.85
183.701	57.86
183.921	43.52
184.141	-19.97
184.361	47.62
184.58	-30.21
184.8	80.38
185.02	4.61
185.239	4.61
185.459	41.47
185.679	29.18
185.898	-65.02
186.118	64
186.338	-3.58
186.557	102.91
186.777	80.38
186.997	39.42
187.216	14.85
187.436	2.56
187.655	43.52
187.875	141.82
188.095	-24.06
188.314	45.57
188.534	68.09
188.753	10.75
188.973	51.71
189.192	70.14
189.412	23.04
189.631	76.29
189.851	4.61
190.07	43.52
190.29	-17.92
190.509	61.95
190.729	55.81
190.948	88.57
191.168	127.49
191.387	41.47
191.607	-9.73
191.826	66.05
192.045	25.09
192.265	25.09
192.484	64
192.704	-60.93
192.923	80.38
193.142	109.05
193.362	33.28
193.581	39.42
193.8	4.61
194.02	66.05
194.239	102.91
194.458	-5.63
194.678	0.51
194.897	31.23
195.116	74.24
195.335	68.09
195.555	64
195.774	74.24
195.993	66.05
196.212	129.53
196.432	35.33
196.651	64
196.87	37.38
197.089	66.05
197.308	27.14
197.528	16.9
197.747	31.23
197.966	-3.58
198.185	113.15
198.404	37.38
198.623	47.62
198.842	78.33
199.062	20.99
199.281	-9.73
199.5	37.38
199.719	53.76
199.938	78.33
200.157	12.8
200.376	0.51
200.595	-15.87
200.814	72.19
201.033	6.66
201.252	64
201.471	8.7
201.69	61.95
201.909	14.85
202.128	43.52
202.347	39.42
202.566	68.09
202.785	61.95
203.004	6.66
203.223	88.57
203.442	96.77
203.661	23.04
203.879	-50.69
204.098	8.7
204.317	29.18
204.536	23.04
204.755	23.04
204.974	57.86
205.193	47.62
205.411	88.57
205.63	115.2
205.849	-3.58
206.068	6.66
206.287	6.66
206.505	29.18
206.724	29.18
206.943	-3.58
207.162	27.14
207.381	45.57
207.599	6.66
207.818	18.94
208.037	29.18
208.255	86.53
208.474	66.05
208.693	31.23
208.911	25.09
209.13	12.8
209.349	76.29
209.567	-34.3
209.786	14.85
210.005	51.71
210.223	55.81
210.442	20.99
210.661	90.62
210.879	86.53
211.098	16.9
211.316	-9.73
211.535	84.48
211.753	14.85
211.972	78.33
212.191	0.51
212.409	27.14
212.628	59.9
212.846	-26.11
213.065	64
213.283	57.86
213.502	143.87
213.72	14.85
213.938	14.85
214.157	-17.92
214.375	51.71
214.594	29.18
214.812	6.66
215.031	25.09
215.249	-24.06
215.467	31.23
215.686	-34.3
215.904	94.72
216.122	25.09
216.341	39.42
216.559	37.38
216.778	90.62
216.996	29.18
217.214	0.51
217.432	-42.5
217.651	43.52
217.869	51.71
218.087	0.51
218.306	111.1
218.524	39.42
218.742	14.85
218.96	25.09
219.179	6.66
219.397	-17.92
219.615	86.53
219.833	59.9
220.051	39.42
220.27	72.19
220.488	23.04
220.706	12.8
220.924	78.33
221.142	-3.58
221.36	115.2
221.578	104.96
221.796	35.33
222.015	20.99
222.233	33.28
222.451	70.14
222.669	-32.26
222.887	70.14
223.105	25.09
223.323	-40.45
223.541	31.23
223.759	39.42
223.977	-36.35
224.195	41.47
224.413	51.71
224.631	66.05
224.849	-7.68
225.067	37.38
225.285	20.99
225.503	33.28
225.721	-22.02
225.939	-17.92
226.157	53.76
226.375	107.01
226.592	-60.93
226.81	-15.87
227.028	6.66
227.246	51.71
227.464	82.43
227.682	4.61
227.9	-36.35
228.117	37.38
228.335	-26.11
228.553	64
228.771	102.91
228.989	35.33
229.206	31.23
229.424	49.66
229.642	0.51
229.86	94.72
230.077	57.86
230.295	72.19
230.513	-17.92
230.731	64
230.948	43.52
231.166	29.18
231.384	29.18
231.601	41.47
231.819	70.14
232.037	-11.78
232.254	0.51
232.472	47.62
232.689	-15.87
232.907	12.8
233.125	41.47
233.342	23.04
233.56	-1.54
233.777	-11.78
233.995	0.51
234.213	61.95
234.43	104.96
234.648	-5.63
234.865	-19.97
235.083	98.81
235.3	25.09
235.518	98.81
235.735	57.86
235.953	78.33
236.17	43.52
236.388	23.04
236.605	12.8
236.822	55.81
237.04	-11.78
237.257	78.33
237.475	29.18
237.692	74.24
237.909	39.42
238.127	72.19
238.344	43.52
238.562	59.9
238.779	12.8
238.996	29.18
239.214	-32.26
239.431	57.86
239.648	-67.07
239.865	94.72
240.083	39.42
240.3	-15.87
240.517	123.39
240.735	80.38
240.952	12.8
241.169	55.81
241.386	33.28
241.603	57.86
241.821	80.38
242.038	-1.54
242.255	29.18
242.472	31.23
242.689	-11.78
242.907	88.57
243.124	70.14
243.341	88.57
243.558	23.04
243.775	-15.87
243.992	20.99
244.209	41.47
244.426	-1.54
244.643	68.09
244.86	31.23
245.078	53.76
245.295	14.85
245.512	78.33
245.729	-13.82
245.946	86.53
246.163	115.2
246.38	47.62
246.597	-1.54
246.814	31.23
247.031	39.42
247.248	111.1
247.464	20.99
247.681	53.76
247.898	-34.3
248.115	57.86
248.332	57.86
248.549	66.05
248.766	-1.54
248.983	53.76
249.2	68.09
249.417	31.23
249.633	14.85
249.85	29.18
250.067	0.51
250.284	-9.73
250.501	55.81
250.717	0.51
250.934	-9.73
251.151	29.18
251.368	35.33
251.585	23.04
251.801	53.76
252.018	6.66
252.235	35.33
252.451	10.75
252.668	35.33
252.885	88.57
253.102	-1.54
253.318	25.09
253.535	6.66
253.752	35.33
253.968	41.47
254.185	18.94
254.401	25.09
254.618	49.66
254.835	64
255.051	68.09
255.268	-42.5
255.484	20.99
255.701	20.99
255.917	20.99
256.134	51.71
256.351	59.9
256.567	16.9
256.784	88.57
257	-50.69
257.217	102.91
257.433	47.62
257.65	-44.54
257.866	55.81
258.082	-13.82
258.299	6.66
258.515	78.33
258.732	90.62
258.948	76.29
259.165	6.66
259.381	23.04
259.597	64
259.814	27.14
260.03	27.14
260.246	74.24
260.463	23.04
260.679	12.8
260.895	-5.63
261.112	51.71
261.328	-3.58
261.544	-22.02
261.761	96.77
261.977	45.57
262.193	6.66
262.409	84.48
262.626	39.42
262.842	68.09
263.058	41.47
263.274	29.18
263.49	-9.73
263.707	39.42
263.923	94.72
264.139	-40.45
264.355	2.56
264.571	78.33
264.787	107.01
265.004	90.62
265.22	55.81
265.436	12.8
265.652	-36.35
265.868	-28.16
266.084	2.56
266.3	80.38
266.516	-24.06
266.732	37.38
266.948	57.86
267.164	25.09
267.38	70.14
267.596	113.15
267.812	8.7
268.028	23.04
268.244	47.62
268.46	72.19
268.676	12.8
268.892	29.18
269.108	94.72
269.324	139.77
269.54	-5.63
269.756	16.9
269.972	29.18
270.188	12.8
270.403	61.95
270.619	14.85
270.835	12.8
271.051	33.28
271.267	20.99
271.483	61.95
271.698	20.99
271.914	25.09
272.13	33.28
272.346	-19.97
272.562	33.28
272.777	90.62
272.993	10.75
273.209	86.53
273.425	59.9
273.64	-3.58
273.856	64
274.072	61.95
274.287	-28.16
274.503	61.95
274.719	41.47
274.934	47.62
275.15	14.85
275.366	-17.92
275.581	-58.88
275.797	29.18
276.012	14.85
276.228	-15.87
276.444	90.62
276.659	-7.68
276.875	-112.13
277.09	53.76
277.306	37.38
277.521	94.72
277.737	51.71
277.952	100.86
278.168	49.66
278.383	-5.63
278.599	-9.73
278.814	41.47
279.03	-13.82
279.245	111.1
279.461	25.09
279.676	55.81
279.892	20.99
280.107	12.8
280.322	49.66
280.538	-15.87
280.753	0.51
280.969	59.9
281.184	25.09
281.399	96.77
281.615	-22.02
281.83	53.76
282.045	12.8
282.26	0.51
282.476	14.85
282.691	59.9
282.906	113.15
283.122	-34.3
283.337	-58.88
283.552	53.76
283.767	51.71
283.983	20.99
284.198	-1.54
284.413	119.29
284.628	53.76
284.843	33.28
285.058	41.47
285.274	25.09
285.489	-28.16
285.704	16.9
285.919	72.19
286.134	14.85
286.349	-22.02
286.564	45.57
286.779	41.47
286.995	102.91
287.21	-28.16
287.425	6.66
287.64	47.62
287.855	8.7
288.07	-73.21
288.285	107.01
288.5	-3.58
288.715	74.24
288.93	-3.58
289.145	64
289.36	39.42
289.575	45.57
289.79	61.95
290.004	8.7
290.219	31.23
290.434	59.9
290.649	-1.54
290.864	123.39
291.079	20.99
291.294	74.24
291.509	18.94
291.724	-26.11
291.938	88.57
292.153	-3.58
292.368	25.09
292.583	74.24
292.798	64
293.012	-50.69
293.227	16.9
293.442	0.51
293.657	-11.78
293.871	61.95
294.086	45.57
294.301	6.66
294.516	94.72
294.73	86.53
294.945	-26.11
295.16	47.62
295.374	68.09
295.589	23.04
295.804	27.14
296.018	68.09
296.233	12.8
296.447	16.9
296.662	70.14
296.877	121.34
297.091	80.38
297.306	94.72
297.52	-40.45
297.735	20.99
297.949	72.19
298.164	31.23
298.378	23.04
298.593	-19.97
298.807	-26.11
299.022	43.52
299.236	4.61
299.451	-26.11
299.665	4.61
299.88	66.05
300.094	47.62
300.309	41.47
300.523	27.14
300.737	41.47
300.952	43.52
301.166	135.68
301.381	53.76
301.595	-11.78
301.809	-36.35
302.024	33.28
302.238	-1.54
302.452	47.62
302.667	14.85
302.881	-3.58
303.095	45.57
303.309	23.04
303.524	-1.54
303.738	0.51
303.952	-15.87
304.166	68.09
304.381	16.9
304.595	8.7
304.809	10.75
305.023	55.81
305.237	12.8
305.452	39.42
305.666	29.18
305.88	111.1
306.094	53.76
306.308	-40.45
306.522	98.81
306.736	45.57
306.95	74.24
307.164	33.28
307.379	47.62
307.593	86.53
307.807	23.04
308.021	47.62
308.235	29.18
308.449	25.09
308.663	-32.26
308.877	55.81
309.091	-15.87
309.305	104.96
309.519	-17.92
309.733	70.14
309.947	-48.64
310.161	76.29
310.374	94.72
310.588	78.33
310.802	8.7
311.016	80.38
311.23	90.62
311.444	20.99
311.658	-3.58
311.872	45.57
312.085	-36.35
312.299	-11.78
312.513	88.57
312.727	18.94
312.941	59.9
313.154	119.29
313.368	-50.69
313.582	29.18
313.796	57.86
314.009	39.42
314.223	35.33
314.437	39.42
314.651	43.52
314.864	27.14
315.078	23.04
315.292	55.81
315.505	111.1
315.719	47.62
315.933	88.57
316.146	-50.69
316.36	-13.82
316.573	12.8
316.787	-11.78
317.001	20.99
317.214	6.66
317.428	72.19
317.641	-5.63
317.855	20.99
318.068	-13.82
318.282	82.43
318.495	39.42
318.709	111.1
318.922	39.42
319.136	55.81
319.349	68.09
319.563	66.05
319.776	-42.5
319.99	70.14
320.203	72.19
320.417	45.57
320.63	31.23
320.843	37.38
321.057	-42.5
321.27	25.09
321.483	23.04
321.697	55.81
321.91	27.14
322.124	66.05
322.337	78.33
322.55	33.28
322.763	88.57
322.977	55.81
323.19	-17.92
323.403	-19.97
323.617	29.18
323.83	8.7
324.043	29.18
324.256	10.75
324.469	-9.73
324.683	72.19
324.896	64
325.109	102.91
325.322	6.66
325.535	55.81
325.748	41.47
325.962	-11.78
326.175	76.29
326.388	37.38
326.601	43.52
326.814	90.62
327.027	-3.58
327.24	78.33
327.453	6.66
327.666	57.86
327.879	47.62
328.092	-3.58
328.305	27.14
328.518	29.18
328.731	70.14
328.944	-11.78
329.157	66.05
329.37	20.99
329.583	41.47
329.796	70.14
330.009	-9.73
330.222	31.23
330.435	49.66
330.648	47.62
330.861	-11.78
331.073	-32.26
331.286	-9.73
331.499	74.24
331.712	72.19
331.925	20.99
332.138	31.23
332.35	-1.54
332.563	12.8
332.776	41.47
332.989	55.81
333.202	6.66
333.414	-30.21
333.627	53.76
333.84	94.72
334.053	-32.26
334.265	86.53
334.478	74.24
334.691	53.76
334.903	12.8
335.116	12.8
335.329	2.56
335.541	80.38
335.754	96.77
335.966	66.05
336.179	70.14
336.392	-36.35
336.604	70.14
336.817	78.33
337.029	37.38
337.242	-5.63
337.454	111.1
337.667	70.14
337.88	92.67
338.092	43.52
338.305	70.14
338.517	72.19
338.729	86.53
338.942	109.05
339.154	47.62
339.367	4.61
339.579	113.15
339.792	33.28
340.004	82.43
340.217	6.66
340.429	37.38
340.641	41.47
340.854	76.29
341.066	-5.63
341.278	96.77
341.491	74.24
341.703	45.57
341.915	31.23
342.128	49.66
342.34	100.86
342.552	10.75
342.764	12.8
342.977	47.62
343.189	18.94
343.401	57.86
343.613	35.33
343.826	33.28
344.038	-32.26
344.25	39.42
344.462	-3.58
344.674	47.62
344.886	18.94
345.099	86.53
345.311	61.95
345.523	55.81
345.735	45.57
345.947	47.62
346.159	64
346.371	-3.58
346.583	-17.92
346.795	64
347.007	-50.69
347.219	20.99
347.431	49.66
347.643	33.28
347.855	51.71
348.067	55.81
348.279	31.23
348.491	25.09
348.703	53.76
348.915	-15.87
349.127	16.9
349.339	25.09
349.551	66.05
349.763	-3.58
349.975	39.42
350.187	98.81
350.399	104.96
350.61	76.29
350.822	111.1
351.034	70.14
351.246	68.09
351.458	72.19
351.669	-34.3
351.881	20.99
352.093	27.14
352.305	64
352.517	-1.54
352.728	37.38
352.94	4.61
353.152	16.9
353.363	-9.73
353.575	86.53
353.787	88.57
353.999	80.38
354.21	66.05
354.422	-69.12
354.633	31.23
354.845	33.28
355.057	70.14
355.268	41.47
355.48	29.18
355.692	-34.3
355.903	59.9
356.115	39.42
356.326	53.76
356.538	76.29
356.749	47.62
356.961	8.7
357.172	-7.68
357.384	86.53
357.595	162.3
357.807	59.9
358.018	-56.83
358.23	113.15
358.441	39.42
358.653	-3.58
358.864	39.42
359.075	39.42
359.287	98.81
359.498	104.96
359.709	45.57
359.921	-13.82
360.132	84.48
360.344	64
360.555	35.33
360.766	49.66
360.977	2.56
361.189	96.77
361.4	35.33
361.611	104.96
361.823	86.53
362.034	23.04
362.245	-38.4
362.456	59.9
362.667	23.04
362.879	76.29
363.09	31.23
363.301	76.29
363.512	41.47
363.723	47.62
363.935	12.8
364.146	66.05
364.357	113.15
364.568	84.48
364.779	12.8
364.99	123.39
365.201	20.99
365.412	72.19
365.623	55.81
365.834	4.61
366.045	55.81
366.256	72.19
366.467	55.81
366.678	14.85
366.889	88.57
367.1	-28.16
367.311	102.91
367.522	90.62
367.733	47.62
367.944	35.33
368.155	39.42
368.366	57.86
368.577	53.76
368.788	72.19
368.999	111.1
369.209	-7.68
369.42	82.43
369.631	74.24
369.842	29.18
370.053	37.38
370.264	59.9
370.474	20.99
370.685	16.9
370.896	53.76
371.107	35.33
371.317	66.05
371.528	61.95
371.739	111.1
371.95	92.67
372.16	74.24
372.371	14.85
372.582	64
372.792	80.38
373.003	115.2
373.214	-30.21
373.424	61.95
373.635	-42.5
373.846	37.38
374.056	35.33
374.267	92.67
374.477	37.38
374.688	-15.87
374.898	64
375.109	76.29
375.319	66.05
375.53	82.43
375.74	43.52
375.951	29.18
376.161	27.14
376.372	64
376.582	-44.54
376.793	20.99
377.003	49.66
377.214	49.66
377.424	113.15
377.635	74.24
377.845	45.57
378.055	47.62
378.266	-3.58
378.476	45.57
378.686	92.67
378.897	31.23
379.107	47.62
379.317	66.05
379.528	33.28
379.738	104.96
379.948	12.8
380.158	-7.68
380.369	39.42
380.579	37.38
380.789	64
380.999	55.81
381.21	88.57
381.42	66.05
381.63	-5.63
381.84	64
382.05	74.24
382.261	123.39
382.471	-60.93
382.681	23.04
382.891	115.2
383.101	31.23
383.311	74.24
383.521	55.81
383.731	37.38
383.941	88.57
384.151	51.71
384.361	20.99
384.571	10.75
384.781	68.09
384.991	82.43
385.201	53.76
385.411	94.72
385.621	8.7
385.831	78.33
386.041	72.19
386.251	-7.68
386.461	53.76
386.671	12.8
386.881	64
387.091	33.28
387.301	35.33
387.511	23.04
387.72	47.62
387.93	70.14
388.14	-73.21
388.35	98.81
388.56	80.38
388.769	74.24
388.979	12.8
389.189	25.09
389.399	61.95
389.609	145.92
389.818	55.81
390.028	4.61
390.238	-3.58
390.447	-19.97
390.657	84.48
390.867	72.19
391.076	-19.97
391.286	61.95
391.496	31.23
391.705	23.04
391.915	104.96
392.125	0.51
392.334	72.19
392.544	104.96
392.753	74.24
392.963	29.18
393.172	70.14
393.382	61.95
393.591	80.38
393.801	72.19
394.01	111.1
394.22	55.81
394.429	20.99
394.639	72.19
394.848	45.57
395.058	47.62
395.267	53.76
395.477	47.62
395.686	-17.92
395.895	133.63
396.105	117.25
396.314	51.71
396.524	104.96
396.733	84.48
396.942	135.68
397.152	45.57
397.361	61.95
397.57	139.77
397.78	94.72
397.989	82.43
398.198	184.83
398.407	102.91
398.617	80.38
398.826	111.1
399.035	94.72
399.244	76.29
399.453	82.43
399.663	152.06
399.872	109.05
400.081	64
400.29	156.16
400.499	86.53
400.708	135.68
400.917	102.91
401.127	107.01
401.336	109.05
401.545	160.25
401.754	135.68
401.963	154.11
402.172	90.62
402.381	109.05
402.59	125.44
402.799	143.87
403.008	154.11
403.217	121.34
403.426	6.66
403.635	111.1
403.844	125.44
404.053	86.53
404.262	113.15
404.471	111.1
404.68	88.57
404.888	129.53
405.097	111.1
405.306	145.92
405.515	127.49
405.724	152.06
405.933	184.83
406.142	166.4
406.35	137.73
406.559	94.72
406.768	213.5
406.977	231.93
407.185	137.73
407.394	135.68
407.603	88.57
407.812	203.26
408.02	197.12
408.229	184.83
408.438	145.92
408.646	195.07
408.855	193.02
409.064	285.18
409.272	190.97
409.481	219.64
409.69	170.49
409.898	217.6
410.107	203.26
410.315	193.02
410.524	262.65
410.733	254.46
410.941	231.93
411.15	223.74
411.358	195.07
411.567	317.95
411.775	307.71
411.984	332.28
412.192	301.56
412.401	303.61
412.609	350.71
412.818	315.9
413.026	367.1
413.234	358.91
413.443	389.63
413.651	332.28
413.86	494.07
414.068	426.49
414.276	451.07
414.485	410.11
414.693	473.59
414.901	434.68
415.11	469.5
415.318	602.61
415.526	508.41
415.734	569.85
415.943	637.43
416.151	594.42
416.359	631.29
416.567	600.57
416.776	594.42
416.984	674.29
417.192	702.97
417.4	692.73
417.608	616.95
417.817	784.88
418.025	774.64
418.233	811.51
418.441	793.08
418.649	825.84
418.857	874.99
419.065	993.78
419.273	1016.3
419.481	987.63
419.689	1022.45
419.897	1122.8
420.105	1135.09
420.313	1176.05
420.521	1200.62
420.729	1188.33
420.937	1266.16
421.145	1266.16
421.353	1325.55
421.561	1395.18
421.769	1329.64
421.977	1374.7
422.185	1425.9
422.393	1610.22
422.601	1794.53
422.809	1690.09
423.017	1655.27
423.224	1782.24
423.432	1792.48
423.64	1843.68
423.848	1970.66
424.056	1901.03
424.263	2038.24
424.471	2062.82
424.679	2025.95
424.887	2197.98
425.094	2222.56
425.302	2347.48
425.51	2376.16
425.718	2515.42
425.925	2423.26
426.133	2619.86
426.341	2730.45
426.548	2869.72
426.756	2851.28
426.964	2906.58
427.171	3027.41
427.379	3039.7
427.586	3183.06
427.794	3383.76
428.001	3324.37
428.209	3553.74
428.417	3475.91
428.624	3856.84
428.832	3822.02
429.039	3744.2
429.247	3717.58
429.454	4008.39
429.662	4436.41
429.869	4141.5
430.076	4291.01
430.284	4202.94
430.491	4444.6
430.699	4630.97
430.906	4630.97
431.114	4749.75
431.321	4858.29
431.528	5069.23
431.736	5263.79
431.943	5634.47
432.15	5296.56
432.358	5476.78
432.565	5706.15
432.772	5687.72
432.979	6132.13
433.187	6289.82
433.394	5927.33
433.601	6685.08
433.808	6584.73
434.016	6527.39
434.223	6939.03
434.43	7233.94
434.637	7188.88
434.844	7678.35
435.052	7614.86
435.259	7647.63
435.466	7694.73
435.673	7696.78
435.88	8311.17
436.087	8698.24
436.294	8675.71
436.501	8475.01
436.708	8597.88
436.915	9003.38
437.122	9277.81
437.329	9175.41
437.537	9427.31
437.743	9703.79
437.95	9632.11
438.157	10254.69
438.364	10484.06
438.571	10439.01
438.778	10330.47
438.985	11522.38
439.192	11000.15
439.399	11415.89
439.606	11102.55
439.813	11667.79
440.02	12587.33
440.227	12183.88
440.433	12249.41
440.64	12710.21
440.847	12468.55
441.054	12654.91
441.261	13687.09
441.467	13566.26
441.674	13605.17
441.881	14246.18
442.088	14078.25
442.294	14225.7
442.501	14276.9
442.708	14776.61
442.914	15366.42
443.121	15960.33
443.328	15677.71
443.534	16638.21
443.741	16310.54
443.948	15714.58
444.154	17117.43
444.361	17215.74
444.568	17201.4
444.774	17256.7
444.981	17266.94
445.187	17928.43
445.394	18512.1
445.6	18491.62
445.807	20050.13
446.013	19359.96
446.22	19564.76
446.426	20347.08
446.633	20666.56
446.839	21315.77
447.046	20779.2
447.252	21715.12
447.459	21641.4
447.665	21663.93
447.871	22628.52
448.078	23689.37
448.284	22730.92
448.491	23357.6
448.697	24101.01
448.903	24535.18
449.11	24713.35
449.316	24410.25
449.522	24731.78
449.728	25489.53
449.935	25460.86
450.141	25620.6
450.347	26194.03
450.553	25186.43
450.76	25944.18
450.966	26454.12
451.172	26241.14
451.378	27175.01
451.584	26493.04
451.791	27306.08
451.997	27172.96
452.203	27582.56
452.409	27643.99
452.615	27568.22
452.821	26294.38
453.027	26257.52
453.233	27662.43
453.44	26490.99
453.646	27226.21
453.852	26994.79
454.058	27377.76
454.264	26847.33
454.47	27234.4
454.676	26847.33
454.882	27629.66
455.088	25190.53
455.294	25331.84
455.5	25983.09
455.705	26429.55
455.911	25202.82
456.117	24893.57
456.323	24248.46
456.529	23040.16
456.735	24207.5
456.941	23707.8
457.147	22872.23
457.352	22757.54
457.558	22431.91
457.764	22413.48
457.97	21926.07
458.176	21713.08
458.381	21518.52
458.587	20394.18
458.793	20422.86
458.999	19480.79
459.204	20635.85
459.41	20297.93
459.616	18829.54
459.821	18999.52
460.027	18675.94
460.233	18387.18
460.438	17518.84
460.644	17707.25
460.85	17010.94
461.055	16570.63
461.261	16744.7
461.466	15094.04
461.672	14928.16
461.878	16048.4
462.083	14893.34
462.289	14522.66
462.494	14371.11
462.7	13938.99
462.905	13375.8
463.111	13867.31
463.316	13830.44
463.522	13726
463.727	13668.66
463.932	13656.37
464.138	13513.01
464.343	13545.78
464.549	13244.73
464.754	13599.02
464.959	13285.69
465.165	13769.01
465.37	12837.18
465.575	12722.49
465.781	12841.28
465.986	13236.53
466.191	12513.6
466.397	12265.8
466.602	11854.16
466.807	12144.97
467.012	12357.96
467.218	12050.76
467.423	11837.77
467.628	12147.01
467.833	12570.94
468.038	12069.19
468.244	11800.91
468.449	12349.76
468.654	11888.97
468.859	11743.56
