Data from USB4F104151__55__13-11-43-279.txt Node

Date: Fri Mar 14 13:11:43 EDT 2025
User: louis
Spectrometer: USB4F10415
Trigger mode: 4
Integration Time (sec): 2.000000E-2
Scans to average: 1
Electric dark correction enabled: true
Nonlinearity correction enabled: false
Boxcar width: 0
XAxis mode: Wavelengths
Number of Pixels in Spectrum: 3648
>>>>>Begin Spectral Data<<<<<
178.204	-136.7
178.424	-136.7
178.644	-136.7
178.864	-134.65
179.084	-97.79
179.304	-52.74
179.524	-40.45
179.744	-13.82
179.964	-5.63
180.184	-36.35
180.404	37.38
180.624	-42.5
180.844	49.66
181.064	10.75
181.283	14.85
181.503	51.71
181.723	27.14
181.943	-28.16
182.163	92.67
182.383	16.9
182.602	18.94
182.822	20.99
183.042	-3.58
183.262	-13.82
183.482	39.42
183.701	-62.98
183.921	55.81
184.141	16.9
184.361	-48.64
184.58	23.04
184.8	-32.26
185.02	0.51
185.239	18.94
185.459	2.56
185.679	45.57
185.898	-56.83
186.118	-5.63
186.338	0.51
186.557	35.33
186.777	35.33
186.997	27.14
187.216	53.76
187.436	35.33
187.655	41.47
187.875	49.66
188.095	-1.54
188.314	78.33
188.534	20.99
188.753	16.9
188.973	-5.63
189.192	74.24
189.412	23.04
189.631	4.61
189.851	4.61
190.07	53.76
190.29	-24.06
190.509	68.09
190.729	78.33
190.948	66.05
191.168	145.92
191.387	23.04
191.607	41.47
191.826	66.05
192.045	39.42
192.265	2.56
192.484	25.09
192.704	10.75
192.923	25.09
193.142	111.1
193.362	-28.16
193.581	100.86
193.8	2.56
194.02	25.09
194.239	25.09
194.458	72.19
194.678	8.7
194.897	51.71
195.116	2.56
195.335	41.47
195.555	49.66
195.774	29.18
195.993	-24.06
196.212	45.57
196.432	-3.58
196.651	8.7
196.87	-17.92
197.089	20.99
197.308	45.57
197.528	-38.4
197.747	-30.21
197.966	82.43
198.185	131.58
198.404	4.61
198.623	43.52
198.842	53.76
199.062	8.7
199.281	18.94
199.5	10.75
199.719	-11.78
199.938	-11.78
200.157	57.86
200.376	59.9
200.595	27.14
200.814	43.52
201.033	37.38
201.252	68.09
201.471	78.33
201.69	41.47
201.909	51.71
202.128	-30.21
202.347	29.18
202.566	18.94
202.785	43.52
203.004	92.67
203.223	-3.58
203.442	51.71
203.661	-24.06
203.879	-7.68
204.098	4.61
204.317	61.95
204.536	18.94
204.755	61.95
204.974	59.9
205.193	51.71
205.411	57.86
205.63	-19.97
205.849	33.28
206.068	41.47
206.287	-9.73
206.505	78.33
206.724	43.52
206.943	6.66
207.162	29.18
207.381	-36.35
207.599	27.14
207.818	70.14
208.037	27.14
208.255	2.56
208.474	16.9
208.693	68.09
208.911	57.86
209.13	25.09
209.349	-32.26
209.567	43.52
209.786	123.39
210.005	74.24
210.223	10.75
210.442	6.66
210.661	16.9
210.879	49.66
211.098	-56.83
211.316	0.51
211.535	33.28
211.753	10.75
211.972	2.56
212.191	-9.73
212.409	-15.87
212.628	39.42
212.846	-48.64
213.065	33.28
213.283	33.28
213.502	-3.58
213.72	84.48
213.938	-7.68
214.157	33.28
214.375	-36.35
214.594	-13.82
214.812	2.56
215.031	-7.68
215.249	-1.54
215.467	2.56
215.686	-32.26
215.904	47.62
216.122	41.47
216.341	92.67
216.559	-36.35
216.778	33.28
216.996	66.05
217.214	8.7
217.432	20.99
217.651	29.18
217.869	41.47
218.087	53.76
218.306	12.8
218.524	-11.78
218.742	39.42
218.96	64
219.179	25.09
219.397	25.09
219.615	43.52
219.833	41.47
220.051	-30.21
220.27	18.94
220.488	51.71
220.706	41.47
220.924	0.51
221.142	35.33
221.36	27.14
221.578	29.18
221.796	33.28
222.015	76.29
222.233	66.05
222.451	86.53
222.669	-5.63
222.887	43.52
223.105	-9.73
223.323	-30.21
223.541	41.47
223.759	27.14
223.977	-1.54
224.195	66.05
224.413	57.86
224.631	51.71
224.849	25.09
225.067	0.51
225.285	-3.58
225.503	-17.92
225.721	14.85
225.939	90.62
226.157	-26.11
226.375	125.44
226.592	55.81
226.81	10.75
227.028	-28.16
227.246	37.38
227.464	37.38
227.682	-40.45
227.9	92.67
228.117	-5.63
228.335	57.86
228.553	39.42
228.771	-15.87
228.989	-36.35
229.206	33.28
229.424	-11.78
229.642	-22.02
229.86	41.47
230.077	76.29
230.295	-7.68
230.513	35.33
230.731	59.9
230.948	96.77
231.166	66.05
231.384	51.71
231.601	-7.68
231.819	78.33
232.037	-46.59
232.254	-50.69
232.472	70.14
232.689	43.52
232.907	43.52
233.125	-7.68
233.342	72.19
233.56	-40.45
233.777	-34.3
233.995	23.04
234.213	88.57
234.43	31.23
234.648	88.57
234.865	47.62
235.083	59.9
235.3	20.99
235.518	-5.63
235.735	31.23
235.953	-9.73
236.17	59.9
236.388	8.7
236.605	-5.63
236.822	49.66
237.04	-24.06
237.257	102.91
237.475	-7.68
237.692	-5.63
237.909	16.9
238.127	16.9
238.344	-52.74
238.562	119.29
238.779	6.66
238.996	70.14
239.214	66.05
239.431	55.81
239.648	33.28
239.865	-3.58
240.083	31.23
240.3	18.94
240.517	23.04
240.735	53.76
240.952	72.19
241.169	23.04
241.386	16.9
241.603	25.09
241.821	-24.06
242.038	25.09
242.255	29.18
242.472	0.51
242.689	-60.93
242.907	8.7
243.124	68.09
243.341	-7.68
243.558	12.8
243.775	27.14
243.992	-44.54
244.209	25.09
244.426	10.75
244.643	18.94
244.86	-7.68
245.078	-13.82
245.295	57.86
245.512	84.48
245.729	-3.58
245.946	33.28
246.163	29.18
246.38	23.04
246.597	35.33
246.814	61.95
247.031	-3.58
247.248	12.8
247.464	-28.16
247.681	-44.54
247.898	8.7
248.115	74.24
248.332	-73.21
248.549	-15.87
248.766	12.8
248.983	33.28
249.2	14.85
249.417	61.95
249.633	-30.21
249.85	12.8
250.067	33.28
250.284	2.56
250.501	43.52
250.717	25.09
250.934	59.9
251.151	25.09
251.368	12.8
251.585	82.43
251.801	16.9
252.018	-36.35
252.235	35.33
252.451	0.51
252.668	47.62
252.885	29.18
253.102	33.28
253.318	-19.97
253.535	47.62
253.752	-24.06
253.968	57.86
254.185	92.67
254.401	27.14
254.618	31.23
254.835	-1.54
255.051	125.44
255.268	-11.78
255.484	18.94
255.701	33.28
255.917	12.8
256.134	-9.73
256.351	6.66
256.567	0.51
256.784	4.61
257	-5.63
257.217	8.7
257.433	59.9
257.65	-36.35
257.866	8.7
258.082	109.05
258.299	20.99
258.515	37.38
258.732	-56.83
258.948	94.72
259.165	68.09
259.381	-13.82
259.597	10.75
259.814	2.56
260.03	-32.26
260.246	8.7
260.463	29.18
260.679	-24.06
260.895	16.9
261.112	64
261.328	-26.11
261.544	-15.87
261.761	127.49
261.977	10.75
262.193	20.99
262.409	74.24
262.626	39.42
262.842	0.51
263.058	-19.97
263.274	33.28
263.49	49.66
263.707	86.53
263.923	45.57
264.139	-40.45
264.355	25.09
264.571	27.14
264.787	41.47
265.004	10.75
265.22	8.7
265.436	16.9
265.652	14.85
265.868	-19.97
266.084	37.38
266.3	68.09
266.516	-11.78
266.732	16.9
266.948	8.7
267.164	-15.87
267.38	8.7
267.596	100.86
267.812	68.09
268.028	10.75
268.244	64
268.46	-3.58
268.676	41.47
268.892	45.57
269.108	-38.4
269.324	27.14
269.54	49.66
269.756	-22.02
269.972	51.71
270.188	-15.87
270.403	-62.98
270.619	33.28
270.835	84.48
271.051	-28.16
271.267	8.7
271.483	-13.82
271.698	61.95
271.914	100.86
272.13	-28.16
272.346	-54.78
272.562	78.33
272.777	43.52
272.993	-24.06
273.209	10.75
273.425	-58.88
273.64	8.7
273.856	-7.68
274.072	16.9
274.287	-42.5
274.503	45.57
274.719	-22.02
274.934	72.19
275.15	31.23
275.366	-5.63
275.581	20.99
275.797	-5.63
276.012	59.9
276.228	8.7
276.444	-3.58
276.659	53.76
276.875	-3.58
277.09	-24.06
277.306	49.66
277.521	-24.06
277.737	-26.11
277.952	16.9
278.168	72.19
278.383	-48.64
278.599	68.09
278.814	4.61
279.03	8.7
279.245	47.62
279.461	-50.69
279.676	78.33
279.892	57.86
280.107	100.86
280.322	39.42
280.538	-15.87
280.753	6.66
280.969	-11.78
281.184	-7.68
281.399	47.62
281.615	90.62
281.83	31.23
282.045	20.99
282.26	-13.82
282.476	29.18
282.691	2.56
282.906	92.67
283.122	131.58
283.337	18.94
283.552	25.09
283.767	12.8
283.983	70.14
284.198	104.96
284.413	12.8
284.628	72.19
284.843	49.66
285.058	41.47
285.274	51.71
285.489	8.7
285.704	74.24
285.919	-101.89
286.134	-42.5
286.349	88.57
286.564	33.28
286.779	88.57
286.995	66.05
287.21	-28.16
287.425	-30.21
287.64	-19.97
287.855	18.94
288.07	-67.07
288.285	64
288.5	37.38
288.715	25.09
288.93	-9.73
289.145	0.51
289.36	49.66
289.575	33.28
289.79	-11.78
290.004	86.53
290.219	-7.68
290.434	12.8
290.649	25.09
290.864	12.8
291.079	23.04
291.294	20.99
291.509	23.04
291.724	39.42
291.938	43.52
292.153	-5.63
292.368	27.14
292.583	-26.11
292.798	76.29
293.012	70.14
293.227	27.14
293.442	68.09
293.657	27.14
293.871	25.09
294.086	4.61
294.301	35.33
294.516	92.67
294.73	-32.26
294.945	6.66
295.16	-5.63
295.374	41.47
295.589	49.66
295.804	72.19
296.018	59.9
296.233	68.09
296.447	27.14
296.662	59.9
296.877	55.81
297.091	39.42
297.306	55.81
297.52	-28.16
297.735	66.05
297.949	82.43
298.164	33.28
298.378	-1.54
298.593	6.66
298.807	-36.35
299.022	33.28
299.236	18.94
299.451	82.43
299.665	53.76
299.88	27.14
300.094	25.09
300.309	-13.82
300.523	37.38
300.737	43.52
300.952	43.52
301.166	-7.68
301.381	-54.78
301.595	53.76
301.809	59.9
302.024	96.77
302.238	57.86
302.452	33.28
302.667	35.33
302.881	125.44
303.095	90.62
303.309	-19.97
303.524	25.09
303.738	8.7
303.952	20.99
304.166	-11.78
304.381	-3.58
304.595	84.48
304.809	-22.02
305.023	-1.54
305.237	12.8
305.452	76.29
305.666	12.8
305.88	49.66
306.094	20.99
306.308	70.14
306.522	-58.88
306.736	-22.02
306.95	47.62
307.164	4.61
307.379	8.7
307.593	72.19
307.807	51.71
308.021	10.75
308.235	43.52
308.449	20.99
308.663	6.66
308.877	78.33
309.091	4.61
309.305	23.04
309.519	8.7
309.733	82.43
309.947	72.19
310.161	-13.82
310.374	-7.68
310.588	20.99
310.802	-38.4
311.016	6.66
311.23	53.76
311.444	-3.58
311.658	31.23
311.872	51.71
312.085	20.99
312.299	-15.87
312.513	16.9
312.727	80.38
312.941	-3.58
313.154	74.24
313.368	-54.78
313.582	80.38
313.796	37.38
314.009	90.62
314.223	76.29
314.437	82.43
314.651	33.28
314.864	14.85
315.078	-32.26
315.292	55.81
315.505	31.23
315.719	8.7
315.933	18.94
316.146	-48.64
316.36	-15.87
316.573	74.24
316.787	82.43
317.001	84.48
317.214	-3.58
317.428	4.61
317.641	-85.5
317.855	49.66
318.068	-13.82
318.282	-22.02
318.495	25.09
318.709	80.38
318.922	-17.92
319.136	74.24
319.349	98.81
319.563	0.51
319.776	25.09
319.99	16.9
320.203	78.33
320.417	10.75
320.63	-15.87
320.843	47.62
321.057	12.8
321.27	31.23
321.483	31.23
321.697	0.51
321.91	61.95
322.124	41.47
322.337	74.24
322.55	0.51
322.763	51.71
322.977	-15.87
323.19	-15.87
323.403	33.28
323.617	33.28
323.83	31.23
324.043	33.28
324.256	57.86
324.469	-17.92
324.683	55.81
324.896	-32.26
325.109	12.8
325.322	2.56
325.535	29.18
325.748	33.28
325.962	37.38
326.175	-28.16
326.388	25.09
326.601	0.51
326.814	41.47
327.027	-30.21
327.24	74.24
327.453	8.7
327.666	20.99
327.879	25.09
328.092	88.57
328.305	12.8
328.518	100.86
328.731	45.57
328.944	14.85
329.157	-19.97
329.37	8.7
329.583	53.76
329.796	88.57
330.009	68.09
330.222	12.8
330.435	31.23
330.648	111.1
330.861	25.09
331.073	-5.63
331.286	33.28
331.499	-28.16
331.712	45.57
331.925	8.7
332.138	90.62
332.35	86.53
332.563	12.8
332.776	125.44
332.989	-24.06
333.202	68.09
333.414	4.61
333.627	-60.93
333.84	2.56
334.053	-24.06
334.265	-3.58
334.478	-24.06
334.691	25.09
334.903	100.86
335.116	18.94
335.329	-15.87
335.541	-7.68
335.754	61.95
335.966	0.51
336.179	-71.17
336.392	14.85
336.604	2.56
336.817	35.33
337.029	39.42
337.242	12.8
337.454	90.62
337.667	-36.35
337.88	84.48
338.092	-44.54
338.305	25.09
338.517	4.61
338.729	33.28
338.942	23.04
339.154	-32.26
339.367	12.8
339.579	76.29
339.792	14.85
340.004	25.09
340.217	-24.06
340.429	18.94
340.641	0.51
340.854	-52.74
341.066	39.42
341.278	8.7
341.491	59.9
341.703	16.9
341.915	14.85
342.128	35.33
342.34	0.51
342.552	16.9
342.764	31.23
342.977	59.9
343.189	2.56
343.401	64
343.613	-9.73
343.826	-15.87
344.038	-22.02
344.25	-1.54
344.462	31.23
344.674	53.76
344.886	47.62
345.099	41.47
345.311	33.28
345.523	102.91
345.735	47.62
345.947	45.57
346.159	45.57
346.371	25.09
346.583	-1.54
346.795	49.66
347.007	10.75
347.219	39.42
347.431	8.7
347.643	66.05
347.855	27.14
348.067	29.18
348.279	39.42
348.491	-22.02
348.703	-9.73
348.915	-26.11
349.127	43.52
349.339	25.09
349.551	-42.5
349.763	43.52
349.975	6.66
350.187	-1.54
350.399	27.14
350.61	16.9
350.822	-24.06
351.034	82.43
351.246	-7.68
351.458	76.29
351.669	8.7
351.881	49.66
352.093	61.95
352.305	31.23
352.517	8.7
352.728	45.57
352.94	49.66
353.152	57.86
353.363	74.24
353.575	51.71
353.787	49.66
353.999	57.86
354.21	88.57
354.422	78.33
354.633	-1.54
354.845	45.57
355.057	-17.92
355.268	-5.63
355.48	0.51
355.692	2.56
355.903	-26.11
356.115	57.86
356.326	-97.79
356.538	49.66
356.749	55.81
356.961	0.51
357.172	14.85
357.384	37.38
357.595	53.76
357.807	-46.59
358.018	39.42
358.23	51.71
358.441	27.14
358.653	45.57
358.864	41.47
359.075	-17.92
359.287	-48.64
359.498	37.38
359.709	53.76
359.921	78.33
360.132	33.28
360.344	43.52
360.555	-77.31
360.766	64
360.977	66.05
361.189	8.7
361.4	29.18
361.611	98.81
361.823	55.81
362.034	90.62
362.245	-7.68
362.456	-40.45
362.667	14.85
362.879	20.99
363.09	57.86
363.301	80.38
363.512	-22.02
363.723	68.09
363.935	0.51
364.146	25.09
364.357	64
364.568	41.47
364.779	8.7
364.99	90.62
365.201	-5.63
365.412	70.14
365.623	31.23
365.834	-17.92
366.045	57.86
366.256	33.28
366.467	88.57
366.678	-28.16
366.889	27.14
367.1	-5.63
367.311	31.23
367.522	47.62
367.733	25.09
367.944	-7.68
368.155	45.57
368.366	109.05
368.577	14.85
368.788	18.94
368.999	27.14
369.209	88.57
369.42	129.53
369.631	45.57
369.842	37.38
370.053	27.14
370.264	29.18
370.474	8.7
370.685	-7.68
370.896	0.51
371.107	18.94
371.317	49.66
371.528	37.38
371.739	76.29
371.95	76.29
372.16	82.43
372.371	20.99
372.582	-7.68
372.792	74.24
373.003	14.85
373.214	57.86
373.424	43.52
373.635	10.75
373.846	39.42
374.056	49.66
374.267	8.7
374.477	-13.82
374.688	29.18
374.898	47.62
375.109	90.62
375.319	74.24
375.53	100.86
375.74	29.18
375.951	53.76
376.161	51.71
376.372	76.29
376.582	115.2
376.793	14.85
377.003	2.56
377.214	20.99
377.424	6.66
377.635	82.43
377.845	-24.06
378.055	16.9
378.266	-24.06
378.476	20.99
378.686	49.66
378.897	94.72
379.107	41.47
379.317	55.81
379.528	8.7
379.738	117.25
379.948	2.56
380.158	33.28
380.369	55.81
380.579	127.49
380.789	61.95
380.999	37.38
381.21	23.04
381.42	92.67
381.63	-22.02
381.84	31.23
382.05	57.86
382.261	43.52
382.471	33.28
382.681	35.33
382.891	51.71
383.101	41.47
383.311	-36.35
383.521	8.7
383.731	59.9
383.941	109.05
384.151	45.57
384.361	18.94
384.571	72.19
384.781	57.86
384.991	80.38
385.201	76.29
385.411	92.67
385.621	31.23
385.831	10.75
386.041	6.66
386.251	55.81
386.461	66.05
386.671	-5.63
386.881	41.47
387.091	59.9
387.301	53.76
387.511	8.7
387.72	100.86
387.93	6.66
388.14	8.7
388.35	70.14
388.56	20.99
388.769	55.81
388.979	-22.02
389.189	-17.92
389.399	8.7
389.609	31.23
389.818	16.9
390.028	8.7
390.238	2.56
390.447	-24.06
390.657	0.51
390.867	66.05
391.076	119.29
391.286	0.51
391.496	43.52
391.705	20.99
391.915	-24.06
392.125	80.38
392.334	29.18
392.544	66.05
392.753	-13.82
392.963	29.18
393.172	147.97
393.382	-11.78
393.591	37.38
393.801	-7.68
394.01	115.2
394.22	55.81
394.429	90.62
394.639	86.53
394.848	51.71
395.058	86.53
395.267	74.24
395.477	98.81
395.686	82.43
395.895	57.86
396.105	100.86
396.314	61.95
396.524	-30.21
396.733	-7.68
396.942	10.75
397.152	129.53
397.361	98.81
397.57	43.52
397.78	39.42
397.989	37.38
398.198	133.63
398.407	61.95
398.617	57.86
398.826	-13.82
399.035	51.71
399.244	82.43
399.453	96.77
399.663	-5.63
399.872	66.05
400.081	68.09
400.29	100.86
400.499	51.71
400.708	59.9
400.917	0.51
401.127	117.25
401.336	64
401.545	39.42
401.754	139.77
401.963	74.24
402.172	39.42
402.381	86.53
402.59	61.95
402.799	90.62
403.008	107.01
403.217	117.25
403.426	127.49
403.635	37.38
403.844	4.61
404.053	88.57
404.262	25.09
404.471	127.49
404.68	119.29
404.888	51.71
405.097	18.94
405.306	98.81
405.515	125.44
405.724	111.1
405.933	111.1
406.142	90.62
406.35	129.53
406.559	51.71
406.768	115.2
406.977	96.77
407.185	100.86
407.394	82.43
407.603	31.23
407.812	107.01
408.02	104.96
408.229	61.95
408.438	82.43
408.646	104.96
408.855	113.15
409.064	172.54
409.272	84.48
409.481	158.21
409.69	102.91
409.898	137.73
410.107	182.78
410.315	172.54
410.524	139.77
410.733	172.54
410.941	178.69
411.15	209.4
411.358	172.54
411.567	160.25
411.775	156.16
411.984	166.4
412.192	215.55
412.401	217.6
412.609	207.36
412.818	283.13
413.026	199.16
413.234	215.55
413.443	174.59
413.651	227.84
413.86	170.49
414.068	256.51
414.276	289.28
414.485	215.55
414.693	344.57
414.901	375.29
415.11	303.61
415.318	387.58
415.526	330.23
415.734	416.25
415.943	385.53
416.151	383.48
416.359	307.71
416.567	377.34
416.776	446.97
416.984	428.54
417.192	369.15
417.4	334.33
417.608	449.02
417.817	494.07
418.025	487.93
418.233	512.5
418.441	426.49
418.649	502.26
418.857	549.37
419.065	557.56
419.273	473.59
419.481	633.33
419.689	629.24
419.897	659.96
420.105	606.71
420.313	688.63
420.521	659.96
420.729	809.46
420.937	674.29
421.145	772.6
421.353	872.95
421.561	928.24
421.769	969.2
421.977	858.61
422.185	852.47
422.393	885.23
422.601	999.92
422.809	975.35
423.017	1001.97
423.224	1122.8
423.432	1044.98
423.64	1159.66
423.848	1243.63
424.056	1237.49
424.263	1303.02
424.471	1223.15
424.679	1331.69
424.887	1325.55
425.094	1298.92
425.302	1386.99
425.51	1466.86
425.718	1505.77
425.925	1483.24
426.133	1567.21
426.341	1708.52
426.548	1706.47
426.756	1694.18
426.964	1690.09
427.171	1765.86
427.379	1759.72
427.586	2011.62
427.794	1944.03
428.001	2083.3
428.209	2243.04
428.417	2132.45
428.624	2247.13
428.832	2298.33
429.039	2220.51
429.247	2220.51
429.454	2564.57
429.662	2578.9
429.869	2415.07
430.076	2632.15
430.284	2642.39
430.491	2683.35
430.699	2877.91
430.906	2777.56
431.114	2888.15
431.321	2949.59
431.528	3008.98
431.736	3211.73
431.943	3475.91
432.15	3258.83
432.358	3238.35
432.565	3359.18
432.772	3492.3
432.979	3613.13
433.187	3674.57
433.394	3729.86
433.601	3924.42
433.808	4022.72
434.016	4055.49
434.223	4233.66
434.43	4325.82
434.637	4334.01
434.844	4661.69
435.052	4694.46
435.259	4633.02
435.466	4520.38
435.673	4524.47
435.88	4905.4
436.087	5269.94
436.294	5163.44
436.501	5276.08
436.708	5132.72
436.915	5351.85
437.122	5599.66
437.329	5517.74
437.537	5869.99
437.743	5691.82
437.95	5814.7
438.157	6072.74
438.364	6365.6
438.571	6242.72
438.778	6369.69
438.985	6826.39
439.192	6584.73
439.399	6951.32
439.606	6607.26
439.813	7029.14
440.02	7653.77
440.227	7467.41
440.433	7375.25
440.64	7502.22
440.847	7537.04
441.054	7868.81
441.261	8360.32
441.467	8296.83
441.674	8358.27
441.881	8677.76
442.088	8587.64
442.294	8540.54
442.501	8667.52
442.708	9038.2
442.914	9275.76
443.121	9673.07
443.328	9468.27
443.534	10070.37
443.741	9847.15
443.948	9521.52
444.154	10475.87
444.361	10326.37
444.568	10498.4
444.774	10389.86
444.981	10568.03
445.187	10797.4
445.394	11319.64
445.6	11348.31
445.807	11850.06
446.013	11762
446.22	11897.16
446.426	12323.14
446.633	12472.64
446.839	12779.84
447.046	12460.35
447.252	13007.16
447.459	13089.08
447.665	13263.16
447.871	13650.22
448.078	14209.32
448.284	13564.21
448.491	14016.81
448.697	14502.18
448.903	14762.27
449.11	14842.14
449.316	14717.22
449.522	14772.51
449.728	15446.29
449.935	15479.06
450.141	15288.6
450.347	15761.68
450.553	15276.31
450.76	15442.2
450.966	16070.92
451.172	15950.09
451.378	16378.12
451.584	15874.32
451.791	16453.89
451.997	16281.86
452.203	16541.96
452.409	16515.33
452.615	16675.07
452.821	15780.11
453.027	15741.2
453.233	16668.93
453.44	16029.96
453.646	16216.33
453.852	16529.67
454.058	16400.65
454.264	16257.29
454.47	16214.28
454.676	15905.04
454.882	16763.14
455.088	15288.6
455.294	15343.89
455.5	15565.07
455.705	15991.05
455.911	15132.95
456.117	14999.84
456.323	14825.76
456.529	13871.4
456.735	14491.94
456.941	14246.18
457.147	13943.08
457.352	13623.6
457.558	13615.41
457.764	13566.26
457.97	13181.24
458.176	12896.57
458.381	12831.04
458.587	12384.58
458.793	12212.55
458.999	11704.65
459.204	12675.39
459.41	11886.92
459.616	11403.6
459.821	11393.36
460.027	11227.48
460.233	11231.57
460.438	10684.76
460.644	10836.31
460.85	10027.37
461.055	10148.2
461.261	9847.15
461.466	9101.69
461.672	8845.69
461.878	9693.55
462.083	9181.56
462.289	8712.57
462.494	9001.33
462.7	8407.42
462.905	8348.03
463.111	8495.49
463.316	8657.28
463.522	8360.32
463.727	8382.85
463.932	8192.39
464.138	8012.17
464.343	8194.43
464.549	8038.79
464.754	8305.03
464.959	8130.95
465.165	8106.37
465.37	7651.72
465.575	7764.36
465.781	7967.11
465.986	8075.65
466.191	7643.53
466.397	7350.67
466.602	7012.76
466.807	7520.65
467.012	7344.53
467.218	7510.41
467.423	7168.4
467.628	7281.04
467.833	7436.69
468.038	7244.18
468.244	7004.57
468.449	7332.24
468.654	7152.02
468.859	7076.24
469.064	7084.44
469.269	6703.51
469.474	6861.21
469.679	6971.8
469.885	6658.46
