Data from USB4F104151__27__12-17-40-669.txt Node

Date: Wed Feb 19 12:17:40 EST 2025
User: louis
Spectrometer: USB4F10415
Trigger mode: 4
Integration Time (sec): 2.250200E-1
Scans to average: 1
Electric dark correction enabled: true
Nonlinearity correction enabled: false
Boxcar width: 0
XAxis mode: Wavelengths
Number of Pixels in Spectrum: 3648
>>>>>Begin Spectral Data<<<<<
178.204	-800.24
178.424	-800.24
178.644	-800.24
178.864	-796.15
179.084	-871.92
179.304	113.15
179.524	129.53
179.744	-3.58
179.964	-192
180.184	242.17
180.404	207.36
180.624	-280.06
180.844	-73.21
181.064	-3.58
181.283	193.02
181.503	-198.14
181.723	-134.65
181.943	-24.06
182.163	424.44
182.383	-255.48
182.602	-146.94
182.822	430.59
183.042	252.41
183.262	-204.28
183.482	-267.77
183.701	150.01
183.921	246.27
184.141	-153.09
184.361	-171.52
184.58	231.93
184.8	293.37
185.02	-175.61
185.239	-60.93
185.459	293.37
185.679	395.77
185.898	-273.92
186.118	-239.1
186.338	227.84
186.557	328.19
186.777	-239.1
186.997	-212.48
187.216	197.12
187.436	465.4
187.655	-105.98
187.875	-116.22
188.095	193.02
188.314	324.09
188.534	-89.6
188.753	-206.33
188.973	342.52
189.192	442.87
189.412	-245.24
189.631	-169.47
189.851	315.9
190.07	563.7
190.29	-218.62
190.509	-208.38
190.729	242.17
190.948	324.09
191.168	-34.3
191.387	-136.7
191.607	213.5
191.826	303.61
192.045	-163.33
192.265	-216.57
192.484	350.71
192.704	285.18
192.923	-206.33
193.142	14.85
193.362	340.47
193.581	416.25
193.8	-181.76
194.02	-146.94
194.239	231.93
194.458	279.04
194.678	-124.41
194.897	-216.57
195.116	283.13
195.335	285.18
195.555	-130.56
195.774	-183.81
195.993	344.57
196.212	201.21
196.432	-179.71
196.651	-206.33
196.87	147.97
197.089	602.61
197.308	-232.96
197.528	-77.31
197.747	37.38
197.966	209.4
198.185	-28.16
198.404	-243.2
198.623	264.7
198.842	393.72
199.062	-108.03
199.281	-56.83
199.5	272.89
199.719	270.84
199.938	-216.57
200.157	-134.65
200.376	344.57
200.595	385.53
200.814	-99.84
201.033	-181.76
201.252	397.82
201.471	233.98
201.69	-97.79
201.909	-89.6
202.128	274.94
202.347	231.93
202.566	-105.98
202.785	-235
203.004	131.58
203.223	522.74
203.442	-79.36
203.661	-249.34
203.879	295.42
204.098	414.2
204.317	-159.23
204.536	-46.59
204.755	463.35
204.974	348.67
205.193	-286.2
205.411	-36.35
205.63	385.53
205.849	397.82
206.068	-189.95
206.287	-232.96
206.505	442.87
206.724	145.92
206.943	-171.52
207.162	-255.48
207.381	236.03
207.599	174.59
207.818	-120.32
208.037	-232.96
208.255	199.16
208.474	205.31
208.693	-169.47
208.911	-177.66
209.13	289.28
209.349	369.15
209.567	20.99
209.786	-148.99
210.005	352.76
210.223	244.22
210.442	-333.31
210.661	-220.67
210.879	256.51
211.098	295.42
211.316	-108.03
211.535	-196.09
211.753	313.85
211.972	332.28
212.191	-71.17
212.409	-146.94
212.628	336.38
212.846	137.73
213.065	-208.38
213.283	-93.69
213.502	141.82
213.72	233.98
213.938	-196.09
214.157	-120.32
214.375	348.67
214.594	229.88
214.812	-108.03
215.031	-130.56
215.249	215.55
215.467	276.99
215.686	-60.93
215.904	-81.41
216.122	213.5
216.341	434.68
216.559	-48.64
216.778	-103.93
216.996	463.35
217.214	156.16
217.432	-87.55
217.651	-257.53
217.869	238.08
218.087	287.23
218.306	-267.77
218.524	-222.72
218.742	236.03
218.96	365.05
219.179	-192
219.397	-144.89
219.615	498.17
219.833	328.19
220.051	-224.76
220.27	-71.17
220.488	346.62
220.706	369.15
220.924	-241.15
221.142	-198.14
221.36	252.41
221.578	242.17
221.796	-183.81
222.015	-58.88
222.233	207.36
222.451	360.95
222.669	-85.5
222.887	-22.02
223.105	74.24
223.323	244.22
223.541	-118.27
223.759	-24.06
223.977	225.79
224.195	455.16
224.413	-101.89
224.631	-167.42
224.849	248.32
225.067	524.79
225.285	-52.74
225.503	-165.37
225.721	-3.58
225.939	217.6
226.157	-44.54
226.375	14.85
226.592	162.3
226.81	137.73
227.028	-50.69
227.246	-122.37
227.464	346.62
227.682	338.43
227.9	-167.42
228.117	-101.89
228.335	244.22
228.553	182.78
228.771	-185.85
228.989	-181.76
229.206	328.19
229.424	90.62
229.642	-105.98
229.86	-122.37
230.077	506.36
230.295	217.6
230.513	-15.87
230.731	-142.85
230.948	340.47
231.166	348.67
231.384	-58.88
231.601	-175.61
231.819	377.34
232.037	107.01
232.254	-17.92
232.472	-181.76
232.689	78.33
232.907	307.71
233.125	-202.24
233.342	-204.28
233.56	162.3
233.777	90.62
233.995	-167.42
234.213	-116.22
234.43	184.83
234.648	123.39
234.865	-173.57
235.083	-67.07
235.3	233.98
235.518	348.67
235.735	-114.17
235.953	-77.31
236.17	178.69
236.388	203.26
236.605	29.18
236.822	-130.56
237.04	381.43
237.257	244.22
237.475	-142.85
237.692	-136.7
237.909	289.28
238.127	176.64
238.344	-38.4
238.562	-110.08
238.779	37.38
238.996	76.29
239.214	-40.45
239.431	-99.84
239.648	164.35
239.865	281.08
240.083	-108.03
240.3	-206.33
240.517	80.38
240.735	236.03
240.952	18.94
241.169	-165.37
241.386	344.57
241.603	178.69
241.821	-161.28
242.038	-58.88
242.255	309.76
242.472	12.8
242.689	-112.13
242.907	-110.08
243.124	217.6
243.341	221.69
243.558	-110.08
243.775	-189.95
243.992	-36.35
244.209	238.08
244.426	18.94
244.643	-30.21
244.86	143.87
245.078	260.6
245.295	0.51
245.512	-116.22
245.729	115.2
245.946	256.51
246.163	-116.22
246.38	-187.9
246.597	193.02
246.814	236.03
247.031	-99.84
247.248	-226.81
247.464	332.28
247.681	215.55
247.898	-179.71
248.115	-67.07
248.332	156.16
248.549	430.59
248.766	61.95
248.983	-50.69
249.2	289.28
249.417	381.43
249.633	-112.13
249.85	-85.5
250.067	174.59
250.284	199.16
250.501	-73.21
250.717	-114.17
250.934	57.86
251.151	188.93
251.368	-11.78
251.585	-140.8
251.801	264.7
252.018	35.33
252.235	82.43
252.451	-103.93
252.668	152.06
252.885	406.01
253.102	-112.13
253.318	-173.57
253.535	172.54
253.752	129.53
253.968	-134.65
254.185	-255.48
254.401	285.18
254.618	307.71
254.835	-44.54
255.051	-11.78
255.268	365.05
255.484	168.45
255.701	-122.37
255.917	-99.84
256.134	53.76
256.351	211.45
256.567	-148.99
256.784	-3.58
257	-110.08
257.217	410.11
257.433	74.24
257.65	-132.61
257.866	457.21
258.082	-26.11
258.299	-79.36
258.515	-34.3
258.732	141.82
258.948	66.05
259.165	-69.12
259.381	-241.15
259.597	313.85
259.814	178.69
260.03	-116.22
260.246	-81.41
260.463	389.63
260.679	365.05
260.895	25.09
261.112	43.52
261.328	225.79
261.544	55.81
261.761	-48.64
261.977	-132.61
262.193	76.29
262.409	291.32
262.626	-38.4
262.842	-134.65
263.058	98.81
263.274	276.99
263.49	-67.07
263.707	-247.29
263.923	279.04
264.139	29.18
264.355	-73.21
264.571	-62.98
264.787	223.74
265.004	289.28
265.22	6.66
265.436	-132.61
265.652	227.84
265.868	264.7
266.084	-192
266.3	-97.79
266.516	102.91
266.732	178.69
266.948	-99.84
267.164	-114.17
267.38	289.28
267.596	297.47
267.812	-9.73
268.028	-17.92
268.244	160.25
268.46	233.98
268.676	-62.98
268.892	23.04
269.108	20.99
269.324	80.38
269.54	-198.14
269.756	-44.54
269.972	14.85
270.188	225.79
270.403	-93.69
270.619	-159.23
270.835	166.4
271.051	209.4
271.267	-116.22
271.483	-118.27
271.698	305.66
271.914	266.75
272.13	-13.82
272.346	-83.45
272.562	143.87
272.777	367.1
272.993	-85.5
273.209	-159.23
273.425	233.98
273.64	39.42
273.856	-42.5
274.072	-255.48
274.287	111.1
274.503	328.19
274.719	49.66
274.934	-200.19
275.15	18.94
275.366	121.34
275.581	-124.41
275.797	-48.64
276.012	184.83
276.228	61.95
276.444	-50.69
276.659	121.34
276.875	45.57
277.09	96.77
277.306	-32.26
277.521	-30.21
277.737	233.98
277.952	197.12
278.168	-165.37
278.383	-40.45
278.599	107.01
278.814	299.52
279.03	-58.88
279.245	59.9
279.461	248.32
279.676	242.17
279.892	-28.16
280.107	-105.98
280.322	119.29
280.538	297.47
280.753	-105.98
280.969	-87.55
281.184	186.88
281.399	307.71
281.615	6.66
281.83	94.72
282.045	2.56
282.26	20.99
282.476	-52.74
282.691	-17.92
282.906	242.17
283.122	168.45
283.337	-46.59
283.552	43.52
283.767	150.01
283.983	219.64
284.198	-85.5
284.413	-46.59
284.628	66.05
284.843	121.34
285.058	-24.06
285.274	-1.54
285.489	29.18
285.704	205.31
285.919	-146.94
286.134	49.66
286.349	84.48
286.564	123.39
286.779	39.42
286.995	-13.82
287.21	10.75
287.425	276.99
287.64	-60.93
287.855	170.49
288.07	12.8
288.285	307.71
288.5	0.51
288.715	37.38
288.93	266.75
289.145	53.76
289.36	-73.21
289.575	0.51
289.79	301.56
290.004	125.44
290.219	29.18
290.434	-71.17
290.649	117.25
290.864	123.39
291.079	-38.4
291.294	107.01
291.509	297.47
291.724	111.1
291.938	-132.61
292.153	-126.46
292.368	221.69
292.583	170.49
292.798	29.18
293.012	51.71
293.227	207.36
293.442	197.12
293.657	33.28
293.871	8.7
294.086	274.94
294.301	264.7
294.516	57.86
294.73	47.62
294.945	29.18
295.16	135.68
295.374	31.23
295.589	39.42
295.804	195.07
296.018	227.84
296.233	-67.07
296.447	25.09
296.662	-22.02
296.877	315.9
297.091	45.57
297.306	-15.87
297.52	147.97
297.735	188.93
297.949	14.85
298.164	-110.08
298.378	197.12
298.593	51.71
298.807	-65.02
299.022	-17.92
299.236	373.24
299.451	70.14
299.665	-13.82
299.88	-3.58
300.094	289.28
300.309	131.58
300.523	68.09
300.737	-50.69
300.952	272.89
301.166	180.73
301.381	-83.45
301.595	-124.41
301.809	139.77
302.024	158.21
302.238	-130.56
302.452	92.67
302.667	266.75
302.881	252.41
303.095	27.14
303.309	45.57
303.524	90.62
303.738	51.71
303.952	2.56
304.166	12.8
304.381	-97.79
304.595	246.27
304.809	-46.59
305.023	-15.87
305.237	66.05
305.452	88.57
305.666	-79.36
305.88	55.81
306.094	248.32
306.308	250.36
306.522	-19.97
306.736	-7.68
306.95	258.56
307.164	127.49
307.379	55.81
307.593	90.62
307.807	223.74
308.021	276.99
308.235	188.93
308.449	-87.55
308.663	115.2
308.877	508.41
309.091	98.81
309.305	29.18
309.519	0.51
309.733	365.05
309.947	-97.79
310.161	-38.4
310.374	186.88
310.588	270.84
310.802	-52.74
311.016	-62.98
311.23	262.65
311.444	45.57
311.658	23.04
311.872	125.44
312.085	346.62
312.299	289.28
312.513	242.17
312.727	-38.4
312.941	66.05
313.154	162.3
313.368	53.76
313.582	-19.97
313.796	172.54
314.009	176.64
314.223	102.91
314.437	98.81
314.651	252.41
314.864	4.61
315.078	-97.79
315.292	-65.02
315.505	170.49
315.719	158.21
315.933	72.19
316.146	-42.5
316.36	186.88
316.573	217.6
316.787	156.16
317.001	25.09
317.214	70.14
317.428	133.63
317.641	-105.98
317.855	-5.63
318.068	238.08
318.282	242.17
318.495	145.92
318.709	23.04
318.922	240.12
319.136	414.2
319.349	20.99
319.563	-79.36
319.776	238.08
319.99	-89.6
320.203	18.94
320.417	-11.78
320.63	102.91
320.843	324.09
321.057	111.1
321.27	-1.54
321.483	293.37
321.697	276.99
321.91	-15.87
322.124	55.81
322.337	162.3
322.55	55.81
322.763	18.94
322.977	-91.65
323.19	64
323.403	111.1
323.617	16.9
323.83	182.78
324.043	154.11
324.256	184.83
324.469	-183.81
324.683	123.39
324.896	190.97
325.109	117.25
325.322	-157.18
325.535	39.42
325.748	399.87
325.962	152.06
326.175	115.2
326.388	-34.3
326.601	231.93
326.814	78.33
327.027	-40.45
327.24	94.72
327.453	-26.11
327.666	217.6
327.879	176.64
328.092	64
328.305	129.53
328.518	64
328.731	-5.63
328.944	-17.92
329.157	158.21
329.37	33.28
329.583	186.88
329.796	139.77
330.009	-42.5
330.222	233.98
330.435	64
330.648	14.85
330.861	279.04
331.073	160.25
331.286	92.67
331.499	-17.92
331.712	49.66
331.925	139.77
332.138	102.91
332.35	-24.06
332.563	131.58
332.776	293.37
332.989	-13.82
333.202	-130.56
333.414	213.5
333.627	160.25
333.84	16.9
334.053	20.99
334.265	45.57
334.478	61.95
334.691	16.9
334.903	102.91
335.116	137.73
335.329	209.4
335.541	80.38
335.754	254.46
335.966	117.25
336.179	162.3
336.392	6.66
336.604	88.57
336.817	276.99
337.029	223.74
337.242	-71.17
337.454	61.95
337.667	242.17
337.88	342.52
338.092	135.68
338.305	14.85
338.517	31.23
338.729	129.53
338.942	-13.82
339.154	6.66
339.367	-11.78
339.579	193.02
339.792	-67.07
340.004	49.66
340.217	154.11
340.429	211.45
340.641	-58.88
340.854	-114.17
341.066	156.16
341.278	309.76
341.491	176.64
341.703	-24.06
341.915	113.15
342.128	307.71
342.34	45.57
342.552	-1.54
342.764	248.32
342.977	205.31
343.189	2.56
343.401	90.62
343.613	-34.3
343.826	160.25
344.038	-62.98
344.25	31.23
344.462	70.14
344.674	160.25
344.886	-15.87
345.099	-28.16
345.311	211.45
345.523	104.96
345.735	-73.21
345.947	61.95
346.159	193.02
346.371	299.52
346.583	-28.16
346.795	59.9
347.007	143.87
347.219	254.46
347.431	74.24
347.643	104.96
347.855	51.71
348.067	297.47
348.279	-28.16
348.491	-34.3
348.703	367.1
348.915	133.63
349.127	0.51
349.339	4.61
349.551	100.86
349.763	299.52
349.975	14.85
350.187	70.14
350.399	324.09
350.61	168.45
350.822	-32.26
351.034	80.38
351.246	248.32
351.458	135.68
351.669	57.86
351.881	-22.02
352.093	299.52
352.305	301.56
352.517	23.04
352.728	119.29
352.94	131.58
353.152	242.17
353.363	-87.55
353.575	33.28
353.787	344.57
353.999	182.78
354.21	154.11
354.422	-44.54
354.633	195.07
354.845	139.77
355.057	76.29
355.268	31.23
355.48	248.32
355.692	18.94
355.903	33.28
356.115	-52.74
356.326	-75.26
356.538	371.19
356.749	-56.83
356.961	82.43
357.172	180.73
357.384	39.42
357.595	143.87
357.807	0.51
358.018	117.25
358.23	141.82
358.441	33.28
358.653	16.9
358.864	102.91
359.075	53.76
359.287	-1.54
359.498	121.34
359.709	201.21
359.921	225.79
360.132	23.04
360.344	-116.22
360.555	29.18
360.766	166.4
360.977	16.9
361.189	76.29
361.4	199.16
361.611	256.51
361.823	127.49
362.034	-87.55
362.245	2.56
362.456	229.88
362.667	141.82
362.879	-103.93
363.09	287.23
363.301	207.36
363.512	0.51
363.723	-22.02
363.935	207.36
364.146	301.56
364.357	20.99
364.568	-56.83
364.779	80.38
364.99	238.08
365.201	4.61
365.412	158.21
365.623	20.99
365.834	141.82
366.045	-11.78
366.256	51.71
366.467	252.41
366.678	121.34
366.889	-44.54
367.1	-93.69
367.311	350.71
367.522	102.91
367.733	78.33
367.944	4.61
368.155	174.59
368.366	217.6
368.577	98.81
368.788	84.48
368.999	70.14
369.209	168.45
369.42	68.09
369.631	369.15
369.842	293.37
370.053	88.57
370.264	14.85
370.474	-24.06
370.685	266.75
370.896	154.11
371.107	12.8
371.317	47.62
371.528	98.81
371.739	375.29
371.95	16.9
372.16	-32.26
372.371	53.76
372.582	74.24
372.792	-9.73
373.003	96.77
373.214	283.13
373.424	178.69
373.635	-1.54
373.846	240.12
374.056	195.07
374.267	88.57
374.477	104.96
374.688	-36.35
374.898	193.02
375.109	205.31
375.319	47.62
375.53	6.66
375.74	336.38
375.951	164.35
376.161	86.53
376.372	70.14
376.582	139.77
376.793	307.71
377.003	-9.73
377.214	-56.83
377.424	252.41
377.635	143.87
377.845	-67.07
378.055	59.9
378.266	-19.97
378.476	178.69
378.686	6.66
378.897	55.81
379.107	389.63
379.317	348.67
379.528	-36.35
379.738	109.05
379.948	10.75
380.158	291.32
380.369	-26.11
380.579	39.42
380.789	94.72
380.999	184.83
381.21	111.1
381.42	119.29
381.63	82.43
381.84	244.22
382.05	86.53
382.261	102.91
382.471	246.27
382.681	100.86
382.891	82.43
383.101	129.53
383.311	104.96
383.521	80.38
383.731	14.85
383.941	211.45
384.151	129.53
384.361	14.85
384.571	92.67
384.781	39.42
384.991	233.98
385.201	352.76
385.411	170.49
385.621	20.99
385.831	305.66
386.041	236.03
386.251	92.67
386.461	139.77
386.671	207.36
386.881	225.79
387.091	-5.63
387.301	117.25
387.511	139.77
387.72	242.17
387.93	107.01
388.14	-26.11
388.35	158.21
388.56	375.29
388.769	35.33
388.979	0.51
389.189	78.33
389.399	111.1
389.609	-44.54
389.818	96.77
390.028	207.36
390.238	137.73
390.447	-44.54
390.657	94.72
390.867	215.55
391.076	39.42
391.286	-19.97
391.496	20.99
391.705	199.16
391.915	379.39
392.125	-5.63
392.334	-19.97
392.544	309.76
392.753	225.79
392.963	80.38
393.172	29.18
393.382	184.83
393.591	406.01
393.801	-9.73
394.01	-34.3
394.22	242.17
394.429	129.53
394.639	2.56
394.848	12.8
395.058	225.79
395.267	119.29
395.477	61.95
395.686	70.14
395.895	522.74
396.105	328.19
396.314	80.38
396.524	82.43
396.733	121.34
396.942	334.33
397.152	49.66
397.361	143.87
397.57	111.1
397.78	125.44
397.989	158.21
398.198	233.98
398.407	207.36
398.617	156.16
398.826	70.14
399.035	-1.54
399.244	209.4
399.453	133.63
399.663	16.9
399.872	-69.12
400.081	31.23
400.29	295.42
400.499	4.61
400.708	135.68
400.917	154.11
401.127	129.53
401.336	72.19
401.545	256.51
401.754	326.14
401.963	264.7
402.172	10.75
402.381	-36.35
402.59	240.12
402.799	156.16
403.008	233.98
403.217	51.71
403.426	219.64
403.635	43.52
403.844	-9.73
404.053	-44.54
404.262	141.82
404.471	225.79
404.68	70.14
404.888	70.14
405.097	139.77
405.306	209.4
405.515	31.23
405.724	31.23
405.933	322.04
406.142	184.83
406.35	16.9
406.559	66.05
406.768	186.88
406.977	449.02
407.185	33.28
407.394	27.14
407.603	98.81
407.812	203.26
408.02	176.64
408.229	66.05
408.438	205.31
408.646	29.18
408.855	-36.35
409.064	43.52
409.272	248.32
409.481	207.36
409.69	66.05
409.898	-22.02
410.107	156.16
410.315	264.7
410.524	49.66
410.733	39.42
410.941	213.5
411.15	285.18
411.358	113.15
411.567	190.97
411.775	205.31
411.984	193.02
412.192	98.81
412.401	-9.73
412.609	401.91
412.818	307.71
413.026	152.06
413.234	72.19
413.443	281.08
413.651	25.09
413.86	-34.3
414.068	268.8
414.276	451.07
414.485	88.57
414.693	82.43
414.901	281.08
415.11	186.88
415.318	205.31
415.526	49.66
415.734	96.77
415.943	156.16
416.151	346.62
416.359	6.66
416.567	94.72
416.776	274.94
416.984	285.18
417.192	109.05
417.4	8.7
417.608	178.69
417.817	80.38
418.025	168.45
418.233	102.91
418.441	10.75
418.649	98.81
418.857	137.73
419.065	119.29
419.273	68.09
419.481	242.17
419.689	145.92
419.897	-28.16
420.105	143.87
420.313	332.28
420.521	119.29
420.729	201.21
420.937	125.44
421.145	25.09
421.353	107.01
421.561	283.13
421.769	324.09
421.977	156.16
422.185	123.39
422.393	45.57
422.601	268.8
422.809	276.99
423.017	107.01
423.224	70.14
423.432	373.24
423.64	199.16
423.848	92.67
424.056	33.28
424.263	410.11
424.471	182.78
424.679	219.64
424.887	33.28
425.094	428.54
425.302	250.36
425.51	-77.31
425.718	143.87
425.925	254.46
426.133	88.57
426.341	233.98
426.548	53.76
426.756	193.02
426.964	299.52
427.171	61.95
427.379	164.35
427.586	215.55
427.794	291.32
428.001	227.84
428.209	158.21
428.417	465.4
428.624	317.95
428.832	152.06
429.039	221.69
429.247	203.26
429.454	268.8
429.662	219.64
429.869	158.21
430.076	276.99
430.284	332.28
430.491	94.72
430.699	203.26
430.906	547.32
431.114	334.33
431.321	180.73
431.528	199.16
431.736	240.12
431.943	317.95
432.15	186.88
432.358	217.6
432.565	580.09
432.772	64
432.979	242.17
433.187	199.16
433.394	451.07
433.601	354.81
433.808	344.57
434.016	297.47
434.223	365.05
434.43	414.2
434.637	250.36
434.844	356.86
435.052	389.63
435.259	524.79
435.466	363
435.673	332.28
435.88	514.55
436.087	586.23
436.294	584.18
436.501	438.78
436.708	414.2
436.915	514.55
437.122	578.04
437.329	295.42
437.537	430.59
437.743	537.08
437.95	623.09
438.157	397.82
438.364	569.85
438.571	492.02
438.778	426.49
438.985	532.98
439.192	707.06
439.399	563.7
439.606	549.37
439.813	561.66
440.02	881.14
440.227	965.11
440.433	516.6
440.64	541.18
440.847	653.81
441.054	670.2
441.261	676.34
441.467	684.53
441.674	698.87
441.881	934.39
442.088	575.99
442.294	668.15
442.501	766.45
442.708	885.23
442.914	733.68
443.121	739.83
443.328	930.29
443.534	1100.27
443.741	756.21
443.948	674.29
444.154	954.87
444.361	1241.58
444.568	858.61
444.774	961.01
444.981	975.35
445.187	1260.01
445.394	985.58
445.6	940.53
445.807	1145.33
446.013	1114.61
446.22	963.06
446.426	1079.79
446.633	1294.83
446.839	1522.15
447.046	1092.08
447.252	1266.16
447.459	1315.31
447.665	1323.5
447.871	1249.77
448.078	1710.57
448.284	1569.26
448.491	1841.64
448.697	1585.64
448.903	1661.41
449.11	1747.43
449.316	1673.7
449.522	1753.57
449.728	1827.3
449.935	1968.61
450.141	1911.27
450.347	2017.76
450.553	1915.36
450.76	2200.03
450.966	2234.85
451.172	2093.54
451.378	2269.66
451.584	2423.26
451.791	2671.06
451.997	2462.17
452.203	2539.99
452.409	2808.28
452.615	2683.35
452.821	2529.75
453.027	2607.58
453.233	3129.81
453.44	3011.03
453.646	2769.37
453.852	2955.73
454.058	2873.81
454.264	3191.25
454.47	3228.11
454.676	3170.77
454.882	3590.6
455.088	3383.76
455.294	3299.79
455.5	3488.2
455.705	3893.7
455.911	3609.03
456.117	3606.98
456.323	3559.88
456.529	3670.47
456.735	3922.37
456.941	3596.75
457.147	3729.86
457.352	3940.8
457.558	3746.25
457.764	3801.54
457.97	3744.2
458.176	4166.08
458.381	4268.48
458.587	3871.17
458.793	4049.35
458.999	3973.57
459.204	4340.16
459.41	4186.56
459.616	3985.86
459.821	4239.81
460.027	4045.25
460.233	4178.37
460.438	4022.72
460.644	4178.37
460.85	4102.59
461.055	4153.79
461.261	4069.83
461.466	3854.79
461.672	3910.08
461.878	3918.28
