Data from USB4F104151__37__11-44-57-031.txt Node

Date: Fri Mar 14 11:44:57 EDT 2025
User: louis
Spectrometer: USB4F10415
Trigger mode: 4
Integration Time (sec): 2.000000E-2
Scans to average: 1
Electric dark correction enabled: true
Nonlinearity correction enabled: false
Boxcar width: 0
XAxis mode: Wavelengths
Number of Pixels in Spectrum: 3648
>>>>>Begin Spectral Data<<<<<
178.204	-120.83
178.424	-120.83
178.644	-120.83
178.864	-114.69
179.084	-81.92
179.304	-22.53
179.524	-12.29
179.744	-65.54
179.964	63.49
180.184	-57.34
180.404	-16.38
180.624	65.53
180.844	65.53
181.064	-22.53
181.283	-2.05
181.503	18.43
181.723	-14.34
181.943	8.19
182.163	55.3
182.383	55.3
182.602	38.91
182.822	28.67
183.042	-36.86
183.262	32.77
183.482	-59.39
183.701	2.05
183.921	20.48
184.141	16.38
184.361	30.72
184.58	-55.3
184.8	28.67
185.02	30.72
185.239	141.31
185.459	22.53
185.679	12.29
185.898	-8.19
186.118	34.82
186.338	2.05
186.557	24.58
186.777	-53.25
186.997	65.53
187.216	45.06
187.436	98.3
187.655	-12.29
187.875	-12.29
188.095	26.62
188.314	43.01
188.534	69.63
188.753	26.62
188.973	49.15
189.192	-34.82
189.412	55.3
189.631	8.19
189.851	16.38
190.07	20.48
190.29	94.21
190.509	-4.1
190.729	92.16
190.948	126.97
191.168	65.53
191.387	73.73
191.607	22.53
191.826	8.19
192.045	14.34
192.265	-18.43
192.484	2.05
192.704	18.43
192.923	-55.3
193.142	45.06
193.362	43.01
193.581	55.3
193.8	77.82
194.02	45.06
194.239	12.29
194.458	2.05
194.678	-8.19
194.897	2.05
195.116	-8.19
195.335	63.49
195.555	20.48
195.774	43.01
195.993	98.3
196.212	4.1
196.432	34.82
196.651	-2.05
196.87	34.82
197.089	36.86
197.308	94.21
197.528	51.2
197.747	-8.19
197.966	-28.67
198.185	98.3
198.404	-4.1
198.623	34.82
198.842	26.62
199.062	14.34
199.281	24.58
199.5	43.01
199.719	63.49
199.938	38.91
200.157	86.01
200.376	-30.72
200.595	49.15
200.814	49.15
201.033	45.06
201.252	40.96
201.471	-14.34
201.69	32.77
201.909	0
202.128	40.96
202.347	53.25
202.566	77.82
202.785	0
203.004	18.43
203.223	20.48
203.442	14.34
203.661	12.29
203.879	53.25
204.098	-10.24
204.317	10.24
204.536	53.25
204.755	14.34
204.974	49.15
205.193	86.01
205.411	153.6
205.63	38.91
205.849	14.34
206.068	0
206.287	30.72
206.505	106.49
206.724	16.38
206.943	-65.54
207.162	10.24
207.381	-32.77
207.599	83.97
207.818	40.96
208.037	12.29
208.255	57.34
208.474	18.43
208.693	65.53
208.911	-20.48
209.13	28.67
209.349	20.48
209.567	-14.34
209.786	59.39
210.005	-8.19
210.223	-4.1
210.442	-18.43
210.661	22.53
210.879	18.43
211.098	43.01
211.316	71.68
211.535	65.53
211.753	-20.48
211.972	92.16
212.191	-43.01
212.409	36.86
212.628	16.38
212.846	34.82
213.065	10.24
213.283	16.38
213.502	14.34
213.72	-22.53
213.938	24.58
214.157	43.01
214.375	34.82
214.594	4.1
214.812	18.43
215.031	63.49
215.249	-10.24
215.467	0
215.686	18.43
215.904	63.49
216.122	-2.05
216.341	53.25
216.559	106.49
216.778	38.91
216.996	55.3
217.214	-8.19
217.432	43.01
217.651	34.82
217.869	59.39
218.087	-8.19
218.306	-45.06
218.524	92.16
218.742	34.82
218.96	30.72
219.179	-16.38
219.397	-53.25
219.615	102.4
219.833	18.43
220.051	16.38
220.27	65.53
220.488	20.48
220.706	30.72
220.924	38.91
221.142	-2.05
221.36	47.1
221.578	-10.24
221.796	-30.72
222.015	30.72
222.233	24.58
222.451	59.39
222.669	79.87
222.887	-14.34
223.105	20.48
223.323	36.86
223.541	-8.19
223.759	28.67
223.977	-14.34
224.195	38.91
224.413	-4.1
224.631	112.64
224.849	-14.34
225.067	6.14
225.285	65.53
225.503	-8.19
225.721	4.1
225.939	53.25
226.157	-28.67
226.375	88.06
226.592	-6.14
226.81	88.06
227.028	-47.1
227.246	8.19
227.464	-34.82
227.682	51.2
227.9	75.77
228.117	40.96
228.335	-45.06
228.553	-10.24
228.771	51.2
228.989	4.1
229.206	2.05
229.424	75.77
229.642	57.34
229.86	49.15
230.077	8.19
230.295	18.43
230.513	14.34
230.731	28.67
230.948	26.62
231.166	51.2
231.384	40.96
231.601	-34.82
231.819	6.14
232.037	24.58
232.254	16.38
232.472	-24.58
232.689	12.29
232.907	40.96
233.125	26.62
233.342	22.53
233.56	22.53
233.777	-34.82
233.995	8.19
234.213	86.01
234.43	79.87
234.648	-18.43
234.865	57.34
235.083	-14.34
235.3	16.38
235.518	73.73
235.735	67.58
235.953	98.3
236.17	18.43
236.388	53.25
236.605	-2.05
236.822	34.82
237.04	-12.29
237.257	83.97
237.475	-49.15
237.692	45.06
237.909	12.29
238.127	45.06
238.344	73.73
238.562	36.86
238.779	-6.14
238.996	40.96
239.214	-38.91
239.431	26.62
239.648	18.43
239.865	-22.53
240.083	69.63
240.3	24.58
240.517	20.48
240.735	36.86
240.952	-8.19
241.169	14.34
241.386	-12.29
241.603	-6.14
241.821	-6.14
242.038	75.77
242.255	14.34
242.472	-32.77
242.689	63.49
242.907	49.15
243.124	-4.1
243.341	45.06
243.558	-71.68
243.775	92.16
243.992	-8.19
244.209	24.58
244.426	-2.05
244.643	4.1
244.86	-22.53
245.078	0
245.295	-59.39
245.512	83.97
245.729	14.34
245.946	26.62
246.163	36.86
246.38	43.01
246.597	90.11
246.814	55.3
247.031	-12.29
247.248	55.3
247.464	-26.62
247.681	18.43
247.898	14.34
248.115	55.3
248.332	81.92
248.549	30.72
248.766	14.34
248.983	57.34
249.2	79.87
249.417	16.38
249.633	16.38
249.85	4.1
250.067	98.3
250.284	-2.05
250.501	75.77
250.717	14.34
250.934	12.29
251.151	-28.67
251.368	114.69
251.585	32.77
251.801	79.87
252.018	-30.72
252.235	65.53
252.451	24.58
252.668	22.53
252.885	38.91
253.102	55.3
253.318	92.16
253.535	49.15
253.752	36.86
253.968	40.96
254.185	12.29
254.401	73.73
254.618	2.05
254.835	-36.86
255.051	94.21
255.268	30.72
255.484	75.77
255.701	24.58
255.917	100.35
256.134	-10.24
256.351	-59.39
256.567	57.34
256.784	94.21
257	-12.29
257.217	24.58
257.433	36.86
257.65	49.15
257.866	43.01
258.082	-2.05
258.299	-53.25
258.515	0
258.732	-12.29
258.948	-12.29
259.165	8.19
259.381	-57.34
259.597	16.38
259.814	32.77
260.03	-12.29
260.246	-49.15
260.463	-12.29
260.679	-8.19
260.895	18.43
261.112	92.16
261.328	47.1
261.544	40.96
261.761	57.34
261.977	8.19
262.193	18.43
262.409	69.63
262.626	22.53
262.842	-4.1
263.058	-16.38
263.274	73.73
263.49	20.48
263.707	12.29
263.923	116.73
264.139	8.19
264.355	22.53
264.571	67.58
264.787	10.24
265.004	81.92
265.22	-6.14
265.436	-8.19
265.652	77.82
265.868	-28.67
266.084	14.34
266.3	-2.05
266.516	16.38
266.732	79.87
266.948	28.67
267.164	124.93
267.38	-32.77
267.596	102.4
267.812	137.21
268.028	34.82
268.244	18.43
268.46	4.1
268.676	18.43
268.892	129.02
269.108	75.77
269.324	-32.77
269.54	43.01
269.756	-4.1
269.972	-26.62
270.188	14.34
270.403	-14.34
270.619	79.87
270.835	26.62
271.051	4.1
271.267	10.24
271.483	32.77
271.698	-22.53
271.914	71.68
272.13	71.68
272.346	67.58
272.562	26.62
272.777	26.62
272.993	40.96
273.209	6.14
273.425	0
273.64	110.59
273.856	75.77
274.072	22.53
274.287	51.2
274.503	94.21
274.719	18.43
274.934	55.3
275.15	8.19
275.366	14.34
275.581	40.96
275.797	-16.38
276.012	10.24
276.228	-14.34
276.444	-28.67
276.659	79.87
276.875	45.06
277.09	57.34
277.306	-12.29
277.521	24.58
277.737	61.44
277.952	38.91
278.168	30.72
278.383	81.92
278.599	-16.38
278.814	75.77
279.03	2.05
279.245	45.06
279.461	49.15
279.676	63.49
279.892	47.1
280.107	16.38
280.322	43.01
280.538	16.38
280.753	-8.19
280.969	28.67
281.184	114.69
281.399	59.39
281.615	8.19
281.83	24.58
282.045	47.1
282.26	8.19
282.476	34.82
282.691	22.53
282.906	47.1
283.122	53.25
283.337	92.16
283.552	-49.15
283.767	129.02
283.983	51.2
284.198	57.34
284.413	65.53
284.628	51.2
284.843	16.38
285.058	45.06
285.274	92.16
285.489	-24.58
285.704	34.82
285.919	-30.72
286.134	-10.24
286.349	94.21
286.564	-12.29
286.779	59.39
286.995	-4.1
287.21	-6.14
287.425	-10.24
287.64	-8.19
287.855	38.91
288.07	-55.3
288.285	92.16
288.5	18.43
288.715	51.2
288.93	-24.58
289.145	49.15
289.36	32.77
289.575	-38.91
289.79	59.39
290.004	34.82
290.219	51.2
290.434	16.38
290.649	83.97
290.864	43.01
291.079	102.4
291.294	86.01
291.509	40.96
291.724	53.25
291.938	51.2
292.153	49.15
292.368	30.72
292.583	69.63
292.798	69.63
293.012	102.4
293.227	20.48
293.442	22.53
293.657	24.58
293.871	18.43
294.086	-6.14
294.301	30.72
294.516	-6.14
294.73	83.97
294.945	-24.58
295.16	-2.05
295.374	2.05
295.589	73.73
295.804	-22.53
296.018	-10.24
296.233	26.62
296.447	2.05
296.662	40.96
296.877	45.06
297.091	-16.38
297.306	36.86
297.52	32.77
297.735	40.96
297.949	22.53
298.164	47.1
298.378	-4.1
298.593	38.91
298.807	8.19
299.022	24.58
299.236	57.34
299.451	24.58
299.665	47.1
299.88	6.14
300.094	51.2
300.309	120.83
300.523	53.25
300.737	71.68
300.952	55.3
301.166	79.87
301.381	-49.15
301.595	77.82
301.809	22.53
302.024	30.72
302.238	32.77
302.452	8.19
302.667	14.34
302.881	122.88
303.095	18.43
303.309	-55.3
303.524	24.58
303.738	34.82
303.952	40.96
304.166	47.1
304.381	0
304.595	145.41
304.809	-92.16
305.023	38.91
305.237	14.34
305.452	14.34
305.666	-2.05
305.88	24.58
306.094	24.58
306.308	-36.86
306.522	-24.58
306.736	-32.77
306.95	26.62
307.164	30.72
307.379	59.39
307.593	49.15
307.807	88.06
308.021	129.02
308.235	-2.05
308.449	-2.05
308.663	26.62
308.877	75.77
309.091	36.86
309.305	38.91
309.519	6.14
309.733	49.15
309.947	-65.54
310.161	102.4
310.374	61.44
310.588	135.17
310.802	8.19
311.016	16.38
311.23	47.1
311.444	-24.58
311.658	6.14
311.872	34.82
312.085	20.48
312.299	77.82
312.513	59.39
312.727	2.05
312.941	-16.38
313.154	55.3
313.368	-34.82
313.582	151.55
313.796	-12.29
314.009	49.15
314.223	59.39
314.437	73.73
314.651	38.91
314.864	30.72
315.078	-2.05
315.292	6.14
315.505	104.45
315.719	112.64
315.933	47.1
316.146	28.67
316.36	40.96
316.573	63.49
316.787	79.87
317.001	36.86
317.214	36.86
317.428	79.87
317.641	-8.19
317.855	96.25
318.068	45.06
318.282	18.43
318.495	126.97
318.709	49.15
318.922	55.3
319.136	96.25
319.349	30.72
319.563	57.34
319.776	-38.91
319.99	55.3
320.203	71.68
320.417	47.1
320.63	10.24
320.843	-8.19
321.057	22.53
321.27	79.87
321.483	63.49
321.697	90.11
321.91	20.48
322.124	-6.14
322.337	49.15
322.55	49.15
322.763	6.14
322.977	43.01
323.19	16.38
323.403	45.06
323.617	57.34
323.83	51.2
324.043	32.77
324.256	73.73
324.469	-14.34
324.683	55.3
324.896	16.38
325.109	71.68
325.322	28.67
325.535	120.83
325.748	30.72
325.962	30.72
326.175	10.24
326.388	67.58
326.601	69.63
326.814	81.92
327.027	6.14
327.24	124.93
327.453	69.63
327.666	28.67
327.879	88.06
328.092	53.25
328.305	71.68
328.518	20.48
328.731	-6.14
328.944	69.63
329.157	24.58
329.37	73.73
329.583	92.16
329.796	86.01
330.009	-4.1
330.222	2.05
330.435	10.24
330.648	0
330.861	45.06
331.073	71.68
331.286	86.01
331.499	34.82
331.712	28.67
331.925	-32.77
332.138	34.82
332.35	24.58
332.563	8.19
332.776	63.49
332.989	77.82
333.202	63.49
333.414	-22.53
333.627	26.62
333.84	6.14
334.053	-16.38
334.265	28.67
334.478	-14.34
334.691	10.24
334.903	20.48
335.116	-20.48
335.329	36.86
335.541	98.3
335.754	51.2
335.966	-22.53
336.179	106.49
336.392	-4.1
336.604	88.06
336.817	16.38
337.029	12.29
337.242	-49.15
337.454	55.3
337.667	45.06
337.88	16.38
338.092	36.86
338.305	106.49
338.517	18.43
338.729	129.02
338.942	-51.2
339.154	12.29
339.367	24.58
339.579	114.69
339.792	61.44
340.004	102.4
340.217	20.48
340.429	36.86
340.641	-71.68
340.854	20.48
341.066	71.68
341.278	81.92
341.491	100.35
341.703	145.41
341.915	47.1
342.128	90.11
342.34	38.91
342.552	-4.1
342.764	26.62
342.977	-47.1
343.189	2.05
343.401	45.06
343.613	-43.01
343.826	49.15
344.038	79.87
344.25	51.2
344.462	63.49
344.674	75.77
344.886	-38.91
345.099	47.1
345.311	30.72
345.523	88.06
345.735	-83.97
345.947	67.58
346.159	92.16
346.371	28.67
346.583	45.06
346.795	57.34
347.007	12.29
347.219	-2.05
347.431	124.93
347.643	81.92
347.855	12.29
348.067	102.4
348.279	16.38
348.491	71.68
348.703	34.82
348.915	32.77
349.127	6.14
349.339	83.97
349.551	-14.34
349.763	65.53
349.975	-4.1
350.187	61.44
350.399	116.73
350.61	18.43
350.822	36.86
351.034	0
351.246	18.43
351.458	43.01
351.669	100.35
351.881	102.4
352.093	16.38
352.305	106.49
352.517	45.06
352.728	49.15
352.94	69.63
353.152	55.3
353.363	-8.19
353.575	47.1
353.787	28.67
353.999	40.96
354.21	88.06
354.422	36.86
354.633	22.53
354.845	12.29
355.057	18.43
355.268	32.77
355.48	59.39
355.692	22.53
355.903	67.58
356.115	-24.58
356.326	112.64
356.538	92.16
356.749	65.53
356.961	79.87
357.172	112.64
357.384	34.82
357.595	63.49
357.807	0
358.018	67.58
358.23	55.3
358.441	67.58
358.653	83.97
358.864	-14.34
359.075	0
359.287	18.43
359.498	77.82
359.709	-6.14
359.921	40.96
360.132	34.82
360.344	16.38
360.555	-16.38
360.766	38.91
360.977	8.19
361.189	51.2
361.4	22.53
361.611	90.11
361.823	47.1
362.034	79.87
362.245	26.62
362.456	53.25
362.667	0
362.879	24.58
363.09	104.45
363.301	43.01
363.512	6.14
363.723	34.82
363.935	71.68
364.146	126.97
364.357	14.34
364.568	24.58
364.779	0
364.99	38.91
365.201	20.48
365.412	24.58
365.623	-2.05
365.834	20.48
366.045	18.43
366.256	71.68
366.467	38.91
366.678	47.1
366.889	30.72
367.1	4.1
367.311	79.87
367.522	59.39
367.733	71.68
367.944	90.11
368.155	34.82
368.366	10.24
368.577	40.96
368.788	10.24
368.999	90.11
369.209	6.14
369.42	88.06
369.631	-6.14
369.842	69.63
370.053	122.88
370.264	49.15
370.474	106.49
370.685	6.14
370.896	118.78
371.107	8.19
371.317	10.24
371.528	90.11
371.739	79.87
371.95	53.25
372.16	106.49
372.371	4.1
372.582	47.1
372.792	96.25
373.003	-10.24
373.214	75.77
373.424	151.55
373.635	20.48
373.846	96.25
374.056	67.58
374.267	-4.1
374.477	75.77
374.688	61.44
374.898	38.91
375.109	83.97
375.319	83.97
375.53	47.1
375.74	67.58
375.951	100.35
376.161	90.11
376.372	61.44
376.582	-22.53
376.793	75.77
377.003	30.72
377.214	83.97
377.424	145.41
377.635	14.34
377.845	63.49
378.055	14.34
378.266	26.62
378.476	6.14
378.686	22.53
378.897	124.93
379.107	75.77
379.317	69.63
379.528	34.82
379.738	108.54
379.948	59.39
380.158	71.68
380.369	79.87
380.579	53.25
380.789	10.24
380.999	14.34
381.21	45.06
381.42	28.67
381.63	49.15
381.84	108.54
382.05	75.77
382.261	61.44
382.471	106.49
382.681	26.62
382.891	112.64
383.101	57.34
383.311	124.93
383.521	22.53
383.731	57.34
383.941	61.44
384.151	92.16
384.361	47.1
384.571	24.58
384.781	47.1
384.991	102.4
385.201	40.96
385.411	73.73
385.621	51.2
385.831	18.43
386.041	34.82
386.251	0
386.461	90.11
386.671	51.2
386.881	47.1
387.091	-2.05
387.301	18.43
387.511	34.82
387.72	55.3
387.93	57.34
388.14	120.83
388.35	47.1
388.56	120.83
388.769	36.86
388.979	67.58
389.189	-14.34
389.399	36.86
389.609	83.97
389.818	71.68
390.028	83.97
390.238	114.69
390.447	26.62
390.657	75.77
390.867	34.82
391.076	38.91
391.286	22.53
391.496	86.01
391.705	16.38
391.915	14.34
392.125	24.58
392.334	94.21
392.544	83.97
392.753	65.53
392.963	-4.1
393.172	22.53
393.382	61.44
393.591	124.93
393.801	104.45
394.01	149.5
394.22	57.34
394.429	0
394.639	18.43
394.848	153.6
395.058	47.1
395.267	26.62
395.477	36.86
395.686	102.4
395.895	137.21
396.105	88.06
396.314	59.39
396.524	69.63
396.733	90.11
396.942	104.45
397.152	63.49
397.361	71.68
397.57	65.53
397.78	47.1
397.989	98.3
398.198	67.58
398.407	159.74
398.617	73.73
398.826	67.58
399.035	86.01
399.244	108.54
399.453	141.31
399.663	126.97
399.872	73.73
400.081	83.97
400.29	151.55
400.499	88.06
400.708	108.54
400.917	118.78
401.127	106.49
401.336	90.11
401.545	153.6
401.754	155.65
401.963	131.07
402.172	73.73
402.381	83.97
402.59	57.34
402.799	100.35
403.008	151.55
403.217	79.87
403.426	96.25
403.635	73.73
403.844	122.88
404.053	159.74
404.262	96.25
404.471	116.73
404.68	100.35
404.888	159.74
405.097	96.25
405.306	188.41
405.515	206.84
405.724	139.26
405.933	131.07
406.142	165.89
406.35	190.46
406.559	217.08
406.768	118.78
406.977	182.27
407.185	176.13
407.394	108.54
407.603	149.5
407.812	137.21
408.02	299
408.229	239.61
408.438	217.08
408.646	83.97
408.855	233.47
409.064	217.08
409.272	206.84
409.481	296.96
409.69	219.13
409.898	194.56
410.107	262.14
410.315	360.44
410.524	243.71
410.733	262.14
410.941	337.91
411.15	241.66
411.358	382.97
411.567	387.07
411.775	360.44
411.984	364.54
412.192	335.87
412.401	378.87
412.609	380.92
412.818	376.83
413.026	448.51
413.234	436.22
413.443	460.79
413.651	409.59
413.86	497.66
414.068	487.42
414.276	483.32
414.485	540.66
414.693	559.1
414.901	632.82
415.11	598.01
415.318	677.88
415.526	708.6
415.734	702.45
415.943	606.2
416.151	710.65
416.359	751.6
416.567	767.99
416.776	759.8
416.984	706.55
417.192	806.9
417.4	808.95
417.608	815.09
417.817	835.57
418.025	868.34
418.233	1040.37
418.441	1040.37
418.649	995.31
418.857	1054.7
419.065	1175.53
419.273	1204.21
419.481	1153.01
419.689	1177.58
419.897	1347.56
420.105	1390.57
420.313	1382.38
420.521	1337.32
420.729	1466.35
420.937	1378.28
421.145	1497.07
421.353	1611.75
421.561	1683.43
421.769	1615.85
421.977	1802.21
422.185	1714.15
422.393	1945.57
422.601	2027.49
422.809	2009.06
423.017	1970.15
423.224	2027.49
423.432	2148.32
423.64	2148.32
423.848	2328.54
424.056	2322.4
424.263	2420.7
424.471	2484.19
424.679	2379.74
424.887	2553.82
425.094	2594.78
425.302	2762.71
425.51	2758.61
425.718	2901.97
425.925	3076.05
426.133	3127.25
426.341	3307.47
426.548	3397.58
426.756	3282.89
426.964	3491.79
427.171	3487.69
427.379	3735.49
427.586	3745.73
427.794	3919.81
428.001	4085.7
428.209	4186.05
428.417	4186.05
428.624	4532.15
428.832	4573.11
429.039	4444.09
429.247	4399.04
429.454	4870.07
429.662	5119.92
429.869	4868.02
430.076	5203.89
430.284	4870.07
430.491	5275.57
430.699	5519.28
430.906	5662.63
431.114	5679.02
431.321	5783.46
431.528	5883.81
431.736	6305.7
431.943	6719.39
432.15	6449.05
432.358	6590.36
432.565	6948.76
432.772	6823.83
432.979	7208.85
433.187	7309.2
433.394	7329.68
433.601	7882.63
433.808	8091.52
434.016	7755.66
434.223	8306.56
434.43	8638.33
434.637	8511.36
434.844	8945.53
435.052	9275.25
435.259	9179
435.466	9152.37
435.673	8953.72
435.88	9699.18
436.087	10235.75
436.294	10162.02
436.501	9926.5
436.708	10229.6
436.915	10710.88
437.122	10940.25
437.329	11104.09
437.537	11401.04
437.743	11491.15
437.95	11343.7
438.157	12105.54
438.364	12554.05
438.571	12474.18
438.778	12289.86
438.985	13762.35
439.192	12908.35
439.399	13483.83
439.606	13113.14
439.813	14012.2
440.02	14954.27
440.227	14624.54
440.433	14470.95
440.64	14804.77
440.847	14616.35
441.054	15169.3
441.261	16041.74
441.467	16078.6
441.674	16469.76
441.881	16961.28
442.088	16617.22
442.294	16717.57
442.501	17164.03
442.708	17561.33
442.914	18474.73
443.121	19009.25
443.328	18460.39
443.534	19764.95
443.741	19285.72
443.948	18974.43
444.154	20205.26
444.361	20027.09
444.568	20446.92
444.774	20365
444.981	20684.48
445.187	21208.76
445.394	22218.41
445.6	21747.38
445.807	23914.13
446.013	23041.7
446.22	23176.86
446.426	24069.78
446.633	24458.89
446.839	25251.45
447.046	24131.22
447.252	25382.52
447.459	25546.36
447.665	25415.29
447.871	26783.34
448.078	27620.95
448.284	26373.74
448.491	27190.88
448.697	27985.49
448.903	28974.66
449.11	28733
449.316	28536.4
449.522	28749.39
449.728	29611.58
449.935	29775.42
450.141	29945.4
450.347	30557.74
450.553	29615.68
450.76	30084.66
450.966	30836.27
451.172	30342.7
451.378	31151.65
451.584	30475.82
451.791	31446.56
451.997	31215.14
452.203	31837.72
452.409	31970.84
452.615	31847.96
452.821	30154.29
453.027	29738.55
453.233	31667.74
453.44	30551.6
453.646	30764.59
453.852	31059.49
454.058	31378.98
454.264	30606.89
454.47	31084.07
454.676	30201.4
454.882	31202.85
455.088	28655.18
455.294	29056.58
455.5	29367.87
455.705	29886.01
455.911	28730.95
456.117	28167.76
456.323	27782.74
456.529	26414.7
456.735	27420.25
456.941	26572.39
457.147	26218.1
457.352	25521.79
457.558	25060.99
457.764	25409.15
457.97	24757.89
458.176	24256.14
458.381	24297.1
458.587	22918.82
458.793	22597.29
458.999	21657.27
459.204	23326.36
459.41	22793.89
459.616	21225.15
459.821	21388.99
460.027	21106.37
460.233	20721.35
460.438	19721.94
460.644	20035.28
460.85	18992.86
461.055	18734.82
461.261	18773.73
461.466	17223.42
461.672	16656.13
461.878	18007.79
462.083	16668.42
462.289	16545.54
462.494	16299.78
462.7	15714.06
462.905	15046.43
463.111	15609.62
463.316	15632.15
463.522	15286.04
463.727	15382.29
463.932	15570.71
464.138	15304.47
464.343	15064.86
464.549	14933.79
464.754	15361.81
464.959	15193.88
465.165	14989.08
465.37	14595.87
465.575	13975.34
465.781	14823.2
465.986	15075.1
466.191	14280.49
466.397	13786.93
466.602	13266.74
466.807	13694.77
467.012	13752.11
467.218	13836.08
467.423	13315.89
467.628	13471.54
467.833	14032.68
468.038	13602.61
468.244	12957.5
468.449	13612.85
468.654	13227.83
