Data from USB4F104151__78__11-45-31-108.txt Node

Date: Fri Mar 14 11:45:31 EDT 2025
User: louis
Spectrometer: USB4F10415
Trigger mode: 4
Integration Time (sec): 2.000000E-2
Scans to average: 1
Electric dark correction enabled: true
Nonlinearity correction enabled: false
Boxcar width: 0
XAxis mode: Wavelengths
Number of Pixels in Spectrum: 3648
>>>>>Begin Spectral Data<<<<<
178.204	-98.47
178.424	-98.47
178.644	-98.47
178.864	-51.37
179.084	-63.66
179.304	8.02
179.524	-10.41
179.744	-32.94
179.964	-6.31
180.184	87.89
180.404	16.21
180.624	5.97
180.844	-12.46
181.064	-45.23
181.283	3.93
181.503	-2.22
181.723	-12.46
181.943	-55.47
182.163	22.36
182.383	-55.47
182.602	81.75
182.822	8.02
183.042	-8.36
183.262	14.17
183.482	-16.55
183.701	-22.7
183.921	24.4
184.141	73.56
184.361	8.02
184.58	48.98
184.8	3.93
185.02	-4.27
185.239	-18.6
185.459	-53.42
185.679	75.6
185.898	-28.84
186.118	5.97
186.338	-4.27
186.557	57.17
186.777	-16.55
186.997	26.45
187.216	32.6
187.436	69.46
187.655	-2.22
187.875	14.17
188.095	-10.41
188.314	-32.94
188.534	69.46
188.753	34.64
188.973	28.5
189.192	59.22
189.412	-20.65
189.631	59.22
189.851	-26.79
190.07	46.93
190.29	-26.79
190.509	-2.22
190.729	-22.7
190.948	10.07
191.168	159.57
191.387	81.75
191.607	-8.36
191.826	-24.75
192.045	-28.84
192.265	-2.22
192.484	-0.17
192.704	8.02
192.923	-51.37
193.142	40.79
193.362	-12.46
193.581	-14.51
193.8	24.4
194.02	26.45
194.239	-73.9
194.458	8.02
194.678	-39.08
194.897	-12.46
195.116	-4.27
195.335	20.31
195.555	42.84
195.774	30.55
195.993	42.84
196.212	24.4
196.432	-20.65
196.651	-14.51
196.87	8.02
197.089	73.56
197.308	75.6
197.528	-16.55
197.747	36.69
197.966	48.98
198.185	22.36
198.404	-6.31
198.623	12.12
198.842	10.07
199.062	-30.89
199.281	-37.03
199.5	-18.6
199.719	96.08
199.938	75.6
200.157	14.17
200.376	8.02
200.595	30.55
200.814	14.17
201.033	38.74
201.252	30.55
201.471	-2.22
201.69	79.7
201.909	28.5
202.128	-28.84
202.347	32.6
202.566	20.31
202.785	-6.31
203.004	-4.27
203.223	22.36
203.442	32.6
203.661	8.02
203.879	-24.75
204.098	34.64
204.317	53.08
204.536	24.4
204.755	-0.17
204.974	-18.6
205.193	77.65
205.411	-0.17
205.63	44.88
205.849	-14.51
206.068	-16.55
206.287	36.69
206.505	-20.65
206.724	-47.27
206.943	-6.31
207.162	-16.55
207.381	20.31
207.599	-34.99
207.818	48.98
208.037	-26.79
208.255	36.69
208.474	20.31
208.693	-16.55
208.911	57.17
209.13	-16.55
209.349	8.02
209.567	48.98
209.786	122.71
210.005	32.6
210.223	71.51
210.442	-55.47
210.661	-16.55
210.879	26.45
211.098	71.51
211.316	-24.75
211.535	26.45
211.753	-61.61
211.972	5.97
212.191	42.84
212.409	51.03
212.628	-16.55
212.846	1.88
213.065	65.36
213.283	20.31
213.502	-14.51
213.72	-49.32
213.938	28.5
214.157	34.64
214.375	71.51
214.594	-18.6
214.812	73.56
215.031	10.07
215.249	20.31
215.467	65.36
215.686	-30.89
215.904	20.31
216.122	-2.22
216.341	16.21
216.559	51.03
216.778	30.55
216.996	-61.61
217.214	20.31
217.432	-41.13
217.651	-43.18
217.869	-0.17
218.087	-34.99
218.306	-88.23
218.524	20.31
218.742	96.08
218.96	28.5
219.179	16.21
219.397	14.17
219.615	65.36
219.833	26.45
220.051	-45.23
220.27	79.7
220.488	-20.65
220.706	-30.89
220.924	10.07
221.142	24.4
221.36	-34.99
221.578	75.6
221.796	-65.71
222.015	59.22
222.233	8.02
222.451	24.4
222.669	-61.61
222.887	-20.65
223.105	8.02
223.323	-10.41
223.541	-20.65
223.759	24.4
223.977	-43.18
224.195	48.98
224.413	30.55
224.631	-18.6
224.849	57.17
225.067	46.93
225.285	40.79
225.503	96.08
225.721	-2.22
225.939	-28.84
226.157	3.93
226.375	28.5
226.592	-55.47
226.81	-2.22
227.028	46.93
227.246	32.6
227.464	-12.46
227.682	14.17
227.9	22.36
228.117	18.26
228.335	44.88
228.553	87.89
228.771	5.97
228.989	34.64
229.206	20.31
229.424	75.6
229.642	-26.79
229.86	16.21
230.077	40.79
230.295	51.03
230.513	20.31
230.731	36.69
230.948	85.84
231.166	59.22
231.384	-96.43
231.601	-4.27
231.819	65.36
232.037	44.88
232.254	-18.6
232.472	14.17
232.689	5.97
232.907	96.08
233.125	-61.61
233.342	-4.27
233.56	-51.37
233.777	77.65
233.995	34.64
234.213	63.32
234.43	-45.23
234.648	-24.75
234.865	89.94
235.083	-10.41
235.3	36.69
235.518	30.55
235.735	20.31
235.953	61.27
236.17	18.26
236.388	30.55
236.605	96.08
236.822	24.4
237.04	98.13
237.257	-47.27
237.475	-34.99
237.692	48.98
237.909	28.5
238.127	83.8
238.344	38.74
238.562	12.12
238.779	-12.46
238.996	-16.55
239.214	34.64
239.431	36.69
239.648	55.12
239.865	-6.31
240.083	22.36
240.3	22.36
240.517	-6.31
240.735	24.4
240.952	-16.55
241.169	-6.31
241.386	1.88
241.603	53.08
241.821	38.74
242.038	28.5
242.255	28.5
242.472	55.12
242.689	104.28
242.907	44.88
243.124	85.84
243.341	30.55
243.558	24.4
243.775	-39.08
243.992	-53.42
244.209	63.32
244.426	-2.22
244.643	48.98
244.86	-0.17
245.078	-22.7
245.295	8.02
245.512	-18.6
245.729	12.12
245.946	12.12
246.163	-24.75
246.38	-2.22
246.597	3.93
246.814	106.32
247.031	32.6
247.248	-20.65
247.464	57.17
247.681	46.93
247.898	14.17
248.115	55.12
248.332	-49.32
248.549	53.08
248.766	1.88
248.983	51.03
249.2	-51.37
249.417	32.6
249.633	-73.9
249.85	42.84
250.067	8.02
250.284	-8.36
250.501	3.93
250.717	5.97
250.934	-55.47
251.151	-12.46
251.368	53.08
251.585	53.08
251.801	8.02
252.018	-55.47
252.235	-8.36
252.451	-28.84
252.668	18.26
252.885	34.64
253.102	53.08
253.318	8.02
253.535	65.36
253.752	-28.84
253.968	55.12
254.185	-6.31
254.401	12.12
254.618	-0.17
254.835	-49.32
255.051	104.28
255.268	61.27
255.484	46.93
255.701	30.55
255.917	3.93
256.134	-26.79
256.351	12.12
256.567	8.02
256.784	30.55
257	16.21
257.217	-26.79
257.433	75.6
257.65	67.41
257.866	30.55
258.082	-34.99
258.299	-41.13
258.515	8.02
258.732	-22.7
258.948	24.4
259.165	-18.6
259.381	55.12
259.597	75.6
259.814	-39.08
260.03	28.5
260.246	-32.94
260.463	36.69
260.679	48.98
260.895	1.88
261.112	63.32
261.328	14.17
261.544	-0.17
261.761	135
261.977	-6.31
262.193	-0.17
262.409	10.07
262.626	-49.32
262.842	-0.17
263.058	-12.46
263.274	-2.22
263.49	-8.36
263.707	36.69
263.923	28.5
264.139	-24.75
264.355	12.12
264.571	36.69
264.787	44.88
265.004	44.88
265.22	-12.46
265.436	3.93
265.652	10.07
265.868	26.45
266.084	5.97
266.3	67.41
266.516	-55.47
266.732	-43.18
266.948	18.26
267.164	3.93
267.38	38.74
267.596	14.17
267.812	67.41
268.028	42.84
268.244	10.07
268.46	-8.36
268.676	-6.31
268.892	42.84
269.108	26.45
269.324	46.93
269.54	-10.41
269.756	5.97
269.972	-10.41
270.188	57.17
270.403	8.02
270.619	3.93
270.835	96.08
271.051	40.79
271.267	-14.51
271.483	5.97
271.698	89.94
271.914	-4.27
272.13	24.4
272.346	57.17
272.562	24.4
272.777	-26.79
272.993	-0.17
273.209	53.08
273.425	1.88
273.64	-30.89
273.856	44.88
274.072	20.31
274.287	-39.08
274.503	32.6
274.719	20.31
274.934	34.64
275.15	63.32
275.366	-4.27
275.581	40.79
275.797	34.64
276.012	8.02
276.228	-4.27
276.444	24.4
276.659	104.28
276.875	-41.13
277.09	-24.75
277.306	3.93
277.521	20.31
277.737	-20.65
277.952	34.64
278.168	28.5
278.383	42.84
278.599	61.27
278.814	28.5
279.03	-18.6
279.245	-14.51
279.461	20.31
279.676	20.31
279.892	28.5
280.107	-30.89
280.322	8.02
280.538	42.84
280.753	-10.41
280.969	16.21
281.184	46.93
281.399	26.45
281.615	-0.17
281.83	1.88
282.045	-32.94
282.26	-26.79
282.476	14.17
282.691	-53.42
282.906	-39.08
283.122	28.5
283.337	12.12
283.552	1.88
283.767	59.22
283.983	18.26
284.198	-10.41
284.413	67.41
284.628	-28.84
284.843	-0.17
285.058	24.4
285.274	69.46
285.489	-4.27
285.704	16.21
285.919	36.69
286.134	-2.22
286.349	28.5
286.564	-28.84
286.779	83.8
286.995	-30.89
287.21	-39.08
287.425	67.41
287.64	-0.17
287.855	53.08
288.07	16.21
288.285	-51.37
288.5	12.12
288.715	-12.46
288.93	24.4
289.145	51.03
289.36	16.21
289.575	32.6
289.79	79.7
290.004	55.12
290.219	61.27
290.434	83.8
290.649	22.36
290.864	8.02
291.079	8.02
291.294	71.51
291.509	87.89
291.724	20.31
291.938	-26.79
292.153	53.08
292.368	40.79
292.583	20.31
292.798	-32.94
293.012	5.97
293.227	-37.03
293.442	38.74
293.657	-12.46
293.871	-8.36
294.086	14.17
294.301	81.75
294.516	28.5
294.73	48.98
294.945	-4.27
295.16	30.55
295.374	53.08
295.589	16.21
295.804	-0.17
296.018	1.88
296.233	10.07
296.447	42.84
296.662	-34.99
296.877	69.46
297.091	-26.79
297.306	-20.65
297.52	-18.6
297.735	83.8
297.949	42.84
298.164	42.84
298.378	20.31
298.593	5.97
298.807	-43.18
299.022	63.32
299.236	79.7
299.451	63.32
299.665	59.22
299.88	-45.23
300.094	-10.41
300.309	53.08
300.523	-39.08
300.737	-28.84
300.952	-6.31
301.166	30.55
301.381	-4.27
301.595	20.31
301.809	8.02
302.024	5.97
302.238	44.88
302.452	22.36
302.667	32.6
302.881	114.52
303.095	55.12
303.309	14.17
303.524	-51.37
303.738	-16.55
303.952	16.21
304.166	42.84
304.381	-30.89
304.595	102.23
304.809	-30.89
305.023	-84.14
305.237	22.36
305.452	-49.32
305.666	30.55
305.88	69.46
306.094	-30.89
306.308	-2.22
306.522	53.08
306.736	-30.89
306.95	-6.31
307.164	26.45
307.379	34.64
307.593	22.36
307.807	10.07
308.021	-51.37
308.235	65.36
308.449	71.51
308.663	36.69
308.877	32.6
309.091	-20.65
309.305	-14.51
309.519	-34.99
309.733	16.21
309.947	-75.95
310.161	20.31
310.374	42.84
310.588	12.12
310.802	3.93
311.016	-43.18
311.23	91.99
311.444	-37.03
311.658	36.69
311.872	3.93
312.085	24.4
312.299	57.17
312.513	24.4
312.727	65.36
312.941	28.5
313.154	104.28
313.368	-8.36
313.582	28.5
313.796	38.74
314.009	32.6
314.223	-22.7
314.437	-6.31
314.651	-2.22
314.864	-10.41
315.078	16.21
315.292	61.27
315.505	18.26
315.719	40.79
315.933	48.98
316.146	-24.75
316.36	-45.23
316.573	5.97
316.787	83.8
317.001	61.27
317.214	-16.55
317.428	40.79
317.641	-92.33
317.855	48.98
318.068	10.07
318.282	61.27
318.495	-51.37
318.709	44.88
318.922	-12.46
319.136	79.7
319.349	32.6
319.563	3.93
319.776	83.8
319.99	-22.7
320.203	40.79
320.417	24.4
320.63	67.41
320.843	57.17
321.057	53.08
321.27	10.07
321.483	-0.17
321.697	24.4
321.91	-4.27
322.124	59.22
322.337	-10.41
322.55	69.46
322.763	-20.65
322.977	18.26
323.19	10.07
323.403	69.46
323.617	98.13
323.83	81.75
324.043	-61.61
324.256	-0.17
324.469	20.31
324.683	75.6
324.896	-59.56
325.109	24.4
325.322	1.88
325.535	65.36
325.748	20.31
325.962	53.08
326.175	61.27
326.388	65.36
326.601	-2.22
326.814	44.88
327.027	14.17
327.24	1.88
327.453	3.93
327.666	73.56
327.879	-2.22
328.092	-8.36
328.305	10.07
328.518	3.93
328.731	77.65
328.944	65.36
329.157	40.79
329.37	46.93
329.583	51.03
329.796	32.6
330.009	-43.18
330.222	16.21
330.435	48.98
330.648	-45.23
330.861	61.27
331.073	71.51
331.286	28.5
331.499	-0.17
331.712	46.93
331.925	32.6
332.138	3.93
332.35	100.18
332.563	8.02
332.776	12.12
332.989	-22.7
333.202	18.26
333.414	34.64
333.627	61.27
333.84	14.17
334.053	5.97
334.265	16.21
334.478	-12.46
334.691	79.7
334.903	83.8
335.116	26.45
335.329	-2.22
335.541	53.08
335.754	-2.22
335.966	24.4
336.179	42.84
336.392	-16.55
336.604	110.42
336.817	42.84
337.029	48.98
337.242	30.55
337.454	89.94
337.667	32.6
337.88	71.51
338.092	77.65
338.305	8.02
338.517	-26.79
338.729	46.93
338.942	135
339.154	-16.55
339.367	-0.17
339.579	-22.7
339.792	8.02
340.004	34.64
340.217	57.17
340.429	16.21
340.641	53.08
340.854	32.6
341.066	1.88
341.278	42.84
341.491	-4.27
341.703	79.7
341.915	10.07
342.128	132.95
342.34	8.02
342.552	63.32
342.764	28.5
342.977	-53.42
343.189	34.64
343.401	8.02
343.613	20.31
343.826	42.84
344.038	-12.46
344.25	-16.55
344.462	-8.36
344.674	-32.94
344.886	-6.31
345.099	30.55
345.311	-34.99
345.523	30.55
345.735	-41.13
345.947	65.36
346.159	-47.27
346.371	28.5
346.583	20.31
346.795	96.08
347.007	-123.05
347.219	-12.46
347.431	1.88
347.643	65.36
347.855	55.12
348.067	122.71
348.279	44.88
348.491	18.26
348.703	79.7
348.915	32.6
349.127	42.84
349.339	61.27
349.551	-8.36
349.763	42.84
349.975	20.31
350.187	22.36
350.399	3.93
350.61	36.69
350.822	22.36
351.034	110.42
351.246	57.17
351.458	51.03
351.669	24.4
351.881	94.04
352.093	-16.55
352.305	3.93
352.517	-0.17
352.728	81.75
352.94	3.93
353.152	75.6
353.363	46.93
353.575	-22.7
353.787	34.64
353.999	96.08
354.21	73.56
354.422	57.17
354.633	24.4
354.845	40.79
355.057	89.94
355.268	67.41
355.48	-0.17
355.692	38.74
355.903	-16.55
356.115	102.23
356.326	65.36
356.538	10.07
356.749	16.21
356.961	32.6
357.172	44.88
357.384	-24.75
357.595	104.28
357.807	12.12
358.018	40.79
358.23	-57.51
358.441	48.98
358.653	32.6
358.864	28.5
359.075	32.6
359.287	22.36
359.498	30.55
359.709	-4.27
359.921	-69.8
360.132	16.21
360.344	18.26
360.555	71.51
360.766	28.5
360.977	65.36
361.189	-14.51
361.4	10.07
361.611	87.89
361.823	67.41
362.034	22.36
362.245	-16.55
362.456	36.69
362.667	51.03
362.879	24.4
363.09	-32.94
363.301	61.27
363.512	5.97
363.723	53.08
363.935	16.21
364.146	-12.46
364.357	-24.75
364.568	36.69
364.779	-37.03
364.99	36.69
365.201	38.74
365.412	32.6
365.623	69.46
365.834	-16.55
366.045	14.17
366.256	-24.75
366.467	5.97
366.678	55.12
366.889	16.21
367.1	-4.27
367.311	-16.55
367.522	8.02
367.733	102.23
367.944	34.64
368.155	53.08
368.366	69.46
368.577	100.18
368.788	-22.7
368.999	8.02
369.209	12.12
369.42	36.69
369.631	135
369.842	10.07
370.053	53.08
370.264	61.27
370.474	-26.79
370.685	22.36
370.896	48.98
371.107	81.75
371.317	28.5
371.528	-6.31
371.739	65.36
371.95	67.41
372.16	38.74
372.371	-2.22
372.582	16.21
372.792	16.21
373.003	91.99
373.214	36.69
373.424	63.32
373.635	-24.75
373.846	1.88
374.056	44.88
374.267	79.7
374.477	69.46
374.688	12.12
374.898	22.36
375.109	32.6
375.319	10.07
375.53	18.26
375.74	42.84
375.951	48.98
376.161	22.36
376.372	28.5
376.582	16.21
376.793	-0.17
377.003	-4.27
377.214	75.6
377.424	24.4
377.635	-6.31
377.845	75.6
378.055	135
378.266	14.17
378.476	44.88
378.686	-14.51
378.897	22.36
379.107	87.89
379.317	10.07
379.528	20.31
379.738	14.17
379.948	-2.22
380.158	12.12
380.369	-73.9
380.579	-12.46
380.789	42.84
380.999	87.89
381.21	48.98
381.42	5.97
381.63	24.4
381.84	161.62
382.05	38.74
382.261	36.69
382.471	14.17
382.681	89.94
382.891	36.69
383.101	-39.08
383.311	5.97
383.521	-14.51
383.731	20.31
383.941	83.8
384.151	-8.36
384.361	55.12
384.571	85.84
384.781	20.31
384.991	51.03
385.201	83.8
385.411	32.6
385.621	91.99
385.831	16.21
386.041	53.08
386.251	24.4
386.461	14.17
386.671	46.93
386.881	116.56
387.091	67.41
387.301	57.17
387.511	44.88
387.72	98.13
387.93	126.8
388.14	44.88
388.35	46.93
388.56	30.55
388.769	61.27
388.979	24.4
389.189	-37.03
389.399	-4.27
389.609	67.41
389.818	61.27
390.028	89.94
390.238	141.14
390.447	18.26
390.657	110.42
390.867	40.79
391.076	-41.13
391.286	20.31
391.496	48.98
391.705	-0.17
391.915	-0.17
392.125	61.27
392.334	73.56
392.544	-12.46
392.753	83.8
392.963	71.51
393.172	30.55
393.382	108.37
393.591	108.37
393.801	51.03
394.01	53.08
394.22	110.42
394.429	91.99
394.639	42.84
394.848	87.89
395.058	36.69
395.267	83.8
395.477	61.27
395.686	143.19
395.895	85.84
396.105	46.93
396.314	102.23
396.524	116.56
396.733	10.07
396.942	114.52
397.152	44.88
397.361	55.12
397.57	28.5
397.78	135
397.989	61.27
398.198	87.89
398.407	96.08
398.617	96.08
398.826	102.23
399.035	159.57
399.244	161.62
399.453	77.65
399.663	106.32
399.872	59.22
400.081	100.18
400.29	85.84
400.499	30.55
400.708	94.04
400.917	89.94
401.127	106.32
401.336	137.04
401.545	130.9
401.754	114.52
401.963	137.04
402.172	122.71
402.381	110.42
402.59	87.89
402.799	83.8
403.008	110.42
403.217	53.08
403.426	94.04
403.635	106.32
403.844	53.08
404.053	137.04
404.262	51.03
404.471	143.19
404.68	161.62
404.888	157.52
405.097	194.39
405.306	149.33
405.515	87.89
405.724	104.28
405.933	145.24
406.142	171.86
406.35	204.63
406.559	184.15
406.768	227.15
406.977	173.91
407.185	143.19
407.394	229.2
407.603	202.58
407.812	214.87
408.02	214.87
408.229	157.52
408.438	227.15
408.646	218.96
408.855	229.2
409.064	214.87
409.272	212.82
409.481	274.26
409.69	225.11
409.898	188.24
410.107	282.45
410.315	382.8
410.524	331.6
410.733	329.55
410.941	341.84
411.15	325.46
411.358	339.79
411.567	364.37
411.775	358.22
411.984	339.79
412.192	347.98
412.401	339.79
412.609	479.05
412.818	417.61
413.026	415.57
413.234	382.8
413.443	474.96
413.651	477.01
413.86	440.14
414.068	505.68
414.276	603.98
414.485	595.79
414.693	548.68
414.901	624.46
415.11	669.52
415.318	616.27
415.526	634.7
415.734	638.8
415.943	692.04
416.151	780.11
416.359	677.71
416.567	796.49
416.776	800.59
416.984	855.88
417.192	841.54
417.4	862.02
417.608	870.22
417.817	921.42
418.025	870.22
418.233	1070.92
418.441	1034.05
418.649	1052.49
418.857	1193.8
419.065	1216.32
419.273	1138.5
419.481	1201.99
419.689	1306.43
419.897	1281.86
420.105	1267.52
420.313	1306.43
420.521	1392.45
420.729	1425.22
420.937	1472.32
421.145	1556.29
421.353	1673.02
421.561	1785.66
421.769	1707.84
421.977	1820.47
422.185	1873.72
422.393	2015.03
422.601	2058.04
422.809	2062.13
423.017	1996.6
423.224	2105.14
423.432	2256.69
423.64	2260.79
423.848	2387.76
424.056	2307.89
424.263	2580.27
424.471	2524.97
424.679	2604.85
424.887	2717.48
425.094	2813.74
425.302	2834.22
425.51	2955.05
425.718	3067.69
425.925	2977.58
426.133	3204.9
426.341	3305.25
426.548	3585.82
426.756	3456.8
426.964	3612.45
427.171	3745.56
427.379	3718.94
427.586	3895.07
427.794	4087.57
428.001	4228.88
428.209	4288.28
428.417	4407.06
428.624	4712.21
428.832	4658.96
429.039	4517.65
429.247	4622.09
429.454	5066.5
429.662	5400.32
429.869	5142.28
430.076	5322.5
430.284	5265.16
430.491	5373.7
430.699	5838.59
430.906	5809.92
431.114	5897.98
431.321	6158.07
431.528	6219.51
431.736	6498.03
431.943	6846.19
432.15	6668.02
432.358	7010.03
432.565	7261.93
432.772	7122.66
432.979	7464.68
433.187	7646.94
433.394	7608.03
433.601	8318.68
433.808	8220.38
434.016	8210.14
434.223	8531.67
434.43	9047.76
434.637	8834.77
434.844	9400.01
435.052	9608.9
435.259	9651.91
435.466	9846.46
435.673	9588.42
435.88	10155.71
436.087	10831.54
436.294	10784.43
436.501	10311.35
436.708	10612.4
436.915	10872.5
437.122	11536.04
437.329	11574.95
437.537	11781.79
437.743	11916.96
437.95	12021.41
438.157	12586.65
438.364	12992.14
438.571	12957.33
438.778	12844.69
438.985	14280.32
439.192	13653.64
439.399	14124.67
439.606	13981.31
439.813	14706.29
440.02	15580.78
440.227	15263.34
440.433	14990.96
440.64	15677.03
440.847	15189.61
441.054	15943.27
441.261	16854.61
441.467	16709.21
441.674	16901.72
441.881	17710.66
442.088	17765.96
442.294	17507.91
442.501	18036.29
442.708	18331.2
442.914	18974.26
443.121	19936.81
443.328	19361.33
443.534	20522.52
443.741	20045.35
443.948	19801.64
444.154	21263.89
444.361	21065.24
444.568	21313.04
444.774	21231.12
444.981	21425.68
445.187	22177.28
445.394	23025.14
445.6	22711.8
445.807	25157.08
446.013	23995.88
446.22	24690.14
446.426	25126.36
446.633	25480.66
446.839	26488.26
447.046	25290.2
447.252	26799.55
447.459	26903.99
447.665	26518.98
447.871	27999.66
448.078	29187.48
448.284	27684.27
448.491	28521.89
448.697	29599.12
448.903	30264.71
449.11	30184.84
449.316	29705.62
449.522	30010.76
449.728	31405.43
449.935	31276.41
450.141	31327.61
450.347	32068.97
450.553	30711.17
450.76	31257.98
450.966	32222.57
451.172	32099.69
451.378	32820.58
451.584	32101.74
451.791	33181.02
451.997	32869.73
452.203	33383.77
452.409	33375.58
452.615	33361.24
452.821	31561.08
453.027	31950.19
453.233	33285.47
453.44	32122.22
453.646	32630.12
453.852	32656.74
454.058	33469.78
454.264	31808.88
454.47	32818.53
454.676	32341.35
454.882	32804.19
455.088	29988.24
455.294	30659.97
455.5	31432.05
455.705	31487.35
455.911	30469.51
456.117	30008.72
456.323	29322.65
456.529	28042.67
456.735	29158.81
456.941	28351.91
457.147	27966.89
457.352	26924.47
457.558	26631.61
457.764	26805.69
457.97	25789.9
458.176	25785.8
458.381	25658.83
458.587	24235.49
458.793	24225.25
458.999	22887.93
459.204	24577.5
459.41	24112.61
459.616	22392.32
459.821	22371.84
460.027	22367.74
460.233	21851.66
460.438	21067.28
460.644	21157.39
460.85	20114.98
461.055	19729.96
461.261	19709.48
461.466	18425.4
461.672	17915.46
461.878	19238.45
462.083	17608.26
462.289	17466.95
462.494	17161.81
462.7	16383.58
462.905	16164.45
463.111	16756.31
463.316	16629.34
463.522	16606.81
463.727	16096.86
463.932	16252.51
464.138	16045.66
464.343	16178.78
464.549	15855.2
464.754	16262.75
464.959	15847.01
465.165	16100.96
465.37	15326.83
465.575	14894.71
465.781	15554.15
465.986	15580.78
466.191	15031.92
466.397	14622.33
466.602	13821.57
466.807	14544.5
467.012	14585.46
467.218	14458.49
467.423	14073.47
467.628	14546.55
