Data from USB4F104151__52__11-45-11-930.txt Node

Date: Fri Mar 14 11:45:11 EDT 2025
User: louis
Spectrometer: USB4F10415
Trigger mode: 4
Integration Time (sec): 2.000000E-2
Scans to average: 1
Electric dark correction enabled: true
Nonlinearity correction enabled: false
Boxcar width: 0
XAxis mode: Wavelengths
Number of Pixels in Spectrum: 3648
>>>>>Begin Spectral Data<<<<<
178.204	-121.17
178.424	-121.17
178.644	-121.17
178.864	-47.44
179.084	-61.78
179.304	-76.12
179.524	9.9
179.744	-16.73
179.964	30.38
180.184	-14.68
180.404	-0.34
180.624	-37.2
180.844	30.38
181.064	50.86
181.283	18.09
181.503	5.8
181.723	-0.34
181.943	5.8
182.163	-18.77
182.383	32.43
182.602	28.33
182.822	97.96
183.042	28.33
183.262	-33.11
183.482	22.19
183.701	22.19
183.921	104.11
184.141	91.82
184.361	5.8
184.58	5.8
184.8	-49.49
185.02	-51.54
185.239	36.52
185.459	18.09
185.679	83.63
185.898	-14.68
186.118	28.33
186.338	32.43
186.557	42.67
186.777	-18.77
186.997	18.09
187.216	59.05
187.436	3.75
187.655	38.57
187.875	7.85
188.095	-16.73
188.314	36.52
188.534	1.71
188.753	-31.06
188.973	28.33
189.192	97.96
189.412	-41.3
189.631	44.71
189.851	9.9
190.07	-6.49
190.29	50.86
190.509	28.33
190.729	-6.49
190.948	22.19
191.168	116.39
191.387	-33.11
191.607	1.71
191.826	18.09
192.045	30.38
192.265	-26.96
192.484	-31.06
192.704	18.09
192.923	-4.44
193.142	130.73
193.362	54.95
193.581	69.29
193.8	32.43
194.02	44.71
194.239	-18.77
194.458	7.85
194.678	24.23
194.897	36.52
195.116	18.09
195.335	34.47
195.555	-8.53
195.774	52.91
195.993	-14.68
196.212	26.28
196.432	28.33
196.651	-26.96
196.87	91.82
197.089	89.77
197.308	5.8
197.528	40.62
197.747	9.9
197.966	-41.3
198.185	-6.49
198.404	13.99
198.623	-2.39
198.842	61.1
199.062	3.75
199.281	13.99
199.5	-12.63
199.719	-14.68
199.938	36.52
200.157	73.39
200.376	-22.87
200.595	20.14
200.814	-6.49
201.033	-0.34
201.252	9.9
201.471	93.87
201.69	48.81
201.909	36.52
202.128	-84.31
202.347	40.62
202.566	-12.63
202.785	24.23
203.004	18.09
203.223	-8.53
203.442	32.43
203.661	42.67
203.879	5.8
204.098	20.14
204.317	-35.16
204.536	57
204.755	32.43
204.974	24.23
205.193	63.15
205.411	36.52
205.63	-4.44
205.849	104.11
206.068	54.95
206.287	-10.58
206.505	-18.77
206.724	-33.11
206.943	-4.44
207.162	26.28
207.381	7.85
207.599	77.48
207.818	30.38
208.037	9.9
208.255	20.14
208.474	46.76
208.693	57
208.911	-41.3
209.13	46.76
209.349	-51.54
209.567	-47.44
209.786	81.58
210.005	61.1
210.223	52.91
210.442	-39.25
210.661	77.48
210.879	-2.39
211.098	-0.34
211.316	-20.82
211.535	42.67
211.753	34.47
211.972	-4.44
212.191	-14.68
212.409	30.38
212.628	20.14
212.846	32.43
213.065	5.8
213.283	26.28
213.502	28.33
213.72	30.38
213.938	-0.34
214.157	5.8
214.375	11.95
214.594	1.71
214.812	83.63
215.031	-29.01
215.249	-12.63
215.467	-4.44
215.686	1.71
215.904	52.91
216.122	-22.87
216.341	85.67
216.559	54.95
216.778	13.99
216.996	57
217.214	-69.97
217.432	1.71
217.651	-14.68
217.869	59.05
218.087	24.23
218.306	16.04
218.524	75.43
218.742	50.86
218.96	5.8
219.179	-31.06
219.397	30.38
219.615	67.24
219.833	57
220.051	-10.58
220.27	81.58
220.488	83.63
220.706	81.58
220.924	28.33
221.142	26.28
221.36	44.71
221.578	-26.96
221.796	16.04
222.015	18.09
222.233	38.57
222.451	122.54
222.669	16.04
222.887	52.91
223.105	-45.4
223.323	-6.49
223.541	26.28
223.759	59.05
223.977	85.67
224.195	110.25
224.413	77.48
224.631	65.19
224.849	20.14
225.067	63.15
225.285	-33.11
225.503	1.71
225.721	-20.82
225.939	-59.73
226.157	20.14
226.375	77.48
226.592	5.8
226.81	-119.12
227.028	42.67
227.246	3.75
227.464	11.95
227.682	-0.34
227.9	40.62
228.117	-0.34
228.335	50.86
228.553	-0.34
228.771	-10.58
228.989	-12.63
229.206	16.04
229.424	79.53
229.642	7.85
229.86	20.14
230.077	54.95
230.295	-37.2
230.513	63.15
230.731	-37.2
230.948	-33.11
231.166	63.15
231.384	26.28
231.601	40.62
231.819	16.04
232.037	-12.63
232.254	-10.58
232.472	34.47
232.689	18.09
232.907	18.09
233.125	16.04
233.342	40.62
233.56	-24.92
233.777	102.06
233.995	52.91
234.213	22.19
234.43	50.86
234.648	9.9
234.865	-12.63
235.083	-2.39
235.3	-6.49
235.518	-16.73
235.735	38.57
235.953	20.14
236.17	50.86
236.388	-0.34
236.605	24.23
236.822	-0.34
237.04	38.57
237.257	-16.73
237.475	9.9
237.692	-59.73
237.909	57
238.127	1.71
238.344	18.09
238.562	42.67
238.779	-22.87
238.996	9.9
239.214	18.09
239.431	-35.16
239.648	-22.87
239.865	-35.16
240.083	83.63
240.3	30.38
240.517	73.39
240.735	-4.44
240.952	87.72
241.169	77.48
241.386	-22.87
241.603	52.91
241.821	7.85
242.038	75.43
242.255	-8.53
242.472	-14.68
242.689	-4.44
242.907	38.57
243.124	-61.78
243.341	114.34
243.558	22.19
243.775	1.71
243.992	22.19
244.209	52.91
244.426	65.19
244.643	-98.64
244.86	-2.39
245.078	73.39
245.295	46.76
245.512	-2.39
245.729	59.05
245.946	3.75
246.163	-26.96
246.38	28.33
246.597	-18.77
246.814	-4.44
247.031	-16.73
247.248	-6.49
247.464	1.71
247.681	20.14
247.898	9.9
248.115	24.23
248.332	42.67
248.549	46.76
248.766	67.24
248.983	91.82
249.2	5.8
249.417	18.09
249.633	-16.73
249.85	54.95
250.067	59.05
250.284	-0.34
250.501	-16.73
250.717	104.11
250.934	46.76
251.151	-2.39
251.368	-10.58
251.585	42.67
251.801	9.9
252.018	18.09
252.235	50.86
252.451	1.71
252.668	-0.34
252.885	-37.2
253.102	40.62
253.318	52.91
253.535	1.71
253.752	54.95
253.968	-22.87
254.185	24.23
254.401	-24.92
254.618	-18.77
254.835	-8.53
255.051	40.62
255.268	7.85
255.484	7.85
255.701	-8.53
255.917	28.33
256.134	24.23
256.351	-20.82
256.567	67.24
256.784	3.75
257	-20.82
257.217	52.91
257.433	-20.82
257.65	59.05
257.866	32.43
258.082	22.19
258.299	50.86
258.515	38.57
258.732	32.43
258.948	-8.53
259.165	16.04
259.381	52.91
259.597	63.15
259.814	-14.68
260.03	-4.44
260.246	-8.53
260.463	-22.87
260.679	44.71
260.895	26.28
261.112	104.11
261.328	-12.63
261.544	95.91
261.761	79.53
261.977	34.47
262.193	-76.12
262.409	50.86
262.626	24.23
262.842	28.33
263.058	22.19
263.274	57
263.49	22.19
263.707	16.04
263.923	36.52
264.139	-90.45
264.355	5.8
264.571	106.15
264.787	83.63
265.004	16.04
265.22	30.38
265.436	-0.34
265.652	26.28
265.868	13.99
266.084	-4.44
266.3	57
266.516	34.47
266.732	13.99
266.948	32.43
267.164	7.85
267.38	20.14
267.596	-22.87
267.812	65.19
268.028	122.54
268.244	-22.87
268.46	26.28
268.676	50.86
268.892	36.52
269.108	-12.63
269.324	5.8
269.54	13.99
269.756	-4.44
269.972	108.2
270.188	18.09
270.403	9.9
270.619	-35.16
270.835	48.81
271.051	50.86
271.267	13.99
271.483	13.99
271.698	50.86
271.914	-12.63
272.13	57
272.346	-16.73
272.562	-2.39
272.777	81.58
272.993	7.85
273.209	18.09
273.425	-26.96
273.64	44.71
273.856	83.63
274.072	18.09
274.287	18.09
274.503	16.04
274.719	42.67
274.934	30.38
275.15	24.23
275.366	44.71
275.581	28.33
275.797	89.77
276.012	20.14
276.228	11.95
276.444	-37.2
276.659	28.33
276.875	-0.34
277.09	-2.39
277.306	-35.16
277.521	46.76
277.737	71.34
277.952	63.15
278.168	-35.16
278.383	63.15
278.599	93.87
278.814	54.95
279.03	24.23
279.245	-24.92
279.461	46.76
279.676	34.47
279.892	44.71
280.107	-6.49
280.322	-47.44
280.538	38.57
280.753	-29.01
280.969	-2.39
281.184	-63.83
281.399	95.91
281.615	65.19
281.83	13.99
282.045	-94.55
282.26	-6.49
282.476	40.62
282.691	79.53
282.906	40.62
283.122	7.85
283.337	38.57
283.552	54.95
283.767	-24.92
283.983	140.97
284.198	13.99
284.413	-10.58
284.628	30.38
284.843	-10.58
285.058	34.47
285.274	-4.44
285.489	16.04
285.704	120.49
285.919	28.33
286.134	20.14
286.349	3.75
286.564	-2.39
286.779	11.95
286.995	34.47
287.21	-14.68
287.425	-8.53
287.64	65.19
287.855	5.8
288.07	-22.87
288.285	40.62
288.5	59.05
288.715	61.1
288.93	-63.83
289.145	5.8
289.36	20.14
289.575	-12.63
289.79	50.86
290.004	30.38
290.219	-33.11
290.434	20.14
290.649	42.67
290.864	22.19
291.079	1.71
291.294	42.67
291.509	-4.44
291.724	40.62
291.938	-2.39
292.153	18.09
292.368	-0.34
292.583	26.28
292.798	9.9
293.012	36.52
293.227	42.67
293.442	48.81
293.657	71.34
293.871	87.72
294.086	11.95
294.301	11.95
294.516	44.71
294.73	73.39
294.945	5.8
295.16	11.95
295.374	100.01
295.589	7.85
295.804	18.09
296.018	46.76
296.233	77.48
296.447	48.81
296.662	30.38
296.877	54.95
297.091	71.34
297.306	1.71
297.52	-18.77
297.735	-12.63
297.949	7.85
298.164	63.15
298.378	69.29
298.593	-31.06
298.807	-31.06
299.022	3.75
299.236	40.62
299.451	7.85
299.665	75.43
299.88	9.9
300.094	-31.06
300.309	71.34
300.523	54.95
300.737	67.24
300.952	91.82
301.166	32.43
301.381	-12.63
301.595	79.53
301.809	81.58
302.024	52.91
302.238	102.06
302.452	42.67
302.667	5.8
302.881	22.19
303.095	3.75
303.309	24.23
303.524	22.19
303.738	36.52
303.952	-16.73
304.166	-55.64
304.381	-6.49
304.595	20.14
304.809	46.76
305.023	1.71
305.237	-20.82
305.452	-0.34
305.666	3.75
305.88	32.43
306.094	9.9
306.308	11.95
306.522	1.71
306.736	9.9
306.95	71.34
307.164	50.86
307.379	32.43
307.593	11.95
307.807	85.67
308.021	116.39
308.235	71.34
308.449	-26.96
308.663	11.95
308.877	83.63
309.091	9.9
309.305	-39.25
309.519	-29.01
309.733	69.29
309.947	-2.39
310.161	42.67
310.374	-33.11
310.588	48.81
310.802	52.91
311.016	50.86
311.23	48.81
311.444	28.33
311.658	-4.44
311.872	36.52
312.085	67.24
312.299	-0.34
312.513	-45.4
312.727	-10.58
312.941	26.28
313.154	44.71
313.368	-0.34
313.582	-14.68
313.796	42.67
314.009	-31.06
314.223	112.3
314.437	24.23
314.651	1.71
314.864	54.95
315.078	73.39
315.292	65.19
315.505	-72.02
315.719	5.8
315.933	16.04
316.146	65.19
316.36	-6.49
316.573	42.67
316.787	20.14
317.001	11.95
317.214	52.91
317.428	65.19
317.641	63.15
317.855	44.71
318.068	71.34
318.282	32.43
318.495	54.95
318.709	91.82
318.922	16.04
319.136	50.86
319.349	181.93
319.563	40.62
319.776	11.95
319.99	-33.11
320.203	48.81
320.417	46.76
320.63	32.43
320.843	87.72
321.057	67.24
321.27	16.04
321.483	9.9
321.697	-45.4
321.91	75.43
322.124	-18.77
322.337	9.9
322.55	63.15
322.763	46.76
322.977	48.81
323.19	85.67
323.403	-43.35
323.617	81.58
323.83	67.24
324.043	-16.73
324.256	-29.01
324.469	20.14
324.683	28.33
324.896	100.01
325.109	40.62
325.322	-6.49
325.535	89.77
325.748	59.05
325.962	34.47
326.175	13.99
326.388	69.29
326.601	42.67
326.814	110.25
327.027	40.62
327.24	24.23
327.453	44.71
327.666	95.91
327.879	-8.53
328.092	63.15
328.305	18.09
328.518	30.38
328.731	34.47
328.944	-10.58
329.157	11.95
329.37	1.71
329.583	7.85
329.796	59.05
330.009	1.71
330.222	124.58
330.435	52.91
330.648	-24.92
330.861	73.39
331.073	67.24
331.286	38.57
331.499	30.38
331.712	1.71
331.925	28.33
332.138	52.91
332.35	77.48
332.563	22.19
332.776	26.28
332.989	110.25
333.202	34.47
333.414	-4.44
333.627	32.43
333.84	28.33
334.053	91.82
334.265	67.24
334.478	65.19
334.691	-18.77
334.903	9.9
335.116	57
335.329	52.91
335.541	42.67
335.754	42.67
335.966	7.85
336.179	120.49
336.392	26.28
336.604	-6.49
336.817	57
337.029	69.29
337.242	81.58
337.454	54.95
337.667	5.8
337.88	42.67
338.092	-10.58
338.305	50.86
338.517	-10.58
338.729	108.2
338.942	42.67
339.154	114.34
339.367	-14.68
339.579	122.54
339.792	9.9
340.004	38.57
340.217	52.91
340.429	71.34
340.641	75.43
340.854	50.86
341.066	13.99
341.278	79.53
341.491	18.09
341.703	71.34
341.915	24.23
342.128	48.81
342.34	50.86
342.552	30.38
342.764	-0.34
342.977	44.71
343.189	130.73
343.401	38.57
343.613	-22.87
343.826	42.67
344.038	-6.49
344.25	32.43
344.462	1.71
344.674	30.38
344.886	1.71
345.099	67.24
345.311	-49.49
345.523	36.52
345.735	-41.3
345.947	112.3
346.159	48.81
346.371	63.15
346.583	-22.87
346.795	63.15
347.007	1.71
347.219	106.15
347.431	-35.16
347.643	34.47
347.855	54.95
348.067	46.76
348.279	106.15
348.491	52.91
348.703	77.48
348.915	-59.73
349.127	-24.92
349.339	-0.34
349.551	34.47
349.763	57
349.975	79.53
350.187	108.2
350.399	81.58
350.61	18.09
350.822	-29.01
351.034	73.39
351.246	34.47
351.458	108.2
351.669	52.91
351.881	16.04
352.093	85.67
352.305	1.71
352.517	-63.83
352.728	75.43
352.94	44.71
353.152	57
353.363	22.19
353.575	22.19
353.787	59.05
353.999	24.23
354.21	46.76
354.422	46.76
354.633	-31.06
354.845	89.77
355.057	38.57
355.268	59.05
355.48	48.81
355.692	-14.68
355.903	79.53
356.115	-20.82
356.326	1.71
356.538	89.77
356.749	57
356.961	57
357.172	16.04
357.384	-24.92
357.595	118.44
357.807	-16.73
358.018	18.09
358.23	118.44
358.441	26.28
358.653	30.38
358.864	32.43
359.075	20.14
359.287	59.05
359.498	83.63
359.709	5.8
359.921	42.67
360.132	30.38
360.344	63.15
360.555	46.76
360.766	30.38
360.977	87.72
361.189	18.09
361.4	34.47
361.611	48.81
361.823	-10.58
362.034	59.05
362.245	83.63
362.456	73.39
362.667	36.52
362.879	3.75
363.09	87.72
363.301	67.24
363.512	38.57
363.723	54.95
363.935	75.43
364.146	83.63
364.357	30.38
364.568	38.57
364.779	30.38
364.99	122.54
365.201	32.43
365.412	91.82
365.623	48.81
365.834	-0.34
366.045	89.77
366.256	-6.49
366.467	18.09
366.678	32.43
366.889	-4.44
367.1	-0.34
367.311	28.33
367.522	-20.82
367.733	44.71
367.944	75.43
368.155	32.43
368.366	112.3
368.577	40.62
368.788	28.33
368.999	9.9
369.209	3.75
369.42	75.43
369.631	48.81
369.842	95.91
370.053	5.8
370.264	87.72
370.474	32.43
370.685	61.1
370.896	18.09
371.107	130.73
371.317	18.09
371.528	87.72
371.739	18.09
371.95	124.58
372.16	20.14
372.371	16.04
372.582	97.96
372.792	16.04
373.003	36.52
373.214	65.19
373.424	46.76
373.635	1.71
373.846	16.04
374.056	59.05
374.267	38.57
374.477	75.43
374.688	-8.53
374.898	26.28
375.109	65.19
375.319	71.34
375.53	65.19
375.74	16.04
375.951	54.95
376.161	34.47
376.372	32.43
376.582	-29.01
376.793	26.28
377.003	-2.39
377.214	69.29
377.424	11.95
377.635	87.72
377.845	-22.87
378.055	-0.34
378.266	75.43
378.476	175.78
378.686	36.52
378.897	57
379.107	126.63
379.317	100.01
379.528	-24.92
379.738	75.43
379.948	22.19
380.158	-6.49
380.369	65.19
380.579	114.34
380.789	71.34
380.999	120.49
381.21	48.81
381.42	91.82
381.63	30.38
381.84	63.15
382.05	116.39
382.261	110.25
382.471	104.11
382.681	38.57
382.891	104.11
383.101	77.48
383.311	67.24
383.521	18.09
383.731	75.43
383.941	104.11
384.151	73.39
384.361	71.34
384.571	50.86
384.781	36.52
384.991	26.28
385.201	134.82
385.411	16.04
385.621	63.15
385.831	143.02
386.041	20.14
386.251	54.95
386.461	61.1
386.671	30.38
386.881	5.8
387.091	91.82
387.301	79.53
387.511	63.15
387.72	67.24
387.93	50.86
388.14	-20.82
388.35	59.05
388.56	54.95
388.769	91.82
388.979	57
389.189	79.53
389.399	-31.06
389.609	116.39
389.818	63.15
390.028	46.76
390.238	175.78
390.447	13.99
390.657	114.34
390.867	11.95
391.076	57
391.286	50.86
391.496	145.06
391.705	34.47
391.915	130.73
392.125	-16.73
392.334	48.81
392.544	83.63
392.753	3.75
392.963	20.14
393.172	9.9
393.382	89.77
393.591	30.38
393.801	71.34
394.01	128.68
394.22	65.19
394.429	75.43
394.639	52.91
394.848	67.24
395.058	59.05
395.267	83.63
395.477	79.53
395.686	112.3
395.895	110.25
396.105	124.58
396.314	50.86
396.524	54.95
396.733	75.43
396.942	44.71
397.152	91.82
397.361	124.58
397.57	126.63
397.78	149.16
397.989	57
398.198	122.54
398.407	71.34
398.617	59.05
398.826	102.06
399.035	-12.63
399.244	118.44
399.453	110.25
399.663	63.15
399.872	20.14
400.081	61.1
400.29	134.82
400.499	83.63
400.708	145.06
400.917	106.15
401.127	153.26
401.336	57
401.545	120.49
401.754	91.82
401.963	81.58
402.172	100.01
402.381	110.25
402.59	114.34
402.799	93.87
403.008	173.74
403.217	106.15
403.426	44.71
403.635	93.87
403.844	151.21
404.053	87.72
404.262	132.78
404.471	194.22
404.68	83.63
404.888	126.63
405.097	132.78
405.306	130.73
405.515	85.67
405.724	112.3
405.933	175.78
406.142	171.69
406.35	210.6
406.559	204.46
406.768	177.83
406.977	190.12
407.185	145.06
407.394	175.78
407.603	143.02
407.812	143.02
408.02	280.23
408.229	255.65
408.438	202.41
408.646	253.61
408.855	243.37
409.064	249.51
409.272	253.61
409.481	306.85
409.69	233.13
409.898	310.95
410.107	308.9
410.315	274.09
410.524	323.24
410.733	409.25
410.941	310.95
411.15	335.53
411.358	378.53
411.567	362.15
411.775	411.3
411.984	476.84
412.192	464.55
412.401	487.08
412.609	401.06
412.818	493.22
413.026	460.45
413.234	448.16
413.443	525.99
413.651	622.24
413.86	562.85
414.068	550.56
414.276	566.95
414.485	636.58
414.693	648.86
414.901	689.82
415.11	657.06
415.318	685.73
415.526	677.54
415.734	788.13
415.943	722.59
416.151	765.6
416.359	781.98
416.567	814.75
416.776	876.19
416.984	1007.26
417.192	956.06
417.4	1001.12
417.608	1009.31
417.817	1058.46
418.025	1109.66
418.233	1128.09
418.441	1195.67
418.649	1121.95
418.857	1312.41
419.065	1269.4
419.273	1326.74
419.481	1287.83
419.689	1480.34
419.897	1484.44
420.105	1527.44
420.313	1631.89
420.521	1611.41
420.729	1560.21
420.937	1785.49
421.145	1717.9
421.353	1789.58
421.561	1865.36
421.769	1994.38
421.977	2025.1
422.185	2086.54
422.393	2119.31
422.601	2238.09
422.809	2291.34
423.017	2422.41
423.224	2389.64
423.432	2563.72
423.64	2455.17
423.848	2723.46
424.056	2743.94
424.263	2852.48
424.471	2893.44
424.679	2946.69
424.887	3139.19
425.094	3245.69
425.302	3208.83
425.51	3241.59
425.718	3417.72
425.925	3473.01
426.133	3516.02
426.341	3825.26
426.548	3763.83
426.756	3853.94
426.964	3970.67
427.171	4202.09
427.379	4279.91
427.586	4410.98
427.794	4453.99
428.001	4679.27
428.209	4841.06
428.417	4859.49
428.624	5138.01
428.832	5213.79
429.039	5207.64
429.247	5291.61
429.454	5703.25
429.662	6030.93
429.869	5633.62
430.076	6069.84
430.284	5862.99
430.491	6118.99
430.699	6477.38
430.906	6409.8
431.114	6661.7
431.321	6712.9
431.528	6972.99
431.736	7474.74
431.943	7679.54
432.15	7712.31
432.358	7431.74
432.565	8033.84
432.772	8082.99
432.979	8519.21
433.187	8539.69
433.394	8594.98
433.601	9170.46
433.808	9125.41
434.016	9043.49
434.223	9446.94
434.43	10122.77
434.637	9686.55
434.844	10438.16
435.052	10493.45
435.259	10567.18
435.466	10673.67
435.673	10731.01
435.88	11347.45
436.087	11822.58
436.294	11939.32
436.501	11601.4
436.708	11941.36
436.915	12271.09
437.122	12658.15
437.329	12746.22
437.537	13333.98
437.743	13229.54
437.95	13284.83
438.157	14050.77
438.364	14392.78
438.571	14288.34
438.778	14544.33
438.985	15857.08
439.192	15179.2
439.399	15482.3
439.606	15556.03
439.813	16035.25
440.02	17325.47
440.227	16750
440.433	16967.08
440.64	17243.56
440.847	17053.09
441.054	17532.32
441.261	18734.48
441.467	18632.08
441.674	19152.26
441.881	19881.34
442.088	19772.8
442.294	19576.19
442.501	19856.76
442.708	20426.1
442.914	21224.81
443.121	22222.17
443.328	21599.59
443.534	22850.89
443.741	22562.13
443.948	21839.2
444.154	23868.73
444.361	23366.98
444.568	23663.94
444.774	23725.38
444.981	23921.98
445.187	24503.6
445.394	25865.5
445.6	25431.33
445.807	27827.46
446.013	26432.79
446.22	27004.17
446.426	27964.67
446.633	28060.93
446.839	29265.13
447.046	28036.35
447.252	30000.35
447.459	29625.57
447.665	29684.97
447.871	30833.88
448.078	32124.1
448.284	30463.19
448.491	31556.81
448.697	32750.77
448.903	33393.84
449.11	33197.23
449.316	32941.24
449.522	33604.78
449.728	34198.69
449.935	34716.82
450.141	34471.07
450.347	35372.17
450.553	34188.45
450.76	34802.84
450.966	36060.29
451.172	35660.94
451.378	36430.97
451.584	35652.75
451.791	36383.87
451.997	36125.83
452.203	37385.33
452.409	36572.28
452.615	36662.4
452.821	36009.09
453.027	35331.22
453.233	37080.18
453.44	35755.15
453.646	35644.55
453.852	36490.37
454.058	36748.41
454.264	35642.51
454.47	36271.23
454.676	35114.13
454.882	36689.02
455.088	33090.74
455.294	33991.84
455.5	34327.71
455.705	34423.97
455.911	33135.79
456.117	32658.62
456.323	32388.28
456.529	30455
456.735	32103.62
456.941	31149.26
457.147	30737.62
457.352	29734.12
457.558	29220.08
457.764	29648.1
457.97	28468.47
458.176	28054.78
458.381	28087.55
458.587	26721.55
458.793	26752.27
458.999	25697.57
459.204	27026.7
459.41	26463.51
459.616	24988.97
459.821	25031.98
460.027	24698.16
460.233	24036.67
460.438	23223.62
460.644	23080.27
460.85	21972.32
461.055	21591.39
461.261	22084.95
461.466	20534.64
461.672	19529.09
461.878	20798.83
462.083	19873.15
462.289	19481.99
462.494	18779.53
462.7	18120.09
462.905	17790.36
463.111	18572.69
463.316	18441.62
463.522	17958.3
463.727	18124.18
463.932	17776.03
464.138	17757.6
464.343	17943.96
464.549	17282.47
464.754	17806.75
464.959	17710.49
465.165	17427.87
465.37	16872.87
465.575	16209.33
465.781	17003.94
465.986	17272.23
466.191	16614.83
466.397	16283.06
466.602	15625.66
466.807	16088.5
467.012	16180.66
467.218	15928.76
467.423	15623.61
467.628	15861.18
467.833	16637.36
