Data from USB4F104151__53__11-45-12-218.txt Node

Date: Fri Mar 14 11:45:12 EDT 2025
User: louis
Spectrometer: USB4F10415
Trigger mode: 4
Integration Time (sec): 2.000000E-2
Scans to average: 1
Electric dark correction enabled: true
Nonlinearity correction enabled: false
Boxcar width: 0
XAxis mode: Wavelengths
Number of Pixels in Spectrum: 3648
>>>>>Begin Spectral Data<<<<<
178.204	-31.74
178.424	-31.74
178.644	-31.74
178.864	-119.81
179.084	-56.32
179.304	1.02
179.524	-23.55
179.744	15.36
179.964	-15.36
180.184	9.22
180.404	23.55
180.624	-44.03
180.844	95.23
181.064	5.12
181.283	-58.37
181.503	3.07
181.723	-11.26
181.943	-3.07
182.163	-44.03
182.383	15.36
182.602	60.42
182.822	35.84
183.042	15.36
183.262	-35.84
183.482	41.98
183.701	-21.5
183.921	25.6
184.141	54.27
184.361	11.26
184.58	62.46
184.8	-74.75
185.02	-17.41
185.239	66.56
185.459	15.36
185.679	1.02
185.898	-111.61
186.118	11.26
186.338	9.22
186.557	31.74
186.777	-37.89
186.997	-13.31
187.216	-52.22
187.436	107.52
187.655	-21.5
187.875	74.75
188.095	-46.08
188.314	1.02
188.534	9.22
188.753	-5.12
188.973	-17.41
189.192	-70.65
189.412	138.24
189.631	41.98
189.851	-17.41
190.07	3.07
190.29	25.6
190.509	72.7
190.729	11.26
190.948	117.76
191.168	3.07
191.387	5.12
191.607	-27.65
191.826	54.27
192.045	31.74
192.265	15.36
192.484	35.84
192.704	-31.74
192.923	-89.09
193.142	25.6
193.362	7.17
193.581	44.03
193.8	-17.41
194.02	-5.12
194.239	-35.84
194.458	37.89
194.678	58.37
194.897	-27.65
195.116	-19.46
195.335	87.04
195.555	1.02
195.774	11.26
195.993	21.5
196.212	21.5
196.432	-23.55
196.651	41.98
196.87	7.17
197.089	80.89
197.308	19.46
197.528	37.89
197.747	60.42
197.966	41.98
198.185	9.22
198.404	19.46
198.623	-21.5
198.842	15.36
199.062	35.84
199.281	13.31
199.5	-3.07
199.719	-37.89
199.938	44.03
200.157	68.61
200.376	41.98
200.595	25.6
200.814	21.5
201.033	3.07
201.252	-15.36
201.471	-52.22
201.69	7.17
201.909	23.55
202.128	84.99
202.347	-72.7
202.566	-27.65
202.785	-13.31
203.004	17.41
203.223	70.65
203.442	-3.07
203.661	21.5
203.879	-5.12
204.098	19.46
204.317	-31.74
204.536	93.18
204.755	39.94
204.974	60.42
205.193	74.75
205.411	66.56
205.63	1.02
205.849	35.84
206.068	33.79
206.287	21.5
206.505	68.61
206.724	-41.98
206.943	-1.02
207.162	-13.31
207.381	-23.55
207.599	-17.41
207.818	64.51
208.037	-19.46
208.255	-64.51
208.474	-46.08
208.693	-1.02
208.911	-5.12
209.13	46.08
209.349	29.7
209.567	-15.36
209.786	-41.98
210.005	48.13
210.223	99.33
210.442	15.36
210.661	64.51
210.879	7.17
211.098	50.18
211.316	15.36
211.535	44.03
211.753	-84.99
211.972	74.75
212.191	-58.37
212.409	15.36
212.628	-52.22
212.846	-60.42
213.065	17.41
213.283	-17.41
213.502	-50.18
213.72	-19.46
213.938	68.61
214.157	29.7
214.375	31.74
214.594	17.41
214.812	9.22
215.031	46.08
215.249	-33.79
215.467	-9.22
215.686	95.23
215.904	1.02
216.122	-27.65
216.341	-7.17
216.559	3.07
216.778	54.27
216.996	62.46
217.214	31.74
217.432	-39.94
217.651	48.13
217.869	15.36
218.087	-5.12
218.306	-11.26
218.524	-25.6
218.742	-11.26
218.96	21.5
219.179	48.13
219.397	39.94
219.615	52.22
219.833	89.09
220.051	31.74
220.27	50.18
220.488	25.6
220.706	5.12
220.924	29.7
221.142	-41.98
221.36	50.18
221.578	-9.22
221.796	-13.31
222.015	-68.61
222.233	19.46
222.451	119.81
222.669	-17.41
222.887	23.55
223.105	25.6
223.323	64.51
223.541	33.79
223.759	27.65
223.977	17.41
224.195	15.36
224.413	62.46
224.631	37.89
224.849	19.46
225.067	33.79
225.285	-1.02
225.503	9.22
225.721	-7.17
225.939	25.6
226.157	-11.26
226.375	44.03
226.592	-125.95
226.81	-17.41
227.028	17.41
227.246	41.98
227.464	-3.07
227.682	64.51
227.9	-21.5
228.117	3.07
228.335	-21.5
228.553	13.31
228.771	-15.36
228.989	13.31
229.206	-11.26
229.424	17.41
229.642	-7.17
229.86	89.09
230.077	44.03
230.295	13.31
230.513	5.12
230.731	-33.79
230.948	-39.94
231.166	27.65
231.384	-64.51
231.601	17.41
231.819	35.84
232.037	-3.07
232.254	-60.42
232.472	-52.22
232.689	-44.03
232.907	70.65
233.125	29.7
233.342	-1.02
233.56	-15.36
233.777	29.7
233.995	-3.07
234.213	109.57
234.43	-11.26
234.648	15.36
234.865	-27.65
235.083	-23.55
235.3	31.74
235.518	74.75
235.735	46.08
235.953	-3.07
236.17	46.08
236.388	-5.12
236.605	25.6
236.822	13.31
237.04	58.37
237.257	-23.55
237.475	-9.22
237.692	-56.32
237.909	11.26
238.127	-31.74
238.344	50.18
238.562	31.74
238.779	-13.31
238.996	5.12
239.214	74.75
239.431	41.98
239.648	-3.07
239.865	19.46
240.083	5.12
240.3	48.13
240.517	13.31
240.735	9.22
240.952	111.61
241.169	9.22
241.386	-11.26
241.603	-33.79
241.821	-56.32
242.038	1.02
242.255	-3.07
242.472	31.74
242.689	-23.55
242.907	46.08
243.124	-13.31
243.341	44.03
243.558	1.02
243.775	11.26
243.992	-31.74
244.209	-39.94
244.426	48.13
244.643	-5.12
244.86	46.08
245.078	13.31
245.295	13.31
245.512	-50.18
245.729	-13.31
245.946	35.84
246.163	3.07
246.38	39.94
246.597	-21.5
246.814	35.84
247.031	13.31
247.248	-15.36
247.464	46.08
247.681	13.31
247.898	66.56
248.115	25.6
248.332	-44.03
248.549	60.42
248.766	-21.5
248.983	17.41
249.2	56.32
249.417	-25.6
249.633	23.55
249.85	21.5
250.067	11.26
250.284	82.94
250.501	3.07
250.717	33.79
250.934	7.17
251.151	-11.26
251.368	-15.36
251.585	15.36
251.801	-7.17
252.018	-5.12
252.235	70.65
252.451	13.31
252.668	41.98
252.885	15.36
253.102	70.65
253.318	27.65
253.535	82.94
253.752	29.7
253.968	7.17
254.185	-3.07
254.401	-25.6
254.618	-11.26
254.835	-31.74
255.051	27.65
255.268	-13.31
255.484	41.98
255.701	-31.74
255.917	33.79
256.134	-87.04
256.351	23.55
256.567	64.51
256.784	5.12
257	23.55
257.217	31.74
257.433	-7.17
257.65	60.42
257.866	56.32
258.082	-23.55
258.299	-68.61
258.515	19.46
258.732	-64.51
258.948	-50.18
259.165	-13.31
259.381	-21.5
259.597	3.07
259.814	-15.36
260.03	-25.6
260.246	-27.65
260.463	48.13
260.679	72.7
260.895	-31.74
261.112	-1.02
261.328	31.74
261.544	-27.65
261.761	64.51
261.977	31.74
262.193	50.18
262.409	41.98
262.626	-23.55
262.842	-23.55
263.058	-19.46
263.274	-1.02
263.49	5.12
263.707	64.51
263.923	64.51
264.139	-3.07
264.355	-27.65
264.571	50.18
264.787	62.46
265.004	52.22
265.22	37.89
265.436	-25.6
265.652	33.79
265.868	31.74
266.084	17.41
266.3	-19.46
266.516	35.84
266.732	9.22
266.948	-44.03
267.164	17.41
267.38	27.65
267.596	62.46
267.812	7.17
268.028	-37.89
268.244	-25.6
268.46	5.12
268.676	21.5
268.892	-19.46
269.108	7.17
269.324	-37.89
269.54	-37.89
269.756	-13.31
269.972	-5.12
270.188	-3.07
270.403	15.36
270.619	1.02
270.835	25.6
271.051	46.08
271.267	46.08
271.483	-31.74
271.698	-31.74
271.914	64.51
272.13	-1.02
272.346	-54.27
272.562	46.08
272.777	-17.41
272.993	72.7
273.209	19.46
273.425	70.65
273.64	-23.55
273.856	50.18
274.072	7.17
274.287	39.94
274.503	-9.22
274.719	37.89
274.934	76.8
275.15	-19.46
275.366	-29.7
275.581	54.27
275.797	48.13
276.012	5.12
276.228	25.6
276.444	31.74
276.659	64.51
276.875	13.31
277.09	87.04
277.306	58.37
277.521	54.27
277.737	21.5
277.952	23.55
278.168	-44.03
278.383	60.42
278.599	-23.55
278.814	1.02
279.03	33.79
279.245	13.31
279.461	-23.55
279.676	99.33
279.892	7.17
280.107	27.65
280.322	3.07
280.538	-23.55
280.753	39.94
280.969	27.65
281.184	-48.13
281.399	27.65
281.615	-17.41
281.83	-21.5
282.045	60.42
282.26	-31.74
282.476	-1.02
282.691	17.41
282.906	-13.31
283.122	21.5
283.337	-7.17
283.552	-5.12
283.767	35.84
283.983	-13.31
284.198	15.36
284.413	35.84
284.628	9.22
284.843	-27.65
285.058	33.79
285.274	74.75
285.489	5.12
285.704	37.89
285.919	48.13
286.134	9.22
286.349	-29.7
286.564	15.36
286.779	58.37
286.995	7.17
287.21	3.07
287.425	103.42
287.64	-3.07
287.855	76.8
288.07	7.17
288.285	-3.07
288.5	-5.12
288.715	-58.37
288.93	17.41
289.145	31.74
289.36	-23.55
289.575	5.12
289.79	-37.89
290.004	54.27
290.219	-60.42
290.434	97.28
290.649	-48.13
290.864	-52.22
291.079	-7.17
291.294	-13.31
291.509	-19.46
291.724	-29.7
291.938	15.36
292.153	-5.12
292.368	82.94
292.583	33.79
292.798	11.26
293.012	-5.12
293.227	29.7
293.442	48.13
293.657	48.13
293.871	17.41
294.086	27.65
294.301	37.89
294.516	91.13
294.73	13.31
294.945	-11.26
295.16	13.31
295.374	-9.22
295.589	-7.17
295.804	-17.41
296.018	35.84
296.233	21.5
296.447	44.03
296.662	-29.7
296.877	50.18
297.091	105.47
297.306	13.31
297.52	-25.6
297.735	-7.17
297.949	21.5
298.164	41.98
298.378	5.12
298.593	11.26
298.807	31.74
299.022	-15.36
299.236	64.51
299.451	-3.07
299.665	-29.7
299.88	-27.65
300.094	44.03
300.309	21.5
300.523	-72.7
300.737	52.22
300.952	17.41
301.166	107.52
301.381	-60.42
301.595	13.31
301.809	17.41
302.024	-3.07
302.238	50.18
302.452	23.55
302.667	76.8
302.881	64.51
303.095	13.31
303.309	54.27
303.524	-31.74
303.738	-76.8
303.952	-27.65
304.166	29.7
304.381	-74.75
304.595	29.7
304.809	23.55
305.023	54.27
305.237	52.22
305.452	31.74
305.666	46.08
305.88	5.12
306.094	41.98
306.308	11.26
306.522	109.57
306.736	-46.08
306.95	89.09
307.164	50.18
307.379	7.17
307.593	25.6
307.807	33.79
308.021	-21.5
308.235	25.6
308.449	21.5
308.663	-82.94
308.877	19.46
309.091	39.94
309.305	60.42
309.519	-46.08
309.733	66.56
309.947	52.22
310.161	-9.22
310.374	60.42
310.588	82.94
310.802	33.79
311.016	31.74
311.23	13.31
311.444	1.02
311.658	-23.55
311.872	50.18
312.085	-5.12
312.299	93.18
312.513	27.65
312.727	-17.41
312.941	-48.13
313.154	56.32
313.368	50.18
313.582	-17.41
313.796	1.02
314.009	44.03
314.223	93.18
314.437	54.27
314.651	-31.74
314.864	-5.12
315.078	-44.03
315.292	-27.65
315.505	5.12
315.719	101.37
315.933	-11.26
316.146	1.02
316.36	-25.6
316.573	13.31
316.787	19.46
317.001	21.5
317.214	-13.31
317.428	-1.02
317.641	11.26
317.855	41.98
318.068	-27.65
318.282	-23.55
318.495	-19.46
318.709	17.41
318.922	-15.36
319.136	29.7
319.349	-11.26
319.563	-39.94
319.776	52.22
319.99	-1.02
320.203	74.75
320.417	5.12
320.63	-27.65
320.843	25.6
321.057	5.12
321.27	68.61
321.483	-1.02
321.697	39.94
321.91	46.08
322.124	-3.07
322.337	31.74
322.55	-13.31
322.763	-5.12
322.977	29.7
323.19	-41.98
323.403	-27.65
323.617	107.52
323.83	60.42
324.043	56.32
324.256	80.89
324.469	-17.41
324.683	105.47
324.896	-3.07
325.109	-9.22
325.322	-21.5
325.535	-29.7
325.748	29.7
325.962	13.31
326.175	66.56
326.388	-1.02
326.601	-3.07
326.814	66.56
327.027	19.46
327.24	39.94
327.453	-5.12
327.666	39.94
327.879	-54.27
328.092	44.03
328.305	-23.55
328.518	64.51
328.731	-21.5
328.944	56.32
329.157	41.98
329.37	64.51
329.583	-39.94
329.796	21.5
330.009	-1.02
330.222	-23.55
330.435	58.37
330.648	84.99
330.861	84.99
331.073	-3.07
331.286	-23.55
331.499	39.94
331.712	58.37
331.925	-19.46
332.138	21.5
332.35	31.74
332.563	25.6
332.776	56.32
332.989	78.85
333.202	-17.41
333.414	21.5
333.627	76.8
333.84	-5.12
334.053	-19.46
334.265	87.04
334.478	5.12
334.691	7.17
334.903	39.94
335.116	-7.17
335.329	-52.22
335.541	95.23
335.754	27.65
335.966	33.79
336.179	-13.31
336.392	68.61
336.604	-9.22
336.817	9.22
337.029	29.7
337.242	41.98
337.454	25.6
337.667	80.89
337.88	9.22
338.092	25.6
338.305	1.02
338.517	68.61
338.729	23.55
338.942	117.76
339.154	-27.65
339.367	7.17
339.579	-46.08
339.792	41.98
340.004	1.02
340.217	70.65
340.429	39.94
340.641	21.5
340.854	23.55
341.066	50.18
341.278	5.12
341.491	56.32
341.703	84.99
341.915	-21.5
342.128	27.65
342.34	46.08
342.552	31.74
342.764	76.8
342.977	-66.56
343.189	48.13
343.401	44.03
343.613	-9.22
343.826	-21.5
344.038	9.22
344.25	15.36
344.462	25.6
344.674	46.08
344.886	35.84
345.099	91.13
345.311	76.8
345.523	31.74
345.735	-31.74
345.947	54.27
346.159	27.65
346.371	39.94
346.583	11.26
346.795	41.98
347.007	1.02
347.219	-39.94
347.431	82.94
347.643	89.09
347.855	13.31
348.067	-21.5
348.279	5.12
348.491	60.42
348.703	27.65
348.915	-50.18
349.127	17.41
349.339	37.89
349.551	-11.26
349.763	76.8
349.975	-9.22
350.187	66.56
350.399	111.61
350.61	156.67
350.822	9.22
351.034	66.56
351.246	11.26
351.458	41.98
351.669	29.7
351.881	19.46
352.093	17.41
352.305	91.13
352.517	82.94
352.728	46.08
352.94	70.65
353.152	-11.26
353.363	11.26
353.575	44.03
353.787	103.42
353.999	1.02
354.21	78.85
354.422	60.42
354.633	1.02
354.845	60.42
355.057	-5.12
355.268	107.52
355.48	39.94
355.692	-33.79
355.903	5.12
356.115	15.36
356.326	3.07
356.538	31.74
356.749	-17.41
356.961	46.08
357.172	48.13
357.384	41.98
357.595	-23.55
357.807	3.07
358.018	-3.07
358.23	1.02
358.441	101.37
358.653	99.33
358.864	-7.17
359.075	-5.12
359.287	56.32
359.498	-7.17
359.709	19.46
359.921	7.17
360.132	25.6
360.344	13.31
360.555	-1.02
360.766	68.61
360.977	17.41
361.189	91.13
361.4	56.32
361.611	-13.31
361.823	52.22
362.034	37.89
362.245	-27.65
362.456	-37.89
362.667	39.94
362.879	25.6
363.09	91.13
363.301	60.42
363.512	3.07
363.723	3.07
363.935	52.22
364.146	62.46
364.357	-7.17
364.568	-46.08
364.779	-7.17
364.99	29.7
365.201	54.27
365.412	68.61
365.623	-35.84
365.834	89.09
366.045	39.94
366.256	39.94
366.467	5.12
366.678	66.56
366.889	37.89
367.1	54.27
367.311	-1.02
367.522	-3.07
367.733	80.89
367.944	37.89
368.155	82.94
368.366	29.7
368.577	54.27
368.788	76.8
368.999	29.7
369.209	-25.6
369.42	95.23
369.631	72.7
369.842	52.22
370.053	-29.7
370.264	66.56
370.474	-46.08
370.685	31.74
370.896	37.89
371.107	25.6
371.317	-27.65
371.528	17.41
371.739	70.65
371.95	31.74
372.16	93.18
372.371	37.89
372.582	23.55
372.792	-17.41
373.003	-3.07
373.214	27.65
373.424	84.99
373.635	93.18
373.846	91.13
374.056	15.36
374.267	21.5
374.477	31.74
374.688	15.36
374.898	54.27
375.109	107.52
375.319	39.94
375.53	-52.22
375.74	31.74
375.951	11.26
376.161	62.46
376.372	58.37
376.582	64.51
376.793	41.98
377.003	1.02
377.214	13.31
377.424	37.89
377.635	-44.03
377.845	21.5
378.055	113.66
378.266	13.31
378.476	89.09
378.686	35.84
378.897	46.08
379.107	-31.74
379.317	37.89
379.528	60.42
379.738	87.04
379.948	11.26
380.158	58.37
380.369	37.89
380.579	23.55
380.789	-11.26
380.999	121.85
381.21	78.85
381.42	39.94
381.63	17.41
381.84	41.98
382.05	-9.22
382.261	82.94
382.471	27.65
382.681	-39.94
382.891	46.08
383.101	-19.46
383.311	91.13
383.521	15.36
383.731	70.65
383.941	46.08
384.151	52.22
384.361	64.51
384.571	-54.27
384.781	78.85
384.991	46.08
385.201	103.42
385.411	50.18
385.621	111.61
385.831	41.98
386.041	76.8
386.251	44.03
386.461	41.98
386.671	97.28
386.881	-35.84
387.091	31.74
387.301	93.18
387.511	48.13
387.72	33.79
387.93	72.7
388.14	9.22
388.35	-13.31
388.56	84.99
388.769	56.32
388.979	80.89
389.189	-52.22
389.399	136.19
389.609	41.98
389.818	33.79
390.028	80.89
390.238	31.74
390.447	35.84
390.657	19.46
390.867	9.22
391.076	-5.12
391.286	91.13
391.496	35.84
391.705	80.89
391.915	80.89
392.125	21.5
392.334	50.18
392.544	87.04
392.753	27.65
392.963	9.22
393.172	87.04
393.382	48.13
393.591	70.65
393.801	-31.74
394.01	82.94
394.22	39.94
394.429	48.13
394.639	46.08
394.848	119.81
395.058	95.23
395.267	125.95
395.477	50.18
395.686	60.42
395.895	52.22
396.105	156.67
396.314	-5.12
396.524	152.57
396.733	27.65
396.942	93.18
397.152	78.85
397.361	84.99
397.57	70.65
397.78	138.24
397.989	-3.07
398.198	66.56
398.407	97.28
398.617	107.52
398.826	66.56
399.035	103.42
399.244	23.55
399.453	68.61
399.663	74.75
399.872	87.04
400.081	29.7
400.29	117.76
400.499	72.7
400.708	185.34
400.917	58.37
401.127	78.85
401.336	87.04
401.545	158.72
401.754	152.57
401.963	168.96
402.172	138.24
402.381	136.19
402.59	41.98
402.799	152.57
403.008	189.44
403.217	107.52
403.426	89.09
403.635	95.23
403.844	97.28
404.053	134.14
404.262	87.04
404.471	234.49
404.68	76.8
404.888	142.33
405.097	107.52
405.306	125.95
405.515	128
405.724	125.95
405.933	128
406.142	189.44
406.35	132.09
406.559	183.29
406.768	257.02
406.977	252.92
407.185	152.57
407.394	185.34
407.603	138.24
407.812	220.16
408.02	121.85
408.229	179.2
408.438	220.16
408.646	232.44
408.855	281.6
409.064	259.07
409.272	234.49
409.481	306.17
409.69	228.35
409.898	275.45
410.107	328.7
410.315	324.6
410.524	297.98
410.733	343.03
410.941	310.27
411.15	316.41
411.358	367.61
411.567	377.85
411.775	314.36
411.984	486.39
412.192	449.53
412.401	369.66
412.609	441.34
412.818	435.19
413.026	513.02
413.234	410.62
413.443	494.58
413.651	525.3
413.86	590.84
414.068	576.5
414.276	584.7
414.485	623.61
414.693	629.75
414.901	748.53
415.11	676.85
415.318	740.34
415.526	766.96
415.734	687.09
415.943	723.96
416.151	754.68
416.359	816.12
416.567	828.4
416.776	852.98
416.984	875.51
417.192	922.61
417.4	895.99
417.608	977.91
417.817	1078.26
418.025	1160.17
418.233	1197.04
418.441	1186.8
418.649	1176.56
418.857	1184.75
419.065	1258.48
419.273	1299.44
419.481	1278.96
419.689	1319.92
419.897	1493.99
420.105	1508.33
420.313	1500.14
420.521	1688.55
420.729	1590.25
420.937	1651.69
421.145	1801.19
421.353	1899.49
421.561	1985.51
421.769	1960.93
421.977	1981.41
422.185	1971.17
422.393	2169.82
422.601	2233.31
422.809	2188.25
423.017	2329.56
423.224	2464.73
423.432	2376.67
423.64	2534.36
423.848	2776.02
424.056	2638.81
424.263	2802.65
424.471	2786.26
424.679	2921.43
424.887	3075.03
425.094	3081.17
425.302	3216.33
425.51	3318.73
425.718	3322.83
425.925	3492.81
426.133	3523.53
426.341	3621.83
426.548	3892.16
426.756	3879.88
426.964	3990.47
427.171	4176.83
427.379	4363.2
427.586	4385.73
427.794	4682.68
428.001	4686.78
428.209	5100.47
428.417	4645.82
428.624	5149.62
428.832	5168.05
429.039	5235.63
429.247	5159.86
429.454	5581.74
429.662	6020
429.869	5557.16
430.076	6052.77
430.284	5917.61
430.491	6183.84
430.699	6527.9
430.906	6472.61
431.114	6579.1
431.321	7142.29
431.528	6927.25
431.736	7388.05
431.943	7592.84
432.15	7439.25
432.358	7642
432.565	7818.12
432.772	7916.42
432.979	8350.59
433.187	8588.16
433.394	8502.14
433.601	9194.36
433.808	9038.71
434.016	8940.41
434.223	9487.22
434.43	10021.74
434.637	9866.09
434.844	10570.59
435.052	10842.97
435.259	10720.09
435.466	10599.26
435.673	10662.75
435.88	11371.35
436.087	11952.97
436.294	11946.83
436.501	11455.31
436.708	11785.04
436.915	12290.88
437.122	12866.36
437.329	12927.8
437.537	13181.75
437.743	13447.99
437.95	13235
438.157	13916.97
438.364	14383.91
438.571	14459.68
438.778	14674.72
438.985	15772.43
439.192	15215.38
439.399	15530.77
439.606	15401.75
439.813	16233.22
440.02	17173.24
440.227	16712.45
440.433	16702.21
440.64	17378.04
440.847	17292.02
441.054	17683.19
441.261	18846.43
441.467	18537.19
441.674	19081.95
441.881	19712.72
442.088	19548.89
442.294	19208.92
442.501	19927.76
442.708	20470.47
442.914	21291.71
443.121	21801.65
443.328	21222.08
443.534	23200.41
443.741	22370.99
443.948	22076.08
444.154	23810.71
444.361	23229.09
444.568	23454.36
444.774	23564.95
444.981	23941.78
445.187	24664.71
445.394	25643.64
445.6	24920.71
445.807	27771.48
446.013	26432.11
446.22	27017.83
446.426	28084.82
446.633	27970.13
446.839	29405.76
447.046	27652.7
447.252	29510.21
447.459	29841.98
447.665	29182.53
447.871	30888.49
448.078	32141.85
448.284	30612.01
448.491	31595.04
448.697	33059.34
448.903	33237.51
449.11	33544.7
449.316	32850.44
449.522	33585.66
449.728	34198.01
449.935	34789.87
450.141	34666.99
450.347	35510.75
450.553	34329.08
450.76	34949.61
450.966	35764.7
451.172	35590.62
451.378	36381.14
451.584	35551.71
451.791	36313.56
451.997	36434.39
452.203	36766.16
452.409	36825.55
452.615	36725.2
452.821	35162.6
453.027	35015.15
453.233	36657.62
453.44	35451.36
453.646	36086.23
453.852	36198.87
454.058	36633.04
454.264	35332.58
454.47	36317.65
454.676	35125.74
454.882	36370.9
455.088	33270.28
455.294	33819.13
455.5	34208.25
455.705	34806.25
455.911	33776.12
456.117	32823.82
456.323	32537.1
456.529	30868.01
456.735	31715.87
456.941	31339.04
457.147	30894.63
457.352	29966.9
457.558	29227.59
457.764	29416
457.97	29119.04
458.176	28377.68
458.381	28435.02
458.587	26645.1
458.793	26595.95
458.999	25772.66
459.204	27429.47
459.41	26440.3
459.616	24748.68
459.821	24898.18
460.027	24726.15
460.233	23978.64
460.438	22942.37
460.644	23161.5
460.85	22092.46
461.055	21775.03
461.261	21701.3
461.466	20327.11
461.672	19804.88
461.878	20949.7
462.083	19598.04
462.289	19245.79
462.494	19096.28
462.7	18250.47
462.905	17513.2
463.111	18428.65
463.316	18371.3
463.522	17873.65
463.727	17836.78
463.932	17849.07
464.138	18070.25
464.343	17412.85
464.549	17439.48
464.754	17812.21
464.959	17699.57
465.165	17636.08
465.37	16780.03
465.575	16546.56
465.781	17365.75
465.986	17138.43
466.191	16431.88
466.397	16087.82
466.602	15747.86
466.807	16007.95
467.012	15934.22
467.218	15717.14
