Data from USB4F104151__10__11-44-28-815.txt Node

Date: Fri Mar 14 11:44:28 EDT 2025
User: louis
Spectrometer: USB4F10415
Trigger mode: 4
Integration Time (sec): 2.000000E-2
Scans to average: 1
Electric dark correction enabled: true
Nonlinearity correction enabled: false
Boxcar width: 0
XAxis mode: Wavelengths
Number of Pixels in Spectrum: 3648
>>>>>Begin Spectral Data<<<<<
178.204	-30.72
178.424	-30.72
178.644	-30.72
178.864	-110.59
179.084	-83.97
179.304	28.67
179.524	-51.2
179.744	92.16
179.964	30.72
180.184	18.43
180.404	2.05
180.624	-67.58
180.844	-8.19
181.064	-73.73
181.283	-2.05
181.503	-12.29
181.723	43.01
181.943	-26.62
182.163	53.25
182.383	-6.14
182.602	12.29
182.822	2.05
183.042	10.24
183.262	20.48
183.482	67.58
183.701	-4.1
183.921	36.86
184.141	102.4
184.361	18.43
184.58	30.72
184.8	12.29
185.02	120.83
185.239	34.82
185.459	51.2
185.679	55.3
185.898	32.77
186.118	110.59
186.338	40.96
186.557	-10.24
186.777	-12.29
186.997	-14.34
187.216	2.05
187.436	30.72
187.655	53.25
187.875	24.58
188.095	30.72
188.314	67.58
188.534	96.25
188.753	-26.62
188.973	2.05
189.192	20.48
189.412	49.15
189.631	20.48
189.851	51.2
190.07	-22.53
190.29	30.72
190.509	10.24
190.729	24.58
190.948	73.73
191.168	104.45
191.387	22.53
191.607	-79.87
191.826	53.25
192.045	14.34
192.265	71.68
192.484	18.43
192.704	10.24
192.923	96.25
193.142	106.49
193.362	57.34
193.581	28.67
193.8	36.86
194.02	14.34
194.239	6.14
194.458	75.77
194.678	49.15
194.897	77.82
195.116	55.3
195.335	28.67
195.555	83.97
195.774	8.19
195.993	53.25
196.212	67.58
196.432	10.24
196.651	18.43
196.87	22.53
197.089	83.97
197.308	47.1
197.528	53.25
197.747	53.25
197.966	61.44
198.185	36.86
198.404	36.86
198.623	-26.62
198.842	20.48
199.062	67.58
199.281	65.53
199.5	51.2
199.719	6.14
199.938	47.1
200.157	108.54
200.376	22.53
200.595	88.06
200.814	26.62
201.033	83.97
201.252	26.62
201.471	-18.43
201.69	32.77
201.909	65.53
202.128	6.14
202.347	63.49
202.566	-16.38
202.785	38.91
203.004	57.34
203.223	18.43
203.442	133.12
203.661	10.24
203.879	-22.53
204.098	-8.19
204.317	28.67
204.536	45.06
204.755	8.19
204.974	96.25
205.193	-12.29
205.411	36.86
205.63	-18.43
205.849	4.1
206.068	22.53
206.287	69.63
206.505	6.14
206.724	28.67
206.943	47.1
207.162	53.25
207.381	10.24
207.599	6.14
207.818	53.25
208.037	57.34
208.255	73.73
208.474	28.67
208.693	8.19
208.911	57.34
209.13	59.39
209.349	45.06
209.567	40.96
209.786	83.97
210.005	-6.14
210.223	-24.58
210.442	10.24
210.661	122.88
210.879	-30.72
211.098	45.06
211.316	67.58
211.535	90.11
211.753	-16.38
211.972	2.05
212.191	-6.14
212.409	22.53
212.628	28.67
212.846	65.53
213.065	28.67
213.283	73.73
213.502	30.72
213.72	6.14
213.938	51.2
214.157	53.25
214.375	38.91
214.594	12.29
214.812	8.19
215.031	43.01
215.249	12.29
215.467	-0
215.686	24.58
215.904	90.11
216.122	67.58
216.341	20.48
216.559	67.58
216.778	106.49
216.996	34.82
217.214	-34.82
217.432	32.77
217.651	-2.05
217.869	63.49
218.087	-16.38
218.306	-18.43
218.524	67.58
218.742	12.29
218.96	79.87
219.179	8.19
219.397	53.25
219.615	65.53
219.833	77.82
220.051	51.2
220.27	32.77
220.488	61.44
220.706	75.77
220.924	30.72
221.142	86.01
221.36	24.58
221.578	-22.53
221.796	45.06
222.015	12.29
222.233	14.34
222.451	28.67
222.669	51.2
222.887	75.77
223.105	-2.05
223.323	120.83
223.541	-28.67
223.759	63.49
223.977	-51.2
224.195	69.63
224.413	34.82
224.631	88.06
224.849	34.82
225.067	36.86
225.285	51.2
225.503	32.77
225.721	-40.96
225.939	92.16
226.157	75.77
226.375	24.58
226.592	6.14
226.81	59.39
227.028	98.3
227.246	135.17
227.464	20.48
227.682	63.49
227.9	20.48
228.117	26.62
228.335	20.48
228.553	43.01
228.771	-67.58
228.989	38.91
229.206	6.14
229.424	8.19
229.642	-10.24
229.86	-0
230.077	49.15
230.295	-2.05
230.513	24.58
230.731	-51.2
230.948	38.91
231.166	57.34
231.384	67.58
231.601	36.86
231.819	118.78
232.037	43.01
232.254	57.34
232.472	71.68
232.689	51.2
232.907	16.38
233.125	57.34
233.342	-12.29
233.56	61.44
233.777	43.01
233.995	38.91
234.213	81.92
234.43	-14.34
234.648	57.34
234.865	81.92
235.083	75.77
235.3	55.3
235.518	45.06
235.735	36.86
235.953	59.39
236.17	49.15
236.388	36.86
236.605	30.72
236.822	47.1
237.04	55.3
237.257	83.97
237.475	28.67
237.692	45.06
237.909	59.39
238.127	45.06
238.344	55.3
238.562	16.38
238.779	34.82
238.996	28.67
239.214	90.11
239.431	22.53
239.648	-34.82
239.865	30.72
240.083	36.86
240.3	38.91
240.517	-36.86
240.735	77.82
240.952	18.43
241.169	20.48
241.386	36.86
241.603	24.58
241.821	47.1
242.038	43.01
242.255	-10.24
242.472	79.87
242.689	38.91
242.907	30.72
243.124	53.25
243.341	55.3
243.558	34.82
243.775	10.24
243.992	100.35
244.209	-12.29
244.426	104.45
244.643	43.01
244.86	26.62
245.078	73.73
245.295	28.67
245.512	59.39
245.729	26.62
245.946	-4.1
246.163	71.68
246.38	-16.38
246.597	22.53
246.814	10.24
247.031	129.02
247.248	18.43
247.464	10.24
247.681	104.45
247.898	55.3
248.115	108.54
248.332	-67.58
248.549	73.73
248.766	71.68
248.983	47.1
249.2	61.44
249.417	14.34
249.633	-6.14
249.85	69.63
250.067	63.49
250.284	18.43
250.501	71.68
250.717	47.1
250.934	43.01
251.151	14.34
251.368	43.01
251.585	75.77
251.801	43.01
252.018	-8.19
252.235	96.25
252.451	26.62
252.668	38.91
252.885	69.63
253.102	10.24
253.318	102.4
253.535	47.1
253.752	116.73
253.968	8.19
254.185	49.15
254.401	90.11
254.618	12.29
254.835	-22.53
255.051	141.31
255.268	69.63
255.484	40.96
255.701	67.58
255.917	88.06
256.134	45.06
256.351	4.1
256.567	14.34
256.784	34.82
257	22.53
257.217	104.45
257.433	61.44
257.65	65.53
257.866	28.67
258.082	-8.19
258.299	32.77
258.515	32.77
258.732	32.77
258.948	43.01
259.165	38.91
259.381	16.38
259.597	49.15
259.814	-4.1
260.03	30.72
260.246	28.67
260.463	75.77
260.679	112.64
260.895	75.77
261.112	32.77
261.328	30.72
261.544	30.72
261.761	137.21
261.977	36.86
262.193	53.25
262.409	79.87
262.626	55.3
262.842	34.82
263.058	10.24
263.274	116.73
263.49	69.63
263.707	26.62
263.923	118.78
264.139	51.2
264.355	61.44
264.571	73.73
264.787	45.06
265.004	73.73
265.22	30.72
265.436	18.43
265.652	-6.14
265.868	83.97
266.084	51.2
266.3	79.87
266.516	79.87
266.732	53.25
266.948	92.16
267.164	71.68
267.38	45.06
267.596	47.1
267.812	51.2
268.028	57.34
268.244	90.11
268.46	49.15
268.676	98.3
268.892	88.06
269.108	14.34
269.324	-30.72
269.54	8.19
269.756	59.39
269.972	129.02
270.188	100.35
270.403	83.97
270.619	88.06
270.835	55.3
271.051	69.63
271.267	51.2
271.483	88.06
271.698	34.82
271.914	20.48
272.13	67.58
272.346	-4.1
272.562	-69.63
272.777	28.67
272.993	90.11
273.209	4.1
273.425	92.16
273.64	20.48
273.856	71.68
274.072	43.01
274.287	32.77
274.503	22.53
274.719	96.25
274.934	63.49
275.15	34.82
275.366	124.93
275.581	59.39
275.797	47.1
276.012	49.15
276.228	-49.15
276.444	47.1
276.659	57.34
276.875	100.35
277.09	92.16
277.306	81.92
277.521	61.44
277.737	-16.38
277.952	40.96
278.168	47.1
278.383	28.67
278.599	83.97
278.814	77.82
279.03	-47.1
279.245	36.86
279.461	20.48
279.676	63.49
279.892	14.34
280.107	38.91
280.322	-4.1
280.538	28.67
280.753	12.29
280.969	57.34
281.184	-14.34
281.399	147.45
281.615	98.3
281.83	88.06
282.045	-28.67
282.26	14.34
282.476	16.38
282.691	6.14
282.906	120.83
283.122	67.58
283.337	14.34
283.552	106.49
283.767	61.44
283.983	106.49
284.198	73.73
284.413	43.01
284.628	-34.82
284.843	24.58
285.058	75.77
285.274	-24.58
285.489	30.72
285.704	32.77
285.919	51.2
286.134	59.39
286.349	24.58
286.564	88.06
286.779	65.53
286.995	36.86
287.21	43.01
287.425	26.62
287.64	-8.19
287.855	73.73
288.07	73.73
288.285	96.25
288.5	135.17
288.715	65.53
288.93	47.1
289.145	77.82
289.36	108.54
289.575	16.38
289.79	98.3
290.004	51.2
290.219	57.34
290.434	81.92
290.649	4.1
290.864	63.49
291.079	26.62
291.294	38.91
291.509	-40.96
291.724	6.14
291.938	47.1
292.153	71.68
292.368	59.39
292.583	-8.19
292.798	47.1
293.012	67.58
293.227	75.77
293.442	36.86
293.657	26.62
293.871	126.97
294.086	90.11
294.301	75.77
294.516	32.77
294.73	47.1
294.945	12.29
295.16	114.69
295.374	45.06
295.589	100.35
295.804	51.2
296.018	18.43
296.233	65.53
296.447	53.25
296.662	36.86
296.877	118.78
297.091	108.54
297.306	51.2
297.52	4.1
297.735	40.96
297.949	120.83
298.164	53.25
298.378	-14.34
298.593	-28.67
298.807	36.86
299.022	38.91
299.236	79.87
299.451	77.82
299.665	96.25
299.88	96.25
300.094	-40.96
300.309	49.15
300.523	6.14
300.737	57.34
300.952	34.82
301.166	83.97
301.381	16.38
301.595	73.73
301.809	75.77
302.024	8.19
302.238	83.97
302.452	122.88
302.667	24.58
302.881	83.97
303.095	77.82
303.309	36.86
303.524	47.1
303.738	4.1
303.952	2.05
304.166	77.82
304.381	36.86
304.595	120.83
304.809	88.06
305.023	18.43
305.237	38.91
305.452	51.2
305.666	71.68
305.88	114.69
306.094	61.44
306.308	126.97
306.522	96.25
306.736	73.73
306.95	65.53
307.164	59.39
307.379	159.74
307.593	61.44
307.807	98.3
308.021	61.44
308.235	129.02
308.449	75.77
308.663	92.16
308.877	110.59
309.091	-16.38
309.305	43.01
309.519	67.58
309.733	53.25
309.947	16.38
310.161	110.59
310.374	100.35
310.588	114.69
310.802	-20.48
311.016	86.01
311.23	32.77
311.444	90.11
311.658	49.15
311.872	81.92
312.085	-6.14
312.299	108.54
312.513	110.59
312.727	81.92
312.941	20.48
313.154	116.73
313.368	86.01
313.582	-30.72
313.796	14.34
314.009	108.54
314.223	73.73
314.437	65.53
314.651	14.34
314.864	59.39
315.078	10.24
315.292	51.2
315.505	34.82
315.719	83.97
315.933	61.44
316.146	53.25
316.36	20.48
316.573	129.02
316.787	112.64
317.001	83.97
317.214	69.63
317.428	86.01
317.641	75.77
317.855	24.58
318.068	151.55
318.282	73.73
318.495	43.01
318.709	40.96
318.922	-10.24
319.136	94.21
319.349	124.93
319.563	79.87
319.776	83.97
319.99	71.68
320.203	98.3
320.417	59.39
320.63	65.53
320.843	139.26
321.057	102.4
321.27	47.1
321.483	75.77
321.697	112.64
321.91	61.44
322.124	100.35
322.337	86.01
322.55	63.49
322.763	12.29
322.977	83.97
323.19	-2.05
323.403	90.11
323.617	69.63
323.83	120.83
324.043	96.25
324.256	73.73
324.469	59.39
324.683	24.58
324.896	65.53
325.109	55.3
325.322	10.24
325.535	110.59
325.748	77.82
325.962	61.44
326.175	90.11
326.388	124.93
326.601	102.4
326.814	43.01
327.027	59.39
327.24	96.25
327.453	55.3
327.666	129.02
327.879	47.1
328.092	96.25
328.305	90.11
328.518	22.53
328.731	81.92
328.944	45.06
329.157	83.97
329.37	14.34
329.583	71.68
329.796	51.2
330.009	53.25
330.222	96.25
330.435	77.82
330.648	45.06
330.861	30.72
331.073	104.45
331.286	133.12
331.499	120.83
331.712	55.3
331.925	10.24
332.138	90.11
332.35	49.15
332.563	75.77
332.776	135.17
332.989	-36.86
333.202	43.01
333.414	169.98
333.627	55.3
333.84	153.6
334.053	61.44
334.265	47.1
334.478	18.43
334.691	71.68
334.903	83.97
335.116	61.44
335.329	81.92
335.541	124.93
335.754	104.45
335.966	86.01
336.179	32.77
336.392	75.77
336.604	57.34
336.817	10.24
337.029	49.15
337.242	137.21
337.454	112.64
337.667	67.58
337.88	77.82
338.092	88.06
338.305	61.44
338.517	38.91
338.729	79.87
338.942	53.25
339.154	20.48
339.367	28.67
339.579	112.64
339.792	47.1
340.004	83.97
340.217	86.01
340.429	120.83
340.641	-108.54
340.854	94.21
341.066	57.34
341.278	22.53
341.491	98.3
341.703	90.11
341.915	92.16
342.128	18.43
342.34	81.92
342.552	92.16
342.764	63.49
342.977	98.3
343.189	73.73
343.401	73.73
343.613	22.53
343.826	79.87
344.038	18.43
344.25	69.63
344.462	45.06
344.674	120.83
344.886	73.73
345.099	126.97
345.311	69.63
345.523	129.02
345.735	53.25
345.947	40.96
346.159	40.96
346.371	63.49
346.583	59.39
346.795	145.41
347.007	10.24
347.219	73.73
347.431	81.92
347.643	75.77
347.855	-0
348.067	135.17
348.279	32.77
348.491	61.44
348.703	36.86
348.915	79.87
349.127	34.82
349.339	124.93
349.551	120.83
349.763	96.25
349.975	65.53
350.187	102.4
350.399	53.25
350.61	96.25
350.822	108.54
351.034	116.73
351.246	57.34
351.458	75.77
351.669	47.1
351.881	73.73
352.093	88.06
352.305	124.93
352.517	38.91
352.728	133.12
352.94	45.06
353.152	67.58
353.363	83.97
353.575	102.4
353.787	88.06
353.999	94.21
354.21	34.82
354.422	77.82
354.633	79.87
354.845	32.77
355.057	79.87
355.268	12.29
355.48	151.55
355.692	90.11
355.903	32.77
356.115	88.06
356.326	96.25
356.538	86.01
356.749	47.1
356.961	108.54
357.172	86.01
357.384	114.69
357.595	86.01
357.807	126.97
358.018	28.67
358.23	210.94
358.441	126.97
358.653	59.39
358.864	90.11
359.075	126.97
359.287	55.3
359.498	174.08
359.709	38.91
359.921	106.49
360.132	20.48
360.344	69.63
360.555	77.82
360.766	30.72
360.977	151.55
361.189	86.01
361.4	104.45
361.611	94.21
361.823	102.4
362.034	81.92
362.245	77.82
362.456	-12.29
362.667	67.58
362.879	6.14
363.09	92.16
363.301	167.93
363.512	75.77
363.723	110.59
363.935	104.45
364.146	40.96
364.357	118.78
364.568	100.35
364.779	53.25
364.99	73.73
365.201	51.2
365.412	92.16
365.623	81.92
365.834	100.35
366.045	114.69
366.256	129.02
366.467	143.36
366.678	139.26
366.889	63.49
367.1	104.45
367.311	137.21
367.522	139.26
367.733	-14.34
367.944	94.21
368.155	57.34
368.366	51.2
368.577	53.25
368.788	81.92
368.999	71.68
369.209	63.49
369.42	135.17
369.631	81.92
369.842	63.49
370.053	67.58
370.264	129.02
370.474	110.59
370.685	14.34
370.896	59.39
371.107	86.01
371.317	124.93
371.528	92.16
371.739	77.82
371.95	30.72
372.16	126.97
372.371	-2.05
372.582	88.06
372.792	61.44
373.003	83.97
373.214	100.35
373.424	88.06
373.635	129.02
373.846	83.97
374.056	69.63
374.267	94.21
374.477	61.44
374.688	55.3
374.898	131.07
375.109	77.82
375.319	96.25
375.53	114.69
375.74	98.3
375.951	112.64
376.161	112.64
376.372	137.21
376.582	94.21
376.793	59.39
377.003	110.59
377.214	118.78
377.424	122.88
377.635	61.44
377.845	43.01
378.055	96.25
378.266	108.54
378.476	120.83
378.686	96.25
378.897	59.39
379.107	116.73
379.317	6.14
379.528	71.68
379.738	147.45
379.948	55.3
380.158	57.34
380.369	126.97
380.579	75.77
380.789	81.92
380.999	174.08
381.21	137.21
381.42	124.93
381.63	116.73
381.84	143.36
382.05	120.83
382.261	149.5
382.471	192.51
382.681	120.83
382.891	90.11
383.101	112.64
383.311	149.5
383.521	133.12
383.731	79.87
383.941	108.54
384.151	73.73
384.361	163.84
384.571	118.78
384.781	124.93
384.991	96.25
385.201	73.73
385.411	135.17
385.621	77.82
385.831	174.08
386.041	71.68
386.251	69.63
386.461	86.01
386.671	96.25
386.881	83.97
387.091	71.68
387.301	167.93
387.511	104.45
387.72	67.58
387.93	139.26
388.14	53.25
388.35	129.02
388.56	96.25
388.769	118.78
388.979	106.49
389.189	71.68
389.399	118.78
389.609	75.77
389.818	108.54
390.028	69.63
390.238	71.68
390.447	120.83
390.657	186.37
390.867	159.74
391.076	135.17
391.286	110.59
391.496	120.83
391.705	161.79
391.915	151.55
392.125	135.17
392.334	174.08
392.544	219.13
392.753	126.97
392.963	157.69
393.172	153.6
393.382	149.5
393.591	186.37
393.801	172.03
394.01	106.49
394.22	217.08
394.429	243.71
394.639	153.6
394.848	215.04
395.058	212.99
395.267	90.11
395.477	235.52
395.686	223.23
395.895	147.45
396.105	221.18
396.314	167.93
396.524	241.66
396.733	176.13
396.942	194.56
397.152	174.08
397.361	174.08
397.57	210.94
397.78	202.75
397.989	104.45
398.198	202.75
398.407	264.19
398.617	237.56
398.826	231.42
399.035	249.85
399.244	200.7
399.453	256
399.663	198.65
399.872	231.42
400.081	221.18
400.29	296.96
400.499	186.37
400.708	149.5
400.917	198.65
401.127	208.89
401.336	233.47
401.545	315.39
401.754	233.47
401.963	258.04
402.172	141.31
402.381	212.99
402.59	243.71
402.799	251.9
403.008	178.17
403.217	260.09
403.426	231.42
403.635	331.77
403.844	313.34
404.053	294.91
404.262	233.47
404.471	294.91
404.68	202.75
404.888	288.76
405.097	282.62
405.306	380.92
405.515	342.01
405.724	321.53
405.933	366.59
406.142	294.91
406.35	405.5
406.559	438.27
406.768	378.87
406.977	434.17
407.185	438.27
407.394	503.8
407.603	372.73
407.812	540.66
408.02	440.31
408.229	532.47
408.438	524.28
408.646	565.24
408.855	557.05
409.064	530.42
409.272	520.18
409.481	655.35
409.69	612.34
409.898	636.92
410.107	655.35
410.315	710.65
410.524	704.5
410.733	772.08
410.941	784.37
411.15	765.94
411.358	833.52
411.567	817.14
411.775	948.21
411.984	913.39
412.192	923.63
412.401	923.63
412.609	1042.42
412.818	1064.94
413.026	1126.38
413.234	1153.01
413.443	1060.85
413.651	1236.97
413.86	1226.73
414.068	1282.03
414.276	1341.42
414.485	1331.18
414.693	1456.11
414.901	1519.59
415.11	1558.5
415.318	1589.22
415.526	1544.17
415.734	1656.81
415.943	1757.16
416.151	1761.25
416.359	1785.83
416.567	1900.51
416.776	1992.67
416.984	2097.12
417.192	2209.76
417.4	2174.94
417.608	2168.8
417.817	2359.26
418.025	2385.88
418.233	2519
418.441	2660.31
418.649	2734.04
418.857	2711.51
419.065	2787.29
419.273	2867.16
419.481	2893.78
419.689	3049.43
419.897	3301.33
420.105	3284.94
420.313	3332.05
420.521	3536.84
420.729	3641.29
420.937	3796.93
421.145	3934.15
421.353	4087.75
421.561	4198.34
421.769	4409.28
421.977	4542.39
422.185	4507.58
422.393	4777.91
422.601	5074.87
422.809	5097.39
423.017	5124.02
423.224	5410.73
423.432	5468.08
423.64	5531.56
423.848	6057.89
424.056	6043.56
424.263	6293.41
424.471	6346.66
424.679	6387.61
424.887	6854.55
425.094	7012.24
425.302	7063.44
425.51	7305.1
425.718	7614.35
425.925	7751.56
426.133	7980.93
426.341	8353.66
426.548	8847.22
426.756	8867.7
426.964	8902.52
427.171	9568.11
427.379	9531.25
427.586	9813.87
427.794	9840.49
428.001	10571.61
428.209	11001.69
428.417	10925.91
428.624	11837.26
428.832	11681.61
429.039	11698
429.247	11573.07
429.454	12640.06
429.662	13537.07
429.869	12584.77
430.076	13446.96
430.284	12994.36
430.491	13713.2
430.699	14591.78
430.906	14581.54
431.114	14726.94
431.321	15380.25
431.528	15644.43
431.736	16469.76
431.943	17377.01
432.15	17075.96
432.358	16830.21
432.565	17901.29
432.772	18138.86
432.979	18499.3
433.187	19136.22
433.394	19205.85
433.601	20539.08
433.808	20508.36
434.016	20469.45
434.223	21561.01
434.43	22845.09
434.637	22343.34
434.844	23432.86
435.052	24080.02
435.259	23858.84
435.466	24112.78
435.673	23903.89
435.88	25536.12
436.087	26623.59
436.294	26730.09
436.501	26054.26
436.708	26609.26
436.915	27586.14
437.122	29038.15
437.329	28966.47
437.537	29421.12
437.743	30115.38
437.95	30107.19
438.157	31141.41
438.364	32513.55
438.571	32263.7
438.778	32296.47
438.985	35438.05
439.192	33893.88
439.399	35450.34
439.606	34473.46
439.813	36646.35
440.02	38573.49
440.227	37926.33
440.433	37133.77
440.64	39136.68
440.847	38342.07
441.054	39828.9
441.261	42050.94
441.467	41696.64
441.674	42253.69
441.881	44240.22
442.088	44143.97
442.294	43722.08
442.501	44389.72
442.708	45221.2
442.914	47295.79
443.121	49028.37
443.328	47781.16
443.534	51059.96
443.741	49511.69
443.948	48827.67
444.154	52370.66
444.361	51946.73
444.568	52374.75
444.774	52157.67
444.981	53148.88
445.187	54432.96
445.394	56589.47
445.6	55835.82
445.807	60402.79
446.013	58465.41
446.22	58995.84
446.426	61295.7
446.633	61867.09
446.839	63480.89
447.046	61201.5
447.252	64080.94
447.459	64080.94
447.665	64080.94
447.871	64080.94
448.078	64080.94
448.284	64080.94
448.491	64080.94
448.697	64080.94
448.903	64080.94
449.11	64080.94
449.316	64080.94
449.522	64080.94
449.728	64080.94
449.935	64080.94
450.141	64080.94
450.347	64080.94
450.553	64080.94
450.76	64080.94
450.966	64080.94
451.172	64080.94
451.378	64080.94
451.584	64080.94
451.791	64080.94
451.997	64080.94
452.203	64080.94
452.409	64080.94
452.615	64080.94
452.821	64080.94
453.027	64080.94
453.233	64080.94
453.44	64080.94
453.646	64080.94
453.852	64080.94
454.058	64080.94
454.264	64080.94
454.47	64080.94
454.676	64080.94
454.882	64080.94
455.088	64080.94
455.294	64080.94
455.5	64080.94
455.705	64080.94
455.911	64080.94
456.117	64080.94
456.323	64080.94
456.529	64080.94
456.735	64080.94
456.941	64080.94
457.147	64080.94
457.352	64080.94
457.558	64080.94
457.764	64080.94
457.97	62495.81
458.176	61240.41
458.381	61127.77
458.587	58483.84
458.793	58485.89
458.999	55788.72
459.204	58899.58
459.41	57877.64
459.616	54574.27
459.821	54330.56
460.027	54107.33
460.233	53089.49
460.438	50480.38
460.644	51223.79
460.85	48483.61
461.055	48143.65
461.261	48006.44
461.466	44735.83
461.672	43031.92
461.878	46314.81
462.083	43224.43
462.289	42485.11
462.494	41885.06
462.7	39949.73
462.905	39085.48
463.111	40469.91
463.316	40506.77
463.522	39701.92
463.727	39687.59
463.932	39919.01
464.138	39230.89
464.343	39796.13
464.549	38157.75
464.754	39458.21
464.959	39357.86
465.165	38854.06
465.37	37133.77
465.575	36386.26
