Data from USB4F104151__87__11-45-41-246.txt Node

Date: Fri Mar 14 11:45:41 EDT 2025
User: louis
Spectrometer: USB4F10415
Trigger mode: 4
Integration Time (sec): 2.000000E-2
Scans to average: 1
Electric dark correction enabled: true
Nonlinearity correction enabled: false
Boxcar width: 0
XAxis mode: Wavelengths
Number of Pixels in Spectrum: 3648
>>>>>Begin Spectral Data<<<<<
178.204	-65.71
178.424	-65.71
178.644	-65.71
178.864	-110.76
179.084	-53.42
179.304	-12.46
179.524	12.12
179.744	5.97
179.964	100.18
180.184	-86.19
180.404	3.93
180.624	20.31
180.844	-2.22
181.064	-34.99
181.283	36.69
181.503	22.36
181.723	-65.71
181.943	-30.89
182.163	69.46
182.383	-45.23
182.602	-4.27
182.822	14.17
183.042	-12.46
183.262	-4.27
183.482	22.36
183.701	-0.17
183.921	-4.27
184.141	-49.32
184.361	46.93
184.58	16.21
184.8	18.26
185.02	-16.55
185.239	81.75
185.459	24.4
185.679	102.23
185.898	-14.51
186.118	-49.32
186.338	8.02
186.557	-8.36
186.777	30.55
186.997	-16.55
187.216	30.55
187.436	1.88
187.655	48.98
187.875	24.4
188.095	46.93
188.314	30.55
188.534	8.02
188.753	42.84
188.973	-2.22
189.192	100.18
189.412	71.51
189.631	57.17
189.851	36.69
190.07	38.74
190.29	-4.27
190.509	24.4
190.729	81.75
190.948	12.12
191.168	83.8
191.387	14.17
191.607	-84.14
191.826	-14.51
192.045	81.75
192.265	-16.55
192.484	-2.22
192.704	-4.27
192.923	-30.89
193.142	-37.03
193.362	59.22
193.581	20.31
193.8	40.79
194.02	26.45
194.239	-22.7
194.458	91.99
194.678	10.07
194.897	32.6
195.116	-16.55
195.335	8.02
195.555	79.7
195.774	-37.03
195.993	8.02
196.212	-2.22
196.432	16.21
196.651	32.6
196.87	-10.41
197.089	75.6
197.308	59.22
197.528	53.08
197.747	53.08
197.966	51.03
198.185	16.21
198.404	75.6
198.623	63.32
198.842	-47.27
199.062	63.32
199.281	65.36
199.5	-10.41
199.719	53.08
199.938	16.21
200.157	30.55
200.376	32.6
200.595	61.27
200.814	-39.08
201.033	42.84
201.252	-16.55
201.471	18.26
201.69	44.88
201.909	14.17
202.128	-32.94
202.347	28.5
202.566	-22.7
202.785	34.64
203.004	61.27
203.223	77.65
203.442	48.98
203.661	34.64
203.879	1.88
204.098	71.51
204.317	38.74
204.536	79.7
204.755	20.31
204.974	51.03
205.193	-39.08
205.411	87.89
205.63	-10.41
205.849	46.93
206.068	34.64
206.287	-24.75
206.505	42.84
206.724	32.6
206.943	48.98
207.162	65.36
207.381	42.84
207.599	-0.17
207.818	46.93
208.037	38.74
208.255	-22.7
208.474	110.42
208.693	28.5
208.911	38.74
209.13	53.08
209.349	110.42
209.567	-49.32
209.786	55.12
210.005	12.12
210.223	81.75
210.442	-0.17
210.661	51.03
210.879	-18.6
211.098	89.94
211.316	67.41
211.535	69.46
211.753	51.03
211.972	46.93
212.191	34.64
212.409	-4.27
212.628	38.74
212.846	12.12
213.065	73.56
213.283	-22.7
213.502	-88.23
213.72	-32.94
213.938	-26.79
214.157	100.18
214.375	55.12
214.594	24.4
214.812	22.36
215.031	3.93
215.249	16.21
215.467	55.12
215.686	32.6
215.904	-6.31
216.122	-67.75
216.341	28.5
216.559	18.26
216.778	57.17
216.996	79.7
217.214	12.12
217.432	10.07
217.651	-14.51
217.869	36.69
218.087	-12.46
218.306	63.32
218.524	63.32
218.742	8.02
218.96	61.27
219.179	30.55
219.397	-14.51
219.615	81.75
219.833	28.5
220.051	75.6
220.27	55.12
220.488	73.56
220.706	-12.46
220.924	-12.46
221.142	71.51
221.36	26.45
221.578	40.79
221.796	61.27
222.015	32.6
222.233	16.21
222.451	114.52
222.669	46.93
222.887	10.07
223.105	14.17
223.323	-6.31
223.541	12.12
223.759	10.07
223.977	36.69
224.195	40.79
224.413	-0.17
224.631	20.31
224.849	28.5
225.067	44.88
225.285	-0.17
225.503	28.5
225.721	16.21
225.939	40.79
226.157	61.27
226.375	81.75
226.592	5.97
226.81	-8.36
227.028	40.79
227.246	26.45
227.464	110.42
227.682	51.03
227.9	28.5
228.117	14.17
228.335	-4.27
228.553	22.36
228.771	48.98
228.989	1.88
229.206	55.12
229.424	-4.27
229.642	104.28
229.86	-8.36
230.077	83.8
230.295	12.12
230.513	57.17
230.731	-2.22
230.948	36.69
231.166	73.56
231.384	-6.31
231.601	77.65
231.819	20.31
232.037	-10.41
232.254	-6.31
232.472	-39.08
232.689	-53.42
232.907	51.03
233.125	-14.51
233.342	24.4
233.56	16.21
233.777	38.74
233.995	-63.66
234.213	42.84
234.43	143.19
234.648	61.27
234.865	46.93
235.083	40.79
235.3	81.75
235.518	32.6
235.735	-12.46
235.953	38.74
236.17	10.07
236.388	59.22
236.605	20.31
236.822	124.76
237.04	-53.42
237.257	40.79
237.475	36.69
237.692	8.02
237.909	30.55
238.127	-8.36
238.344	22.36
238.562	51.03
238.779	-8.36
238.996	77.65
239.214	16.21
239.431	36.69
239.648	-45.23
239.865	32.6
240.083	57.17
240.3	34.64
240.517	-43.18
240.735	-6.31
240.952	44.88
241.169	28.5
241.386	118.61
241.603	-4.27
241.821	28.5
242.038	42.84
242.255	46.93
242.472	40.79
242.689	42.84
242.907	40.79
243.124	-41.13
243.341	-4.27
243.558	73.56
243.775	3.93
243.992	-47.27
244.209	-10.41
244.426	69.46
244.643	8.02
244.86	-6.31
245.078	12.12
245.295	83.8
245.512	46.93
245.729	51.03
245.946	73.56
246.163	44.88
246.38	77.65
246.597	-4.27
246.814	10.07
247.031	-8.36
247.248	12.12
247.464	94.04
247.681	32.6
247.898	16.21
248.115	71.51
248.332	12.12
248.549	42.84
248.766	69.46
248.983	34.64
249.2	-30.89
249.417	10.07
249.633	40.79
249.85	12.12
250.067	24.4
250.284	-0.17
250.501	40.79
250.717	44.88
250.934	-20.65
251.151	71.51
251.368	-14.51
251.585	10.07
251.801	-2.22
252.018	-6.31
252.235	-22.7
252.451	-55.47
252.668	-14.51
252.885	40.79
253.102	24.4
253.318	8.02
253.535	-2.22
253.752	-2.22
253.968	32.6
254.185	36.69
254.401	32.6
254.618	32.6
254.835	-6.31
255.051	24.4
255.268	36.69
255.484	-34.99
255.701	-30.89
255.917	40.79
256.134	3.93
256.351	-4.27
256.567	-8.36
256.784	24.4
257	61.27
257.217	8.02
257.433	8.02
257.65	-0.17
257.866	-30.89
258.082	-37.03
258.299	-32.94
258.515	8.02
258.732	-41.13
258.948	-16.55
259.165	-47.27
259.381	22.36
259.597	48.98
259.814	12.12
260.03	40.79
260.246	32.6
260.463	28.5
260.679	1.88
260.895	-2.22
261.112	102.23
261.328	73.56
261.544	44.88
261.761	34.64
261.977	5.97
262.193	1.88
262.409	-16.55
262.626	-16.55
262.842	26.45
263.058	-4.27
263.274	-45.23
263.49	53.08
263.707	135
263.923	42.84
264.139	1.88
264.355	5.97
264.571	18.26
264.787	-47.27
265.004	36.69
265.22	12.12
265.436	32.6
265.652	-16.55
265.868	36.69
266.084	-2.22
266.3	10.07
266.516	71.51
266.732	75.6
266.948	-49.32
267.164	28.5
267.38	38.74
267.596	69.46
267.812	-4.27
268.028	63.32
268.244	48.98
268.46	-2.22
268.676	-41.13
268.892	36.69
269.108	-12.46
269.324	-6.31
269.54	14.17
269.756	110.42
269.972	-20.65
270.188	-37.03
270.403	-63.66
270.619	-37.03
270.835	108.37
271.051	-4.27
271.267	14.17
271.483	-4.27
271.698	59.22
271.914	94.04
272.13	28.5
272.346	-8.36
272.562	1.88
272.777	-8.36
272.993	48.98
273.209	77.65
273.425	-41.13
273.64	-20.65
273.856	32.6
274.072	3.93
274.287	12.12
274.503	22.36
274.719	63.32
274.934	10.07
275.15	28.5
275.366	28.5
275.581	-10.41
275.797	36.69
276.012	57.17
276.228	89.94
276.444	51.03
276.659	79.7
276.875	-0.17
277.09	67.41
277.306	69.46
277.521	-4.27
277.737	20.31
277.952	-8.36
278.168	24.4
278.383	42.84
278.599	1.88
278.814	40.79
279.03	-73.9
279.245	42.84
279.461	3.93
279.676	34.64
279.892	55.12
280.107	-65.71
280.322	-12.46
280.538	3.93
280.753	24.4
280.969	24.4
281.184	-8.36
281.399	38.74
281.615	-2.22
281.83	67.41
282.045	-49.32
282.26	55.12
282.476	53.08
282.691	53.08
282.906	-4.27
283.122	77.65
283.337	28.5
283.552	30.55
283.767	38.74
283.983	-18.6
284.198	-16.55
284.413	71.51
284.628	38.74
284.843	18.26
285.058	48.98
285.274	79.7
285.489	-20.65
285.704	-6.31
285.919	-32.94
286.134	36.69
286.349	42.84
286.564	67.41
286.779	51.03
286.995	94.04
287.21	-45.23
287.425	71.51
287.64	55.12
287.855	-24.75
288.07	22.36
288.285	98.13
288.5	67.41
288.715	-24.75
288.93	69.46
289.145	85.84
289.36	73.56
289.575	-14.51
289.79	73.56
290.004	-18.6
290.219	-4.27
290.434	10.07
290.649	-16.55
290.864	40.79
291.079	89.94
291.294	-10.41
291.509	118.61
291.724	-39.08
291.938	16.21
292.153	14.17
292.368	57.17
292.583	83.8
292.798	-26.79
293.012	22.36
293.227	-20.65
293.442	22.36
293.657	28.5
293.871	30.55
294.086	18.26
294.301	91.99
294.516	-20.65
294.73	83.8
294.945	63.32
295.16	53.08
295.374	53.08
295.589	59.22
295.804	-32.94
296.018	-28.84
296.233	57.17
296.447	53.08
296.662	-39.08
296.877	24.4
297.091	75.6
297.306	-28.84
297.52	3.93
297.735	-63.66
297.949	-30.89
298.164	34.64
298.378	-24.75
298.593	32.6
298.807	-16.55
299.022	-69.8
299.236	96.08
299.451	-12.46
299.665	132.95
299.88	67.41
300.094	28.5
300.309	20.31
300.523	28.5
300.737	106.32
300.952	10.07
301.166	16.21
301.381	-20.65
301.595	24.4
301.809	-0.17
302.024	26.45
302.238	-14.51
302.452	48.98
302.667	-8.36
302.881	-0.17
303.095	63.32
303.309	-16.55
303.524	26.45
303.738	-59.56
303.952	65.36
304.166	5.97
304.381	-0.17
304.595	8.02
304.809	57.17
305.023	-26.79
305.237	14.17
305.452	57.17
305.666	40.79
305.88	30.55
306.094	44.88
306.308	5.97
306.522	46.93
306.736	14.17
306.95	26.45
307.164	-0.17
307.379	22.36
307.593	34.64
307.807	-34.99
308.021	24.4
308.235	65.36
308.449	120.66
308.663	36.69
308.877	104.28
309.091	83.8
309.305	-0.17
309.519	-12.46
309.733	44.88
309.947	16.21
310.161	81.75
310.374	135
310.588	77.65
310.802	3.93
311.016	16.21
311.23	-26.79
311.444	40.79
311.658	-16.55
311.872	81.75
312.085	79.7
312.299	5.97
312.513	20.31
312.727	3.93
312.941	36.69
313.154	118.61
313.368	135
313.582	-47.27
313.796	-18.6
314.009	10.07
314.223	59.22
314.437	51.03
314.651	24.4
314.864	87.89
315.078	-24.75
315.292	-12.46
315.505	55.12
315.719	14.17
315.933	-12.46
316.146	20.31
316.36	10.07
316.573	63.32
316.787	69.46
317.001	73.56
317.214	32.6
317.428	-30.89
317.641	38.74
317.855	-28.84
318.068	10.07
318.282	20.31
318.495	96.08
318.709	63.32
318.922	40.79
319.136	-16.55
319.349	46.93
319.563	26.45
319.776	28.5
319.99	-28.84
320.203	-4.27
320.417	81.75
320.63	44.88
320.843	65.36
321.057	16.21
321.27	53.08
321.483	71.51
321.697	69.46
321.91	1.88
322.124	14.17
322.337	28.5
322.55	51.03
322.763	12.12
322.977	-53.42
323.19	16.21
323.403	67.41
323.617	16.21
323.83	69.46
324.043	30.55
324.256	38.74
324.469	8.02
324.683	34.64
324.896	3.93
325.109	-8.36
325.322	-65.71
325.535	77.65
325.748	-0.17
325.962	73.56
326.175	-26.79
326.388	16.21
326.601	106.32
326.814	63.32
327.027	94.04
327.24	61.27
327.453	24.4
327.666	75.6
327.879	-30.89
328.092	24.4
328.305	40.79
328.518	-28.84
328.731	-32.94
328.944	38.74
329.157	48.98
329.37	16.21
329.583	12.12
329.796	59.22
330.009	24.4
330.222	12.12
330.435	79.7
330.648	-4.27
330.861	77.65
331.073	44.88
331.286	40.79
331.499	36.69
331.712	24.4
331.925	85.84
332.138	22.36
332.35	53.08
332.563	57.17
332.776	71.51
332.989	1.88
333.202	20.31
333.414	-28.84
333.627	-18.6
333.84	-4.27
334.053	44.88
334.265	-0.17
334.478	-2.22
334.691	8.02
334.903	28.5
335.116	-4.27
335.329	38.74
335.541	28.5
335.754	65.36
335.966	24.4
336.179	30.55
336.392	12.12
336.604	53.08
336.817	42.84
337.029	81.75
337.242	20.31
337.454	26.45
337.667	5.97
337.88	40.79
338.092	79.7
338.305	79.7
338.517	12.12
338.729	63.32
338.942	55.12
339.154	81.75
339.367	20.31
339.579	44.88
339.792	-18.6
340.004	-22.7
340.217	-14.51
340.429	55.12
340.641	8.02
340.854	3.93
341.066	55.12
341.278	77.65
341.491	40.79
341.703	44.88
341.915	-16.55
342.128	51.03
342.34	32.6
342.552	-4.27
342.764	30.55
342.977	63.32
343.189	-39.08
343.401	73.56
343.613	14.17
343.826	34.64
344.038	22.36
344.25	69.46
344.462	-4.27
344.674	30.55
344.886	12.12
345.099	67.41
345.311	-8.36
345.523	63.32
345.735	-2.22
345.947	-12.46
346.159	44.88
346.371	63.32
346.583	10.07
346.795	30.55
347.007	-8.36
347.219	65.36
347.431	-2.22
347.643	14.17
347.855	14.17
348.067	69.46
348.279	-14.51
348.491	-24.75
348.703	16.21
348.915	61.27
349.127	36.69
349.339	36.69
349.551	51.03
349.763	24.4
349.975	20.31
350.187	44.88
350.399	73.56
350.61	108.37
350.822	-4.27
351.034	26.45
351.246	10.07
351.458	36.69
351.669	79.7
351.881	38.74
352.093	81.75
352.305	89.94
352.517	75.6
352.728	55.12
352.94	77.65
353.152	18.26
353.363	36.69
353.575	96.08
353.787	73.56
353.999	63.32
354.21	44.88
354.422	38.74
354.633	-34.99
354.845	24.4
355.057	73.56
355.268	53.08
355.48	12.12
355.692	-22.7
355.903	1.88
356.115	14.17
356.326	5.97
356.538	75.6
356.749	-24.75
356.961	14.17
357.172	-2.22
357.384	55.12
357.595	61.27
357.807	71.51
358.018	30.55
358.23	18.26
358.441	77.65
358.653	32.6
358.864	-12.46
359.075	10.07
359.287	-8.36
359.498	22.36
359.709	-26.79
359.921	40.79
360.132	-43.18
360.344	28.5
360.555	14.17
360.766	28.5
360.977	-8.36
361.189	73.56
361.4	59.22
361.611	85.84
361.823	77.65
362.034	-37.03
362.245	-53.42
362.456	-0.17
362.667	-4.27
362.879	-6.31
363.09	59.22
363.301	14.17
363.512	-0.17
363.723	30.55
363.935	10.07
364.146	94.04
364.357	-12.46
364.568	85.84
364.779	28.5
364.99	79.7
365.201	-20.65
365.412	65.36
365.623	-2.22
365.834	61.27
366.045	67.41
366.256	26.45
366.467	-12.46
366.678	59.22
366.889	-6.31
367.1	-2.22
367.311	28.5
367.522	-18.6
367.733	143.19
367.944	10.07
368.155	42.84
368.366	53.08
368.577	-4.27
368.788	77.65
368.999	46.93
369.209	42.84
369.42	81.75
369.631	69.46
369.842	102.23
370.053	57.17
370.264	30.55
370.474	57.17
370.685	14.17
370.896	32.6
371.107	-20.65
371.317	40.79
371.528	-4.27
371.739	-37.03
371.95	-37.03
372.16	61.27
372.371	-28.84
372.582	61.27
372.792	79.7
373.003	38.74
373.214	14.17
373.424	24.4
373.635	36.69
373.846	130.9
374.056	3.93
374.267	1.88
374.477	26.45
374.688	55.12
374.898	46.93
375.109	53.08
375.319	53.08
375.53	46.93
375.74	51.03
375.951	51.03
376.161	44.88
376.372	30.55
376.582	24.4
376.793	75.6
377.003	-8.36
377.214	-18.6
377.424	44.88
377.635	10.07
377.845	110.42
378.055	75.6
378.266	-12.46
378.476	32.6
378.686	-24.75
378.897	59.22
379.107	79.7
379.317	-6.31
379.528	-12.46
379.738	53.08
379.948	1.88
380.158	87.89
380.369	12.12
380.579	55.12
380.789	46.93
380.999	34.64
381.21	67.41
381.42	-4.27
381.63	36.69
381.84	69.46
382.05	-24.75
382.261	69.46
382.471	-14.51
382.681	53.08
382.891	55.12
383.101	71.51
383.311	1.88
383.521	5.97
383.731	-14.51
383.941	8.02
384.151	73.56
384.361	24.4
384.571	126.8
384.781	8.02
384.991	87.89
385.201	51.03
385.411	81.75
385.621	57.17
385.831	36.69
386.041	61.27
386.251	81.75
386.461	-47.27
386.671	53.08
386.881	71.51
387.091	-0.17
387.301	-24.75
387.511	12.12
387.72	98.13
387.93	79.7
388.14	73.56
388.35	1.88
388.56	22.36
388.769	-0.17
388.979	71.51
389.189	36.69
389.399	89.94
389.609	71.51
389.818	77.65
390.028	44.88
390.238	16.21
390.447	36.69
390.657	44.88
390.867	-24.75
391.076	20.31
391.286	42.84
391.496	48.98
391.705	18.26
391.915	104.28
392.125	5.97
392.334	-26.79
392.544	63.32
392.753	-26.79
392.963	3.93
393.172	75.6
393.382	-55.47
393.591	135
393.801	12.12
394.01	38.74
394.22	81.75
394.429	-12.46
394.639	79.7
394.848	89.94
395.058	67.41
395.267	34.64
395.477	55.12
395.686	59.22
395.895	69.46
396.105	77.65
396.314	77.65
396.524	73.56
396.733	77.65
396.942	98.13
397.152	28.5
397.361	79.7
397.57	30.55
397.78	-0.17
397.989	94.04
398.198	87.89
398.407	28.5
398.617	34.64
398.826	75.6
399.035	130.9
399.244	34.64
399.453	59.22
399.663	51.03
399.872	40.79
400.081	69.46
400.29	77.65
400.499	3.93
400.708	143.19
400.917	94.04
401.127	59.22
401.336	118.61
401.545	122.71
401.754	67.41
401.963	44.88
402.172	137.04
402.381	108.37
402.59	44.88
402.799	38.74
403.008	106.32
403.217	61.27
403.426	67.41
403.635	83.8
403.844	14.17
404.053	85.84
404.262	51.03
404.471	100.18
404.68	192.34
404.888	96.08
405.097	108.37
405.306	98.13
405.515	116.56
405.724	28.5
405.933	59.22
406.142	85.84
406.35	96.08
406.559	89.94
406.768	137.04
406.977	104.28
407.185	159.57
407.394	71.51
407.603	120.66
407.812	132.95
408.02	114.52
408.229	118.61
408.438	81.75
408.646	118.61
408.855	163.67
409.064	122.71
409.272	135
409.481	151.38
409.69	108.37
409.898	120.66
410.107	167.76
410.315	147.28
410.524	184.15
410.733	147.28
410.941	194.39
411.15	210.77
411.358	184.15
411.567	241.49
411.775	192.34
411.984	151.38
412.192	225.11
412.401	214.87
412.609	272.21
412.818	255.83
413.026	221.01
413.234	245.59
413.443	214.87
413.651	253.78
413.86	274.26
414.068	337.74
414.276	315.22
414.485	268.11
414.693	319.31
414.901	327.5
415.11	354.13
415.318	300.88
415.526	386.9
415.734	296.78
415.943	333.65
416.151	376.66
416.359	390.99
416.567	427.85
416.776	401.23
416.984	452.43
417.192	448.33
417.4	454.48
417.608	436.05
417.817	470.86
418.025	593.74
418.233	550.73
418.441	466.77
418.649	503.63
418.857	520.01
419.065	593.74
419.273	536.4
419.481	653.13
419.689	644.94
419.897	685.9
420.105	661.32
420.313	759.63
420.521	810.82
420.729	741.19
420.937	862.02
421.145	816.97
421.353	823.11
421.561	884.55
421.769	917.32
421.977	976.71
422.185	937.8
422.393	1066.82
422.601	1044.29
422.809	1093.44
423.017	1046.34
423.224	1142.6
423.432	1085.25
423.64	1179.46
423.848	1255.23
424.056	1265.47
424.263	1281.86
424.471	1331.01
424.679	1382.21
424.887	1341.25
425.094	1496.89
425.302	1550.14
425.51	1486.65
425.718	1683.26
425.925	1650.49
426.133	1595.2
426.341	1683.26
426.548	1879.86
426.756	1840.95
426.964	1861.43
427.171	1914.68
427.379	1931.06
427.586	2017.08
427.794	2099
428.001	2207.54
428.209	2193.2
428.417	2252.59
428.624	2424.62
428.832	2430.77
429.039	2445.1
429.247	2348.85
429.454	2600.75
429.662	2905.9
429.869	2686.76
430.076	2791.21
430.284	2758.44
430.491	2981.67
430.699	2961.19
430.906	3063.59
431.114	3098.41
431.321	3190.56
431.528	3196.71
431.736	3401.51
431.943	3594.01
432.15	3426.08
432.358	3653.41
432.565	3661.6
432.772	3720.99
432.979	3831.58
433.187	3989.27
433.394	3862.3
433.601	4052.76
433.808	4294.42
434.016	4155.16
434.223	4310.8
434.43	4648.72
434.637	4515.6
434.844	4912.91
435.052	4978.44
435.259	4857.61
435.466	4912.91
435.673	4886.28
435.88	5302.02
436.087	5551.87
436.294	5641.98
436.501	5512.96
436.708	5402.37
436.915	5678.85
437.122	5826.3
437.329	5959.42
437.537	5975.8
437.743	6043.39
437.95	6027
438.157	6346.48
438.364	6786.8
438.571	6430.45
438.778	6612.72
438.985	7573.22
439.192	7057.13
439.399	7462.63
439.606	7167.72
439.813	7386.85
440.02	8003.29
440.227	7786.21
440.433	7859.93
440.64	8046.3
440.847	7864.03
441.054	8111.83
441.261	8582.87
441.467	8576.72
441.674	8781.52
441.881	9035.47
442.088	9033.42
442.294	8982.22
442.501	9090.76
442.708	9379.53
442.914	9647.81
443.121	10102.46
443.328	9914.05
443.534	10667.7
443.741	10264.25
443.948	10069.69
444.154	10942.13
444.361	10677.94
444.568	10763.95
444.774	10847.92
444.981	11105.96
445.187	11349.67
445.394	12035.74
445.6	11478.69
445.807	12678.8
446.013	12232.35
446.22	12539.54
446.426	13026.96
446.633	13137.55
446.839	13469.32
447.046	12904.08
447.252	13622.92
447.459	13577.86
447.665	13567.62
447.871	14145.15
448.078	14761.59
448.284	14130.81
448.491	14306.94
448.697	15148.65
448.903	15439.47
449.11	15437.42
449.316	15222.38
449.522	15378.03
449.728	15677.03
449.935	15799.91
450.141	15724.13
450.347	16164.45
450.553	15914.59
450.76	16213.6
450.966	16617.05
451.172	16447.07
451.378	16997.97
451.584	16287.32
451.791	16971.35
451.997	16791.13
452.203	17124.94
452.409	17186.38
452.615	16926.29
452.821	16133.73
453.027	16227.93
453.233	17092.18
453.44	16500.31
453.646	16596.57
453.852	16725.59
454.058	17172.05
454.264	16604.76
454.47	16598.62
454.676	16207.45
454.882	16850.52
455.088	15406.7
455.294	15582.82
455.5	15949.41
455.705	16289.37
455.911	15638.12
456.117	15083.12
456.323	14804.6
456.529	14225.02
456.735	14777.97
456.941	14329.47
457.147	14196.35
457.352	13723.27
457.558	13631.11
457.764	13530.76
457.97	13225.61
458.176	13029.01
458.381	13155.98
458.587	12390.04
458.793	12474.01
458.999	11587.24
459.204	12643.99
459.41	12084.89
459.616	11583.14
459.821	11548.33
460.027	11630.24
460.233	11415.21
460.438	10710.71
460.644	10757.81
460.85	10475.19
461.055	10270.39
461.261	9963.2
461.466	9238.22
461.672	9086.67
461.878	9782.98
462.083	9121.48
462.289	8963.79
462.494	8822.48
462.7	8531.67
462.905	8339.16
463.111	8511.19
463.316	8582.87
463.522	8373.97
463.727	8476.37
463.932	8404.69
464.138	8312.53
464.343	8273.62
464.549	7935.71
464.754	8206.04
464.959	8144.6
465.165	8287.96
465.37	7687.9
465.575	7479.01
465.781	7714.53
465.986	7872.22
466.191	7636.7
466.397	7352.04
466.602	7122.66
466.807	7497.44
467.012	7528.16
467.218	7251.69
467.423	7263.97
467.628	7306.98
467.833	7671.52
468.038	7401.19
468.244	6958.83
468.449	7335.65
468.654	7079.66
468.859	7259.88
469.064	6915.82
469.269	6815.47
