Data from USB4F104151__81__11-45-34-148.txt Node

Date: Fri Mar 14 11:45:34 EDT 2025
User: louis
Spectrometer: USB4F10415
Trigger mode: 4
Integration Time (sec): 2.000000E-2
Scans to average: 1
Electric dark correction enabled: true
Nonlinearity correction enabled: false
Boxcar width: 0
XAxis mode: Wavelengths
Number of Pixels in Spectrum: 3648
>>>>>Begin Spectral Data<<<<<
178.204	-147.8
178.424	-147.8
178.644	-147.8
178.864	-84.31
179.084	-49.49
179.304	1.71
179.524	-4.44
179.744	24.23
179.964	5.8
180.184	-8.53
180.404	32.43
180.624	28.33
180.844	1.71
181.064	-6.49
181.283	-43.35
181.503	-96.6
181.723	65.19
181.943	-8.53
182.163	20.14
182.383	3.75
182.602	57
182.822	-35.16
183.042	75.43
183.262	28.33
183.482	-57.68
183.701	-6.49
183.921	48.81
184.141	22.19
184.361	93.87
184.58	-4.44
184.8	77.48
185.02	7.85
185.239	108.2
185.459	11.95
185.679	52.91
185.898	-10.58
186.118	-8.53
186.338	-20.82
186.557	24.23
186.777	46.76
186.997	7.85
187.216	-0.34
187.436	13.99
187.655	112.3
187.875	52.91
188.095	-33.11
188.314	28.33
188.534	-31.06
188.753	42.67
188.973	67.24
189.192	61.1
189.412	54.95
189.631	32.43
189.851	-12.63
190.07	48.81
190.29	63.15
190.509	-12.63
190.729	13.99
190.948	38.57
191.168	143.02
191.387	83.63
191.607	-4.44
191.826	32.43
192.045	30.38
192.265	-6.49
192.484	75.43
192.704	-0.34
192.923	-41.3
193.142	79.53
193.362	40.62
193.581	73.39
193.8	34.47
194.02	57
194.239	-16.73
194.458	28.33
194.678	20.14
194.897	36.52
195.116	30.38
195.335	57
195.555	3.75
195.774	5.8
195.993	11.95
196.212	42.67
196.432	16.04
196.651	40.62
196.87	-4.44
197.089	102.06
197.308	-29.01
197.528	44.71
197.747	-2.39
197.966	11.95
198.185	79.53
198.404	-8.53
198.623	63.15
198.842	83.63
199.062	46.76
199.281	75.43
199.5	36.52
199.719	11.95
199.938	28.33
200.157	36.52
200.376	104.11
200.595	-29.01
200.814	71.34
201.033	13.99
201.252	48.81
201.471	46.76
201.69	73.39
201.909	50.86
202.128	102.06
202.347	75.43
202.566	28.33
202.785	22.19
203.004	50.86
203.223	140.97
203.442	11.95
203.661	71.34
203.879	-14.68
204.098	50.86
204.317	48.81
204.536	30.38
204.755	13.99
204.974	52.91
205.193	38.57
205.411	36.52
205.63	69.29
205.849	69.29
206.068	-43.35
206.287	24.23
206.505	61.1
206.724	30.38
206.943	42.67
207.162	3.75
207.381	9.9
207.599	61.1
207.818	9.9
208.037	-10.58
208.255	5.8
208.474	16.04
208.693	77.48
208.911	57
209.13	28.33
209.349	30.38
209.567	13.99
209.786	16.04
210.005	77.48
210.223	46.76
210.442	28.33
210.661	63.15
210.879	22.19
211.098	32.43
211.316	22.19
211.535	24.23
211.753	-41.3
211.972	59.05
212.191	-57.68
212.409	44.71
212.628	-10.58
212.846	-41.3
213.065	52.91
213.283	110.25
213.502	32.43
213.72	-18.77
213.938	-24.92
214.157	11.95
214.375	32.43
214.594	44.71
214.812	-20.82
215.031	36.52
215.249	-31.06
215.467	32.43
215.686	-6.49
215.904	65.19
216.122	91.82
216.341	77.48
216.559	42.67
216.778	69.29
216.996	40.62
217.214	22.19
217.432	24.23
217.651	-6.49
217.869	22.19
218.087	13.99
218.306	24.23
218.524	67.24
218.742	38.57
218.96	36.52
219.179	50.86
219.397	36.52
219.615	9.9
219.833	-16.73
220.051	57
220.27	24.23
220.488	81.58
220.706	44.71
220.924	24.23
221.142	20.14
221.36	42.67
221.578	13.99
221.796	77.48
222.015	89.77
222.233	-6.49
222.451	93.87
222.669	-2.39
222.887	50.86
223.105	1.71
223.323	48.81
223.541	32.43
223.759	63.15
223.977	-12.63
224.195	26.28
224.413	54.95
224.631	-4.44
224.849	73.39
225.067	69.29
225.285	-41.3
225.503	50.86
225.721	52.91
225.939	-6.49
226.157	50.86
226.375	73.39
226.592	-14.68
226.81	57
227.028	3.75
227.246	46.76
227.464	-59.73
227.682	89.77
227.9	69.29
228.117	38.57
228.335	-0.34
228.553	77.48
228.771	57
228.989	69.29
229.206	61.1
229.424	44.71
229.642	46.76
229.86	40.62
230.077	106.15
230.295	-0.34
230.513	59.05
230.731	46.76
230.948	112.3
231.166	65.19
231.384	18.09
231.601	81.58
231.819	1.71
232.037	-10.58
232.254	5.8
232.472	38.57
232.689	13.99
232.907	57
233.125	7.85
233.342	48.81
233.56	-4.44
233.777	106.15
233.995	83.63
234.213	26.28
234.43	32.43
234.648	77.48
234.865	3.75
235.083	30.38
235.3	59.05
235.518	13.99
235.735	24.23
235.953	140.97
236.17	24.23
236.388	11.95
236.605	-24.92
236.822	106.15
237.04	1.71
237.257	153.26
237.475	-45.4
237.692	69.29
237.909	77.48
238.127	26.28
238.344	-31.06
238.562	89.77
238.779	-10.58
238.996	-55.64
239.214	52.91
239.431	28.33
239.648	36.52
239.865	61.1
240.083	42.67
240.3	-41.3
240.517	81.58
240.735	11.95
240.952	59.05
241.169	34.47
241.386	44.71
241.603	87.72
241.821	18.09
242.038	63.15
242.255	-10.58
242.472	13.99
242.689	3.75
242.907	32.43
243.124	85.67
243.341	9.9
243.558	54.95
243.775	-4.44
243.992	3.75
244.209	30.38
244.426	40.62
244.643	54.95
244.86	32.43
245.078	95.91
245.295	36.52
245.512	52.91
245.729	81.58
245.946	38.57
246.163	-18.77
246.38	-2.39
246.597	91.82
246.814	26.28
247.031	18.09
247.248	28.33
247.464	26.28
247.681	81.58
247.898	106.15
248.115	11.95
248.332	-4.44
248.549	69.29
248.766	81.58
248.983	44.71
249.2	-20.82
249.417	67.24
249.633	16.04
249.85	69.29
250.067	83.63
250.284	87.72
250.501	26.28
250.717	73.39
250.934	36.52
251.151	13.99
251.368	1.71
251.585	63.15
251.801	100.01
252.018	44.71
252.235	95.91
252.451	5.8
252.668	34.47
252.885	100.01
253.102	34.47
253.318	9.9
253.535	9.9
253.752	16.04
253.968	-31.06
254.185	-65.88
254.401	13.99
254.618	48.81
254.835	87.72
255.051	57
255.268	3.75
255.484	-12.63
255.701	87.72
255.917	52.91
256.134	5.8
256.351	24.23
256.567	-2.39
256.784	20.14
257	18.09
257.217	24.23
257.433	61.1
257.65	75.43
257.866	40.62
258.082	5.8
258.299	-8.53
258.515	40.62
258.732	-67.92
258.948	67.24
259.165	50.86
259.381	9.9
259.597	9.9
259.814	11.95
260.03	16.04
260.246	61.1
260.463	65.19
260.679	20.14
260.895	24.23
261.112	16.04
261.328	59.05
261.544	13.99
261.761	42.67
261.977	36.52
262.193	16.04
262.409	73.39
262.626	-6.49
262.842	79.53
263.058	7.85
263.274	16.04
263.49	40.62
263.707	69.29
263.923	59.05
264.139	-10.58
264.355	-35.16
264.571	38.57
264.787	28.33
265.004	79.53
265.22	63.15
265.436	61.1
265.652	54.95
265.868	61.1
266.084	-33.11
266.3	44.71
266.516	34.47
266.732	11.95
266.948	44.71
267.164	38.57
267.38	-24.92
267.596	-14.68
267.812	122.54
268.028	38.57
268.244	13.99
268.46	40.62
268.676	-12.63
268.892	52.91
269.108	26.28
269.324	38.57
269.54	1.71
269.756	5.8
269.972	54.95
270.188	34.47
270.403	67.24
270.619	67.24
270.835	7.85
271.051	75.43
271.267	-26.96
271.483	52.91
271.698	-24.92
271.914	83.63
272.13	11.95
272.346	32.43
272.562	40.62
272.777	50.86
272.993	38.57
273.209	30.38
273.425	26.28
273.64	-14.68
273.856	118.44
274.072	34.47
274.287	9.9
274.503	48.81
274.719	77.48
274.934	-29.01
275.15	-53.59
275.366	20.14
275.581	-76.12
275.797	132.78
276.012	11.95
276.228	57
276.444	32.43
276.659	52.91
276.875	-20.82
277.09	42.67
277.306	-0.34
277.521	50.86
277.737	9.9
277.952	122.54
278.168	-0.34
278.383	59.05
278.599	5.8
278.814	36.52
279.03	46.76
279.245	81.58
279.461	26.28
279.676	61.1
279.892	-20.82
280.107	71.34
280.322	79.53
280.538	71.34
280.753	100.01
280.969	54.95
281.184	1.71
281.399	79.53
281.615	30.38
281.83	-2.39
282.045	73.39
282.26	83.63
282.476	-53.59
282.691	44.71
282.906	91.82
283.122	69.29
283.337	-10.58
283.552	16.04
283.767	32.43
283.983	18.09
284.198	-6.49
284.413	40.62
284.628	67.24
284.843	83.63
285.058	48.81
285.274	-0.34
285.489	54.95
285.704	3.75
285.919	-35.16
286.134	61.1
286.349	138.92
286.564	52.91
286.779	114.34
286.995	48.81
287.21	30.38
287.425	63.15
287.64	-20.82
287.855	52.91
288.07	3.75
288.285	-29.01
288.5	120.49
288.715	79.53
288.93	-8.53
289.145	40.62
289.36	-20.82
289.575	38.57
289.79	104.11
290.004	69.29
290.219	61.1
290.434	40.62
290.649	26.28
290.864	24.23
291.079	67.24
291.294	-4.44
291.509	30.38
291.724	44.71
291.938	48.81
292.153	46.76
292.368	69.29
292.583	50.86
292.798	116.39
293.012	65.19
293.227	67.24
293.442	38.57
293.657	11.95
293.871	57
294.086	32.43
294.301	63.15
294.516	67.24
294.73	54.95
294.945	44.71
295.16	42.67
295.374	54.95
295.589	16.04
295.804	-10.58
296.018	38.57
296.233	50.86
296.447	-29.01
296.662	87.72
296.877	26.28
297.091	100.01
297.306	18.09
297.52	13.99
297.735	38.57
297.949	13.99
298.164	69.29
298.378	20.14
298.593	63.15
298.807	5.8
299.022	50.86
299.236	13.99
299.451	104.11
299.665	11.95
299.88	-33.11
300.094	59.05
300.309	18.09
300.523	26.28
300.737	5.8
300.952	44.71
301.166	5.8
301.381	63.15
301.595	46.76
301.809	59.05
302.024	18.09
302.238	28.33
302.452	44.71
302.667	61.1
302.881	3.75
303.095	42.67
303.309	61.1
303.524	32.43
303.738	42.67
303.952	48.81
304.166	104.11
304.381	7.85
304.595	11.95
304.809	30.38
305.023	73.39
305.237	75.43
305.452	63.15
305.666	93.87
305.88	118.44
306.094	61.1
306.308	91.82
306.522	102.06
306.736	54.95
306.95	57
307.164	24.23
307.379	40.62
307.593	22.19
307.807	32.43
308.021	57
308.235	16.04
308.449	54.95
308.663	32.43
308.877	73.39
309.091	95.91
309.305	24.23
309.519	16.04
309.733	7.85
309.947	11.95
310.161	67.24
310.374	28.33
310.588	44.71
310.802	3.75
311.016	-6.49
311.23	11.95
311.444	50.86
311.658	-72.02
311.872	-6.49
312.085	30.38
312.299	143.02
312.513	81.58
312.727	87.72
312.941	-16.73
313.154	48.81
313.368	57
313.582	106.15
313.796	61.1
314.009	67.24
314.223	48.81
314.437	22.19
314.651	52.91
314.864	34.47
315.078	11.95
315.292	46.76
315.505	100.01
315.719	13.99
315.933	34.47
316.146	73.39
316.36	61.1
316.573	1.71
316.787	46.76
317.001	87.72
317.214	32.43
317.428	83.63
317.641	-2.39
317.855	38.57
318.068	-0.34
318.282	36.52
318.495	79.53
318.709	85.67
318.922	1.71
319.136	-2.39
319.349	104.11
319.563	-4.44
319.776	57
319.99	44.71
320.203	91.82
320.417	42.67
320.63	52.91
320.843	118.44
321.057	36.52
321.27	16.04
321.483	104.11
321.697	89.77
321.91	71.34
322.124	85.67
322.337	50.86
322.55	-2.39
322.763	102.06
322.977	44.71
323.19	-22.87
323.403	85.67
323.617	-45.4
323.83	93.87
324.043	67.24
324.256	26.28
324.469	-41.3
324.683	136.87
324.896	44.71
325.109	22.19
325.322	52.91
325.535	-22.87
325.748	75.43
325.962	-18.77
326.175	28.33
326.388	13.99
326.601	-2.39
326.814	7.85
327.027	28.33
327.24	54.95
327.453	7.85
327.666	79.53
327.879	11.95
328.092	44.71
328.305	77.48
328.518	30.38
328.731	7.85
328.944	20.14
329.157	-0.34
329.37	7.85
329.583	89.77
329.796	87.72
330.009	85.67
330.222	136.87
330.435	77.48
330.648	69.29
330.861	1.71
331.073	42.67
331.286	83.63
331.499	38.57
331.712	89.77
331.925	52.91
332.138	42.67
332.35	65.19
332.563	11.95
332.776	75.43
332.989	-14.68
333.202	-8.53
333.414	71.34
333.627	77.48
333.84	57
334.053	67.24
334.265	77.48
334.478	40.62
334.691	36.52
334.903	112.3
335.116	63.15
335.329	-12.63
335.541	36.52
335.754	153.26
335.966	48.81
336.179	91.82
336.392	36.52
336.604	46.76
336.817	-4.44
337.029	89.77
337.242	61.1
337.454	89.77
337.667	26.28
337.88	89.77
338.092	-14.68
338.305	22.19
338.517	-18.77
338.729	40.62
338.942	32.43
339.154	26.28
339.367	79.53
339.579	22.19
339.792	44.71
340.004	40.62
340.217	57
340.429	20.14
340.641	24.23
340.854	42.67
341.066	54.95
341.278	75.43
341.491	73.39
341.703	-8.53
341.915	-4.44
342.128	89.77
342.34	26.28
342.552	16.04
342.764	59.05
342.977	114.34
343.189	65.19
343.401	118.44
343.613	36.52
343.826	48.81
344.038	38.57
344.25	38.57
344.462	91.82
344.674	77.48
344.886	89.77
345.099	100.01
345.311	30.38
345.523	79.53
345.735	69.29
345.947	106.15
346.159	93.87
346.371	73.39
346.583	48.81
346.795	102.06
347.007	34.47
347.219	1.71
347.431	67.24
347.643	16.04
347.855	75.43
348.067	69.29
348.279	9.9
348.491	69.29
348.703	63.15
348.915	13.99
349.127	-10.58
349.339	97.96
349.551	38.57
349.763	54.95
349.975	46.76
350.187	63.15
350.399	63.15
350.61	44.71
350.822	85.67
351.034	16.04
351.246	36.52
351.458	81.58
351.669	110.25
351.881	81.58
352.093	69.29
352.305	13.99
352.517	52.91
352.728	63.15
352.94	50.86
353.152	110.25
353.363	3.75
353.575	1.71
353.787	22.19
353.999	44.71
354.21	97.96
354.422	73.39
354.633	3.75
354.845	73.39
355.057	46.76
355.268	65.19
355.48	50.86
355.692	20.14
355.903	16.04
356.115	100.01
356.326	5.8
356.538	54.95
356.749	48.81
356.961	9.9
357.172	-24.92
357.384	71.34
357.595	100.01
357.807	22.19
358.018	67.24
358.23	20.14
358.441	67.24
358.653	97.96
358.864	22.19
359.075	61.1
359.287	104.11
359.498	57
359.709	22.19
359.921	26.28
360.132	89.77
360.344	63.15
360.555	97.96
360.766	20.14
360.977	48.81
361.189	48.81
361.4	52.91
361.611	97.96
361.823	28.33
362.034	-6.49
362.245	91.82
362.456	81.58
362.667	32.43
362.879	20.14
363.09	77.48
363.301	116.39
363.512	75.43
363.723	11.95
363.935	44.71
364.146	24.23
364.357	32.43
364.568	81.58
364.779	67.24
364.99	3.75
365.201	63.15
365.412	75.43
365.623	38.57
365.834	75.43
366.045	87.72
366.256	26.28
366.467	112.3
366.678	57
366.889	40.62
367.1	52.91
367.311	69.29
367.522	52.91
367.733	11.95
367.944	34.47
368.155	75.43
368.366	77.48
368.577	44.71
368.788	143.02
368.999	108.2
369.209	36.52
369.42	93.87
369.631	163.5
369.842	97.96
370.053	38.57
370.264	110.25
370.474	18.09
370.685	46.76
370.896	122.54
371.107	7.85
371.317	69.29
371.528	83.63
371.739	-35.16
371.95	13.99
372.16	-0.34
372.371	7.85
372.582	83.63
372.792	3.75
373.003	138.92
373.214	40.62
373.424	38.57
373.635	83.63
373.846	87.72
374.056	93.87
374.267	57
374.477	120.49
374.688	93.87
374.898	20.14
375.109	34.47
375.319	100.01
375.53	130.73
375.74	91.82
375.951	91.82
376.161	36.52
376.372	104.11
376.582	118.44
376.793	38.57
377.003	44.71
377.214	63.15
377.424	59.05
377.635	85.67
377.845	73.39
378.055	46.76
378.266	126.63
378.476	-6.49
378.686	77.48
378.897	50.86
379.107	108.2
379.317	89.77
379.528	1.71
379.738	42.67
379.948	87.72
380.158	61.1
380.369	108.2
380.579	69.29
380.789	65.19
380.999	57
381.21	67.24
381.42	93.87
381.63	38.57
381.84	81.58
382.05	71.34
382.261	65.19
382.471	77.48
382.681	9.9
382.891	-8.53
383.101	79.53
383.311	-0.34
383.521	48.81
383.731	34.47
383.941	102.06
384.151	71.34
384.361	112.3
384.571	42.67
384.781	100.01
384.991	114.34
385.201	97.96
385.411	93.87
385.621	85.67
385.831	65.19
386.041	46.76
386.251	59.05
386.461	54.95
386.671	83.63
386.881	81.58
387.091	151.21
387.301	63.15
387.511	26.28
387.72	93.87
387.93	77.48
388.14	71.34
388.35	50.86
388.56	79.53
388.769	48.81
388.979	1.71
389.189	126.63
389.399	32.43
389.609	63.15
389.818	132.78
390.028	65.19
390.238	48.81
390.447	73.39
390.657	81.58
390.867	46.76
391.076	93.87
391.286	75.43
391.496	9.9
391.705	77.48
391.915	85.67
392.125	155.3
392.334	67.24
392.544	83.63
392.753	138.92
392.963	85.67
393.172	130.73
393.382	91.82
393.591	77.48
393.801	63.15
394.01	112.3
394.22	-6.49
394.429	134.82
394.639	130.73
394.848	110.25
395.058	110.25
395.267	106.15
395.477	126.63
395.686	147.11
395.895	116.39
396.105	145.06
396.314	108.2
396.524	118.44
396.733	108.2
396.942	175.78
397.152	192.17
397.361	155.3
397.57	104.11
397.78	100.01
397.989	100.01
398.198	188.07
398.407	159.4
398.617	100.01
398.826	145.06
399.035	65.19
399.244	95.91
399.453	138.92
399.663	85.67
399.872	167.59
400.081	100.01
400.29	153.26
400.499	104.11
400.708	157.35
400.917	102.06
401.127	147.11
401.336	153.26
401.545	194.22
401.754	143.02
401.963	206.5
402.172	138.92
402.381	118.44
402.59	163.5
402.799	104.11
403.008	222.89
403.217	122.54
403.426	167.59
403.635	202.41
403.844	75.43
404.053	163.5
404.262	126.63
404.471	247.46
404.68	124.58
404.888	202.41
405.097	186.02
405.306	171.69
405.515	138.92
405.724	226.98
405.933	257.7
406.142	212.65
406.35	136.87
406.559	198.31
406.768	222.89
406.977	226.98
407.185	212.65
407.394	229.03
407.603	218.79
407.812	224.94
408.02	329.38
408.229	255.65
408.438	282.28
408.646	212.65
408.855	249.51
409.064	274.09
409.272	243.37
409.481	331.43
409.69	267.94
409.898	304.81
410.107	382.63
410.315	343.72
410.524	376.48
410.733	392.87
410.941	310.95
411.15	409.25
411.358	339.62
411.567	341.67
411.775	437.92
411.984	446.12
412.192	503.46
412.401	497.32
412.609	532.13
412.818	489.12
413.026	519.84
413.234	554.66
413.443	571.04
413.651	597.67
413.86	591.52
414.068	663.2
414.276	638.62
414.485	743.07
414.693	806.56
414.901	824.99
415.11	847.52
415.318	802.46
415.526	771.74
415.734	841.37
415.943	857.76
416.151	933.53
416.359	917.15
416.567	980.64
416.776	974.49
416.984	1083.03
417.192	997.02
417.4	1046.17
417.608	1083.03
417.817	1128.09
418.025	1234.58
418.233	1281.69
418.441	1216.15
418.649	1363.61
418.857	1384.09
419.065	1425.04
419.273	1396.37
419.481	1472.15
419.689	1601.17
419.897	1517.2
420.105	1728.14
420.313	1623.7
420.521	1781.39
420.729	1756.82
420.937	1810.06
421.145	1955.47
421.353	1961.61
421.561	1998.48
421.769	2143.88
421.977	2264.71
422.185	2166.41
422.393	2324.1
422.601	2434.69
422.809	2387.59
423.017	2424.45
423.224	2553.48
423.432	2649.73
423.64	2725.51
423.848	2958.97
424.056	2721.41
424.263	3102.33
424.471	3126.91
424.679	3096.19
424.887	3286.65
425.094	3313.27
425.302	3380.86
425.51	3462.77
425.718	3671.67
425.925	3643
426.133	3911.28
426.341	4077.16
426.548	4314.73
426.756	4181.61
426.964	4255.34
427.171	4423.27
427.379	4515.43
427.586	4662.88
427.794	4927.07
428.001	5058.14
428.209	5473.88
428.417	5287.51
428.624	5635.67
428.832	5602.9
429.039	5650
429.247	5518.93
429.454	6260.3
429.662	6575.69
429.869	6118.99
430.076	6565.45
430.284	6428.23
430.491	6526.54
430.699	7128.64
430.906	7132.73
431.114	7077.44
431.321	7212.6
431.528	7540.28
431.736	7890.48
431.943	8334.89
432.15	8062.51
432.358	8199.73
432.565	8588.84
432.772	8556.07
432.979	9068.06
433.187	9270.81
433.394	9389.6
433.601	9905.68
433.808	10051.09
434.016	9971.22
434.223	10153.49
434.43	11034.11
434.637	10438.16
434.844	11408.89
435.052	11398.65
435.259	11324.93
435.466	11793.91
435.673	11664.89
435.88	12273.14
436.087	12940.77
436.294	12926.44
436.501	12551.66
436.708	12844.52
436.915	13456.86
437.122	14063.06
437.329	14061.01
437.537	14454.22
437.743	14759.37
437.95	14630.35
438.157	15375.81
438.364	15717.82
438.571	15732.15
438.778	15762.87
438.985	17157.54
439.192	16512.43
439.399	17059.24
439.606	16549.29
439.813	17618.33
440.02	18644.37
440.227	18541.97
440.433	18322.84
440.64	18427.28
440.847	18683.28
441.054	19285.38
441.261	20620.66
441.467	20176.25
441.674	20596.08
441.881	21081.45
442.088	21278.05
442.294	21005.67
442.501	21609.82
442.708	22203.74
442.914	22691.15
443.121	23725.38
443.328	23274.82
443.534	24886.57
443.741	24263.99
443.948	24130.87
444.154	25535.78
444.361	25658.66
444.568	25818.4
444.774	25920.8
444.981	26021.15
445.187	26684.69
445.394	27839.75
445.6	27616.52
445.807	30285.02
446.013	28902.64
446.22	29443.31
446.426	30678.23
446.633	30565.59
446.839	31943.88
447.046	30645.46
447.252	32275.65
447.459	32345.28
447.665	32173.25
447.871	33113.27
448.078	35159.19
448.284	33408.17
448.491	33993.89
448.697	35540.11
448.903	36283.52
449.11	36418.69
449.316	35624.08
449.522	36523.13
449.728	37229.68
449.935	37457.01
450.141	37248.11
450.347	38497.38
450.553	37201.01
450.76	37942.38
450.966	38730.84
451.172	38534.24
451.378	39609.42
451.584	38790.23
451.791	39572.56
451.997	39654.48
452.203	40045.64
452.409	40137.8
452.615	40172.61
452.821	38614.11
453.027	38134.88
453.233	40604.74
453.44	38204.52
453.646	38870.11
453.852	38923.35
454.058	39920.71
454.264	38569.05
454.47	39148.63
454.676	38454.37
454.882	39636.05
455.088	36510.85
455.294	36809.85
455.5	37252.21
455.705	37960.81
455.911	36068.48
456.117	35415.18
456.323	35091.6
456.529	33232.05
456.735	34690.2
456.941	33813.67
457.147	33205.42
457.352	32281.79
457.558	32009.41
457.764	32027.84
457.97	31128.78
458.176	30641.37
458.381	30584.02
458.587	29222.12
458.793	29408.49
458.999	28032.25
459.204	29527.27
459.41	29039.86
459.616	26967.31
459.821	27114.76
460.027	26748.18
460.233	26461.46
460.438	25271.59
460.644	25562.4
460.85	24294.71
461.055	24061.24
461.261	23678.27
461.466	22177.11
461.672	21585.25
461.878	22818.13
462.083	21325.16
462.289	20854.12
462.494	20954.47
462.7	19862.91
462.905	19242.37
463.111	20102.52
463.316	19942.78
463.522	19447.17
463.727	19639.68
463.932	19297.67
464.138	19557.76
464.343	19289.48
464.549	18695.57
464.754	19350.92
464.959	19281.28
465.165	19152.26
465.37	18206.1
465.575	17964.44
465.781	18656.65
465.986	18754.96
466.191	18038.17
466.397	17589.66
466.602	16846.25
466.807	17483.17
467.012	17534.37
467.218	17364.39
467.423	17395.11
467.628	17337.76
467.833	17665.44
468.038	17180.07
