Data from USB4F104151__36__11-44-56-631.txt Node

Date: Fri Mar 14 11:44:56 EDT 2025
User: louis
Spectrometer: USB4F10415
Trigger mode: 4
Integration Time (sec): 2.000000E-2
Scans to average: 1
Electric dark correction enabled: true
Nonlinearity correction enabled: false
Boxcar width: 0
XAxis mode: Wavelengths
Number of Pixels in Spectrum: 3648
>>>>>Begin Spectral Data<<<<<
178.204	-120.66
178.424	-120.66
178.644	-120.66
178.864	-124.76
179.084	-46.93
179.304	-8.02
179.524	-14.17
179.744	-3.93
179.964	-48.98
180.184	22.7
180.404	-28.5
180.624	-14.17
180.844	34.99
181.064	-16.21
181.283	-8.02
181.503	84.14
181.723	0.17
181.943	-40.79
182.163	24.75
182.383	-34.64
182.602	77.99
182.822	84.14
183.042	16.55
183.262	59.56
183.482	14.51
183.701	14.51
183.921	69.8
184.141	67.75
184.361	28.84
184.58	-42.84
184.8	65.71
185.02	32.94
185.239	-44.88
185.459	22.7
185.679	92.33
185.898	-26.45
186.118	-51.03
186.338	6.31
186.557	28.84
186.777	84.14
186.997	28.84
187.216	57.51
187.436	-30.55
187.655	47.27
187.875	32.94
188.095	-51.03
188.314	6.31
188.534	-26.45
188.753	98.47
188.973	32.94
189.192	16.55
189.412	-40.79
189.631	24.75
189.851	2.22
190.07	-24.4
190.29	34.99
190.509	61.61
190.729	-36.69
190.948	98.47
191.168	63.66
191.387	-14.17
191.607	-34.64
191.826	90.28
192.045	14.51
192.265	16.55
192.484	20.65
192.704	6.31
192.923	-1.88
193.142	73.9
193.362	63.66
193.581	53.42
193.8	32.94
194.02	-8.02
194.239	28.84
194.458	18.6
194.678	0.17
194.897	51.37
195.116	73.9
195.335	71.85
195.555	0.17
195.774	22.7
195.993	-1.88
196.212	57.51
196.432	80.04
196.651	57.51
196.87	41.13
197.089	69.8
197.308	-30.55
197.528	-8.02
197.747	39.08
197.966	-8.02
198.185	53.42
198.404	47.27
198.623	-44.88
198.842	43.18
199.062	59.56
199.281	143.53
199.5	37.03
199.719	-1.88
199.938	71.85
200.157	16.55
200.376	94.38
200.595	24.75
200.814	10.41
201.033	45.23
201.252	37.03
201.471	61.61
201.69	98.47
201.909	-5.97
202.128	59.56
202.347	41.13
202.566	18.6
202.785	-1.88
203.004	-28.5
203.223	28.84
203.442	59.56
203.661	88.23
203.879	45.23
204.098	65.71
204.317	51.37
204.536	39.08
204.755	61.61
204.974	53.42
205.193	49.32
205.411	41.13
205.63	28.84
205.849	16.55
206.068	24.75
206.287	59.56
206.505	24.75
206.724	6.31
206.943	45.23
207.162	-8.02
207.381	37.03
207.599	16.55
207.818	14.51
208.037	53.42
208.255	4.27
208.474	-3.93
208.693	-26.45
208.911	57.51
209.13	57.51
209.349	30.89
209.567	6.31
209.786	63.66
210.005	65.71
210.223	32.94
210.442	-24.4
210.661	6.31
210.879	12.46
211.098	-1.88
211.316	6.31
211.535	16.55
211.753	41.13
211.972	24.75
212.191	84.14
212.409	-12.12
212.628	-8.02
212.846	16.55
213.065	-1.88
213.283	45.23
213.502	55.47
213.72	-12.12
213.938	30.89
214.157	39.08
214.375	12.46
214.594	-12.12
214.812	51.37
215.031	2.22
215.249	69.8
215.467	6.31
215.686	30.89
215.904	16.55
216.122	37.03
216.341	39.08
216.559	49.32
216.778	30.89
216.996	24.75
217.214	-18.26
217.432	-3.93
217.651	8.36
217.869	100.52
218.087	-32.6
218.306	-42.84
218.524	69.8
218.742	18.6
218.96	-12.12
219.179	-26.45
219.397	-12.12
219.615	61.61
219.833	45.23
220.051	-34.64
220.27	65.71
220.488	61.61
220.706	-12.12
220.924	51.37
221.142	57.51
221.36	-12.12
221.578	28.84
221.796	10.41
222.015	84.14
222.233	30.89
222.451	20.65
222.669	4.27
222.887	88.23
223.105	39.08
223.323	32.94
223.541	28.84
223.759	37.03
223.977	75.95
224.195	-1.88
224.413	88.23
224.631	69.8
224.849	47.27
225.067	14.51
225.285	30.89
225.503	34.99
225.721	45.23
225.939	-36.69
226.157	-1.88
226.375	86.19
226.592	26.79
226.81	20.65
227.028	102.57
227.246	34.99
227.464	-26.45
227.682	73.9
227.9	-26.45
228.117	10.41
228.335	41.13
228.553	41.13
228.771	45.23
228.989	32.94
229.206	34.99
229.424	32.94
229.642	30.89
229.86	34.99
230.077	-40.79
230.295	32.94
230.513	112.81
230.731	84.14
230.948	-14.17
231.166	61.61
231.384	28.84
231.601	26.79
231.819	88.23
232.037	-12.12
232.254	20.65
232.472	0.17
232.689	55.47
232.907	75.95
233.125	4.27
233.342	39.08
233.56	12.46
233.777	39.08
233.995	30.89
234.213	77.99
234.43	43.18
234.648	10.41
234.865	63.66
235.083	45.23
235.3	28.84
235.518	-20.31
235.735	84.14
235.953	45.23
236.17	34.99
236.388	32.94
236.605	20.65
236.822	34.99
237.04	86.19
237.257	24.75
237.475	6.31
237.692	100.52
237.909	-5.97
238.127	28.84
238.344	47.27
238.562	41.13
238.779	-28.5
238.996	6.31
239.214	69.8
239.431	37.03
239.648	98.47
239.865	24.75
240.083	-16.21
240.3	114.86
240.517	12.46
240.735	-8.02
240.952	14.51
241.169	55.47
241.386	8.36
241.603	-26.45
241.821	28.84
242.038	20.65
242.255	67.75
242.472	22.7
242.689	71.85
242.907	24.75
243.124	-16.21
243.341	59.56
243.558	0.17
243.775	47.27
243.992	-40.79
244.209	41.13
244.426	73.9
244.643	39.08
244.86	10.41
245.078	69.8
245.295	12.46
245.512	28.84
245.729	51.37
245.946	112.81
246.163	30.89
246.38	61.61
246.597	-42.84
246.814	28.84
247.031	73.9
247.248	88.23
247.464	45.23
247.681	-40.79
247.898	45.23
248.115	34.99
248.332	61.61
248.549	49.32
248.766	-10.07
248.983	63.66
249.2	65.71
249.417	39.08
249.633	2.22
249.85	34.99
250.067	73.9
250.284	30.89
250.501	2.22
250.717	14.51
250.934	28.84
251.151	37.03
251.368	-10.07
251.585	84.14
251.801	16.55
252.018	59.56
252.235	53.42
252.451	53.42
252.668	51.37
252.885	55.47
253.102	59.56
253.318	55.47
253.535	-38.74
253.752	-3.93
253.968	10.41
254.185	20.65
254.401	4.27
254.618	12.46
254.835	139.43
255.051	8.36
255.268	-1.88
255.484	12.46
255.701	51.37
255.917	47.27
256.134	10.41
256.351	37.03
256.567	39.08
256.784	61.61
257	16.55
257.217	-3.93
257.433	37.03
257.65	129.19
257.866	55.47
258.082	65.71
258.299	8.36
258.515	43.18
258.732	-16.21
258.948	67.75
259.165	61.61
259.381	8.36
259.597	73.9
259.814	41.13
260.03	12.46
260.246	125.1
260.463	16.55
260.679	112.81
260.895	-12.12
261.112	39.08
261.328	61.61
261.544	-10.07
261.761	53.42
261.977	45.23
262.193	61.61
262.409	65.71
262.626	2.22
262.842	43.18
263.058	18.6
263.274	57.51
263.49	34.99
263.707	129.19
263.923	-53.08
264.139	-28.5
264.355	45.23
264.571	71.85
264.787	57.51
265.004	41.13
265.22	-42.84
265.436	28.84
265.652	0.17
265.868	2.22
266.084	47.27
266.3	10.41
266.516	-20.31
266.732	-5.97
266.948	6.31
267.164	8.36
267.38	90.28
267.596	43.18
267.812	82.09
268.028	16.55
268.244	24.75
268.46	20.65
268.676	37.03
268.892	2.22
269.108	-3.93
269.324	51.37
269.54	-10.07
269.756	65.71
269.972	41.13
270.188	49.32
270.403	10.41
270.619	75.95
270.835	26.79
271.051	10.41
271.267	8.36
271.483	82.09
271.698	75.95
271.914	22.7
272.13	90.28
272.346	-16.21
272.562	57.51
272.777	106.67
272.993	133.29
273.209	75.95
273.425	32.94
273.64	63.66
273.856	127.14
274.072	-42.84
274.287	-3.93
274.503	-3.93
274.719	106.67
274.934	45.23
275.15	10.41
275.366	133.29
275.581	-5.97
275.797	59.56
276.012	-3.93
276.228	37.03
276.444	51.37
276.659	-8.02
276.875	-5.97
277.09	53.42
277.306	53.42
277.521	102.57
277.737	37.03
277.952	34.99
278.168	55.47
278.383	14.51
278.599	41.13
278.814	-12.12
279.03	6.31
279.245	71.85
279.461	2.22
279.676	69.8
279.892	45.23
280.107	-26.45
280.322	43.18
280.538	82.09
280.753	-14.17
280.969	98.47
281.184	-3.93
281.399	59.56
281.615	0.17
281.83	51.37
282.045	73.9
282.26	16.55
282.476	34.99
282.691	57.51
282.906	-59.22
283.122	30.89
283.337	12.46
283.552	53.42
283.767	0.17
283.983	77.99
284.198	-22.36
284.413	28.84
284.628	-40.79
284.843	32.94
285.058	45.23
285.274	-10.07
285.489	59.56
285.704	4.27
285.919	14.51
286.134	-12.12
286.349	39.08
286.564	8.36
286.779	57.51
286.995	16.55
287.21	-12.12
287.425	75.95
287.64	-10.07
287.855	-1.88
288.07	86.19
288.285	45.23
288.5	32.94
288.715	51.37
288.93	102.57
289.145	0.17
289.36	-16.21
289.575	-5.97
289.79	67.75
290.004	20.65
290.219	-12.12
290.434	114.86
290.649	51.37
290.864	-40.79
291.079	51.37
291.294	53.42
291.509	34.99
291.724	98.47
291.938	32.94
292.153	100.52
292.368	37.03
292.583	65.71
292.798	49.32
293.012	69.8
293.227	-14.17
293.442	18.6
293.657	77.99
293.871	32.94
294.086	32.94
294.301	71.85
294.516	65.71
294.73	20.65
294.945	67.75
295.16	55.47
295.374	65.71
295.589	47.27
295.804	34.99
296.018	69.8
296.233	51.37
296.447	-1.88
296.662	-20.31
296.877	39.08
297.091	30.89
297.306	0.17
297.52	34.99
297.735	49.32
297.949	61.61
298.164	63.66
298.378	41.13
298.593	49.32
298.807	20.65
299.022	47.27
299.236	-12.12
299.451	39.08
299.665	49.32
299.88	69.8
300.094	41.13
300.309	4.27
300.523	63.66
300.737	59.56
300.952	47.27
301.166	61.61
301.381	-5.97
301.595	86.19
301.809	-24.4
302.024	75.95
302.238	30.89
302.452	47.27
302.667	28.84
302.881	-16.21
303.095	69.8
303.309	20.65
303.524	-81.75
303.738	37.03
303.952	49.32
304.166	65.71
304.381	39.08
304.595	116.9
304.809	-46.93
305.023	49.32
305.237	20.65
305.452	75.95
305.666	43.18
305.88	47.27
306.094	67.75
306.308	20.65
306.522	-34.64
306.736	55.47
306.95	20.65
307.164	2.22
307.379	65.71
307.593	116.9
307.807	-40.79
308.021	53.42
308.235	49.32
308.449	55.47
308.663	90.28
308.877	24.75
309.091	20.65
309.305	55.47
309.519	-18.26
309.733	20.65
309.947	12.46
310.161	18.6
310.374	30.89
310.588	-12.12
310.802	37.03
311.016	75.95
311.23	59.56
311.444	65.71
311.658	43.18
311.872	92.33
312.085	24.75
312.299	34.99
312.513	82.09
312.727	69.8
312.941	47.27
313.154	45.23
313.368	20.65
313.582	-46.93
313.796	12.46
314.009	84.14
314.223	32.94
314.437	61.61
314.651	47.27
314.864	57.51
315.078	53.42
315.292	22.7
315.505	18.6
315.719	34.99
315.933	69.8
316.146	43.18
316.36	51.37
316.573	82.09
316.787	34.99
317.001	43.18
317.214	57.51
317.428	22.7
317.641	8.36
317.855	22.7
318.068	47.27
318.282	61.61
318.495	61.61
318.709	30.89
318.922	80.04
319.136	100.52
319.349	84.14
319.563	-30.55
319.776	-12.12
319.99	34.99
320.203	34.99
320.417	-26.45
320.63	102.57
320.843	77.99
321.057	84.14
321.27	86.19
321.483	61.61
321.697	59.56
321.91	-12.12
322.124	16.55
322.337	98.47
322.55	18.6
322.763	49.32
322.977	51.37
323.19	61.61
323.403	-18.26
323.617	30.89
323.83	39.08
324.043	10.41
324.256	28.84
324.469	22.7
324.683	55.47
324.896	114.86
325.109	4.27
325.322	-18.26
325.535	12.46
325.748	10.41
325.962	43.18
326.175	53.42
326.388	55.47
326.601	37.03
326.814	69.8
327.027	18.6
327.24	49.32
327.453	-51.03
327.666	67.75
327.879	22.7
328.092	82.09
328.305	-3.93
328.518	55.47
328.731	-22.36
328.944	34.99
329.157	-32.6
329.37	-3.93
329.583	47.27
329.796	69.8
330.009	24.75
330.222	65.71
330.435	65.71
330.648	57.51
330.861	45.23
331.073	-1.88
331.286	65.71
331.499	-10.07
331.712	16.55
331.925	28.84
332.138	71.85
332.35	98.47
332.563	-16.21
332.776	53.42
332.989	-12.12
333.202	71.85
333.414	20.65
333.627	51.37
333.84	8.36
334.053	-22.36
334.265	57.51
334.478	45.23
334.691	32.94
334.903	121
335.116	34.99
335.329	84.14
335.541	43.18
335.754	49.32
335.966	-22.36
336.179	6.31
336.392	28.84
336.604	59.56
336.817	53.42
337.029	28.84
337.242	63.66
337.454	98.47
337.667	-24.4
337.88	47.27
338.092	6.31
338.305	51.37
338.517	94.38
338.729	-5.97
338.942	10.41
339.154	26.79
339.367	24.75
339.579	43.18
339.792	4.27
340.004	75.95
340.217	37.03
340.429	-12.12
340.641	24.75
340.854	12.46
341.066	16.55
341.278	75.95
341.491	18.6
341.703	55.47
341.915	34.99
342.128	86.19
342.34	61.61
342.552	12.46
342.764	37.03
342.977	12.46
343.189	88.23
343.401	32.94
343.613	10.41
343.826	65.71
344.038	-28.5
344.25	22.7
344.462	45.23
344.674	41.13
344.886	55.47
345.099	39.08
345.311	14.51
345.523	69.8
345.735	55.47
345.947	14.51
346.159	26.79
346.371	53.42
346.583	100.52
346.795	55.47
347.007	49.32
347.219	43.18
347.431	16.55
347.643	47.27
347.855	110.76
348.067	28.84
348.279	-20.31
348.491	4.27
348.703	65.71
348.915	73.9
349.127	77.99
349.339	69.8
349.551	14.51
349.763	77.99
349.975	77.99
350.187	55.47
350.399	106.67
350.61	6.31
350.822	28.84
351.034	55.47
351.246	10.41
351.458	71.85
351.669	16.55
351.881	67.75
352.093	0.17
352.305	121
352.517	65.71
352.728	121
352.94	65.71
353.152	71.85
353.363	-1.88
353.575	118.95
353.787	4.27
353.999	94.38
354.21	32.94
354.422	26.79
354.633	-10.07
354.845	34.99
355.057	49.32
355.268	67.75
355.48	90.28
355.692	26.79
355.903	10.41
356.115	75.95
356.326	14.51
356.538	59.56
356.749	49.32
356.961	53.42
357.172	32.94
357.384	37.03
357.595	90.28
357.807	84.14
358.018	16.55
358.23	32.94
358.441	118.95
358.653	73.9
358.864	6.31
359.075	28.84
359.287	10.41
359.498	77.99
359.709	88.23
359.921	32.94
360.132	41.13
360.344	69.8
360.555	51.37
360.766	94.38
360.977	30.89
361.189	106.67
361.4	12.46
361.611	57.51
361.823	73.9
362.034	49.32
362.245	102.57
362.456	32.94
362.667	30.89
362.879	49.32
363.09	88.23
363.301	49.32
363.512	77.99
363.723	45.23
363.935	53.42
364.146	77.99
364.357	37.03
364.568	71.85
364.779	16.55
364.99	-61.27
365.201	106.67
365.412	24.75
365.623	-36.69
365.834	86.19
366.045	94.38
366.256	94.38
366.467	94.38
366.678	32.94
366.889	4.27
367.1	39.08
367.311	37.03
367.522	-36.69
367.733	26.79
367.944	77.99
368.155	63.66
368.366	73.9
368.577	12.46
368.788	61.61
368.999	96.43
369.209	100.52
369.42	75.95
369.631	67.75
369.842	20.65
370.053	6.31
370.264	92.33
370.474	57.51
370.685	104.62
370.896	-16.21
371.107	118.95
371.317	63.66
371.528	61.61
371.739	28.84
371.95	77.99
372.16	47.27
372.371	-44.88
372.582	32.94
372.792	86.19
373.003	88.23
373.214	39.08
373.424	45.23
373.635	6.31
373.846	73.9
374.056	86.19
374.267	57.51
374.477	16.55
374.688	-28.5
374.898	30.89
375.109	-5.97
375.319	77.99
375.53	30.89
375.74	63.66
375.951	88.23
376.161	45.23
376.372	127.14
376.582	34.99
376.793	55.47
377.003	80.04
377.214	67.75
377.424	43.18
377.635	53.42
377.845	73.9
378.055	133.29
378.266	84.14
378.476	41.13
378.686	143.53
378.897	16.55
379.107	28.84
379.317	75.95
379.528	71.85
379.738	108.71
379.948	67.75
380.158	6.31
380.369	37.03
380.579	106.67
380.789	-22.36
380.999	-48.98
381.21	16.55
381.42	106.67
381.63	47.27
381.84	18.6
382.05	55.47
382.261	67.75
382.471	18.6
382.681	47.27
382.891	96.43
383.101	108.71
383.311	63.66
383.521	69.8
383.731	4.27
383.941	73.9
384.151	8.36
384.361	-1.88
384.571	110.76
384.781	80.04
384.991	98.47
385.201	30.89
385.411	108.71
385.621	28.84
385.831	49.32
386.041	67.75
386.251	65.71
386.461	30.89
386.671	59.56
386.881	57.51
387.091	69.8
387.301	37.03
387.511	61.61
387.72	178.34
387.93	53.42
388.14	77.99
388.35	24.75
388.56	96.43
388.769	125.1
388.979	57.51
389.189	-12.12
389.399	4.27
389.609	63.66
389.818	84.14
390.028	108.71
390.238	168.1
390.447	47.27
390.657	49.32
390.867	86.19
391.076	59.56
391.286	84.14
391.496	53.42
391.705	2.22
391.915	67.75
392.125	67.75
392.334	20.65
392.544	-8.02
392.753	104.62
392.963	110.76
393.172	53.42
393.382	-14.17
393.591	123.05
393.801	61.61
394.01	32.94
394.22	88.23
394.429	125.1
394.639	51.37
394.848	102.57
395.058	153.77
395.267	131.24
395.477	24.75
395.686	116.9
395.895	94.38
396.105	108.71
396.314	86.19
396.524	96.43
396.733	51.37
396.942	116.9
397.152	84.14
397.361	110.76
397.57	94.38
397.78	94.38
397.989	106.67
398.198	59.56
398.407	112.81
398.617	86.19
398.826	104.62
399.035	49.32
399.244	127.14
399.453	90.28
399.663	47.27
399.872	84.14
400.081	30.89
400.29	114.86
400.499	41.13
400.708	80.04
400.917	80.04
401.127	86.19
401.336	118.95
401.545	108.71
401.754	139.43
401.963	200.87
402.172	114.86
402.381	110.76
402.59	159.91
402.799	121
403.008	92.33
403.217	114.86
403.426	86.19
403.635	61.61
403.844	114.86
404.053	106.67
404.262	161.96
404.471	180.39
404.68	139.43
404.888	147.62
405.097	135.34
405.306	90.28
405.515	170.15
405.724	121
405.933	147.62
406.142	141.48
406.35	161.96
406.559	250.02
406.768	168.1
406.977	137.38
407.185	215.21
407.394	178.34
407.603	211.11
407.812	141.48
408.02	254.12
408.229	168.1
408.438	172.2
408.646	217.26
408.855	221.35
409.064	243.88
409.272	243.88
409.481	301.22
409.69	200.87
409.898	293.03
410.107	290.98
410.315	274.6
410.524	282.79
410.733	354.47
410.941	295.08
411.15	403.62
411.358	377
411.567	370.85
411.775	336.04
411.984	340.13
412.192	424.1
412.401	329.89
412.609	446.63
412.818	424.1
413.026	444.58
413.234	471.2
413.443	438.44
413.651	436.39
413.86	501.92
414.068	567.46
414.276	565.41
414.485	475.3
414.693	585.89
414.901	682.14
415.11	686.24
415.318	628.9
415.526	684.19
415.734	712.86
415.943	780.45
416.151	766.11
416.359	751.78
416.567	692.38
416.776	745.63
416.984	815.26
417.192	893.09
417.4	913.56
417.608	839.84
417.817	831.65
418.025	893.09
418.233	987.29
418.441	1003.68
418.649	1063.07
418.857	1079.45
419.065	1073.31
419.273	1040.54
419.481	1134.75
419.689	1153.18
419.897	1259.67
420.105	1327.25
420.313	1413.27
420.521	1380.5
420.729	1382.55
420.937	1429.65
421.145	1396.89
421.353	1710.22
421.561	1798.29
421.769	1683.6
421.977	1777.81
422.185	1659.03
422.393	1765.52
422.601	2015.37
422.809	1962.12
423.017	1994.89
423.224	1929.36
423.432	2244.74
423.64	2091.15
423.848	2281.61
424.056	2359.43
424.263	2392.2
424.471	2359.43
424.679	2658.43
424.887	2693.25
425.094	2633.86
425.302	2797.7
425.51	2793.6
425.718	3008.64
425.925	2992.25
426.133	3012.73
426.341	3213.43
426.548	3373.18
426.756	3352.7
426.964	3414.13
427.171	3563.64
427.379	3682.42
427.586	3766.39
427.794	4010.09
428.001	4059.24
428.209	4251.75
428.417	4153.45
428.624	4499.56
428.832	4415.59
429.039	4419.69
429.247	4378.73
429.454	4964.45
429.662	5120.09
429.869	5001.31
430.076	5328.99
430.284	5148.76
430.491	5154.91
430.699	5521.49
430.906	5568.6
431.114	5720.15
431.321	5881.94
431.528	6051.92
431.736	6371.4
431.943	6709.32
432.15	6342.73
432.358	6576.2
432.565	6758.47
432.772	6844.48
432.979	7221.31
433.187	7276.6
433.394	7340.09
433.601	7829.56
433.808	8034.35
434.016	7700.53
434.223	8296.49
434.43	8634.41
434.637	8546.34
434.844	9066.53
435.052	9222.17
435.259	9107.49
435.466	9295.9
435.673	9142.3
435.88	9601.05
436.087	10127.38
436.294	10119.18
436.501	10180.62
436.708	10197.01
436.915	10749.96
437.122	10885.12
437.329	10991.62
437.537	11266.05
437.743	11571.19
437.95	11640.83
438.157	12050.42
438.364	12593.13
438.571	12517.36
438.778	12447.72
438.985	13701.08
439.192	13162.47
439.399	13555.68
439.606	13168.61
439.813	13963.22
440.02	14684.11
440.227	14630.86
440.433	14385.1
440.64	14852.04
440.847	15114.18
441.054	15214.53
441.261	16140.21
441.467	15996.85
441.674	16345.01
441.881	17022.89
442.088	16789.42
442.294	16721.84
442.501	17223.59
442.708	17739.68
442.914	18368.4
443.121	19212.17
443.328	18460.56
443.534	19593.09
443.741	19027.85
443.948	19089.29
444.154	20572.02
444.361	20176.76
444.568	20244.34
444.774	20453.23
444.981	20592.5
445.187	21286.76
445.394	22091.61
445.6	21673.82
445.807	24090.43
446.013	22935.37
446.22	23304.01
446.426	24131.39
446.633	24430.39
446.839	25175.85
447.046	24106.81
447.252	25579.3
447.459	25513.77
447.665	25591.59
447.871	26965.78
448.078	27866.88
448.284	26533.65
448.491	27215.63
448.697	28270.33
448.903	28903.15
449.11	28649.21
449.316	28262.14
449.522	29038.32
449.728	29478.63
449.935	29390.57
450.141	29683.43
450.347	30119.65
450.553	29476.58
450.76	30078.69
450.966	30834.39
451.172	30220
451.378	31471.31
451.584	30803.67
451.791	31354.57
451.997	30893.78
452.203	31604.42
452.409	31608.52
452.615	31790.79
452.821	30627.54
453.027	30443.23
453.233	31637.19
453.44	30813.91
453.646	30607.06
453.852	30799.57
454.058	31168.21
454.264	30562.01
454.47	31180.49
454.676	30095.07
454.882	31381.2
455.088	28788.47
455.294	29169.39
455.5	29703.91
455.705	29761.25
455.911	28555
456.117	27762.44
456.323	27549.45
456.529	26513.17
456.735	27531.01
456.941	26742.55
457.147	26318.62
457.352	25288.49
457.558	24960.81
457.764	25622.31
457.97	24751.92
458.176	24123.19
458.381	24485.69
458.587	23177.03
458.793	22945.61
458.999	21874.52
459.204	23242.57
459.41	22900.56
459.616	21421.92
459.821	21428.07
460.027	21231.46
460.233	20836.2
460.438	19621.76
460.644	19826.56
460.85	19050.38
461.055	18519.95
461.261	18925.45
461.466	17305.51
461.672	16924.58
461.878	17962.9
462.083	16910.25
462.289	16517.04
462.494	16392.11
462.7	15609.79
462.905	15286.21
463.111	15744.95
463.316	15923.13
463.522	15392.7
463.727	15400.9
463.932	15654.84
464.138	15155.14
464.343	15235.01
464.549	14925.77
464.754	15450.05
464.959	14958.53
465.165	14995.4
465.37	14389.2
465.575	14122.96
465.781	14698.44
465.986	14618.57
466.191	13959.13
466.397	14067.67
466.602	13271.01
466.807	13670.36
467.012	13567.96
467.218	13522.91
467.423	13404.13
467.628	13553.63
467.833	14381.01
