Data from USB4F104151__69__11-45-25-648.txt Node

Date: Fri Mar 14 11:45:25 EDT 2025
User: louis
Spectrometer: USB4F10415
Trigger mode: 4
Integration Time (sec): 2.000000E-2
Scans to average: 1
Electric dark correction enabled: true
Nonlinearity correction enabled: false
Boxcar width: 0
XAxis mode: Wavelengths
Number of Pixels in Spectrum: 3648
>>>>>Begin Spectral Data<<<<<
178.204	-151.89
178.424	-151.89
178.644	-151.89
178.864	-65.88
179.084	-125.27
179.304	26.28
179.524	-0.34
179.744	-16.73
179.964	7.85
180.184	32.43
180.404	44.71
180.624	-14.68
180.844	-4.44
181.064	-45.4
181.283	30.38
181.503	-76.12
181.723	16.04
181.943	16.04
182.163	52.91
182.383	30.38
182.602	57
182.822	97.96
183.042	16.04
183.262	36.52
183.482	-18.77
183.701	-10.58
183.921	52.91
184.141	-59.73
184.361	-67.92
184.58	-29.01
184.8	-33.11
185.02	-14.68
185.239	157.35
185.459	-26.96
185.679	52.91
185.898	-12.63
186.118	54.95
186.338	11.95
186.557	63.15
186.777	-8.53
186.997	-29.01
187.216	44.71
187.436	26.28
187.655	5.8
187.875	-37.2
188.095	5.8
188.314	28.33
188.534	-4.44
188.753	75.43
188.973	16.04
189.192	102.06
189.412	36.52
189.631	95.91
189.851	24.23
190.07	-26.96
190.29	-80.21
190.509	77.48
190.729	22.19
190.948	93.87
191.168	108.2
191.387	36.52
191.607	16.04
191.826	3.75
192.045	-6.49
192.265	36.52
192.484	22.19
192.704	44.71
192.923	32.43
193.142	71.34
193.362	18.09
193.581	44.71
193.8	77.48
194.02	42.67
194.239	13.99
194.458	38.57
194.678	52.91
194.897	30.38
195.116	69.29
195.335	114.34
195.555	93.87
195.774	42.67
195.993	65.19
196.212	-47.44
196.432	3.75
196.651	32.43
196.87	-61.78
197.089	57
197.308	-33.11
197.528	28.33
197.747	7.85
197.966	22.19
198.185	73.39
198.404	46.76
198.623	-39.25
198.842	16.04
199.062	32.43
199.281	42.67
199.5	69.29
199.719	13.99
199.938	11.95
200.157	7.85
200.376	-8.53
200.595	-8.53
200.814	3.75
201.033	-41.3
201.252	52.91
201.471	28.33
201.69	54.95
201.909	26.28
202.128	-4.44
202.347	-0.34
202.566	-14.68
202.785	1.71
203.004	61.1
203.223	40.62
203.442	7.85
203.661	-24.92
203.879	5.8
204.098	28.33
204.317	9.9
204.536	5.8
204.755	13.99
204.974	16.04
205.193	22.19
205.411	81.58
205.63	36.52
205.849	36.52
206.068	18.09
206.287	59.05
206.505	-10.58
206.724	9.9
206.943	-31.06
207.162	-14.68
207.381	40.62
207.599	67.24
207.818	-2.39
208.037	7.85
208.255	-37.2
208.474	50.86
208.693	-8.53
208.911	40.62
209.13	16.04
209.349	67.24
209.567	-2.39
209.786	81.58
210.005	46.76
210.223	38.57
210.442	18.09
210.661	22.19
210.879	22.19
211.098	46.76
211.316	18.09
211.535	-18.77
211.753	32.43
211.972	3.75
212.191	61.1
212.409	5.8
212.628	73.39
212.846	-16.73
213.065	18.09
213.283	95.91
213.502	79.53
213.72	28.33
213.938	-10.58
214.157	59.05
214.375	7.85
214.594	52.91
214.812	16.04
215.031	13.99
215.249	24.23
215.467	-24.92
215.686	44.71
215.904	57
216.122	54.95
216.341	-39.25
216.559	44.71
216.778	1.71
216.996	120.49
217.214	36.52
217.432	-33.11
217.651	16.04
217.869	-24.92
218.087	-12.63
218.306	1.71
218.524	48.81
218.742	5.8
218.96	-10.58
219.179	18.09
219.397	26.28
219.615	-0.34
219.833	93.87
220.051	61.1
220.27	52.91
220.488	36.52
220.706	69.29
220.924	26.28
221.142	116.39
221.36	32.43
221.578	36.52
221.796	22.19
222.015	-22.87
222.233	-20.82
222.451	-31.06
222.669	50.86
222.887	-6.49
223.105	-6.49
223.323	-4.44
223.541	-86.36
223.759	-22.87
223.977	5.8
224.195	16.04
224.413	24.23
224.631	-16.73
224.849	61.1
225.067	75.43
225.285	50.86
225.503	28.33
225.721	-4.44
225.939	34.47
226.157	3.75
226.375	110.25
226.592	28.33
226.81	-51.54
227.028	-4.44
227.246	81.58
227.464	-12.63
227.682	42.67
227.9	-10.58
228.117	50.86
228.335	38.57
228.553	9.9
228.771	11.95
228.989	65.19
229.206	-18.77
229.424	44.71
229.642	1.71
229.86	-4.44
230.077	22.19
230.295	-22.87
230.513	81.58
230.731	24.23
230.948	102.06
231.166	110.25
231.384	67.24
231.601	50.86
231.819	48.81
232.037	24.23
232.254	-8.53
232.472	20.14
232.689	48.81
232.907	122.54
233.125	-20.82
233.342	3.75
233.56	20.14
233.777	34.47
233.995	13.99
234.213	48.81
234.43	-6.49
234.648	32.43
234.865	-10.58
235.083	44.71
235.3	46.76
235.518	28.33
235.735	83.63
235.953	34.47
236.17	-8.53
236.388	50.86
236.605	9.9
236.822	87.72
237.04	-59.73
237.257	38.57
237.475	34.47
237.692	11.95
237.909	-10.58
238.127	59.05
238.344	48.81
238.562	16.04
238.779	34.47
238.996	16.04
239.214	48.81
239.431	36.52
239.648	42.67
239.865	69.29
240.083	34.47
240.3	-2.39
240.517	7.85
240.735	-8.53
240.952	-88.4
241.169	34.47
241.386	13.99
241.603	32.43
241.821	18.09
242.038	81.58
242.255	20.14
242.472	36.52
242.689	18.09
242.907	38.57
243.124	16.04
243.341	52.91
243.558	59.05
243.775	-49.49
243.992	32.43
244.209	28.33
244.426	7.85
244.643	38.57
244.86	16.04
245.078	11.95
245.295	50.86
245.512	57
245.729	63.15
245.946	-2.39
246.163	26.28
246.38	-31.06
246.597	30.38
246.814	85.67
247.031	22.19
247.248	3.75
247.464	77.48
247.681	30.38
247.898	-6.49
248.115	48.81
248.332	63.15
248.549	89.77
248.766	52.91
248.983	65.19
249.2	34.47
249.417	54.95
249.633	32.43
249.85	40.62
250.067	59.05
250.284	44.71
250.501	24.23
250.717	63.15
250.934	-24.92
251.151	-4.44
251.368	44.71
251.585	36.52
251.801	22.19
252.018	1.71
252.235	-0.34
252.451	-18.77
252.668	-37.2
252.885	32.43
253.102	-55.64
253.318	65.19
253.535	20.14
253.752	69.29
253.968	110.25
254.185	-10.58
254.401	-0.34
254.618	67.24
254.835	1.71
255.051	112.3
255.268	3.75
255.484	83.63
255.701	42.67
255.917	30.38
256.134	13.99
256.351	112.3
256.567	-51.54
256.784	1.71
257	-18.77
257.217	93.87
257.433	22.19
257.65	32.43
257.866	28.33
258.082	-4.44
258.299	40.62
258.515	77.48
258.732	28.33
258.948	16.04
259.165	3.75
259.381	-6.49
259.597	13.99
259.814	52.91
260.03	9.9
260.246	95.91
260.463	120.49
260.679	40.62
260.895	-10.58
261.112	9.9
261.328	-61.78
261.544	24.23
261.761	1.71
261.977	13.99
262.193	22.19
262.409	13.99
262.626	54.95
262.842	30.38
263.058	-45.4
263.274	38.57
263.49	-0.34
263.707	-29.01
263.923	-6.49
264.139	-20.82
264.355	36.52
264.571	9.9
264.787	40.62
265.004	54.95
265.22	-16.73
265.436	-8.53
265.652	-26.96
265.868	22.19
266.084	-12.63
266.3	16.04
266.516	-26.96
266.732	85.67
266.948	13.99
267.164	18.09
267.38	67.24
267.596	44.71
267.812	40.62
268.028	5.8
268.244	-2.39
268.46	52.91
268.676	44.71
268.892	89.77
269.108	34.47
269.324	57
269.54	-18.77
269.756	87.72
269.972	22.19
270.188	-6.49
270.403	89.77
270.619	77.48
270.835	40.62
271.051	28.33
271.267	-74.07
271.483	42.67
271.698	81.58
271.914	42.67
272.13	32.43
272.346	1.71
272.562	11.95
272.777	75.43
272.993	-45.4
273.209	65.19
273.425	81.58
273.64	32.43
273.856	26.28
274.072	9.9
274.287	-4.44
274.503	73.39
274.719	24.23
274.934	32.43
275.15	-8.53
275.366	46.76
275.581	-63.83
275.797	-24.92
276.012	-10.58
276.228	42.67
276.444	61.1
276.659	42.67
276.875	3.75
277.09	81.58
277.306	-16.73
277.521	32.43
277.737	67.24
277.952	-6.49
278.168	-29.01
278.383	30.38
278.599	-55.64
278.814	9.9
279.03	-29.01
279.245	83.63
279.461	24.23
279.676	11.95
279.892	-10.58
280.107	100.01
280.322	61.1
280.538	-4.44
280.753	-22.87
280.969	20.14
281.184	59.05
281.399	97.96
281.615	48.81
281.83	57
282.045	16.04
282.26	-0.34
282.476	65.19
282.691	11.95
282.906	91.82
283.122	-20.82
283.337	-26.96
283.552	97.96
283.767	-8.53
283.983	40.62
284.198	16.04
284.413	57
284.628	32.43
284.843	30.38
285.058	93.87
285.274	18.09
285.489	-22.87
285.704	7.85
285.919	-8.53
286.134	71.34
286.349	7.85
286.564	30.38
286.779	9.9
286.995	-8.53
287.21	-69.97
287.425	67.24
287.64	18.09
287.855	54.95
288.07	20.14
288.285	52.91
288.5	48.81
288.715	7.85
288.93	32.43
289.145	-6.49
289.36	93.87
289.575	30.38
289.79	32.43
290.004	71.34
290.219	122.54
290.434	7.85
290.649	16.04
290.864	-10.58
291.079	5.8
291.294	-0.34
291.509	-14.68
291.724	59.05
291.938	-20.82
292.153	91.82
292.368	20.14
292.583	38.57
292.798	40.62
293.012	-6.49
293.227	-16.73
293.442	-4.44
293.657	-20.82
293.871	-0.34
294.086	16.04
294.301	3.75
294.516	71.34
294.73	24.23
294.945	-53.59
295.16	54.95
295.374	65.19
295.589	79.53
295.804	36.52
296.018	38.57
296.233	36.52
296.447	61.1
296.662	-2.39
296.877	24.23
297.091	34.47
297.306	81.58
297.52	24.23
297.735	85.67
297.949	-0.34
298.164	42.67
298.378	32.43
298.593	67.24
298.807	28.33
299.022	-37.2
299.236	32.43
299.451	36.52
299.665	-6.49
299.88	22.19
300.094	-10.58
300.309	28.33
300.523	20.14
300.737	48.81
300.952	18.09
301.166	57
301.381	-45.4
301.595	-2.39
301.809	59.05
302.024	-18.77
302.238	100.01
302.452	9.9
302.667	7.85
302.881	-18.77
303.095	61.1
303.309	32.43
303.524	24.23
303.738	7.85
303.952	26.28
304.166	75.43
304.381	9.9
304.595	52.91
304.809	-0.34
305.023	-6.49
305.237	5.8
305.452	-2.39
305.666	67.24
305.88	34.47
306.094	28.33
306.308	50.86
306.522	34.47
306.736	30.38
306.95	44.71
307.164	57
307.379	40.62
307.593	1.71
307.807	40.62
308.021	52.91
308.235	79.53
308.449	-12.63
308.663	22.19
308.877	54.95
309.091	5.8
309.305	65.19
309.519	67.24
309.733	57
309.947	32.43
310.161	38.57
310.374	42.67
310.588	30.38
310.802	54.95
311.016	44.71
311.23	24.23
311.444	44.71
311.658	30.38
311.872	54.95
312.085	34.47
312.299	-10.58
312.513	91.82
312.727	18.09
312.941	-39.25
313.154	-8.53
313.368	93.87
313.582	57
313.796	-35.16
314.009	67.24
314.223	128.68
314.437	-2.39
314.651	32.43
314.864	-0.34
315.078	-22.87
315.292	34.47
315.505	57
315.719	16.04
315.933	59.05
316.146	-33.11
316.36	57
316.573	61.1
316.787	69.29
317.001	67.24
317.214	75.43
317.428	11.95
317.641	50.86
317.855	3.75
318.068	18.09
318.282	52.91
318.495	40.62
318.709	77.48
318.922	48.81
319.136	106.15
319.349	87.72
319.563	-4.44
319.776	-4.44
319.99	42.67
320.203	75.43
320.417	89.77
320.63	-12.63
320.843	54.95
321.057	85.67
321.27	87.72
321.483	48.81
321.697	52.91
321.91	52.91
322.124	52.91
322.337	73.39
322.55	100.01
322.763	44.71
322.977	-14.68
323.19	-37.2
323.403	75.43
323.617	54.95
323.83	126.63
324.043	-61.78
324.256	38.57
324.469	24.23
324.683	57
324.896	5.8
325.109	81.58
325.322	59.05
325.535	69.29
325.748	40.62
325.962	7.85
326.175	-45.4
326.388	77.48
326.601	63.15
326.814	-24.92
327.027	7.85
327.24	34.47
327.453	46.76
327.666	-0.34
327.879	69.29
328.092	40.62
328.305	134.82
328.518	50.86
328.731	5.8
328.944	-4.44
329.157	22.19
329.37	50.86
329.583	75.43
329.796	71.34
330.009	48.81
330.222	108.2
330.435	44.71
330.648	52.91
330.861	57
331.073	-29.01
331.286	-6.49
331.499	57
331.712	52.91
331.925	9.9
332.138	-14.68
332.35	128.68
332.563	1.71
332.776	18.09
332.989	5.8
333.202	-12.63
333.414	46.76
333.627	73.39
333.84	104.11
334.053	44.71
334.265	5.8
334.478	69.29
334.691	9.9
334.903	20.14
335.116	-8.53
335.329	44.71
335.541	79.53
335.754	79.53
335.966	-35.16
336.179	91.82
336.392	46.76
336.604	57
336.817	79.53
337.029	32.43
337.242	61.1
337.454	20.14
337.667	-37.2
337.88	28.33
338.092	46.76
338.305	112.3
338.517	36.52
338.729	79.53
338.942	65.19
339.154	57
339.367	57
339.579	22.19
339.792	-8.53
340.004	63.15
340.217	-26.96
340.429	3.75
340.641	30.38
340.854	69.29
341.066	16.04
341.278	77.48
341.491	-8.53
341.703	71.34
341.915	-33.11
342.128	97.96
342.34	57
342.552	36.52
342.764	11.95
342.977	93.87
343.189	67.24
343.401	63.15
343.613	-53.59
343.826	-0.34
344.038	71.34
344.25	28.33
344.462	-2.39
344.674	44.71
344.886	77.48
345.099	-0.34
345.311	40.62
345.523	71.34
345.735	26.28
345.947	34.47
346.159	32.43
346.371	116.39
346.583	-59.73
346.795	95.91
347.007	52.91
347.219	32.43
347.431	3.75
347.643	124.58
347.855	-18.77
348.067	34.47
348.279	24.23
348.491	57
348.703	-14.68
348.915	40.62
349.127	1.71
349.339	52.91
349.551	20.14
349.763	63.15
349.975	40.62
350.187	48.81
350.399	89.77
350.61	85.67
350.822	16.04
351.034	63.15
351.246	100.01
351.458	69.29
351.669	-18.77
351.881	120.49
352.093	32.43
352.305	-2.39
352.517	11.95
352.728	20.14
352.94	46.76
353.152	46.76
353.363	81.58
353.575	77.48
353.787	93.87
353.999	83.63
354.21	136.87
354.422	102.06
354.633	22.19
354.845	32.43
355.057	-12.63
355.268	61.1
355.48	1.71
355.692	-8.53
355.903	24.23
356.115	81.58
356.326	73.39
356.538	71.34
356.749	34.47
356.961	-6.49
357.172	-8.53
357.384	97.96
357.595	79.53
357.807	34.47
358.018	59.05
358.23	52.91
358.441	71.34
358.653	69.29
358.864	54.95
359.075	67.24
359.287	32.43
359.498	93.87
359.709	38.57
359.921	97.96
360.132	44.71
360.344	-2.39
360.555	40.62
360.766	91.82
360.977	65.19
361.189	18.09
361.4	-16.73
361.611	54.95
361.823	3.75
362.034	145.06
362.245	24.23
362.456	50.86
362.667	106.15
362.879	61.1
363.09	57
363.301	40.62
363.512	-8.53
363.723	54.95
363.935	36.52
364.146	69.29
364.357	44.71
364.568	63.15
364.779	20.14
364.99	136.87
365.201	7.85
365.412	108.2
365.623	5.8
365.834	77.48
366.045	50.86
366.256	52.91
366.467	95.91
366.678	20.14
366.889	112.3
367.1	48.81
367.311	30.38
367.522	50.86
367.733	75.43
367.944	69.29
368.155	11.95
368.366	95.91
368.577	22.19
368.788	67.24
368.999	-20.82
369.209	71.34
369.42	100.01
369.631	104.11
369.842	-0.34
370.053	3.75
370.264	46.76
370.474	71.34
370.685	79.53
370.896	-0.34
371.107	136.87
371.317	108.2
371.528	-24.92
371.739	54.95
371.95	102.06
372.16	77.48
372.371	44.71
372.582	93.87
372.792	77.48
373.003	116.39
373.214	61.1
373.424	44.71
373.635	52.91
373.846	18.09
374.056	22.19
374.267	61.1
374.477	-31.06
374.688	93.87
374.898	77.48
375.109	38.57
375.319	97.96
375.53	61.1
375.74	36.52
375.951	61.1
376.161	136.87
376.372	28.33
376.582	22.19
376.793	97.96
377.003	-26.96
377.214	3.75
377.424	83.63
377.635	13.99
377.845	50.86
378.055	50.86
378.266	13.99
378.476	44.71
378.686	-29.01
378.897	44.71
379.107	18.09
379.317	102.06
379.528	50.86
379.738	73.39
379.948	-0.34
380.158	83.63
380.369	48.81
380.579	40.62
380.789	48.81
380.999	81.58
381.21	52.91
381.42	136.87
381.63	32.43
381.84	48.81
382.05	116.39
382.261	50.86
382.471	112.3
382.681	52.91
382.891	63.15
383.101	77.48
383.311	-8.53
383.521	36.52
383.731	-10.58
383.941	20.14
384.151	63.15
384.361	116.39
384.571	3.75
384.781	22.19
384.991	89.77
385.201	91.82
385.411	1.71
385.621	46.76
385.831	79.53
386.041	134.82
386.251	-39.25
386.461	120.49
386.671	67.24
386.881	97.96
387.091	-12.63
387.301	83.63
387.511	153.26
387.72	48.81
387.93	77.48
388.14	108.2
388.35	48.81
388.56	61.1
388.769	24.23
388.979	108.2
389.189	108.2
389.399	83.63
389.609	48.81
389.818	93.87
390.028	61.1
390.238	120.49
390.447	65.19
390.657	34.47
390.867	100.01
391.076	93.87
391.286	50.86
391.496	85.67
391.705	93.87
391.915	157.35
392.125	36.52
392.334	32.43
392.544	114.34
392.753	52.91
392.963	52.91
393.172	52.91
393.382	46.76
393.591	126.63
393.801	61.1
394.01	147.11
394.22	100.01
394.429	54.95
394.639	114.34
394.848	32.43
395.058	44.71
395.267	132.78
395.477	102.06
395.686	63.15
395.895	65.19
396.105	93.87
396.314	85.67
396.524	140.97
396.733	85.67
396.942	181.93
397.152	73.39
397.361	104.11
397.57	118.44
397.78	71.34
397.989	114.34
398.198	149.16
398.407	57
398.617	57
398.826	104.11
399.035	57
399.244	87.72
399.453	143.02
399.663	108.2
399.872	69.29
400.081	102.06
400.29	171.69
400.499	134.82
400.708	106.15
400.917	38.57
401.127	130.73
401.336	75.43
401.545	183.98
401.754	52.91
401.963	102.06
402.172	122.54
402.381	202.41
402.59	124.58
402.799	179.88
403.008	159.4
403.217	171.69
403.426	161.45
403.635	69.29
403.844	118.44
404.053	173.74
404.262	126.63
404.471	128.68
404.68	171.69
404.888	204.46
405.097	110.25
405.306	151.21
405.515	241.32
405.724	183.98
405.933	192.17
406.142	194.22
406.35	247.46
406.559	231.08
406.768	173.74
406.977	212.65
407.185	171.69
407.394	175.78
407.603	237.22
407.812	245.41
408.02	233.13
408.229	265.89
408.438	233.13
408.646	302.76
408.855	296.61
409.064	345.77
409.272	313
409.481	315.05
409.69	378.53
409.898	349.86
410.107	376.48
410.315	341.67
410.524	380.58
410.733	396.96
410.941	349.86
411.15	368.29
411.358	435.88
411.567	491.17
411.775	493.22
411.984	466.6
412.192	556.71
412.401	566.95
412.609	560.8
412.818	612
413.026	538.27
413.234	550.56
413.443	542.37
413.651	685.73
413.86	652.96
414.068	671.39
414.276	687.78
414.485	736.93
414.693	720.54
414.901	798.37
415.11	847.52
415.318	822.94
415.526	769.69
415.734	718.5
415.943	888.48
416.151	921.24
416.359	958.11
416.567	1072.79
416.776	951.96
416.984	1111.71
417.192	1162.9
417.4	1224.34
417.608	1236.63
417.817	1222.3
418.025	1253.02
418.233	1326.74
418.441	1304.21
418.649	1379.99
418.857	1566.35
419.065	1549.97
419.273	1515.16
419.481	1631.89
419.689	1676.95
419.897	1740.43
420.105	1816.21
420.313	1840.78
420.521	1869.45
420.729	1881.74
420.937	1953.42
421.145	2078.35
421.353	2203.27
421.561	2229.9
421.769	2295.43
421.977	2399.88
422.185	2365.06
422.393	2489.99
422.601	2584.2
422.809	2629.25
423.017	2741.89
423.224	2778.75
423.432	2809.47
423.64	2956.93
423.848	3108.48
424.056	3190.39
424.263	3350.14
424.471	3419.77
424.679	3458.68
424.887	3593.84
425.094	3624.56
425.302	3571.32
425.51	3841.65
425.718	3898.99
425.925	4093.55
426.133	4251.24
426.341	4378.22
426.548	4550.25
426.756	4636.26
426.964	4693.6
427.171	4855.39
427.379	4992.61
427.586	5244.51
427.794	5269.08
428.001	5430.87
428.209	5762.64
428.417	5574.23
428.624	6080.08
428.832	6112.85
429.039	6184.52
429.247	6133.33
429.454	6616.65
429.662	6909.51
429.869	6540.87
430.076	7247.42
430.284	6815.3
430.491	7239.23
430.699	7476.79
430.906	7695.93
431.114	7671.35
431.321	7996.98
431.528	8113.71
431.736	8476.2
431.943	8969.76
432.15	8799.78
432.358	8807.97
432.565	9344.54
432.772	9405.98
432.979	9991.7
433.187	10069.52
433.394	10098.19
433.601	10853.89
433.808	10794.5
434.016	10812.93
434.223	11109.89
434.43	11945.46
434.637	11582.97
434.844	12332.53
435.052	12609
435.259	12445.16
435.466	12686.83
435.673	12385.77
435.88	13262.3
436.087	14097.88
436.294	14138.83
436.501	13745.62
436.708	14159.31
436.915	14261.71
437.122	14927.3
437.329	15304.13
437.537	15685.05
437.743	15947.19
437.95	15683
438.157	16514.48
438.364	17028.52
438.571	17206.69
438.778	17135.01
438.985	18779.53
439.192	18038.17
439.399	18673.04
439.606	18437.52
439.813	19379.59
440.02	20352.37
440.227	20157.82
440.433	19797.37
440.64	20561.26
440.847	20354.42
441.054	20686.19
441.261	22000.99
441.467	22037.85
441.674	22478.16
441.881	23135.56
442.088	23164.23
442.294	23004.49
442.501	23532.87
442.708	24065.34
442.914	25021.74
443.121	26096.92
443.328	25437.48
443.534	27053.33
443.741	26404.12
443.948	26035.49
444.154	28056.83
444.361	27809.03
444.568	28036.35
444.774	27733.25
444.981	28366.07
445.187	28894.45
445.394	30291.16
445.6	30016.74
445.807	32887.99
446.013	31405.26
446.22	31900.87
446.426	33383.6
446.633	33557.67
446.839	34788.5
447.046	33344.69
447.252	34878.61
447.459	34843.8
447.665	34778.26
447.871	36512.89
448.078	37708.91
448.284	36107.4
448.491	37096.56
448.697	38589.53
448.903	39380.05
449.11	39328.85
449.316	38726.75
449.522	39187.54
449.728	40627.26
449.935	41192.5
450.141	40934.46
450.347	41253.94
450.553	40551.49
450.76	41358.39
450.966	42312.74
451.172	41600.05
451.378	42521.63
451.584	41808.94
451.791	42945.56
451.997	42902.56
452.203	43602.96
452.409	43592.72
452.615	43490.32
452.821	41552.94
453.027	41413.68
453.233	43672.59
453.44	42021.93
453.646	42761.25
453.852	42738.72
454.058	43330.58
454.264	41481.27
454.47	42527.78
454.676	41940.01
454.882	43074.59
455.088	39343.19
455.294	39781.45
455.5	40485.95
455.705	40899.64
455.911	39621.71
456.117	38646.88
456.323	37760.11
456.529	36084.87
456.735	37434.48
456.941	36863.1
457.147	35970.18
457.352	35028.12
457.558	34655.39
457.764	34858.13
457.97	34120.87
458.176	33426.6
458.381	33328.3
458.587	31655.11
458.793	31749.32
458.999	29965.54
459.204	32550.07
459.41	31542.47
459.616	29211.88
459.821	29187.31
460.027	29428.97
460.233	28714.23
460.438	27411.72
460.644	27438.34
460.85	26408.22
461.055	26187.04
461.261	25877.79
461.466	24046.91
461.672	23168.33
461.878	24829.23
462.083	23278.92
462.289	22840.65
462.494	22560.08
462.7	21658.98
462.905	21081.45
463.111	21669.22
463.316	21695.84
463.522	21357.92
463.727	21386.6
463.932	21200.23
464.138	21144.94
464.343	21210.47
464.549	20335.99
464.754	21052.78
464.959	21126.5
465.165	20837.74
465.37	19987.83
465.575	19408.26
465.781	20149.62
465.986	20245.88
466.191	19770.75
466.397	18933.13
466.602	18324.88
466.807	19008.9
467.012	19088.78
467.218	19064.2
467.423	18744.72
467.628	18730.38
467.833	19600.77
468.038	18957.71
