Data from USB4F104151__65__11-45-24-528.txt Node

Date: Fri Mar 14 11:45:24 EDT 2025
User: louis
Spectrometer: USB4F10415
Trigger mode: 4
Integration Time (sec): 2.000000E-2
Scans to average: 1
Electric dark correction enabled: true
Nonlinearity correction enabled: false
Boxcar width: 0
XAxis mode: Wavelengths
Number of Pixels in Spectrum: 3648
>>>>>Begin Spectral Data<<<<<
178.204	-78.16
178.424	-78.16
178.644	-78.16
178.864	26.28
179.084	-14.68
179.304	-45.4
179.524	13.99
179.744	-35.16
179.964	28.33
180.184	-45.4
180.404	42.67
180.624	-2.39
180.844	-37.2
181.064	-12.63
181.283	54.95
181.503	30.38
181.723	7.85
181.943	-6.49
182.163	16.04
182.383	-0.34
182.602	71.34
182.822	34.47
183.042	46.76
183.262	-29.01
183.482	-20.82
183.701	40.62
183.921	95.91
184.141	36.52
184.361	24.23
184.58	28.33
184.8	44.71
185.02	-4.44
185.239	40.62
185.459	28.33
185.679	52.91
185.898	-14.68
186.118	67.24
186.338	50.86
186.557	44.71
186.777	52.91
186.997	93.87
187.216	-55.64
187.436	77.48
187.655	36.52
187.875	77.48
188.095	-10.58
188.314	26.28
188.534	34.47
188.753	63.15
188.973	-26.96
189.192	-39.25
189.412	24.23
189.631	9.9
189.851	59.05
190.07	28.33
190.29	-4.44
190.509	20.14
190.729	36.52
190.948	59.05
191.168	97.96
191.387	63.15
191.607	26.28
191.826	116.39
192.045	-45.4
192.265	18.09
192.484	9.9
192.704	-2.39
192.923	22.19
193.142	83.63
193.362	5.8
193.581	57
193.8	22.19
194.02	-6.49
194.239	32.43
194.458	16.04
194.678	26.28
194.897	32.43
195.116	-2.39
195.335	30.38
195.555	46.76
195.774	-16.73
195.993	52.91
196.212	30.38
196.432	18.09
196.651	102.06
196.87	1.71
197.089	7.85
197.308	93.87
197.528	81.58
197.747	-41.3
197.966	54.95
198.185	16.04
198.404	3.75
198.623	-16.73
198.842	5.8
199.062	77.48
199.281	65.19
199.5	42.67
199.719	-4.44
199.938	42.67
200.157	69.29
200.376	75.43
200.595	42.67
200.814	59.05
201.033	30.38
201.252	63.15
201.471	-51.54
201.69	93.87
201.909	16.04
202.128	-16.73
202.347	26.28
202.566	-41.3
202.785	-4.44
203.004	-0.34
203.223	54.95
203.442	61.1
203.661	-0.34
203.879	40.62
204.098	63.15
204.317	22.19
204.536	67.24
204.755	57
204.974	102.06
205.193	75.43
205.411	42.67
205.63	28.33
205.849	57
206.068	36.52
206.287	1.71
206.505	-22.87
206.724	32.43
206.943	-26.96
207.162	5.8
207.381	44.71
207.599	28.33
207.818	38.57
208.037	44.71
208.255	77.48
208.474	28.33
208.693	24.23
208.911	42.67
209.13	-22.87
209.349	16.04
209.567	50.86
209.786	54.95
210.005	65.19
210.223	28.33
210.442	32.43
210.661	50.86
210.879	18.09
211.098	63.15
211.316	48.81
211.535	83.63
211.753	7.85
211.972	69.29
212.191	57
212.409	36.52
212.628	38.57
212.846	44.71
213.065	26.28
213.283	95.91
213.502	-24.92
213.72	22.19
213.938	-39.25
214.157	28.33
214.375	81.58
214.594	3.75
214.812	36.52
215.031	57
215.249	-24.92
215.467	11.95
215.686	69.29
215.904	52.91
216.122	24.23
216.341	106.15
216.559	54.95
216.778	93.87
216.996	63.15
217.214	13.99
217.432	44.71
217.651	5.8
217.869	38.57
218.087	57
218.306	11.95
218.524	30.38
218.742	1.71
218.96	11.95
219.179	36.52
219.397	3.75
219.615	-22.87
219.833	77.48
220.051	93.87
220.27	46.76
220.488	65.19
220.706	28.33
220.924	67.24
221.142	24.23
221.36	91.82
221.578	-6.49
221.796	-0.34
222.015	-29.01
222.233	18.09
222.451	85.67
222.669	-2.39
222.887	71.34
223.105	11.95
223.323	-8.53
223.541	34.47
223.759	-0.34
223.977	-14.68
224.195	38.57
224.413	22.19
224.631	22.19
224.849	52.91
225.067	79.53
225.285	16.04
225.503	-20.82
225.721	11.95
225.939	13.99
226.157	11.95
226.375	169.64
226.592	22.19
226.81	69.29
227.028	40.62
227.246	79.53
227.464	28.33
227.682	-37.2
227.9	18.09
228.117	89.77
228.335	32.43
228.553	16.04
228.771	1.71
228.989	104.11
229.206	81.58
229.424	30.38
229.642	40.62
229.86	48.81
230.077	18.09
230.295	61.1
230.513	-33.11
230.731	59.05
230.948	-14.68
231.166	13.99
231.384	-4.44
231.601	32.43
231.819	143.02
232.037	67.24
232.254	-49.49
232.472	28.33
232.689	77.48
232.907	36.52
233.125	18.09
233.342	42.67
233.56	16.04
233.777	50.86
233.995	87.72
234.213	69.29
234.43	-57.68
234.648	85.67
234.865	69.29
235.083	130.73
235.3	93.87
235.518	50.86
235.735	93.87
235.953	34.47
236.17	52.91
236.388	-67.92
236.605	48.81
236.822	38.57
237.04	40.62
237.257	50.86
237.475	-33.11
237.692	40.62
237.909	32.43
238.127	28.33
238.344	87.72
238.562	30.38
238.779	18.09
238.996	-2.39
239.214	32.43
239.431	118.44
239.648	11.95
239.865	52.91
240.083	67.24
240.3	-6.49
240.517	-4.44
240.735	97.96
240.952	57
241.169	69.29
241.386	-67.92
241.603	42.67
241.821	-29.01
242.038	59.05
242.255	59.05
242.472	61.1
242.689	50.86
242.907	32.43
243.124	16.04
243.341	-41.3
243.558	67.24
243.775	-18.77
243.992	26.28
244.209	97.96
244.426	81.58
244.643	77.48
244.86	1.71
245.078	81.58
245.295	126.63
245.512	30.38
245.729	44.71
245.946	61.1
246.163	48.81
246.38	-6.49
246.597	73.39
246.814	79.53
247.031	-49.49
247.248	40.62
247.464	34.47
247.681	3.75
247.898	57
248.115	24.23
248.332	75.43
248.549	100.01
248.766	44.71
248.983	71.34
249.2	18.09
249.417	132.78
249.633	69.29
249.85	40.62
250.067	77.48
250.284	91.82
250.501	1.71
250.717	89.77
250.934	9.9
251.151	85.67
251.368	-29.01
251.585	36.52
251.801	3.75
252.018	79.53
252.235	9.9
252.451	-8.53
252.668	-80.21
252.885	11.95
253.102	22.19
253.318	-18.77
253.535	1.71
253.752	9.9
253.968	5.8
254.185	50.86
254.401	65.19
254.618	3.75
254.835	40.62
255.051	104.11
255.268	24.23
255.484	44.71
255.701	-10.58
255.917	-12.63
256.134	18.09
256.351	52.91
256.567	26.28
256.784	11.95
257	-16.73
257.217	59.05
257.433	9.9
257.65	50.86
257.866	85.67
258.082	3.75
258.299	59.05
258.515	71.34
258.732	126.63
258.948	61.1
259.165	20.14
259.381	54.95
259.597	52.91
259.814	100.01
260.03	22.19
260.246	7.85
260.463	91.82
260.679	38.57
260.895	30.38
261.112	3.75
261.328	20.14
261.544	54.95
261.761	59.05
261.977	79.53
262.193	63.15
262.409	-6.49
262.626	61.1
262.842	179.88
263.058	44.71
263.274	79.53
263.49	59.05
263.707	-26.96
263.923	50.86
264.139	-8.53
264.355	93.87
264.571	34.47
264.787	11.95
265.004	-14.68
265.22	36.52
265.436	16.04
265.652	77.48
265.868	75.43
266.084	11.95
266.3	9.9
266.516	11.95
266.732	73.39
266.948	-0.34
267.164	-26.96
267.38	52.91
267.596	40.62
267.812	59.05
268.028	67.24
268.244	7.85
268.46	52.91
268.676	36.52
268.892	32.43
269.108	44.71
269.324	40.62
269.54	-6.49
269.756	40.62
269.972	18.09
270.188	5.8
270.403	38.57
270.619	52.91
270.835	128.68
271.051	20.14
271.267	32.43
271.483	83.63
271.698	48.81
271.914	-47.44
272.13	-8.53
272.346	59.05
272.562	7.85
272.777	1.71
272.993	67.24
273.209	40.62
273.425	52.91
273.64	30.38
273.856	28.33
274.072	42.67
274.287	20.14
274.503	48.81
274.719	34.47
274.934	44.71
275.15	38.57
275.366	34.47
275.581	18.09
275.797	7.85
276.012	48.81
276.228	30.38
276.444	32.43
276.659	102.06
276.875	73.39
277.09	106.15
277.306	-16.73
277.521	138.92
277.737	42.67
277.952	79.53
278.168	59.05
278.383	22.19
278.599	61.1
278.814	5.8
279.03	65.19
279.245	114.34
279.461	83.63
279.676	75.43
279.892	36.52
280.107	108.2
280.322	87.72
280.538	36.52
280.753	11.95
280.969	87.72
281.184	44.71
281.399	16.04
281.615	61.1
281.83	18.09
282.045	110.25
282.26	13.99
282.476	38.57
282.691	42.67
282.906	91.82
283.122	102.06
283.337	91.82
283.552	118.44
283.767	65.19
283.983	20.14
284.198	-14.68
284.413	1.71
284.628	59.05
284.843	3.75
285.058	52.91
285.274	32.43
285.489	22.19
285.704	108.2
285.919	16.04
286.134	38.57
286.349	61.1
286.564	18.09
286.779	106.15
286.995	75.43
287.21	77.48
287.425	38.57
287.64	61.1
287.855	65.19
288.07	-4.44
288.285	73.39
288.5	75.43
288.715	36.52
288.93	65.19
289.145	42.67
289.36	-0.34
289.575	7.85
289.79	30.38
290.004	79.53
290.219	46.76
290.434	59.05
290.649	-8.53
290.864	81.58
291.079	-0.34
291.294	1.71
291.509	5.8
291.724	61.1
291.938	34.47
292.153	65.19
292.368	57
292.583	11.95
292.798	5.8
293.012	91.82
293.227	32.43
293.442	36.52
293.657	42.67
293.871	73.39
294.086	38.57
294.301	63.15
294.516	11.95
294.73	38.57
294.945	32.43
295.16	-67.92
295.374	44.71
295.589	67.24
295.804	38.57
296.018	73.39
296.233	40.62
296.447	26.28
296.662	-10.58
296.877	50.86
297.091	32.43
297.306	87.72
297.52	3.75
297.735	46.76
297.949	65.19
298.164	65.19
298.378	-4.44
298.593	24.23
298.807	-41.3
299.022	20.14
299.236	57
299.451	32.43
299.665	46.76
299.88	50.86
300.094	40.62
300.309	71.34
300.523	52.91
300.737	61.1
300.952	83.63
301.166	-16.73
301.381	116.39
301.595	79.53
301.809	61.1
302.024	102.06
302.238	-4.44
302.452	65.19
302.667	5.8
302.881	61.1
303.095	95.91
303.309	20.14
303.524	-33.11
303.738	85.67
303.952	24.23
304.166	52.91
304.381	59.05
304.595	122.54
304.809	13.99
305.023	63.15
305.237	89.77
305.452	57
305.666	89.77
305.88	100.01
306.094	52.91
306.308	22.19
306.522	81.58
306.736	18.09
306.95	32.43
307.164	73.39
307.379	87.72
307.593	110.25
307.807	16.04
308.021	79.53
308.235	57
308.449	44.71
308.663	20.14
308.877	93.87
309.091	22.19
309.305	85.67
309.519	5.8
309.733	24.23
309.947	18.09
310.161	106.15
310.374	20.14
310.588	106.15
310.802	32.43
311.016	13.99
311.23	-4.44
311.444	48.81
311.658	5.8
311.872	54.95
312.085	28.33
312.299	65.19
312.513	28.33
312.727	69.29
312.941	-6.49
313.154	28.33
313.368	30.38
313.582	57
313.796	28.33
314.009	7.85
314.223	42.67
314.437	122.54
314.651	63.15
314.864	36.52
315.078	59.05
315.292	50.86
315.505	11.95
315.719	100.01
315.933	-35.16
316.146	32.43
316.36	89.77
316.573	77.48
316.787	22.19
317.001	-8.53
317.214	-18.77
317.428	120.49
317.641	22.19
317.855	38.57
318.068	65.19
318.282	28.33
318.495	75.43
318.709	110.25
318.922	106.15
319.136	77.48
319.349	3.75
319.563	-6.49
319.776	20.14
319.99	26.28
320.203	36.52
320.417	16.04
320.63	89.77
320.843	83.63
321.057	44.71
321.27	97.96
321.483	52.91
321.697	54.95
321.91	-16.73
322.124	97.96
322.337	77.48
322.55	5.8
322.763	112.3
322.977	22.19
323.19	79.53
323.403	100.01
323.617	48.81
323.83	89.77
324.043	46.76
324.256	93.87
324.469	24.23
324.683	-0.34
324.896	83.63
325.109	52.91
325.322	28.33
325.535	26.28
325.748	102.06
325.962	59.05
326.175	61.1
326.388	3.75
326.601	-10.58
326.814	81.58
327.027	69.29
327.24	89.77
327.453	-22.87
327.666	1.71
327.879	42.67
328.092	59.05
328.305	-6.49
328.518	126.63
328.731	38.57
328.944	-20.82
329.157	28.33
329.37	-33.11
329.583	59.05
329.796	61.1
330.009	-6.49
330.222	108.2
330.435	28.33
330.648	77.48
330.861	44.71
331.073	18.09
331.286	28.33
331.499	50.86
331.712	-4.44
331.925	26.28
332.138	-20.82
332.35	40.62
332.563	28.33
332.776	-4.44
332.989	26.28
333.202	83.63
333.414	-18.77
333.627	87.72
333.84	-0.34
334.053	18.09
334.265	44.71
334.478	40.62
334.691	18.09
334.903	26.28
335.116	11.95
335.329	42.67
335.541	100.01
335.754	59.05
335.966	5.8
336.179	13.99
336.392	-47.44
336.604	61.1
336.817	118.44
337.029	30.38
337.242	102.06
337.454	-6.49
337.667	-4.44
337.88	28.33
338.092	124.58
338.305	3.75
338.517	30.38
338.729	57
338.942	67.24
339.154	57
339.367	16.04
339.579	102.06
339.792	-20.82
340.004	52.91
340.217	65.19
340.429	5.8
340.641	30.38
340.854	36.52
341.066	16.04
341.278	67.24
341.491	54.95
341.703	75.43
341.915	73.39
342.128	69.29
342.34	81.58
342.552	54.95
342.764	83.63
342.977	54.95
343.189	61.1
343.401	104.11
343.613	-49.49
343.826	67.24
344.038	91.82
344.25	-6.49
344.462	-31.06
344.674	126.63
344.886	22.19
345.099	116.39
345.311	79.53
345.523	30.38
345.735	-18.77
345.947	114.34
346.159	44.71
346.371	-10.58
346.583	52.91
346.795	77.48
347.007	11.95
347.219	93.87
347.431	71.34
347.643	85.67
347.855	-6.49
348.067	46.76
348.279	89.77
348.491	69.29
348.703	81.58
348.915	24.23
349.127	44.71
349.339	26.28
349.551	63.15
349.763	81.58
349.975	91.82
350.187	63.15
350.399	73.39
350.61	38.57
350.822	75.43
351.034	79.53
351.246	48.81
351.458	87.72
351.669	22.19
351.881	54.95
352.093	16.04
352.305	122.54
352.517	116.39
352.728	11.95
352.94	52.91
353.152	38.57
353.363	7.85
353.575	85.67
353.787	106.15
353.999	5.8
354.21	97.96
354.422	75.43
354.633	59.05
354.845	-8.53
355.057	28.33
355.268	54.95
355.48	42.67
355.692	30.38
355.903	100.01
356.115	-6.49
356.326	63.15
356.538	71.34
356.749	36.52
356.961	102.06
357.172	16.04
357.384	-12.63
357.595	104.11
357.807	16.04
358.018	106.15
358.23	32.43
358.441	128.68
358.653	48.81
358.864	42.67
359.075	9.9
359.287	69.29
359.498	69.29
359.709	32.43
359.921	30.38
360.132	63.15
360.344	13.99
360.555	71.34
360.766	11.95
360.977	40.62
361.189	69.29
361.4	1.71
361.611	57
361.823	97.96
362.034	69.29
362.245	1.71
362.456	52.91
362.667	110.25
362.879	140.97
363.09	28.33
363.301	3.75
363.512	16.04
363.723	38.57
363.935	69.29
364.146	30.38
364.357	32.43
364.568	16.04
364.779	75.43
364.99	34.47
365.201	128.68
365.412	40.62
365.623	26.28
365.834	59.05
366.045	50.86
366.256	46.76
366.467	42.67
366.678	59.05
366.889	50.86
367.1	79.53
367.311	7.85
367.522	145.06
367.733	54.95
367.944	18.09
368.155	102.06
368.366	65.19
368.577	18.09
368.788	73.39
368.999	102.06
369.209	34.47
369.42	132.78
369.631	116.39
369.842	67.24
370.053	97.96
370.264	97.96
370.474	30.38
370.685	69.29
370.896	20.14
371.107	63.15
371.317	69.29
371.528	40.62
371.739	122.54
371.95	126.63
372.16	40.62
372.371	-18.77
372.582	34.47
372.792	83.63
373.003	97.96
373.214	-10.58
373.424	67.24
373.635	91.82
373.846	97.96
374.056	18.09
374.267	75.43
374.477	57
374.688	106.15
374.898	63.15
375.109	46.76
375.319	57
375.53	97.96
375.74	9.9
375.951	79.53
376.161	120.49
376.372	32.43
376.582	40.62
376.793	50.86
377.003	32.43
377.214	89.77
377.424	7.85
377.635	-0.34
377.845	46.76
378.055	34.47
378.266	63.15
378.476	106.15
378.686	46.76
378.897	63.15
379.107	102.06
379.317	69.29
379.528	61.1
379.738	65.19
379.948	16.04
380.158	87.72
380.369	75.43
380.579	69.29
380.789	28.33
380.999	81.58
381.21	100.01
381.42	190.12
381.63	5.8
381.84	128.68
382.05	97.96
382.261	24.23
382.471	9.9
382.681	59.05
382.891	100.01
383.101	22.19
383.311	3.75
383.521	40.62
383.731	114.34
383.941	85.67
384.151	57
384.361	118.44
384.571	110.25
384.781	128.68
384.991	65.19
385.201	75.43
385.411	34.47
385.621	59.05
385.831	42.67
386.041	59.05
386.251	38.57
386.461	11.95
386.671	-20.82
386.881	93.87
387.091	57
387.301	34.47
387.511	136.87
387.72	120.49
387.93	52.91
388.14	63.15
388.35	54.95
388.56	59.05
388.769	136.87
388.979	138.92
389.189	61.1
389.399	38.57
389.609	114.34
389.818	163.5
390.028	104.11
390.238	34.47
390.447	106.15
390.657	24.23
390.867	83.63
391.076	75.43
391.286	110.25
391.496	106.15
391.705	124.58
391.915	140.97
392.125	50.86
392.334	110.25
392.544	151.21
392.753	34.47
392.963	42.67
393.172	69.29
393.382	61.1
393.591	136.87
393.801	69.29
394.01	214.7
394.22	69.29
394.429	120.49
394.639	140.97
394.848	106.15
395.058	71.34
395.267	108.2
395.477	110.25
395.686	128.68
395.895	114.34
396.105	204.46
396.314	73.39
396.524	149.16
396.733	75.43
396.942	140.97
397.152	192.17
397.361	132.78
397.57	147.11
397.78	102.06
397.989	130.73
398.198	147.11
398.407	97.96
398.617	163.5
398.826	87.72
399.035	61.1
399.244	130.73
399.453	120.49
399.663	149.16
399.872	169.64
400.081	128.68
400.29	171.69
400.499	85.67
400.708	233.13
400.917	100.01
401.127	106.15
401.336	161.45
401.545	167.59
401.754	169.64
401.963	102.06
402.172	194.22
402.381	171.69
402.59	114.34
402.799	179.88
403.008	169.64
403.217	181.93
403.426	126.63
403.635	151.21
403.844	143.02
404.053	118.44
404.262	126.63
404.471	155.3
404.68	218.79
404.888	149.16
405.097	140.97
405.306	130.73
405.515	239.27
405.724	294.57
405.933	231.08
406.142	202.41
406.35	226.98
406.559	269.99
406.768	255.65
406.977	229.03
407.185	210.6
407.394	257.7
407.603	298.66
407.812	276.13
408.02	239.27
408.229	282.28
408.438	257.7
408.646	282.28
408.855	282.28
409.064	368.29
409.272	382.63
409.481	294.57
409.69	317.09
409.898	388.77
410.107	370.34
410.315	384.68
410.524	431.78
410.733	458.4
410.941	388.77
411.15	431.78
411.358	548.51
411.567	433.83
411.775	382.63
411.984	558.75
412.192	491.17
412.401	491.17
412.609	558.75
412.818	575.14
413.026	589.47
413.234	640.67
413.443	587.43
413.651	646.82
413.86	589.47
414.068	722.59
414.276	704.16
414.485	822.94
414.693	757.41
414.901	806.56
415.11	822.94
415.318	886.43
415.526	822.94
415.734	980.64
415.943	917.15
416.151	931.48
416.359	997.02
416.567	1062.55
416.776	1101.47
416.984	1203.86
417.192	1216.15
417.4	1119.9
417.608	1179.29
417.817	1132.19
418.025	1285.78
418.233	1314.45
418.441	1257.11
418.649	1420.95
418.857	1486.48
419.065	1527.44
419.273	1431.19
419.481	1619.6
419.689	1613.46
419.897	1625.75
420.105	1834.64
420.313	1812.11
420.521	1887.89
420.729	1951.37
420.937	2059.92
421.145	2121.35
421.353	2166.41
421.561	2227.85
421.769	2358.92
421.977	2481.8
422.185	2436.74
422.393	2569.86
422.601	2668.16
422.809	2719.36
423.017	2584.2
423.224	2739.84
423.432	3001.98
423.64	2965.12
423.848	3253.88
424.056	3090.04
424.263	3415.67
424.471	3378.81
424.679	3411.57
424.887	3812.98
425.094	3702.39
425.302	3649.14
425.51	3860.08
425.718	4126.32
425.925	3946.09
426.133	4154.99
426.341	4363.88
426.548	4636.26
426.756	4662.88
426.964	4773.47
427.171	5004.89
427.379	5097.05
427.586	5242.46
427.794	5293.66
428.001	5652.05
428.209	5854.8
428.417	5703.25
428.624	6143.56
428.832	6239.82
429.039	6063.69
429.247	6045.26
429.454	6854.21
429.662	7114.3
429.869	6610.5
430.076	7081.53
430.284	7063.1
430.491	7339.58
430.699	7505.46
430.906	7773.75
431.114	7730.74
431.321	7919.15
431.528	8267.31
431.736	8748.58
431.943	9121.31
432.15	8779.3
432.358	9014.82
432.565	9412.12
432.772	9379.36
432.979	10044.95
433.187	9987.6
433.394	10034.71
433.601	10810.89
433.808	10790.41
434.016	10892.8
434.223	11288.06
434.43	11787.77
434.637	11775.48
434.844	12242.42
435.052	12766.7
435.259	12602.86
435.466	12545.52
435.673	12459.5
435.88	13301.22
436.087	13972.95
436.294	14099.92
436.501	13856.22
436.708	14003.67
436.915	14411.21
437.122	15041.99
437.329	15267.27
437.537	15596.99
437.743	15674.81
437.95	15803.83
438.157	16635.31
438.364	16866.73
438.571	17223.08
438.778	17331.62
438.985	18785.68
439.192	18251.16
439.399	18779.53
439.606	18173.33
439.813	19283.33
440.02	20127.1
440.227	19948.92
440.433	19957.11
440.64	20471.15
440.847	20327.8
441.054	20866.41
441.261	22209.88
441.467	22017.37
441.674	22539.6
441.881	23371.08
442.088	23051.59
442.294	22883.66
442.501	23612.74
442.708	23962.94
442.914	24943.92
443.121	26201.37
443.328	25308.46
443.534	27249.93
443.741	26256.67
443.948	26225.95
444.154	28128.51
444.361	27940.1
444.568	27878.66
444.774	28228.86
444.981	28095.74
445.187	29062.38
445.394	30444.76
445.6	30180.57
445.807	32654.52
446.013	31395.02
446.22	32103.62
446.426	33246.38
446.633	33440.94
446.839	34399.39
447.046	33393.84
447.252	35017.88
447.459	34866.33
447.665	35122.32
447.871	36488.32
448.078	37680.24
448.284	36326.53
448.491	37266.55
448.697	38679.64
448.903	39414.87
449.11	39380.05
449.316	38452.32
449.522	39097.43
449.728	40899.64
449.935	40756.28
450.141	41145.4
450.347	41557.04
450.553	40264.77
450.76	41030.71
450.966	42282.02
451.172	42023.98
451.378	43142.17
451.584	41886.76
451.791	42845.21
451.997	42978.33
452.203	43392.02
452.409	43863.05
452.615	43693.07
452.821	41690.16
453.027	40977.47
453.233	43363.35
453.44	42167.34
453.646	42474.53
453.852	42703.9
454.058	42906.65
454.264	41882.67
454.47	42783.77
454.676	41940.01
454.882	43342.87
455.088	39576.65
455.294	40047.69
455.5	40639.55
455.705	41237.56
455.911	39470.16
456.117	39099.48
456.323	37940.33
456.529	36041.86
456.735	37901.42
456.941	36818.04
457.147	36041.86
457.352	35013.78
457.558	34720.92
457.764	34839.7
457.97	34374.81
458.176	33436.84
458.381	33219.76
458.587	32060.61
458.793	31872.2
458.999	30391.51
459.204	32443.58
459.41	31259.85
459.616	29490.41
459.821	29310.19
460.027	29469.93
460.233	28613.88
460.438	27327.75
460.644	27294.99
460.85	26281.24
461.055	25920.8
461.261	26029.34
461.466	23897.41
461.672	23092.55
461.878	25355.56
462.083	23211.34
462.289	23002.44
462.494	22412.63
462.7	21665.12
462.905	21110.12
463.111	21669.22
463.316	21859.68
463.522	21411.17
463.727	21439.84
463.932	21521.76
464.138	20962.67
464.343	21214.57
464.549	20612.46
464.754	21220.71
464.959	21009.77
465.165	21005.67
465.37	20051.32
465.575	19703.17
465.781	20516.21
465.986	20469.11
466.191	19664.25
466.397	19283.33
466.602	18294.16
466.807	19035.53
467.012	18900.36
467.218	19017.1
467.423	18527.63
467.628	18943.37
