Data from USB4F104151__86__11-45-40-866.txt Node

Date: Fri Mar 14 11:45:40 EDT 2025
User: louis
Spectrometer: USB4F10415
Trigger mode: 4
Integration Time (sec): 2.000000E-2
Scans to average: 1
Electric dark correction enabled: true
Nonlinearity correction enabled: false
Boxcar width: 0
XAxis mode: Wavelengths
Number of Pixels in Spectrum: 3648
>>>>>Begin Spectral Data<<<<<
178.204	-158.89
178.424	-158.89
178.644	-158.89
178.864	-109.74
179.084	-68.78
179.304	-60.59
179.524	-5.29
179.744	-11.43
179.964	-31.91
180.184	33.62
180.404	-13.48
180.624	-40.11
180.844	58.2
181.064	-54.44
181.283	70.48
181.503	54.1
181.723	0.85
181.943	-58.54
182.163	78.68
182.383	9.05
182.602	0.85
182.822	-17.58
183.042	17.24
183.262	15.19
183.482	35.67
183.701	-46.25
183.921	105.3
184.141	-38.06
184.361	70.48
184.58	-27.82
184.8	4.95
185.02	-36.01
185.239	70.48
185.459	-64.68
185.679	31.57
185.898	-72.87
186.118	93.01
186.338	-48.3
186.557	7
186.777	-19.63
186.997	88.92
187.216	-40.11
187.436	23.38
187.655	9.05
187.875	68.44
188.095	37.72
188.314	113.49
188.534	56.15
188.753	37.72
188.973	-15.53
189.192	58.2
189.412	-25.77
189.631	54.1
189.851	0.85
190.07	31.57
190.29	13.14
190.509	25.43
190.729	-50.35
190.948	29.52
191.168	64.34
191.387	25.43
191.607	13.14
191.826	15.19
192.045	25.43
192.265	-74.92
192.484	-44.2
192.704	13.14
192.923	-27.82
193.142	9.05
193.362	-17.58
193.581	35.67
193.8	-7.34
194.02	31.57
194.239	-23.72
194.458	56.15
194.678	33.62
194.897	-1.19
195.116	-1.19
195.335	60.24
195.555	148.31
195.774	27.48
195.993	-60.59
196.212	60.24
196.432	-27.82
196.651	29.52
196.87	45.91
197.089	84.82
197.308	74.58
197.528	74.58
197.747	-56.49
197.966	-11.43
198.185	9.05
198.404	-9.39
198.623	117.59
198.842	52.05
199.062	101.2
199.281	-15.53
199.5	74.58
199.719	31.57
199.938	-11.43
200.157	70.48
200.376	47.96
200.595	45.91
200.814	-3.24
201.033	7
201.252	58.2
201.471	41.81
201.69	13.14
201.909	4.95
202.128	9.05
202.347	-42.15
202.566	-27.82
202.785	29.52
203.004	-44.2
203.223	23.38
203.442	2.9
203.661	17.24
203.879	-15.53
204.098	23.38
204.317	13.14
204.536	78.68
204.755	31.57
204.974	82.77
205.193	37.72
205.411	140.12
205.63	64.34
205.849	31.57
206.068	27.48
206.287	41.81
206.505	99.16
206.724	-29.87
206.943	-29.87
207.162	-9.39
207.381	23.38
207.599	-40.11
207.818	23.38
208.037	-48.3
208.255	47.96
208.474	31.57
208.693	31.57
208.911	13.14
209.13	-3.24
209.349	66.39
209.567	50
209.786	27.48
210.005	13.14
210.223	0.85
210.442	50
210.661	33.62
210.879	-7.34
211.098	2.9
211.316	-27.82
211.535	2.9
211.753	2.9
211.972	-21.67
212.191	-23.72
212.409	41.81
212.628	29.52
212.846	-19.63
213.065	66.39
213.283	-40.11
213.502	45.91
213.72	-56.49
213.938	-5.29
214.157	25.43
214.375	9.05
214.594	-64.68
214.812	47.96
215.031	17.24
215.249	-1.19
215.467	23.38
215.686	-25.77
215.904	84.82
216.122	31.57
216.341	-27.82
216.559	2.9
216.778	23.38
216.996	72.53
217.214	62.29
217.432	0.85
217.651	13.14
217.869	2.9
218.087	-23.72
218.306	54.1
218.524	21.33
218.742	21.33
218.96	-19.63
219.179	-23.72
219.397	-17.58
219.615	60.24
219.833	58.2
220.051	86.87
220.27	-23.72
220.488	80.72
220.706	39.76
220.924	60.24
221.142	7
221.36	-1.19
221.578	7
221.796	-3.24
222.015	13.14
222.233	0.85
222.451	31.57
222.669	-70.83
222.887	13.14
223.105	4.95
223.323	-7.34
223.541	-11.43
223.759	45.91
223.977	23.38
224.195	60.24
224.413	-3.24
224.631	21.33
224.849	39.76
225.067	23.38
225.285	-17.58
225.503	62.29
225.721	-19.63
225.939	-15.53
226.157	-29.87
226.375	93.01
226.592	43.86
226.81	-50.35
227.028	80.72
227.246	31.57
227.464	-7.34
227.682	47.96
227.9	29.52
228.117	-42.15
228.335	-15.53
228.553	19.29
228.771	-44.2
228.989	33.62
229.206	-21.67
229.424	0.85
229.642	-3.24
229.86	-25.77
230.077	-36.01
230.295	-21.67
230.513	84.82
230.731	29.52
230.948	21.33
231.166	144.21
231.384	-81.07
231.601	33.62
231.819	-9.39
232.037	31.57
232.254	13.14
232.472	58.2
232.689	-5.29
232.907	76.63
233.125	-42.15
233.342	-23.72
233.56	-60.59
233.777	-1.19
233.995	-36.01
234.213	88.92
234.43	-5.29
234.648	25.43
234.865	33.62
235.083	47.96
235.3	7
235.518	11.09
235.735	-46.25
235.953	-19.63
236.17	27.48
236.388	-17.58
236.605	35.67
236.822	13.14
237.04	-9.39
237.257	-9.39
237.475	13.14
237.692	-23.72
237.909	78.68
238.127	-23.72
238.344	27.48
238.562	2.9
238.779	-5.29
238.996	-60.59
239.214	66.39
239.431	4.95
239.648	-40.11
239.865	-9.39
240.083	68.44
240.3	33.62
240.517	27.48
240.735	37.72
240.952	-19.63
241.169	9.05
241.386	35.67
241.603	-3.24
241.821	25.43
242.038	37.72
242.255	11.09
242.472	11.09
242.689	54.1
242.907	64.34
243.124	62.29
243.341	47.96
243.558	15.19
243.775	31.57
243.992	-27.82
244.209	-17.58
244.426	121.68
244.643	-27.82
244.86	56.15
245.078	-15.53
245.295	-40.11
245.512	52.05
245.729	-66.73
245.946	60.24
246.163	54.1
246.38	-17.58
246.597	-52.39
246.814	31.57
247.031	23.38
247.248	74.58
247.464	29.52
247.681	47.96
247.898	-74.92
248.115	-15.53
248.332	29.52
248.549	88.92
248.766	-17.58
248.983	101.2
249.2	17.24
249.417	21.33
249.633	41.81
249.85	39.76
250.067	-42.15
250.284	2.9
250.501	17.24
250.717	-38.06
250.934	-17.58
251.151	31.57
251.368	-1.19
251.585	21.33
251.801	-13.48
252.018	-109.74
252.235	-5.29
252.451	52.05
252.668	-5.29
252.885	50
253.102	9.05
253.318	47.96
253.535	-72.87
253.752	47.96
253.968	-15.53
254.185	-44.2
254.401	35.67
254.618	39.76
254.835	-5.29
255.051	47.96
255.268	4.95
255.484	-48.3
255.701	-13.48
255.917	31.57
256.134	9.05
256.351	2.9
256.567	-54.44
256.784	78.68
257	27.48
257.217	19.29
257.433	93.01
257.65	31.57
257.866	-23.72
258.082	-52.39
258.299	50
258.515	52.05
258.732	-23.72
258.948	-13.48
259.165	31.57
259.381	-31.91
259.597	-44.2
259.814	-23.72
260.03	-13.48
260.246	31.57
260.463	-5.29
260.679	-62.63
260.895	-3.24
261.112	43.86
261.328	-5.29
261.544	23.38
261.761	29.52
261.977	54.1
262.193	-36.01
262.409	33.62
262.626	70.48
262.842	13.14
263.058	-3.24
263.274	23.38
263.49	27.48
263.707	56.15
263.923	-48.3
264.139	-11.43
264.355	29.52
264.571	62.29
264.787	74.58
265.004	72.53
265.22	60.24
265.436	52.05
265.652	29.52
265.868	9.05
266.084	0.85
266.3	0.85
266.516	2.9
266.732	19.29
266.948	86.87
267.164	-7.34
267.38	90.96
267.596	9.05
267.812	58.2
268.028	11.09
268.244	2.9
268.46	9.05
268.676	-25.77
268.892	93.01
269.108	111.44
269.324	45.91
269.54	-17.58
269.756	-7.34
269.972	-5.29
270.188	11.09
270.403	-15.53
270.619	60.24
270.835	72.53
271.051	-31.91
271.267	-33.96
271.483	-33.96
271.698	9.05
271.914	-46.25
272.13	-11.43
272.346	-42.15
272.562	19.29
272.777	74.58
272.993	9.05
273.209	-56.49
273.425	52.05
273.64	52.05
273.856	60.24
274.072	-1.19
274.287	64.34
274.503	-13.48
274.719	43.86
274.934	-3.24
275.15	-1.19
275.366	4.95
275.581	19.29
275.797	-21.67
276.012	-21.67
276.228	45.91
276.444	93.01
276.659	21.33
276.875	-1.19
277.09	-38.06
277.306	25.43
277.521	70.48
277.737	-60.59
277.952	43.86
278.168	-9.39
278.383	56.15
278.599	7
278.814	13.14
279.03	0.85
279.245	13.14
279.461	29.52
279.676	-23.72
279.892	-7.34
280.107	-5.29
280.322	-25.77
280.538	27.48
280.753	25.43
280.969	78.68
281.184	7
281.399	33.62
281.615	41.81
281.83	29.52
282.045	-9.39
282.26	56.15
282.476	-1.19
282.691	-1.19
282.906	41.81
283.122	39.76
283.337	29.52
283.552	-33.96
283.767	23.38
283.983	54.1
284.198	7
284.413	80.72
284.628	-33.96
284.843	-36.01
285.058	17.24
285.274	33.62
285.489	15.19
285.704	39.76
285.919	27.48
286.134	52.05
286.349	29.52
286.564	43.86
286.779	13.14
286.995	47.96
287.21	-89.26
287.425	70.48
287.64	-19.63
287.855	-7.34
288.07	-21.67
288.285	142.16
288.5	62.29
288.715	43.86
288.93	11.09
289.145	25.43
289.36	-50.35
289.575	-17.58
289.79	4.95
290.004	-27.82
290.219	7
290.434	43.86
290.649	-31.91
290.864	-29.87
291.079	-9.39
291.294	80.72
291.509	29.52
291.724	9.05
291.938	35.67
292.153	62.29
292.368	2.9
292.583	-38.06
292.798	31.57
293.012	-11.43
293.227	-40.11
293.442	25.43
293.657	93.01
293.871	58.2
294.086	84.82
294.301	56.15
294.516	-40.11
294.73	4.95
294.945	-17.58
295.16	-44.2
295.374	9.05
295.589	41.81
295.804	-7.34
296.018	66.39
296.233	-1.19
296.447	62.29
296.662	-15.53
296.877	39.76
297.091	23.38
297.306	29.52
297.52	-54.44
297.735	13.14
297.949	-15.53
298.164	35.67
298.378	-7.34
298.593	-15.53
298.807	68.44
299.022	21.33
299.236	76.63
299.451	7
299.665	7
299.88	25.43
300.094	-17.58
300.309	-54.44
300.523	72.53
300.737	21.33
300.952	39.76
301.166	33.62
301.381	93.01
301.595	-3.24
301.809	-31.91
302.024	-3.24
302.238	7
302.452	-3.24
302.667	-29.87
302.881	-29.87
303.095	101.2
303.309	41.81
303.524	58.2
303.738	9.05
303.952	-23.72
304.166	23.38
304.381	54.1
304.595	21.33
304.809	-66.73
305.023	-81.07
305.237	95.06
305.452	35.67
305.666	82.77
305.88	-21.67
306.094	41.81
306.308	-19.63
306.522	-72.87
306.736	74.58
306.95	39.76
307.164	-13.48
307.379	2.9
307.593	74.58
307.807	52.05
308.021	37.72
308.235	-33.96
308.449	-38.06
308.663	15.19
308.877	95.06
309.091	82.77
309.305	21.33
309.519	-83.11
309.733	-13.48
309.947	25.43
310.161	15.19
310.374	138.07
310.588	47.96
310.802	-48.3
311.016	68.44
311.23	-33.96
311.444	50
311.658	-42.15
311.872	7
312.085	-9.39
312.299	52.05
312.513	2.9
312.727	58.2
312.941	0.85
313.154	-1.19
313.368	-48.3
313.582	33.62
313.796	-21.67
314.009	39.76
314.223	78.68
314.437	7
314.651	47.96
314.864	-5.29
315.078	-25.77
315.292	-29.87
315.505	35.67
315.719	-3.24
315.933	2.9
316.146	37.72
316.36	45.91
316.573	54.1
316.787	-17.58
317.001	52.05
317.214	4.95
317.428	39.76
317.641	9.05
317.855	62.29
318.068	-1.19
318.282	-17.58
318.495	-1.19
318.709	-23.72
318.922	80.72
319.136	56.15
319.349	90.96
319.563	-19.63
319.776	54.1
319.99	37.72
320.203	52.05
320.417	58.2
320.63	-5.29
320.843	78.68
321.057	41.81
321.27	23.38
321.483	70.48
321.697	68.44
321.91	-54.44
322.124	35.67
322.337	19.29
322.55	-29.87
322.763	35.67
322.977	35.67
323.19	31.57
323.403	19.29
323.617	76.63
323.83	35.67
324.043	21.33
324.256	-72.87
324.469	4.95
324.683	39.76
324.896	9.05
325.109	90.96
325.322	33.62
325.535	29.52
325.748	15.19
325.962	-9.39
326.175	25.43
326.388	64.34
326.601	-38.06
326.814	0.85
327.027	7
327.24	113.49
327.453	-54.44
327.666	19.29
327.879	37.72
328.092	25.43
328.305	25.43
328.518	33.62
328.731	80.72
328.944	35.67
329.157	-48.3
329.37	50
329.583	27.48
329.796	39.76
330.009	-64.68
330.222	50
330.435	64.34
330.648	-21.67
330.861	-19.63
331.073	76.63
331.286	-7.34
331.499	41.81
331.712	-36.01
331.925	23.38
332.138	52.05
332.35	-1.19
332.563	17.24
332.776	29.52
332.989	-56.49
333.202	47.96
333.414	35.67
333.627	-23.72
333.84	-50.35
334.053	29.52
334.265	-40.11
334.478	4.95
334.691	66.39
334.903	-40.11
335.116	19.29
335.329	62.29
335.541	25.43
335.754	21.33
335.966	-5.29
336.179	-33.96
336.392	-1.19
336.604	-9.39
336.817	11.09
337.029	39.76
337.242	11.09
337.454	45.91
337.667	25.43
337.88	84.82
338.092	-21.67
338.305	93.01
338.517	31.57
338.729	25.43
338.942	25.43
339.154	41.81
339.367	-11.43
339.579	13.14
339.792	2.9
340.004	54.1
340.217	41.81
340.429	45.91
340.641	9.05
340.854	-11.43
341.066	64.34
341.278	41.81
341.491	-3.24
341.703	52.05
341.915	50
342.128	84.82
342.34	19.29
342.552	-17.58
342.764	50
342.977	-3.24
343.189	25.43
343.401	13.14
343.613	52.05
343.826	-42.15
344.038	-25.77
344.25	-33.96
344.462	-38.06
344.674	0.85
344.886	43.86
345.099	19.29
345.311	90.96
345.523	4.95
345.735	-70.83
345.947	11.09
346.159	39.76
346.371	35.67
346.583	-48.3
346.795	107.35
347.007	-36.01
347.219	84.82
347.431	25.43
347.643	99.16
347.855	-50.35
348.067	-11.43
348.279	90.96
348.491	39.76
348.703	27.48
348.915	37.72
349.127	43.86
349.339	13.14
349.551	-23.72
349.763	27.48
349.975	25.43
350.187	60.24
350.399	45.91
350.61	19.29
350.822	-19.63
351.034	66.39
351.246	11.09
351.458	68.44
351.669	43.86
351.881	-50.35
352.093	76.63
352.305	50
352.517	7
352.728	39.76
352.94	68.44
353.152	62.29
353.363	-1.19
353.575	25.43
353.787	68.44
353.999	41.81
354.21	43.86
354.422	23.38
354.633	9.05
354.845	86.87
355.057	4.95
355.268	39.76
355.48	-1.19
355.692	58.2
355.903	99.16
356.115	-7.34
356.326	-15.53
356.538	29.52
356.749	-5.29
356.961	66.39
357.172	7
357.384	2.9
357.595	78.68
357.807	9.05
358.018	23.38
358.23	13.14
358.441	-5.29
358.653	19.29
358.864	-29.87
359.075	31.57
359.287	9.05
359.498	50
359.709	72.53
359.921	66.39
360.132	7
360.344	19.29
360.555	7
360.766	4.95
360.977	33.62
361.189	90.96
361.4	15.19
361.611	-15.53
361.823	2.9
362.034	74.58
362.245	27.48
362.456	27.48
362.667	-9.39
362.879	2.9
363.09	7
363.301	7
363.512	17.24
363.723	23.38
363.935	64.34
364.146	41.81
364.357	29.52
364.568	88.92
364.779	27.48
364.99	58.2
365.201	82.77
365.412	-33.96
365.623	31.57
365.834	-3.24
366.045	39.76
366.256	35.67
366.467	47.96
366.678	35.67
366.889	35.67
367.1	52.05
367.311	29.52
367.522	39.76
367.733	-3.24
367.944	50
368.155	2.9
368.366	50
368.577	25.43
368.788	-21.67
368.999	31.57
369.209	60.24
369.42	47.96
369.631	101.2
369.842	47.96
370.053	-17.58
370.264	31.57
370.474	13.14
370.685	2.9
370.896	45.91
371.107	107.35
371.317	15.19
371.528	11.09
371.739	111.44
371.95	9.05
372.16	101.2
372.371	2.9
372.582	58.2
372.792	45.91
373.003	27.48
373.214	-1.19
373.424	138.07
373.635	-25.77
373.846	93.01
374.056	7
374.267	33.62
374.477	88.92
374.688	-1.19
374.898	-1.19
375.109	35.67
375.319	-36.01
375.53	35.67
375.74	19.29
375.951	13.14
376.161	-9.39
376.372	41.81
376.582	-5.29
376.793	25.43
377.003	-19.63
377.214	21.33
377.424	0.85
377.635	-46.25
377.845	-85.16
378.055	90.96
378.266	-42.15
378.476	47.96
378.686	15.19
378.897	-9.39
379.107	-11.43
379.317	17.24
379.528	33.62
379.738	37.72
379.948	23.38
380.158	54.1
380.369	68.44
380.579	101.2
380.789	70.48
380.999	70.48
381.21	60.24
381.42	117.59
381.63	86.87
381.84	15.19
382.05	-5.29
382.261	52.05
382.471	-7.34
382.681	-52.39
382.891	68.44
383.101	41.81
383.311	13.14
383.521	97.11
383.731	11.09
383.941	62.29
384.151	37.72
384.361	62.29
384.571	82.77
384.781	7
384.991	84.82
385.201	152.4
385.411	-19.63
385.621	41.81
385.831	-70.83
386.041	74.58
386.251	37.72
386.461	56.15
386.671	-42.15
386.881	84.82
387.091	4.95
387.301	64.34
387.511	64.34
387.72	-9.39
387.93	11.09
388.14	-13.48
388.35	-46.25
388.56	45.91
388.769	7
388.979	37.72
389.189	4.95
389.399	15.19
389.609	-1.19
389.818	58.2
390.028	133.97
390.238	-50.35
390.447	11.09
390.657	93.01
390.867	21.33
391.076	47.96
391.286	15.19
391.496	41.81
391.705	35.67
391.915	41.81
392.125	68.44
392.334	19.29
392.544	43.86
392.753	-58.54
392.963	31.57
393.172	11.09
393.382	13.14
393.591	68.44
393.801	39.76
394.01	29.52
394.22	54.1
394.429	84.82
394.639	103.25
394.848	-42.15
395.058	68.44
395.267	54.1
395.477	72.53
395.686	-5.29
395.895	133.97
396.105	88.92
396.314	-15.53
396.524	74.58
396.733	-5.29
396.942	9.05
397.152	-3.24
397.361	13.14
397.57	95.06
397.78	76.63
397.989	-40.11
398.198	45.91
398.407	43.86
398.617	47.96
398.826	47.96
399.035	31.57
399.244	84.82
399.453	-23.72
399.663	60.24
399.872	60.24
400.081	113.49
400.29	47.96
400.499	7
400.708	101.2
400.917	52.05
401.127	43.86
401.336	27.48
401.545	115.54
401.754	113.49
401.963	95.06
402.172	25.43
402.381	19.29
402.59	35.67
402.799	88.92
403.008	76.63
403.217	80.72
403.426	138.07
403.635	35.67
403.844	88.92
404.053	60.24
404.262	17.24
404.471	105.3
404.68	60.24
404.888	39.76
405.097	97.11
405.306	119.64
405.515	93.01
405.724	47.96
405.933	113.49
406.142	37.72
406.35	156.5
406.559	56.15
406.768	74.58
406.977	154.45
407.185	156.5
407.394	50
407.603	72.53
407.812	78.68
408.02	99.16
408.229	138.07
408.438	164.69
408.646	93.01
408.855	97.11
409.064	105.3
409.272	70.48
409.481	203.6
409.69	125.78
409.898	99.16
410.107	111.44
410.315	127.83
410.524	172.88
410.733	211.79
410.941	150.36
411.15	211.79
411.358	193.36
411.567	166.74
411.775	174.93
411.984	230.23
412.192	246.61
412.401	176.98
412.609	248.66
412.818	238.42
413.026	262.99
413.234	238.42
413.443	205.65
413.651	252.75
413.86	148.31
414.068	269.14
414.276	320.34
414.485	232.27
414.693	209.75
414.901	310.1
415.11	303.95
415.318	283.47
415.526	324.43
415.734	359.25
415.943	394.06
416.151	381.78
416.359	404.3
416.567	385.87
416.776	402.26
416.984	398.16
417.192	406.35
417.4	478.03
417.608	447.31
417.817	484.17
418.025	484.17
418.233	654.16
418.441	562
418.649	525.13
418.857	592.72
419.065	633.68
419.273	666.44
419.481	688.97
419.689	678.73
419.897	672.59
420.105	740.17
420.313	809.8
420.521	801.61
420.729	725.83
420.937	727.88
421.145	838.47
421.353	807.75
421.561	895.82
421.769	912.2
421.977	938.82
422.185	936.78
422.393	940.87
422.601	1002.31
422.809	1084.23
423.017	1022.79
423.224	1190.72
423.432	1137.48
423.64	1117
423.848	1223.49
424.056	1248.07
424.263	1354.56
424.471	1315.65
424.679	1327.94
424.887	1428.29
425.094	1499.97
425.302	1465.15
425.51	1481.53
425.718	1612.6
425.925	1485.63
426.133	1575.74
426.341	1688.38
426.548	1796.92
426.756	1729.34
426.964	1897.27
427.171	1909.56
427.379	2028.34
427.586	1983.29
427.794	2067.25
428.001	2130.74
428.209	2304.82
428.417	2345.78
428.624	2482.99
428.832	2376.5
429.039	2460.46
429.247	2341.68
429.454	2775.85
429.662	2775.85
429.869	2579.25
430.076	2798.38
430.284	2695.98
430.491	2874.15
430.699	2962.22
430.906	2970.41
431.114	2947.88
431.321	3173.16
431.528	3187.49
431.736	3367.71
431.943	3461.92
432.15	3521.31
432.358	3375.91
432.565	3740.44
432.772	3760.92
432.979	3904.28
433.187	3805.98
433.394	3797.79
433.601	4225.81
433.808	4326.16
434.016	4391.7
434.223	4350.74
434.43	4573.97
434.637	4567.82
434.844	4823.82
435.052	4766.48
435.259	4848.4
435.466	4983.56
435.673	4756.24
435.88	5102.34
436.087	5493.51
436.294	5610.24
436.501	5346.05
436.708	5346.05
436.915	5643.01
437.122	5827.32
437.329	5774.08
437.537	5968.63
437.743	6226.68
437.95	6202.1
438.157	6652.66
438.364	6763.25
438.571	6740.72
438.778	6607.6
438.985	7209.7
439.192	6847.21
439.399	7275.24
439.606	6970.09
439.813	7408.36
440.02	7850.72
440.227	7699.17
440.433	7740.13
440.64	7969.5
440.847	7877.34
441.054	8137.43
441.261	8848.08
441.467	8504.02
441.674	8751.82
441.881	9192.14
442.088	8979.15
442.294	8981.2
442.501	9095.88
442.708	9433.8
442.914	9790.14
443.121	10062.52
443.328	9786.05
443.534	10625.72
443.741	10343.1
443.948	9917.12
444.154	10857.14
444.361	10789.55
444.568	10875.57
444.774	10949.29
444.981	11047.6
445.187	11307.69
445.394	11854.5
445.6	11444.9
445.807	12802.71
446.013	12370.58
446.22	12460.7
446.426	12819.09
446.633	13036.17
446.839	13376.14
447.046	12839.57
447.252	13613.7
447.459	13578.89
447.665	13568.65
447.871	14289.53
448.078	14752.37
448.284	14064.25
448.491	14422.65
448.697	15016.56
448.903	15475.31
449.11	15377
449.316	14928.5
449.522	15415.91
449.728	15977.06
449.935	15970.91
450.141	15899.23
450.347	16443.99
450.553	15647.33
450.76	16022.11
450.966	16454.23
451.172	16398.94
451.378	16644.7
451.584	16435.8
451.791	16941.65
451.997	16847.44
452.203	17037.91
452.409	17125.97
452.615	16933.46
452.821	16527.96
453.027	16374.36
453.233	16867.92
453.44	16233.05
453.646	16591.45
453.852	16659.03
454.058	16865.88
454.264	16353.88
454.47	16769.62
454.676	16351.84
454.882	17175.12
455.088	15460.97
455.294	15854.18
455.5	15903.33
455.705	16188
455.911	15321.71
456.117	15288.94
456.323	14697.08
456.529	14418.55
456.735	14688.89
456.941	14310.01
457.147	14381.69
457.352	13752.96
457.558	13562.5
457.764	13759.11
457.97	13345.42
458.176	13281.93
458.381	13021.84
458.587	12335.77
458.793	12518.04
458.999	11725.47
459.204	12757.65
459.41	12145.31
459.616	11418.28
459.821	11563.68
460.027	11463.33
460.233	11254.44
460.438	10625.72
460.644	10777.26
460.85	10222.27
461.055	9939.65
461.261	10037.95
461.466	9482.95
461.672	9071.31
461.878	9654.98
462.083	9083.59
462.289	8893.13
462.494	8981.2
462.7	8549.07
462.905	8149.72
463.111	8491.73
463.316	8504.02
463.522	8258.26
463.727	8317.65
463.932	8397.53
464.138	8223.45
464.343	8227.54
464.549	8100.57
464.754	8141.53
464.959	8137.43
465.165	7996.12
465.37	7838.43
465.575	7533.28
465.781	7774.94
465.986	7996.12
466.191	7772.89
466.397	7365.35
466.602	7213.8
466.807	7396.07
467.012	7359.21
467.218	7314.15
467.423	7297.77
467.628	7232.23
467.833	7568.1
468.038	7400.16
468.244	7287.53
468.449	7398.12
468.654	7277.29
468.859	6906.6
469.064	7144.17
469.269	6830.83
469.474	6705.9
469.679	7135.98
469.885	6757.1
470.09	6722.29
