Data from USB4F104151__28__11-44-49-620.txt Node

Date: Fri Mar 14 11:44:49 EDT 2025
User: louis
Spectrometer: USB4F10415
Trigger mode: 4
Integration Time (sec): 2.000000E-2
Scans to average: 1
Electric dark correction enabled: true
Nonlinearity correction enabled: false
Boxcar width: 0
XAxis mode: Wavelengths
Number of Pixels in Spectrum: 3648
>>>>>Begin Spectral Data<<<<<
178.204	-28.67
178.424	-28.67
178.644	-28.67
178.864	-108.54
179.084	-108.54
179.304	2.05
179.524	-36.86
179.744	-30.72
179.964	36.86
180.184	-45.06
180.404	28.67
180.624	38.91
180.844	28.67
181.064	-20.48
181.283	2.05
181.503	-4.1
181.723	-0
181.943	32.77
182.163	77.82
182.383	-8.19
182.602	94.21
182.822	18.43
183.042	-2.05
183.262	14.34
183.482	-36.86
183.701	36.86
183.921	47.1
184.141	14.34
184.361	-0
184.58	-0
184.8	-26.62
185.02	14.34
185.239	16.38
185.459	28.67
185.679	69.63
185.898	49.15
186.118	47.1
186.338	38.91
186.557	71.68
186.777	55.3
186.997	-34.82
187.216	-32.77
187.436	-22.53
187.655	10.24
187.875	71.68
188.095	-34.82
188.314	81.92
188.534	75.77
188.753	-16.38
188.973	-8.19
189.192	69.63
189.412	28.67
189.631	10.24
189.851	53.25
190.07	30.72
190.29	16.38
190.509	-12.29
190.729	36.86
190.948	57.34
191.168	112.64
191.387	45.06
191.607	49.15
191.826	53.25
192.045	102.4
192.265	-8.19
192.484	-12.29
192.704	90.11
192.923	10.24
193.142	81.92
193.362	47.1
193.581	90.11
193.8	83.97
194.02	47.1
194.239	-8.19
194.458	-10.24
194.678	102.4
194.897	32.77
195.116	88.06
195.335	90.11
195.555	18.43
195.774	18.43
195.993	75.77
196.212	45.06
196.432	26.62
196.651	75.77
196.87	-14.34
197.089	-2.05
197.308	110.59
197.528	12.29
197.747	-8.19
197.966	38.91
198.185	4.1
198.404	28.67
198.623	6.14
198.842	73.73
199.062	38.91
199.281	59.39
199.5	14.34
199.719	12.29
199.938	12.29
200.157	-8.19
200.376	77.82
200.595	57.34
200.814	45.06
201.033	69.63
201.252	12.29
201.471	36.86
201.69	133.12
201.909	77.82
202.128	-0
202.347	-6.14
202.566	40.96
202.785	36.86
203.004	16.38
203.223	102.4
203.442	20.48
203.661	2.05
203.879	20.48
204.098	120.83
204.317	-6.14
204.536	47.1
204.755	-2.05
204.974	30.72
205.193	79.87
205.411	61.44
205.63	26.62
205.849	-45.06
206.068	69.63
206.287	-0
206.505	61.44
206.724	-14.34
206.943	-92.16
207.162	32.77
207.381	-65.54
207.599	47.1
207.818	6.14
208.037	71.68
208.255	-26.62
208.474	71.68
208.693	-0
208.911	57.34
209.13	92.16
209.349	108.54
209.567	102.4
209.786	47.1
210.005	4.1
210.223	63.49
210.442	-22.53
210.661	86.01
210.879	59.39
211.098	16.38
211.316	40.96
211.535	143.36
211.753	-12.29
211.972	-0
212.191	86.01
212.409	63.49
212.628	53.25
212.846	14.34
213.065	86.01
213.283	102.4
213.502	-55.3
213.72	30.72
213.938	47.1
214.157	92.16
214.375	59.39
214.594	-20.48
214.812	14.34
215.031	14.34
215.249	2.05
215.467	18.43
215.686	12.29
215.904	38.91
216.122	45.06
216.341	81.92
216.559	61.44
216.778	65.53
216.996	106.49
217.214	-36.86
217.432	47.1
217.651	57.34
217.869	30.72
218.087	30.72
218.306	36.86
218.524	63.49
218.742	12.29
218.96	26.62
219.179	-8.19
219.397	45.06
219.615	53.25
219.833	43.01
220.051	88.06
220.27	38.91
220.488	20.48
220.706	-26.62
220.924	94.21
221.142	55.3
221.36	63.49
221.578	28.67
221.796	47.1
222.015	96.25
222.233	51.2
222.451	102.4
222.669	18.43
222.887	-4.1
223.105	-4.1
223.323	-20.48
223.541	10.24
223.759	81.92
223.977	43.01
224.195	65.53
224.413	26.62
224.631	40.96
224.849	69.63
225.067	86.01
225.285	6.14
225.503	-8.19
225.721	-8.19
225.939	65.53
226.157	49.15
226.375	188.41
226.592	-18.43
226.81	32.77
227.028	-8.19
227.246	116.73
227.464	73.73
227.682	-4.1
227.9	-16.38
228.117	73.73
228.335	40.96
228.553	53.25
228.771	83.97
228.989	79.87
229.206	86.01
229.424	59.39
229.642	43.01
229.86	71.68
230.077	36.86
230.295	57.34
230.513	88.06
230.731	34.82
230.948	47.1
231.166	12.29
231.384	55.3
231.601	22.53
231.819	-22.53
232.037	-2.05
232.254	2.05
232.472	65.53
232.689	-40.96
232.907	40.96
233.125	73.73
233.342	24.58
233.56	59.39
233.777	43.01
233.995	57.34
234.213	43.01
234.43	26.62
234.648	14.34
234.865	96.25
235.083	96.25
235.3	88.06
235.518	118.78
235.735	112.64
235.953	51.2
236.17	-6.14
236.388	6.14
236.605	57.34
236.822	45.06
237.04	77.82
237.257	38.91
237.475	55.3
237.692	-0
237.909	65.53
238.127	-51.2
238.344	51.2
238.562	38.91
238.779	69.63
238.996	32.77
239.214	4.1
239.431	47.1
239.648	-16.38
239.865	81.92
240.083	81.92
240.3	-26.62
240.517	28.67
240.735	75.77
240.952	36.86
241.169	92.16
241.386	49.15
241.603	-16.38
241.821	16.38
242.038	88.06
242.255	26.62
242.472	71.68
242.689	49.15
242.907	57.34
243.124	69.63
243.341	28.67
243.558	16.38
243.775	-4.1
243.992	24.58
244.209	131.07
244.426	28.67
244.643	118.78
244.86	45.06
245.078	34.82
245.295	57.34
245.512	30.72
245.729	16.38
245.946	4.1
246.163	2.05
246.38	36.86
246.597	14.34
246.814	83.97
247.031	-24.58
247.248	14.34
247.464	65.53
247.681	-2.05
247.898	24.58
248.115	45.06
248.332	20.48
248.549	61.44
248.766	86.01
248.983	32.77
249.2	32.77
249.417	-20.48
249.633	69.63
249.85	34.82
250.067	34.82
250.284	32.77
250.501	49.15
250.717	83.97
250.934	63.49
251.151	36.86
251.368	20.48
251.585	38.91
251.801	45.06
252.018	2.05
252.235	79.87
252.451	32.77
252.668	22.53
252.885	47.1
253.102	20.48
253.318	12.29
253.535	55.3
253.752	4.1
253.968	63.49
254.185	-4.1
254.401	-8.19
254.618	34.82
254.835	16.38
255.051	65.53
255.268	67.58
255.484	24.58
255.701	65.53
255.917	-6.14
256.134	-0
256.351	151.55
256.567	-16.38
256.784	67.58
257	-4.1
257.217	67.58
257.433	98.3
257.65	43.01
257.866	96.25
258.082	51.2
258.299	26.62
258.515	98.3
258.732	18.43
258.948	83.97
259.165	-26.62
259.381	73.73
259.597	24.58
259.814	49.15
260.03	79.87
260.246	2.05
260.463	73.73
260.679	34.82
260.895	16.38
261.112	77.82
261.328	20.48
261.544	8.19
261.761	51.2
261.977	45.06
262.193	36.86
262.409	116.73
262.626	4.1
262.842	20.48
263.058	81.92
263.274	32.77
263.49	108.54
263.707	30.72
263.923	45.06
264.139	77.82
264.355	63.49
264.571	63.49
264.787	55.3
265.004	79.87
265.22	4.1
265.436	26.62
265.652	43.01
265.868	94.21
266.084	8.19
266.3	65.53
266.516	63.49
266.732	59.39
266.948	43.01
267.164	57.34
267.38	79.87
267.596	53.25
267.812	20.48
268.028	36.86
268.244	38.91
268.46	30.72
268.676	79.87
268.892	-10.24
269.108	28.67
269.324	12.29
269.54	55.3
269.756	88.06
269.972	-20.48
270.188	22.53
270.403	16.38
270.619	57.34
270.835	43.01
271.051	92.16
271.267	49.15
271.483	-8.19
271.698	-6.14
271.914	38.91
272.13	63.49
272.346	69.63
272.562	43.01
272.777	75.77
272.993	24.58
273.209	57.34
273.425	114.69
273.64	61.44
273.856	63.49
274.072	18.43
274.287	-14.34
274.503	-28.67
274.719	79.87
274.934	102.4
275.15	20.48
275.366	20.48
275.581	69.63
275.797	106.49
276.012	67.58
276.228	55.3
276.444	61.44
276.659	73.73
276.875	57.34
277.09	47.1
277.306	71.68
277.521	16.38
277.737	20.48
277.952	24.58
278.168	16.38
278.383	69.63
278.599	45.06
278.814	-2.05
279.03	96.25
279.245	51.2
279.461	94.21
279.676	67.58
279.892	36.86
280.107	49.15
280.322	20.48
280.538	24.58
280.753	53.25
280.969	32.77
281.184	20.48
281.399	88.06
281.615	-14.34
281.83	4.1
282.045	18.43
282.26	86.01
282.476	73.73
282.691	92.16
282.906	51.2
283.122	83.97
283.337	8.19
283.552	86.01
283.767	38.91
283.983	86.01
284.198	43.01
284.413	32.77
284.628	30.72
284.843	30.72
285.058	34.82
285.274	12.29
285.489	34.82
285.704	102.4
285.919	22.53
286.134	61.44
286.349	30.72
286.564	43.01
286.779	67.58
286.995	86.01
287.21	-55.3
287.425	18.43
287.64	28.67
287.855	6.14
288.07	69.63
288.285	98.3
288.5	6.14
288.715	100.35
288.93	61.44
289.145	59.39
289.36	36.86
289.575	71.68
289.79	92.16
290.004	10.24
290.219	28.67
290.434	75.77
290.649	40.96
290.864	-53.25
291.079	49.15
291.294	45.06
291.509	36.86
291.724	-16.38
291.938	-16.38
292.153	81.92
292.368	8.19
292.583	65.53
292.798	12.29
293.012	26.62
293.227	75.77
293.442	47.1
293.657	61.44
293.871	61.44
294.086	53.25
294.301	55.3
294.516	67.58
294.73	102.4
294.945	77.82
295.16	59.39
295.374	79.87
295.589	38.91
295.804	18.43
296.018	147.45
296.233	112.64
296.447	75.77
296.662	59.39
296.877	34.82
297.091	67.58
297.306	14.34
297.52	135.17
297.735	-8.19
297.949	30.72
298.164	47.1
298.378	79.87
298.593	-30.72
298.807	49.15
299.022	69.63
299.236	67.58
299.451	45.06
299.665	28.67
299.88	118.78
300.094	86.01
300.309	49.15
300.523	69.63
300.737	118.78
300.952	81.92
301.166	57.34
301.381	116.73
301.595	28.67
301.809	53.25
302.024	104.45
302.238	36.86
302.452	22.53
302.667	30.72
302.881	34.82
303.095	135.17
303.309	77.82
303.524	53.25
303.738	43.01
303.952	4.1
304.166	151.55
304.381	12.29
304.595	63.49
304.809	-67.58
305.023	4.1
305.237	34.82
305.452	38.91
305.666	2.05
305.88	124.93
306.094	-16.38
306.308	-32.77
306.522	94.21
306.736	67.58
306.95	-0
307.164	30.72
307.379	67.58
307.593	129.02
307.807	71.68
308.021	36.86
308.235	38.91
308.449	57.34
308.663	32.77
308.877	38.91
309.091	10.24
309.305	71.68
309.519	-20.48
309.733	139.26
309.947	-38.91
310.161	83.97
310.374	45.06
310.588	77.82
310.802	40.96
311.016	75.77
311.23	-20.48
311.444	30.72
311.658	73.73
311.872	71.68
312.085	8.19
312.299	77.82
312.513	-28.67
312.727	59.39
312.941	55.3
313.154	51.2
313.368	53.25
313.582	4.1
313.796	69.63
314.009	14.34
314.223	79.87
314.437	26.62
314.651	69.63
314.864	69.63
315.078	94.21
315.292	30.72
315.505	38.91
315.719	4.1
315.933	81.92
316.146	86.01
316.36	51.2
316.573	45.06
316.787	61.44
317.001	30.72
317.214	-2.05
317.428	-24.58
317.641	53.25
317.855	14.34
318.068	38.91
318.282	94.21
318.495	73.73
318.709	16.38
318.922	36.86
319.136	59.39
319.349	81.92
319.563	12.29
319.776	30.72
319.99	120.83
320.203	40.96
320.417	-0
320.63	77.82
320.843	28.67
321.057	59.39
321.27	59.39
321.483	47.1
321.697	63.49
321.91	104.45
322.124	49.15
322.337	-32.77
322.55	30.72
322.763	106.49
322.977	47.1
323.19	40.96
323.403	53.25
323.617	86.01
323.83	96.25
324.043	12.29
324.256	-8.19
324.469	77.82
324.683	92.16
324.896	14.34
325.109	106.49
325.322	26.62
325.535	32.77
325.748	100.35
325.962	-24.58
326.175	45.06
326.388	45.06
326.601	38.91
326.814	30.72
327.027	57.34
327.24	77.82
327.453	45.06
327.666	20.48
327.879	75.77
328.092	100.35
328.305	38.91
328.518	100.35
328.731	59.39
328.944	67.58
329.157	28.67
329.37	53.25
329.583	77.82
329.796	120.83
330.009	51.2
330.222	75.77
330.435	137.21
330.648	32.77
330.861	8.19
331.073	90.11
331.286	77.82
331.499	73.73
331.712	38.91
331.925	26.62
332.138	24.58
332.35	108.54
332.563	55.3
332.776	65.53
332.989	77.82
333.202	8.19
333.414	34.82
333.627	145.41
333.84	71.68
334.053	26.62
334.265	71.68
334.478	24.58
334.691	32.77
334.903	118.78
335.116	-22.53
335.329	79.87
335.541	26.62
335.754	131.07
335.966	-59.39
336.179	53.25
336.392	22.53
336.604	106.49
336.817	14.34
337.029	45.06
337.242	100.35
337.454	163.84
337.667	28.67
337.88	106.49
338.092	34.82
338.305	26.62
338.517	28.67
338.729	98.3
338.942	30.72
339.154	28.67
339.367	38.91
339.579	108.54
339.792	47.1
340.004	90.11
340.217	63.49
340.429	86.01
340.641	10.24
340.854	104.45
341.066	67.58
341.278	81.92
341.491	149.5
341.703	96.25
341.915	81.92
342.128	77.82
342.34	30.72
342.552	-16.38
342.764	90.11
342.977	-6.14
343.189	57.34
343.401	18.43
343.613	18.43
343.826	12.29
344.038	18.43
344.25	61.44
344.462	20.48
344.674	30.72
344.886	36.86
345.099	61.44
345.311	102.4
345.523	110.59
345.735	12.29
345.947	14.34
346.159	67.58
346.371	-0
346.583	102.4
346.795	102.4
347.007	36.86
347.219	57.34
347.431	47.1
347.643	69.63
347.855	32.77
348.067	145.41
348.279	40.96
348.491	-0
348.703	36.86
348.915	73.73
349.127	49.15
349.339	59.39
349.551	59.39
349.763	34.82
349.975	18.43
350.187	-20.48
350.399	77.82
350.61	75.77
350.822	34.82
351.034	28.67
351.246	12.29
351.458	14.34
351.669	118.78
351.881	69.63
352.093	51.2
352.305	36.86
352.517	65.53
352.728	102.4
352.94	6.14
353.152	-6.14
353.363	90.11
353.575	102.4
353.787	59.39
353.999	18.43
354.21	81.92
354.422	32.77
354.633	112.64
354.845	26.62
355.057	88.06
355.268	22.53
355.48	18.43
355.692	122.88
355.903	94.21
356.115	79.87
356.326	63.49
356.538	94.21
356.749	43.01
356.961	94.21
357.172	59.39
357.384	75.77
357.595	106.49
357.807	106.49
358.018	53.25
358.23	8.19
358.441	133.12
358.653	53.25
358.864	90.11
359.075	47.1
359.287	65.53
359.498	55.3
359.709	36.86
359.921	75.77
360.132	47.1
360.344	118.78
360.555	18.43
360.766	90.11
360.977	30.72
361.189	47.1
361.4	49.15
361.611	88.06
361.823	28.67
362.034	63.49
362.245	40.96
362.456	75.77
362.667	57.34
362.879	24.58
363.09	131.07
363.301	98.3
363.512	49.15
363.723	141.31
363.935	8.19
364.146	96.25
364.357	-0
364.568	43.01
364.779	30.72
364.99	165.89
365.201	86.01
365.412	55.3
365.623	24.58
365.834	34.82
366.045	57.34
366.256	47.1
366.467	77.82
366.678	32.77
366.889	75.77
367.1	30.72
367.311	51.2
367.522	22.53
367.733	75.77
367.944	92.16
368.155	83.97
368.366	98.3
368.577	55.3
368.788	65.53
368.999	92.16
369.209	83.97
369.42	108.54
369.631	114.69
369.842	106.49
370.053	98.3
370.264	71.68
370.474	69.63
370.685	61.44
370.896	116.73
371.107	102.4
371.317	63.49
371.528	79.87
371.739	75.77
371.95	61.44
372.16	86.01
372.371	28.67
372.582	77.82
372.792	30.72
373.003	149.5
373.214	71.68
373.424	100.35
373.635	71.68
373.846	45.06
374.056	159.74
374.267	34.82
374.477	83.97
374.688	81.92
374.898	110.59
375.109	40.96
375.319	73.73
375.53	100.35
375.74	81.92
375.951	-8.19
376.161	10.24
376.372	124.93
376.582	36.86
376.793	71.68
377.003	36.86
377.214	73.73
377.424	92.16
377.635	96.25
377.845	112.64
378.055	81.92
378.266	12.29
378.476	71.68
378.686	28.67
378.897	77.82
379.107	77.82
379.317	120.83
379.528	34.82
379.738	96.25
379.948	49.15
380.158	137.21
380.369	71.68
380.579	49.15
380.789	67.58
380.999	83.97
381.21	143.36
381.42	151.55
381.63	81.92
381.84	69.63
382.05	92.16
382.261	131.07
382.471	40.96
382.681	40.96
382.891	100.35
383.101	114.69
383.311	28.67
383.521	92.16
383.731	126.97
383.941	59.39
384.151	65.53
384.361	47.1
384.571	159.74
384.781	92.16
384.991	96.25
385.201	20.48
385.411	86.01
385.621	131.07
385.831	143.36
386.041	51.2
386.251	137.21
386.461	43.01
386.671	86.01
386.881	112.64
387.091	30.72
387.301	98.3
387.511	71.68
387.72	159.74
387.93	114.69
388.14	26.62
388.35	26.62
388.56	67.58
388.769	30.72
388.979	59.39
389.189	75.77
389.399	38.91
389.609	83.97
389.818	143.36
390.028	98.3
390.238	145.41
390.447	32.77
390.657	145.41
390.867	61.44
391.076	81.92
391.286	14.34
391.496	124.93
391.705	59.39
391.915	22.53
392.125	141.31
392.334	40.96
392.544	102.4
392.753	77.82
392.963	16.38
393.172	143.36
393.382	100.35
393.591	81.92
393.801	73.73
394.01	96.25
394.22	77.82
394.429	106.49
394.639	104.45
394.848	98.3
395.058	102.4
395.267	94.21
395.477	75.77
395.686	188.41
395.895	180.22
396.105	204.8
396.314	79.87
396.524	114.69
396.733	114.69
396.942	98.3
397.152	118.78
397.361	141.31
397.57	149.5
397.78	120.83
397.989	143.36
398.198	167.93
398.407	81.92
398.617	100.35
398.826	133.12
399.035	104.45
399.244	57.34
399.453	155.65
399.663	155.65
399.872	114.69
400.081	92.16
400.29	188.41
400.499	118.78
400.708	112.64
400.917	114.69
401.127	106.49
401.336	151.55
401.545	186.37
401.754	172.03
401.963	165.89
402.172	151.55
402.381	106.49
402.59	182.27
402.799	94.21
403.008	169.98
403.217	108.54
403.426	198.65
403.635	157.69
403.844	192.51
404.053	135.17
404.262	151.55
404.471	223.23
404.68	206.84
404.888	184.32
405.097	176.13
405.306	180.22
405.515	143.36
405.724	141.31
405.933	215.04
406.142	225.28
406.35	221.18
406.559	208.89
406.768	196.6
406.977	284.67
407.185	264.19
407.394	260.09
407.603	223.23
407.812	276.48
408.02	231.42
408.229	299
408.438	239.61
408.646	307.2
408.855	307.2
409.064	264.19
409.272	311.29
409.481	391.16
409.69	352.25
409.898	372.73
410.107	405.5
410.315	423.93
410.524	372.73
410.733	296.96
410.941	432.12
411.15	468.98
411.358	395.26
411.567	483.32
411.775	511.99
411.984	507.9
412.192	425.98
412.401	563.19
412.609	581.62
412.818	557.05
413.026	581.62
413.234	487.42
413.443	561.14
413.651	536.57
413.86	606.2
414.068	655.35
414.276	675.83
414.485	759.8
414.693	679.93
414.901	794.61
415.11	831.48
415.318	856.05
415.526	856.05
415.734	874.48
415.943	886.77
416.151	946.16
416.359	978.93
416.567	1021.94
416.776	985.07
416.984	989.17
417.192	1134.57
417.4	1101.81
417.608	1110
417.817	1185.77
418.025	1179.63
418.233	1277.93
418.441	1265.64
418.649	1411.05
418.857	1447.91
419.065	1433.58
419.273	1427.43
419.481	1540.07
419.689	1607.66
419.897	1699.81
420.105	1771.49
420.313	1736.68
420.521	1900.51
420.729	1873.89
420.937	1914.85
421.145	1941.47
421.353	2002.91
421.561	2066.4
421.769	2142.18
421.977	2244.57
422.185	2082.78
422.393	2379.74
422.601	2463.71
422.809	2547.67
423.017	2562.01
423.224	2750.42
423.432	2781.14
423.64	2795.48
423.848	2987.99
424.056	2897.88
424.263	3131.34
424.471	3164.11
424.679	3278.8
424.887	3448.78
425.094	3518.41
425.302	3532.75
425.51	3710.92
425.718	3731.4
425.925	3846.09
426.133	3991.49
426.341	4241.34
426.548	4243.39
426.756	4396.99
426.964	4431.8
427.171	4784.05
427.379	4820.92
427.586	4829.11
427.794	5181.36
428.001	5308.33
428.209	5517.23
428.417	5492.65
428.624	5818.28
428.832	5832.61
429.039	5803.94
429.247	5765.03
429.454	6379.42
429.662	6678.43
429.869	6377.37
430.076	6834.07
430.284	6541.21
430.491	6981.53
430.699	7348.11
430.906	7407.5
431.114	7448.46
431.321	7618.44
431.528	7667.59
431.736	8370.05
431.943	8591.23
432.15	8474.49
432.358	8339.33
432.565	8990.58
432.772	8857.46
432.979	9391.98
433.187	9422.7
433.394	9641.84
433.601	10219.36
433.808	10194.79
434.016	10260.32
434.223	10467.17
434.43	11208.53
434.637	11181.91
434.844	11540.3
435.052	12177.22
435.259	11845.45
435.466	12226.37
435.673	12076.87
435.88	12777.28
436.087	13319.99
436.294	13293.37
436.501	13074.23
436.708	13479.73
436.915	13651.76
437.122	14409.51
437.329	14313.25
437.537	15167.26
437.743	15077.15
437.95	14950.17
438.157	15775.5
438.364	16142.09
438.571	16303.88
438.778	16369.41
438.985	17678.07
439.192	16959.23
439.399	17905.39
439.606	17405.69
439.813	18173.67
440.02	19435.22
440.227	18943.71
440.433	19060.45
440.64	19334.87
440.847	19175.13
441.054	19939.02
441.261	21286.59
441.467	20776.64
441.674	21180.09
441.881	21896.88
442.088	22185.65
442.294	21771.96
442.501	22161.07
442.708	22675.11
442.914	23395.99
443.121	24624.78
443.328	24063.63
443.534	25560.7
443.741	25153.15
443.948	24512.14
444.154	26130.03
444.361	26062.45
444.568	26596.97
444.774	26859.11
444.981	26775.14
445.187	27713.11
445.394	29025.86
445.6	28773.96
445.807	31223.33
446.013	30178.87
446.22	30275.12
446.426	31278.63
446.633	31569.44
446.839	33025.54
447.046	31471.14
447.252	33662.46
447.459	33682.94
447.665	33318.4
447.871	34487.79
448.078	36029.91
448.284	34549.23
448.491	35474.91
448.697	36668.88
448.903	37352.9
449.11	37350.85
449.316	36500.95
449.522	37432.77
449.728	38419.89
449.935	38669.75
450.141	38604.21
450.347	39865.76
450.553	37963.2
450.76	38966.7
450.966	39998.88
451.172	39818.66
451.378	40740.24
451.584	39873.95
451.791	40666.52
451.997	40543.64
452.203	41141.64
452.409	41270.67
452.615	40938.9
452.821	39439.78
453.027	39220.65
453.233	41303.43
453.44	39749.03
453.646	39966.11
453.852	40109.47
454.058	40793.49
454.264	39687.59
454.47	40568.21
454.676	39402.92
454.882	40641.94
455.088	37246.41
455.294	37682.62
455.5	38686.13
455.705	38725.04
455.911	37133.77
456.117	36586.96
456.323	35816.93
456.529	34317.81
456.735	35651.04
456.941	34944.49
457.147	33857.02
457.352	33320.45
457.558	32196.12
457.764	32917
457.97	32364.05
458.176	31489.57
458.381	31303.2
458.587	29984.31
458.793	30074.42
458.999	28266.06
459.204	30469.68
459.41	29478.46
459.616	27526.75
459.821	27870.81
460.027	27604.57
460.233	26855.01
460.438	25405.05
460.644	26089.07
460.85	24895.11
461.055	24526.47
461.261	24479.37
461.466	22419.11
461.672	21907.12
461.878	23240.35
462.083	21690.04
462.289	21352.12
462.494	21128.89
462.7	20453.06
462.905	19762.9
463.111	20709.06
463.316	20514.5
463.522	20358.86
463.727	19971.79
463.932	20168.4
464.138	19887.82
464.343	19801.81
464.549	19128.03
464.754	19887.82
464.959	19685.08
465.165	19648.21
465.37	18714.34
465.575	18439.91
465.781	19121.88
465.986	19285.72
466.191	18333.42
466.397	18018.03
466.602	17067.77
466.807	17757.94
467.012	18005.74
467.218	17862.38
467.423	17700.59
467.628	17479.41
