Data from USB4F104151__90__11-45-44-086.txt Node

Date: Fri Mar 14 11:45:44 EDT 2025
User: louis
Spectrometer: USB4F10415
Trigger mode: 4
Integration Time (sec): 2.000000E-2
Scans to average: 1
Electric dark correction enabled: true
Nonlinearity correction enabled: false
Boxcar width: 0
XAxis mode: Wavelengths
Number of Pixels in Spectrum: 3648
>>>>>Begin Spectral Data<<<<<
178.204	-22.02
178.424	-22.02
178.644	-22.02
178.864	-65.02
179.084	-48.64
179.304	10.75
179.524	35.33
179.744	12.8
179.964	-30.21
180.184	-65.02
180.404	-22.02
180.624	16.9
180.844	18.94
181.064	4.61
181.283	4.61
181.503	-17.92
181.723	31.23
181.943	8.7
182.163	61.95
182.383	-38.4
182.602	43.52
182.822	37.38
183.042	70.14
183.262	12.8
183.482	-5.63
183.701	18.94
183.921	20.99
184.141	2.56
184.361	107.01
184.58	-46.59
184.8	51.71
185.02	-1.54
185.239	-9.73
185.459	10.75
185.679	113.15
185.898	37.38
186.118	-71.17
186.338	84.48
186.557	12.8
186.777	-24.06
186.997	18.94
187.216	14.85
187.436	31.23
187.655	23.04
187.875	53.76
188.095	33.28
188.314	35.33
188.534	43.52
188.753	29.18
188.973	20.99
189.192	20.99
189.412	47.62
189.631	25.09
189.851	0.51
190.07	4.61
190.29	-5.63
190.509	98.81
190.729	6.66
190.948	64
191.168	72.19
191.387	84.48
191.607	6.66
191.826	66.05
192.045	45.57
192.265	57.86
192.484	78.33
192.704	16.9
192.923	51.71
193.142	160.25
193.362	72.19
193.581	86.53
193.8	43.52
194.02	23.04
194.239	129.53
194.458	49.66
194.678	-11.78
194.897	76.29
195.116	20.99
195.335	45.57
195.555	37.38
195.774	41.47
195.993	51.71
196.212	10.75
196.432	8.7
196.651	-17.92
196.87	29.18
197.089	16.9
197.308	14.85
197.528	23.04
197.747	-52.74
197.966	43.52
198.185	33.28
198.404	16.9
198.623	86.53
198.842	23.04
199.062	59.9
199.281	43.52
199.5	76.29
199.719	0.51
199.938	16.9
200.157	-13.82
200.376	-52.74
200.595	31.23
200.814	29.18
201.033	41.47
201.252	88.57
201.471	43.52
201.69	-30.21
201.909	70.14
202.128	0.51
202.347	-48.64
202.566	39.42
202.785	-5.63
203.004	55.81
203.223	43.52
203.442	61.95
203.661	-58.88
203.879	92.67
204.098	55.81
204.317	-24.06
204.536	-3.58
204.755	-26.11
204.974	45.57
205.193	0.51
205.411	72.19
205.63	55.81
205.849	47.62
206.068	92.67
206.287	49.66
206.505	4.61
206.724	96.77
206.943	68.09
207.162	59.9
207.381	76.29
207.599	41.47
207.818	-9.73
208.037	66.05
208.255	37.38
208.474	8.7
208.693	10.75
208.911	43.52
209.13	55.81
209.349	45.57
209.567	53.76
209.786	23.04
210.005	33.28
210.223	0.51
210.442	-48.64
210.661	78.33
210.879	-44.54
211.098	-5.63
211.316	-15.87
211.535	39.42
211.753	43.52
211.972	-36.35
212.191	-9.73
212.409	31.23
212.628	6.66
212.846	84.48
213.065	43.52
213.283	47.62
213.502	2.56
213.72	37.38
213.938	31.23
214.157	-15.87
214.375	84.48
214.594	31.23
214.812	-1.54
215.031	45.57
215.249	76.29
215.467	49.66
215.686	-38.4
215.904	51.71
216.122	59.9
216.341	125.44
216.559	51.71
216.778	51.71
216.996	-30.21
217.214	35.33
217.432	-19.97
217.651	31.23
217.869	6.66
218.087	29.18
218.306	41.47
218.524	57.86
218.742	2.56
218.96	57.86
219.179	43.52
219.397	57.86
219.615	109.05
219.833	74.24
220.051	-26.11
220.27	66.05
220.488	64
220.706	37.38
220.924	33.28
221.142	49.66
221.36	57.86
221.578	53.76
221.796	135.68
222.015	92.67
222.233	-1.54
222.451	53.76
222.669	20.99
222.887	-46.59
223.105	-32.26
223.323	-1.54
223.541	41.47
223.759	64
223.977	31.23
224.195	23.04
224.413	20.99
224.631	84.48
224.849	-50.69
225.067	64
225.285	-24.06
225.503	-5.63
225.721	-36.35
225.939	39.42
226.157	35.33
226.375	113.15
226.592	61.95
226.81	-1.54
227.028	20.99
227.246	80.38
227.464	29.18
227.682	72.19
227.9	-52.74
228.117	53.76
228.335	29.18
228.553	68.09
228.771	53.76
228.989	-9.73
229.206	43.52
229.424	35.33
229.642	66.05
229.86	29.18
230.077	14.85
230.295	-17.92
230.513	2.56
230.731	47.62
230.948	35.33
231.166	4.61
231.384	14.85
231.601	84.48
231.819	-3.58
232.037	41.47
232.254	51.71
232.472	107.01
232.689	-7.68
232.907	-1.54
233.125	47.62
233.342	16.9
233.56	43.52
233.777	-17.92
233.995	76.29
234.213	53.76
234.43	68.09
234.648	33.28
234.865	-30.21
235.083	70.14
235.3	25.09
235.518	12.8
235.735	84.48
235.953	29.18
236.17	59.9
236.388	27.14
236.605	96.77
236.822	82.43
237.04	92.67
237.257	31.23
237.475	-5.63
237.692	27.14
237.909	43.52
238.127	0.51
238.344	31.23
238.562	47.62
238.779	-24.06
238.996	18.94
239.214	27.14
239.431	59.9
239.648	-1.54
239.865	12.8
240.083	76.29
240.3	37.38
240.517	10.75
240.735	25.09
240.952	55.81
241.169	51.71
241.386	92.67
241.603	80.38
241.821	-7.68
242.038	51.71
242.255	14.85
242.472	35.33
242.689	10.75
242.907	37.38
243.124	-15.87
243.341	47.62
243.558	23.04
243.775	25.09
243.992	35.33
244.209	37.38
244.426	102.91
244.643	51.71
244.86	-5.63
245.078	29.18
245.295	53.76
245.512	2.56
245.729	-75.26
245.946	-22.02
246.163	55.81
246.38	49.66
246.597	57.86
246.814	4.61
247.031	39.42
247.248	-28.16
247.464	59.9
247.681	76.29
247.898	96.77
248.115	37.38
248.332	16.9
248.549	41.47
248.766	94.72
248.983	53.76
249.2	-5.63
249.417	-3.58
249.633	43.52
249.85	29.18
250.067	61.95
250.284	39.42
250.501	37.38
250.717	76.29
250.934	-13.82
251.151	45.57
251.368	84.48
251.585	68.09
251.801	-13.82
252.018	41.47
252.235	14.85
252.451	4.61
252.668	10.75
252.885	104.96
253.102	29.18
253.318	29.18
253.535	-30.21
253.752	59.9
253.968	92.67
254.185	86.53
254.401	82.43
254.618	39.42
254.835	25.09
255.051	84.48
255.268	68.09
255.484	92.67
255.701	-13.82
255.917	4.61
256.134	18.94
256.351	-9.73
256.567	6.66
256.784	90.62
257	49.66
257.217	96.77
257.433	35.33
257.65	61.95
257.866	70.14
258.082	-28.16
258.299	8.7
258.515	96.77
258.732	61.95
258.948	-7.68
259.165	76.29
259.381	-24.06
259.597	23.04
259.814	72.19
260.03	-32.26
260.246	25.09
260.463	14.85
260.679	59.9
260.895	31.23
261.112	-26.11
261.328	64
261.544	59.9
261.761	68.09
261.977	2.56
262.193	16.9
262.409	70.14
262.626	66.05
262.842	29.18
263.058	20.99
263.274	102.91
263.49	43.52
263.707	20.99
263.923	18.94
264.139	-26.11
264.355	49.66
264.571	18.94
264.787	31.23
265.004	57.86
265.22	-42.5
265.436	6.66
265.652	2.56
265.868	76.29
266.084	6.66
266.3	0.51
266.516	10.75
266.732	35.33
266.948	20.99
267.164	115.2
267.38	68.09
267.596	-15.87
267.812	84.48
268.028	66.05
268.244	-46.59
268.46	27.14
268.676	31.23
268.892	35.33
269.108	51.71
269.324	59.9
269.54	23.04
269.756	82.43
269.972	74.24
270.188	51.71
270.403	14.85
270.619	64
270.835	72.19
271.051	76.29
271.267	125.44
271.483	-19.97
271.698	53.76
271.914	23.04
272.13	8.7
272.346	59.9
272.562	-1.54
272.777	33.28
272.993	37.38
273.209	27.14
273.425	84.48
273.64	57.86
273.856	-44.54
274.072	-7.68
274.287	20.99
274.503	47.62
274.719	10.75
274.934	18.94
275.15	16.9
275.366	82.43
275.581	80.38
275.797	37.38
276.012	61.95
276.228	68.09
276.444	-32.26
276.659	94.72
276.875	27.14
277.09	109.05
277.306	43.52
277.521	-52.74
277.737	72.19
277.952	72.19
278.168	51.71
278.383	111.1
278.599	49.66
278.814	72.19
279.03	-28.16
279.245	70.14
279.461	74.24
279.676	-28.16
279.892	49.66
280.107	8.7
280.322	-30.21
280.538	20.99
280.753	61.95
280.969	39.42
281.184	2.56
281.399	90.62
281.615	45.57
281.83	10.75
282.045	4.61
282.26	29.18
282.476	8.7
282.691	25.09
282.906	64
283.122	27.14
283.337	18.94
283.552	23.04
283.767	64
283.983	23.04
284.198	57.86
284.413	72.19
284.628	-30.21
284.843	53.76
285.058	72.19
285.274	66.05
285.489	-32.26
285.704	80.38
285.919	-5.63
286.134	76.29
286.349	35.33
286.564	27.14
286.779	0.51
286.995	70.14
287.21	14.85
287.425	-7.68
287.64	16.9
287.855	14.85
288.07	10.75
288.285	59.9
288.5	8.7
288.715	72.19
288.93	49.66
289.145	8.7
289.36	82.43
289.575	80.38
289.79	51.71
290.004	37.38
290.219	72.19
290.434	43.52
290.649	43.52
290.864	12.8
291.079	12.8
291.294	109.05
291.509	-3.58
291.724	20.99
291.938	41.47
292.153	23.04
292.368	31.23
292.583	102.91
292.798	68.09
293.012	18.94
293.227	76.29
293.442	-28.16
293.657	-7.68
293.871	-28.16
294.086	80.38
294.301	61.95
294.516	133.63
294.73	59.9
294.945	33.28
295.16	45.57
295.374	92.67
295.589	59.9
295.804	-5.63
296.018	29.18
296.233	82.43
296.447	102.91
296.662	8.7
296.877	49.66
297.091	147.97
297.306	2.56
297.52	45.57
297.735	-22.02
297.949	51.71
298.164	64
298.378	31.23
298.593	39.42
298.807	-5.63
299.022	-15.87
299.236	31.23
299.451	86.53
299.665	88.57
299.88	0.51
300.094	33.28
300.309	10.75
300.523	35.33
300.737	64
300.952	-3.58
301.166	94.72
301.381	-17.92
301.595	37.38
301.809	98.81
302.024	20.99
302.238	53.76
302.452	70.14
302.667	-5.63
302.881	84.48
303.095	2.56
303.309	78.33
303.524	107.01
303.738	45.57
303.952	18.94
304.166	78.33
304.381	29.18
304.595	102.91
304.809	59.9
305.023	-24.06
305.237	78.33
305.452	51.71
305.666	88.57
305.88	55.81
306.094	100.86
306.308	131.58
306.522	14.85
306.736	59.9
306.95	45.57
307.164	23.04
307.379	59.9
307.593	45.57
307.807	-24.06
308.021	80.38
308.235	72.19
308.449	-3.58
308.663	-15.87
308.877	68.09
309.091	88.57
309.305	47.62
309.519	23.04
309.733	16.9
309.947	27.14
310.161	10.75
310.374	35.33
310.588	88.57
310.802	51.71
311.016	27.14
311.23	64
311.444	27.14
311.658	37.38
311.872	107.01
312.085	80.38
312.299	137.73
312.513	115.2
312.727	-22.02
312.941	10.75
313.154	49.66
313.368	49.66
313.582	37.38
313.796	74.24
314.009	74.24
314.223	-1.54
314.437	-19.97
314.651	78.33
314.864	117.25
315.078	-28.16
315.292	72.19
315.505	18.94
315.719	43.52
315.933	115.2
316.146	29.18
316.36	18.94
316.573	25.09
316.787	6.66
317.001	33.28
317.214	31.23
317.428	31.23
317.641	-9.73
317.855	61.95
318.068	-24.06
318.282	20.99
318.495	68.09
318.709	78.33
318.922	33.28
319.136	86.53
319.349	23.04
319.563	64
319.776	55.81
319.99	-15.87
320.203	0.51
320.417	47.62
320.63	92.67
320.843	64
321.057	16.9
321.27	47.62
321.483	29.18
321.697	55.81
321.91	98.81
322.124	-7.68
322.337	45.57
322.55	51.71
322.763	-15.87
322.977	72.19
323.19	10.75
323.403	-1.54
323.617	37.38
323.83	20.99
324.043	84.48
324.256	-9.73
324.469	-38.4
324.683	94.72
324.896	31.23
325.109	14.85
325.322	-7.68
325.535	45.57
325.748	59.9
325.962	80.38
326.175	18.94
326.388	92.67
326.601	47.62
326.814	-11.78
327.027	125.44
327.24	61.95
327.453	-26.11
327.666	70.14
327.879	51.71
328.092	127.49
328.305	47.62
328.518	76.29
328.731	-5.63
328.944	74.24
329.157	41.47
329.37	59.9
329.583	92.67
329.796	113.15
330.009	115.2
330.222	64
330.435	66.05
330.648	72.19
330.861	-15.87
331.073	27.14
331.286	27.14
331.499	51.71
331.712	23.04
331.925	70.14
332.138	10.75
332.35	27.14
332.563	10.75
332.776	117.25
332.989	113.15
333.202	-19.97
333.414	-50.69
333.627	39.42
333.84	-5.63
334.053	64
334.265	80.38
334.478	39.42
334.691	16.9
334.903	35.33
335.116	86.53
335.329	4.61
335.541	61.95
335.754	156.16
335.966	41.47
336.179	-7.68
336.392	23.04
336.604	31.23
336.817	-19.97
337.029	55.81
337.242	18.94
337.454	4.61
337.667	104.96
337.88	92.67
338.092	39.42
338.305	86.53
338.517	59.9
338.729	86.53
338.942	37.38
339.154	68.09
339.367	33.28
339.579	4.61
339.792	39.42
340.004	45.57
340.217	82.43
340.429	80.38
340.641	51.71
340.854	14.85
341.066	59.9
341.278	29.18
341.491	86.53
341.703	-38.4
341.915	43.52
342.128	86.53
342.34	27.14
342.552	12.8
342.764	72.19
342.977	49.66
343.189	53.76
343.401	-17.92
343.613	-15.87
343.826	74.24
344.038	2.56
344.25	14.85
344.462	47.62
344.674	39.42
344.886	18.94
345.099	47.62
345.311	4.61
345.523	41.47
345.735	-67.07
345.947	41.47
346.159	117.25
346.371	-24.06
346.583	12.8
346.795	51.71
347.007	23.04
347.219	-1.54
347.431	10.75
347.643	-11.78
347.855	94.72
348.067	33.28
348.279	49.66
348.491	-50.69
348.703	10.75
348.915	96.77
349.127	80.38
349.339	51.71
349.551	-34.3
349.763	37.38
349.975	98.81
350.187	64
350.399	37.38
350.61	10.75
350.822	-3.58
351.034	82.43
351.246	39.42
351.458	4.61
351.669	2.56
351.881	86.53
352.093	57.86
352.305	27.14
352.517	10.75
352.728	121.34
352.94	10.75
353.152	14.85
353.363	18.94
353.575	127.49
353.787	70.14
353.999	90.62
354.21	90.62
354.422	59.9
354.633	-11.78
354.845	70.14
355.057	127.49
355.268	14.85
355.48	55.81
355.692	88.57
355.903	35.33
356.115	74.24
356.326	27.14
356.538	61.95
356.749	2.56
356.961	72.19
357.172	29.18
357.384	-17.92
357.595	100.86
357.807	-65.02
358.018	25.09
358.23	78.33
358.441	37.38
358.653	31.23
358.864	10.75
359.075	119.29
359.287	100.86
359.498	102.91
359.709	10.75
359.921	31.23
360.132	78.33
360.344	-22.02
360.555	8.7
360.766	25.09
360.977	31.23
361.189	18.94
361.4	68.09
361.611	78.33
361.823	47.62
362.034	113.15
362.245	14.85
362.456	76.29
362.667	27.14
362.879	20.99
363.09	-15.87
363.301	16.9
363.512	131.58
363.723	45.57
363.935	-32.26
364.146	47.62
364.357	98.81
364.568	59.9
364.779	6.66
364.99	104.96
365.201	41.47
365.412	43.52
365.623	-36.35
365.834	51.71
366.045	14.85
366.256	43.52
366.467	8.7
366.678	23.04
366.889	25.09
367.1	-50.69
367.311	59.9
367.522	61.95
367.733	129.53
367.944	111.1
368.155	61.95
368.366	25.09
368.577	96.77
368.788	125.44
368.999	16.9
369.209	72.19
369.42	2.56
369.631	-7.68
369.842	78.33
370.053	55.81
370.264	23.04
370.474	16.9
370.685	2.56
370.896	29.18
371.107	64
371.317	6.66
371.528	10.75
371.739	78.33
371.95	37.38
372.16	82.43
372.371	27.14
372.582	90.62
372.792	94.72
373.003	45.57
373.214	43.52
373.424	43.52
373.635	25.09
373.846	72.19
374.056	33.28
374.267	-36.35
374.477	29.18
374.688	14.85
374.898	31.23
375.109	0.51
375.319	31.23
375.53	-28.16
375.74	96.77
375.951	-38.4
376.161	31.23
376.372	29.18
376.582	-30.21
376.793	33.28
377.003	47.62
377.214	55.81
377.424	70.14
377.635	78.33
377.845	25.09
378.055	6.66
378.266	6.66
378.476	55.81
378.686	18.94
378.897	96.77
379.107	39.42
379.317	86.53
379.528	25.09
379.738	74.24
379.948	-13.82
380.158	76.29
380.369	8.7
380.579	27.14
380.789	-24.06
380.999	133.63
381.21	74.24
381.42	57.86
381.63	20.99
381.84	16.9
382.05	29.18
382.261	33.28
382.471	55.81
382.681	49.66
382.891	127.49
383.101	119.29
383.311	72.19
383.521	74.24
383.731	51.71
383.941	135.68
384.151	82.43
384.361	31.23
384.571	86.53
384.781	96.77
384.991	74.24
385.201	98.81
385.411	107.01
385.621	12.8
385.831	20.99
386.041	55.81
386.251	31.23
386.461	29.18
386.671	61.95
386.881	2.56
387.091	76.29
387.301	64
387.511	-1.54
387.72	104.96
387.93	64
388.14	-50.69
388.35	16.9
388.56	74.24
388.769	-13.82
388.979	55.81
389.189	66.05
389.399	59.9
389.609	6.66
389.818	147.97
390.028	-3.58
390.238	74.24
390.447	47.62
390.657	51.71
390.867	84.48
391.076	66.05
391.286	98.81
391.496	68.09
391.705	4.61
391.915	59.9
392.125	59.9
392.334	53.76
392.544	102.91
392.753	76.29
392.963	82.43
393.172	74.24
393.382	20.99
393.591	39.42
393.801	51.71
394.01	107.01
394.22	115.2
394.429	45.57
394.639	61.95
394.848	98.81
395.058	12.8
395.267	41.47
395.477	139.77
395.686	104.96
395.895	88.57
396.105	133.63
396.314	64
396.524	53.76
396.733	8.7
396.942	102.91
397.152	78.33
397.361	141.82
397.57	70.14
397.78	35.33
397.989	66.05
398.198	55.81
398.407	18.94
398.617	98.81
398.826	43.52
399.035	76.29
399.244	84.48
399.453	184.83
399.663	68.09
399.872	104.96
400.081	133.63
400.29	156.16
400.499	45.57
400.708	98.81
400.917	137.73
401.127	39.42
401.336	107.01
401.545	100.86
401.754	82.43
401.963	145.92
402.172	94.72
402.381	68.09
402.59	59.9
402.799	147.97
403.008	98.81
403.217	164.35
403.426	123.39
403.635	109.05
403.844	121.34
404.053	68.09
404.262	111.1
404.471	139.77
404.68	109.05
404.888	59.9
405.097	176.64
405.306	121.34
405.515	109.05
405.724	66.05
405.933	82.43
406.142	86.53
406.35	147.97
406.559	152.06
406.768	166.4
406.977	168.45
407.185	123.39
407.394	143.87
407.603	102.91
407.812	90.62
408.02	154.11
408.229	152.06
408.438	131.58
408.646	152.06
408.855	201.21
409.064	279.04
409.272	147.97
409.481	213.5
409.69	180.73
409.898	164.35
410.107	254.46
410.315	246.27
410.524	215.55
410.733	176.64
410.941	295.42
411.15	231.93
411.358	297.47
411.567	285.18
411.775	227.84
411.984	350.71
412.192	385.53
412.401	289.28
412.609	322.04
412.818	307.71
413.026	305.66
413.234	307.71
413.443	313.85
413.651	358.91
413.86	371.19
414.068	463.35
414.276	461.3
414.485	395.77
414.693	432.63
414.901	455.16
415.11	455.16
415.318	451.07
415.526	487.93
415.734	498.17
415.943	588.28
416.151	504.31
416.359	479.74
416.567	498.17
416.776	653.81
416.984	600.57
417.192	653.81
417.4	616.95
417.608	641.53
417.817	664.05
418.025	670.2
418.233	698.87
418.441	741.88
418.649	735.73
418.857	860.66
419.065	893.43
419.273	801.27
419.481	854.51
419.689	907.76
419.897	915.95
420.105	1014.26
420.313	995.82
420.521	1026.54
420.729	1057.26
420.937	1073.65
421.145	1145.33
421.353	1186.29
421.561	1255.92
421.769	1266.16
421.977	1319.4
422.185	1235.44
422.393	1370.6
422.601	1505.77
422.809	1448.43
423.017	1475.05
423.224	1442.28
423.432	1520.1
423.64	1645.03
423.848	1735.14
424.056	1665.51
424.263	1769.96
424.471	1925.6
424.679	1937.89
424.887	1886.69
425.094	2019.81
425.302	1941.99
425.51	2073.06
425.718	2222.56
425.925	2236.89
426.133	2257.37
426.341	2318.81
426.548	2466.27
426.756	2427.35
426.964	2507.23
427.171	2542.04
427.379	2601.43
427.586	2800.09
427.794	2748.89
428.001	2935.25
428.209	3031.51
428.417	3121.62
428.624	3211.73
428.832	3250.64
429.039	3264.97
429.247	3244.49
429.454	3566.03
429.662	3811.78
429.869	3510.73
430.076	3654.09
430.284	3643.85
430.491	3901.89
430.699	4086.21
430.906	4196.8
431.114	4098.5
431.321	4190.66
431.528	4243.9
431.736	4696.5
431.943	4829.62
432.15	4733.37
432.358	4706.74
432.565	5130.67
432.772	4901.3
432.979	5380.53
433.187	5394.86
433.394	5388.72
433.601	5577.13
433.808	5767.59
434.016	5726.63
434.223	5884.33
434.43	6322.59
434.637	6212
434.844	6607.26
435.052	6783.38
435.259	6617.5
435.466	6633.88
435.673	6650.27
435.88	7047.57
436.087	7557.52
436.294	7612.81
436.501	7365.01
436.708	7448.97
436.915	7823.75
437.122	8096.13
437.329	8049.03
437.537	8255.87
437.743	8434.05
437.95	8249.73
438.157	8964.47
438.364	9161.08
438.571	9130.36
438.778	9165.17
438.985	9900.39
439.192	9734.51
439.399	9826.67
439.606	9591.15
439.813	10228.07
440.02	10604.89
440.227	10621.28
440.433	10457.44
440.64	10776.92
440.847	10791.26
441.054	11024.73
441.261	11917.64
441.467	11772.24
441.674	11999.56
441.881	12267.84
442.088	12273.99
442.294	11966.79
442.501	12435.78
442.708	12874.04
442.914	13203.77
443.121	13760.81
443.328	13523.25
443.534	14510.37
443.741	14108.97
443.948	13711.66
444.154	14901.53
444.361	14569.76
444.568	14776.61
444.774	14926.11
444.981	14973.21
445.187	15458.58
445.394	15913.23
445.6	15882.51
445.807	17383.67
446.013	16711.94
446.22	17092.86
446.426	17774.83
446.633	17662.19
446.839	18409.7
447.046	17873.14
447.252	18653.41
447.459	18729.19
447.665	18669.8
447.871	19355.86
448.078	20367.56
448.284	19329.24
448.491	19894.48
448.697	20713.67
448.903	21166.27
449.11	20902.08
449.316	20711.62
449.522	21205.18
449.728	21844.15
449.935	21858.48
450.141	21977.26
450.347	22282.41
450.553	21708.98
450.76	22016.18
450.966	22395.05
451.172	22298.8
451.378	23050.4
451.584	22595.75
451.791	23253.15
451.997	23031.97
452.203	23371.93
452.409	23394.46
452.615	23650.46
452.821	22124.72
453.027	22190.25
453.233	23322.78
453.44	22419.63
453.646	22470.83
453.852	22411.43
454.058	23382.17
454.264	22372.52
454.47	23015.58
454.676	22526.12
454.882	23038.11
455.088	20981.95
455.294	21639.35
455.5	21670.07
455.705	21975.22
455.911	21008.58
456.117	20627.65
456.323	20283.59
456.529	19333.34
456.735	20277.45
456.941	19538.13
457.147	19443.93
457.352	18563.3
457.558	18839.78
457.764	18747.62
457.97	18125.04
458.176	17940.72
458.381	17770.74
458.587	17203.45
458.793	16920.83
458.999	16167.18
459.204	17250.55
459.41	16765.18
459.616	15395.09
459.821	15589.65
460.027	15642.9
460.233	15085.85
460.438	14522.66
460.644	14799.13
460.85	14115.11
461.055	13699.37
461.261	13908.27
461.466	12882.24
461.672	12331.33
461.878	13431.09
462.083	12536.13
462.289	12292.42
462.494	12073.29
462.7	11518.29
462.905	11219.28
463.111	11598.16
463.316	11608.4
463.522	11325.78
463.727	11506
463.932	11202.9
464.138	11241.81
464.343	11303.25
464.549	10889.56
464.754	11448.66
464.959	11161.94
465.165	11178.33
465.37	10527.07
465.575	10332.51
465.781	10971.48
465.986	10811.74
466.191	10275.17
466.397	10084.71
466.602	9646.44
466.807	10309.99
467.012	10189.16
467.218	10099.05
467.423	9877.87
467.628	10004.84
467.833	10281.32
468.038	10019.18
468.244	9795.95
468.449	10352.99
468.654	9836.91
468.859	9879.91
469.064	9474.42
