Data from USB4F104151__93__11-45-45-026.txt Node

Date: Fri Mar 14 11:45:45 EDT 2025
User: louis
Spectrometer: USB4F10415
Trigger mode: 4
Integration Time (sec): 2.000000E-2
Scans to average: 1
Electric dark correction enabled: true
Nonlinearity correction enabled: false
Boxcar width: 0
XAxis mode: Wavelengths
Number of Pixels in Spectrum: 3648
>>>>>Begin Spectral Data<<<<<
178.204	-36.52
178.424	-36.52
178.644	-36.52
178.864	-81.58
179.084	-61.1
179.304	-5.8
179.524	18.77
179.744	-18.09
179.964	29.01
180.184	-5.8
180.404	-50.86
180.624	33.11
180.844	-13.99
181.064	-9.9
181.283	37.2
181.503	-30.38
181.723	16.73
181.943	-36.52
182.163	33.11
182.383	43.35
182.602	-48.81
182.822	8.53
183.042	49.49
183.262	-36.52
183.482	29.01
183.701	43.35
183.921	8.53
184.141	-18.09
184.361	65.88
184.58	37.2
184.8	24.92
185.02	-44.71
185.239	82.26
185.459	-5.8
185.679	45.4
185.898	-18.09
186.118	8.53
186.338	-36.52
186.557	53.59
186.777	-18.09
186.997	-7.85
187.216	8.53
187.436	63.83
187.655	-3.75
187.875	55.64
188.095	16.73
188.314	0.34
188.534	-20.14
188.753	14.68
188.973	82.26
189.192	45.4
189.412	2.39
189.631	59.73
189.851	6.49
190.07	-20.14
190.29	63.83
190.509	82.26
190.729	37.2
190.948	33.11
191.168	6.49
191.387	-3.75
191.607	47.44
191.826	39.25
192.045	-9.9
192.265	-44.71
192.484	-32.43
192.704	14.68
192.923	-22.19
193.142	16.73
193.362	47.44
193.581	39.25
193.8	74.07
194.02	69.97
194.239	-54.95
194.458	4.44
194.678	-7.85
194.897	-3.75
195.116	-1.71
195.335	35.16
195.555	-24.23
195.774	47.44
195.993	90.45
196.212	69.97
196.432	16.73
196.651	20.82
196.87	76.12
197.089	100.69
197.308	16.73
197.528	37.2
197.747	-26.28
197.966	-34.47
198.185	31.06
198.404	-22.19
198.623	-5.8
198.842	-9.9
199.062	65.88
199.281	12.63
199.5	80.21
199.719	20.82
199.938	-5.8
200.157	72.02
200.376	47.44
200.595	-5.8
200.814	76.12
201.033	72.02
201.252	20.82
201.471	141.65
201.69	110.93
201.909	0.34
202.128	63.83
202.347	26.96
202.566	20.82
202.785	55.64
203.004	-7.85
203.223	106.84
203.442	6.49
203.661	-5.8
203.879	63.83
204.098	14.68
204.317	-1.71
204.536	31.06
204.755	92.5
204.974	8.53
205.193	74.07
205.411	33.11
205.63	10.58
205.849	35.16
206.068	39.25
206.287	16.73
206.505	82.26
206.724	61.78
206.943	39.25
207.162	33.11
207.381	49.49
207.599	-32.43
207.818	53.59
208.037	22.87
208.255	14.68
208.474	-13.99
208.693	100.69
208.911	-9.9
209.13	-24.23
209.349	102.74
209.567	92.5
209.786	69.97
210.005	69.97
210.223	6.49
210.442	-69.29
210.661	43.35
210.879	31.06
211.098	67.92
211.316	-16.04
211.535	69.97
211.753	-3.75
211.972	41.3
212.191	12.63
212.409	-24.23
212.628	82.26
212.846	88.4
213.065	33.11
213.283	65.88
213.502	-65.19
213.72	-28.33
213.938	-9.9
214.157	76.12
214.375	57.68
214.594	47.44
214.812	43.35
215.031	-24.23
215.249	-28.33
215.467	-69.29
215.686	61.78
215.904	18.77
216.122	37.2
216.341	12.63
216.559	49.49
216.778	55.64
216.996	67.92
217.214	22.87
217.432	37.2
217.651	22.87
217.869	-18.09
218.087	-22.19
218.306	45.4
218.524	49.49
218.742	45.4
218.96	20.82
219.179	88.4
219.397	115.03
219.615	94.55
219.833	-5.8
220.051	74.07
220.27	47.44
220.488	4.44
220.706	67.92
220.924	45.4
221.142	-67.24
221.36	51.54
221.578	55.64
221.796	16.73
222.015	0.34
222.233	26.96
222.451	76.12
222.669	-3.75
222.887	110.93
223.105	20.82
223.323	12.63
223.541	20.82
223.759	-48.81
223.977	33.11
224.195	112.98
224.413	-20.14
224.631	39.25
224.849	4.44
225.067	102.74
225.285	-18.09
225.503	-32.43
225.721	-32.43
225.939	37.2
226.157	-44.71
226.375	106.84
226.592	12.63
226.81	59.73
227.028	35.16
227.246	67.92
227.464	-7.85
227.682	26.96
227.9	26.96
228.117	123.22
228.335	-1.71
228.553	6.49
228.771	16.73
228.989	55.64
229.206	29.01
229.424	53.59
229.642	22.87
229.86	14.68
230.077	65.88
230.295	0.34
230.513	14.68
230.731	0.34
230.948	-7.85
231.166	92.5
231.384	47.44
231.601	-97.96
231.819	24.92
232.037	45.4
232.254	-112.3
232.472	55.64
232.689	8.53
232.907	2.39
233.125	76.12
233.342	43.35
233.56	-48.81
233.777	-18.09
233.995	45.4
234.213	-1.71
234.43	55.64
234.648	12.63
234.865	74.07
235.083	110.93
235.3	35.16
235.518	22.87
235.735	92.5
235.953	53.59
236.17	65.88
236.388	72.02
236.605	-1.71
236.822	94.55
237.04	8.53
237.257	41.3
237.475	51.54
237.692	74.07
237.909	2.39
238.127	41.3
238.344	57.68
238.562	22.87
238.779	-7.85
238.996	-44.71
239.214	-5.8
239.431	39.25
239.648	41.3
239.865	35.16
240.083	-46.76
240.3	92.5
240.517	14.68
240.735	37.2
240.952	69.97
241.169	45.4
241.386	0.34
241.603	16.73
241.821	-16.04
242.038	-38.57
242.255	61.78
242.472	24.92
242.689	-7.85
242.907	55.64
243.124	-61.1
243.341	53.59
243.558	8.53
243.775	-22.19
243.992	-16.04
244.209	94.55
244.426	78.16
244.643	92.5
244.86	10.58
245.078	41.3
245.295	-30.38
245.512	14.68
245.729	24.92
245.946	14.68
246.163	76.12
246.38	41.3
246.597	12.63
246.814	63.83
247.031	39.25
247.248	26.96
247.464	16.73
247.681	22.87
247.898	69.97
248.115	53.59
248.332	-20.14
248.549	41.3
248.766	74.07
248.983	78.16
249.2	-24.23
249.417	45.4
249.633	57.68
249.85	-42.67
250.067	65.88
250.284	35.16
250.501	41.3
250.717	53.59
250.934	31.06
251.151	20.82
251.368	41.3
251.585	49.49
251.801	-7.85
252.018	20.82
252.235	96.6
252.451	16.73
252.668	-26.28
252.885	-34.47
253.102	12.63
253.318	29.01
253.535	61.78
253.752	-28.33
253.968	-44.71
254.185	14.68
254.401	20.82
254.618	12.63
254.835	-63.15
255.051	45.4
255.268	31.06
255.484	78.16
255.701	53.59
255.917	8.53
256.134	55.64
256.351	35.16
256.567	65.88
256.784	100.69
257	33.11
257.217	100.69
257.433	45.4
257.65	-7.85
257.866	78.16
258.082	-22.19
258.299	14.68
258.515	26.96
258.732	20.82
258.948	41.3
259.165	-1.71
259.381	12.63
259.597	35.16
259.814	10.58
260.03	-18.09
260.246	69.97
260.463	55.64
260.679	86.36
260.895	35.16
261.112	29.01
261.328	-3.75
261.544	24.92
261.761	90.45
261.977	78.16
262.193	-5.8
262.409	74.07
262.626	-1.71
262.842	39.25
263.058	6.49
263.274	65.88
263.49	12.63
263.707	65.88
263.923	-22.19
264.139	29.01
264.355	29.01
264.571	14.68
264.787	4.44
265.004	39.25
265.22	14.68
265.436	39.25
265.652	12.63
265.868	53.59
266.084	-42.67
266.3	-22.19
266.516	-5.8
266.732	108.88
266.948	-3.75
267.164	14.68
267.38	63.83
267.596	-40.62
267.812	67.92
268.028	4.44
268.244	4.44
268.46	-36.52
268.676	43.35
268.892	55.64
269.108	-16.04
269.324	14.68
269.54	-42.67
269.756	37.2
269.972	29.01
270.188	-36.52
270.403	-46.76
270.619	-1.71
270.835	98.64
271.051	8.53
271.267	4.44
271.483	20.82
271.698	18.77
271.914	125.27
272.13	96.6
272.346	-38.57
272.562	63.83
272.777	-1.71
272.993	14.68
273.209	20.82
273.425	-20.14
273.64	33.11
273.856	-3.75
274.072	-18.09
274.287	16.73
274.503	-26.28
274.719	104.79
274.934	-50.86
275.15	29.01
275.366	43.35
275.581	92.5
275.797	12.63
276.012	10.58
276.228	43.35
276.444	49.49
276.659	47.44
276.875	16.73
277.09	63.83
277.306	80.21
277.521	80.21
277.737	76.12
277.952	33.11
278.168	31.06
278.383	45.4
278.599	8.53
278.814	0.34
279.03	41.3
279.245	41.3
279.461	84.31
279.676	10.58
279.892	-18.09
280.107	-16.04
280.322	45.4
280.538	2.39
280.753	53.59
280.969	65.88
281.184	10.58
281.399	0.34
281.615	-3.75
281.83	35.16
282.045	-89.77
282.26	47.44
282.476	51.54
282.691	86.36
282.906	39.25
283.122	33.11
283.337	-1.71
283.552	-38.57
283.767	55.64
283.983	29.01
284.198	-40.62
284.413	-20.14
284.628	-36.52
284.843	-5.8
285.058	82.26
285.274	84.31
285.489	16.73
285.704	-1.71
285.919	41.3
286.134	-1.71
286.349	53.59
286.564	-11.95
286.779	51.54
286.995	22.87
287.21	0.34
287.425	61.78
287.64	-34.47
287.855	51.54
288.07	-7.85
288.285	33.11
288.5	76.12
288.715	0.34
288.93	37.2
289.145	74.07
289.36	26.96
289.575	20.82
289.79	82.26
290.004	-42.67
290.219	121.17
290.434	-9.9
290.649	-18.09
290.864	22.87
291.079	-7.85
291.294	61.78
291.509	-7.85
291.724	2.39
291.938	127.32
292.153	43.35
292.368	35.16
292.583	-36.52
292.798	8.53
293.012	12.63
293.227	43.35
293.442	47.44
293.657	47.44
293.871	102.74
294.086	49.49
294.301	26.96
294.516	76.12
294.73	94.55
294.945	47.44
295.16	53.59
295.374	6.49
295.589	92.5
295.804	31.06
296.018	74.07
296.233	43.35
296.447	33.11
296.662	-50.86
296.877	14.68
297.091	123.22
297.306	76.12
297.52	-7.85
297.735	-28.33
297.949	-59.05
298.164	-22.19
298.378	18.77
298.593	53.59
298.807	-13.99
299.022	65.88
299.236	63.83
299.451	4.44
299.665	53.59
299.88	20.82
300.094	8.53
300.309	-20.14
300.523	31.06
300.737	43.35
300.952	72.02
301.166	33.11
301.381	20.82
301.595	-59.05
301.809	-16.04
302.024	112.98
302.238	-65.19
302.452	69.97
302.667	74.07
302.881	55.64
303.095	-3.75
303.309	51.54
303.524	41.3
303.738	47.44
303.952	18.77
304.166	26.96
304.381	4.44
304.595	67.92
304.809	-48.81
305.023	37.2
305.237	55.64
305.452	22.87
305.666	22.87
305.88	45.4
306.094	33.11
306.308	33.11
306.522	72.02
306.736	82.26
306.95	57.68
307.164	29.01
307.379	41.3
307.593	92.5
307.807	16.73
308.021	43.35
308.235	119.12
308.449	-50.86
308.663	41.3
308.877	92.5
309.091	49.49
309.305	84.31
309.519	26.96
309.733	59.73
309.947	26.96
310.161	82.26
310.374	72.02
310.588	47.44
310.802	26.96
311.016	18.77
311.23	-44.71
311.444	14.68
311.658	76.12
311.872	0.34
312.085	35.16
312.299	59.73
312.513	18.77
312.727	31.06
312.941	10.58
313.154	74.07
313.368	41.3
313.582	37.2
313.796	24.92
314.009	0.34
314.223	0.34
314.437	39.25
314.651	22.87
314.864	26.96
315.078	2.39
315.292	-9.9
315.505	12.63
315.719	-36.52
315.933	-1.71
316.146	12.63
316.36	63.83
316.573	31.06
316.787	33.11
317.001	-34.47
317.214	125.27
317.428	39.25
317.641	61.78
317.855	72.02
318.068	45.4
318.282	8.53
318.495	57.68
318.709	29.01
318.922	-28.33
319.136	47.44
319.349	0.34
319.563	26.96
319.776	-16.04
319.99	18.77
320.203	-7.85
320.417	69.97
320.63	69.97
320.843	80.21
321.057	-52.91
321.27	-36.52
321.483	39.25
321.697	90.45
321.91	45.4
322.124	53.59
322.337	-3.75
322.55	6.49
322.763	-48.81
322.977	47.44
323.19	-20.14
323.403	20.82
323.617	18.77
323.83	26.96
324.043	2.39
324.256	123.22
324.469	-26.28
324.683	35.16
324.896	-1.71
325.109	-16.04
325.322	98.64
325.535	86.36
325.748	-44.71
325.962	18.77
326.175	22.87
326.388	53.59
326.601	90.45
326.814	-63.15
327.027	-9.9
327.24	29.01
327.453	-44.71
327.666	45.4
327.879	53.59
328.092	45.4
328.305	-11.95
328.518	100.69
328.731	-9.9
328.944	24.92
329.157	33.11
329.37	74.07
329.583	115.03
329.796	22.87
330.009	45.4
330.222	110.93
330.435	6.49
330.648	26.96
330.861	-32.43
331.073	33.11
331.286	82.26
331.499	57.68
331.712	61.78
331.925	0.34
332.138	12.63
332.35	35.16
332.563	24.92
332.776	47.44
332.989	49.49
333.202	29.01
333.414	55.64
333.627	-1.71
333.84	-38.57
334.053	-13.99
334.265	74.07
334.478	39.25
334.691	-3.75
334.903	61.78
335.116	4.44
335.329	49.49
335.541	-32.43
335.754	8.53
335.966	-24.23
336.179	-9.9
336.392	14.68
336.604	-38.57
336.817	6.49
337.029	100.69
337.242	-13.99
337.454	43.35
337.667	74.07
337.88	98.64
338.092	59.73
338.305	26.96
338.517	51.54
338.729	47.44
338.942	-36.52
339.154	106.84
339.367	-42.67
339.579	72.02
339.792	-1.71
340.004	29.01
340.217	94.55
340.429	33.11
340.641	45.4
340.854	35.16
341.066	-20.14
341.278	67.92
341.491	119.12
341.703	45.4
341.915	-5.8
342.128	33.11
342.34	-38.57
342.552	0.34
342.764	63.83
342.977	80.21
343.189	37.2
343.401	78.16
343.613	67.92
343.826	63.83
344.038	14.68
344.25	-11.95
344.462	10.58
344.674	39.25
344.886	-3.75
345.099	22.87
345.311	63.83
345.523	61.78
345.735	2.39
345.947	41.3
346.159	82.26
346.371	12.63
346.583	-59.05
346.795	96.6
347.007	26.96
347.219	115.03
347.431	-9.9
347.643	57.68
347.855	-22.19
348.067	67.92
348.279	92.5
348.491	69.97
348.703	12.63
348.915	4.44
349.127	-69.29
349.339	4.44
349.551	16.73
349.763	22.87
349.975	6.49
350.187	76.12
350.399	84.31
350.61	51.54
350.822	-36.52
351.034	63.83
351.246	10.58
351.458	26.96
351.669	0.34
351.881	10.58
352.093	61.78
352.305	72.02
352.517	92.5
352.728	26.96
352.94	-40.62
353.152	49.49
353.363	18.77
353.575	100.69
353.787	74.07
353.999	80.21
354.21	-22.19
354.422	26.96
354.633	2.39
354.845	63.83
355.057	-11.95
355.268	-3.75
355.48	65.88
355.692	47.44
355.903	94.55
356.115	14.68
356.326	-28.33
356.538	127.32
356.749	104.79
356.961	37.2
357.172	6.49
357.384	16.73
357.595	45.4
357.807	29.01
358.018	33.11
358.23	37.2
358.441	74.07
358.653	18.77
358.864	-20.14
359.075	119.12
359.287	86.36
359.498	61.78
359.709	12.63
359.921	10.58
360.132	2.39
360.344	108.88
360.555	65.88
360.766	39.25
360.977	43.35
361.189	74.07
361.4	26.96
361.611	47.44
361.823	74.07
362.034	45.4
362.245	18.77
362.456	8.53
362.667	33.11
362.879	31.06
363.09	74.07
363.301	61.78
363.512	6.49
363.723	26.96
363.935	39.25
364.146	24.92
364.357	-48.81
364.568	121.17
364.779	-13.99
364.99	102.74
365.201	39.25
365.412	53.59
365.623	0.34
365.834	69.97
366.045	10.58
366.256	41.3
366.467	76.12
366.678	80.21
366.889	106.84
367.1	22.87
367.311	-7.85
367.522	57.68
367.733	74.07
367.944	18.77
368.155	26.96
368.366	108.88
368.577	35.16
368.788	37.2
368.999	2.39
369.209	112.98
369.42	51.54
369.631	33.11
369.842	61.78
370.053	69.97
370.264	78.16
370.474	43.35
370.685	37.2
370.896	53.59
371.107	31.06
371.317	0.34
371.528	76.12
371.739	100.69
371.95	90.45
372.16	-54.95
372.371	-22.19
372.582	37.2
372.792	20.82
373.003	18.77
373.214	63.83
373.424	86.36
373.635	33.11
373.846	147.8
374.056	18.77
374.267	-3.75
374.477	4.44
374.688	-22.19
374.898	76.12
375.109	74.07
375.319	-9.9
375.53	39.25
375.74	63.83
375.951	61.78
376.161	53.59
376.372	45.4
376.582	-32.43
376.793	76.12
377.003	18.77
377.214	-40.62
377.424	67.92
377.635	14.68
377.845	20.82
378.055	0.34
378.266	47.44
378.476	108.88
378.686	-9.9
378.897	63.83
379.107	-24.23
379.317	39.25
379.528	-7.85
379.738	90.45
379.948	31.06
380.158	84.31
380.369	31.06
380.579	49.49
380.789	72.02
380.999	57.68
381.21	72.02
381.42	98.64
381.63	51.54
381.84	57.68
382.05	112.98
382.261	47.44
382.471	92.5
382.681	33.11
382.891	4.44
383.101	65.88
383.311	-1.71
383.521	-7.85
383.731	57.68
383.941	49.49
384.151	47.44
384.361	-28.33
384.571	45.4
384.781	92.5
384.991	41.3
385.201	45.4
385.411	53.59
385.621	-9.9
385.831	49.49
386.041	6.49
386.251	88.4
386.461	-18.09
386.671	74.07
386.881	57.68
387.091	31.06
387.301	45.4
387.511	35.16
387.72	78.16
387.93	94.55
388.14	43.35
388.35	33.11
388.56	55.64
388.769	-20.14
388.979	90.45
389.189	84.31
389.399	67.92
389.609	51.54
389.818	24.92
390.028	53.59
390.238	20.82
390.447	41.3
390.657	47.44
390.867	-26.28
391.076	57.68
391.286	57.68
391.496	49.49
391.705	-5.8
391.915	117.08
392.125	45.4
392.334	98.64
392.544	110.93
392.753	72.02
392.963	29.01
393.172	29.01
393.382	26.96
393.591	65.88
393.801	22.87
394.01	47.44
394.22	72.02
394.429	-40.62
394.639	12.63
394.848	86.36
395.058	63.83
395.267	49.49
395.477	112.98
395.686	67.92
395.895	88.4
396.105	41.3
396.314	49.49
396.524	-13.99
396.733	102.74
396.942	90.45
397.152	106.84
397.361	102.74
397.57	49.49
397.78	39.25
397.989	47.44
398.198	72.02
398.407	53.59
398.617	49.49
398.826	125.27
399.035	92.5
399.244	37.2
399.453	72.02
399.663	2.39
399.872	102.74
400.081	119.12
400.29	12.63
400.499	78.16
400.708	145.75
400.917	90.45
401.127	78.16
401.336	61.78
401.545	100.69
401.754	39.25
401.963	37.2
402.172	45.4
402.381	59.73
402.59	90.45
402.799	65.88
403.008	135.51
403.217	123.22
403.426	94.55
403.635	102.74
403.844	18.77
404.053	102.74
404.262	100.69
404.471	102.74
404.68	72.02
404.888	110.93
405.097	117.08
405.306	176.47
405.515	90.45
405.724	129.36
405.933	45.4
406.142	37.2
406.35	203.09
406.559	90.45
406.768	63.83
406.977	174.42
407.185	139.6
407.394	180.56
407.603	160.08
407.812	162.13
408.02	174.42
408.229	119.12
408.438	131.41
408.646	61.78
408.855	166.23
409.064	119.12
409.272	176.47
409.481	203.09
409.69	194.9
409.898	213.33
410.107	223.57
410.315	225.62
410.524	145.75
410.733	250.19
410.941	262.48
411.15	188.75
411.358	293.2
411.567	272.72
411.775	248.15
411.984	317.78
412.192	178.51
412.401	346.45
412.609	239.95
412.818	317.78
413.026	325.97
413.234	323.92
413.443	323.92
413.651	383.31
413.86	387.41
414.068	381.26
414.276	467.28
414.485	381.26
414.693	450.89
414.901	502.09
415.11	500.05
415.318	407.89
415.526	524.62
415.734	450.89
415.943	549.2
416.151	604.49
416.359	536.91
416.567	594.25
416.776	594.25
416.984	614.73
417.192	698.7
417.4	719.18
417.608	557.39
417.817	610.64
418.025	778.57
418.233	731.47
418.441	753.99
418.649	737.61
418.857	772.43
419.065	846.15
419.273	819.53
419.481	831.82
419.689	962.89
419.897	973.13
420.105	995.65
420.313	977.22
420.521	932.17
420.729	1053
420.937	1075.52
421.145	1159.49
421.353	1130.82
421.561	1200.45
421.769	1212.74
421.977	1257.79
422.185	1253.7
422.393	1345.86
422.601	1462.59
422.809	1403.2
423.017	1276.23
423.224	1505.6
423.432	1569.09
423.64	1536.32
423.848	1716.54
424.056	1698.11
424.263	1816.89
424.471	1737.02
424.679	1728.83
424.887	1929.53
425.094	2009.4
425.302	1982.78
425.51	2183.48
425.718	2191.67
425.925	2113.85
426.133	2263.35
426.341	2418.99
426.548	2439.47
426.756	2496.82
426.964	2421.04
427.171	2646.32
427.379	2638.13
427.586	2728.24
427.794	2853.16
428.001	2916.65
428.209	3105.06
428.417	3090.73
428.624	3332.39
428.832	3217.7
429.039	3248.42
429.247	3256.61
429.454	3520.8
429.662	3838.23
429.869	3522.85
430.076	3889.43
430.284	3721.5
430.491	3930.39
430.699	4032.79
430.906	4170.01
431.114	4092.18
431.321	4182.29
431.528	4368.66
431.736	4690.19
431.943	4788.49
432.15	4712.72
432.358	4901.13
432.565	5056.78
432.772	5093.64
432.979	5277.96
433.187	5269.76
433.394	5183.75
433.601	5812.48
433.808	5656.83
434.016	5677.31
434.223	6000.89
434.43	6254.84
434.637	6107.38
434.844	6609.14
435.052	6578.42
435.259	6613.23
435.466	6824.17
435.673	6707.44
435.88	6961.39
436.087	7461.09
436.294	7651.55
436.501	7354.6
436.708	7567.59
436.915	7708.9
437.122	7946.46
437.329	7950.56
437.537	8302.81
437.743	8300.76
437.95	8419.54
438.157	8822.99
438.364	8890.57
438.571	9015.5
438.778	8941.77
438.985	9896.13
439.192	9584.84
439.399	9877.69
439.606	9674.95
439.813	10277.05
440.02	10436.79
440.227	10623.16
440.433	10502.33
440.64	10942.64
440.847	10860.72
441.054	11247.79
441.261	11649.19
441.467	11587.75
441.674	11917.47
441.881	12241.05
442.088	12259.48
442.294	12437.66
442.501	12458.14
442.708	12767.38
442.914	13404.3
443.121	13744.26
443.328	13551.75
443.534	14233.72
443.741	13998.21
443.948	13789.31
444.154	14878.83
444.361	14821.49
444.568	14700.66
444.774	14772.34
444.981	14909.55
445.187	15364.2
445.394	16029.79
445.6	15927.39
445.807	17596.49
446.013	16691.29
446.22	17262.67
446.426	17668.17
446.633	17836.1
446.839	18481.21
447.046	17555.53
447.252	18694.2
447.459	18421.82
447.665	18749.5
447.871	19300.4
448.078	20351.01
448.284	19195.95
448.491	19896.36
448.697	20676.63
448.903	20992.02
449.11	20918.29
449.316	20557.85
449.522	21080.08
449.728	21522.44
449.935	21702.67
450.141	21727.24
450.347	22116.36
450.553	21622.8
450.76	22163.46
450.966	22556.67
451.172	22267.91
451.378	22964.21
451.584	22272
451.791	22953.98
451.997	23070.71
452.203	23218.16
452.409	23345.14
452.615	23199.73
452.821	22216.71
453.027	22056.96
453.233	23400.43
453.44	22554.62
453.646	22783.99
453.852	22581.24
454.058	23328.75
454.264	22200.32
454.47	22743.03
454.676	22190.08
454.882	23048.18
455.088	20838.42
455.294	21366.8
455.5	21669.9
455.705	21878.79
455.911	21192.72
456.117	20727.83
456.323	20133.92
456.529	19497
456.735	20111.39
456.941	19806.25
457.147	19310.64
457.352	18681.91
457.558	18522.17
457.764	18716.73
457.97	18165.82
458.176	17721.41
458.381	17821.77
458.587	16896.08
458.793	16998.48
458.999	16021.6
459.204	17190.99
459.41	16648.28
459.616	15667.3
459.821	15978.59
460.027	15356.01
460.233	15452.27
460.438	14411.9
460.644	14415.99
460.85	13885.57
461.055	13688.96
461.261	13787.27
461.466	12669.08
461.672	12458.14
461.878	13127.82
462.083	12406.94
462.289	12054.69
462.494	12130.46
462.7	11567.27
462.905	11202.73
463.111	11423.91
463.316	11651.24
463.522	11333.8
463.727	11407.53
463.932	11301.03
464.138	11137.2
464.343	11053.23
464.549	10965.17
464.754	11204.78
464.959	11208.87
465.165	11100.33
465.37	10543.28
465.575	10549.43
465.781	10903.73
465.986	10963.12
466.191	10399.93
466.397	10307.77
466.602	9654.47
466.807	10070.2
467.012	9973.95
467.218	10199.23
467.423	9898.17
467.628	9951.42
467.833	10412.21
468.038	9941.18
468.244	9652.42
468.449	9988.28
468.654	9752.77
