Data from USB4F104151__3__10-14-12-730.txt Node

Date: Wed Mar 12 10:14:12 EDT 2025
User: louis
Spectrometer: USB4F10415
Trigger mode: 4
Integration Time (sec): 7.000000E-3
Scans to average: 1
Electric dark correction enabled: true
Nonlinearity correction enabled: false
Boxcar width: 0
XAxis mode: Wavelengths
Number of Pixels in Spectrum: 3648
>>>>>Begin Spectral Data<<<<<
178.204	-37.72
178.424	-37.72
178.644	-37.72
178.864	-29.52
179.084	-76.63
179.304	64.68
179.524	7.34
179.744	23.72
179.964	15.53
180.184	3.24
180.404	-9.05
180.624	7.34
180.844	-15.19
181.064	9.39
181.283	-64.34
181.503	-25.43
181.723	-17.24
181.943	23.72
182.163	3.24
182.383	-13.14
182.602	15.53
182.822	-19.29
183.042	19.63
183.262	-0.85
183.482	56.49
183.701	-35.67
183.921	89.26
184.141	79.02
184.361	-41.81
184.58	13.48
184.8	-27.48
185.02	19.63
185.239	-15.19
185.459	-0.85
185.679	1.19
185.898	19.63
186.118	-0.85
186.338	74.92
186.557	-11.09
186.777	-0.85
186.997	17.58
187.216	-0.85
187.436	36.01
187.655	-11.09
187.875	-4.95
188.095	48.3
188.314	-27.48
188.534	-54.1
188.753	-64.34
188.973	-37.72
189.192	60.59
189.412	27.82
189.631	60.59
189.851	-90.96
190.07	15.53
190.29	7.34
190.509	52.39
190.729	46.25
190.948	56.49
191.168	-39.76
191.387	11.43
191.607	-70.48
191.826	21.67
192.045	-25.43
192.265	40.11
192.484	31.91
192.704	-17.24
192.923	-17.24
193.142	36.01
193.362	-0.85
193.581	7.34
193.8	-25.43
194.02	48.3
194.239	3.24
194.458	29.87
194.678	-9.05
194.897	23.72
195.116	21.67
195.335	44.2
195.555	17.58
195.774	17.58
195.993	64.68
196.212	58.54
196.432	62.63
196.651	44.2
196.87	9.39
197.089	-33.62
197.308	76.97
197.528	60.59
197.747	70.83
197.966	3.24
198.185	33.96
198.404	-0.85
198.623	-17.24
198.842	9.39
199.062	-23.38
199.281	79.02
199.5	44.2
199.719	56.49
199.938	7.34
200.157	27.82
200.376	-9.05
200.595	-19.29
200.814	29.87
201.033	-27.48
201.252	54.44
201.471	64.68
201.69	76.97
201.909	85.16
202.128	-4.95
202.347	64.68
202.566	85.16
202.785	36.01
203.004	-50
203.223	5.29
203.442	79.02
203.661	-45.91
203.879	-25.43
204.098	-4.95
204.317	-74.58
204.536	-21.33
204.755	7.34
204.974	25.77
205.193	54.44
205.411	-47.96
205.63	-13.14
205.849	-0.85
206.068	40.11
206.287	40.11
206.505	-54.1
206.724	15.53
206.943	-9.05
207.162	33.96
207.381	11.43
207.599	40.11
207.818	48.3
208.037	89.26
208.255	62.63
208.474	23.72
208.693	-25.43
208.911	48.3
209.13	-4.95
209.349	97.45
209.567	-50
209.786	38.06
210.005	7.34
210.223	11.43
210.442	-17.24
210.661	5.29
210.879	36.01
211.098	44.2
211.316	23.72
211.535	25.77
211.753	17.58
211.972	36.01
212.191	-9.05
212.409	19.63
212.628	89.26
212.846	23.72
213.065	48.3
213.283	5.29
213.502	11.43
213.72	-17.24
213.938	46.25
214.157	-39.76
214.375	-11.09
214.594	27.82
214.812	60.59
215.031	17.58
215.249	-21.33
215.467	-21.33
215.686	-17.24
215.904	40.11
216.122	-0.85
216.341	31.91
216.559	79.02
216.778	-11.09
216.996	50.35
217.214	7.34
217.432	25.77
217.651	-43.86
217.869	46.25
218.087	31.91
218.306	-4.95
218.524	48.3
218.742	-21.33
218.96	56.49
219.179	7.34
219.397	-4.95
219.615	13.48
219.833	62.63
220.051	11.43
220.27	15.53
220.488	40.11
220.706	74.92
220.924	-37.72
221.142	50.35
221.36	99.5
221.578	44.2
221.796	-11.09
222.015	31.91
222.233	44.2
222.451	38.06
222.669	56.49
222.887	19.63
223.105	85.16
223.323	48.3
223.541	66.73
223.759	-47.96
223.977	21.67
224.195	64.68
224.413	1.19
224.631	44.2
224.849	46.25
225.067	48.3
225.285	-39.76
225.503	44.2
225.721	91.31
225.939	21.67
226.157	-33.62
226.375	-0.85
226.592	-29.52
226.81	64.68
227.028	44.2
227.246	-47.96
227.464	64.68
227.682	42.15
227.9	-0.85
228.117	54.44
228.335	81.07
228.553	5.29
228.771	29.87
228.989	36.01
229.206	119.98
229.424	79.02
229.642	38.06
229.86	7.34
230.077	60.59
230.295	72.87
230.513	58.54
230.731	29.87
230.948	36.01
231.166	7.34
231.384	11.43
231.601	36.01
231.819	19.63
232.037	33.96
232.254	-27.48
232.472	-0.85
232.689	-15.19
232.907	62.63
233.125	27.82
233.342	15.53
233.56	5.29
233.777	83.11
233.995	72.87
234.213	60.59
234.43	-25.43
234.648	31.91
234.865	-25.43
235.083	11.43
235.3	46.25
235.518	64.68
235.735	-21.33
235.953	15.53
236.17	46.25
236.388	115.88
236.605	13.48
236.822	70.83
237.04	72.87
237.257	-21.33
237.475	79.02
237.692	46.25
237.909	15.53
238.127	21.67
238.344	-35.67
238.562	48.3
238.779	1.19
238.996	5.29
239.214	-25.43
239.431	85.16
239.648	-23.38
239.865	17.58
240.083	3.24
240.3	79.02
240.517	-58.2
240.735	33.96
240.952	-25.43
241.169	-64.34
241.386	48.3
241.603	36.01
241.821	19.63
242.038	-11.09
242.255	68.78
242.472	36.01
242.689	-9.05
242.907	79.02
243.124	-7
243.341	23.72
243.558	66.73
243.775	56.49
243.992	-37.72
244.209	56.49
244.426	50.35
244.643	9.39
244.86	-23.38
245.078	64.68
245.295	-45.91
245.512	19.63
245.729	-50
245.946	56.49
246.163	15.53
246.38	-27.48
246.597	-23.38
246.814	68.78
247.031	64.68
247.248	40.11
247.464	48.3
247.681	-17.24
247.898	-41.81
248.115	-21.33
248.332	3.24
248.549	19.63
248.766	36.01
248.983	101.55
249.2	23.72
249.417	-2.9
249.633	40.11
249.85	66.73
250.067	27.82
250.284	48.3
250.501	7.34
250.717	-9.05
250.934	-41.81
251.151	42.15
251.368	38.06
251.585	64.68
251.801	85.16
252.018	52.39
252.235	-4.95
252.451	62.63
252.668	101.55
252.885	44.2
253.102	46.25
253.318	27.82
253.535	-50
253.752	62.63
253.968	31.91
254.185	56.49
254.401	97.45
254.618	72.87
254.835	-25.43
255.051	85.16
255.268	-41.81
255.484	7.34
255.701	15.53
255.917	105.64
256.134	46.25
256.351	76.97
256.567	17.58
256.784	5.29
257	-2.9
257.217	-0.85
257.433	15.53
257.65	40.11
257.866	-50
258.082	15.53
258.299	52.39
258.515	-4.95
258.732	-4.95
258.948	-37.72
259.165	-2.9
259.381	-7
259.597	31.91
259.814	3.24
260.03	52.39
260.246	81.07
260.463	-11.09
260.679	-7
260.895	-29.52
261.112	7.34
261.328	23.72
261.544	89.26
261.761	31.91
261.977	76.97
262.193	7.34
262.409	56.49
262.626	5.29
262.842	-21.33
263.058	15.53
263.274	-29.52
263.49	-62.29
263.707	56.49
263.923	7.34
264.139	-66.39
264.355	33.96
264.571	-43.86
264.787	89.26
265.004	95.4
265.22	-2.9
265.436	31.91
265.652	27.82
265.868	13.48
266.084	40.11
266.3	27.82
266.516	9.39
266.732	13.48
266.948	-2.9
267.164	111.78
267.38	-17.24
267.596	46.25
267.812	46.25
268.028	58.54
268.244	40.11
268.46	76.97
268.676	48.3
268.892	99.5
269.108	23.72
269.324	38.06
269.54	17.58
269.756	46.25
269.972	11.43
270.188	-25.43
270.403	23.72
270.619	101.55
270.835	79.02
271.051	-2.9
271.267	42.15
271.483	42.15
271.698	-4.95
271.914	21.67
272.13	79.02
272.346	19.63
272.562	44.2
272.777	11.43
272.993	33.96
273.209	-29.52
273.425	109.74
273.64	97.45
273.856	-9.05
274.072	-27.48
274.287	23.72
274.503	40.11
274.719	46.25
274.934	-4.95
275.15	-27.48
275.366	23.72
275.581	89.26
275.797	-25.43
276.012	15.53
276.228	76.97
276.444	-41.81
276.659	72.87
276.875	-35.67
277.09	50.35
277.306	-0.85
277.521	40.11
277.737	-7
277.952	-27.48
278.168	76.97
278.383	44.2
278.599	5.29
278.814	76.97
279.03	13.48
279.245	76.97
279.461	64.68
279.676	23.72
279.892	-21.33
280.107	-13.14
280.322	-27.48
280.538	-2.9
280.753	13.48
280.969	31.91
281.184	11.43
281.399	17.58
281.615	122.02
281.83	15.53
282.045	15.53
282.26	23.72
282.476	-2.9
282.691	42.15
282.906	66.73
283.122	76.97
283.337	29.87
283.552	52.39
283.767	-27.48
283.983	60.59
284.198	56.49
284.413	64.68
284.628	-0.85
284.843	19.63
285.058	-0.85
285.274	93.35
285.489	9.39
285.704	-11.09
285.919	5.29
286.134	13.48
286.349	46.25
286.564	89.26
286.779	-4.95
286.995	46.25
287.21	-35.67
287.425	17.58
287.64	-17.24
287.855	19.63
288.07	40.11
288.285	64.68
288.5	13.48
288.715	27.82
288.93	-27.48
289.145	13.48
289.36	-45.91
289.575	27.82
289.79	76.97
290.004	38.06
290.219	17.58
290.434	85.16
290.649	-23.38
290.864	52.39
291.079	44.2
291.294	-41.81
291.509	13.48
291.724	31.91
291.938	-45.91
292.153	-64.34
292.368	48.3
292.583	-13.14
292.798	23.72
293.012	23.72
293.227	91.31
293.442	31.91
293.657	-25.43
293.871	19.63
294.086	38.06
294.301	13.48
294.516	-21.33
294.73	99.5
294.945	56.49
295.16	21.67
295.374	13.48
295.589	38.06
295.804	15.53
296.018	36.01
296.233	72.87
296.447	-13.14
296.662	113.83
296.877	-0.85
297.091	64.68
297.306	119.98
297.52	-4.95
297.735	62.63
297.949	13.48
298.164	58.54
298.378	-11.09
298.593	29.87
298.807	48.3
299.022	40.11
299.236	13.48
299.451	-11.09
299.665	79.02
299.88	48.3
300.094	74.92
300.309	33.96
300.523	-17.24
300.737	-2.9
300.952	130.22
301.166	15.53
301.381	36.01
301.595	29.87
301.809	46.25
302.024	60.59
302.238	62.63
302.452	25.77
302.667	31.91
302.881	48.3
303.095	23.72
303.309	-19.29
303.524	79.02
303.738	3.24
303.952	-17.24
304.166	15.53
304.381	23.72
304.595	95.4
304.809	66.73
305.023	46.25
305.237	62.63
305.452	19.63
305.666	91.31
305.88	40.11
306.094	46.25
306.308	56.49
306.522	33.96
306.736	31.91
306.95	7.34
307.164	29.87
307.379	70.83
307.593	64.68
307.807	48.3
308.021	13.48
308.235	62.63
308.449	64.68
308.663	-43.86
308.877	-33.62
309.091	13.48
309.305	31.91
309.519	-0.85
309.733	74.92
309.947	42.15
310.161	36.01
310.374	48.3
310.588	1.19
310.802	7.34
311.016	81.07
311.23	19.63
311.444	23.72
311.658	23.72
311.872	13.48
312.085	52.39
312.299	113.83
312.513	5.29
312.727	74.92
312.941	50.35
313.154	74.92
313.368	-13.14
313.582	-25.43
313.796	9.39
314.009	70.83
314.223	7.34
314.437	-47.96
314.651	23.72
314.864	21.67
315.078	33.96
315.292	7.34
315.505	97.45
315.719	44.2
315.933	29.87
316.146	-37.72
316.36	54.44
316.573	105.64
316.787	46.25
317.001	23.72
317.214	64.68
317.428	60.59
317.641	-37.72
317.855	11.43
318.068	-0.85
318.282	3.24
318.495	68.78
318.709	38.06
318.922	-23.38
319.136	50.35
319.349	64.68
319.563	52.39
319.776	31.91
319.99	48.3
320.203	36.01
320.417	3.24
320.63	70.83
320.843	-4.95
321.057	-21.33
321.27	31.91
321.483	13.48
321.697	-25.43
321.91	11.43
322.124	17.58
322.337	33.96
322.55	40.11
322.763	48.3
322.977	113.83
323.19	74.92
323.403	7.34
323.617	56.49
323.83	89.26
324.043	13.48
324.256	50.35
324.469	40.11
324.683	19.63
324.896	-4.95
325.109	89.26
325.322	11.43
325.535	27.82
325.748	50.35
325.962	74.92
326.175	19.63
326.388	74.92
326.601	-4.95
326.814	107.69
327.027	9.39
327.24	33.96
327.453	76.97
327.666	36.01
327.879	-27.48
328.092	62.63
328.305	64.68
328.518	83.11
328.731	-17.24
328.944	91.31
329.157	97.45
329.37	7.34
329.583	13.48
329.796	17.58
330.009	3.24
330.222	124.07
330.435	46.25
330.648	7.34
330.861	40.11
331.073	44.2
331.286	-25.43
331.499	31.91
331.712	64.68
331.925	85.16
332.138	79.02
332.35	46.25
332.563	44.2
332.776	-9.05
332.989	68.78
333.202	33.96
333.414	81.07
333.627	1.19
333.84	11.43
334.053	130.22
334.265	66.73
334.478	21.67
334.691	81.07
334.903	27.82
335.116	42.15
335.329	46.25
335.541	103.59
335.754	17.58
335.966	17.58
336.179	3.24
336.392	64.68
336.604	9.39
336.817	72.87
337.029	-35.67
337.242	76.97
337.454	48.3
337.667	36.01
337.88	50.35
338.092	-7
338.305	119.98
338.517	89.26
338.729	111.78
338.942	9.39
339.154	72.87
339.367	60.59
339.579	31.91
339.792	54.44
340.004	74.92
340.217	58.54
340.429	64.68
340.641	-21.33
340.854	81.07
341.066	-11.09
341.278	-27.48
341.491	81.07
341.703	44.2
341.915	11.43
342.128	76.97
342.34	-33.62
342.552	36.01
342.764	38.06
342.977	3.24
343.189	23.72
343.401	76.97
343.613	56.49
343.826	5.29
344.038	5.29
344.25	99.5
344.462	66.73
344.674	48.3
344.886	60.59
345.099	36.01
345.311	46.25
345.523	122.02
345.735	62.63
345.947	7.34
346.159	38.06
346.371	72.87
346.583	46.25
346.795	95.4
347.007	-9.05
347.219	-0.85
347.431	62.63
347.643	70.83
347.855	62.63
348.067	68.78
348.279	-27.48
348.491	76.97
348.703	3.24
348.915	72.87
349.127	23.72
349.339	5.29
349.551	56.49
349.763	44.2
349.975	13.48
350.187	40.11
350.399	-17.24
350.61	-23.38
350.822	50.35
351.034	62.63
351.246	40.11
351.458	113.83
351.669	42.15
351.881	95.4
352.093	5.29
352.305	46.25
352.517	60.59
352.728	48.3
352.94	38.06
353.152	97.45
353.363	83.11
353.575	7.34
353.787	27.82
353.999	48.3
354.21	19.63
354.422	-2.9
354.633	64.68
354.845	21.67
355.057	119.98
355.268	-39.76
355.48	-37.72
355.692	56.49
355.903	128.17
356.115	-0.85
356.326	19.63
356.538	23.72
356.749	7.34
356.961	36.01
357.172	21.67
357.384	42.15
357.595	64.68
357.807	40.11
358.018	29.87
358.23	7.34
358.441	42.15
358.653	97.45
358.864	31.91
359.075	-21.33
359.287	-47.96
359.498	33.96
359.709	-4.95
359.921	74.92
360.132	-9.05
360.344	52.39
360.555	56.49
360.766	31.91
360.977	-58.2
361.189	97.45
361.4	60.59
361.611	60.59
361.823	40.11
362.034	50.35
362.245	-9.05
362.456	60.59
362.667	40.11
362.879	68.78
363.09	76.97
363.301	115.88
363.512	48.3
363.723	72.87
363.935	27.82
364.146	60.59
364.357	68.78
364.568	97.45
364.779	23.72
364.99	13.48
365.201	29.87
365.412	81.07
365.623	5.29
365.834	76.97
366.045	31.91
366.256	-7
366.467	60.59
366.678	91.31
366.889	46.25
367.1	1.19
367.311	56.49
367.522	48.3
367.733	23.72
367.944	52.39
368.155	7.34
368.366	40.11
368.577	36.01
368.788	38.06
368.999	103.59
369.209	83.11
369.42	36.01
369.631	-62.29
369.842	-9.05
370.053	146.6
370.264	52.39
370.474	33.96
370.685	38.06
370.896	72.87
371.107	70.83
371.317	40.11
371.528	-43.86
371.739	68.78
371.95	-0.85
372.16	19.63
372.371	31.91
372.582	52.39
372.792	56.49
373.003	56.49
373.214	15.53
373.424	29.87
373.635	40.11
373.846	97.45
374.056	19.63
374.267	48.3
374.477	50.35
374.688	87.21
374.898	21.67
375.109	99.5
375.319	1.19
375.53	25.77
375.74	27.82
375.951	13.48
376.161	81.07
376.372	76.97
376.582	89.26
376.793	79.02
377.003	46.25
377.214	56.49
377.424	48.3
377.635	40.11
377.845	50.35
378.055	29.87
378.266	33.96
378.476	70.83
378.686	103.59
378.897	19.63
379.107	5.29
379.317	109.74
379.528	21.67
379.738	31.91
379.948	19.63
380.158	95.4
380.369	68.78
380.579	36.01
380.789	74.92
380.999	60.59
381.21	142.5
381.42	85.16
381.63	48.3
381.84	124.07
382.05	105.64
382.261	144.55
382.471	72.87
382.681	56.49
382.891	105.64
383.101	31.91
383.311	42.15
383.521	97.45
383.731	58.54
383.941	113.83
384.151	95.4
384.361	27.82
384.571	89.26
384.781	83.11
384.991	115.88
385.201	126.12
385.411	33.96
385.621	144.55
385.831	56.49
386.041	128.17
386.251	36.01
386.461	99.5
386.671	7.34
386.881	52.39
387.091	124.07
387.301	72.87
387.511	148.65
387.72	58.54
387.93	42.15
388.14	81.07
388.35	74.92
388.56	113.83
388.769	60.59
388.979	58.54
389.189	56.49
389.399	66.73
389.609	113.83
389.818	36.01
390.028	72.87
390.238	68.78
390.447	105.64
390.657	93.35
390.867	23.72
391.076	70.83
391.286	54.44
391.496	109.74
391.705	126.12
391.915	146.6
392.125	31.91
392.334	74.92
392.544	134.31
392.753	93.35
392.963	56.49
393.172	97.45
393.382	19.63
393.591	113.83
393.801	128.17
394.01	128.17
394.22	101.55
394.429	81.07
394.639	81.07
394.848	122.02
395.058	27.82
395.267	44.2
395.477	72.87
395.686	60.59
395.895	76.97
396.105	103.59
396.314	72.87
396.524	64.68
396.733	111.78
396.942	48.3
397.152	144.55
397.361	29.87
397.57	101.55
397.78	111.78
397.989	134.31
398.198	70.83
398.407	50.35
398.617	81.07
398.826	95.4
399.035	150.7
399.244	122.02
399.453	38.06
399.663	117.93
399.872	111.78
400.081	89.26
400.29	146.6
400.499	81.07
400.708	87.21
400.917	54.44
401.127	132.26
401.336	85.16
401.545	113.83
401.754	138.41
401.963	154.79
402.172	113.83
402.381	134.31
402.59	87.21
402.799	134.31
403.008	93.35
403.217	85.16
403.426	93.35
403.635	97.45
403.844	60.59
404.053	40.11
404.262	99.5
404.471	105.64
404.68	167.08
404.888	193.7
405.097	128.17
405.306	179.37
405.515	220.33
405.724	142.5
405.933	101.55
406.142	171.18
406.35	158.89
406.559	158.89
406.768	138.41
406.977	162.98
407.185	103.59
407.394	179.37
407.603	218.28
407.812	238.76
408.02	240.81
408.229	193.7
408.438	216.23
408.646	269.48
408.855	173.22
409.064	236.71
409.272	238.76
409.481	261.29
409.69	195.75
409.898	306.34
410.107	267.43
410.315	359.59
410.524	242.85
410.733	390.31
410.941	275.62
411.15	361.64
411.358	371.88
411.567	416.93
411.775	392.36
411.984	375.97
412.192	470.18
412.401	455.84
412.609	496.8
412.818	449.7
413.026	492.71
413.234	498.85
413.443	578.72
413.651	545.95
413.86	662.69
414.068	617.63
414.276	709.79
414.485	722.08
414.693	715.94
414.901	687.26
415.11	765.09
415.318	775.33
415.526	855.2
415.734	818.33
415.943	883.87
416.151	873.63
416.359	937.12
416.567	965.79
416.776	945.31
416.984	1049.75
417.192	1086.62
417.4	1119.39
417.608	1186.97
417.817	1178.78
418.025	1338.52
418.233	1359
418.441	1301.65
418.649	1406.1
418.857	1508.5
419.065	1586.32
419.273	1586.32
419.481	1629.33
419.689	1707.15
419.897	1930.38
420.105	1907.85
420.313	1985.68
420.521	1870.99
420.729	2030.73
420.937	2120.84
421.145	2118.79
421.353	2260.1
421.561	2387.08
421.769	2575.49
421.977	2612.35
422.185	2540.68
422.393	2800.77
422.601	2878.59
422.809	2952.32
423.017	2935.93
423.224	2993.28
423.432	3300.47
423.64	3439.73
423.848	3431.54
424.056	3622
424.263	3759.22
424.471	3902.58
424.679	3841.14
424.887	4090.99
425.094	4252.78
425.302	4246.63
425.51	4361.32
425.718	4691.04
425.925	4709.47
426.133	4979.81
426.341	5119.07
426.548	5303.39
426.756	5317.72
426.964	5401.69
427.171	5717.08
427.379	5813.33
427.586	5899.34
427.794	6005.84
428.001	6378.57
428.209	6657.09
428.417	6536.26
428.624	7074.88
428.832	7189.56
429.039	7197.76
429.247	7134.27
429.454	7687.22
429.662	8244.27
429.869	7627.83
430.076	8289.32
430.284	8086.58
430.491	8320.04
430.699	8889.38
430.906	8752.17
431.114	9161.76
431.321	9215.01
431.528	9655.32
431.736	10292.24
431.943	10527.75
432.15	10376.2
432.358	10296.33
432.565	10918.92
432.772	10912.77
432.979	11514.87
433.187	11615.23
433.394	11602.94
433.601	12721.13
433.808	12422.13
434.016	12479.47
434.223	13114.34
434.43	13829.08
434.637	13734.87
434.844	14459.85
435.052	14898.12
435.259	14609.36
435.466	14863.3
435.673	14867.4
435.88	15598.52
436.087	16257.97
436.294	16329.65
436.501	16245.68
436.708	16542.64
436.915	16946.09
437.122	17834.91
437.329	17544.09
437.537	18154.39
437.743	18514.83
437.95	18379.67
438.157	19233.67
438.364	19934.07
438.571	20067.19
438.778	20194.17
438.985	21721.95
439.192	20968.3
439.399	21713.76
439.606	21379.94
439.813	22555.47
440.02	23927.61
440.227	23319.37
440.433	23012.17
440.64	23991.1
440.847	23644.99
441.054	24345.4
441.261	25953.05
441.467	25731.87
441.674	26264.35
441.881	27202.32
442.088	27071.25
442.294	26684.18
442.501	27450.12
442.708	27896.58
442.914	29285.1
443.121	30409.43
443.328	29590.25
443.534	31763.14
443.741	30573.27
443.948	30214.88
444.154	32473.79
444.361	31953.6
444.568	32262.85
444.774	32424.64
444.981	32955.06
445.187	33942.18
445.394	35125.91
445.6	34570.91
445.807	37978.73
446.013	36362.88
446.22	36604.54
446.426	38363.75
446.633	38470.24
446.839	40108.61
447.046	38292.07
447.252	40067.66
447.459	40264.26
447.665	40280.64
447.871	41490.99
448.078	43219.48
448.284	41460.27
448.491	42336.8
448.697	44448.26
448.903	44274.18
449.11	44777.98
449.316	44194.31
449.522	44775.94
449.728	45990.38
449.935	46117.35
450.141	46356.97
450.347	47358.42
450.553	45613.55
450.76	46008.81
450.966	47526.36
451.172	47000.03
451.378	47897.04
451.584	47559.12
451.791	47952.33
451.997	48077.26
452.203	48689.6
452.409	48480.71
452.615	48327.11
452.821	46529
453.027	45830.64
453.233	48538.05
453.44	46604.77
453.646	46903.77
453.852	47008.22
454.058	47673.81
454.264	45965.81
454.47	47000.03
454.676	45916.65
454.882	47276.51
455.088	43536.91
455.294	44188.17
455.5	44763.65
455.705	44915.2
455.911	43422.23
456.117	42521.12
456.323	42043.95
456.529	39596.62
456.735	41103.93
456.941	40190.53
457.147	39672.4
457.352	38572.64
457.558	37976.68
457.764	37626.48
457.97	37175.92
458.176	36551.29
458.381	36364.93
458.587	34990.74
458.793	34579.1
458.999	32678.58
459.204	35213.97
459.41	34396.83
459.616	32127.68
459.821	32346.81
460.027	32168.64
460.233	31199.95
460.438	29594.34
460.644	30591.7
460.85	28807.92
461.055	28455.67
461.261	28252.92
461.466	26313.5
461.672	25307.94
461.878	27314.95
462.083	25436.97
462.289	25234.22
462.494	24716.08
462.7	23739.2
462.905	22852.43
463.111	23853.89
463.316	24032.06
463.522	23450.44
463.727	23284.55
463.932	23362.37
464.138	23151.43
464.343	23397.19
464.549	22733.65
464.754	23423.81
464.959	22907.73
465.165	22920.01
465.37	22315.86
465.575	21689.18
465.781	22563.67
465.986	22440.79
466.191	21551.97
466.397	21236.58
466.602	20437.87
466.807	20947.82
467.012	21007.21
467.218	20908.91
467.423	20630.38
467.628	21042.03
