Data from USB4F104151__34__12-11-51-809.txt Node

Date: Fri Mar 14 12:11:51 EDT 2025
User: louis
Spectrometer: USB4F10415
Trigger mode: 4
Integration Time (sec): 5.000000E-2
Scans to average: 1
Electric dark correction enabled: true
Nonlinearity correction enabled: false
Boxcar width: 0
XAxis mode: Wavelengths
Number of Pixels in Spectrum: 3648
>>>>>Begin Spectral Data<<<<<
178.204	-232.44
178.424	-232.44
178.644	-232.44
178.864	-148.48
179.084	-168.96
179.304	54.27
179.524	-87.04
179.744	-35.84
179.964	23.55
180.184	-46.08
180.404	27.65
180.624	23.55
180.844	1.02
181.064	-19.46
181.283	-11.26
181.503	58.37
181.723	11.26
181.943	-46.08
182.163	117.76
182.383	-17.41
182.602	48.13
182.822	17.41
183.042	-15.36
183.262	-1.02
183.482	35.84
183.701	5.12
183.921	13.31
184.141	1.02
184.361	54.27
184.58	52.22
184.8	13.31
185.02	3.07
185.239	72.7
185.459	33.79
185.679	103.42
185.898	33.79
186.118	-5.12
186.338	50.18
186.557	50.18
186.777	-64.51
186.997	82.94
187.216	66.56
187.436	109.57
187.655	74.75
187.875	37.89
188.095	29.7
188.314	74.75
188.534	109.57
188.753	11.26
188.973	91.13
189.192	119.81
189.412	74.75
189.631	130.05
189.851	72.7
190.07	136.19
190.29	-44.03
190.509	-11.26
190.729	25.6
190.948	56.32
191.168	109.57
191.387	117.76
191.607	-17.41
191.826	70.65
192.045	15.36
192.265	3.07
192.484	52.22
192.704	27.65
192.923	-44.03
193.142	148.48
193.362	80.89
193.581	89.09
193.8	66.56
194.02	19.46
194.239	25.6
194.458	93.18
194.678	-3.07
194.897	39.94
195.116	82.94
195.335	50.18
195.555	46.08
195.774	19.46
195.993	84.99
196.212	-13.31
196.432	-50.18
196.651	56.32
196.87	35.84
197.089	113.66
197.308	29.7
197.528	31.74
197.747	-39.94
197.966	39.94
198.185	72.7
198.404	19.46
198.623	89.09
198.842	128
199.062	101.37
199.281	107.52
199.5	72.7
199.719	56.32
199.938	48.13
200.157	91.13
200.376	50.18
200.595	39.94
200.814	128
201.033	-44.03
201.252	138.24
201.471	101.37
201.69	72.7
201.909	19.46
202.128	142.33
202.347	74.75
202.566	48.13
202.785	46.08
203.004	21.5
203.223	156.67
203.442	56.32
203.661	-1.02
203.879	48.13
204.098	97.28
204.317	39.94
204.536	105.47
204.755	39.94
204.974	105.47
205.193	11.26
205.411	203.77
205.63	93.18
205.849	48.13
206.068	5.12
206.287	-1.02
206.505	138.24
206.724	74.75
206.943	72.7
207.162	68.61
207.381	31.74
207.599	82.94
207.818	60.42
208.037	111.61
208.255	54.27
208.474	41.98
208.693	64.51
208.911	50.18
209.13	72.7
209.349	70.65
209.567	107.52
209.786	103.42
210.005	84.99
210.223	25.6
210.442	-44.03
210.661	37.89
210.879	25.6
211.098	78.85
211.316	74.75
211.535	76.8
211.753	41.98
211.972	66.56
212.191	41.98
212.409	5.12
212.628	76.8
212.846	-5.12
213.065	80.89
213.283	103.42
213.502	-7.17
213.72	23.55
213.938	37.89
214.157	64.51
214.375	123.9
214.594	21.5
214.812	66.56
215.031	93.18
215.249	9.22
215.467	56.32
215.686	29.7
215.904	168.96
216.122	132.09
216.341	91.13
216.559	76.8
216.778	82.94
216.996	80.89
217.214	-35.84
217.432	91.13
217.651	7.17
217.869	5.12
218.087	87.04
218.306	5.12
218.524	39.94
218.742	37.89
218.96	-5.12
219.179	35.84
219.397	105.47
219.615	76.8
219.833	15.36
220.051	7.17
220.27	82.94
220.488	66.56
220.706	60.42
220.924	5.12
221.142	5.12
221.36	82.94
221.578	33.79
221.796	64.51
222.015	66.56
222.233	41.98
222.451	99.33
222.669	56.32
222.887	87.04
223.105	-3.07
223.323	105.47
223.541	5.12
223.759	31.74
223.977	62.46
224.195	87.04
224.413	87.04
224.631	109.57
224.849	13.31
225.067	150.53
225.285	44.03
225.503	41.98
225.721	-25.6
225.939	50.18
226.157	89.09
226.375	128
226.592	-5.12
226.81	105.47
227.028	89.09
227.246	162.81
227.464	19.46
227.682	74.75
227.9	58.37
228.117	66.56
228.335	66.56
228.553	-11.26
228.771	29.7
228.989	46.08
229.206	84.99
229.424	-23.55
229.642	23.55
229.86	-15.36
230.077	68.61
230.295	21.5
230.513	140.29
230.731	84.99
230.948	136.19
231.166	82.94
231.384	70.65
231.601	35.84
231.819	121.85
232.037	13.31
232.254	15.36
232.472	72.7
232.689	35.84
232.907	68.61
233.125	46.08
233.342	-25.6
233.56	9.22
233.777	64.51
233.995	-21.5
234.213	125.95
234.43	68.61
234.648	70.65
234.865	-35.84
235.083	62.46
235.3	46.08
235.518	87.04
235.735	105.47
235.953	130.05
236.17	82.94
236.388	44.03
236.605	-5.12
236.822	144.38
237.04	60.42
237.257	76.8
237.475	-1.02
237.692	82.94
237.909	140.29
238.127	-48.13
238.344	37.89
238.562	70.65
238.779	33.79
238.996	-39.94
239.214	37.89
239.431	89.09
239.648	-11.26
239.865	78.85
240.083	50.18
240.3	89.09
240.517	37.89
240.735	58.37
240.952	111.61
241.169	15.36
241.386	138.24
241.603	3.07
241.821	19.46
242.038	48.13
242.255	13.31
242.472	19.46
242.689	48.13
242.907	25.6
243.124	21.5
243.341	50.18
243.558	52.22
243.775	13.31
243.992	-7.17
244.209	-1.02
244.426	136.19
244.643	54.27
244.86	-3.07
245.078	99.33
245.295	60.42
245.512	58.37
245.729	9.22
245.946	84.99
246.163	31.74
246.38	113.66
246.597	58.37
246.814	-7.17
247.031	48.13
247.248	91.13
247.464	54.27
247.681	56.32
247.898	138.24
248.115	68.61
248.332	-89.09
248.549	54.27
248.766	156.67
248.983	89.09
249.2	29.7
249.417	33.79
249.633	66.56
249.85	70.65
250.067	33.79
250.284	60.42
250.501	111.61
250.717	111.61
250.934	37.89
251.151	52.22
251.368	70.65
251.585	17.41
251.801	33.79
252.018	39.94
252.235	105.47
252.451	-1.02
252.668	-76.8
252.885	60.42
253.102	27.65
253.318	5.12
253.535	21.5
253.752	19.46
253.968	125.95
254.185	-15.36
254.401	64.51
254.618	54.27
254.835	37.89
255.051	93.18
255.268	103.42
255.484	74.75
255.701	33.79
255.917	46.08
256.134	21.5
256.351	-41.98
256.567	44.03
256.784	35.84
257	-3.07
257.217	-35.84
257.433	50.18
257.65	33.79
257.866	-29.7
258.082	-3.07
258.299	1.02
258.515	48.13
258.732	-11.26
258.948	23.55
259.165	68.61
259.381	62.46
259.597	56.32
259.814	82.94
260.03	48.13
260.246	-5.12
260.463	136.19
260.679	17.41
260.895	46.08
261.112	78.85
261.328	7.17
261.544	68.61
261.761	179.2
261.977	99.33
262.193	46.08
262.409	5.12
262.626	87.04
262.842	54.27
263.058	-52.22
263.274	91.13
263.49	-35.84
263.707	39.94
263.923	109.57
264.139	25.6
264.355	37.89
264.571	105.47
264.787	-9.22
265.004	39.94
265.22	72.7
265.436	41.98
265.652	-39.94
265.868	29.7
266.084	-54.27
266.3	-41.98
266.516	-9.22
266.732	103.42
266.948	13.31
267.164	35.84
267.38	115.71
267.596	123.9
267.812	119.81
268.028	17.41
268.244	-15.36
268.46	11.26
268.676	58.37
268.892	68.61
269.108	58.37
269.324	56.32
269.54	-3.07
269.756	76.8
269.972	7.17
270.188	-64.51
270.403	17.41
270.619	-9.22
270.835	80.89
271.051	9.22
271.267	15.36
271.483	44.03
271.698	64.51
271.914	113.66
272.13	117.76
272.346	74.75
272.562	33.79
272.777	29.7
272.993	39.94
273.209	-37.89
273.425	80.89
273.64	5.12
273.856	80.89
274.072	64.51
274.287	-1.02
274.503	23.55
274.719	134.14
274.934	101.37
275.15	54.27
275.366	56.32
275.581	41.98
275.797	111.61
276.012	56.32
276.228	76.8
276.444	27.65
276.659	70.65
276.875	33.79
277.09	-11.26
277.306	99.33
277.521	35.84
277.737	97.28
277.952	111.61
278.168	91.13
278.383	48.13
278.599	62.46
278.814	152.57
279.03	48.13
279.245	58.37
279.461	-60.42
279.676	66.56
279.892	-25.6
280.107	46.08
280.322	29.7
280.538	105.47
280.753	-7.17
280.969	29.7
281.184	50.18
281.399	148.48
281.615	84.99
281.83	95.23
282.045	-128
282.26	23.55
282.476	11.26
282.691	39.94
282.906	62.46
283.122	50.18
283.337	1.02
283.552	27.65
283.767	25.6
283.983	82.94
284.198	-9.22
284.413	76.8
284.628	-23.55
284.843	50.18
285.058	64.51
285.274	54.27
285.489	50.18
285.704	58.37
285.919	-62.46
286.134	19.46
286.349	29.7
286.564	27.65
286.779	125.95
286.995	39.94
287.21	25.6
287.425	54.27
287.64	35.84
287.855	66.56
288.07	-13.31
288.285	183.29
288.5	101.37
288.715	130.05
288.93	80.89
289.145	23.55
289.36	23.55
289.575	70.65
289.79	115.71
290.004	31.74
290.219	27.65
290.434	-9.22
290.649	76.8
290.864	44.03
291.079	33.79
291.294	44.03
291.509	39.94
291.724	1.02
291.938	72.7
292.153	62.46
292.368	54.27
292.583	54.27
292.798	62.46
293.012	48.13
293.227	-5.12
293.442	13.31
293.657	89.09
293.871	130.05
294.086	72.7
294.301	95.23
294.516	33.79
294.73	-15.36
294.945	37.89
295.16	23.55
295.374	109.57
295.589	138.24
295.804	103.42
296.018	-11.26
296.233	68.61
296.447	76.8
296.662	-13.31
296.877	74.75
297.091	60.42
297.306	21.5
297.52	62.46
297.735	78.85
297.949	29.7
298.164	99.33
298.378	29.7
298.593	-11.26
298.807	-23.55
299.022	80.89
299.236	93.18
299.451	3.07
299.665	-21.5
299.88	39.94
300.094	52.22
300.309	29.7
300.523	19.46
300.737	82.94
300.952	48.13
301.166	84.99
301.381	31.74
301.595	52.22
301.809	132.09
302.024	15.36
302.238	15.36
302.452	37.89
302.667	58.37
302.881	107.52
303.095	93.18
303.309	80.89
303.524	-29.7
303.738	9.22
303.952	1.02
304.166	46.08
304.381	17.41
304.595	72.7
304.809	-1.02
305.023	31.74
305.237	19.46
305.452	-3.07
305.666	52.22
305.88	68.61
306.094	58.37
306.308	64.51
306.522	46.08
306.736	66.56
306.95	60.42
307.164	-13.31
307.379	41.98
307.593	44.03
307.807	109.57
308.021	17.41
308.235	80.89
308.449	-54.27
308.663	54.27
308.877	97.28
309.091	52.22
309.305	168.96
309.519	58.37
309.733	72.7
309.947	-15.36
310.161	56.32
310.374	64.51
310.588	76.8
310.802	-35.84
311.016	62.46
311.23	64.51
311.444	-9.22
311.658	39.94
311.872	91.13
312.085	44.03
312.299	109.57
312.513	-11.26
312.727	17.41
312.941	-7.17
313.154	60.42
313.368	31.74
313.582	74.75
313.796	35.84
314.009	64.51
314.223	29.7
314.437	119.81
314.651	99.33
314.864	23.55
315.078	-11.26
315.292	-60.42
315.505	33.79
315.719	17.41
315.933	13.31
316.146	48.13
316.36	76.8
316.573	80.89
316.787	66.56
317.001	76.8
317.214	15.36
317.428	3.07
317.641	-52.22
317.855	128
318.068	7.17
318.282	-19.46
318.495	54.27
318.709	60.42
318.922	19.46
319.136	48.13
319.349	58.37
319.563	11.26
319.776	41.98
319.99	-27.65
320.203	19.46
320.417	27.65
320.63	48.13
320.843	138.24
321.057	91.13
321.27	48.13
321.483	82.94
321.697	158.72
321.91	31.74
322.124	87.04
322.337	35.84
322.55	54.27
322.763	23.55
322.977	29.7
323.19	66.56
323.403	62.46
323.617	66.56
323.83	76.8
324.043	-41.98
324.256	37.89
324.469	23.55
324.683	144.38
324.896	72.7
325.109	95.23
325.322	29.7
325.535	99.33
325.748	13.31
325.962	27.65
326.175	31.74
326.388	113.66
326.601	128
326.814	103.42
327.027	29.7
327.24	70.65
327.453	-33.79
327.666	111.61
327.879	33.79
328.092	84.99
328.305	41.98
328.518	-44.03
328.731	-33.79
328.944	136.19
329.157	52.22
329.37	-17.41
329.583	138.24
329.796	48.13
330.009	-17.41
330.222	82.94
330.435	66.56
330.648	62.46
330.861	27.65
331.073	-9.22
331.286	87.04
331.499	70.65
331.712	-11.26
331.925	11.26
332.138	44.03
332.35	95.23
332.563	50.18
332.776	148.48
332.989	31.74
333.202	-3.07
333.414	66.56
333.627	117.76
333.84	121.85
334.053	-3.07
334.265	-27.65
334.478	-5.12
334.691	64.51
334.903	58.37
335.116	5.12
335.329	41.98
335.541	82.94
335.754	173.05
335.966	21.5
336.179	41.98
336.392	-17.41
336.604	31.74
336.817	158.72
337.029	58.37
337.242	29.7
337.454	62.46
337.667	48.13
337.88	97.28
338.092	105.47
338.305	123.9
338.517	37.89
338.729	80.89
338.942	82.94
339.154	-27.65
339.367	64.51
339.579	101.37
339.792	-74.75
340.004	19.46
340.217	15.36
340.429	64.51
340.641	9.22
340.854	-5.12
341.066	44.03
341.278	39.94
341.491	95.23
341.703	7.17
341.915	-23.55
342.128	140.29
342.34	101.37
342.552	23.55
342.764	109.57
342.977	44.03
343.189	76.8
343.401	48.13
343.613	13.31
343.826	84.99
344.038	41.98
344.25	48.13
344.462	29.7
344.674	64.51
344.886	82.94
345.099	66.56
345.311	115.71
345.523	5.12
345.735	7.17
345.947	56.32
346.159	119.81
346.371	37.89
346.583	-21.5
346.795	132.09
347.007	33.79
347.219	70.65
347.431	41.98
347.643	111.61
347.855	89.09
348.067	50.18
348.279	-1.02
348.491	-3.07
348.703	56.32
348.915	91.13
349.127	-60.42
349.339	-3.07
349.551	3.07
349.763	121.85
349.975	-31.74
350.187	115.71
350.399	107.52
350.61	105.47
350.822	-41.98
351.034	109.57
351.246	54.27
351.458	121.85
351.669	11.26
351.881	89.09
352.093	21.5
352.305	111.61
352.517	101.37
352.728	95.23
352.94	156.67
353.152	115.71
353.363	17.41
353.575	84.99
353.787	101.37
353.999	68.61
354.21	125.95
354.422	-3.07
354.633	39.94
354.845	44.03
355.057	76.8
355.268	50.18
355.48	35.84
355.692	13.31
355.903	60.42
356.115	15.36
356.326	-9.22
356.538	46.08
356.749	52.22
356.961	128
357.172	27.65
357.384	44.03
357.595	185.34
357.807	60.42
358.018	52.22
358.23	21.5
358.441	146.43
358.653	21.5
358.864	58.37
359.075	27.65
359.287	27.65
359.498	62.46
359.709	41.98
359.921	-21.5
360.132	7.17
360.344	99.33
360.555	19.46
360.766	105.47
360.977	15.36
361.189	132.09
361.4	56.32
361.611	84.99
361.823	162.81
362.034	64.51
362.245	-9.22
362.456	11.26
362.667	82.94
362.879	29.7
363.09	76.8
363.301	27.65
363.512	82.94
363.723	80.89
363.935	107.52
364.146	15.36
364.357	21.5
364.568	39.94
364.779	-56.32
364.99	111.61
365.201	-46.08
365.412	66.56
365.623	48.13
365.834	80.89
366.045	62.46
366.256	41.98
366.467	68.61
366.678	44.03
366.889	70.65
367.1	37.89
367.311	64.51
367.522	31.74
367.733	1.02
367.944	99.33
368.155	68.61
368.366	109.57
368.577	56.32
368.788	97.28
368.999	-23.55
369.209	119.81
369.42	205.82
369.631	171.01
369.842	41.98
370.053	1.02
370.264	80.89
370.474	37.89
370.685	68.61
370.896	95.23
371.107	138.24
371.317	78.85
371.528	89.09
371.739	150.53
371.95	39.94
372.16	99.33
372.371	13.31
372.582	15.36
372.792	33.79
373.003	33.79
373.214	105.47
373.424	95.23
373.635	66.56
373.846	119.81
374.056	109.57
374.267	91.13
374.477	121.85
374.688	-1.02
374.898	41.98
375.109	70.65
375.319	39.94
375.53	37.89
375.74	62.46
375.951	31.74
376.161	33.79
376.372	68.61
376.582	-31.74
376.793	97.28
377.003	62.46
377.214	39.94
377.424	70.65
377.635	29.7
377.845	91.13
378.055	64.51
378.266	52.22
378.476	37.89
378.686	144.38
378.897	62.46
379.107	68.61
379.317	103.42
379.528	25.6
379.738	84.99
379.948	23.55
380.158	56.32
380.369	37.89
380.579	33.79
380.789	37.89
380.999	99.33
381.21	119.81
381.42	156.67
381.63	35.84
381.84	48.13
382.05	52.22
382.261	44.03
382.471	54.27
382.681	13.31
382.891	76.8
383.101	70.65
383.311	41.98
383.521	-19.46
383.731	91.13
383.941	19.46
384.151	35.84
384.361	99.33
384.571	99.33
384.781	136.19
384.991	119.81
385.201	89.09
385.411	50.18
385.621	25.6
385.831	66.56
386.041	82.94
386.251	111.61
386.461	89.09
386.671	33.79
386.881	91.13
387.091	80.89
387.301	87.04
387.511	17.41
387.72	91.13
387.93	125.95
388.14	52.22
388.35	13.31
388.56	97.28
388.769	125.95
388.979	107.52
389.189	31.74
389.399	113.66
389.609	107.52
389.818	93.18
390.028	84.99
390.238	109.57
390.447	62.46
390.657	111.61
390.867	48.13
391.076	3.07
391.286	54.27
391.496	44.03
391.705	70.65
391.915	97.28
392.125	109.57
392.334	50.18
392.544	146.43
392.753	99.33
392.963	-21.5
393.172	130.05
393.382	29.7
393.591	166.91
393.801	19.46
394.01	105.47
394.22	185.34
394.429	44.03
394.639	64.51
394.848	105.47
395.058	74.75
395.267	68.61
395.477	132.09
395.686	58.37
395.895	119.81
396.105	140.29
396.314	68.61
396.524	95.23
396.733	78.85
396.942	125.95
397.152	144.38
397.361	156.67
397.57	91.13
397.78	80.89
397.989	111.61
398.198	224.25
398.407	89.09
398.617	70.65
398.826	70.65
399.035	103.42
399.244	148.48
399.453	56.32
399.663	166.91
399.872	125.95
400.081	52.22
400.29	109.57
400.499	101.37
400.708	158.72
400.917	93.18
401.127	52.22
401.336	101.37
401.545	193.53
401.754	187.39
401.963	160.77
402.172	13.31
402.381	103.42
402.59	89.09
402.799	107.52
403.008	173.05
403.217	142.33
403.426	121.85
403.635	138.24
403.844	146.43
404.053	128
404.262	109.57
404.471	168.96
404.68	125.95
404.888	121.85
405.097	128
405.306	142.33
405.515	134.14
405.724	203.77
405.933	146.43
406.142	144.38
406.35	257.02
406.559	107.52
406.768	171.01
406.977	179.2
407.185	130.05
407.394	128
407.603	121.85
407.812	207.87
408.02	293.88
408.229	211.96
408.438	177.15
408.646	144.38
408.855	199.68
409.064	263.16
409.272	197.63
409.481	226.3
409.69	150.53
409.898	285.69
410.107	230.4
410.315	297.98
410.524	267.26
410.733	259.07
410.941	273.4
411.15	289.79
411.358	324.6
411.567	347.13
411.775	300.03
411.984	252.92
412.192	392.19
412.401	343.03
412.609	390.14
412.818	478.2
413.026	490.49
413.234	424.95
413.443	398.33
413.651	351.23
413.86	484.34
414.068	539.64
414.276	443.39
414.485	486.39
414.693	605.17
414.901	572.41
415.11	521.21
415.318	549.88
415.526	566.26
415.734	734.2
415.943	611.32
416.151	611.32
416.359	574.46
416.567	758.77
416.776	693.24
416.984	728.05
417.192	809.97
417.4	773.11
417.608	766.96
417.817	766.96
418.025	945.14
418.233	941.04
418.441	842.74
418.649	947.19
418.857	996.34
419.065	961.52
419.273	969.71
419.481	1068.02
419.689	1072.11
419.897	1178.61
420.105	1149.93
420.313	1059.82
420.521	1248.24
420.729	1295.34
420.937	1225.71
421.145	1268.72
421.353	1473.51
421.561	1512.42
421.769	1506.28
421.977	1539.05
422.185	1549.29
422.393	1629.16
422.601	1727.46
422.809	1694.69
423.017	1780.71
423.224	1856.48
423.432	1868.77
423.64	1862.63
423.848	2067.42
424.056	1915.87
424.263	2089.95
424.471	2167.77
424.679	2327.52
424.887	2241.5
425.094	2331.61
425.302	2335.71
425.51	2405.34
425.718	2622.42
425.925	2599.9
426.133	2653.14
426.341	2716.63
426.548	2921.43
426.756	2821.08
426.964	2915.28
427.171	2931.67
427.379	3146.7
427.586	3335.12
427.794	3335.12
428.001	3494.86
428.209	3621.83
428.417	3695.56
428.624	3836.87
428.832	3814.34
429.039	3793.86
429.247	3849.16
429.454	4246.46
429.662	4504.51
429.869	4191.17
430.076	4662.2
430.284	4318.14
430.491	4539.32
430.699	4846.52
430.906	4823.99
431.114	4684.73
431.321	4959.16
431.528	5077.94
431.736	5313.45
431.943	5669.8
432.15	5489.58
432.358	5483.44
432.565	5940.13
432.772	5714.86
432.979	6044.58
433.187	6181.79
433.394	6194.08
433.601	6544.28
433.808	6464.41
434.016	6697.88
434.223	6781.85
434.43	7363.47
434.637	7166.87
434.844	7652.24
435.052	7701.39
435.259	7607.18
435.466	7687.05
435.673	7512.97
435.88	8326.02
436.087	8520.57
436.294	8797.05
436.501	8303.49
436.708	8452.99
436.915	8735.61
437.122	9196.4
437.329	9319.28
437.537	9456.5
437.743	9683.82
437.95	9610.09
438.157	9894.76
438.364	10566.49
438.571	10406.75
438.778	10337.12
438.985	11387.73
439.192	10853.21
439.399	11250.52
439.606	10920.79
439.813	11567.95
440.02	12362.56
440.227	12032.84
440.433	11744.08
440.64	12178.25
440.847	12225.35
441.054	12438.34
441.261	13402.93
441.467	13138.74
441.674	13288.25
441.881	13814.57
442.088	13824.81
442.294	13978.41
442.501	14228.26
442.708	14502.69
442.914	14754.59
443.121	15606.55
443.328	15301.4
443.534	16411.4
443.741	15842.06
443.948	15420.18
444.154	16622.34
444.361	16605.95
444.568	16812.8
444.774	16790.27
444.981	16792.32
445.187	17431.29
445.394	18344.68
445.6	17990.38
445.807	19661.52
446.013	18903.78
446.22	19288.79
446.426	20024.01
446.633	20163.28
446.839	20632.26
447.046	19849.94
447.252	20970.18
447.459	21039.81
447.665	20914.88
447.871	21926.58
448.078	22880.93
448.284	22000.3
448.491	22129.33
448.697	22893.22
448.903	23347.87
449.11	23507.61
449.316	23227.04
449.522	23538.33
449.728	24279.69
449.935	24300.17
450.141	24224.4
450.347	24943.24
450.553	24222.35
450.76	24679.05
450.966	25150.08
451.172	25127.55
451.378	25393.79
451.584	25021.06
451.791	25637.5
451.997	25582.2
452.203	25926.26
452.409	26260.08
452.615	25938.55
452.821	24912.52
453.027	24830.6
453.233	25735.8
453.44	24906.37
453.646	25232
453.852	25193.09
454.058	25727.61
454.264	24728.2
454.47	25451.13
454.676	24562.31
454.882	25391.74
455.088	23204.51
455.294	23882.39
455.5	24146.58
455.705	23823
455.911	23386.78
456.117	22620.84
456.323	22360.75
456.529	21291.71
456.735	21992.11
456.941	21615.29
457.147	21097.15
457.352	20433.61
457.558	20048.59
457.764	20200.14
457.97	19632.85
458.176	19380.95
458.381	19423.96
458.587	18584.29
458.793	18514.66
458.999	17500.92
459.204	18625.25
459.41	18264.81
459.616	16872.19
459.821	17040.12
460.027	16833.28
460.233	16395.01
460.438	15581.97
460.644	15846.16
460.85	15055.64
461.055	14834.46
461.261	14758.69
461.466	13783.85
461.672	13255.48
461.878	14170.92
462.083	13118.26
462.289	12874.56
462.494	12772.16
462.7	12088.14
462.905	12014.41
463.111	12452.67
463.316	12247.88
463.522	12178.25
463.727	12198.73
463.932	12098.38
464.138	11836.24
464.343	11875.15
464.549	11606.86
464.754	11930.44
464.959	11940.68
465.165	11809.61
465.37	11246.42
465.575	10961.75
465.781	11379.54
465.986	11488.08
466.191	10914.65
466.397	10783.58
466.602	10249.06
466.807	10478.43
467.012	10601.31
