Data from USB4F104151__57__12-12-25-408.txt Node

Date: Fri Mar 14 12:12:25 EDT 2025
User: louis
Spectrometer: USB4F10415
Trigger mode: 4
Integration Time (sec): 5.000000E-2
Scans to average: 1
Electric dark correction enabled: true
Nonlinearity correction enabled: false
Boxcar width: 0
XAxis mode: Wavelengths
Number of Pixels in Spectrum: 3648
>>>>>Begin Spectral Data<<<<<
178.204	-179.03
178.424	-179.03
178.644	-179.03
178.864	-234.32
179.084	-195.41
179.304	-35.67
179.524	-15.19
179.744	-45.91
179.964	15.53
180.184	9.39
180.404	-25.43
180.624	54.44
180.844	58.54
181.064	3.24
181.283	7.34
181.503	-58.2
181.723	31.91
181.943	-45.91
182.163	81.07
182.383	-54.1
182.602	17.58
182.822	89.26
183.042	33.96
183.262	15.53
183.482	33.96
183.701	66.73
183.921	13.48
184.141	-11.09
184.361	72.87
184.58	115.88
184.8	25.77
185.02	46.25
185.239	7.34
185.459	-2.9
185.679	74.92
185.898	-33.62
186.118	85.16
186.338	25.77
186.557	25.77
186.777	23.72
186.997	72.87
187.216	19.63
187.436	62.63
187.655	60.59
187.875	144.55
188.095	44.2
188.314	105.64
188.534	-0.85
188.753	-58.2
188.973	15.53
189.192	74.92
189.412	91.31
189.631	52.39
189.851	33.96
190.07	134.31
190.29	-0.85
190.509	36.01
190.729	38.06
190.948	60.59
191.168	279.72
191.387	81.07
191.607	-43.86
191.826	54.44
192.045	-88.92
192.265	-13.14
192.484	62.63
192.704	81.07
192.923	29.87
193.142	130.22
193.362	101.55
193.581	128.17
193.8	89.26
194.02	89.26
194.239	36.01
194.458	52.39
194.678	40.11
194.897	50.35
195.116	9.39
195.335	107.69
195.555	31.91
195.774	-2.9
195.993	60.59
196.212	-7
196.432	-13.14
196.651	11.43
196.87	79.02
197.089	148.65
197.308	56.49
197.528	140.46
197.747	-50
197.966	52.39
198.185	95.4
198.404	-43.86
198.623	50.35
198.842	171.18
199.062	27.82
199.281	95.4
199.5	21.67
199.719	93.35
199.938	76.97
200.157	169.13
200.376	74.92
200.595	81.07
200.814	3.24
201.033	-31.57
201.252	36.01
201.471	62.63
201.69	44.2
201.909	60.59
202.128	31.91
202.347	109.74
202.566	74.92
202.785	-4.95
203.004	-13.14
203.223	103.59
203.442	99.5
203.661	-17.24
203.879	1.19
204.098	85.16
204.317	-4.95
204.536	52.39
204.755	76.97
204.974	44.2
205.193	81.07
205.411	93.35
205.63	11.43
205.849	64.68
206.068	64.68
206.287	-72.53
206.505	140.46
206.724	-0.85
206.943	68.78
207.162	-0.85
207.381	27.82
207.599	29.87
207.818	38.06
208.037	-21.33
208.255	111.78
208.474	48.3
208.693	117.93
208.911	72.87
209.13	74.92
209.349	15.53
209.567	38.06
209.786	150.7
210.005	109.74
210.223	103.59
210.442	-19.29
210.661	79.02
210.879	-21.33
211.098	74.92
211.316	23.72
211.535	48.3
211.753	-37.72
211.972	13.48
212.191	52.39
212.409	36.01
212.628	38.06
212.846	11.43
213.065	27.82
213.283	113.83
213.502	50.35
213.72	23.72
213.938	62.63
214.157	38.06
214.375	68.78
214.594	54.44
214.812	76.97
215.031	33.96
215.249	64.68
215.467	19.63
215.686	74.92
215.904	42.15
216.122	17.58
216.341	83.11
216.559	62.63
216.778	52.39
216.996	9.39
217.214	-2.9
217.432	5.29
217.651	-19.29
217.869	74.92
218.087	74.92
218.306	31.91
218.524	130.22
218.742	-21.33
218.96	38.06
219.179	27.82
219.397	72.87
219.615	150.7
219.833	42.15
220.051	25.77
220.27	66.73
220.488	97.45
220.706	29.87
220.924	81.07
221.142	52.39
221.36	15.53
221.578	105.64
221.796	19.63
222.015	74.92
222.233	25.77
222.451	140.46
222.669	19.63
222.887	60.59
223.105	19.63
223.323	52.39
223.541	-21.33
223.759	109.74
223.977	7.34
224.195	60.59
224.413	56.49
224.631	72.87
224.849	79.02
225.067	68.78
225.285	25.77
225.503	38.06
225.721	-37.72
225.939	29.87
226.157	-19.29
226.375	111.78
226.592	-29.52
226.81	5.29
227.028	52.39
227.246	154.79
227.464	-19.29
227.682	91.31
227.9	44.2
228.117	38.06
228.335	72.87
228.553	3.24
228.771	15.53
228.989	40.11
229.206	62.63
229.424	17.58
229.642	64.68
229.86	31.91
230.077	70.83
230.295	-17.24
230.513	91.31
230.731	52.39
230.948	111.78
231.166	76.97
231.384	46.25
231.601	46.25
231.819	130.22
232.037	3.24
232.254	79.02
232.472	60.59
232.689	13.48
232.907	81.07
233.125	21.67
233.342	50.35
233.56	19.63
233.777	44.2
233.995	36.01
234.213	177.32
234.43	76.97
234.648	5.29
234.865	42.15
235.083	52.39
235.3	-54.1
235.518	13.48
235.735	128.17
235.953	52.39
236.17	17.58
236.388	9.39
236.605	-7
236.822	79.02
237.04	126.12
237.257	54.44
237.475	-37.72
237.692	50.35
237.909	66.73
238.127	7.34
238.344	15.53
238.562	56.49
238.779	-7
238.996	-45.91
239.214	23.72
239.431	89.26
239.648	-25.43
239.865	42.15
240.083	46.25
240.3	56.49
240.517	15.53
240.735	25.77
240.952	36.01
241.169	81.07
241.386	-4.95
241.603	3.24
241.821	72.87
242.038	105.64
242.255	119.98
242.472	56.49
242.689	29.87
242.907	85.16
243.124	7.34
243.341	46.25
243.558	40.11
243.775	7.34
243.992	13.48
244.209	31.91
244.426	146.6
244.643	5.29
244.86	54.44
245.078	60.59
245.295	42.15
245.512	21.67
245.729	81.07
245.946	-17.24
246.163	7.34
246.38	9.39
246.597	72.87
246.814	62.63
247.031	23.72
247.248	117.93
247.464	103.59
247.681	66.73
247.898	101.55
248.115	109.74
248.332	-9.05
248.549	85.16
248.766	130.22
248.983	103.59
249.2	36.01
249.417	60.59
249.633	-2.9
249.85	40.11
250.067	-9.05
250.284	-11.09
250.501	134.31
250.717	68.78
250.934	-9.05
251.151	19.63
251.368	-17.24
251.585	36.01
251.801	46.25
252.018	-23.38
252.235	40.11
252.451	64.68
252.668	48.3
252.885	3.24
253.102	89.26
253.318	-9.05
253.535	-41.81
253.752	11.43
253.968	11.43
254.185	1.19
254.401	13.48
254.618	79.02
254.835	48.3
255.051	85.16
255.268	122.02
255.484	103.59
255.701	62.63
255.917	95.4
256.134	-58.2
256.351	23.72
256.567	-33.62
256.784	36.01
257	-25.43
257.217	111.78
257.433	115.88
257.65	70.83
257.866	58.54
258.082	-11.09
258.299	7.34
258.515	72.87
258.732	-74.58
258.948	29.87
259.165	56.49
259.381	48.3
259.597	38.06
259.814	-45.91
260.03	-11.09
260.246	25.77
260.463	79.02
260.679	79.02
260.895	29.87
261.112	33.96
261.328	-9.05
261.544	-54.1
261.761	74.92
261.977	29.87
262.193	62.63
262.409	111.78
262.626	50.35
262.842	-39.76
263.058	38.06
263.274	89.26
263.49	-23.38
263.707	105.64
263.923	81.07
264.139	-17.24
264.355	36.01
264.571	154.79
264.787	70.83
265.004	83.11
265.22	-7
265.436	31.91
265.652	11.43
265.868	-2.9
266.084	74.92
266.3	-39.76
266.516	-78.68
266.732	23.72
266.948	54.44
267.164	46.25
267.38	60.59
267.596	50.35
267.812	52.39
268.028	81.07
268.244	31.91
268.46	115.88
268.676	29.87
268.892	17.58
269.108	3.24
269.324	-23.38
269.54	-45.91
269.756	38.06
269.972	13.48
270.188	9.39
270.403	-29.52
270.619	74.92
270.835	109.74
271.051	58.54
271.267	48.3
271.483	66.73
271.698	97.45
271.914	44.2
272.13	50.35
272.346	19.63
272.562	72.87
272.777	167.08
272.993	-2.9
273.209	21.67
273.425	52.39
273.64	36.01
273.856	36.01
274.072	7.34
274.287	17.58
274.503	3.24
274.719	62.63
274.934	60.59
275.15	27.82
275.366	95.4
275.581	33.96
275.797	25.77
276.012	76.97
276.228	62.63
276.444	27.82
276.659	124.07
276.875	-13.14
277.09	60.59
277.306	-0.85
277.521	66.73
277.737	-4.95
277.952	17.58
278.168	74.92
278.383	23.72
278.599	48.3
278.814	15.53
279.03	17.58
279.245	66.73
279.461	87.21
279.676	38.06
279.892	-37.72
280.107	-17.24
280.322	-27.48
280.538	44.2
280.753	101.55
280.969	76.97
281.184	105.64
281.399	72.87
281.615	81.07
281.83	79.02
282.045	-78.68
282.26	-25.43
282.476	19.63
282.691	124.07
282.906	107.69
283.122	-25.43
283.337	42.15
283.552	46.25
283.767	56.49
283.983	25.77
284.198	-23.38
284.413	93.35
284.628	-19.29
284.843	85.16
285.058	91.31
285.274	42.15
285.489	-31.57
285.704	13.48
285.919	11.43
286.134	17.58
286.349	79.02
286.564	105.64
286.779	140.46
286.995	13.48
287.21	-15.19
287.425	44.2
287.64	13.48
287.855	48.3
288.07	-64.34
288.285	99.5
288.5	91.31
288.715	119.98
288.93	5.29
289.145	-60.24
289.36	44.2
289.575	-25.43
289.79	62.63
290.004	25.77
290.219	27.82
290.434	3.24
290.649	42.15
290.864	50.35
291.079	87.21
291.294	87.21
291.509	1.19
291.724	-29.52
291.938	17.58
292.153	93.35
292.368	5.29
292.583	1.19
292.798	70.83
293.012	13.48
293.227	-23.38
293.442	44.2
293.657	13.48
293.871	109.74
294.086	70.83
294.301	52.39
294.516	83.11
294.73	13.48
294.945	17.58
295.16	85.16
295.374	119.98
295.589	156.84
295.804	38.06
296.018	54.44
296.233	72.87
296.447	50.35
296.662	38.06
296.877	117.93
297.091	79.02
297.306	11.43
297.52	-19.29
297.735	70.83
297.949	64.68
298.164	50.35
298.378	17.58
298.593	46.25
298.807	29.87
299.022	3.24
299.236	68.78
299.451	27.82
299.665	68.78
299.88	-0.85
300.094	-13.14
300.309	31.91
300.523	52.39
300.737	-41.81
300.952	13.48
301.166	11.43
301.381	-19.29
301.595	109.74
301.809	62.63
302.024	23.72
302.238	1.19
302.452	29.87
302.667	11.43
302.881	-9.05
303.095	103.59
303.309	91.31
303.524	-50
303.738	-31.57
303.952	3.24
304.166	95.4
304.381	-31.57
304.595	113.83
304.809	-7
305.023	36.01
305.237	27.82
305.452	-0.85
305.666	68.78
305.88	105.64
306.094	42.15
306.308	91.31
306.522	27.82
306.736	25.77
306.95	38.06
307.164	21.67
307.379	-15.19
307.593	124.07
307.807	89.26
308.021	99.5
308.235	74.92
308.449	-7
308.663	36.01
308.877	177.32
309.091	3.24
309.305	85.16
309.519	13.48
309.733	70.83
309.947	-4.95
310.161	105.64
310.374	27.82
310.588	68.78
310.802	36.01
311.016	25.77
311.23	79.02
311.444	46.25
311.658	85.16
311.872	72.87
312.085	64.68
312.299	42.15
312.513	89.26
312.727	19.63
312.941	-21.33
313.154	66.73
313.368	54.44
313.582	13.48
313.796	23.72
314.009	11.43
314.223	83.11
314.437	62.63
314.651	66.73
314.864	9.39
315.078	-19.29
315.292	-25.43
315.505	42.15
315.719	79.02
315.933	74.92
316.146	103.59
316.36	38.06
316.573	134.31
316.787	40.11
317.001	76.97
317.214	-13.14
317.428	29.87
317.641	19.63
317.855	38.06
318.068	19.63
318.282	17.58
318.495	109.74
318.709	44.2
318.922	-25.43
319.136	126.12
319.349	97.45
319.563	36.01
319.776	83.11
319.99	-84.82
320.203	-7
320.417	17.58
320.63	-2.9
320.843	173.22
321.057	44.2
321.27	23.72
321.483	25.77
321.697	148.65
321.91	27.82
322.124	83.11
322.337	-13.14
322.55	17.58
322.763	11.43
322.977	48.3
323.19	1.19
323.403	44.2
323.617	115.88
323.83	138.41
324.043	23.72
324.256	72.87
324.469	9.39
324.683	48.3
324.896	101.55
325.109	66.73
325.322	17.58
325.535	111.78
325.748	107.69
325.962	38.06
326.175	23.72
326.388	13.48
326.601	64.68
326.814	52.39
327.027	3.24
327.24	68.78
327.453	-50
327.666	83.11
327.879	79.02
328.092	23.72
328.305	117.93
328.518	44.2
328.731	50.35
328.944	36.01
329.157	64.68
329.37	33.96
329.583	115.88
329.796	52.39
330.009	15.53
330.222	27.82
330.435	48.3
330.648	66.73
330.861	79.02
331.073	-9.05
331.286	85.16
331.499	60.59
331.712	25.77
331.925	91.31
332.138	52.39
332.35	103.59
332.563	5.29
332.776	117.93
332.989	29.87
333.202	38.06
333.414	-33.62
333.627	31.91
333.84	62.63
334.053	11.43
334.265	44.2
334.478	-19.29
334.691	29.87
334.903	105.64
335.116	-2.9
335.329	29.87
335.541	13.48
335.754	99.5
335.966	62.63
336.179	-4.95
336.392	40.11
336.604	66.73
336.817	68.78
337.029	81.07
337.242	-2.9
337.454	111.78
337.667	15.53
337.88	74.92
338.092	76.97
338.305	70.83
338.517	-25.43
338.729	117.93
338.942	85.16
339.154	46.25
339.367	17.58
339.579	128.17
339.792	-27.48
340.004	79.02
340.217	48.3
340.429	72.87
340.641	33.96
340.854	48.3
341.066	79.02
341.278	33.96
341.491	150.7
341.703	81.07
341.915	31.91
342.128	27.82
342.34	124.07
342.552	38.06
342.764	7.34
342.977	54.44
343.189	13.48
343.401	48.3
343.613	21.67
343.826	107.69
344.038	23.72
344.25	31.91
344.462	-13.14
344.674	87.21
344.886	-19.29
345.099	27.82
345.311	19.63
345.523	56.49
345.735	48.3
345.947	64.68
346.159	-27.48
346.371	62.63
346.583	-11.09
346.795	185.51
347.007	93.35
347.219	44.2
347.431	56.49
347.643	122.02
347.855	42.15
348.067	60.59
348.279	25.77
348.491	48.3
348.703	58.54
348.915	107.69
349.127	27.82
349.339	93.35
349.551	9.39
349.763	38.06
349.975	50.35
350.187	119.98
350.399	93.35
350.61	38.06
350.822	23.72
351.034	72.87
351.246	74.92
351.458	81.07
351.669	42.15
351.881	17.58
352.093	46.25
352.305	-0.85
352.517	25.77
352.728	91.31
352.94	64.68
353.152	109.74
353.363	74.92
353.575	40.11
353.787	52.39
353.999	99.5
354.21	119.98
354.422	74.92
354.633	-13.14
354.845	-2.9
355.057	-31.57
355.268	56.49
355.48	117.93
355.692	-54.1
355.903	50.35
356.115	-2.9
356.326	72.87
356.538	48.3
356.749	62.63
356.961	113.83
357.172	60.59
357.384	50.35
357.595	148.65
357.807	46.25
358.018	3.24
358.23	58.54
358.441	89.26
358.653	89.26
358.864	83.11
359.075	113.83
359.287	95.4
359.498	29.87
359.709	126.12
359.921	25.77
360.132	97.45
360.344	144.55
360.555	79.02
360.766	62.63
360.977	81.07
361.189	126.12
361.4	31.91
361.611	97.45
361.823	171.18
362.034	66.73
362.245	21.67
362.456	85.16
362.667	58.54
362.879	31.91
363.09	-41.81
363.301	40.11
363.512	13.48
363.723	64.68
363.935	27.82
364.146	89.26
364.357	29.87
364.568	56.49
364.779	-0.85
364.99	27.82
365.201	48.3
365.412	177.32
365.623	33.96
365.834	33.96
366.045	11.43
366.256	87.21
366.467	40.11
366.678	95.4
366.889	89.26
367.1	-19.29
367.311	33.96
367.522	13.48
367.733	85.16
367.944	122.02
368.155	15.53
368.366	150.7
368.577	50.35
368.788	23.72
368.999	7.34
369.209	33.96
369.42	66.73
369.631	193.7
369.842	68.78
370.053	48.3
370.264	97.45
370.474	-52.05
370.685	66.73
370.896	44.2
371.107	81.07
371.317	111.78
371.528	-7
371.739	132.26
371.95	99.5
372.16	27.82
372.371	31.91
372.582	64.68
372.792	68.78
373.003	113.83
373.214	56.49
373.424	95.4
373.635	13.48
373.846	42.15
374.056	74.92
374.267	146.6
374.477	117.93
374.688	-11.09
374.898	27.82
375.109	9.39
375.319	122.02
375.53	109.74
375.74	109.74
375.951	9.39
376.161	25.77
376.372	23.72
376.582	40.11
376.793	138.41
377.003	64.68
377.214	1.19
377.424	111.78
377.635	60.59
377.845	-23.38
378.055	105.64
378.266	9.39
378.476	68.78
378.686	-4.95
378.897	62.63
379.107	124.07
379.317	85.16
379.528	11.43
379.738	79.02
379.948	3.24
380.158	81.07
380.369	44.2
380.579	103.59
380.789	40.11
380.999	113.83
381.21	54.44
381.42	122.02
381.63	138.41
381.84	64.68
382.05	95.4
382.261	76.97
382.471	115.88
382.681	122.02
382.891	103.59
383.101	85.16
383.311	29.87
383.521	15.53
383.731	158.89
383.941	93.35
384.151	19.63
384.361	40.11
384.571	76.97
384.781	48.3
384.991	167.08
385.201	111.78
385.411	89.26
385.621	103.59
385.831	128.17
386.041	-0.85
386.251	72.87
386.461	72.87
386.671	7.34
386.881	109.74
387.091	76.97
387.301	85.16
387.511	-17.24
387.72	119.98
387.93	68.78
388.14	7.34
388.35	132.26
388.56	140.46
388.769	60.59
388.979	79.02
389.189	56.49
389.399	29.87
389.609	33.96
389.818	107.69
390.028	7.34
390.238	66.73
390.447	23.72
390.657	66.73
390.867	42.15
391.076	-0.85
391.286	91.31
391.496	105.64
391.705	38.06
391.915	40.11
392.125	146.6
392.334	89.26
392.544	99.5
392.753	68.78
392.963	21.67
393.172	62.63
393.382	68.78
393.591	210.09
393.801	150.7
394.01	150.7
394.22	89.26
394.429	42.15
394.639	38.06
394.848	52.39
395.058	68.78
395.267	105.64
395.477	138.41
395.686	115.88
395.895	158.89
396.105	177.32
396.314	76.97
396.524	87.21
396.733	101.55
396.942	144.55
397.152	136.36
397.361	144.55
397.57	122.02
397.78	173.22
397.989	93.35
398.198	212.14
398.407	93.35
398.617	115.88
398.826	162.98
399.035	111.78
399.244	171.18
399.453	126.12
399.663	97.45
399.872	130.22
400.081	31.91
400.29	169.13
400.499	42.15
400.708	138.41
400.917	128.17
401.127	81.07
401.336	54.44
401.545	220.33
401.754	230.57
401.963	185.51
402.172	158.89
402.381	48.3
402.59	115.88
402.799	160.94
403.008	136.36
403.217	158.89
403.426	175.27
403.635	109.74
403.844	160.94
404.053	179.37
404.262	107.69
404.471	218.28
404.68	220.33
404.888	171.18
405.097	126.12
405.306	167.08
405.515	177.32
405.724	181.42
405.933	222.38
406.142	195.75
406.35	255.14
406.559	246.95
406.768	191.66
406.977	269.48
407.185	222.38
407.394	191.66
407.603	210.09
407.812	292.01
408.02	277.67
408.229	236.71
408.438	255.14
408.646	177.32
408.855	261.29
409.064	308.39
409.272	224.42
409.481	234.66
409.69	283.81
409.898	306.34
410.107	365.73
410.315	351.4
410.524	312.49
410.733	384.16
410.941	371.88
411.15	371.88
411.358	435.36
411.567	464.04
411.775	400.55
411.984	531.62
412.192	480.42
412.401	490.66
412.609	550.05
412.818	625.83
413.026	646.3
413.234	568.48
413.443	496.8
413.651	535.71
413.86	634.02
414.068	720.03
414.276	783.52
414.485	650.4
414.693	717.98
414.901	804
415.11	836.77
415.318	820.38
415.526	836.77
415.734	887.97
415.943	986.27
416.151	865.44
416.359	943.26
416.567	842.91
416.776	1047.71
416.984	1053.85
417.192	1143.96
417.4	1162.39
417.608	1150.11
417.817	1107.1
418.025	1275.03
418.233	1244.31
418.441	1240.22
418.649	1322.13
418.857	1426.58
419.065	1479.83
419.273	1359
419.481	1428.63
419.689	1549.46
419.897	1623.19
420.105	1569.94
420.313	1723.54
420.521	1838.22
420.729	1862.8
420.937	1776.78
421.145	1848.46
421.353	1963.15
421.561	2071.69
421.769	2180.23
421.977	2235.53
422.185	2180.23
422.393	2198.67
422.601	2417.8
422.809	2499.72
423.017	2464.9
423.224	2487.43
423.432	2753.66
423.64	2606.21
423.848	2921.6
424.056	2739.33
424.263	3206.27
424.471	3073.15
424.679	3122.3
424.887	3355.77
425.094	3435.64
425.302	3353.72
425.51	3452.02
425.718	3652.72
425.925	3701.87
426.133	3722.35
426.341	4236.39
426.548	4172.91
426.756	4267.11
426.964	4279.4
427.171	4451.43
427.379	4465.77
427.586	4521.06
427.794	4711.52
428.001	4944.99
428.209	5276.76
428.417	5104.73
428.624	5461.08
428.832	5452.89
429.039	5338.2
429.247	5493.85
429.454	5870.67
429.662	6497.35
429.869	5938.26
430.076	6448.2
430.284	6284.36
430.491	6241.36
430.699	6970.43
430.906	6876.23
431.114	6923.33
431.321	7132.22
431.528	7160.89
431.736	7853.11
431.943	7969.84
432.15	7920.69
432.358	8117.29
432.565	8336.43
432.772	8145.97
432.979	8735.78
433.187	8889.38
433.394	8768.55
433.601	9526.3
433.808	9483.29
434.016	9597.98
434.223	9907.22
434.43	10509.32
434.637	10146.83
434.844	10781.7
435.052	11127.81
435.259	10830.85
435.466	11344.89
435.673	10800.13
435.88	11729.91
436.087	12274.67
436.294	12008.44
436.501	11992.05
436.708	12360.69
436.915	12602.35
437.122	13415.39
437.329	13065.19
437.537	13585.37
437.743	13954.01
437.95	13597.66
438.157	14418.89
438.364	14879.69
438.571	14844.87
438.778	14912.46
438.985	16194.48
439.192	15612.86
439.399	16305.07
439.606	15868.86
439.813	16499.63
440.02	17259.43
440.227	17318.82
440.433	17025.96
440.64	17388.45
440.847	17417.12
441.054	17800.09
441.261	19264.39
441.467	18760.59
441.674	19182.47
441.881	20120.44
442.088	19770.24
442.294	19436.42
442.501	20331.38
442.708	20411.25
442.914	21619.55
443.121	21891.93
443.328	21408.61
443.534	23337.8
443.741	22512.47
443.948	21840.73
444.154	23526.21
444.361	23573.31
444.568	23669.57
444.774	23472.96
444.981	23831.36
445.187	24552.24
445.394	25539.36
445.6	25303.85
445.807	27863.81
446.013	26557.21
446.22	26727.19
446.426	27994.88
446.633	27925.25
446.839	28967.66
447.046	27935.49
447.252	29500.14
447.459	29670.12
447.665	29342.44
447.871	30485.21
448.078	31787.72
448.284	30632.66
448.491	31046.35
448.697	32139.97
448.903	32768.69
449.11	32959.16
449.316	32074.43
449.522	32877.24
449.728	33710.76
449.935	34101.92
450.141	33594.03
450.347	34710.17
450.553	33411.76
450.76	33966.76
450.966	35644.04
451.172	34599.58
451.378	35433.1
451.584	34914.97
451.791	35818.12
451.997	35035.8
452.203	35926.66
452.409	36037.25
452.615	36033.16
452.821	34421.41
453.027	34351.77
453.233	36158.08
453.44	34620.06
453.646	34876.05
453.852	35017.36
454.058	35590.8
454.264	34329.25
454.47	34828.95
454.676	34319.01
454.882	35504.78
455.088	32543.42
455.294	32807.61
455.5	33104.56
455.705	33585.83
455.911	32551.61
456.117	31623.88
456.323	31216.33
456.529	29025.01
456.735	30644.95
456.941	30069.47
457.147	29743.84
457.352	28230.4
457.558	28195.58
457.764	28027.65
457.97	27888.39
458.176	26925.84
458.381	26753.81
458.587	25668.39
458.793	26161.95
458.999	24525.62
459.204	26110.75
459.41	25129.77
459.616	23671.62
459.821	23759.68
460.027	23417.67
460.233	22739.79
460.438	21752.67
460.644	22051.67
460.85	21060.46
461.055	20622.19
461.261	20589.42
461.466	19047.3
461.672	18789.26
461.878	19886.97
462.083	18451.35
462.289	18109.33
462.494	17693.6
462.7	17136.55
462.905	16677.8
463.111	17036.2
463.316	17189.8
463.522	16753.58
463.727	16978.86
463.932	16769.96
464.138	16446.38
464.343	16653.23
464.549	16004.02
464.754	16481.2
464.959	16479.15
465.165	16354.23
465.37	15659.96
465.575	15276.99
465.781	15571.9
465.986	15748.03
466.191	15205.31
466.397	15076.29
466.602	14298.06
