Data from USB4F104151__20__12-11-41-160.txt Node

Date: Fri Mar 14 12:11:41 EDT 2025
User: louis
Spectrometer: USB4F10415
Trigger mode: 4
Integration Time (sec): 5.000000E-2
Scans to average: 1
Electric dark correction enabled: true
Nonlinearity correction enabled: false
Boxcar width: 0
XAxis mode: Wavelengths
Number of Pixels in Spectrum: 3648
>>>>>Begin Spectral Data<<<<<
178.204	-206.67
178.424	-206.67
178.644	-206.67
178.864	-196.43
179.084	-171.86
179.304	51.37
179.524	-61.27
179.744	-20.31
179.964	24.75
180.184	-46.93
180.404	45.23
180.624	45.23
180.844	14.51
181.064	-5.97
181.283	-26.45
181.503	-61.27
181.723	41.13
181.943	-87.89
182.163	90.28
182.383	-10.07
182.602	14.51
182.822	102.57
183.042	82.09
183.262	41.13
183.482	-14.17
183.701	0.17
183.921	20.65
184.141	0.17
184.361	92.33
184.58	39.08
184.8	6.31
185.02	-53.08
185.239	106.67
185.459	4.27
185.679	55.47
185.898	51.37
186.118	57.51
186.338	34.99
186.557	24.75
186.777	20.65
186.997	6.31
187.216	43.18
187.436	84.14
187.655	98.47
187.875	47.27
188.095	22.7
188.314	73.9
188.534	22.7
188.753	18.6
188.973	53.42
189.192	67.75
189.412	90.28
189.631	47.27
189.851	37.03
190.07	55.47
190.29	-5.97
190.509	69.8
190.729	65.71
190.948	77.99
191.168	155.82
191.387	24.75
191.607	-14.17
191.826	37.03
192.045	-18.26
192.265	8.36
192.484	45.23
192.704	10.41
192.923	51.37
193.142	139.43
193.362	127.14
193.581	39.08
193.8	57.51
194.02	51.37
194.239	-3.93
194.458	53.42
194.678	-16.21
194.897	-3.93
195.116	39.08
195.335	47.27
195.555	26.79
195.774	53.42
195.993	73.9
196.212	2.22
196.432	41.13
196.651	-48.98
196.87	-55.12
197.089	96.43
197.308	26.79
197.528	6.31
197.747	37.03
197.966	37.03
198.185	77.99
198.404	16.55
198.623	-1.88
198.842	53.42
199.062	41.13
199.281	161.96
199.5	12.46
199.719	57.51
199.938	57.51
200.157	69.8
200.376	61.61
200.595	34.99
200.814	16.55
201.033	22.7
201.252	116.9
201.471	24.75
201.69	61.61
201.909	114.86
202.128	65.71
202.347	28.84
202.566	43.18
202.785	-26.45
203.004	-40.79
203.223	92.33
203.442	86.19
203.661	2.22
203.879	73.9
204.098	53.42
204.317	-44.88
204.536	102.57
204.755	-18.26
204.974	75.95
205.193	71.85
205.411	157.86
205.63	84.14
205.849	63.66
206.068	-5.97
206.287	-18.26
206.505	147.62
206.724	10.41
206.943	51.37
207.162	10.41
207.381	0.17
207.599	-10.07
207.818	77.99
208.037	-5.97
208.255	10.41
208.474	59.56
208.693	141.48
208.911	55.47
209.13	34.99
209.349	65.71
209.567	57.51
209.786	47.27
210.005	98.47
210.223	34.99
210.442	-34.64
210.661	69.8
210.879	43.18
211.098	51.37
211.316	32.94
211.535	100.52
211.753	63.66
211.972	108.71
212.191	55.47
212.409	77.99
212.628	49.32
212.846	-10.07
213.065	41.13
213.283	22.7
213.502	90.28
213.72	16.55
213.938	37.03
214.157	24.75
214.375	2.22
214.594	26.79
214.812	61.61
215.031	8.36
215.249	-16.21
215.467	98.47
215.686	57.51
215.904	116.9
216.122	-67.41
216.341	26.79
216.559	49.32
216.778	80.04
216.996	80.04
217.214	24.75
217.432	-5.97
217.651	-48.98
217.869	57.51
218.087	71.85
218.306	20.65
218.524	39.08
218.742	43.18
218.96	86.19
219.179	14.51
219.397	73.9
219.615	92.33
219.833	18.6
220.051	-42.84
220.27	73.9
220.488	121
220.706	55.47
220.924	-22.36
221.142	28.84
221.36	-5.97
221.578	22.7
221.796	30.89
222.015	41.13
222.233	69.8
222.451	6.31
222.669	84.14
222.887	73.9
223.105	34.99
223.323	22.7
223.541	4.27
223.759	28.84
223.977	45.23
224.195	51.37
224.413	-3.93
224.631	67.75
224.849	59.56
225.067	157.86
225.285	-55.12
225.503	34.99
225.721	45.23
225.939	41.13
226.157	59.56
226.375	153.77
226.592	-46.93
226.81	22.7
227.028	30.89
227.246	69.8
227.464	51.37
227.682	77.99
227.9	108.71
228.117	92.33
228.335	39.08
228.553	12.46
228.771	8.36
228.989	30.89
229.206	8.36
229.424	-96.08
229.642	-57.17
229.86	26.79
230.077	49.32
230.295	84.14
230.513	82.09
230.731	69.8
230.948	49.32
231.166	88.23
231.384	-22.36
231.601	39.08
231.819	145.58
232.037	-16.21
232.254	-16.21
232.472	16.55
232.689	84.14
232.907	102.57
233.125	43.18
233.342	-12.12
233.56	53.42
233.777	-75.6
233.995	80.04
234.213	86.19
234.43	-34.64
234.648	32.94
234.865	47.27
235.083	88.23
235.3	-14.17
235.518	18.6
235.735	125.1
235.953	43.18
236.17	67.75
236.388	43.18
236.605	-16.21
236.822	10.41
237.04	28.84
237.257	49.32
237.475	47.27
237.692	2.22
237.909	0.17
238.127	55.47
238.344	16.55
238.562	75.95
238.779	45.23
238.996	12.46
239.214	49.32
239.431	26.79
239.648	16.55
239.865	67.75
240.083	59.56
240.3	41.13
240.517	22.7
240.735	51.37
240.952	37.03
241.169	-16.21
241.386	69.8
241.603	39.08
241.821	-57.17
242.038	41.13
242.255	47.27
242.472	73.9
242.689	77.99
242.907	98.47
243.124	22.7
243.341	86.19
243.558	28.84
243.775	57.51
243.992	-20.31
244.209	63.66
244.426	123.05
244.643	51.37
244.86	-40.79
245.078	82.09
245.295	43.18
245.512	22.7
245.729	-3.93
245.946	84.14
246.163	69.8
246.38	41.13
246.597	-36.69
246.814	22.7
247.031	14.51
247.248	86.19
247.464	43.18
247.681	4.27
247.898	18.6
248.115	-32.6
248.332	34.99
248.549	28.84
248.766	123.05
248.983	22.7
249.2	-18.26
249.417	63.66
249.633	8.36
249.85	22.7
250.067	-22.36
250.284	104.62
250.501	4.27
250.717	57.51
250.934	6.31
251.151	30.89
251.368	-61.27
251.585	90.28
251.801	63.66
252.018	32.94
252.235	2.22
252.451	-61.27
252.668	67.75
252.885	82.09
253.102	18.6
253.318	51.37
253.535	24.75
253.752	4.27
253.968	-10.07
254.185	-46.93
254.401	63.66
254.618	41.13
254.835	18.6
255.051	90.28
255.268	57.51
255.484	77.99
255.701	37.03
255.917	2.22
256.134	24.75
256.351	-44.88
256.567	-75.6
256.784	47.27
257	-34.64
257.217	65.71
257.433	82.09
257.65	32.94
257.866	129.19
258.082	-5.97
258.299	-51.03
258.515	129.19
258.732	-24.4
258.948	65.71
259.165	12.46
259.381	16.55
259.597	20.65
259.814	2.22
260.03	37.03
260.246	65.71
260.463	57.51
260.679	55.47
260.895	55.47
261.112	73.9
261.328	0.17
261.544	47.27
261.761	182.44
261.977	94.38
262.193	2.22
262.409	55.47
262.626	65.71
262.842	121
263.058	-28.5
263.274	-28.5
263.49	65.71
263.707	47.27
263.923	45.23
264.139	-8.02
264.355	57.51
264.571	90.28
264.787	98.47
265.004	121
265.22	43.18
265.436	20.65
265.652	-3.93
265.868	-10.07
266.084	-12.12
266.3	12.46
266.516	55.47
266.732	34.99
266.948	18.6
267.164	-44.88
267.38	86.19
267.596	-16.21
267.812	143.53
268.028	80.04
268.244	55.47
268.46	80.04
268.676	55.47
268.892	86.19
269.108	84.14
269.324	6.31
269.54	-1.88
269.756	49.32
269.972	-40.79
270.188	26.79
270.403	-30.55
270.619	26.79
270.835	59.56
271.051	55.47
271.267	45.23
271.483	30.89
271.698	16.55
271.914	24.75
272.13	8.36
272.346	0.17
272.562	55.47
272.777	26.79
272.993	14.51
273.209	55.47
273.425	61.61
273.64	10.41
273.856	55.47
274.072	32.94
274.287	20.65
274.503	24.75
274.719	82.09
274.934	8.36
275.15	-67.41
275.366	-40.79
275.581	-24.4
275.797	18.6
276.012	10.41
276.228	32.94
276.444	2.22
276.659	94.38
276.875	-71.51
277.09	-3.93
277.306	-8.02
277.521	67.75
277.737	49.32
277.952	102.57
278.168	82.09
278.383	100.52
278.599	39.08
278.814	-3.93
279.03	0.17
279.245	82.09
279.461	-10.07
279.676	37.03
279.892	-14.17
280.107	-40.79
280.322	-8.02
280.538	71.85
280.753	24.75
280.969	110.76
281.184	14.51
281.399	47.27
281.615	14.51
281.83	-3.93
282.045	22.7
282.26	32.94
282.476	69.8
282.691	12.46
282.906	28.84
283.122	14.51
283.337	12.46
283.552	57.51
283.767	86.19
283.983	102.57
284.198	30.89
284.413	-26.45
284.628	28.84
284.843	82.09
285.058	10.41
285.274	59.56
285.489	0.17
285.704	-46.93
285.919	-14.17
286.134	6.31
286.349	-3.93
286.564	-36.69
286.779	69.8
286.995	49.32
287.21	-83.8
287.425	41.13
287.64	18.6
287.855	32.94
288.07	-30.55
288.285	104.62
288.5	49.32
288.715	129.19
288.93	110.76
289.145	-5.97
289.36	43.18
289.575	67.75
289.79	145.58
290.004	14.51
290.219	69.8
290.434	10.41
290.649	-20.31
290.864	-30.55
291.079	-40.79
291.294	-3.93
291.509	32.94
291.724	8.36
291.938	-63.32
292.153	16.55
292.368	43.18
292.583	57.51
292.798	65.71
293.012	98.47
293.227	10.41
293.442	8.36
293.657	116.9
293.871	53.42
294.086	28.84
294.301	137.38
294.516	61.61
294.73	-10.07
294.945	37.03
295.16	71.85
295.374	69.8
295.589	71.85
295.804	-10.07
296.018	32.94
296.233	71.85
296.447	69.8
296.662	-16.21
296.877	69.8
297.091	32.94
297.306	47.27
297.52	28.84
297.735	14.51
297.949	43.18
298.164	49.32
298.378	-20.31
298.593	-61.27
298.807	-48.98
299.022	16.55
299.236	53.42
299.451	-18.26
299.665	10.41
299.88	49.32
300.094	-12.12
300.309	-28.5
300.523	-3.93
300.737	-5.97
300.952	2.22
301.166	30.89
301.381	16.55
301.595	53.42
301.809	67.75
302.024	16.55
302.238	-1.88
302.452	69.8
302.667	-3.93
302.881	139.43
303.095	118.95
303.309	67.75
303.524	10.41
303.738	-1.88
303.952	51.37
304.166	98.47
304.381	-91.99
304.595	141.48
304.809	34.99
305.023	77.99
305.237	-79.7
305.452	34.99
305.666	63.66
305.88	57.51
306.094	8.36
306.308	61.61
306.522	55.47
306.736	34.99
306.95	65.71
307.164	24.75
307.379	-40.79
307.593	151.72
307.807	45.23
308.021	90.28
308.235	94.38
308.449	-14.17
308.663	12.46
308.877	86.19
309.091	63.66
309.305	49.32
309.519	-57.17
309.733	63.66
309.947	0.17
310.161	18.6
310.374	39.08
310.588	8.36
310.802	-18.26
311.016	-34.64
311.23	12.46
311.444	26.79
311.658	32.94
311.872	8.36
312.085	96.43
312.299	8.36
312.513	92.33
312.727	-5.97
312.941	2.22
313.154	28.84
313.368	84.14
313.582	73.9
313.796	90.28
314.009	77.99
314.223	67.75
314.437	12.46
314.651	37.03
314.864	-24.4
315.078	18.6
315.292	-48.98
315.505	-10.07
315.719	77.99
315.933	47.27
316.146	14.51
316.36	-20.31
316.573	-24.4
316.787	86.19
317.001	-5.97
317.214	-73.56
317.428	14.51
317.641	2.22
317.855	-38.74
318.068	55.47
318.282	45.23
318.495	127.14
318.709	90.28
318.922	53.42
319.136	110.76
319.349	75.95
319.563	-16.21
319.776	49.32
319.99	-40.79
320.203	-16.21
320.417	57.51
320.63	30.89
320.843	69.8
321.057	0.17
321.27	18.6
321.483	51.37
321.697	121
321.91	100.52
322.124	47.27
322.337	98.47
322.55	10.41
322.763	14.51
322.977	45.23
323.19	16.55
323.403	12.46
323.617	57.51
323.83	112.81
324.043	24.75
324.256	34.99
324.469	-20.31
324.683	112.81
324.896	0.17
325.109	39.08
325.322	-24.4
325.535	55.47
325.748	2.22
325.962	12.46
326.175	49.32
326.388	102.57
326.601	-38.74
326.814	57.51
327.027	30.89
327.24	14.51
327.453	8.36
327.666	73.9
327.879	102.57
328.092	71.85
328.305	57.51
328.518	37.03
328.731	10.41
328.944	28.84
329.157	61.61
329.37	-12.12
329.583	168.1
329.796	61.61
330.009	6.31
330.222	37.03
330.435	104.62
330.648	102.57
330.861	24.75
331.073	41.13
331.286	155.82
331.499	-30.55
331.712	-18.26
331.925	-10.07
332.138	-1.88
332.35	110.76
332.563	59.56
332.776	96.43
332.989	47.27
333.202	-8.02
333.414	14.51
333.627	20.65
333.84	14.51
334.053	100.52
334.265	2.22
334.478	-44.88
334.691	-38.74
334.903	51.37
335.116	-5.97
335.329	20.65
335.541	34.99
335.754	63.66
335.966	-42.84
336.179	10.41
336.392	-42.84
336.604	71.85
336.817	6.31
337.029	63.66
337.242	94.38
337.454	77.99
337.667	-12.12
337.88	145.58
338.092	51.37
338.305	14.51
338.517	2.22
338.729	30.89
338.942	84.14
339.154	-12.12
339.367	32.94
339.579	106.67
339.792	-1.88
340.004	110.76
340.217	-46.93
340.429	30.89
340.641	-26.45
340.854	28.84
341.066	-81.75
341.278	39.08
341.491	69.8
341.703	69.8
341.915	39.08
342.128	63.66
342.34	108.71
342.552	55.47
342.764	77.99
342.977	55.47
343.189	37.03
343.401	43.18
343.613	-26.45
343.826	10.41
344.038	26.79
344.25	51.37
344.462	-79.7
344.674	63.66
344.886	-5.97
345.099	2.22
345.311	12.46
345.523	123.05
345.735	-3.93
345.947	100.52
346.159	37.03
346.371	24.75
346.583	28.84
346.795	28.84
347.007	-16.21
347.219	4.27
347.431	57.51
347.643	73.9
347.855	39.08
348.067	73.9
348.279	-14.17
348.491	45.23
348.703	24.75
348.915	41.13
349.127	32.94
349.339	30.89
349.551	32.94
349.763	82.09
349.975	51.37
350.187	129.19
350.399	69.8
350.61	88.23
350.822	45.23
351.034	8.36
351.246	30.89
351.458	90.28
351.669	90.28
351.881	59.56
352.093	145.58
352.305	-14.17
352.517	41.13
352.728	73.9
352.94	24.75
353.152	92.33
353.363	24.75
353.575	26.79
353.787	80.04
353.999	-18.26
354.21	53.42
354.422	-3.93
354.633	47.27
354.845	16.55
355.057	45.23
355.268	12.46
355.48	-14.17
355.692	57.51
355.903	-1.88
356.115	-28.5
356.326	37.03
356.538	207.02
356.749	-22.36
356.961	102.57
357.172	61.61
357.384	100.52
357.595	149.67
357.807	6.31
358.018	-18.26
358.23	14.51
358.441	127.14
358.653	34.99
358.864	71.85
359.075	-51.03
359.287	110.76
359.498	14.51
359.709	65.71
359.921	34.99
360.132	41.13
360.344	-14.17
360.555	-32.6
360.766	-36.69
360.977	-1.88
361.189	41.13
361.4	-8.02
361.611	110.76
361.823	41.13
362.034	20.65
362.245	41.13
362.456	100.52
362.667	34.99
362.879	-16.21
363.09	41.13
363.301	100.52
363.512	-12.12
363.723	26.79
363.935	-24.4
364.146	90.28
364.357	30.89
364.568	67.75
364.779	-44.88
364.99	100.52
365.201	16.55
365.412	55.47
365.623	-34.64
365.834	106.67
366.045	67.75
366.256	24.75
366.467	102.57
366.678	12.46
366.889	90.28
367.1	2.22
367.311	80.04
367.522	26.79
367.733	47.27
367.944	49.32
368.155	51.37
368.366	67.75
368.577	82.09
368.788	57.51
368.999	-85.84
369.209	41.13
369.42	149.67
369.631	186.54
369.842	57.51
370.053	24.75
370.264	98.47
370.474	-18.26
370.685	63.66
370.896	59.56
371.107	92.33
371.317	143.53
371.528	-96.08
371.739	108.71
371.95	34.99
372.16	82.09
372.371	2.22
372.582	37.03
372.792	2.22
373.003	32.94
373.214	45.23
373.424	8.36
373.635	-32.6
373.846	43.18
374.056	73.9
374.267	-42.84
374.477	16.55
374.688	18.6
374.898	69.8
375.109	37.03
375.319	-1.88
375.53	131.24
375.74	69.8
375.951	59.56
376.161	-12.12
376.372	75.95
376.582	32.94
376.793	51.37
377.003	34.99
377.214	39.08
377.424	14.51
377.635	145.58
377.845	-24.4
378.055	102.57
378.266	10.41
378.476	63.66
378.686	80.04
378.897	65.71
379.107	92.33
379.317	59.56
379.528	26.79
379.738	90.28
379.948	2.22
380.158	82.09
380.369	34.99
380.579	32.94
380.789	51.37
380.999	57.51
381.21	67.75
381.42	82.09
381.63	-67.41
381.84	112.81
382.05	57.51
382.261	63.66
382.471	116.9
382.681	0.17
382.891	151.72
383.101	104.62
383.311	-51.03
383.521	61.61
383.731	90.28
383.941	151.72
384.151	30.89
384.361	32.94
384.571	82.09
384.781	77.99
384.991	125.1
385.201	145.58
385.411	114.86
385.621	129.19
385.831	12.46
386.041	45.23
386.251	22.7
386.461	94.38
386.671	59.56
386.881	20.65
387.091	30.89
387.301	86.19
387.511	-8.02
387.72	8.36
387.93	77.99
388.14	32.94
388.35	49.32
388.56	86.19
388.769	110.76
388.979	41.13
389.189	-20.31
389.399	45.23
389.609	125.1
389.818	88.23
390.028	59.56
390.238	90.28
390.447	-40.79
390.657	59.56
390.867	14.51
391.076	-14.17
391.286	82.09
391.496	80.04
391.705	65.71
391.915	37.03
392.125	71.85
392.334	98.47
392.544	114.86
392.753	45.23
392.963	6.31
393.172	30.89
393.382	51.37
393.591	98.47
393.801	47.27
394.01	82.09
394.22	59.56
394.429	106.67
394.639	116.9
394.848	69.8
395.058	55.47
395.267	71.85
395.477	41.13
395.686	67.75
395.895	153.77
396.105	102.57
396.314	84.14
396.524	80.04
396.733	30.89
396.942	137.38
397.152	116.9
397.361	82.09
397.57	80.04
397.78	110.76
397.989	121
398.198	184.49
398.407	51.37
398.617	45.23
398.826	86.19
399.035	45.23
399.244	174.25
399.453	55.47
399.663	73.9
399.872	147.62
400.081	14.51
400.29	168.1
400.499	133.29
400.708	139.43
400.917	102.57
401.127	41.13
401.336	125.1
401.545	188.58
401.754	61.61
401.963	100.52
402.172	151.72
402.381	114.86
402.59	71.85
402.799	88.23
403.008	223.4
403.217	106.67
403.426	184.49
403.635	24.75
403.844	53.42
404.053	106.67
404.262	114.86
404.471	262.31
404.68	98.47
404.888	164.01
405.097	127.14
405.306	84.14
405.515	170.15
405.724	157.86
405.933	184.49
406.142	164.01
406.35	159.91
406.559	86.19
406.768	147.62
406.977	182.44
407.185	209.06
407.394	145.58
407.603	186.54
407.812	211.11
408.02	247.97
408.229	207.02
408.438	284.84
408.646	143.53
408.855	211.11
409.064	288.93
409.272	217.26
409.481	325.8
409.69	221.35
409.898	223.4
410.107	338.09
410.315	340.13
410.524	331.94
410.733	268.45
410.941	430.24
411.15	393.38
411.358	325.8
411.567	385.19
411.775	354.47
411.984	407.72
412.192	467.11
412.401	469.16
412.609	520.35
412.818	460.96
413.026	532.64
413.234	542.88
413.443	442.53
413.651	532.64
413.86	508.07
414.068	557.22
414.276	680.1
414.485	538.79
414.693	624.8
414.901	682.14
415.11	694.43
415.318	665.76
415.526	655.52
415.734	676
415.943	727.2
416.151	864.41
416.359	827.55
416.567	837.79
416.776	886.94
416.984	948.38
417.192	981.15
417.4	888.99
417.608	929.95
417.817	897.18
418.025	1038.49
418.233	1165.46
418.441	1067.16
418.649	1122.46
418.857	1257.62
419.065	1265.82
419.273	1173.66
419.481	1292.44
419.689	1317.01
419.897	1443.99
420.105	1464.47
420.313	1542.29
420.521	1554.58
420.729	1644.69
420.937	1634.45
421.145	1681.55
421.353	1742.99
421.561	1878.16
421.769	1824.91
421.977	1923.21
422.185	1968.27
422.393	2173.07
422.601	2265.22
422.809	2177.16
423.017	2304.14
423.224	2347.14
423.432	2392.2
423.64	2324.62
423.848	2676.87
424.056	2453.64
424.263	2695.3
424.471	2670.72
424.679	2779.26
424.887	2857.09
425.094	3053.69
425.302	3094.65
425.51	3272.82
425.718	3225.72
425.925	3262.58
426.133	3319.93
426.341	3668.08
426.548	3735.67
426.756	3778.67
426.964	3836.02
427.171	3979.37
427.379	4196.46
427.586	4229.23
427.794	4354.15
428.001	4515.94
428.209	4687.97
428.417	4655.2
428.624	4931.68
428.832	4978.78
429.039	4927.58
429.247	4937.82
429.454	5470.3
429.662	5754.96
429.869	5494.87
430.076	5761.11
430.284	5621.84
430.491	6053.97
430.699	6199.37
430.906	6201.42
431.114	6432.84
431.321	6686.79
431.528	6709.32
431.736	7129.15
431.943	7477.3
432.15	7213.12
432.358	7278.65
432.565	7759.92
432.772	7620.66
432.979	8069.17
433.187	8216.62
433.394	8224.81
433.601	8699.94
433.808	8843.3
434.016	8661.03
434.223	9185.31
434.43	9631.77
434.637	9459.74
434.844	9990.16
435.052	10186.77
435.259	10211.34
435.466	10412.04
435.673	10231.82
435.88	10913.8
436.087	11374.59
436.294	11429.88
436.501	11206.66
436.708	11280.38
436.915	11792.37
437.122	12324.85
437.329	12171.25
437.537	12445.68
437.743	12910.57
437.95	12939.24
438.157	13332.45
438.364	13850.58
438.571	13815.77
438.778	14051.28
438.985	15222.72
439.192	14641.1
439.399	15169.48
439.606	14669.77
439.813	15613.88
440.02	16570.29
440.227	16146.36
440.433	16125.88
440.64	16553.9
440.847	16617.39
441.054	17035.17
441.261	18046.87
441.467	17754.01
441.674	17923.99
441.881	19062.66
442.088	18749.32
442.294	18608.01
442.501	18970.51
442.708	19531.65
442.914	19974.01
443.121	21067.63
443.328	20615.02
443.534	21931.87
443.741	21401.44
443.948	21147.5
444.154	22720.34
444.361	22847.31
444.568	22640.47
444.774	22550.35
444.981	23009.1
445.187	23691.07
445.394	24616.76
445.6	24184.63
445.807	26267.42
446.013	25607.97
446.22	26175.26
446.426	27070.22
446.633	27268.87
446.839	27991.81
447.046	26978.06
447.252	28653.3
447.459	28219.13
447.665	28456.7
447.871	29454.06
448.078	31295.18
448.284	29535.98
448.491	29970.15
448.697	31076.05
448.903	31897.28
449.11	31940.29
449.316	31348.43
449.522	32341.69
449.728	32945.84
449.935	32941.75
450.141	33060.53
450.347	33738.41
450.553	32655.03
450.76	33031.86
450.966	34285.22
451.172	33965.73
451.378	34619.03
451.584	33502.89
451.791	35008.15
451.997	34590.36
452.203	35241.62
452.409	35106.45
452.615	34850.45
452.821	33597.1
453.027	33277.61
453.233	35026.58
453.44	33515.18
453.646	34076.32
453.852	34547.36
454.058	34973.33
454.264	33523.37
454.47	34711.19
454.676	33392.3
454.882	34764.44
455.088	31542.99
455.294	32085.7
455.5	32896.69
455.705	33203.89
455.911	31571.66
456.117	31176.4
456.323	30666.45
456.529	29193.97
456.735	30326.49
456.941	29224.68
457.147	29009.65
457.352	27948.8
457.558	27741.96
457.764	28002.05
457.97	26857.23
458.176	26621.72
458.381	26472.21
458.587	25265.96
458.793	25362.22
458.999	23854.91
459.204	25917.22
459.41	24784.69
459.616	23471.94
459.821	23234.38
460.027	23166.79
460.233	22814.54
460.438	21643.1
460.644	21780.32
460.85	21084.01
461.055	20324.21
461.261	20580.21
461.466	18933.64
461.672	18337.68
461.878	19666.81
462.083	18466.7
462.289	18032.54
462.494	17921.95
462.7	17080.23
462.905	16840.62
463.111	17315.75
463.316	17209.25
463.522	16967.59
463.727	17041.32
463.932	16887.72
464.138	16803.75
464.343	16822.19
464.549	16127.92
464.754	16770.99
464.959	16588.72
465.165	16508.85
465.37	15835.07
465.575	15484.86
465.781	15957.94
465.986	16177.08
466.191	15628.22
466.397	15024.07
466.602	14555.08
466.807	15019.97
467.012	15097.8
