Data from USB4F104151__7__12-11-16-113.txt Node

Date: Fri Mar 14 12:11:16 EDT 2025
User: louis
Spectrometer: USB4F10415
Trigger mode: 4
Integration Time (sec): 5.000000E-2
Scans to average: 1
Electric dark correction enabled: true
Nonlinearity correction enabled: false
Boxcar width: 0
XAxis mode: Wavelengths
Number of Pixels in Spectrum: 3648
>>>>>Begin Spectral Data<<<<<
178.204	-265.72
178.424	-265.72
178.644	-265.72
178.864	-267.77
179.084	-249.34
179.304	2.56
179.524	10.75
179.744	-5.63
179.964	72.19
180.184	-46.59
180.404	59.9
180.624	-42.5
180.844	53.76
181.064	-134.65
181.283	43.52
181.503	-32.26
181.723	18.94
181.943	-75.26
182.163	70.14
182.383	39.42
182.602	64
182.822	74.24
183.042	-17.92
183.262	-34.3
183.482	12.8
183.701	70.14
183.921	2.56
184.141	-32.26
184.361	59.9
184.58	10.75
184.8	29.18
185.02	12.8
185.239	64
185.459	-17.92
185.679	84.48
185.898	-9.73
186.118	76.29
186.338	2.56
186.557	88.57
186.777	-36.35
186.997	12.8
187.216	-7.68
187.436	88.57
187.655	53.76
187.875	137.73
188.095	33.28
188.314	74.24
188.534	66.05
188.753	14.85
188.973	-26.11
189.192	84.48
189.412	66.05
189.631	31.23
189.851	-1.54
190.07	51.71
190.29	-7.68
190.509	-17.92
190.729	-5.63
190.948	12.8
191.168	180.73
191.387	88.57
191.607	45.57
191.826	49.66
192.045	0.51
192.265	49.66
192.484	64
192.704	-67.07
192.923	4.61
193.142	119.29
193.362	45.57
193.581	111.1
193.8	78.33
194.02	53.76
194.239	0.51
194.458	-5.63
194.678	27.14
194.897	0.51
195.116	-11.78
195.335	31.23
195.555	43.52
195.774	-44.54
195.993	2.56
196.212	41.47
196.432	-32.26
196.651	-36.35
196.87	-85.5
197.089	123.39
197.308	29.18
197.528	37.38
197.747	-1.54
197.966	12.8
198.185	125.44
198.404	-62.98
198.623	4.61
198.842	37.38
199.062	-9.73
199.281	88.57
199.5	59.9
199.719	47.62
199.938	94.72
200.157	2.56
200.376	25.09
200.595	-17.92
200.814	43.52
201.033	-15.87
201.252	64
201.471	-32.26
201.69	164.35
201.909	-13.82
202.128	18.94
202.347	23.04
202.566	70.14
202.785	41.47
203.004	-42.5
203.223	121.34
203.442	64
203.661	29.18
203.879	-54.78
204.098	55.81
204.317	-30.21
204.536	107.01
204.755	-22.02
204.974	20.99
205.193	23.04
205.411	51.71
205.63	6.66
205.849	57.86
206.068	45.57
206.287	2.56
206.505	47.62
206.724	-38.4
206.943	39.42
207.162	-34.3
207.381	-24.06
207.599	8.7
207.818	23.04
208.037	-9.73
208.255	-22.02
208.474	47.62
208.693	27.14
208.911	-87.55
209.13	20.99
209.349	-1.54
209.567	74.24
209.786	25.09
210.005	27.14
210.223	-38.4
210.442	-52.74
210.661	4.61
210.879	-7.68
211.098	29.18
211.316	27.14
211.535	51.71
211.753	14.85
211.972	49.66
212.191	-17.92
212.409	59.9
212.628	76.29
212.846	-32.26
213.065	31.23
213.283	31.23
213.502	8.7
213.72	14.85
213.938	74.24
214.157	-95.74
214.375	33.28
214.594	84.48
214.812	-7.68
215.031	27.14
215.249	29.18
215.467	33.28
215.686	64
215.904	86.53
216.122	-1.54
216.341	66.05
216.559	-30.21
216.778	100.86
216.996	86.53
217.214	23.04
217.432	-15.87
217.651	20.99
217.869	27.14
218.087	-11.78
218.306	-60.93
218.524	14.85
218.742	16.9
218.96	72.19
219.179	6.66
219.397	-7.68
219.615	121.34
219.833	104.96
220.051	-40.45
220.27	74.24
220.488	10.75
220.706	-9.73
220.924	-28.16
221.142	-50.69
221.36	-52.74
221.578	10.75
221.796	43.52
222.015	41.47
222.233	41.47
222.451	27.14
222.669	-1.54
222.887	-9.73
223.105	-79.36
223.323	-81.41
223.541	-19.97
223.759	53.76
223.977	14.85
224.195	47.62
224.413	66.05
224.631	53.76
224.849	4.61
225.067	150.01
225.285	-1.54
225.503	-19.97
225.721	-69.12
225.939	27.14
226.157	16.9
226.375	188.93
226.592	-42.5
226.81	-19.97
227.028	10.75
227.246	72.19
227.464	-28.16
227.682	131.58
227.9	61.95
228.117	29.18
228.335	61.95
228.553	8.7
228.771	72.19
228.989	20.99
229.206	47.62
229.424	-56.83
229.642	4.61
229.86	-34.3
230.077	96.77
230.295	70.14
230.513	80.38
230.731	70.14
230.948	78.33
231.166	76.29
231.384	49.66
231.601	-42.5
231.819	100.86
232.037	53.76
232.254	-30.21
232.472	18.94
232.689	23.04
232.907	51.71
233.125	43.52
233.342	-50.69
233.56	-30.21
233.777	-46.59
233.995	88.57
234.213	94.72
234.43	-48.64
234.648	-38.4
234.865	-46.59
235.083	8.7
235.3	8.7
235.518	66.05
235.735	76.29
235.953	78.33
236.17	18.94
236.388	16.9
236.605	37.38
236.822	150.01
237.04	41.47
237.257	51.71
237.475	-1.54
237.692	37.38
237.909	41.47
238.127	-81.41
238.344	-7.68
238.562	-44.54
238.779	-11.78
238.996	-69.12
239.214	-30.21
239.431	55.81
239.648	-5.63
239.865	6.66
240.083	68.09
240.3	-3.58
240.517	-15.87
240.735	-19.97
240.952	14.85
241.169	47.62
241.386	6.66
241.603	10.75
241.821	-13.82
242.038	51.71
242.255	25.09
242.472	-40.45
242.689	55.81
242.907	92.67
243.124	18.94
243.341	-75.26
243.558	25.09
243.775	-11.78
243.992	-60.93
244.209	53.76
244.426	104.96
244.643	25.09
244.86	-26.11
245.078	29.18
245.295	53.76
245.512	-36.35
245.729	-7.68
245.946	33.28
246.163	104.96
246.38	-11.78
246.597	31.23
246.814	35.33
247.031	6.66
247.248	127.49
247.464	-36.35
247.681	74.24
247.898	68.09
248.115	-19.97
248.332	-7.68
248.549	43.52
248.766	139.77
248.983	23.04
249.2	14.85
249.417	117.25
249.633	12.8
249.85	84.48
250.067	-56.83
250.284	4.61
250.501	61.95
250.717	76.29
250.934	-75.26
251.151	-9.73
251.368	72.19
251.585	31.23
251.801	4.61
252.018	-50.69
252.235	92.67
252.451	-7.68
252.668	55.81
252.885	37.38
253.102	12.8
253.318	-40.45
253.535	-48.64
253.752	10.75
253.968	-46.59
254.185	-28.16
254.401	-24.06
254.618	39.42
254.835	-46.59
255.051	25.09
255.268	-30.21
255.484	45.57
255.701	18.94
255.917	29.18
256.134	-48.64
256.351	25.09
256.567	4.61
256.784	-34.3
257	-79.36
257.217	16.9
257.433	100.86
257.65	88.57
257.866	88.57
258.082	18.94
258.299	-11.78
258.515	-50.69
258.732	-83.45
258.948	-56.83
259.165	-19.97
259.381	-40.45
259.597	88.57
259.814	4.61
260.03	-38.4
260.246	-60.93
260.463	84.48
260.679	31.23
260.895	-1.54
261.112	6.66
261.328	-32.26
261.544	-5.63
261.761	104.96
261.977	39.42
262.193	-3.58
262.409	70.14
262.626	53.76
262.842	-108.03
263.058	25.09
263.274	55.81
263.49	29.18
263.707	51.71
263.923	2.56
264.139	-28.16
264.355	-1.54
264.571	117.25
264.787	55.81
265.004	51.71
265.22	10.75
265.436	29.18
265.652	-5.63
265.868	20.99
266.084	-9.73
266.3	27.14
266.516	20.99
266.732	51.71
266.948	64
267.164	100.86
267.38	90.62
267.596	55.81
267.812	109.05
268.028	113.15
268.244	-15.87
268.46	-3.58
268.676	27.14
268.892	76.29
269.108	-58.88
269.324	10.75
269.54	-71.17
269.756	35.33
269.972	-38.4
270.188	35.33
270.403	-34.3
270.619	-24.06
270.835	61.95
271.051	2.56
271.267	25.09
271.483	-42.5
271.698	51.71
271.914	68.09
272.13	41.47
272.346	-60.93
272.562	-26.11
272.777	51.71
272.993	-13.82
273.209	-17.92
273.425	23.04
273.64	-11.78
273.856	33.28
274.072	61.95
274.287	29.18
274.503	-38.4
274.719	121.34
274.934	43.52
275.15	12.8
275.366	94.72
275.581	-9.73
275.797	-13.82
276.012	33.28
276.228	-1.54
276.444	23.04
276.659	66.05
276.875	-48.64
277.09	-7.68
277.306	-3.58
277.521	72.19
277.737	-67.07
277.952	82.43
278.168	-58.88
278.383	39.42
278.599	35.33
278.814	53.76
279.03	0.51
279.245	12.8
279.461	59.9
279.676	45.57
279.892	-54.78
280.107	-7.68
280.322	-97.79
280.538	12.8
280.753	16.9
280.969	20.99
281.184	-50.69
281.399	57.86
281.615	-69.12
281.83	-5.63
282.045	-22.02
282.26	10.75
282.476	-7.68
282.691	70.14
282.906	27.14
283.122	0.51
283.337	23.04
283.552	23.04
283.767	-56.83
283.983	6.66
284.198	2.56
284.413	86.53
284.628	-50.69
284.843	-32.26
285.058	35.33
285.274	59.9
285.489	2.56
285.704	43.52
285.919	-3.58
286.134	6.66
286.349	25.09
286.564	59.9
286.779	29.18
286.995	10.75
287.21	-65.02
287.425	70.14
287.64	-52.74
287.855	43.52
288.07	-101.89
288.285	-15.87
288.5	18.94
288.715	111.1
288.93	37.38
289.145	-3.58
289.36	-5.63
289.575	-44.54
289.79	72.19
290.004	16.9
290.219	37.38
290.434	18.94
290.649	18.94
290.864	-40.45
291.079	-1.54
291.294	-13.82
291.509	33.28
291.724	0.51
291.938	31.23
292.153	57.86
292.368	23.04
292.583	86.53
292.798	115.2
293.012	66.05
293.227	111.1
293.442	70.14
293.657	4.61
293.871	51.71
294.086	-22.02
294.301	111.1
294.516	10.75
294.73	57.86
294.945	-40.45
295.16	-60.93
295.374	68.09
295.589	35.33
295.804	8.7
296.018	10.75
296.233	74.24
296.447	-9.73
296.662	0.51
296.877	55.81
297.091	2.56
297.306	59.9
297.52	59.9
297.735	74.24
297.949	53.76
298.164	41.47
298.378	31.23
298.593	10.75
298.807	2.56
299.022	102.91
299.236	47.62
299.451	-34.3
299.665	-34.3
299.88	33.28
300.094	8.7
300.309	-15.87
300.523	-9.73
300.737	39.42
300.952	10.75
301.166	45.57
301.381	-136.7
301.595	-28.16
301.809	23.04
302.024	64
302.238	12.8
302.452	64
302.667	31.23
302.881	80.38
303.095	10.75
303.309	49.66
303.524	12.8
303.738	-22.02
303.952	-83.45
304.166	64
304.381	-50.69
304.595	113.15
304.809	-9.73
305.023	10.75
305.237	-65.02
305.452	43.52
305.666	10.75
305.88	31.23
306.094	20.99
306.308	59.9
306.522	35.33
306.736	-79.36
306.95	82.43
307.164	57.86
307.379	39.42
307.593	109.05
307.807	86.53
308.021	25.09
308.235	64
308.449	-15.87
308.663	51.71
308.877	29.18
309.091	51.71
309.305	-9.73
309.519	-28.16
309.733	33.28
309.947	-19.97
310.161	4.61
310.374	53.76
310.588	39.42
310.802	0.51
311.016	16.9
311.23	25.09
311.444	-114.17
311.658	-11.78
311.872	-7.68
312.085	12.8
312.299	37.38
312.513	109.05
312.727	-17.92
312.941	-40.45
313.154	-11.78
313.368	25.09
313.582	86.53
313.796	31.23
314.009	-13.82
314.223	-15.87
314.437	8.7
314.651	113.15
314.864	0.51
315.078	43.52
315.292	-9.73
315.505	-5.63
315.719	29.18
315.933	-7.68
316.146	16.9
316.36	-56.83
316.573	23.04
316.787	-15.87
317.001	4.61
317.214	-40.45
317.428	74.24
317.641	-36.35
317.855	18.94
318.068	2.56
318.282	53.76
318.495	119.29
318.709	59.9
318.922	25.09
319.136	64
319.349	29.18
319.563	-15.87
319.776	-30.21
319.99	-9.73
320.203	84.48
320.417	102.91
320.63	43.52
320.843	111.1
321.057	66.05
321.27	-13.82
321.483	41.47
321.697	39.42
321.91	2.56
322.124	59.9
322.337	4.61
322.55	-62.98
322.763	37.38
322.977	10.75
323.19	-30.21
323.403	14.85
323.617	18.94
323.83	100.86
324.043	66.05
324.256	-22.02
324.469	-5.63
324.683	123.39
324.896	-26.11
325.109	80.38
325.322	-17.92
325.535	59.9
325.748	55.81
325.962	31.23
326.175	53.76
326.388	61.95
326.601	29.18
326.814	-28.16
327.027	14.85
327.24	104.96
327.453	-34.3
327.666	41.47
327.879	25.09
328.092	57.86
328.305	117.25
328.518	-26.11
328.731	10.75
328.944	59.9
329.157	109.05
329.37	14.85
329.583	143.87
329.796	102.91
330.009	18.94
330.222	43.52
330.435	-9.73
330.648	53.76
330.861	-7.68
331.073	37.38
331.286	82.43
331.499	25.09
331.712	-30.21
331.925	80.38
332.138	78.33
332.35	14.85
332.563	-13.82
332.776	66.05
332.989	-38.4
333.202	-32.26
333.414	-38.4
333.627	84.48
333.84	-24.06
334.053	61.95
334.265	4.61
334.478	-40.45
334.691	39.42
334.903	16.9
335.116	-5.63
335.329	35.33
335.541	-67.07
335.754	27.14
335.966	-30.21
336.179	39.42
336.392	-30.21
336.604	18.94
336.817	43.52
337.029	27.14
337.242	16.9
337.454	25.09
337.667	14.85
337.88	57.86
338.092	64
338.305	2.56
338.517	-7.68
338.729	90.62
338.942	141.82
339.154	27.14
339.367	-32.26
339.579	74.24
339.792	49.66
340.004	45.57
340.217	61.95
340.429	33.28
340.641	6.66
340.854	25.09
341.066	35.33
341.278	72.19
341.491	84.48
341.703	57.86
341.915	12.8
342.128	39.42
342.34	80.38
342.552	-34.3
342.764	8.7
342.977	59.9
343.189	-28.16
343.401	-1.54
343.613	-42.5
343.826	-9.73
344.038	-17.92
344.25	-3.58
344.462	-3.58
344.674	-17.92
344.886	-13.82
345.099	76.29
345.311	61.95
345.523	-17.92
345.735	-54.78
345.947	20.99
346.159	104.96
346.371	-7.68
346.583	82.43
346.795	147.97
347.007	-56.83
347.219	131.58
347.431	51.71
347.643	-5.63
347.855	-42.5
348.067	47.62
348.279	33.28
348.491	57.86
348.703	84.48
348.915	-36.35
349.127	-15.87
349.339	27.14
349.551	-22.02
349.763	45.57
349.975	55.81
350.187	45.57
350.399	64
350.61	72.19
350.822	23.04
351.034	23.04
351.246	-9.73
351.458	68.09
351.669	47.62
351.881	78.33
352.093	94.72
352.305	121.34
352.517	49.66
352.728	74.24
352.94	53.76
353.152	12.8
353.363	37.38
353.575	29.18
353.787	104.96
353.999	96.77
354.21	14.85
354.422	16.9
354.633	8.7
354.845	-1.54
355.057	59.9
355.268	8.7
355.48	35.33
355.692	37.38
355.903	25.09
356.115	-24.06
356.326	27.14
356.538	41.47
356.749	74.24
356.961	74.24
357.172	10.75
357.384	6.66
357.595	76.29
357.807	23.04
358.018	20.99
358.23	55.81
358.441	156.16
358.653	82.43
358.864	66.05
359.075	25.09
359.287	57.86
359.498	0.51
359.709	-58.88
359.921	39.42
360.132	31.23
360.344	6.66
360.555	-40.45
360.766	82.43
360.977	-44.54
361.189	39.42
361.4	-30.21
361.611	154.11
361.823	96.77
362.034	4.61
362.245	-40.45
362.456	33.28
362.667	45.57
362.879	-1.54
363.09	113.15
363.301	59.9
363.512	14.85
363.723	12.8
363.935	64
364.146	51.71
364.357	33.28
364.568	72.19
364.779	2.56
364.99	94.72
365.201	84.48
365.412	23.04
365.623	-13.82
365.834	47.62
366.045	-50.69
366.256	74.24
366.467	98.81
366.678	-24.06
366.889	43.52
367.1	27.14
367.311	25.09
367.522	-7.68
367.733	20.99
367.944	10.75
368.155	53.76
368.366	66.05
368.577	8.7
368.788	90.62
368.999	18.94
369.209	18.94
369.42	66.05
369.631	98.81
369.842	78.33
370.053	51.71
370.264	45.57
370.474	18.94
370.685	47.62
370.896	61.95
371.107	27.14
371.317	25.09
371.528	-24.06
371.739	37.38
371.95	70.14
372.16	66.05
372.371	-30.21
372.582	-9.73
372.792	78.33
373.003	29.18
373.214	35.33
373.424	37.38
373.635	0.51
373.846	78.33
374.056	47.62
374.267	80.38
374.477	-24.06
374.688	14.85
374.898	51.71
375.109	47.62
375.319	-19.97
375.53	41.47
375.74	16.9
375.951	-62.98
376.161	39.42
376.372	109.05
376.582	-30.21
376.793	72.19
377.003	8.7
377.214	-17.92
377.424	64
377.635	33.28
377.845	-5.63
378.055	94.72
378.266	-5.63
378.476	27.14
378.686	66.05
378.897	39.42
379.107	51.71
379.317	76.29
379.528	6.66
379.738	37.38
379.948	-48.64
380.158	107.01
380.369	25.09
380.579	121.34
380.789	100.86
380.999	72.19
381.21	61.95
381.42	115.2
381.63	14.85
381.84	45.57
382.05	14.85
382.261	66.05
382.471	39.42
382.681	39.42
382.891	70.14
383.101	66.05
383.311	18.94
383.521	-3.58
383.731	72.19
383.941	84.48
384.151	33.28
384.361	37.38
384.571	31.23
384.781	51.71
384.991	37.38
385.201	115.2
385.411	76.29
385.621	29.18
385.831	49.66
386.041	25.09
386.251	41.47
386.461	152.06
386.671	23.04
386.881	47.62
387.091	12.8
387.301	45.57
387.511	70.14
387.72	35.33
387.93	80.38
388.14	-93.69
388.35	115.2
388.56	111.1
388.769	31.23
388.979	12.8
389.189	-73.21
389.399	82.43
389.609	-1.54
389.818	76.29
390.028	35.33
390.238	64
390.447	27.14
390.657	47.62
390.867	31.23
391.076	23.04
391.286	70.14
391.496	92.67
391.705	53.76
391.915	117.25
392.125	107.01
392.334	70.14
392.544	-5.63
392.753	74.24
392.963	49.66
393.172	100.86
393.382	6.66
393.591	119.29
393.801	8.7
394.01	121.34
394.22	45.57
394.429	31.23
394.639	2.56
394.848	64
395.058	45.57
395.267	98.81
395.477	102.91
395.686	2.56
395.895	150.01
396.105	96.77
396.314	100.86
396.524	80.38
396.733	80.38
396.942	174.59
397.152	37.38
397.361	86.53
397.57	129.53
397.78	96.77
397.989	113.15
398.198	190.97
398.407	78.33
398.617	100.86
398.826	23.04
399.035	59.9
399.244	156.16
399.453	104.96
399.663	66.05
399.872	74.24
400.081	8.7
400.29	184.83
400.499	10.75
400.708	102.91
400.917	47.62
401.127	43.52
401.336	82.43
401.545	131.58
401.754	158.21
401.963	182.78
402.172	90.62
402.381	16.9
402.59	86.53
402.799	100.86
403.008	68.09
403.217	113.15
403.426	92.67
403.635	-3.58
403.844	109.05
404.053	84.48
404.262	76.29
404.471	238.08
404.68	178.69
404.888	84.48
405.097	117.25
405.306	133.63
405.515	197.12
405.724	131.58
405.933	221.69
406.142	172.54
406.35	193.02
406.559	92.67
406.768	168.45
406.977	276.99
407.185	252.41
407.394	98.81
407.603	111.1
407.812	176.64
408.02	170.49
408.229	180.73
408.438	283.13
408.646	66.05
408.855	150.01
409.064	201.21
409.272	258.56
409.481	205.31
409.69	223.74
409.898	236.03
410.107	207.36
410.315	320
410.524	293.37
410.733	289.28
410.941	279.04
411.15	356.86
411.358	248.32
411.567	385.53
411.775	317.95
411.984	320
412.192	342.52
412.401	387.58
412.609	395.77
412.818	561.66
413.026	442.87
413.234	426.49
413.443	444.92
413.651	446.97
413.86	504.31
414.068	487.93
414.276	492.02
414.485	510.46
414.693	619
414.901	647.67
415.11	573.94
415.318	573.94
415.526	612.85
415.734	719.35
415.943	653.81
416.151	717.3
416.359	700.92
416.567	651.77
416.776	717.3
416.984	870.9
417.192	936.43
417.4	764.4
417.608	768.5
417.817	831.99
418.025	920.05
418.233	1190.38
418.441	979.44
418.649	985.58
418.857	1106.42
419.065	1077.74
419.273	1188.33
419.481	1182.19
419.689	1233.39
419.897	1309.16
420.105	1300.97
420.313	1391.08
420.521	1393.13
420.729	1489.39
420.937	1458.67
421.145	1507.82
421.353	1548.78
421.561	1706.47
421.769	1624.55
421.977	1685.99
422.185	1710.57
422.393	1745.38
422.601	1909.22
422.809	1958.37
423.017	1993.19
423.224	2097.63
423.432	2175.45
423.64	2163.17
423.848	2337.24
424.056	2152.93
424.263	2359.77
424.471	2558.42
424.679	2453.98
424.887	2636.25
425.094	2736.6
425.302	2812.37
425.51	2728.41
425.718	2906.58
425.925	2941.4
426.133	2884.05
426.341	3246.54
426.548	3375.56
426.756	3330.51
426.964	3400.14
427.171	3590.6
427.379	3756.49
427.586	3670.47
427.794	3955.14
428.001	4069.83
428.209	4133.31
428.417	4178.37
428.624	4479.42
428.832	4501.95
429.039	4295.1
429.247	4405.69
429.454	4964.79
429.662	5167.54
429.869	4911.54
430.076	5145.01
430.284	5011.89
430.491	5339.57
430.699	5532.08
430.906	5415.34
431.114	5775.78
431.321	5835.17
431.528	5890.47
431.736	6261.15
431.943	6654.36
432.15	6486.43
432.358	6576.54
432.565	6904.21
432.772	6857.11
432.979	6971.8
433.187	7197.07
433.394	7303.57
433.601	7760.27
433.808	7778.7
434.016	7821.7
434.223	8012.17
434.43	8509.82
434.637	8388.99
434.844	8819.07
435.052	9146.74
435.259	8956.28
435.466	9079.16
435.673	9054.58
435.88	9777.51
436.087	10219.88
436.294	10129.77
436.501	9939.3
436.708	10105.19
436.915	10602.85
437.122	10901.85
437.329	10783.07
437.537	11245.91
437.743	11293.01
437.95	11290.96
438.157	11876.68
438.364	12339.52
438.571	12296.52
438.778	12257.6
438.985	13365.56
439.192	12775.74
439.399	13269.3
439.606	13093.18
439.813	13682.99
440.02	14498.08
440.227	14516.51
440.433	14338.34
440.64	14881.05
440.847	14399.78
441.054	14709.02
441.261	16005.39
441.467	15765.78
441.674	16009.48
441.881	16587.01
442.088	16593.15
442.294	16312.58
442.501	16961.79
442.708	17090.81
442.914	17656.05
443.121	18755.81
443.328	18223.34
443.534	19339.48
443.741	18893.02
443.948	18501.86
444.154	19818.71
444.361	19962.06
444.568	20123.85
444.774	19892.43
444.981	20353.23
445.187	20789.44
445.394	21641.4
445.6	21240
445.807	23314.59
446.013	22282.41
446.22	22728.87
446.426	23634.07
446.633	23808.15
446.839	24793.22
447.046	23615.64
447.252	25161.86
447.459	24993.92
447.665	24885.38
447.871	26333.29
448.078	26929.25
448.284	25682.04
448.491	26759.27
448.697	27431.01
448.903	28256.34
449.11	28205.14
449.316	27521.12
449.522	28340.3
449.728	28905.54
449.935	29184.07
450.141	28792.9
450.347	29593.66
450.553	28797
450.76	29321.28
450.966	30023.73
451.172	30027.83
451.378	30378.03
451.584	29734.97
451.791	30900.26
451.997	30558.25
452.203	31158.31
452.409	31209.51
452.615	30906.41
452.821	29403.2
453.027	29390.91
453.233	31027.24
453.44	29800.51
453.646	30185.52
453.852	29886.52
454.058	30885.93
454.264	29632.57
454.47	30386.22
454.676	29298.75
454.882	30355.5
455.088	27816.02
455.294	28131.41
455.5	28850.25
455.705	28848.2
455.911	27760.73
456.117	27088.99
456.323	27068.51
456.529	25743.48
456.735	26636.39
456.941	26022
457.147	25401.47
457.352	24864.9
457.558	24332.43
457.764	24250.51
457.97	23707.8
458.176	23433.37
458.381	23382.17
458.587	22452.39
458.793	22196.4
458.999	20998.34
459.204	22550.7
459.41	21815.48
459.616	20553.93
459.821	20717.76
460.027	20347.08
460.233	19861.71
460.438	19067.1
460.644	19339.48
460.85	18174.19
461.055	18020.59
461.261	17918.19
461.466	16619.78
461.672	16148.75
461.878	17244.41
462.083	16148.75
462.289	15780.11
462.494	15773.97
462.7	14838.05
462.905	14588.19
463.111	14827.81
463.316	15147.29
463.522	14768.41
463.727	14643.49
463.932	14817.57
464.138	14487.84
464.343	14831.9
464.549	14002.47
464.754	14491.94
464.959	14584.1
465.165	14344.49
465.37	13730.09
465.575	13582.64
465.781	14057.77
465.986	13973.8
466.191	13541.68
466.397	13029.69
466.602	12509.51
466.807	13105.46
467.012	13148.47
467.218	12722.49
467.423	12796.22
