Data from USB4F104151__81__12-12-51-442.txt Node

Date: Fri Mar 14 12:12:51 EDT 2025
User: louis
Spectrometer: USB4F10415
Trigger mode: 4
Integration Time (sec): 5.000000E-2
Scans to average: 1
Electric dark correction enabled: true
Nonlinearity correction enabled: false
Boxcar width: 0
XAxis mode: Wavelengths
Number of Pixels in Spectrum: 3648
>>>>>Begin Spectral Data<<<<<
178.204	-243.37
178.424	-243.37
178.644	-243.37
178.864	-218.79
179.084	-188.07
179.304	10.58
179.524	-11.95
179.744	-5.8
179.964	57.68
180.184	-11.95
180.404	26.96
180.624	18.77
180.844	65.88
181.064	-126.63
181.283	-18.09
181.503	-69.29
181.723	63.83
181.943	-79.53
182.163	53.59
182.383	-22.19
182.602	37.2
182.822	72.02
183.042	12.63
183.262	-22.19
183.482	-106.15
183.701	-7.85
183.921	43.35
184.141	20.82
184.361	127.32
184.58	14.68
184.8	35.16
185.02	37.2
185.239	53.59
185.459	24.92
185.679	39.25
185.898	-61.1
186.118	57.68
186.338	84.31
186.557	33.11
186.777	65.88
186.997	-24.23
187.216	125.27
187.436	59.73
187.655	51.54
187.875	31.06
188.095	29.01
188.314	14.68
188.534	82.26
188.753	-5.8
188.973	53.59
189.192	108.88
189.412	55.64
189.631	67.92
189.851	12.63
190.07	69.97
190.29	6.49
190.509	-13.99
190.729	-16.04
190.948	100.69
191.168	219.47
191.387	8.53
191.607	16.73
191.826	4.44
192.045	33.11
192.265	24.92
192.484	33.11
192.704	16.73
192.923	-20.14
193.142	131.41
193.362	33.11
193.581	137.56
193.8	47.44
194.02	78.16
194.239	-16.04
194.458	76.12
194.678	4.44
194.897	20.82
195.116	20.82
195.335	10.58
195.555	67.92
195.774	104.79
195.993	57.68
196.212	2.39
196.432	10.58
196.651	-30.38
196.87	29.01
197.089	110.93
197.308	78.16
197.528	18.77
197.747	0.34
197.966	78.16
198.185	110.93
198.404	49.49
198.623	4.44
198.842	123.22
199.062	43.35
199.281	164.18
199.5	26.96
199.719	-3.75
199.938	16.73
200.157	112.98
200.376	65.88
200.595	74.07
200.814	39.25
201.033	10.58
201.252	94.55
201.471	53.59
201.69	49.49
201.909	22.87
202.128	82.26
202.347	39.25
202.566	-1.71
202.785	-18.09
203.004	-30.38
203.223	67.92
203.442	-3.75
203.661	-71.34
203.879	-28.33
204.098	125.27
204.317	-38.57
204.536	-28.33
204.755	33.11
204.974	127.32
205.193	18.77
205.411	182.61
205.63	29.01
205.849	22.87
206.068	-7.85
206.287	86.36
206.505	139.6
206.724	-18.09
206.943	-44.71
207.162	-93.87
207.381	41.3
207.599	45.4
207.818	31.06
208.037	22.87
208.255	-1.71
208.474	63.83
208.693	67.92
208.911	-52.91
209.13	-16.04
209.349	102.74
209.567	10.58
209.786	94.55
210.005	37.2
210.223	129.36
210.442	-59.05
210.661	49.49
210.879	-20.14
211.098	129.36
211.316	14.68
211.535	76.12
211.753	82.26
211.972	96.6
212.191	20.82
212.409	24.92
212.628	14.68
212.846	41.3
213.065	37.2
213.283	31.06
213.502	-30.38
213.72	53.59
213.938	-5.8
214.157	2.39
214.375	59.73
214.594	18.77
214.812	117.08
215.031	35.16
215.249	51.54
215.467	-3.75
215.686	14.68
215.904	108.88
216.122	10.58
216.341	35.16
216.559	20.82
216.778	104.79
216.996	43.35
217.214	53.59
217.432	49.49
217.651	-75.43
217.869	-16.04
218.087	-3.75
218.306	2.39
218.524	29.01
218.742	-7.85
218.96	100.69
219.179	31.06
219.397	-5.8
219.615	164.18
219.833	35.16
220.051	45.4
220.27	41.3
220.488	4.44
220.706	-5.8
220.924	88.4
221.142	47.44
221.36	108.88
221.578	-26.28
221.796	47.44
222.015	-3.75
222.233	26.96
222.451	31.06
222.669	-93.87
222.887	104.79
223.105	-38.57
223.323	-13.99
223.541	-3.75
223.759	106.84
223.977	61.78
224.195	143.7
224.413	35.16
224.631	104.79
224.849	49.49
225.067	164.18
225.285	-42.67
225.503	22.87
225.721	-9.9
225.939	43.35
226.157	14.68
226.375	131.41
226.592	29.01
226.81	18.77
227.028	65.88
227.246	80.21
227.464	0.34
227.682	76.12
227.9	53.59
228.117	-9.9
228.335	49.49
228.553	22.87
228.771	65.88
228.989	2.39
229.206	55.64
229.424	61.78
229.642	47.44
229.86	2.39
230.077	100.69
230.295	-38.57
230.513	80.21
230.731	59.73
230.948	92.5
231.166	31.06
231.384	43.35
231.601	35.16
231.819	82.26
232.037	0.34
232.254	22.87
232.472	10.58
232.689	8.53
232.907	123.22
233.125	4.44
233.342	47.44
233.56	10.58
233.777	88.4
233.995	29.01
234.213	106.84
234.43	-13.99
234.648	-36.52
234.865	63.83
235.083	35.16
235.3	12.63
235.518	112.98
235.735	98.64
235.953	76.12
236.17	45.4
236.388	20.82
236.605	-26.28
236.822	35.16
237.04	53.59
237.257	14.68
237.475	-7.85
237.692	74.07
237.909	108.88
238.127	-28.33
238.344	67.92
238.562	20.82
238.779	45.4
238.996	4.44
239.214	-7.85
239.431	41.3
239.648	-9.9
239.865	67.92
240.083	45.4
240.3	-1.71
240.517	0.34
240.735	37.2
240.952	104.79
241.169	84.31
241.386	22.87
241.603	41.3
241.821	26.96
242.038	106.84
242.255	55.64
242.472	-13.99
242.689	18.77
242.907	84.31
243.124	61.78
243.341	49.49
243.558	-30.38
243.775	-89.77
243.992	18.77
244.209	57.68
244.426	125.27
244.643	-18.09
244.86	67.92
245.078	41.3
245.295	82.26
245.512	24.92
245.729	2.39
245.946	104.79
246.163	43.35
246.38	43.35
246.597	18.77
246.814	53.59
247.031	63.83
247.248	31.06
247.464	-13.99
247.681	26.96
247.898	24.92
248.115	16.73
248.332	-11.95
248.549	117.08
248.766	37.2
248.983	72.02
249.2	53.59
249.417	72.02
249.633	-13.99
249.85	33.11
250.067	92.5
250.284	14.68
250.501	72.02
250.717	59.73
250.934	-7.85
251.151	-3.75
251.368	8.53
251.585	26.96
251.801	82.26
252.018	16.73
252.235	155.99
252.451	-24.23
252.668	-16.04
252.885	102.74
253.102	6.49
253.318	-5.8
253.535	41.3
253.752	61.78
253.968	6.49
254.185	-81.58
254.401	110.93
254.618	63.83
254.835	31.06
255.051	119.12
255.268	92.5
255.484	10.58
255.701	-18.09
255.917	69.97
256.134	-38.57
256.351	55.64
256.567	0.34
256.784	90.45
257	-34.47
257.217	61.78
257.433	72.02
257.65	45.4
257.866	51.54
258.082	-44.71
258.299	8.53
258.515	18.77
258.732	76.12
258.948	-20.14
259.165	-3.75
259.381	-34.47
259.597	16.73
259.814	6.49
260.03	-3.75
260.246	29.01
260.463	74.07
260.679	100.69
260.895	4.44
261.112	53.59
261.328	-38.57
261.544	24.92
261.761	180.56
261.977	39.25
262.193	29.01
262.409	35.16
262.626	69.97
262.842	92.5
263.058	-50.86
263.274	67.92
263.49	45.4
263.707	43.35
263.923	76.12
264.139	-7.85
264.355	67.92
264.571	115.03
264.787	24.92
265.004	84.31
265.22	76.12
265.436	-28.33
265.652	53.59
265.868	29.01
266.084	31.06
266.3	-32.43
266.516	6.49
266.732	2.39
266.948	-57
267.164	59.73
267.38	100.69
267.596	-30.38
267.812	96.6
268.028	-1.71
268.244	57.68
268.46	84.31
268.676	31.06
268.892	102.74
269.108	-61.1
269.324	10.58
269.54	-26.28
269.756	86.36
269.972	-32.43
270.188	-34.47
270.403	-18.09
270.619	-22.19
270.835	51.54
271.051	-7.85
271.267	29.01
271.483	41.3
271.698	39.25
271.914	29.01
272.13	33.11
272.346	47.44
272.562	69.97
272.777	123.22
272.993	-9.9
273.209	90.45
273.425	74.07
273.64	29.01
273.856	80.21
274.072	22.87
274.287	-7.85
274.503	90.45
274.719	74.07
274.934	-34.47
275.15	-59.05
275.366	29.01
275.581	10.58
275.797	41.3
276.012	-20.14
276.228	-46.76
276.444	51.54
276.659	78.16
276.875	-5.8
277.09	-38.57
277.306	-50.86
277.521	-11.95
277.737	-9.9
277.952	39.25
278.168	47.44
278.383	106.84
278.599	35.16
278.814	31.06
279.03	2.39
279.245	72.02
279.461	29.01
279.676	131.41
279.892	10.58
280.107	-22.19
280.322	-26.28
280.538	82.26
280.753	43.35
280.969	59.73
281.184	69.97
281.399	55.64
281.615	63.83
281.83	-30.38
282.045	-30.38
282.26	8.53
282.476	-9.9
282.691	125.27
282.906	-9.9
283.122	-7.85
283.337	20.82
283.552	-11.95
283.767	6.49
283.983	-42.67
284.198	63.83
284.413	16.73
284.628	16.73
284.843	115.03
285.058	80.21
285.274	29.01
285.489	0.34
285.704	82.26
285.919	135.51
286.134	-11.95
286.349	-46.76
286.564	-9.9
286.779	33.11
286.995	6.49
287.21	16.73
287.425	-11.95
287.64	63.83
287.855	22.87
288.07	-54.95
288.285	53.59
288.5	49.49
288.715	14.68
288.93	-40.62
289.145	69.97
289.36	94.55
289.575	29.01
289.79	59.73
290.004	6.49
290.219	61.78
290.434	24.92
290.649	76.12
290.864	14.68
291.079	59.73
291.294	53.59
291.509	39.25
291.724	12.63
291.938	-54.95
292.153	-20.14
292.368	4.44
292.583	72.02
292.798	33.11
293.012	24.92
293.227	115.03
293.442	65.88
293.657	131.41
293.871	4.44
294.086	45.4
294.301	69.97
294.516	151.89
294.73	67.92
294.945	-40.62
295.16	88.4
295.374	53.59
295.589	33.11
295.804	-32.43
296.018	86.36
296.233	55.64
296.447	26.96
296.662	-32.43
296.877	-5.8
297.091	115.03
297.306	31.06
297.52	10.58
297.735	84.31
297.949	37.2
298.164	65.88
298.378	33.11
298.593	65.88
298.807	-28.33
299.022	4.44
299.236	84.31
299.451	33.11
299.665	47.44
299.88	31.06
300.094	78.16
300.309	41.3
300.523	80.21
300.737	-73.39
300.952	26.96
301.166	65.88
301.381	49.49
301.595	47.44
301.809	65.88
302.024	39.25
302.238	-54.95
302.452	84.31
302.667	6.49
302.881	176.47
303.095	78.16
303.309	24.92
303.524	-7.85
303.738	-46.76
303.952	-20.14
304.166	51.54
304.381	18.77
304.595	53.59
304.809	31.06
305.023	92.5
305.237	8.53
305.452	14.68
305.666	55.64
305.88	92.5
306.094	43.35
306.308	59.73
306.522	10.58
306.736	102.74
306.95	131.41
307.164	16.73
307.379	-22.19
307.593	133.46
307.807	94.55
308.021	12.63
308.235	8.53
308.449	-50.86
308.663	10.58
308.877	82.26
309.091	33.11
309.305	20.82
309.519	-30.38
309.733	84.31
309.947	-34.47
310.161	-13.99
310.374	-7.85
310.588	82.26
310.802	-46.76
311.016	16.73
311.23	65.88
311.444	-34.47
311.658	2.39
311.872	110.93
312.085	31.06
312.299	86.36
312.513	31.06
312.727	24.92
312.941	43.35
313.154	43.35
313.368	55.64
313.582	41.3
313.796	57.68
314.009	45.4
314.223	90.45
314.437	4.44
314.651	43.35
314.864	26.96
315.078	29.01
315.292	-28.33
315.505	26.96
315.719	29.01
315.933	76.12
316.146	-34.47
316.36	12.63
316.573	104.79
316.787	65.88
317.001	-1.71
317.214	-13.99
317.428	41.3
317.641	37.2
317.855	37.2
318.068	49.49
318.282	49.49
318.495	96.6
318.709	74.07
318.922	55.64
319.136	82.26
319.349	88.4
319.563	-5.8
319.776	-9.9
319.99	26.96
320.203	59.73
320.417	-38.57
320.63	55.64
320.843	47.44
321.057	104.79
321.27	-13.99
321.483	14.68
321.697	145.75
321.91	24.92
322.124	82.26
322.337	59.73
322.55	37.2
322.763	18.77
322.977	49.49
323.19	26.96
323.403	-3.75
323.617	29.01
323.83	26.96
324.043	-42.67
324.256	14.68
324.469	8.53
324.683	98.64
324.896	57.68
325.109	-24.23
325.322	-11.95
325.535	76.12
325.748	51.54
325.962	18.77
326.175	-1.71
326.388	4.44
326.601	82.26
326.814	0.34
327.027	31.06
327.24	123.22
327.453	-5.8
327.666	57.68
327.879	67.92
328.092	112.98
328.305	65.88
328.518	-9.9
328.731	-1.71
328.944	49.49
329.157	-1.71
329.37	-13.99
329.583	112.98
329.796	108.88
330.009	-97.96
330.222	92.5
330.435	55.64
330.648	47.44
330.861	8.53
331.073	0.34
331.286	18.77
331.499	100.69
331.712	-13.99
331.925	29.01
332.138	16.73
332.35	53.59
332.563	-50.86
332.776	76.12
332.989	59.73
333.202	8.53
333.414	39.25
333.627	49.49
333.84	-30.38
334.053	43.35
334.265	-1.71
334.478	-42.67
334.691	2.39
334.903	8.53
335.116	-69.29
335.329	41.3
335.541	45.4
335.754	88.4
335.966	49.49
336.179	57.68
336.392	59.73
336.604	-54.95
336.817	96.6
337.029	43.35
337.242	20.82
337.454	33.11
337.667	63.83
337.88	121.17
338.092	45.4
338.305	69.97
338.517	24.92
338.729	78.16
338.942	14.68
339.154	39.25
339.367	20.82
339.579	119.12
339.792	20.82
340.004	117.08
340.217	-24.23
340.429	37.2
340.641	31.06
340.854	-34.47
341.066	18.77
341.278	31.06
341.491	74.07
341.703	12.63
341.915	8.53
342.128	92.5
342.34	63.83
342.552	6.49
342.764	57.68
342.977	-11.95
343.189	31.06
343.401	45.4
343.613	-34.47
343.826	0.34
344.038	-87.72
344.25	115.03
344.462	-34.47
344.674	31.06
344.886	-30.38
345.099	49.49
345.311	-3.75
345.523	100.69
345.735	47.44
345.947	80.21
346.159	16.73
346.371	-40.62
346.583	-18.09
346.795	102.74
347.007	-36.52
347.219	88.4
347.431	-40.62
347.643	-5.8
347.855	-22.19
348.067	164.18
348.279	-52.91
348.491	74.07
348.703	59.73
348.915	24.92
349.127	33.11
349.339	59.73
349.551	8.53
349.763	35.16
349.975	-3.75
350.187	125.27
350.399	-1.71
350.61	51.54
350.822	51.54
351.034	63.83
351.246	63.83
351.458	76.12
351.669	-9.9
351.881	35.16
352.093	41.3
352.305	82.26
352.517	4.44
352.728	43.35
352.94	63.83
353.152	76.12
353.363	35.16
353.575	74.07
353.787	98.64
353.999	92.5
354.21	45.4
354.422	-20.14
354.633	-34.47
354.845	63.83
355.057	33.11
355.268	18.77
355.48	31.06
355.692	0.34
355.903	-26.28
356.115	16.73
356.326	-38.57
356.538	96.6
356.749	69.97
356.961	51.54
357.172	129.36
357.384	-40.62
357.595	10.58
357.807	-16.04
358.018	-7.85
358.23	43.35
358.441	74.07
358.653	59.73
358.864	92.5
359.075	-48.81
359.287	-9.9
359.498	20.82
359.709	26.96
359.921	76.12
360.132	106.84
360.344	84.31
360.555	29.01
360.766	45.4
360.977	-28.33
361.189	133.46
361.4	47.44
361.611	90.45
361.823	143.7
362.034	84.31
362.245	31.06
362.456	-9.9
362.667	133.46
362.879	-5.8
363.09	-36.52
363.301	74.07
363.512	-7.85
363.723	-1.71
363.935	59.73
364.146	41.3
364.357	2.39
364.568	20.82
364.779	-40.62
364.99	112.98
365.201	12.63
365.412	59.73
365.623	82.26
365.834	67.92
366.045	49.49
366.256	4.44
366.467	88.4
366.678	112.98
366.889	-22.19
367.1	-24.23
367.311	59.73
367.522	43.35
367.733	90.45
367.944	57.68
368.155	29.01
368.366	20.82
368.577	112.98
368.788	98.64
368.999	-9.9
369.209	51.54
369.42	119.12
369.631	55.64
369.842	78.16
370.053	123.22
370.264	16.73
370.474	-30.38
370.685	59.73
370.896	41.3
371.107	45.4
371.317	82.26
371.528	-34.47
371.739	84.31
371.95	84.31
372.16	-38.57
372.371	18.77
372.582	6.49
372.792	51.54
373.003	84.31
373.214	-16.04
373.424	41.3
373.635	-7.85
373.846	141.65
374.056	80.21
374.267	16.73
374.477	59.73
374.688	43.35
374.898	53.59
375.109	76.12
375.319	37.2
375.53	12.63
375.74	84.31
375.951	29.01
376.161	-5.8
376.372	39.25
376.582	24.92
376.793	29.01
377.003	45.4
377.214	37.2
377.424	121.17
377.635	20.82
377.845	-11.95
378.055	-1.71
378.266	-22.19
378.476	4.44
378.686	47.44
378.897	20.82
379.107	125.27
379.317	96.6
379.528	-13.99
379.738	43.35
379.948	-81.58
380.158	80.21
380.369	31.06
380.579	49.49
380.789	57.68
380.999	74.07
381.21	-5.8
381.42	82.26
381.63	-54.95
381.84	94.55
382.05	43.35
382.261	94.55
382.471	115.03
382.681	-7.85
382.891	102.74
383.101	74.07
383.311	29.01
383.521	16.73
383.731	82.26
383.941	92.5
384.151	135.51
384.361	-11.95
384.571	-18.09
384.781	67.92
384.991	115.03
385.201	129.36
385.411	90.45
385.621	49.49
385.831	24.92
386.041	16.73
386.251	39.25
386.461	90.45
386.671	-63.15
386.881	12.63
387.091	22.87
387.301	96.6
387.511	51.54
387.72	72.02
387.93	61.78
388.14	33.11
388.35	20.82
388.56	82.26
388.769	108.88
388.979	43.35
389.189	22.87
389.399	80.21
389.609	127.32
389.818	92.5
390.028	57.68
390.238	18.77
390.447	63.83
390.657	4.44
390.867	-5.8
391.076	45.4
391.286	98.64
391.496	80.21
391.705	-7.85
391.915	65.88
392.125	123.22
392.334	29.01
392.544	51.54
392.753	33.11
392.963	29.01
393.172	82.26
393.382	31.06
393.591	100.69
393.801	133.46
394.01	121.17
394.22	155.99
394.429	29.01
394.639	137.56
394.848	61.78
395.058	106.84
395.267	16.73
395.477	90.45
395.686	59.73
395.895	207.19
396.105	160.08
396.314	61.78
396.524	65.88
396.733	90.45
396.942	96.6
397.152	137.56
397.361	90.45
397.57	104.79
397.78	49.49
397.989	115.03
398.198	260.43
398.407	53.59
398.617	82.26
398.826	41.3
399.035	61.78
399.244	98.64
399.453	100.69
399.663	86.36
399.872	51.54
400.081	31.06
400.29	117.08
400.499	41.3
400.708	82.26
400.917	69.97
401.127	39.25
401.336	74.07
401.545	104.79
401.754	147.8
401.963	76.12
402.172	31.06
402.381	-16.04
402.59	82.26
402.799	65.88
403.008	131.41
403.217	117.08
403.426	137.56
403.635	-9.9
403.844	24.92
404.053	59.73
404.262	98.64
404.471	112.98
404.68	123.22
404.888	61.78
405.097	39.25
405.306	90.45
405.515	129.36
405.724	88.4
405.933	65.88
406.142	166.23
406.35	88.4
406.559	141.65
406.768	104.79
406.977	178.51
407.185	123.22
407.394	108.88
407.603	98.64
407.812	164.18
408.02	231.76
408.229	164.18
408.438	213.33
408.646	117.08
408.855	158.03
409.064	176.47
409.272	106.84
409.481	219.47
409.69	151.89
409.898	215.38
410.107	160.08
410.315	264.53
410.524	211.28
410.733	256.34
410.941	190.8
411.15	211.28
411.358	172.37
411.567	258.39
411.775	178.51
411.984	332.11
412.192	264.53
412.401	219.47
412.609	276.82
412.818	362.83
413.026	315.73
413.234	319.82
413.443	303.44
413.651	336.21
413.86	305.49
414.068	336.21
414.276	479.57
414.485	342.35
414.693	457.04
414.901	438.61
415.11	430.41
415.318	440.65
415.526	450.89
415.734	502.09
415.943	457.04
416.151	592.2
416.359	457.04
416.567	508.24
416.776	500.05
416.984	567.63
417.192	665.93
417.4	588.11
417.608	495.95
417.817	541.01
418.025	663.88
418.233	721.23
418.441	680.27
418.649	600.4
418.857	756.04
419.065	766.28
419.273	729.42
419.481	672.08
419.689	768.33
419.897	833.86
420.105	858.44
420.313	766.28
420.521	993.61
420.729	887.11
420.937	962.89
421.145	989.51
421.353	966.98
421.561	1136.96
421.769	1173.83
421.977	1165.64
422.185	1272.13
422.393	1231.17
422.601	1268.03
422.809	1397.06
423.017	1341.76
423.224	1327.43
423.432	1489.21
423.64	1425.73
423.848	1612.09
424.056	1507.65
424.263	1669.44
424.471	1581.37
424.679	1614.14
424.887	1687.87
425.094	1919.29
425.302	1874.23
425.51	1757.5
425.718	1892.66
425.925	1933.62
426.133	2048.31
426.341	2056.5
426.548	2097.46
426.756	2140.47
426.964	2199.86
427.171	2468.14
427.379	2449.71
427.586	2527.53
427.794	2543.92
428.001	2648.36
428.209	2728.24
428.417	2683.18
428.624	2885.93
428.832	2988.33
429.039	2824.49
429.247	2937.13
429.454	3121.45
429.662	3352.87
429.869	2990.38
430.076	3383.59
430.284	3367.2
430.491	3490.08
430.699	3645.73
430.906	3662.11
431.114	3567.9
431.321	3813.66
431.528	3778.84
431.736	3967.26
431.943	4342.04
432.15	4256.02
432.358	4139.29
432.565	4473.11
432.772	4350.23
432.979	4512.02
433.187	4675.85
433.394	4743.44
433.601	4991.24
433.808	5122.31
434.016	4995.34
434.223	5200.13
434.43	5589.25
434.637	5550.34
434.844	5863.68
435.052	6045.95
435.259	5794.04
435.466	5949.69
435.673	5894.4
435.88	6187.25
436.087	6459.63
436.294	6615.28
436.501	6283.51
436.708	6449.39
436.915	6752.49
437.122	7254.25
437.329	7010.54
437.537	7196.9
437.743	7311.59
437.95	7428.32
438.157	7690.46
438.364	8071.39
438.571	7817.44
438.778	8110.3
438.985	8501.46
439.192	8317.14
439.399	8636.63
439.606	8372.44
439.813	8995.02
440.02	9529.54
440.227	9599.17
440.433	9267.4
440.64	9513.16
440.847	9365.7
441.054	9535.68
441.261	10322.1
441.467	10019
441.674	10471.61
441.881	10635.44
442.088	10746.03
442.294	10653.87
442.501	10899.63
442.708	11176.11
442.914	11712.67
443.121	12200.09
443.328	11825.31
443.534	12540.05
443.741	12259.48
443.948	12011.68
444.154	12941.46
444.361	12927.12
444.568	12865.68
444.774	13066.38
444.981	12994.7
445.187	13492.36
445.394	14035.07
445.6	13574.28
445.807	15282.28
446.013	14381.18
446.22	14639.22
446.426	15302.76
446.633	15540.33
446.839	16007.27
447.046	15194.22
447.252	16322.65
447.459	16214.11
447.665	16105.57
447.871	16857.17
448.078	17631.3
448.284	16646.23
448.491	16967.76
448.697	17958.98
448.903	18155.58
449.11	17999.94
449.316	18014.27
449.522	18317.37
449.728	18800.69
449.935	18772.02
450.141	18927.67
450.347	19384.37
450.553	18612.28
450.76	18954.29
450.966	19740.71
451.172	19533.87
451.378	19959.84
451.584	19433.52
451.791	19941.41
451.997	19914.79
452.203	20181.03
452.409	20516.89
452.615	20176.93
452.821	19478.57
453.027	19064.88
453.233	19976.23
453.44	19359.79
453.646	19415.09
453.852	19468.33
454.058	20248.61
454.264	19380.27
454.47	19669.03
454.676	19619.88
454.882	19892.26
455.088	18384.96
455.294	18432.06
455.5	18878.52
455.705	19025.97
455.911	18446.4
456.117	17944.64
456.323	17721.41
456.529	16762.97
456.735	17279.05
456.941	17150.03
457.147	16783.45
457.352	16291.93
457.558	16097.38
457.764	16070.75
457.97	15796.32
458.176	15566.95
458.381	15376.49
458.587	14798.96
458.793	14639.22
458.999	13664.39
459.204	15022.19
459.41	14368.89
459.616	13752.45
459.821	13486.22
460.027	13295.75
460.233	13314.19
460.438	12816.53
460.644	12722.32
460.85	12152.99
461.055	11876.51
461.261	11917.47
461.466	10926.25
461.672	10580.15
461.878	11499.69
462.083	10649.78
462.289	10340.54
462.494	10340.54
462.7	9871.55
462.905	9574.6
463.111	9906.37
463.316	10010.81
463.522	9971.9
463.727	9701.57
463.932	9836.74
464.138	9568.45
464.343	9765.06
464.549	9414.85
464.754	9627.84
464.959	9629.89
465.165	9464
465.37	8913.1
465.575	8732.88
465.781	9031.88
465.986	9089.23
466.191	8853.71
466.397	8796.37
466.602	8351.96
466.807	8634.58
467.012	8741.07
467.218	8550.61
467.423	8415.44
467.628	8782.03
