Data from USB4F104151__39__12-12-00-156.txt Node

Date: Fri Mar 14 12:12:00 EDT 2025
User: louis
Spectrometer: USB4F10415
Trigger mode: 4
Integration Time (sec): 5.000000E-2
Scans to average: 1
Electric dark correction enabled: true
Nonlinearity correction enabled: false
Boxcar width: 0
XAxis mode: Wavelengths
Number of Pixels in Spectrum: 3648
>>>>>Begin Spectral Data<<<<<
178.204	-174.08
178.424	-174.08
178.644	-174.08
178.864	-182.27
179.084	-223.23
179.304	-69.63
179.524	-14.34
179.744	2.05
179.964	-8.19
180.184	-32.77
180.404	36.86
180.624	24.58
180.844	18.43
181.064	-22.53
181.283	20.48
181.503	8.19
181.723	36.86
181.943	-51.2
182.163	114.69
182.383	4.1
182.602	86.01
182.822	61.44
183.042	-30.72
183.262	-12.29
183.482	16.38
183.701	-6.14
183.921	-12.29
184.141	0
184.361	135.17
184.58	79.87
184.8	49.15
185.02	8.19
185.239	106.49
185.459	40.96
185.679	71.68
185.898	-28.67
186.118	2.05
186.338	71.68
186.557	59.39
186.777	-36.86
186.997	55.3
187.216	-32.77
187.436	149.5
187.655	45.06
187.875	-14.34
188.095	-14.34
188.314	38.91
188.534	98.3
188.753	43.01
188.973	55.3
189.192	90.11
189.412	6.14
189.631	40.96
189.851	38.91
190.07	145.41
190.29	-10.24
190.509	45.06
190.729	22.53
190.948	94.21
191.168	243.71
191.387	34.82
191.607	-45.06
191.826	-20.48
192.045	43.01
192.265	-4.1
192.484	-8.19
192.704	38.91
192.923	-32.77
193.142	143.36
193.362	67.58
193.581	24.58
193.8	28.67
194.02	32.77
194.239	40.96
194.458	22.53
194.678	77.82
194.897	59.39
195.116	20.48
195.335	38.91
195.555	-8.19
195.774	-30.72
195.993	73.73
196.212	36.86
196.432	24.58
196.651	-40.96
196.87	8.19
197.089	92.16
197.308	24.58
197.528	65.54
197.747	-30.72
197.966	26.62
198.185	145.41
198.404	53.25
198.623	30.72
198.842	55.3
199.062	73.73
199.281	120.83
199.5	49.15
199.719	-10.24
199.938	92.16
200.157	49.15
200.376	71.68
200.595	4.1
200.814	22.53
201.033	63.49
201.252	40.96
201.471	-38.91
201.69	96.25
201.909	43.01
202.128	26.62
202.347	-6.14
202.566	18.43
202.785	-32.77
203.004	-26.62
203.223	167.93
203.442	61.44
203.661	4.1
203.879	159.74
204.098	40.96
204.317	-26.62
204.536	45.06
204.755	-4.1
204.974	116.73
205.193	43.01
205.411	81.92
205.63	98.3
205.849	-2.05
206.068	-26.62
206.287	57.34
206.505	53.25
206.724	12.29
206.943	2.05
207.162	0
207.381	10.24
207.599	75.77
207.818	22.53
208.037	-16.38
208.255	75.77
208.474	18.43
208.693	63.49
208.911	22.53
209.13	32.77
209.349	-24.58
209.567	100.35
209.786	100.35
210.005	116.73
210.223	77.82
210.442	-6.14
210.661	36.86
210.879	79.87
211.098	28.67
211.316	-18.43
211.535	90.11
211.753	16.38
211.972	-16.38
212.191	-32.77
212.409	8.19
212.628	100.35
212.846	-4.1
213.065	86.01
213.283	86.01
213.502	51.2
213.72	36.86
213.938	18.43
214.157	16.38
214.375	112.64
214.594	51.2
214.812	-24.58
215.031	16.38
215.249	10.24
215.467	53.25
215.686	18.43
215.904	43.01
216.122	10.24
216.341	124.93
216.559	-12.29
216.778	63.49
216.996	10.24
217.214	-10.24
217.432	22.53
217.651	-98.3
217.869	8.19
218.087	26.62
218.306	-18.43
218.524	43.01
218.742	71.68
218.96	57.34
219.179	22.53
219.397	32.77
219.615	165.89
219.833	8.19
220.051	-4.1
220.27	71.68
220.488	75.77
220.706	51.2
220.924	47.1
221.142	45.06
221.36	47.1
221.578	63.49
221.796	53.25
222.015	-49.15
222.233	40.96
222.451	137.21
222.669	-20.48
222.887	61.44
223.105	-43.01
223.323	73.73
223.541	61.44
223.759	69.63
223.977	51.2
224.195	96.25
224.413	65.54
224.631	16.38
224.849	43.01
225.067	88.06
225.285	-36.86
225.503	-36.86
225.721	0
225.939	65.54
226.157	18.43
226.375	153.6
226.592	28.67
226.81	16.38
227.028	126.97
227.246	96.25
227.464	22.53
227.682	110.59
227.9	67.58
228.117	51.2
228.335	10.24
228.553	67.58
228.771	75.77
228.989	22.53
229.206	28.67
229.424	26.62
229.642	28.67
229.86	-22.53
230.077	40.96
230.295	16.38
230.513	122.88
230.731	63.49
230.948	77.82
231.166	155.65
231.384	38.91
231.601	28.67
231.819	67.58
232.037	-45.06
232.254	36.86
232.472	-24.58
232.689	30.72
232.907	106.49
233.125	77.82
233.342	26.62
233.56	73.73
233.777	6.14
233.995	14.34
234.213	53.25
234.43	-28.67
234.648	4.1
234.865	-28.67
235.083	34.82
235.3	96.25
235.518	69.63
235.735	47.1
235.953	49.15
236.17	-22.53
236.388	-18.43
236.605	10.24
236.822	73.73
237.04	90.11
237.257	55.3
237.475	-30.72
237.692	108.54
237.909	8.19
238.127	57.34
238.344	43.01
238.562	57.34
238.779	12.29
238.996	10.24
239.214	-24.58
239.431	79.87
239.648	22.53
239.865	79.87
240.083	51.2
240.3	6.14
240.517	24.58
240.735	10.24
240.952	57.34
241.169	55.3
241.386	57.34
241.603	0
241.821	43.01
242.038	145.41
242.255	112.64
242.472	4.1
242.689	-4.1
242.907	77.82
243.124	102.4
243.341	73.73
243.558	0
243.775	0
243.992	-67.58
244.209	22.53
244.426	45.06
244.643	63.49
244.86	-22.53
245.078	100.35
245.295	47.1
245.512	32.77
245.729	-12.29
245.946	108.54
246.163	43.01
246.38	18.43
246.597	36.86
246.814	2.05
247.031	-26.62
247.248	108.54
247.464	69.63
247.681	-40.96
247.898	75.77
248.115	124.93
248.332	18.43
248.549	137.21
248.766	157.69
248.983	108.54
249.2	77.82
249.417	-2.05
249.633	8.19
249.85	77.82
250.067	34.82
250.284	94.21
250.501	59.39
250.717	137.21
250.934	-32.77
251.151	10.24
251.368	0
251.585	0
251.801	24.58
252.018	-34.82
252.235	10.24
252.451	26.62
252.668	43.01
252.885	47.1
253.102	14.34
253.318	112.64
253.535	-12.29
253.752	36.86
253.968	14.34
254.185	-16.38
254.401	26.62
254.618	59.39
254.835	-40.96
255.051	129.02
255.268	47.1
255.484	-26.62
255.701	-2.05
255.917	65.54
256.134	12.29
256.351	34.82
256.567	-43.01
256.784	10.24
257	-28.67
257.217	94.21
257.433	157.69
257.65	57.34
257.866	47.1
258.082	-28.67
258.299	12.29
258.515	-16.38
258.732	-16.38
258.948	24.58
259.165	18.43
259.381	55.3
259.597	18.43
259.814	40.96
260.03	-4.1
260.246	12.29
260.463	102.4
260.679	49.15
260.895	43.01
261.112	75.77
261.328	67.58
261.544	-26.62
261.761	126.97
261.977	-30.72
262.193	-26.62
262.409	-16.38
262.626	28.67
262.842	0
263.058	2.05
263.274	79.87
263.49	32.77
263.707	102.4
263.923	108.54
264.139	30.72
264.355	45.06
264.571	40.96
264.787	61.44
265.004	98.3
265.22	73.73
265.436	-6.14
265.652	61.44
265.868	71.68
266.084	18.43
266.3	34.82
266.516	-12.29
266.732	63.49
266.948	36.86
267.164	26.62
267.38	75.77
267.596	38.91
267.812	120.83
268.028	2.05
268.244	63.49
268.46	24.58
268.676	-6.14
268.892	71.68
269.108	71.68
269.324	32.77
269.54	-55.3
269.756	14.34
269.972	36.86
270.188	12.29
270.403	94.21
270.619	47.1
270.835	45.06
271.051	-4.1
271.267	71.68
271.483	45.06
271.698	34.82
271.914	-12.29
272.13	57.34
272.346	16.38
272.562	-14.34
272.777	186.37
272.993	24.58
273.209	-34.82
273.425	34.82
273.64	-47.1
273.856	-18.43
274.072	-67.58
274.287	10.24
274.503	100.35
274.719	0
274.934	-10.24
275.15	-30.72
275.366	20.48
275.581	-16.38
275.797	-45.06
276.012	61.44
276.228	47.1
276.444	-30.72
276.659	40.96
276.875	-8.19
277.09	6.14
277.306	65.54
277.521	108.54
277.737	6.14
277.952	16.38
278.168	59.39
278.383	63.49
278.599	6.14
278.814	65.54
279.03	59.39
279.245	149.5
279.461	16.38
279.676	65.54
279.892	-45.06
280.107	-28.67
280.322	55.3
280.538	32.77
280.753	22.53
280.969	83.97
281.184	55.3
281.399	96.25
281.615	151.55
281.83	53.25
282.045	-57.34
282.26	43.01
282.476	20.48
282.691	114.69
282.906	55.3
283.122	65.54
283.337	-6.14
283.552	106.49
283.767	40.96
283.983	20.48
284.198	16.38
284.413	12.29
284.628	22.53
284.843	59.39
285.058	61.44
285.274	-12.29
285.489	-12.29
285.704	88.06
285.919	-2.05
286.134	55.3
286.349	40.96
286.564	-47.1
286.779	26.62
286.995	20.48
287.21	-8.19
287.425	51.2
287.64	38.91
287.855	88.06
288.07	-36.86
288.285	36.86
288.5	151.55
288.715	47.1
288.93	104.45
289.145	-55.3
289.36	59.39
289.575	0
289.79	40.96
290.004	-10.24
290.219	57.34
290.434	-18.43
290.649	-86.01
290.864	10.24
291.079	45.06
291.294	59.39
291.509	83.97
291.724	63.49
291.938	-26.62
292.153	67.58
292.368	16.38
292.583	92.16
292.798	30.72
293.012	4.1
293.227	24.58
293.442	65.54
293.657	63.49
293.871	71.68
294.086	6.14
294.301	104.45
294.516	51.2
294.73	67.58
294.945	-16.38
295.16	75.77
295.374	75.77
295.589	67.58
295.804	-10.24
296.018	-14.34
296.233	51.2
296.447	40.96
296.662	10.24
296.877	59.39
297.091	114.69
297.306	122.88
297.52	-2.05
297.735	59.39
297.949	51.2
298.164	106.49
298.378	-14.34
298.593	12.29
298.807	8.19
299.022	57.34
299.236	116.73
299.451	-2.05
299.665	104.45
299.88	16.38
300.094	24.58
300.309	59.39
300.523	30.72
300.737	88.06
300.952	32.77
301.166	-10.24
301.381	-22.53
301.595	4.1
301.809	22.53
302.024	38.91
302.238	49.15
302.452	51.2
302.667	-10.24
302.881	110.59
303.095	135.17
303.309	-36.86
303.524	18.43
303.738	-2.05
303.952	12.29
304.166	24.58
304.381	-8.19
304.595	69.63
304.809	18.43
305.023	104.45
305.237	12.29
305.452	-12.29
305.666	34.82
305.88	14.34
306.094	71.68
306.308	20.48
306.522	88.06
306.736	12.29
306.95	55.3
307.164	28.67
307.379	18.43
307.593	51.2
307.807	-16.38
308.021	81.92
308.235	69.63
308.449	8.19
308.663	-28.67
308.877	20.48
309.091	65.54
309.305	2.05
309.519	-57.34
309.733	108.54
309.947	-12.29
310.161	104.45
310.374	63.49
310.588	63.49
310.802	63.49
311.016	18.43
311.23	65.54
311.444	8.19
311.658	-40.96
311.872	96.25
312.085	20.48
312.299	69.63
312.513	133.12
312.727	18.43
312.941	-6.14
313.154	63.49
313.368	28.67
313.582	69.63
313.796	96.25
314.009	-4.1
314.223	88.06
314.437	20.48
314.651	114.69
314.864	16.38
315.078	8.19
315.292	-6.14
315.505	51.2
315.719	129.02
315.933	92.16
316.146	59.39
316.36	16.38
316.573	59.39
316.787	32.77
317.001	22.53
317.214	-34.82
317.428	22.53
317.641	26.62
317.855	20.48
318.068	73.73
318.282	79.87
318.495	143.36
318.709	94.21
318.922	16.38
319.136	124.93
319.349	92.16
319.563	2.05
319.776	28.67
319.99	-22.53
320.203	75.77
320.417	47.1
320.63	110.59
320.843	143.36
321.057	67.58
321.27	24.58
321.483	-6.14
321.697	55.3
321.91	-4.1
322.124	4.1
322.337	-2.05
322.55	-69.63
322.763	12.29
322.977	55.3
323.19	-49.15
323.403	10.24
323.617	77.82
323.83	126.97
324.043	106.49
324.256	36.86
324.469	32.77
324.683	61.44
324.896	45.06
325.109	0
325.322	24.58
325.535	45.06
325.748	2.05
325.962	61.44
326.175	63.49
326.388	73.73
326.601	12.29
326.814	2.05
327.027	-14.34
327.24	161.79
327.453	34.82
327.666	83.97
327.879	43.01
328.092	94.21
328.305	55.3
328.518	10.24
328.731	-47.1
328.944	20.48
329.157	53.25
329.37	12.29
329.583	57.34
329.796	155.65
330.009	6.14
330.222	69.63
330.435	92.16
330.648	47.1
330.861	26.62
331.073	49.15
331.286	112.64
331.499	65.54
331.712	47.1
331.925	61.44
332.138	-30.72
332.35	40.96
332.563	65.54
332.776	182.27
332.989	-22.53
333.202	88.06
333.414	98.3
333.627	-4.1
333.84	65.54
334.053	-30.72
334.265	40.96
334.478	-26.62
334.691	67.58
334.903	0
335.116	-120.83
335.329	34.82
335.541	49.15
335.754	81.92
335.966	-12.29
336.179	104.45
336.392	30.72
336.604	26.62
336.817	120.83
337.029	94.21
337.242	-51.2
337.454	40.96
337.667	36.86
337.88	122.88
338.092	122.88
338.305	65.54
338.517	-16.38
338.729	20.48
338.942	57.34
339.154	61.44
339.367	-61.44
339.579	88.06
339.792	-63.49
340.004	83.97
340.217	20.48
340.429	86.01
340.641	-24.58
340.854	28.67
341.066	30.72
341.278	0
341.491	194.56
341.703	30.72
341.915	28.67
342.128	6.14
342.34	51.2
342.552	20.48
342.764	38.91
342.977	47.1
343.189	59.39
343.401	71.68
343.613	6.14
343.826	55.3
344.038	22.53
344.25	65.54
344.462	4.1
344.674	116.73
344.886	51.2
345.099	47.1
345.311	16.38
345.523	22.53
345.735	-34.82
345.947	24.58
346.159	65.54
346.371	14.34
346.583	69.63
346.795	178.17
347.007	-10.24
347.219	88.06
347.431	67.58
347.643	53.25
347.855	47.1
348.067	69.63
348.279	20.48
348.491	59.39
348.703	120.83
348.915	86.01
349.127	14.34
349.339	73.73
349.551	16.38
349.763	129.02
349.975	-38.91
350.187	59.39
350.399	61.44
350.61	34.82
350.822	18.43
351.034	100.35
351.246	71.68
351.458	45.06
351.669	96.25
351.881	94.21
352.093	108.54
352.305	10.24
352.517	133.12
352.728	59.39
352.94	43.01
353.152	63.49
353.363	-55.3
353.575	83.97
353.787	186.37
353.999	88.06
354.21	147.45
354.422	36.86
354.633	-10.24
354.845	22.53
355.057	-2.05
355.268	45.06
355.48	110.59
355.692	63.49
355.903	86.01
356.115	6.14
356.326	26.62
356.538	75.77
356.749	90.11
356.961	114.69
357.172	16.38
357.384	-79.87
357.595	112.64
357.807	36.86
358.018	-24.58
358.23	61.44
358.441	135.17
358.653	51.2
358.864	6.14
359.075	-28.67
359.287	126.97
359.498	100.35
359.709	69.63
359.921	-12.29
360.132	98.3
360.344	61.44
360.555	-12.29
360.766	110.59
360.977	73.73
361.189	92.16
361.4	45.06
361.611	47.1
361.823	79.87
362.034	73.73
362.245	-6.14
362.456	71.68
362.667	112.64
362.879	28.67
363.09	118.78
363.301	45.06
363.512	45.06
363.723	-10.24
363.935	63.49
364.146	94.21
364.357	34.82
364.568	47.1
364.779	51.2
364.99	65.54
365.201	-55.3
365.412	131.07
365.623	45.06
365.834	36.86
366.045	34.82
366.256	94.21
366.467	81.92
366.678	-10.24
366.889	67.58
367.1	61.44
367.311	79.87
367.522	22.53
367.733	81.92
367.944	65.54
368.155	-47.1
368.366	20.48
368.577	88.06
368.788	135.17
368.999	51.2
369.209	51.2
369.42	79.87
369.631	133.12
369.842	79.87
370.053	49.15
370.264	106.49
370.474	4.1
370.685	16.38
370.896	28.67
371.107	196.61
371.317	63.49
371.528	2.05
371.739	61.44
371.95	61.44
372.16	26.62
372.371	-61.44
372.582	-2.05
372.792	118.78
373.003	83.97
373.214	-36.86
373.424	28.67
373.635	-36.86
373.846	153.6
374.056	77.82
374.267	45.06
374.477	90.11
374.688	38.91
374.898	47.1
375.109	32.77
375.319	40.96
375.53	102.4
375.74	92.16
375.951	51.2
376.161	90.11
376.372	24.58
376.582	-18.43
376.793	63.49
377.003	-36.86
377.214	49.15
377.424	81.92
377.635	79.87
377.845	26.62
378.055	153.6
378.266	59.39
378.476	69.63
378.686	57.34
378.897	110.59
379.107	129.02
379.317	114.69
379.528	45.06
379.738	86.01
379.948	-10.24
380.158	73.73
380.369	-28.67
380.579	122.88
380.789	26.62
380.999	77.82
381.21	6.14
381.42	206.84
381.63	20.48
381.84	-2.05
382.05	4.1
382.261	49.15
382.471	88.06
382.681	-12.29
382.891	118.78
383.101	32.77
383.311	16.38
383.521	88.06
383.731	75.77
383.941	135.17
384.151	14.34
384.361	49.15
384.571	118.78
384.781	77.82
384.991	165.89
385.201	102.4
385.411	151.55
385.621	92.16
385.831	71.68
386.041	55.3
386.251	45.06
386.461	81.92
386.671	77.82
386.881	71.68
387.091	71.68
387.301	110.59
387.511	61.44
387.72	139.26
387.93	51.2
388.14	28.67
388.35	106.49
388.56	88.06
388.769	104.45
388.979	43.01
389.189	59.39
389.399	38.91
389.609	73.73
389.818	90.11
390.028	30.72
390.238	92.16
390.447	24.58
390.657	86.01
390.867	-20.48
391.076	-71.68
391.286	28.67
391.496	71.68
391.705	16.38
391.915	96.25
392.125	108.54
392.334	110.59
392.544	139.26
392.753	71.68
392.963	53.25
393.172	24.58
393.382	12.29
393.591	204.8
393.801	53.25
394.01	102.4
394.22	81.92
394.429	129.02
394.639	100.35
394.848	63.49
395.058	51.2
395.267	43.01
395.477	79.87
395.686	79.87
395.895	155.65
396.105	186.37
396.314	81.92
396.524	153.6
396.733	92.16
396.942	206.84
397.152	90.11
397.361	147.45
397.57	18.43
397.78	77.82
397.989	100.35
398.198	180.22
398.407	92.16
398.617	114.69
398.826	20.48
399.035	118.78
399.244	184.32
399.453	133.12
399.663	59.39
399.872	96.25
400.081	106.49
400.29	192.51
400.499	169.98
400.708	155.65
400.917	149.5
401.127	176.13
401.336	75.77
401.545	180.22
401.754	137.21
401.963	114.69
402.172	77.82
402.381	83.97
402.59	90.11
402.799	120.83
403.008	135.17
403.217	151.55
403.426	172.03
403.635	2.05
403.844	169.98
404.053	98.3
404.262	129.02
404.471	258.04
404.68	143.36
404.888	147.45
405.097	225.28
405.306	135.17
405.515	249.85
405.724	178.17
405.933	176.13
406.142	182.27
406.35	210.94
406.559	190.46
406.768	137.21
406.977	188.41
407.185	169.98
407.394	235.52
407.603	182.27
407.812	264.19
408.02	233.47
408.229	229.37
408.438	266.24
408.646	196.61
408.855	212.99
409.064	280.57
409.272	217.08
409.481	399.35
409.69	270.33
409.898	282.62
410.107	378.87
410.315	352.25
410.524	301.05
410.733	374.78
410.941	329.72
411.15	307.2
411.358	399.35
411.567	495.61
411.775	391.16
411.984	503.8
412.192	430.07
412.401	499.7
412.609	612.34
412.818	567.29
413.026	450.55
413.234	540.66
413.443	495.61
413.651	462.84
413.86	569.34
414.068	626.68
414.276	708.6
414.485	610.29
414.693	733.17
414.901	733.17
415.11	641.01
415.318	731.12
415.526	727.03
415.734	755.7
415.943	849.91
416.151	845.81
416.359	884.72
416.567	866.29
416.776	952.31
416.984	1005.55
417.192	1091.57
417.4	1023.98
417.608	1054.7
417.817	1103.86
418.025	1157.1
418.233	1232.88
418.441	1189.87
418.649	1200.11
418.857	1282.03
419.065	1296.36
419.273	1327.08
419.481	1359.85
419.689	1437.67
419.897	1452.01
420.105	1527.78
420.313	1624.04
420.521	1658.85
420.729	1718.25
420.937	1763.3
421.145	1777.64
421.353	1912.8
421.561	1972.19
421.769	1933.28
421.977	2019.3
422.185	2150.37
422.393	2179.04
422.601	2326.49
422.809	2351.07
423.017	2398.17
423.224	2455.51
423.432	2451.42
423.64	2486.23
423.848	2797.53
424.056	2674.65
424.263	2848.72
424.471	2811.86
424.679	3024.85
424.887	3139.54
425.094	3262.41
425.302	3241.93
425.51	3395.53
425.718	3481.55
425.925	3542.99
426.133	3641.29
426.341	3968.96
426.548	3813.32
426.756	4034.5
426.964	3936.2
427.171	4100.03
427.379	4341.69
427.586	4437.95
427.794	4571.07
428.001	4884.41
428.209	4831.16
428.417	4962.23
428.624	5132.21
428.832	5279.66
429.039	5158.83
429.247	5244.85
429.454	5846.95
429.662	6170.53
429.869	5793.7
430.076	6078.37
430.284	5799.85
430.491	6137.76
430.699	6541.21
430.906	6576.03
431.114	6539.16
431.321	6897.56
431.528	6780.82
431.736	7464.85
431.943	7616.4
432.15	7665.55
432.358	7583.63
432.565	8032.13
432.772	8009.61
432.979	8501.12
433.187	8836.99
433.394	8431.49
433.601	9107.32
433.808	9217.91
434.016	9135.99
434.223	9394.03
434.43	10043.24
434.637	9891.69
434.844	10665.82
435.052	10831.71
435.259	10700.64
435.466	10600.29
435.673	10686.3
435.88	11501.39
436.087	11994.95
436.294	12083.02
436.501	11585.36
436.708	11919.18
436.915	12267.33
437.122	12957.5
437.329	12785.47
437.537	13229.88
437.743	13688.62
437.95	13729.58
438.157	13961
438.364	14530.34
438.571	14663.46
438.778	14495.52
438.985	15970.06
439.192	15277.85
439.399	15675.15
439.606	15630.1
439.813	16217.86
440.02	17360.63
440.227	16766.72
440.433	16936.7
440.64	17686.26
440.847	17503.99
441.054	17938.16
441.261	18898.66
441.467	18618.08
441.674	18919.14
441.881	19867.34
442.088	19508.95
442.294	19625.68
442.501	19818.19
442.708	20514.5
442.914	21386.94
443.121	21976.75
443.328	21630.65
443.534	22804.13
443.741	22484.65
443.948	21986.99
444.154	23789.2
444.361	23404.19
444.568	23715.48
444.774	23668.37
444.981	23778.97
445.187	24843.91
445.394	25794.17
445.6	25435.77
445.807	27854.42
446.013	26654.31
446.22	27209.31
446.426	28415.57
446.633	28757.58
446.839	29279.81
447.046	28448.33
447.252	30066.23
447.459	29902.39
447.665	29646.4
447.871	31168.04
448.078	32441.87
448.284	30838.31
448.491	31659.55
448.697	33168.9
448.903	33211.91
449.11	33705.47
449.316	33025.54
449.522	33539.58
449.728	34854.38
449.935	34885.1
450.141	34866.67
450.347	35390.95
450.553	34672.11
450.76	34874.86
450.966	36007.39
451.172	35851.74
451.378	36607.44
451.584	35671.52
451.791	36724.18
451.997	36951.5
452.203	37311.94
452.409	37459.4
452.615	37086.67
452.821	35821.02
453.027	35429.86
453.233	37115.34
453.44	36019.67
453.646	36408.79
453.852	36363.73
454.058	36818.38
454.264	35771.87
454.47	36609.49
454.676	35409.38
454.882	36922.83
455.088	33740.29
455.294	34258.42
455.5	34985.45
455.705	35184.1
455.911	33932.79
456.117	32847.37
456.323	32362
456.529	30821.93
456.735	32232.98
456.941	31493.66
457.147	31079.97
457.352	30117.43
457.558	29847.1
457.764	29834.81
457.97	28956.23
458.176	28599.88
458.381	28423.76
458.587	26943.08
458.793	27182.69
458.999	25794.17
459.204	27276.9
459.41	26678.89
459.616	25044.61
459.821	25060.99
460.027	25136.77
460.233	24483.47
460.438	23350.94
460.644	23281.31
460.85	22177.45
461.055	22150.83
461.261	22273.71
461.466	20532.93
461.672	19662.55
461.878	21307.07
462.083	19752.66
462.289	19298.01
462.494	18953.95
462.7	18509.54
462.905	17903.34
463.111	18644.71
463.316	18661.09
463.522	17901.29
463.727	18065.13
463.932	18233.07
464.138	17962.73
464.343	17917.68
464.549	17188.6
464.754	17858.29
464.959	17962.73
465.165	17751.79
465.37	16959.23
465.575	16408.33
465.781	17258.23
465.986	17348.34
466.191	16750.34
466.397	16338.69
466.602	15707.92
466.807	16267.02
