Data from USB4F104151__8__12-11-16-452.txt Node

Date: Fri Mar 14 12:11:16 EDT 2025
User: louis
Spectrometer: USB4F10415
Trigger mode: 4
Integration Time (sec): 5.000000E-2
Scans to average: 1
Electric dark correction enabled: true
Nonlinearity correction enabled: false
Boxcar width: 0
XAxis mode: Wavelengths
Number of Pixels in Spectrum: 3648
>>>>>Begin Spectral Data<<<<<
178.204	-208.55
178.424	-208.55
178.644	-208.55
178.864	-239.27
179.084	-245.41
179.304	10.58
179.524	-28.33
179.744	-69.29
179.964	39.25
180.184	41.3
180.404	41.3
180.624	-52.91
180.844	2.39
181.064	-20.14
181.283	80.21
181.503	-89.77
181.723	45.4
181.943	-34.47
182.163	63.83
182.383	-7.85
182.602	49.49
182.822	59.73
183.042	39.25
183.262	24.92
183.482	39.25
183.701	-7.85
183.921	14.68
184.141	-34.47
184.361	45.4
184.58	20.82
184.8	-67.24
185.02	-20.14
185.239	82.26
185.459	82.26
185.679	98.64
185.898	8.53
186.118	72.02
186.338	8.53
186.557	33.11
186.777	0.34
186.997	6.49
187.216	43.35
187.436	155.99
187.655	69.97
187.875	49.49
188.095	43.35
188.314	110.93
188.534	61.78
188.753	55.64
188.973	133.46
189.192	108.88
189.412	4.44
189.631	67.92
189.851	47.44
190.07	76.12
190.29	-32.43
190.509	41.3
190.729	59.73
190.948	88.4
191.168	285.01
191.387	29.01
191.607	-40.62
191.826	18.77
192.045	82.26
192.265	12.63
192.484	59.73
192.704	12.63
192.923	-30.38
193.142	201.04
193.362	80.21
193.581	86.36
193.8	0.34
194.02	18.77
194.239	41.3
194.458	12.63
194.678	43.35
194.897	-9.9
195.116	57.68
195.335	57.68
195.555	-13.99
195.774	84.31
195.993	72.02
196.212	-34.47
196.432	37.2
196.651	-63.15
196.87	14.68
197.089	102.74
197.308	6.49
197.528	-26.28
197.747	-26.28
197.966	-7.85
198.185	86.36
198.404	18.77
198.623	-13.99
198.842	119.12
199.062	104.79
199.281	96.6
199.5	31.06
199.719	37.2
199.938	29.01
200.157	84.31
200.376	-5.8
200.595	147.8
200.814	31.06
201.033	-26.28
201.252	6.49
201.471	16.73
201.69	55.64
201.909	53.59
202.128	8.53
202.347	84.31
202.566	-42.67
202.785	-40.62
203.004	16.73
203.223	182.61
203.442	67.92
203.661	53.59
203.879	24.92
204.098	88.4
204.317	12.63
204.536	69.97
204.755	129.36
204.974	53.59
205.193	31.06
205.411	160.08
205.63	41.3
205.849	55.64
206.068	86.36
206.287	53.59
206.505	80.21
206.724	18.77
206.943	20.82
207.162	8.53
207.381	0.34
207.599	74.07
207.818	20.82
208.037	4.44
208.255	-11.95
208.474	45.4
208.693	33.11
208.911	12.63
209.13	78.16
209.349	80.21
209.567	125.27
209.786	16.73
210.005	61.78
210.223	31.06
210.442	-48.81
210.661	74.07
210.879	-9.9
211.098	-3.75
211.316	35.16
211.535	43.35
211.753	10.58
211.972	82.26
212.191	18.77
212.409	-11.95
212.628	33.11
212.846	16.73
213.065	82.26
213.283	84.31
213.502	45.4
213.72	18.77
213.938	65.88
214.157	41.3
214.375	98.64
214.594	-11.95
214.812	-42.67
215.031	-7.85
215.249	14.68
215.467	-24.23
215.686	72.02
215.904	133.46
216.122	78.16
216.341	26.96
216.559	8.53
216.778	119.12
216.996	2.39
217.214	12.63
217.432	-36.52
217.651	-5.8
217.869	57.68
218.087	47.44
218.306	-5.8
218.524	45.4
218.742	-52.91
218.96	35.16
219.179	20.82
219.397	45.4
219.615	123.22
219.833	57.68
220.051	74.07
220.27	145.75
220.488	-28.33
220.706	106.84
220.924	31.06
221.142	-40.62
221.36	31.06
221.578	55.64
221.796	2.39
222.015	55.64
222.233	33.11
222.451	53.59
222.669	-38.57
222.887	121.17
223.105	4.44
223.323	-18.09
223.541	-9.9
223.759	174.42
223.977	-44.71
224.195	119.12
224.413	76.12
224.631	49.49
224.849	110.93
225.067	117.08
225.285	33.11
225.503	-22.19
225.721	18.77
225.939	31.06
226.157	33.11
226.375	139.6
226.592	-40.62
226.81	53.59
227.028	127.32
227.246	26.96
227.464	-3.75
227.682	92.5
227.9	74.07
228.117	-13.99
228.335	41.3
228.553	26.96
228.771	-3.75
228.989	57.68
229.206	-9.9
229.424	-9.9
229.642	-1.71
229.86	-67.24
230.077	57.68
230.295	43.35
230.513	51.54
230.731	49.49
230.948	117.08
231.166	86.36
231.384	-36.52
231.601	-52.91
231.819	151.89
232.037	-26.28
232.254	57.68
232.472	-11.95
232.689	86.36
232.907	61.78
233.125	59.73
233.342	-57
233.56	-36.52
233.777	-30.38
233.995	80.21
234.213	96.6
234.43	96.6
234.648	-57
234.865	2.39
235.083	35.16
235.3	26.96
235.518	-3.75
235.735	104.79
235.953	129.36
236.17	6.49
236.388	41.3
236.605	-32.43
236.822	76.12
237.04	67.92
237.257	49.49
237.475	-42.67
237.692	41.3
237.909	53.59
238.127	16.73
238.344	69.97
238.562	-24.23
238.779	-26.28
238.996	0.34
239.214	43.35
239.431	39.25
239.648	-57
239.865	24.92
240.083	76.12
240.3	18.77
240.517	-46.76
240.735	24.92
240.952	121.17
241.169	84.31
241.386	86.36
241.603	53.59
241.821	-5.8
242.038	67.92
242.255	53.59
242.472	53.59
242.689	123.22
242.907	108.88
243.124	59.73
243.341	16.73
243.558	-32.43
243.775	-7.85
243.992	-57
244.209	96.6
244.426	164.18
244.643	-28.33
244.86	22.87
245.078	59.73
245.295	88.4
245.512	4.44
245.729	63.83
245.946	90.45
246.163	49.49
246.38	88.4
246.597	2.39
246.814	-5.8
247.031	0.34
247.248	2.39
247.464	33.11
247.681	86.36
247.898	104.79
248.115	4.44
248.332	-1.71
248.549	39.25
248.766	74.07
248.983	59.73
249.2	86.36
249.417	26.96
249.633	20.82
249.85	37.2
250.067	20.82
250.284	12.63
250.501	63.83
250.717	78.16
250.934	45.4
251.151	0.34
251.368	-36.52
251.585	100.69
251.801	29.01
252.018	39.25
252.235	137.56
252.451	-59.05
252.668	4.44
252.885	129.36
253.102	37.2
253.318	2.39
253.535	-54.95
253.752	2.39
253.968	-20.14
254.185	-1.71
254.401	26.96
254.618	24.92
254.835	43.35
255.051	94.55
255.268	104.79
255.484	57.68
255.701	-22.19
255.917	61.78
256.134	57.68
256.351	24.92
256.567	-44.71
256.784	65.88
257	-22.19
257.217	8.53
257.433	53.59
257.65	49.49
257.866	98.64
258.082	-18.09
258.299	-42.67
258.515	20.82
258.732	-7.85
258.948	31.06
259.165	74.07
259.381	-65.19
259.597	31.06
259.814	18.77
260.03	31.06
260.246	31.06
260.463	55.64
260.679	43.35
260.895	14.68
261.112	80.21
261.328	2.39
261.544	12.63
261.761	88.4
261.977	51.54
262.193	-36.52
262.409	14.68
262.626	72.02
262.842	51.54
263.058	22.87
263.274	41.3
263.49	33.11
263.707	8.53
263.923	61.78
264.139	-46.76
264.355	39.25
264.571	108.88
264.787	72.02
265.004	145.75
265.22	12.63
265.436	20.82
265.652	31.06
265.868	49.49
266.084	14.68
266.3	29.01
266.516	-85.67
266.732	12.63
266.948	37.2
267.164	-20.14
267.38	59.73
267.596	41.3
267.812	201.04
268.028	10.58
268.244	-87.72
268.46	33.11
268.676	80.21
268.892	-1.71
269.108	24.92
269.324	59.73
269.54	37.2
269.756	31.06
269.972	49.49
270.188	0.34
270.403	-16.04
270.619	121.17
270.835	-11.95
271.051	10.58
271.267	59.73
271.483	41.3
271.698	12.63
271.914	80.21
272.13	82.26
272.346	35.16
272.562	65.88
272.777	10.58
272.993	41.3
273.209	104.79
273.425	10.58
273.64	-7.85
273.856	76.12
274.072	2.39
274.287	53.59
274.503	41.3
274.719	20.82
274.934	76.12
275.15	-24.23
275.366	74.07
275.581	-11.95
275.797	57.68
276.012	80.21
276.228	51.54
276.444	67.92
276.659	98.64
276.875	-7.85
277.09	76.12
277.306	-75.43
277.521	90.45
277.737	10.58
277.952	43.35
278.168	20.82
278.383	29.01
278.599	24.92
278.814	84.31
279.03	76.12
279.245	147.8
279.461	24.92
279.676	72.02
279.892	-32.43
280.107	-65.19
280.322	-18.09
280.538	24.92
280.753	4.44
280.969	37.2
281.184	63.83
281.399	53.59
281.615	49.49
281.83	129.36
282.045	24.92
282.26	-7.85
282.476	37.2
282.691	110.93
282.906	-24.23
283.122	55.64
283.337	-24.23
283.552	137.56
283.767	-26.28
283.983	41.3
284.198	49.49
284.413	106.84
284.628	-38.57
284.843	82.26
285.058	14.68
285.274	51.54
285.489	2.39
285.704	125.27
285.919	-16.04
286.134	41.3
286.349	12.63
286.564	63.83
286.779	94.55
286.995	-61.1
287.21	-38.57
287.425	92.5
287.64	29.01
287.855	-24.23
288.07	6.49
288.285	112.98
288.5	98.64
288.715	76.12
288.93	-42.67
289.145	26.96
289.36	33.11
289.575	67.92
289.79	106.84
290.004	-40.62
290.219	18.77
290.434	16.73
290.649	49.49
290.864	53.59
291.079	31.06
291.294	41.3
291.509	12.63
291.724	31.06
291.938	72.02
292.153	-5.8
292.368	-13.99
292.583	8.53
292.798	104.79
293.012	55.64
293.227	14.68
293.442	-34.47
293.657	-24.23
293.871	162.13
294.086	12.63
294.301	55.64
294.516	61.78
294.73	22.87
294.945	-1.71
295.16	41.3
295.374	33.11
295.589	72.02
295.804	14.68
296.018	90.45
296.233	98.64
296.447	90.45
296.662	12.63
296.877	80.21
297.091	76.12
297.306	-3.75
297.52	8.53
297.735	63.83
297.949	74.07
298.164	51.54
298.378	39.25
298.593	-32.43
298.807	82.26
299.022	-38.57
299.236	92.5
299.451	0.34
299.665	80.21
299.88	8.53
300.094	22.87
300.309	22.87
300.523	49.49
300.737	37.2
300.952	80.21
301.166	125.27
301.381	-9.9
301.595	-9.9
301.809	45.4
302.024	-7.85
302.238	-50.86
302.452	57.68
302.667	49.49
302.881	147.8
303.095	20.82
303.309	12.63
303.524	16.73
303.738	39.25
303.952	-16.04
304.166	39.25
304.381	-40.62
304.595	180.56
304.809	22.87
305.023	-59.05
305.237	37.2
305.452	-46.76
305.666	-1.71
305.88	45.4
306.094	94.55
306.308	149.84
306.522	88.4
306.736	131.41
306.95	33.11
307.164	37.2
307.379	117.08
307.593	94.55
307.807	108.88
308.021	31.06
308.235	82.26
308.449	-24.23
308.663	61.78
308.877	117.08
309.091	6.49
309.305	45.4
309.519	-30.38
309.733	20.82
309.947	-26.28
310.161	37.2
310.374	45.4
310.588	92.5
310.802	2.39
311.016	4.44
311.23	65.88
311.444	-11.95
311.658	20.82
311.872	74.07
312.085	39.25
312.299	55.64
312.513	49.49
312.727	6.49
312.941	-32.43
313.154	76.12
313.368	35.16
313.582	65.88
313.796	72.02
314.009	2.39
314.223	51.54
314.437	37.2
314.651	117.08
314.864	26.96
315.078	-13.99
315.292	-20.14
315.505	-3.75
315.719	74.07
315.933	90.45
316.146	67.92
316.36	-3.75
316.573	39.25
316.787	-32.43
317.001	102.74
317.214	2.39
317.428	22.87
317.641	29.01
317.855	14.68
318.068	-13.99
318.282	119.12
318.495	143.7
318.709	72.02
318.922	41.3
319.136	49.49
319.349	196.95
319.563	-22.19
319.776	26.96
319.99	-57
320.203	104.79
320.417	6.49
320.63	57.68
320.843	100.69
321.057	-3.75
321.27	24.92
321.483	63.83
321.697	78.16
321.91	35.16
322.124	35.16
322.337	69.97
322.55	31.06
322.763	2.39
322.977	8.53
323.19	-24.23
323.403	72.02
323.617	10.58
323.83	43.35
324.043	10.58
324.256	-36.52
324.469	18.77
324.683	84.31
324.896	49.49
325.109	4.44
325.322	37.2
325.535	133.46
325.748	92.5
325.962	55.64
326.175	82.26
326.388	63.83
326.601	57.68
326.814	63.83
327.027	78.16
327.24	92.5
327.453	-36.52
327.666	72.02
327.879	108.88
328.092	149.84
328.305	12.63
328.518	-67.24
328.731	59.73
328.944	26.96
329.157	76.12
329.37	51.54
329.583	127.32
329.796	129.36
330.009	35.16
330.222	72.02
330.435	49.49
330.648	55.64
330.861	41.3
331.073	57.68
331.286	115.03
331.499	22.87
331.712	-18.09
331.925	33.11
332.138	84.31
332.35	104.79
332.563	0.34
332.776	57.68
332.989	-61.1
333.202	45.4
333.414	-20.14
333.627	63.83
333.84	37.2
334.053	47.44
334.265	37.2
334.478	-9.9
334.691	-32.43
334.903	16.73
335.116	6.49
335.329	100.69
335.541	29.01
335.754	112.98
335.966	-16.04
336.179	-1.71
336.392	-7.85
336.604	39.25
336.817	43.35
337.029	100.69
337.242	90.45
337.454	-3.75
337.667	-13.99
337.88	-3.75
338.092	29.01
338.305	88.4
338.517	47.44
338.729	61.78
338.942	100.69
339.154	0.34
339.367	12.63
339.579	22.87
339.792	43.35
340.004	8.53
340.217	14.68
340.429	6.49
340.641	-1.71
340.854	22.87
341.066	-5.8
341.278	45.4
341.491	145.75
341.703	-13.99
341.915	37.2
342.128	104.79
342.34	14.68
342.552	16.73
342.764	12.63
342.977	94.55
343.189	69.97
343.401	96.6
343.613	37.2
343.826	72.02
344.038	12.63
344.25	12.63
344.462	-40.62
344.674	69.97
344.886	41.3
345.099	45.4
345.311	10.58
345.523	8.53
345.735	-61.1
345.947	49.49
346.159	14.68
346.371	26.96
346.583	8.53
346.795	155.99
347.007	-3.75
347.219	88.4
347.431	-32.43
347.643	76.12
347.855	4.44
348.067	80.21
348.279	35.16
348.491	39.25
348.703	6.49
348.915	2.39
349.127	-1.71
349.339	82.26
349.551	22.87
349.763	57.68
349.975	59.73
350.187	155.99
350.399	67.92
350.61	59.73
350.822	-22.19
351.034	14.68
351.246	55.64
351.458	123.22
351.669	76.12
351.881	37.2
352.093	117.08
352.305	82.26
352.517	41.3
352.728	141.65
352.94	20.82
353.152	133.46
353.363	2.39
353.575	18.77
353.787	43.35
353.999	145.75
354.21	65.88
354.422	55.64
354.633	78.16
354.845	-7.85
355.057	65.88
355.268	41.3
355.48	92.5
355.692	57.68
355.903	33.11
356.115	43.35
356.326	-24.23
356.538	39.25
356.749	88.4
356.961	98.64
357.172	86.36
357.384	35.16
357.595	100.69
357.807	55.64
358.018	-9.9
358.23	-32.43
358.441	112.98
358.653	86.36
358.864	53.59
359.075	33.11
359.287	127.32
359.498	63.83
359.709	90.45
359.921	-7.85
360.132	53.59
360.344	43.35
360.555	-1.71
360.766	57.68
360.977	47.44
361.189	49.49
361.4	43.35
361.611	112.98
361.823	102.74
362.034	53.59
362.245	-7.85
362.456	0.34
362.667	-5.8
362.879	14.68
363.09	10.58
363.301	35.16
363.512	65.88
363.723	69.97
363.935	8.53
364.146	106.84
364.357	78.16
364.568	43.35
364.779	-11.95
364.99	78.16
365.201	8.53
365.412	45.4
365.623	-93.87
365.834	104.79
366.045	39.25
366.256	-9.9
366.467	76.12
366.678	26.96
366.889	59.73
367.1	-26.28
367.311	88.4
367.522	61.78
367.733	133.46
367.944	-7.85
368.155	61.78
368.366	121.17
368.577	112.98
368.788	37.2
368.999	-48.81
369.209	-40.62
369.42	196.95
369.631	92.5
369.842	104.79
370.053	59.73
370.264	53.59
370.474	-9.9
370.685	4.44
370.896	35.16
371.107	141.65
371.317	63.83
371.528	-16.04
371.739	164.18
371.95	37.2
372.16	29.01
372.371	18.77
372.582	16.73
372.792	72.02
373.003	78.16
373.214	61.78
373.424	90.45
373.635	69.97
373.846	69.97
374.056	86.36
374.267	33.11
374.477	63.83
374.688	41.3
374.898	18.77
375.109	106.84
375.319	55.64
375.53	106.84
375.74	16.73
375.951	-7.85
376.161	18.77
376.372	82.26
376.582	82.26
376.793	26.96
377.003	18.77
377.214	8.53
377.424	-44.71
377.635	45.4
377.845	24.92
378.055	92.5
378.266	-22.19
378.476	82.26
378.686	41.3
378.897	41.3
379.107	51.54
379.317	88.4
379.528	45.4
379.738	78.16
379.948	-18.09
380.158	141.65
380.369	76.12
380.579	33.11
380.789	33.11
380.999	41.3
381.21	35.16
381.42	117.08
381.63	96.6
381.84	123.22
382.05	63.83
382.261	82.26
382.471	76.12
382.681	35.16
382.891	139.6
383.101	41.3
383.311	45.4
383.521	26.96
383.731	92.5
383.941	86.36
384.151	98.64
384.361	16.73
384.571	26.96
384.781	69.97
384.991	137.56
385.201	78.16
385.411	59.73
385.621	115.03
385.831	57.68
386.041	102.74
386.251	-11.95
386.461	33.11
386.671	43.35
386.881	74.07
387.091	102.74
387.301	59.73
387.511	22.87
387.72	26.96
387.93	65.88
388.14	31.06
388.35	57.68
388.56	57.68
388.769	72.02
388.979	22.87
389.189	57.68
389.399	33.11
389.609	33.11
389.818	92.5
390.028	57.68
390.238	8.53
390.447	49.49
390.657	72.02
390.867	-9.9
391.076	37.2
391.286	88.4
391.496	69.97
391.705	61.78
391.915	84.31
392.125	74.07
392.334	-5.8
392.544	129.36
392.753	43.35
392.963	39.25
393.172	86.36
393.382	12.63
393.591	90.45
393.801	115.03
394.01	149.84
394.22	18.77
394.429	82.26
394.639	45.4
394.848	80.21
395.058	41.3
395.267	18.77
395.477	78.16
395.686	84.31
395.895	125.27
396.105	100.69
396.314	131.41
396.524	47.44
396.733	76.12
396.942	76.12
397.152	170.32
397.361	172.37
397.57	104.79
397.78	47.44
397.989	104.79
398.198	201.04
398.407	112.98
398.617	133.46
398.826	43.35
399.035	16.73
399.244	119.12
399.453	104.79
399.663	110.93
399.872	160.08
400.081	119.12
400.29	145.75
400.499	41.3
400.708	84.31
400.917	119.12
401.127	102.74
401.336	39.25
401.545	135.51
401.754	78.16
401.963	96.6
402.172	88.4
402.381	35.16
402.59	143.7
402.799	100.69
403.008	129.36
403.217	133.46
403.426	186.71
403.635	115.03
403.844	88.4
404.053	155.99
404.262	141.65
404.471	137.56
404.68	162.13
404.888	112.98
405.097	133.46
405.306	125.27
405.515	139.6
405.724	94.55
405.933	129.36
406.142	153.94
406.35	168.27
406.559	190.8
406.768	164.18
406.977	239.95
407.185	219.47
407.394	172.37
407.603	133.46
407.812	229.71
408.02	231.76
408.229	196.95
408.438	250.19
408.646	155.99
408.855	225.62
409.064	221.52
409.272	207.19
409.481	307.54
409.69	219.47
409.898	176.47
410.107	301.39
410.315	248.15
410.524	227.67
410.733	246.1
410.941	295.25
411.15	323.92
411.358	313.68
411.567	407.89
411.775	409.94
411.984	414.03
412.192	366.93
412.401	414.03
412.609	498
412.818	426.32
413.026	319.82
413.234	442.7
413.443	440.65
413.651	409.94
413.86	457.04
414.068	538.96
414.276	584.01
414.485	502.09
414.693	676.17
414.901	706.89
415.11	575.82
415.318	577.87
415.526	641.36
415.734	633.16
415.943	614.73
416.151	719.18
416.359	704.84
416.567	780.62
416.776	706.89
416.984	880.97
417.192	985.41
417.4	778.57
417.608	788.81
417.817	885.06
418.025	956.74
418.233	1014.09
418.441	940.36
418.649	954.69
418.857	1153.35
419.065	1192.26
419.273	1106.24
419.481	1186.12
419.689	1227.07
419.897	1352
420.105	1306.95
420.313	1356.1
420.521	1448.26
420.729	1431.87
420.937	1466.69
421.145	1483.07
421.353	1648.96
421.561	1632.57
421.769	1734.97
421.977	1753.4
422.185	1712.44
422.393	1890.62
422.601	1984.82
422.809	1907
423.017	2023.73
423.224	2072.89
423.432	2136.37
423.64	2197.81
423.848	2369.84
424.056	2310.45
424.263	2537.77
424.471	2431.28
424.679	2572.59
424.887	2625.84
425.094	2674.99
425.302	2838.83
425.51	2914.6
425.718	2910.5
425.925	2969.9
426.133	3012.9
426.341	3260.71
426.548	3330.34
426.756	3348.77
426.964	3393.83
427.171	3641.63
427.379	3643.68
427.586	3832.09
427.794	3715.36
428.001	4114.71
428.209	4104.47
428.417	4083.99
428.624	4497.68
428.832	4319.51
429.039	4391.19
429.247	4579.6
429.454	4874.51
429.662	5136.65
429.869	4874.51
430.076	5196.04
430.284	5093.64
430.491	5273.86
430.699	5560.58
430.906	5521.67
431.114	5609.73
431.321	5914.88
431.528	5949.69
431.736	6453.49
431.943	6641.9
432.15	6361.33
432.358	6437.11
432.565	6852.84
432.772	6854.89
432.979	7096.55
433.187	7276.77
433.394	7375.08
433.601	7704.8
433.808	7729.38
434.016	7747.81
434.223	8161.5
434.43	8607.95
434.637	8368.34
434.844	9058.51
435.052	9138.38
435.259	8931.53
435.466	9201.86
435.673	9013.45
435.88	9687.23
436.087	10109.12
436.294	10008.76
436.501	9736.38
436.708	10053.82
436.915	10444.98
437.122	11026.61
437.329	10885.3
437.537	11313.32
437.743	11597.99
437.95	11317.42
438.157	11905.18
438.364	12236.95
438.571	12187.8
438.778	12449.94
438.985	13572.23
439.192	12894.35
439.399	13308.04
439.606	13129.87
439.813	13801.6
440.02	14461.05
440.227	14329.98
440.433	14340.22
440.64	14694.52
440.847	14452.86
441.054	14973.04
441.261	15923.3
441.467	15738.98
441.674	16189.53
441.881	16750.68
442.088	16564.31
442.294	16318.56
442.501	16848.98
442.708	17252.43
442.914	17836.1
443.121	18499.64
443.328	18266.17
443.534	19546.16
443.741	18907.19
443.948	18599.99
444.154	20035.62
444.361	19828.77
444.568	19871.78
444.774	19941.41
444.981	20226.08
445.187	20469.79
445.394	21737.48
445.6	21610.51
445.807	23265.27
446.013	22421.5
446.22	22800.38
446.426	23549.93
446.633	23805.93
446.839	24731.61
447.046	23576.56
447.252	25065.43
447.459	25110.49
447.665	24917.98
447.871	25614.29
448.078	27226.04
448.284	25724.88
448.491	26845.12
448.697	27570.1
448.903	28051.37
449.11	28010.41
449.316	27604.91
449.522	28303.27
449.728	28753.82
449.935	28975
450.141	29018.01
450.347	29874.06
450.553	28641.18
450.76	29120.41
450.966	30201.74
451.172	29826.96
451.378	30605.19
451.584	30160.78
451.791	30437.25
451.997	30183.3
452.203	30707.58
452.409	30936.96
452.615	30752.64
452.821	29607.83
453.027	29325.21
453.233	31059.84
453.44	29616.02
453.646	29853.58
453.852	30304.13
454.058	30799.74
454.264	29585.3
454.47	30048.14
454.676	29251.48
454.882	30625.67
455.088	27635.63
455.294	28307.37
455.5	28452.77
455.705	28950.43
455.911	27735.98
456.117	27322.29
456.323	26865.6
456.529	25458.64
456.735	26212.29
456.941	25825.23
457.147	25483.22
457.352	24717.28
457.558	24303.59
457.764	24307.68
457.97	23896.04
458.176	23713.77
458.381	23285.75
458.587	22378.5
458.793	22419.46
458.999	21024.79
459.204	22921.21
459.41	21903.37
459.616	20467.74
459.821	20625.43
460.027	20383.77
460.233	19834.92
460.438	19159.09
460.644	19058.74
460.85	18534.46
461.055	17936.45
461.261	17961.03
461.466	16347.23
461.672	15933.54
461.878	17154.13
462.083	16072.8
462.289	15769.7
462.494	15482.99
462.7	14817.4
462.905	14518.39
463.111	14995.57
463.316	14936.18
463.522	14819.44
463.727	14825.59
463.932	14669.94
464.138	14360.7
464.343	14665.85
464.549	14223.48
464.754	14407.8
464.959	14520.44
465.165	14387.32
465.37	13940.86
465.575	13426.82
465.781	13940.86
465.986	14092.41
466.191	13365.39
466.397	13379.72
466.602	12564.63
466.807	13078.67
467.012	12976.27
467.218	12800.15
467.423	12687.51
467.628	13021.33
