Data from USB4F104151__69__12-12-33-103.txt Node

Date: Fri Mar 14 12:12:33 EDT 2025
User: louis
Spectrometer: USB4F10415
Trigger mode: 4
Integration Time (sec): 5.000000E-2
Scans to average: 1
Electric dark correction enabled: true
Nonlinearity correction enabled: false
Boxcar width: 0
XAxis mode: Wavelengths
Number of Pixels in Spectrum: 3648
>>>>>Begin Spectral Data<<<<<
178.204	-261.97
178.424	-261.97
178.644	-261.97
178.864	-270.16
179.084	-165.71
179.304	-5.97
179.524	-100.18
179.744	20.65
179.964	22.7
180.184	0.17
180.404	4.27
180.624	-83.8
180.844	80.04
181.064	-69.46
181.283	26.79
181.503	6.31
181.723	98.47
181.943	-26.45
182.163	155.82
182.383	67.75
182.602	88.23
182.822	69.8
183.042	49.32
183.262	80.04
183.482	-40.79
183.701	90.28
183.921	73.9
184.141	26.79
184.361	8.36
184.58	26.79
184.8	6.31
185.02	90.28
185.239	96.43
185.459	-20.31
185.679	96.43
185.898	-10.07
186.118	73.9
186.338	-46.93
186.557	100.52
186.777	47.27
186.997	34.99
187.216	18.6
187.436	106.67
187.655	51.37
187.875	198.82
188.095	41.13
188.314	102.57
188.534	39.08
188.753	-28.5
188.973	168.1
189.192	100.52
189.412	67.75
189.631	53.42
189.851	65.71
190.07	127.14
190.29	30.89
190.509	47.27
190.729	53.42
190.948	86.19
191.168	207.02
191.387	73.9
191.607	18.6
191.826	18.6
192.045	6.31
192.265	41.13
192.484	69.8
192.704	51.37
192.923	-5.97
193.142	157.86
193.362	59.56
193.581	96.43
193.8	84.14
194.02	59.56
194.239	90.28
194.458	0.17
194.678	88.23
194.897	6.31
195.116	34.99
195.335	-12.12
195.555	43.18
195.774	65.71
195.993	53.42
196.212	-8.02
196.432	84.14
196.651	-12.12
196.87	-40.79
197.089	131.24
197.308	73.9
197.528	86.19
197.747	-73.56
197.966	16.55
198.185	121
198.404	47.27
198.623	71.85
198.842	84.14
199.062	71.85
199.281	12.46
199.5	-8.02
199.719	8.36
199.938	34.99
200.157	96.43
200.376	96.43
200.595	-8.02
200.814	63.66
201.033	45.23
201.252	63.66
201.471	-1.88
201.69	145.58
201.909	6.31
202.128	43.18
202.347	45.23
202.566	47.27
202.785	10.41
203.004	-16.21
203.223	88.23
203.442	34.99
203.661	20.65
203.879	14.51
204.098	86.19
204.317	-96.08
204.536	22.7
204.755	53.42
204.974	47.27
205.193	82.09
205.411	166.06
205.63	41.13
205.849	80.04
206.068	47.27
206.287	24.75
206.505	88.23
206.724	-1.88
206.943	20.65
207.162	55.47
207.381	28.84
207.599	20.65
207.818	45.23
208.037	-1.88
208.255	16.55
208.474	37.03
208.693	-5.97
208.911	6.31
209.13	90.28
209.349	98.47
209.567	121
209.786	123.05
210.005	14.51
210.223	10.41
210.442	-20.31
210.661	2.22
210.879	32.94
211.098	4.27
211.316	69.8
211.535	63.66
211.753	45.23
211.972	14.51
212.191	14.51
212.409	16.55
212.628	61.61
212.846	-77.65
213.065	92.33
213.283	73.9
213.502	57.51
213.72	55.47
213.938	53.42
214.157	43.18
214.375	139.43
214.594	16.55
214.812	116.9
215.031	90.28
215.249	61.61
215.467	30.89
215.686	22.7
215.904	155.82
216.122	26.79
216.341	77.99
216.559	45.23
216.778	84.14
216.996	151.72
217.214	-10.07
217.432	-30.55
217.651	61.61
217.869	-14.17
218.087	-3.93
218.306	37.03
218.524	63.66
218.742	-28.5
218.96	90.28
219.179	8.36
219.397	-3.93
219.615	129.19
219.833	65.71
220.051	24.75
220.27	112.81
220.488	51.37
220.706	73.9
220.924	34.99
221.142	8.36
221.36	77.99
221.578	96.43
221.796	4.27
222.015	131.24
222.233	10.41
222.451	194.73
222.669	-12.12
222.887	84.14
223.105	6.31
223.323	67.75
223.541	-28.5
223.759	47.27
223.977	-18.26
224.195	100.52
224.413	67.75
224.631	41.13
224.849	45.23
225.067	65.71
225.285	49.32
225.503	34.99
225.721	-116.56
225.939	47.27
226.157	20.65
226.375	174.25
226.592	-48.98
226.81	0.17
227.028	180.39
227.246	127.14
227.464	-28.5
227.682	51.37
227.9	88.23
228.117	57.51
228.335	67.75
228.553	108.71
228.771	65.71
228.989	82.09
229.206	100.52
229.424	-42.84
229.642	-5.97
229.86	-28.5
230.077	100.52
230.295	45.23
230.513	34.99
230.731	55.47
230.948	67.75
231.166	100.52
231.384	30.89
231.601	20.65
231.819	102.57
232.037	24.75
232.254	22.7
232.472	41.13
232.689	43.18
232.907	22.7
233.125	-18.26
233.342	-36.69
233.56	61.61
233.777	39.08
233.995	24.75
234.213	59.56
234.43	106.67
234.648	67.75
234.865	84.14
235.083	67.75
235.3	34.99
235.518	88.23
235.735	145.58
235.953	88.23
236.17	26.79
236.388	51.37
236.605	61.61
236.822	67.75
237.04	53.42
237.257	65.71
237.475	-57.17
237.692	53.42
237.909	47.27
238.127	-34.64
238.344	147.62
238.562	59.56
238.779	-14.17
238.996	-12.12
239.214	37.03
239.431	106.67
239.648	-75.6
239.865	6.31
240.083	61.61
240.3	57.51
240.517	30.89
240.735	30.89
240.952	61.61
241.169	114.86
241.386	71.85
241.603	55.47
241.821	-36.69
242.038	73.9
242.255	94.38
242.472	20.65
242.689	96.43
242.907	16.55
243.124	45.23
243.341	-28.5
243.558	59.56
243.775	-16.21
243.992	-14.17
244.209	34.99
244.426	104.62
244.643	37.03
244.86	22.7
245.078	37.03
245.295	-12.12
245.512	84.14
245.729	20.65
245.946	6.31
246.163	49.32
246.38	-42.84
246.597	57.51
246.814	43.18
247.031	45.23
247.248	12.46
247.464	73.9
247.681	-34.64
247.898	77.99
248.115	39.08
248.332	16.55
248.549	53.42
248.766	131.24
248.983	51.37
249.2	67.75
249.417	34.99
249.633	14.51
249.85	37.03
250.067	61.61
250.284	20.65
250.501	131.24
250.717	118.95
250.934	-20.31
251.151	65.71
251.368	47.27
251.585	57.51
251.801	41.13
252.018	-30.55
252.235	94.38
252.451	-59.22
252.668	-28.5
252.885	43.18
253.102	59.56
253.318	57.51
253.535	34.99
253.752	53.42
253.968	-1.88
254.185	24.75
254.401	-42.84
254.618	47.27
254.835	10.41
255.051	155.82
255.268	96.43
255.484	77.99
255.701	65.71
255.917	69.8
256.134	-8.02
256.351	39.08
256.567	51.37
256.784	-8.02
257	-44.88
257.217	63.66
257.433	39.08
257.65	67.75
257.866	135.34
258.082	-26.45
258.299	10.41
258.515	-42.84
258.732	26.79
258.948	14.51
259.165	59.56
259.381	-32.6
259.597	112.81
259.814	4.27
260.03	24.75
260.246	0.17
260.463	77.99
260.679	51.37
260.895	6.31
261.112	57.51
261.328	22.7
261.544	0.17
261.761	123.05
261.977	-55.12
262.193	53.42
262.409	41.13
262.626	77.99
262.842	73.9
263.058	-30.55
263.274	57.51
263.49	86.19
263.707	63.66
263.923	59.56
264.139	-59.22
264.355	61.61
264.571	106.67
264.787	-36.69
265.004	82.09
265.22	75.95
265.436	45.23
265.652	28.84
265.868	65.71
266.084	-3.93
266.3	14.51
266.516	88.23
266.732	47.27
266.948	90.28
267.164	55.47
267.38	57.51
267.596	45.23
267.812	164.01
268.028	8.36
268.244	-5.97
268.46	51.37
268.676	-67.41
268.892	6.31
269.108	-5.97
269.324	37.03
269.54	-53.08
269.756	86.19
269.972	-44.88
270.188	14.51
270.403	-32.6
270.619	-32.6
270.835	6.31
271.051	20.65
271.267	-40.79
271.483	-22.36
271.698	65.71
271.914	-12.12
272.13	43.18
272.346	94.38
272.562	16.55
272.777	80.04
272.993	22.7
273.209	30.89
273.425	57.51
273.64	-28.5
273.856	10.41
274.072	22.7
274.287	8.36
274.503	47.27
274.719	94.38
274.934	45.23
275.15	4.27
275.366	24.75
275.581	22.7
275.797	16.55
276.012	34.99
276.228	43.18
276.444	84.14
276.659	104.62
276.875	6.31
277.09	69.8
277.306	-48.98
277.521	80.04
277.737	-32.6
277.952	90.28
278.168	75.95
278.383	47.27
278.599	53.42
278.814	61.61
279.03	22.7
279.245	121
279.461	61.61
279.676	80.04
279.892	10.41
280.107	26.79
280.322	-32.6
280.538	141.48
280.753	80.04
280.969	75.95
281.184	51.37
281.399	63.66
281.615	69.8
281.83	94.38
282.045	16.55
282.26	47.27
282.476	110.76
282.691	98.47
282.906	43.18
283.122	12.46
283.337	-40.79
283.552	77.99
283.767	84.14
283.983	57.51
284.198	-20.31
284.413	73.9
284.628	-79.7
284.843	116.9
285.058	39.08
285.274	6.31
285.489	20.65
285.704	82.09
285.919	30.89
286.134	49.32
286.349	26.79
286.564	-40.79
286.779	123.05
286.995	82.09
287.21	-85.84
287.425	18.6
287.64	8.36
287.855	30.89
288.07	-8.02
288.285	20.65
288.5	73.9
288.715	47.27
288.93	4.27
289.145	110.76
289.36	49.32
289.575	37.03
289.79	14.51
290.004	30.89
290.219	67.75
290.434	86.19
290.649	-38.74
290.864	6.31
291.079	73.9
291.294	20.65
291.509	96.43
291.724	-10.07
291.938	-12.12
292.153	-16.21
292.368	108.71
292.583	92.33
292.798	121
293.012	-42.84
293.227	100.52
293.442	65.71
293.657	118.95
293.871	67.75
294.086	53.42
294.301	135.34
294.516	51.37
294.73	55.47
294.945	-28.5
295.16	-10.07
295.374	106.67
295.589	118.95
295.804	104.62
296.018	65.71
296.233	96.43
296.447	114.86
296.662	-8.02
296.877	106.67
297.091	67.75
297.306	39.08
297.52	41.13
297.735	16.55
297.949	118.95
298.164	45.23
298.378	47.27
298.593	-10.07
298.807	18.6
299.022	116.9
299.236	164.01
299.451	12.46
299.665	90.28
299.88	133.29
300.094	-34.64
300.309	12.46
300.523	53.42
300.737	82.09
300.952	86.19
301.166	-12.12
301.381	-5.97
301.595	34.99
301.809	73.9
302.024	2.22
302.238	-34.64
302.452	94.38
302.667	-5.97
302.881	37.03
303.095	4.27
303.309	26.79
303.524	-1.88
303.738	47.27
303.952	-14.17
304.166	22.7
304.381	-79.7
304.595	123.05
304.809	39.08
305.023	73.9
305.237	8.36
305.452	24.75
305.666	32.94
305.88	96.43
306.094	24.75
306.308	84.14
306.522	55.47
306.736	98.47
306.95	82.09
307.164	45.23
307.379	77.99
307.593	166.06
307.807	43.18
308.021	139.43
308.235	39.08
308.449	12.46
308.663	8.36
308.877	131.24
309.091	82.09
309.305	104.62
309.519	-20.31
309.733	65.71
309.947	-44.88
310.161	53.42
310.374	53.42
310.588	123.05
310.802	-32.6
311.016	30.89
311.23	63.66
311.444	34.99
311.658	37.03
311.872	106.67
312.085	98.47
312.299	133.29
312.513	88.23
312.727	82.09
312.941	2.22
313.154	20.65
313.368	32.94
313.582	61.61
313.796	47.27
314.009	67.75
314.223	71.85
314.437	22.7
314.651	20.65
314.864	37.03
315.078	-8.02
315.292	18.6
315.505	-14.17
315.719	69.8
315.933	143.53
316.146	39.08
316.36	4.27
316.573	127.14
316.787	53.42
317.001	65.71
317.214	-24.4
317.428	73.9
317.641	4.27
317.855	88.23
318.068	63.66
318.282	80.04
318.495	98.47
318.709	61.61
318.922	41.13
319.136	151.72
319.349	65.71
319.563	-36.69
319.776	24.75
319.99	24.75
320.203	-1.88
320.417	-10.07
320.63	26.79
320.843	104.62
321.057	51.37
321.27	49.32
321.483	143.53
321.697	135.34
321.91	37.03
322.124	92.33
322.337	90.28
322.55	84.14
322.763	82.09
322.977	102.57
323.19	39.08
323.403	67.75
323.617	92.33
323.83	82.09
324.043	16.55
324.256	32.94
324.469	59.56
324.683	204.97
324.896	-61.27
325.109	80.04
325.322	-12.12
325.535	75.95
325.748	63.66
325.962	82.09
326.175	114.86
326.388	102.57
326.601	80.04
326.814	8.36
327.027	98.47
327.24	61.61
327.453	0.17
327.666	-8.02
327.879	114.86
328.092	43.18
328.305	77.99
328.518	43.18
328.731	14.51
328.944	26.79
329.157	188.58
329.37	8.36
329.583	106.67
329.796	198.82
330.009	18.6
330.222	104.62
330.435	102.57
330.648	108.71
330.861	73.9
331.073	-38.74
331.286	116.9
331.499	30.89
331.712	-3.93
331.925	-48.98
332.138	73.9
332.35	84.14
332.563	28.84
332.776	104.62
332.989	-26.45
333.202	34.99
333.414	88.23
333.627	0.17
333.84	32.94
334.053	67.75
334.265	80.04
334.478	-8.02
334.691	30.89
334.903	59.56
335.116	-1.88
335.329	26.79
335.541	37.03
335.754	61.61
335.966	49.32
336.179	0.17
336.392	65.71
336.604	-10.07
336.817	24.75
337.029	53.42
337.242	106.67
337.454	121
337.667	63.66
337.88	170.15
338.092	41.13
338.305	194.73
338.517	4.27
338.729	106.67
338.942	90.28
339.154	18.6
339.367	82.09
339.579	4.27
339.792	30.89
340.004	80.04
340.217	6.31
340.429	63.66
340.641	18.6
340.854	-1.88
341.066	8.36
341.278	106.67
341.491	77.99
341.703	131.24
341.915	14.51
342.128	94.38
342.34	139.43
342.552	6.31
342.764	75.95
342.977	100.52
343.189	77.99
343.401	2.22
343.613	12.46
343.826	47.27
344.038	12.46
344.25	32.94
344.462	55.47
344.674	114.86
344.886	-20.31
345.099	12.46
345.311	16.55
345.523	45.23
345.735	45.23
345.947	94.38
346.159	127.14
346.371	-3.93
346.583	110.76
346.795	157.86
347.007	90.28
347.219	57.51
347.431	18.6
347.643	147.62
347.855	12.46
348.067	96.43
348.279	47.27
348.491	28.84
348.703	88.23
348.915	41.13
349.127	41.13
349.339	75.95
349.551	2.22
349.763	53.42
349.975	-40.79
350.187	172.2
350.399	65.71
350.61	96.43
350.822	82.09
351.034	127.14
351.246	90.28
351.458	106.67
351.669	100.52
351.881	143.53
352.093	94.38
352.305	47.27
352.517	100.52
352.728	63.66
352.94	34.99
353.152	88.23
353.363	28.84
353.575	41.13
353.787	129.19
353.999	6.31
354.21	174.25
354.422	65.71
354.633	0.17
354.845	55.47
355.057	86.19
355.268	14.51
355.48	188.58
355.692	49.32
355.903	102.57
356.115	2.22
356.326	8.36
356.538	145.58
356.749	84.14
356.961	104.62
357.172	14.51
357.384	22.7
357.595	96.43
357.807	37.03
358.018	30.89
358.23	45.23
358.441	71.85
358.653	151.72
358.864	28.84
359.075	6.31
359.287	-20.31
359.498	47.27
359.709	90.28
359.921	67.75
360.132	86.19
360.344	88.23
360.555	-20.31
360.766	80.04
360.977	57.51
361.189	61.61
361.4	-59.22
361.611	59.56
361.823	47.27
362.034	8.36
362.245	-67.41
362.456	39.08
362.667	59.56
362.879	112.81
363.09	47.27
363.301	108.71
363.512	41.13
363.723	22.7
363.935	26.79
364.146	94.38
364.357	18.6
364.568	8.36
364.779	49.32
364.99	114.86
365.201	53.42
365.412	110.76
365.623	-40.79
365.834	43.18
366.045	71.85
366.256	80.04
366.467	77.99
366.678	86.19
366.889	69.8
367.1	73.9
367.311	90.28
367.522	0.17
367.733	121
367.944	121
368.155	39.08
368.366	80.04
368.577	102.57
368.788	96.43
368.999	90.28
369.209	104.62
369.42	106.67
369.631	104.62
369.842	67.75
370.053	-40.79
370.264	188.58
370.474	30.89
370.685	65.71
370.896	-30.55
371.107	131.24
371.317	10.41
371.528	112.81
371.739	90.28
371.95	125.1
372.16	47.27
372.371	-51.03
372.582	30.89
372.792	-26.45
373.003	57.51
373.214	69.8
373.424	143.53
373.635	8.36
373.846	98.47
374.056	39.08
374.267	14.51
374.477	104.62
374.688	20.65
374.898	28.84
375.109	57.51
375.319	41.13
375.53	96.43
375.74	98.47
375.951	45.23
376.161	39.08
376.372	145.58
376.582	92.33
376.793	32.94
377.003	92.33
377.214	63.66
377.424	8.36
377.635	67.75
377.845	24.75
378.055	149.67
378.266	-14.17
378.476	37.03
378.686	47.27
378.897	-22.36
379.107	108.71
379.317	168.1
379.528	16.55
379.738	80.04
379.948	110.76
380.158	82.09
380.369	69.8
380.579	123.05
380.789	0.17
380.999	80.04
381.21	71.85
381.42	170.15
381.63	37.03
381.84	16.55
382.05	75.95
382.261	90.28
382.471	168.1
382.681	18.6
382.891	166.06
383.101	213.16
383.311	28.84
383.521	100.52
383.731	114.86
383.941	84.14
384.151	84.14
384.361	34.99
384.571	102.57
384.781	96.43
384.991	104.62
385.201	188.58
385.411	123.05
385.621	69.8
385.831	67.75
386.041	77.99
386.251	-65.36
386.461	131.24
386.671	51.37
386.881	104.62
387.091	51.37
387.301	102.57
387.511	96.43
387.72	116.9
387.93	100.52
388.14	30.89
388.35	55.47
388.56	129.19
388.769	127.14
388.979	80.04
389.189	82.09
389.399	43.18
389.609	75.95
389.818	96.43
390.028	116.9
390.238	55.47
390.447	-12.12
390.657	110.76
390.867	104.62
391.076	41.13
391.286	141.48
391.496	77.99
391.705	102.57
391.915	161.96
392.125	159.91
392.334	133.29
392.544	65.71
392.753	12.46
392.963	96.43
393.172	137.38
393.382	104.62
393.591	170.15
393.801	137.38
394.01	145.58
394.22	190.63
394.429	18.6
394.639	69.8
394.848	67.75
395.058	65.71
395.267	86.19
395.477	121
395.686	131.24
395.895	229.54
396.105	168.1
396.314	143.53
396.524	69.8
396.733	147.62
396.942	129.19
397.152	86.19
397.361	180.39
397.57	184.49
397.78	137.38
397.989	112.81
398.198	131.24
398.407	123.05
398.617	164.01
398.826	53.42
399.035	172.2
399.244	161.96
399.453	172.2
399.663	147.62
399.872	155.82
400.081	129.19
400.29	231.59
400.499	157.86
400.708	141.48
400.917	127.14
401.127	63.66
401.336	106.67
401.545	186.54
401.754	219.3
401.963	135.34
402.172	88.23
402.381	180.39
402.59	215.21
402.799	104.62
403.008	172.2
403.217	170.15
403.426	239.78
403.635	75.95
403.844	186.54
404.053	172.2
404.262	243.88
404.471	272.55
404.68	168.1
404.888	118.95
405.097	170.15
405.306	276.65
405.515	219.3
405.724	180.39
405.933	309.41
406.142	268.45
406.35	247.97
406.559	274.6
406.768	192.68
406.977	372.9
407.185	307.37
407.394	288.93
407.603	258.21
407.812	286.89
408.02	274.6
408.229	420
408.438	377
408.646	293.03
408.855	356.52
409.064	411.81
409.272	381.09
409.481	467.11
409.69	379.04
409.898	377
410.107	471.2
410.315	444.58
410.524	450.72
410.733	495.78
410.941	473.25
411.15	573.6
411.358	528.55
411.567	639.14
411.775	563.36
411.984	573.6
412.192	661.66
412.401	549.03
412.609	731.3
412.818	753.82
413.026	714.91
413.234	676
413.443	747.68
413.651	719.01
413.86	823.45
414.068	866.46
414.276	944.28
414.485	925.85
414.693	995.48
414.901	1030.3
415.11	1077.4
415.318	1081.5
415.526	1093.79
415.734	1050.78
415.943	1161.37
416.151	1261.72
416.359	1118.36
416.567	1212.57
416.776	1294.49
416.984	1394.84
417.192	1487
417.4	1403.03
417.608	1398.93
417.817	1433.75
418.025	1581.2
418.233	1603.73
418.441	1573.01
418.649	1728.66
418.857	1790.1
419.065	1857.68
419.273	1874.06
419.481	1833.1
419.689	2154.63
419.897	2267.27
420.105	2216.07
420.313	2285.7
420.521	2314.38
420.729	2408.58
420.937	2521.22
421.145	2478.21
421.353	2625.67
421.561	2691.2
421.769	2721.92
421.977	2967.68
422.185	2863.23
422.393	2994.3
422.601	3352.7
422.809	3201.15
423.017	3147.9
423.224	3192.95
423.432	3571.83
423.64	3463.29
423.848	3817.58
424.056	3799.15
424.263	4016.24
424.471	3934.32
424.679	3987.57
424.887	4079.72
425.094	4382.82
425.302	4290.67
425.51	4421.74
425.718	4724.83
425.925	4733.03
426.133	4810.85
426.341	5126.24
426.548	5308.51
426.756	5367.9
426.964	5382.23
427.171	5754.96
427.379	5656.66
427.586	5859.41
427.794	6064.21
428.001	6295.63
428.209	6541.38
428.417	6688.84
428.624	7055.42
428.832	6852.67
429.039	7053.38
429.247	6912.07
429.454	7544.89
429.662	8204.33
429.869	7354.43
430.076	8001.58
430.284	7934
430.491	8245.29
430.699	8640.55
430.906	8745
431.114	8730.66
431.321	9185.31
431.528	9216.03
431.736	9787.41
431.943	10082.32
432.15	9908.24
432.358	10018.83
432.565	10702.86
432.772	10477.58
432.979	11094.02
433.187	10971.14
433.394	11239.42
433.601	11909.11
433.808	12220.4
434.016	11956.21
434.223	12355.57
434.43	13105.12
434.637	12656.62
434.844	13520.86
435.052	14041.04
435.259	13637.59
435.466	13764.57
435.673	13621.21
435.88	14524.37
436.087	15134.66
436.294	15302.59
436.501	14946.25
436.708	15110.08
436.915	15730.62
437.122	16175.03
437.329	16224.18
437.537	16578.48
437.743	16828.33
437.95	17031.08
438.157	17606.56
438.364	18091.93
438.571	17856.41
438.778	18358.16
438.985	20004.73
439.192	19179.4
439.399	19713.92
439.606	19230.6
439.813	20168.57
440.02	21280.61
440.227	21344.1
440.433	20643.7
440.64	21264.23
440.847	21370.72
441.054	21563.23
441.261	23017.29
441.467	22697.81
441.674	22994.76
441.881	24002.36
442.088	23959.36
442.294	23721.79
442.501	24098.62
442.708	24696.63
442.914	25849.63
443.121	26523.41
443.328	25745.19
443.534	27406.09
443.741	26566.42
443.948	26154.78
444.154	28604.15
444.361	28137.21
444.568	28253.95
444.774	28043.01
444.981	28249.85
445.187	29136.62
445.394	30285.53
445.6	29861.6
445.807	32407.23
446.013	31209.17
446.22	31592.14
446.426	32988.85
446.633	32956.08
446.839	34139.81
447.046	32577.21
447.252	34422.43
447.459	34498.2
447.665	34014.88
447.871	35778.18
448.078	37234.29
448.284	35161.75
448.491	36290.18
448.697	37523.05
448.903	37965.42
449.11	38231.65
449.316	37181.04
449.522	38483.55
449.728	39396.95
449.935	39036.5
450.141	39073.37
450.347	39741
450.553	38620.77
450.76	38952.54
450.966	40250.95
451.172	39790.16
451.378	40728.13
451.584	39841.35
451.791	40861.24
451.997	40449.6
452.203	41023.03
452.409	40957.5
452.615	40547.9
452.821	38927.96
453.027	38700.64
453.233	40697.41
453.44	38897.24
453.646	39120.47
453.852	39446.1
454.058	39716.43
454.264	38612.57
454.47	39358.03
454.676	38434.4
454.882	39845.45
455.088	35999.37
455.294	36611.71
455.5	37230.19
455.705	37412.46
455.911	35706.51
456.117	35128.98
456.323	34580.12
456.529	32794.29
456.735	34322.08
456.941	33300.14
457.147	32720.57
457.352	31325.9
457.558	30961.36
457.764	31006.42
457.97	30559.96
458.176	29976.29
458.381	29896.42
458.587	28124.93
458.793	28028.67
458.999	26572.57
459.204	28307.19
459.41	27842.31
459.616	25949.98
459.821	25759.52
460.027	25468.71
460.233	25360.17
460.438	23832.38
460.644	24170.3
460.85	23181.13
461.055	22503.25
461.261	22273.88
461.466	20871.02
461.672	20143.99
461.878	21280.61
462.083	20060.02
462.289	19701.63
462.494	19353.48
462.7	18218.9
462.905	17790.88
463.111	18634.64
463.316	18577.3
463.522	18177.94
463.727	18149.27
463.932	18161.56
464.138	17909.66
464.343	17799.07
464.549	17432.48
464.754	18032.54
464.959	17532.83
465.165	17758.11
465.37	16967.59
465.575	16398.26
465.781	16861.1
465.986	16928.68
466.191	16330.67
466.397	16076.73
