Data from USB4F104151__68__12-12-32-753.txt Node

Date: Fri Mar 14 12:12:32 EDT 2025
User: louis
Spectrometer: USB4F10415
Trigger mode: 4
Integration Time (sec): 5.000000E-2
Scans to average: 1
Electric dark correction enabled: true
Nonlinearity correction enabled: false
Boxcar width: 0
XAxis mode: Wavelengths
Number of Pixels in Spectrum: 3648
>>>>>Begin Spectral Data<<<<<
178.204	-241.49
178.424	-241.49
178.644	-241.49
178.864	-202.58
179.084	-227.15
179.304	-16.21
179.524	-16.21
179.744	-5.97
179.964	53.42
180.184	-42.84
180.404	-8.02
180.624	-14.17
180.844	-57.17
181.064	-30.55
181.283	43.18
181.503	63.66
181.723	30.89
181.943	-81.75
182.163	71.85
182.383	-20.31
182.602	20.65
182.822	75.95
183.042	-16.21
183.262	53.42
183.482	-30.55
183.701	20.65
183.921	37.03
184.141	-18.26
184.361	77.99
184.58	-18.26
184.8	0.17
185.02	-53.08
185.239	43.18
185.459	-22.36
185.679	32.94
185.898	-77.65
186.118	77.99
186.338	20.65
186.557	106.67
186.777	-36.69
186.997	-30.55
187.216	55.47
187.436	8.36
187.655	59.56
187.875	2.22
188.095	49.32
188.314	77.99
188.534	26.79
188.753	0.17
188.973	37.03
189.192	77.99
189.412	61.61
189.631	77.99
189.851	41.13
190.07	141.48
190.29	-83.8
190.509	-116.56
190.729	-30.55
190.948	73.9
191.168	133.29
191.387	75.95
191.607	53.42
191.826	-30.55
192.045	-12.12
192.265	-1.88
192.484	43.18
192.704	-18.26
192.923	-57.17
193.142	159.91
193.362	139.43
193.581	22.7
193.8	20.65
194.02	59.56
194.239	69.8
194.458	-14.17
194.678	-8.02
194.897	-26.45
195.116	30.89
195.335	12.46
195.555	45.23
195.774	-18.26
195.993	-26.45
196.212	20.65
196.432	-40.79
196.651	57.51
196.87	-81.75
197.089	108.71
197.308	59.56
197.528	51.37
197.747	-44.88
197.966	61.61
198.185	61.61
198.404	-14.17
198.623	98.47
198.842	59.56
199.062	37.03
199.281	34.99
199.5	6.31
199.719	39.08
199.938	69.8
200.157	73.9
200.376	22.7
200.595	-48.98
200.814	77.99
201.033	22.7
201.252	49.32
201.471	4.27
201.69	106.67
201.909	59.56
202.128	41.13
202.347	84.14
202.566	47.27
202.785	22.7
203.004	39.08
203.223	178.34
203.442	28.84
203.661	20.65
203.879	4.27
204.098	55.47
204.317	-20.31
204.536	51.37
204.755	61.61
204.974	65.71
205.193	63.66
205.411	59.56
205.63	2.22
205.849	10.41
206.068	18.6
206.287	-12.12
206.505	108.71
206.724	-79.7
206.943	-38.74
207.162	24.75
207.381	20.65
207.599	24.75
207.818	75.95
208.037	2.22
208.255	-16.21
208.474	16.55
208.693	45.23
208.911	39.08
209.13	2.22
209.349	-1.88
209.567	84.14
209.786	75.95
210.005	47.27
210.223	32.94
210.442	-53.08
210.661	20.65
210.879	-46.93
211.098	-22.36
211.316	-18.26
211.535	67.75
211.753	30.89
211.972	-83.8
212.191	4.27
212.409	-30.55
212.628	-48.98
212.846	-32.6
213.065	71.85
213.283	61.61
213.502	-5.97
213.72	0.17
213.938	63.66
214.157	16.55
214.375	106.67
214.594	16.55
214.812	100.52
215.031	30.89
215.249	-16.21
215.467	22.7
215.686	12.46
215.904	47.27
216.122	41.13
216.341	26.79
216.559	-16.21
216.778	67.75
216.996	55.47
217.214	-3.93
217.432	4.27
217.651	-3.93
217.869	-5.97
218.087	10.41
218.306	24.75
218.524	59.56
218.742	-67.41
218.96	131.24
219.179	2.22
219.397	69.8
219.615	57.51
219.833	28.84
220.051	-14.17
220.27	0.17
220.488	69.8
220.706	47.27
220.924	-40.79
221.142	-36.69
221.36	-20.31
221.578	37.03
221.796	88.23
222.015	39.08
222.233	-12.12
222.451	123.05
222.669	4.27
222.887	51.37
223.105	34.99
223.323	-10.07
223.541	-73.56
223.759	2.22
223.977	22.7
224.195	14.51
224.413	51.37
224.631	90.28
224.849	10.41
225.067	65.71
225.285	41.13
225.503	-32.6
225.721	-73.56
225.939	106.67
226.157	34.99
226.375	147.62
226.592	-59.22
226.81	-20.31
227.028	82.09
227.246	94.38
227.464	34.99
227.682	-34.64
227.9	-22.36
228.117	73.9
228.335	39.08
228.553	-28.5
228.771	10.41
228.989	53.42
229.206	141.48
229.424	-5.97
229.642	75.95
229.86	47.27
230.077	73.9
230.295	-18.26
230.513	2.22
230.731	59.56
230.948	-3.93
231.166	37.03
231.384	-36.69
231.601	-59.22
231.819	75.95
232.037	-108.37
232.254	22.7
232.472	45.23
232.689	-28.5
232.907	43.18
233.125	45.23
233.342	16.55
233.56	53.42
233.777	-18.26
233.995	-10.07
234.213	118.95
234.43	41.13
234.648	-14.17
234.865	55.47
235.083	6.31
235.3	-5.97
235.518	30.89
235.735	63.66
235.953	94.38
236.17	-3.93
236.388	2.22
236.605	-40.79
236.822	22.7
237.04	43.18
237.257	-30.55
237.475	-73.56
237.692	114.86
237.909	-5.97
238.127	14.51
238.344	82.09
238.562	22.7
238.779	-34.64
238.996	-36.69
239.214	16.55
239.431	112.81
239.648	-12.12
239.865	-8.02
240.083	86.19
240.3	18.6
240.517	12.46
240.735	53.42
240.952	45.23
241.169	53.42
241.386	80.04
241.603	26.79
241.821	-55.12
242.038	-1.88
242.255	86.19
242.472	-42.84
242.689	26.79
242.907	14.51
243.124	30.89
243.341	39.08
243.558	22.7
243.775	-42.84
243.992	-75.6
244.209	39.08
244.426	114.86
244.643	80.04
244.86	-3.93
245.078	53.42
245.295	104.62
245.512	61.61
245.729	-34.64
245.946	6.31
246.163	6.31
246.38	82.09
246.597	59.56
246.814	-3.93
247.031	94.38
247.248	18.6
247.464	129.19
247.681	49.32
247.898	-1.88
248.115	141.48
248.332	-53.08
248.549	100.52
248.766	106.67
248.983	98.47
249.2	51.37
249.417	67.75
249.633	-26.45
249.85	47.27
250.067	75.95
250.284	22.7
250.501	92.33
250.717	51.37
250.934	26.79
251.151	14.51
251.368	43.18
251.585	12.46
251.801	10.41
252.018	-24.4
252.235	53.42
252.451	-18.26
252.668	-20.31
252.885	53.42
253.102	-5.97
253.318	-8.02
253.535	-28.5
253.752	49.32
253.968	0.17
254.185	-18.26
254.401	12.46
254.618	-24.4
254.835	-16.21
255.051	88.23
255.268	30.89
255.484	-1.88
255.701	98.47
255.917	34.99
256.134	0.17
256.351	28.84
256.567	63.66
256.784	51.37
257	-3.93
257.217	47.27
257.433	30.89
257.65	80.04
257.866	47.27
258.082	4.27
258.299	-28.5
258.515	-5.97
258.732	-28.5
258.948	18.6
259.165	45.23
259.381	-1.88
259.597	-12.12
259.814	-10.07
260.03	-34.64
260.246	18.6
260.463	-24.4
260.679	77.99
260.895	14.51
261.112	-1.88
261.328	43.18
261.544	-87.89
261.761	108.71
261.977	12.46
262.193	39.08
262.409	2.22
262.626	12.46
262.842	47.27
263.058	-48.98
263.274	26.79
263.49	63.66
263.707	168.1
263.923	41.13
264.139	28.84
264.355	53.42
264.571	65.71
264.787	41.13
265.004	75.95
265.22	-14.17
265.436	41.13
265.652	71.85
265.868	-22.36
266.084	-12.12
266.3	8.36
266.516	-48.98
266.732	73.9
266.948	30.89
267.164	-44.88
267.38	94.38
267.596	57.51
267.812	106.67
268.028	34.99
268.244	-1.88
268.46	84.14
268.676	-38.74
268.892	110.76
269.108	6.31
269.324	-12.12
269.54	-18.26
269.756	90.28
269.972	22.7
270.188	-14.17
270.403	20.65
270.619	22.7
270.835	55.47
271.051	65.71
271.267	-18.26
271.483	26.79
271.698	96.43
271.914	-18.26
272.13	24.75
272.346	14.51
272.562	102.57
272.777	-18.26
272.993	-30.55
273.209	-42.84
273.425	-5.97
273.64	-63.32
273.856	71.85
274.072	43.18
274.287	4.27
274.503	88.23
274.719	8.36
274.934	12.46
275.15	-79.7
275.366	75.95
275.581	-59.22
275.797	94.38
276.012	-16.21
276.228	63.66
276.444	61.61
276.659	53.42
276.875	-24.4
277.09	43.18
277.306	0.17
277.521	32.94
277.737	18.6
277.952	94.38
278.168	-110.42
278.383	67.75
278.599	49.32
278.814	8.36
279.03	80.04
279.245	69.8
279.461	20.65
279.676	59.56
279.892	-48.98
280.107	-94.04
280.322	2.22
280.538	-10.07
280.753	34.99
280.969	-8.02
281.184	55.47
281.399	8.36
281.615	20.65
281.83	20.65
282.045	-26.45
282.26	-36.69
282.476	22.7
282.691	43.18
282.906	18.6
283.122	43.18
283.337	-36.69
283.552	55.47
283.767	-10.07
283.983	114.86
284.198	-46.93
284.413	102.57
284.628	-12.12
284.843	37.03
285.058	39.08
285.274	-14.17
285.489	-12.12
285.704	67.75
285.919	-22.36
286.134	-91.99
286.349	24.75
286.564	-10.07
286.779	88.23
286.995	45.23
287.21	0.17
287.425	88.23
287.64	47.27
287.855	-36.69
288.07	-61.27
288.285	39.08
288.5	16.55
288.715	86.19
288.93	8.36
289.145	-26.45
289.36	65.71
289.575	-73.56
289.79	47.27
290.004	34.99
290.219	116.9
290.434	-46.93
290.649	-61.27
290.864	-38.74
291.079	2.22
291.294	34.99
291.509	57.51
291.724	82.09
291.938	59.56
292.153	145.58
292.368	-14.17
292.583	-1.88
292.798	82.09
293.012	-14.17
293.227	67.75
293.442	-48.98
293.657	47.27
293.871	104.62
294.086	32.94
294.301	174.25
294.516	98.47
294.73	-5.97
294.945	0.17
295.16	-8.02
295.374	26.79
295.589	63.66
295.804	-10.07
296.018	2.22
296.233	92.33
296.447	39.08
296.662	61.61
296.877	24.75
297.091	53.42
297.306	26.79
297.52	-1.88
297.735	112.81
297.949	69.8
298.164	55.47
298.378	8.36
298.593	-36.69
298.807	77.99
299.022	61.61
299.236	59.56
299.451	-14.17
299.665	-28.5
299.88	77.99
300.094	2.22
300.309	-3.93
300.523	2.22
300.737	4.27
300.952	37.03
301.166	4.27
301.381	-83.8
301.595	-1.88
301.809	41.13
302.024	-51.03
302.238	-53.08
302.452	100.52
302.667	-14.17
302.881	53.42
303.095	34.99
303.309	47.27
303.524	-65.36
303.738	22.7
303.952	-3.93
304.166	30.89
304.381	-22.36
304.595	108.71
304.809	0.17
305.023	12.46
305.237	-22.36
305.452	45.23
305.666	41.13
305.88	41.13
306.094	55.47
306.308	151.72
306.522	67.75
306.736	116.9
306.95	26.79
307.164	-22.36
307.379	-18.26
307.593	73.9
307.807	135.34
308.021	53.42
308.235	-22.36
308.449	-10.07
308.663	63.66
308.877	61.61
309.091	6.31
309.305	63.66
309.519	-91.99
309.733	112.81
309.947	-8.02
310.161	118.95
310.374	51.37
310.588	37.03
310.802	-110.42
311.016	4.27
311.23	82.09
311.444	32.94
311.658	53.42
311.872	96.43
312.085	-10.07
312.299	86.19
312.513	28.84
312.727	45.23
312.941	-44.88
313.154	-18.26
313.368	32.94
313.582	45.23
313.796	-42.84
314.009	-3.93
314.223	153.77
314.437	0.17
314.651	24.75
314.864	18.6
315.078	18.6
315.292	20.65
315.505	47.27
315.719	4.27
315.933	75.95
316.146	-16.21
316.36	20.65
316.573	45.23
316.787	86.19
317.001	32.94
317.214	-12.12
317.428	-1.88
317.641	43.18
317.855	61.61
318.068	26.79
318.282	65.71
318.495	170.15
318.709	69.8
318.922	-22.36
319.136	100.52
319.349	18.6
319.563	4.27
319.776	77.99
319.99	-46.93
320.203	133.29
320.417	6.31
320.63	43.18
320.843	143.53
321.057	-32.6
321.27	34.99
321.483	-18.26
321.697	41.13
321.91	26.79
322.124	16.55
322.337	86.19
322.55	0.17
322.763	-14.17
322.977	34.99
323.19	37.03
323.403	49.32
323.617	-5.97
323.83	69.8
324.043	37.03
324.256	39.08
324.469	2.22
324.683	77.99
324.896	-57.17
325.109	8.36
325.322	-5.97
325.535	77.99
325.748	92.33
325.962	2.22
326.175	6.31
326.388	80.04
326.601	12.46
326.814	37.03
327.027	26.79
327.24	55.47
327.453	-100.18
327.666	55.47
327.879	90.28
328.092	34.99
328.305	67.75
328.518	0.17
328.731	-8.02
328.944	51.37
329.157	-1.88
329.37	-40.79
329.583	133.29
329.796	57.51
330.009	-79.7
330.222	41.13
330.435	8.36
330.648	84.14
330.861	41.13
331.073	100.52
331.286	14.51
331.499	55.47
331.712	49.32
331.925	61.61
332.138	39.08
332.35	151.72
332.563	-8.02
332.776	137.38
332.989	34.99
333.202	-5.97
333.414	16.55
333.627	-10.07
333.84	-5.97
334.053	43.18
334.265	4.27
334.478	34.99
334.691	-8.02
334.903	45.23
335.116	-53.08
335.329	-5.97
335.541	12.46
335.754	82.09
335.966	10.41
336.179	-30.55
336.392	41.13
336.604	-24.4
336.817	96.43
337.029	28.84
337.242	-20.31
337.454	61.61
337.667	-5.97
337.88	88.23
338.092	55.47
338.305	82.09
338.517	26.79
338.729	69.8
338.942	49.32
339.154	-3.93
339.367	-14.17
339.579	45.23
339.792	-55.12
340.004	49.32
340.217	28.84
340.429	82.09
340.641	28.84
340.854	20.65
341.066	8.36
341.278	-5.97
341.491	129.19
341.703	39.08
341.915	-55.12
342.128	67.75
342.34	71.85
342.552	6.31
342.764	30.89
342.977	34.99
343.189	41.13
343.401	34.99
343.613	10.41
343.826	32.94
344.038	-79.7
344.25	-12.12
344.462	16.55
344.674	41.13
344.886	67.75
345.099	55.47
345.311	69.8
345.523	32.94
345.735	-83.8
345.947	47.27
346.159	57.51
346.371	75.95
346.583	39.08
346.795	63.66
347.007	0.17
347.219	55.47
347.431	30.89
347.643	-1.88
347.855	-42.84
348.067	86.19
348.279	-42.84
348.491	16.55
348.703	-12.12
348.915	41.13
349.127	-63.32
349.339	65.71
349.551	28.84
349.763	55.47
349.975	-38.74
350.187	20.65
350.399	88.23
350.61	53.42
350.822	14.51
351.034	41.13
351.246	49.32
351.458	71.85
351.669	84.14
351.881	43.18
352.093	53.42
352.305	88.23
352.517	67.75
352.728	43.18
352.94	55.47
353.152	-14.17
353.363	-5.97
353.575	22.7
353.787	110.76
353.999	4.27
354.21	45.23
354.422	82.09
354.633	98.47
354.845	12.46
355.057	-3.93
355.268	18.6
355.48	84.14
355.692	10.41
355.903	49.32
356.115	-44.88
356.326	-12.12
356.538	123.05
356.749	34.99
356.961	141.48
357.172	-20.31
357.384	8.36
357.595	114.86
357.807	123.05
358.018	-3.93
358.23	123.05
358.441	102.57
358.653	61.61
358.864	4.27
359.075	-20.31
359.287	94.38
359.498	149.67
359.709	53.42
359.921	110.76
360.132	65.71
360.344	98.47
360.555	-83.8
360.766	24.75
360.977	28.84
361.189	69.8
361.4	24.75
361.611	90.28
361.823	63.66
362.034	0.17
362.245	-55.12
362.456	2.22
362.667	37.03
362.879	10.41
363.09	47.27
363.301	10.41
363.512	84.14
363.723	63.66
363.935	43.18
364.146	77.99
364.357	26.79
364.568	84.14
364.779	-1.88
364.99	24.75
365.201	4.27
365.412	69.8
365.623	-36.69
365.834	88.23
366.045	86.19
366.256	84.14
366.467	96.43
366.678	0.17
366.889	-22.36
367.1	41.13
367.311	84.14
367.522	10.41
367.733	0.17
367.944	116.9
368.155	30.89
368.366	65.71
368.577	80.04
368.788	118.95
368.999	51.37
369.209	37.03
369.42	14.51
369.631	116.9
369.842	16.55
370.053	-69.46
370.264	75.95
370.474	-67.41
370.685	53.42
370.896	-10.07
371.107	77.99
371.317	82.09
371.528	28.84
371.739	69.8
371.95	71.85
372.16	100.52
372.371	26.79
372.582	16.55
372.792	104.62
373.003	6.31
373.214	24.75
373.424	143.53
373.635	-20.31
373.846	182.44
374.056	108.71
374.267	57.51
374.477	28.84
374.688	32.94
374.898	18.6
375.109	65.71
375.319	94.38
375.53	51.37
375.74	129.19
375.951	-8.02
376.161	80.04
376.372	75.95
376.582	43.18
376.793	51.37
377.003	45.23
377.214	49.32
377.424	39.08
377.635	61.61
377.845	16.55
378.055	151.72
378.266	47.27
378.476	63.66
378.686	-20.31
378.897	49.32
379.107	71.85
379.317	92.33
379.528	59.56
379.738	80.04
379.948	-87.89
380.158	12.46
380.369	37.03
380.579	71.85
380.789	41.13
380.999	30.89
381.21	6.31
381.42	69.8
381.63	30.89
381.84	16.55
382.05	34.99
382.261	102.57
382.471	116.9
382.681	26.79
382.891	135.34
383.101	108.71
383.311	-34.64
383.521	71.85
383.731	143.53
383.941	129.19
384.151	32.94
384.361	63.66
384.571	39.08
384.781	16.55
384.991	172.2
385.201	98.47
385.411	131.24
385.621	102.57
385.831	63.66
386.041	61.61
386.251	43.18
386.461	96.43
386.671	57.51
386.881	77.99
387.091	86.19
387.301	59.56
387.511	75.95
387.72	75.95
387.93	26.79
388.14	65.71
388.35	77.99
388.56	43.18
388.769	139.43
388.979	4.27
389.189	0.17
389.399	16.55
389.609	84.14
389.818	43.18
390.028	-26.45
390.238	96.43
390.447	30.89
390.657	104.62
390.867	24.75
391.076	12.46
391.286	37.03
391.496	141.48
391.705	73.9
391.915	96.43
392.125	41.13
392.334	67.75
392.544	129.19
392.753	55.47
392.963	88.23
393.172	116.9
393.382	104.62
393.591	141.48
393.801	26.79
394.01	102.57
394.22	108.71
394.429	90.28
394.639	92.33
394.848	12.46
395.058	92.33
395.267	65.71
395.477	112.81
395.686	137.38
395.895	82.09
396.105	149.67
396.314	139.43
396.524	63.66
396.733	51.37
396.942	73.9
397.152	192.68
397.361	88.23
397.57	102.57
397.78	118.95
397.989	110.76
398.198	198.82
398.407	121
398.617	135.34
398.826	139.43
399.035	84.14
399.244	182.44
399.453	135.34
399.663	164.01
399.872	159.91
400.081	41.13
400.29	219.3
400.499	153.77
400.708	235.69
400.917	110.76
401.127	106.67
401.336	123.05
401.545	166.06
401.754	151.72
401.963	178.34
402.172	80.04
402.381	133.29
402.59	141.48
402.799	182.44
403.008	225.45
403.217	147.62
403.426	194.73
403.635	123.05
403.844	135.34
404.053	180.39
404.262	190.63
404.471	250.02
404.68	155.82
404.888	116.9
405.097	207.02
405.306	260.26
405.515	247.97
405.724	262.31
405.933	164.01
406.142	184.49
406.35	280.74
406.559	127.14
406.768	188.58
406.977	282.79
407.185	245.93
407.394	233.64
407.603	233.64
407.812	229.54
408.02	329.89
408.229	307.37
408.438	284.84
408.646	239.78
408.855	307.37
409.064	426.15
409.272	374.95
409.481	411.81
409.69	293.03
409.898	352.42
410.107	405.67
410.315	387.24
410.524	329.89
410.733	428.2
410.941	463.01
411.15	454.82
411.358	489.64
411.567	606.37
411.775	512.16
411.984	596.13
412.192	704.67
412.401	665.76
412.609	782.49
412.818	725.15
413.026	784.54
413.234	569.51
413.443	678.05
413.651	743.58
413.86	739.49
414.068	946.33
414.276	805.02
414.485	831.65
414.693	964.76
414.901	979.1
415.11	1001.63
415.318	1009.82
415.526	1056.92
415.734	1036.44
415.943	1138.84
416.151	1165.46
416.359	1208.47
416.567	1265.82
416.776	1276.06
416.984	1249.43
417.192	1487
417.4	1347.73
417.608	1468.56
417.817	1495.19
418.025	1509.52
418.233	1644.69
418.441	1507.48
418.649	1714.32
418.857	1855.63
419.065	1706.13
419.273	1734.8
419.481	1853.58
419.689	2019.47
419.897	2048.14
420.105	2044.04
420.313	2230.41
420.521	2349.19
420.729	2287.75
420.937	2297.99
421.145	2474.12
421.353	2574.47
421.561	2666.63
421.769	2832.51
421.977	2785.41
422.185	2920.57
422.393	2873.47
422.601	3117.18
422.809	3143.8
423.017	3104.89
423.224	3336.31
423.432	3448.95
423.64	3469.43
423.848	3879.02
424.056	3702.9
424.263	3942.51
424.471	3817.58
424.679	4061.29
424.887	4194.41
425.094	4302.95
425.302	4401.26
425.51	4468.84
425.718	4730.98
425.925	4771.94
426.133	4833.38
426.341	5070.94
426.548	5408.86
426.756	5322.84
426.964	5298.27
427.171	5693.52
427.379	5849.17
427.586	5918.8
427.794	6101.07
428.001	6326.35
428.209	6727.75
428.417	6725.7
428.624	7014.46
428.832	7069.76
429.039	6991.94
429.247	6942.78
429.454	7499.83
429.662	8020.02
429.869	7458.87
430.076	8036.4
430.284	7819.32
430.491	8208.43
430.699	8607.78
430.906	8568.87
431.114	8704.04
431.321	9019.43
431.528	9400.35
431.736	9621.53
431.943	9908.24
432.15	9822.23
432.358	10047.51
432.565	10438.67
432.772	10455.05
432.979	10856.45
433.187	11020.29
433.394	11227.14
433.601	11935.73
433.808	12044.27
434.016	12007.41
434.223	12138.48
434.43	13041.64
434.637	12734.44
434.844	13418.46
435.052	13656.03
435.259	13762.52
435.466	13807.58
435.673	13850.58
435.88	14434.25
436.087	15345.6
436.294	15030.21
436.501	14964.68
436.708	15208.39
436.915	15513.53
437.122	16250.8
437.329	16248.75
437.537	16813.99
437.743	17131.43
437.95	16676.78
438.157	17592.22
438.364	18120.6
438.571	18270.1
438.778	18034.58
438.985	19904.38
439.192	19120.01
439.399	19578.75
439.606	19081.1
439.813	20121.46
440.02	21372.77
440.227	21055.34
440.433	20828.01
440.64	21190.5
440.847	21292.9
441.054	21708.64
441.261	23187.27
441.467	22589.27
441.674	23121.74
441.881	23785.28
442.088	23689.03
442.294	23703.36
442.501	24371
442.708	24602.42
442.914	25698.08
443.121	26474.26
443.328	25616.16
443.534	27504.39
443.741	26593.04
443.948	26167.07
444.154	28245.76
444.361	28053.25
444.568	28378.87
444.774	28278.52
444.981	28221.18
445.187	29538.02
445.394	30201.57
445.6	29572.84
445.807	32437.95
446.013	31045.33
446.22	31827.65
446.426	32665.27
446.633	33068.72
446.839	33830.57
447.046	32655.03
447.252	34320.03
447.459	34580.12
447.665	33914.53
447.871	35821.19
448.078	36980.34
448.284	34977.43
448.491	36312.7
448.697	37670.51
448.903	37971.56
449.11	38516.32
449.316	36941.43
449.522	37957.22
449.728	38919.77
449.935	39122.52
450.141	38721.12
450.347	39263.83
450.553	38852.19
450.76	38796.89
450.966	40289.86
451.172	39464.53
451.378	40879.67
451.584	39956.04
451.791	40439.36
451.997	40767.04
452.203	41117.24
452.409	40879.67
452.615	40848.96
452.821	39151.19
453.027	38608.48
453.233	40609.34
453.44	38870.62
453.646	39118.42
453.852	39114.33
454.058	40164.93
454.264	38655.58
454.47	39128.66
454.676	38209.12
454.882	39730.76
455.088	35966.6
455.294	36425.34
455.5	37080.69
455.705	37635.69
455.911	35516.04
456.117	35341.97
456.323	34391.71
456.529	32796.34
456.735	34197.15
456.941	33083.06
457.147	32591.55
457.352	31479.5
457.558	31024.85
457.764	31354.57
457.97	30510.81
458.176	29798.12
458.381	30033.63
458.587	28116.73
458.793	28370.68
458.999	26650.39
459.204	28638.97
459.41	27539.21
459.616	25995.04
459.821	25894.69
460.027	25866.02
460.233	25147.18
460.438	23791.42
460.644	23881.53
460.85	22931.28
461.055	22624.08
461.261	22632.27
461.466	20612.98
461.672	20215.67
461.878	21571.43
462.083	20019.07
462.289	19720.06
462.494	19619.71
462.7	18435.99
462.905	17862.55
463.111	18745.23
463.316	18608.01
463.522	18114.45
463.727	18251.67
463.932	17960.86
464.138	18024.34
464.343	17809.31
464.549	17237.92
464.754	17807.26
464.959	17584.03
465.165	17330.08
465.37	16617.39
465.575	16295.86
