Data from USB4F104151__45__12-12-13-205.txt Node

Date: Fri Mar 14 12:12:13 EDT 2025
User: louis
Spectrometer: USB4F10415
Trigger mode: 4
Integration Time (sec): 5.000000E-2
Scans to average: 1
Electric dark correction enabled: true
Nonlinearity correction enabled: false
Boxcar width: 0
XAxis mode: Wavelengths
Number of Pixels in Spectrum: 3648
>>>>>Begin Spectral Data<<<<<
178.204	-176.3
178.424	-176.3
178.644	-176.3
178.864	-200.87
179.084	-262.31
179.304	-12.46
179.524	8.02
179.744	3.93
179.964	106.32
180.184	-47.27
180.404	-8.36
180.624	18.26
180.844	81.75
181.064	-67.75
181.283	-20.65
181.503	-37.03
181.723	-24.75
181.943	-4.27
182.163	44.88
182.383	-14.51
182.602	1.88
182.822	73.56
183.042	69.46
183.262	-71.85
183.482	5.97
183.701	-71.85
183.921	126.8
184.141	22.36
184.361	48.98
184.58	42.84
184.8	-41.13
185.02	8.02
185.239	147.28
185.459	42.84
185.679	1.88
185.898	-45.23
186.118	20.31
186.338	-12.46
186.557	87.89
186.777	-61.61
186.997	38.74
187.216	-12.46
187.436	100.18
187.655	73.56
187.875	-2.22
188.095	-16.55
188.314	53.08
188.534	67.41
188.753	24.4
188.973	118.61
189.192	89.94
189.412	57.17
189.631	-20.65
189.851	81.75
190.07	20.31
190.29	14.17
190.509	98.13
190.729	-14.51
190.948	104.28
191.168	214.87
191.387	77.65
191.607	40.79
191.826	-16.55
192.045	34.64
192.265	28.5
192.484	16.21
192.704	67.41
192.923	24.4
193.142	139.09
193.362	-8.36
193.581	108.37
193.8	46.93
194.02	1.88
194.239	26.45
194.458	48.98
194.678	-24.75
194.897	12.12
195.116	96.08
195.335	-28.84
195.555	-12.46
195.774	-16.55
195.993	63.32
196.212	-34.99
196.432	59.22
196.651	18.26
196.87	112.47
197.089	141.14
197.308	36.69
197.528	61.27
197.747	-0.17
197.966	116.56
198.185	77.65
198.404	8.02
198.623	42.84
198.842	110.42
199.062	83.8
199.281	85.84
199.5	-4.27
199.719	53.08
199.938	24.4
200.157	67.41
200.376	100.18
200.595	79.7
200.814	36.69
201.033	-59.56
201.252	77.65
201.471	63.32
201.69	100.18
201.909	36.69
202.128	46.93
202.347	26.45
202.566	55.12
202.785	5.97
203.004	-65.71
203.223	100.18
203.442	128.85
203.661	-28.84
203.879	34.64
204.098	91.99
204.317	-37.03
204.536	59.22
204.755	94.04
204.974	51.03
205.193	77.65
205.411	214.87
205.63	-2.22
205.849	46.93
206.068	77.65
206.287	-4.27
206.505	26.45
206.724	14.17
206.943	24.4
207.162	1.88
207.381	12.12
207.599	53.08
207.818	24.4
208.037	26.45
208.255	96.08
208.474	118.61
208.693	94.04
208.911	3.93
209.13	112.47
209.349	65.36
209.567	42.84
209.786	112.47
210.005	96.08
210.223	32.6
210.442	-34.99
210.661	77.65
210.879	34.64
211.098	8.02
211.316	12.12
211.535	1.88
211.753	94.04
211.972	57.17
212.191	30.55
212.409	32.6
212.628	53.08
212.846	18.26
213.065	83.8
213.283	85.84
213.502	-2.22
213.72	53.08
213.938	-16.55
214.157	26.45
214.375	34.64
214.594	-45.23
214.812	61.27
215.031	18.26
215.249	-6.31
215.467	57.17
215.686	12.12
215.904	100.18
216.122	-4.27
216.341	116.56
216.559	-4.27
216.778	65.36
216.996	110.42
217.214	73.56
217.432	-28.84
217.651	-55.47
217.869	-43.18
218.087	12.12
218.306	30.55
218.524	55.12
218.742	-55.47
218.96	48.98
219.179	67.41
219.397	104.28
219.615	114.52
219.833	67.41
220.051	-20.65
220.27	69.46
220.488	16.21
220.706	96.08
220.924	40.79
221.142	-32.94
221.36	36.69
221.578	24.4
221.796	44.88
222.015	34.64
222.233	-4.27
222.451	128.85
222.669	-41.13
222.887	59.22
223.105	-6.31
223.323	40.79
223.541	-37.03
223.759	69.46
223.977	30.55
224.195	77.65
224.413	91.99
224.631	71.51
224.849	71.51
225.067	57.17
225.285	-18.6
225.503	16.21
225.721	12.12
225.939	10.07
226.157	89.94
226.375	139.09
226.592	61.27
226.81	63.32
227.028	12.12
227.246	108.37
227.464	14.17
227.682	32.6
227.9	55.12
228.117	98.13
228.335	53.08
228.553	-32.94
228.771	57.17
228.989	48.98
229.206	75.6
229.424	16.21
229.642	14.17
229.86	67.41
230.077	110.42
230.295	-24.75
230.513	114.52
230.731	30.55
230.948	130.9
231.166	155.47
231.384	12.12
231.601	12.12
231.819	167.76
232.037	20.31
232.254	40.79
232.472	36.69
232.689	12.12
232.907	53.08
233.125	38.74
233.342	5.97
233.56	34.64
233.777	83.8
233.995	5.97
234.213	51.03
234.43	36.69
234.648	-16.55
234.865	5.97
235.083	61.27
235.3	32.6
235.518	83.8
235.735	128.85
235.953	55.12
236.17	-2.22
236.388	24.4
236.605	51.03
236.822	75.6
237.04	83.8
237.257	34.64
237.475	-22.7
237.692	46.93
237.909	75.6
238.127	53.08
238.344	-26.79
238.562	14.17
238.779	-67.75
238.996	-18.6
239.214	-12.46
239.431	77.65
239.648	-16.55
239.865	34.64
240.083	65.36
240.3	26.45
240.517	12.12
240.735	30.55
240.952	44.88
241.169	36.69
241.386	87.89
241.603	-4.27
241.821	-26.79
242.038	112.47
242.255	89.94
242.472	-4.27
242.689	67.41
242.907	120.66
243.124	46.93
243.341	1.88
243.558	57.17
243.775	-22.7
243.992	8.02
244.209	-12.46
244.426	61.27
244.643	36.69
244.86	-41.13
245.078	91.99
245.295	61.27
245.512	12.12
245.729	-82.09
245.946	55.12
246.163	51.03
246.38	34.64
246.597	-10.41
246.814	38.74
247.031	40.79
247.248	59.22
247.464	112.47
247.681	112.47
247.898	18.26
248.115	128.85
248.332	20.31
248.549	32.6
248.766	14.17
248.983	77.65
249.2	73.56
249.417	139.09
249.633	-12.46
249.85	63.32
250.067	-30.89
250.284	108.37
250.501	55.12
250.717	71.51
250.934	-10.41
251.151	5.97
251.368	-14.51
251.585	59.22
251.801	104.28
252.018	26.45
252.235	87.89
252.451	14.17
252.668	63.32
252.885	61.27
253.102	28.5
253.318	-53.42
253.535	-39.08
253.752	8.02
253.968	59.22
254.185	75.6
254.401	75.6
254.618	-24.75
254.835	-26.79
255.051	116.56
255.268	28.5
255.484	34.64
255.701	-39.08
255.917	48.98
256.134	16.21
256.351	81.75
256.567	-100.52
256.784	48.98
257	-26.79
257.217	18.26
257.433	5.97
257.65	12.12
257.866	59.22
258.082	-2.22
258.299	-12.46
258.515	51.03
258.732	38.74
258.948	16.21
259.165	20.31
259.381	28.5
259.597	46.93
259.814	40.79
260.03	30.55
260.246	8.02
260.463	63.32
260.679	65.36
260.895	32.6
261.112	38.74
261.328	26.45
261.544	-2.22
261.761	175.95
261.977	-22.7
262.193	46.93
262.409	44.88
262.626	104.28
262.842	38.74
263.058	132.95
263.274	108.37
263.49	-43.18
263.707	42.84
263.923	100.18
264.139	-63.66
264.355	79.7
264.571	81.75
264.787	85.84
265.004	59.22
265.22	61.27
265.436	30.55
265.652	-96.43
265.868	69.46
266.084	-0.17
266.3	32.6
266.516	-0.17
266.732	8.02
266.948	85.84
267.164	59.22
267.38	137.04
267.596	36.69
267.812	147.28
268.028	-4.27
268.244	-30.89
268.46	40.79
268.676	-2.22
268.892	75.6
269.108	-37.03
269.324	12.12
269.54	-39.08
269.756	26.45
269.972	-37.03
270.188	42.84
270.403	-10.41
270.619	57.17
270.835	44.88
271.051	-16.55
271.267	-20.65
271.483	3.93
271.698	91.99
271.914	28.5
272.13	112.47
272.346	26.45
272.562	-10.41
272.777	77.65
272.993	30.55
273.209	-0.17
273.425	71.51
273.64	-16.55
273.856	55.12
274.072	61.27
274.287	46.93
274.503	24.4
274.719	85.84
274.934	46.93
275.15	-51.37
275.366	71.51
275.581	65.36
275.797	1.88
276.012	34.64
276.228	24.4
276.444	55.12
276.659	46.93
276.875	77.65
277.09	-8.36
277.306	14.17
277.521	100.18
277.737	34.64
277.952	96.08
278.168	-34.99
278.383	55.12
278.599	87.89
278.814	48.98
279.03	8.02
279.245	65.36
279.461	-43.18
279.676	63.32
279.892	-4.27
280.107	5.97
280.322	-0.17
280.538	173.91
280.753	-59.56
280.969	61.27
281.184	81.75
281.399	85.84
281.615	12.12
281.83	5.97
282.045	14.17
282.26	-10.41
282.476	38.74
282.691	42.84
282.906	36.69
283.122	79.7
283.337	14.17
283.552	-6.31
283.767	18.26
283.983	108.37
284.198	-0.17
284.413	100.18
284.628	-22.7
284.843	-39.08
285.058	106.32
285.274	-30.89
285.489	28.5
285.704	81.75
285.919	1.88
286.134	61.27
286.349	59.22
286.564	-12.46
286.779	116.56
286.995	46.93
287.21	-51.37
287.425	112.47
287.64	59.22
287.855	24.4
288.07	-24.75
288.285	153.43
288.5	53.08
288.715	122.71
288.93	42.84
289.145	16.21
289.36	30.55
289.575	57.17
289.79	65.36
290.004	81.75
290.219	122.71
290.434	-28.84
290.649	53.08
290.864	79.7
291.079	-16.55
291.294	65.36
291.509	3.93
291.724	12.12
291.938	22.36
292.153	8.02
292.368	-28.84
292.583	91.99
292.798	51.03
293.012	16.21
293.227	69.46
293.442	-47.27
293.657	77.65
293.871	112.47
294.086	-14.51
294.301	126.8
294.516	137.04
294.73	73.56
294.945	-41.13
295.16	110.42
295.374	110.42
295.589	20.31
295.804	30.55
296.018	67.41
296.233	151.38
296.447	-8.36
296.662	26.45
296.877	89.94
297.091	26.45
297.306	83.8
297.52	5.97
297.735	26.45
297.949	12.12
298.164	18.26
298.378	85.84
298.593	-53.42
298.807	71.51
299.022	65.36
299.236	137.04
299.451	-0.17
299.665	-53.42
299.88	-8.36
300.094	75.6
300.309	18.26
300.523	67.41
300.737	34.64
300.952	67.41
301.166	48.98
301.381	55.12
301.595	110.42
301.809	20.31
302.024	12.12
302.238	-12.46
302.452	81.75
302.667	81.75
302.881	120.66
303.095	77.65
303.309	40.79
303.524	30.55
303.738	-37.03
303.952	-14.51
304.166	-20.65
304.381	10.07
304.595	55.12
304.809	44.88
305.023	12.12
305.237	61.27
305.452	44.88
305.666	89.94
305.88	122.71
306.094	59.22
306.308	104.28
306.522	96.08
306.736	65.36
306.95	12.12
307.164	40.79
307.379	-39.08
307.593	118.61
307.807	106.32
308.021	83.8
308.235	75.6
308.449	-4.27
308.663	34.64
308.877	143.19
309.091	18.26
309.305	59.22
309.519	34.64
309.733	85.84
309.947	3.93
310.161	83.8
310.374	32.6
310.588	40.79
310.802	-16.55
311.016	65.36
311.23	108.37
311.444	14.17
311.658	32.6
311.872	85.84
312.085	38.74
312.299	98.13
312.513	40.79
312.727	104.28
312.941	143.19
313.154	14.17
313.368	106.32
313.582	14.17
313.796	69.46
314.009	42.84
314.223	59.22
314.437	-6.31
314.651	98.13
314.864	44.88
315.078	-16.55
315.292	-16.55
315.505	22.36
315.719	79.7
315.933	87.89
316.146	81.75
316.36	16.21
316.573	57.17
316.787	96.08
317.001	71.51
317.214	5.97
317.428	48.98
317.641	40.79
317.855	12.12
318.068	46.93
318.282	14.17
318.495	114.52
318.709	96.08
318.922	40.79
319.136	63.32
319.349	124.76
319.563	16.21
319.776	44.88
319.99	12.12
320.203	59.22
320.417	20.31
320.63	20.31
320.843	106.32
321.057	-10.41
321.27	112.47
321.483	135
321.697	83.8
321.91	-55.47
322.124	122.71
322.337	44.88
322.55	59.22
322.763	40.79
322.977	-4.27
323.19	-37.03
323.403	-0.17
323.617	96.08
323.83	116.56
324.043	22.36
324.256	10.07
324.469	3.93
324.683	137.04
324.896	34.64
325.109	100.18
325.322	38.74
325.535	141.14
325.748	94.04
325.962	42.84
326.175	38.74
326.388	77.65
326.601	94.04
326.814	75.6
327.027	83.8
327.24	112.47
327.453	20.31
327.666	116.56
327.879	77.65
328.092	67.41
328.305	89.94
328.518	36.69
328.731	3.93
328.944	30.55
329.157	-10.41
329.37	14.17
329.583	98.13
329.796	143.19
330.009	-45.23
330.222	106.32
330.435	55.12
330.648	98.13
330.861	40.79
331.073	65.36
331.286	63.32
331.499	-30.89
331.712	1.88
331.925	110.42
332.138	-34.99
332.35	26.45
332.563	38.74
332.776	118.61
332.989	-2.22
333.202	-0.17
333.414	-43.18
333.627	73.56
333.84	-16.55
334.053	57.17
334.265	8.02
334.478	26.45
334.691	10.07
334.903	42.84
335.116	32.6
335.329	-0.17
335.541	91.99
335.754	57.17
335.966	-8.36
336.179	12.12
336.392	75.6
336.604	73.56
336.817	71.51
337.029	28.5
337.242	-2.22
337.454	104.28
337.667	79.7
337.88	137.04
338.092	104.28
338.305	120.66
338.517	-12.46
338.729	24.4
338.942	116.56
339.154	67.41
339.367	-10.41
339.579	-18.6
339.792	-14.51
340.004	100.18
340.217	73.56
340.429	71.51
340.641	63.32
340.854	-14.51
341.066	12.12
341.278	132.95
341.491	89.94
341.703	53.08
341.915	-6.31
342.128	67.41
342.34	44.88
342.552	48.98
342.764	14.17
342.977	12.12
343.189	89.94
343.401	-47.27
343.613	110.42
343.826	14.17
344.038	38.74
344.25	155.47
344.462	24.4
344.674	16.21
344.886	22.36
345.099	57.17
345.311	85.84
345.523	28.5
345.735	55.12
345.947	81.75
346.159	67.41
346.371	112.47
346.583	-6.31
346.795	85.84
347.007	-0.17
347.219	83.8
347.431	16.21
347.643	79.7
347.855	-32.94
348.067	135
348.279	-34.99
348.491	34.64
348.703	40.79
348.915	32.6
349.127	51.03
349.339	55.12
349.551	12.12
349.763	77.65
349.975	51.03
350.187	108.37
350.399	130.9
350.61	46.93
350.822	141.14
351.034	63.32
351.246	34.64
351.458	77.65
351.669	106.32
351.881	83.8
352.093	42.84
352.305	204.63
352.517	44.88
352.728	91.99
352.94	40.79
353.152	40.79
353.363	34.64
353.575	55.12
353.787	116.56
353.999	53.08
354.21	75.6
354.422	-4.27
354.633	12.12
354.845	34.64
355.057	55.12
355.268	51.03
355.48	89.94
355.692	44.88
355.903	59.22
356.115	94.04
356.326	40.79
356.538	96.08
356.749	73.56
356.961	96.08
357.172	-41.13
357.384	34.64
357.595	114.52
357.807	96.08
358.018	38.74
358.23	44.88
358.441	108.37
358.653	57.17
358.864	-4.27
359.075	51.03
359.287	48.98
359.498	81.75
359.709	16.21
359.921	-8.36
360.132	100.18
360.344	67.41
360.555	-18.6
360.766	63.32
360.977	63.32
361.189	51.03
361.4	57.17
361.611	63.32
361.823	98.13
362.034	30.55
362.245	3.93
362.456	20.31
362.667	48.98
362.879	67.41
363.09	67.41
363.301	75.6
363.512	59.22
363.723	96.08
363.935	-0.17
364.146	147.28
364.357	75.6
364.568	63.32
364.779	-67.75
364.99	91.99
365.201	51.03
365.412	116.56
365.623	77.65
365.834	65.36
366.045	40.79
366.256	55.12
366.467	124.76
366.678	69.46
366.889	48.98
367.1	36.69
367.311	114.52
367.522	71.51
367.733	67.41
367.944	48.98
368.155	32.6
368.366	122.71
368.577	67.41
368.788	128.85
368.999	20.31
369.209	20.31
369.42	178
369.631	118.61
369.842	85.84
370.053	16.21
370.264	126.8
370.474	16.21
370.685	12.12
370.896	46.93
371.107	153.43
371.317	126.8
371.528	36.69
371.739	96.08
371.95	40.79
372.16	116.56
372.371	-18.6
372.582	53.08
372.792	87.89
373.003	-8.36
373.214	104.28
373.424	71.51
373.635	10.07
373.846	120.66
374.056	110.42
374.267	79.7
374.477	71.51
374.688	73.56
374.898	67.41
375.109	130.9
375.319	26.45
375.53	102.23
375.74	26.45
375.951	100.18
376.161	42.84
376.372	32.6
376.582	53.08
376.793	71.51
377.003	122.71
377.214	38.74
377.424	55.12
377.635	10.07
377.845	38.74
378.055	100.18
378.266	8.02
378.476	87.89
378.686	104.28
378.897	79.7
379.107	116.56
379.317	139.09
379.528	65.36
379.738	98.13
379.948	10.07
380.158	71.51
380.369	26.45
380.579	89.94
380.789	59.22
380.999	165.71
381.21	124.76
381.42	141.14
381.63	75.6
381.84	83.8
382.05	71.51
382.261	139.09
382.471	71.51
382.681	55.12
382.891	132.95
383.101	89.94
383.311	36.69
383.521	65.36
383.731	81.75
383.941	147.28
384.151	22.36
384.361	81.75
384.571	83.8
384.781	42.84
384.991	132.95
385.201	130.9
385.411	32.6
385.621	100.18
385.831	116.56
386.041	59.22
386.251	32.6
386.461	55.12
386.671	26.45
386.881	102.23
387.091	85.84
387.301	135
387.511	53.08
387.72	85.84
387.93	171.86
388.14	46.93
388.35	122.71
388.56	48.98
388.769	163.67
388.979	38.74
389.189	94.04
389.399	-0.17
389.609	91.99
389.818	79.7
390.028	57.17
390.238	169.81
390.447	69.46
390.657	141.14
390.867	128.85
391.076	98.13
391.286	28.5
391.496	-6.31
391.705	87.89
391.915	73.56
392.125	155.47
392.334	147.28
392.544	85.84
392.753	59.22
392.963	12.12
393.172	198.48
393.382	-12.46
393.591	143.19
393.801	8.02
394.01	102.23
394.22	128.85
394.429	120.66
394.639	102.23
394.848	67.41
395.058	192.34
395.267	102.23
395.477	106.32
395.686	40.79
395.895	149.33
396.105	249.68
396.314	124.76
396.524	112.47
396.733	102.23
396.942	130.9
397.152	198.48
397.361	112.47
397.57	85.84
397.78	180.05
397.989	110.42
398.198	259.92
398.407	59.22
398.617	165.71
398.826	169.81
399.035	190.29
399.244	194.39
399.453	132.95
399.663	190.29
399.872	190.29
400.081	53.08
400.29	257.87
400.499	69.46
400.708	110.42
400.917	96.08
401.127	182.1
401.336	130.9
401.545	235.35
401.754	157.52
401.963	196.43
402.172	130.9
402.381	196.43
402.59	108.37
402.799	83.8
403.008	200.53
403.217	157.52
403.426	237.39
403.635	67.41
403.844	149.33
404.053	245.59
404.262	128.85
404.471	229.2
404.68	175.95
404.888	274.26
405.097	116.56
405.306	223.06
405.515	167.76
405.724	276.31
405.933	214.87
406.142	284.5
406.35	284.5
406.559	264.02
406.768	296.78
406.977	323.41
407.185	239.44
407.394	296.78
407.603	233.3
407.812	266.07
408.02	372.56
408.229	376.66
408.438	388.94
408.646	337.74
408.855	327.5
409.064	407.38
409.272	423.76
409.481	517.97
409.69	468.81
409.898	352.08
410.107	456.53
410.315	526.16
410.524	481.1
410.733	540.49
410.941	454.48
411.15	538.45
411.358	565.07
411.567	567.12
411.775	565.07
411.984	560.97
412.192	671.56
412.401	583.5
412.609	745.29
412.818	712.52
413.026	735.05
413.234	714.57
413.443	716.62
413.651	808.78
413.86	810.82
414.068	907.08
414.276	890.7
414.485	870.22
414.693	984.9
414.901	1087.3
415.11	1111.88
415.318	1005.38
415.526	1036.1
415.734	1115.97
415.943	1146.69
416.151	1271.62
416.359	1216.32
416.567	1224.51
416.776	1251.14
416.984	1365.82
417.192	1431.36
417.4	1316.67
417.608	1357.63
417.817	1574.72
418.025	1627.96
418.233	1728.31
418.441	1576.77
418.649	1736.51
418.857	1857.34
419.065	1857.34
419.273	1877.82
419.481	1957.69
419.689	2107.19
419.897	2154.29
420.105	2193.2
420.313	2328.37
420.521	2404.14
420.729	2330.42
420.937	2561.84
421.145	2629.42
421.353	2762.54
421.561	2828.07
421.769	2807.59
421.977	2924.33
422.185	3028.78
422.393	3182.37
422.601	3378.98
422.809	3403.55
423.017	3245.86
423.224	3528.48
423.432	3733.28
423.64	3737.37
423.848	3966.74
424.056	3901.21
424.263	4069.14
424.471	4128.53
424.679	4267.8
424.887	4534.03
425.094	4593.42
425.302	4550.42
425.51	4755.21
425.718	5064.46
425.925	5111.56
426.133	5242.63
426.341	5588.74
426.548	5791.48
426.756	5793.53
426.964	5699.33
427.171	6184.69
427.379	6344.44
427.586	6301.43
427.794	6676.21
428.001	6842.09
428.209	7036.65
428.417	7018.22
428.624	7687.9
428.832	7804.64
429.039	7583.46
429.247	7413.48
429.454	8316.63
429.662	8816.33
429.869	8064.73
430.076	8955.6
430.284	8476.37
430.491	9004.75
430.699	9332.42
430.906	9453.25
431.114	9729.73
431.321	10008.25
431.528	10069.69
431.736	10813.1
431.943	11237.03
432.15	10985.13
432.358	11001.52
432.565	11601.57
432.772	11544.23
432.979	12377.75
433.187	12551.83
433.394	12439.19
433.601	13176.46
433.808	13493.9
434.016	13432.46
434.223	13618.82
434.43	14440.06
434.637	14247.55
434.844	15070.83
435.052	15496.81
435.259	15173.23
435.466	15367.79
435.673	15341.16
435.88	16227.93
436.087	17086.03
436.294	17258.06
436.501	16746.07
436.708	17036.88
436.915	17686.09
437.122	18277.95
437.329	18417.21
437.537	18869.81
437.743	19248.69
437.95	18996.79
438.157	20110.88
438.364	20665.88
438.571	20479.52
438.778	20708.89
438.985	22920.7
439.192	21884.42
439.399	22420.99
439.606	22005.25
439.813	22937.08
440.02	24421.86
440.227	24225.25
440.433	23932.39
440.64	24753.63
440.847	24212.96
441.054	25079.25
441.261	26658.24
441.467	26451.39
441.674	26953.15
441.881	27684.27
442.088	27565.49
442.294	27737.52
442.501	28425.64
442.708	28806.56
442.914	29939.08
443.121	31237.5
443.328	30078.35
443.534	32703.84
443.741	31108.47
443.948	31354.23
444.154	32978.27
444.361	32814.43
444.568	33293.66
444.774	33156.44
444.981	33629.52
445.187	34579.78
445.394	35747.12
445.6	35679.54
445.807	38901
446.013	37014.82
446.22	37512.47
446.426	39134.46
446.633	39304.45
446.839	40600.81
447.046	39167.23
447.252	41286.88
447.459	41080.03
447.665	40955.11
447.871	42642.63
448.078	44575.92
448.284	42626.25
448.491	43498.69
448.697	45712.54
448.903	45821.08
449.11	46257.3
449.316	45857.95
449.522	46191.76
449.728	47269
449.935	47504.51
450.141	47473.79
450.347	48577.65
450.553	47398.02
450.76	47737.98
450.966	49243.24
451.172	48485.49
451.378	49722.46
451.584	48948.33
451.791	50435.16
451.997	49695.84
452.203	50439.25
452.409	50334.81
452.615	50168.92
452.821	48196.73
453.027	48141.43
453.233	50365.52
453.44	48381.04
453.646	48692.33
453.852	49409.12
454.058	49615.97
454.264	48221.3
454.47	49321.06
454.676	48151.67
454.882	49880.16
455.088	45126.82
455.294	46099.61
455.5	46392.47
455.705	47170.69
455.911	45362.34
456.117	43904.18
456.323	43695.29
456.529	41426.14
456.735	43248.83
456.941	41983.19
457.147	41471.2
457.352	40228.08
457.558	39920.88
457.764	39886.07
457.97	39116.03
458.176	37946.64
458.381	38092.05
458.587	35843.38
458.793	36011.31
458.999	34233.67
459.204	36822.31
459.41	35894.58
459.616	33095
459.821	33473.88
460.027	33019.23
460.233	32535.91
460.438	30991.74
460.644	31350.13
460.85	29425.04
461.055	28917.15
461.261	29068.7
461.466	27104.7
461.672	25920.97
461.878	28052.91
462.083	26262.98
462.289	25486.8
462.494	25204.18
462.7	24251.88
462.905	23522.8
463.111	24382.95
463.316	24468.96
463.522	24122.85
463.727	23891.43
463.932	23928.3
464.138	23436.78
464.343	23920.1
464.549	23100.92
464.754	23617
464.959	23324.15
465.165	23365.1
465.37	21921.29
465.575	21503.5
465.781	22482.43
