Data from USB4F104151__65__12-12-31-644.txt Node

Date: Fri Mar 14 12:12:31 EDT 2025
User: louis
Spectrometer: USB4F10415
Trigger mode: 4
Integration Time (sec): 5.000000E-2
Scans to average: 1
Electric dark correction enabled: true
Nonlinearity correction enabled: false
Boxcar width: 0
XAxis mode: Wavelengths
Number of Pixels in Spectrum: 3648
>>>>>Begin Spectral Data<<<<<
178.204	-214.18
178.424	-214.18
178.644	-214.18
178.864	-173.22
179.084	-208.04
179.304	35.67
179.524	0.85
179.744	-11.43
179.964	-5.29
180.184	-46.25
180.404	0.85
180.624	-15.53
180.844	-7.34
181.064	-29.87
181.283	68.44
181.503	-19.63
181.723	29.52
181.943	-13.48
182.163	54.1
182.383	-40.11
182.602	68.44
182.822	50
183.042	39.76
183.262	50
183.482	60.24
183.701	62.29
183.921	60.24
184.141	-31.91
184.361	15.19
184.58	47.96
184.8	13.14
185.02	23.38
185.239	-11.43
185.459	47.96
185.679	25.43
185.898	-17.58
186.118	68.44
186.338	78.68
186.557	76.63
186.777	-66.73
186.997	105.3
187.216	23.38
187.436	27.48
187.655	29.52
187.875	72.53
188.095	9.05
188.314	62.29
188.534	113.49
188.753	-23.72
188.973	54.1
189.192	88.92
189.412	-1.19
189.631	39.76
189.851	76.63
190.07	64.34
190.29	-33.96
190.509	23.38
190.729	29.52
190.948	43.86
191.168	158.55
191.387	123.73
191.607	-11.43
191.826	35.67
192.045	23.38
192.265	17.24
192.484	119.64
192.704	0.85
192.923	-66.73
193.142	64.34
193.362	23.38
193.581	97.11
193.8	56.15
194.02	127.83
194.239	15.19
194.458	7
194.678	11.09
194.897	86.87
195.116	37.72
195.335	-11.43
195.555	97.11
195.774	39.76
195.993	54.1
196.212	-11.43
196.432	19.29
196.651	7
196.87	19.29
197.089	107.35
197.308	0.85
197.528	95.06
197.747	-21.67
197.966	-3.24
198.185	125.78
198.404	13.14
198.623	29.52
198.842	64.34
199.062	115.54
199.281	95.06
199.5	19.29
199.719	-21.67
199.938	25.43
200.157	17.24
200.376	93.01
200.595	9.05
200.814	43.86
201.033	-46.25
201.252	13.14
201.471	37.72
201.69	101.2
201.909	64.34
202.128	15.19
202.347	66.39
202.566	72.53
202.785	78.68
203.004	-19.63
203.223	158.55
203.442	41.81
203.661	-3.24
203.879	27.48
204.098	-9.39
204.317	35.67
204.536	39.76
204.755	84.82
204.974	23.38
205.193	23.38
205.411	162.64
205.63	-9.39
205.849	4.95
206.068	0.85
206.287	-50.35
206.505	50
206.724	13.14
206.943	-64.68
207.162	-31.91
207.381	74.58
207.599	41.81
207.818	-54.44
208.037	7
208.255	-5.29
208.474	74.58
208.693	23.38
208.911	50
209.13	23.38
209.349	50
209.567	80.72
209.786	76.63
210.005	47.96
210.223	60.24
210.442	-76.97
210.661	35.67
210.879	23.38
211.098	74.58
211.316	-40.11
211.535	105.3
211.753	62.29
211.972	47.96
212.191	-58.54
212.409	41.81
212.628	9.05
212.846	54.1
213.065	76.63
213.283	74.58
213.502	52.05
213.72	84.82
213.938	31.57
214.157	2.9
214.375	47.96
214.594	-15.53
214.812	125.78
215.031	52.05
215.249	56.15
215.467	37.72
215.686	19.29
215.904	45.91
216.122	-3.24
216.341	121.68
216.559	58.2
216.778	86.87
216.996	68.44
217.214	-19.63
217.432	66.39
217.651	25.43
217.869	-25.77
218.087	47.96
218.306	-21.67
218.524	88.92
218.742	-1.19
218.96	78.68
219.179	-3.24
219.397	74.58
219.615	131.92
219.833	95.06
220.051	0.85
220.27	60.24
220.488	-11.43
220.706	90.96
220.924	-9.39
221.142	7
221.36	86.87
221.578	62.29
221.796	2.9
222.015	76.63
222.233	113.49
222.451	86.87
222.669	-31.91
222.887	82.77
223.105	-38.06
223.323	35.67
223.541	-13.48
223.759	9.05
223.977	31.57
224.195	47.96
224.413	-29.87
224.631	23.38
224.849	13.14
225.067	125.78
225.285	-23.72
225.503	-1.19
225.721	-48.3
225.939	7
226.157	50
226.375	176.98
226.592	60.24
226.81	31.57
227.028	52.05
227.246	88.92
227.464	-54.44
227.682	52.05
227.9	103.25
228.117	80.72
228.335	21.33
228.553	58.2
228.771	13.14
228.989	33.62
229.206	95.06
229.424	31.57
229.642	-1.19
229.86	-36.01
230.077	103.25
230.295	31.57
230.513	39.76
230.731	70.48
230.948	76.63
231.166	123.73
231.384	50
231.601	25.43
231.819	133.97
232.037	4.95
232.254	-50.35
232.472	-46.25
232.689	2.9
232.907	21.33
233.125	-33.96
233.342	25.43
233.56	9.05
233.777	17.24
233.995	78.68
234.213	7
234.43	95.06
234.648	-3.24
234.865	-11.43
235.083	-15.53
235.3	54.1
235.518	62.29
235.735	9.05
235.953	-9.39
236.17	17.24
236.388	64.34
236.605	-1.19
236.822	21.33
237.04	31.57
237.257	54.1
237.475	82.77
237.692	52.05
237.909	35.67
238.127	-7.34
238.344	41.81
238.562	37.72
238.779	25.43
238.996	-19.63
239.214	-68.78
239.431	133.97
239.648	35.67
239.865	21.33
240.083	2.9
240.3	70.48
240.517	-3.24
240.735	13.14
240.952	78.68
241.169	64.34
241.386	27.48
241.603	27.48
241.821	41.81
242.038	29.52
242.255	33.62
242.472	-11.43
242.689	72.53
242.907	90.96
243.124	17.24
243.341	-11.43
243.558	31.57
243.775	-23.72
243.992	-48.3
244.209	37.72
244.426	64.34
244.643	23.38
244.86	-15.53
245.078	64.34
245.295	2.9
245.512	-1.19
245.729	4.95
245.946	37.72
246.163	-1.19
246.38	97.11
246.597	84.82
246.814	31.57
247.031	27.48
247.248	-3.24
247.464	68.44
247.681	62.29
247.898	72.53
248.115	29.52
248.332	-48.3
248.549	37.72
248.766	107.35
248.983	31.57
249.2	93.01
249.417	150.36
249.633	-29.87
249.85	39.76
250.067	45.91
250.284	54.1
250.501	105.3
250.717	47.96
250.934	33.62
251.151	70.48
251.368	-17.58
251.585	105.3
251.801	56.15
252.018	56.15
252.235	-7.34
252.451	-54.44
252.668	0.85
252.885	62.29
253.102	27.48
253.318	-13.48
253.535	-42.15
253.752	23.38
253.968	54.1
254.185	-3.24
254.401	27.48
254.618	39.76
254.835	33.62
255.051	99.16
255.268	-21.67
255.484	109.4
255.701	15.19
255.917	-19.63
256.134	-27.82
256.351	-52.39
256.567	-13.48
256.784	37.72
257	-52.39
257.217	56.15
257.433	90.96
257.65	95.06
257.866	45.91
258.082	25.43
258.299	-5.29
258.515	66.39
258.732	-23.72
258.948	-15.53
259.165	17.24
259.381	-79.02
259.597	45.91
259.814	41.81
260.03	-1.19
260.246	-13.48
260.463	72.53
260.679	78.68
260.895	-13.48
261.112	47.96
261.328	0.85
261.544	-15.53
261.761	93.01
261.977	-48.3
262.193	-31.91
262.409	60.24
262.626	-17.58
262.842	15.19
263.058	4.95
263.274	29.52
263.49	2.9
263.707	29.52
263.923	68.44
264.139	35.67
264.355	17.24
264.571	19.29
264.787	-1.19
265.004	93.01
265.22	39.76
265.436	-21.67
265.652	-3.24
265.868	27.48
266.084	-3.24
266.3	50
266.516	13.14
266.732	-15.53
266.948	95.06
267.164	19.29
267.38	-25.77
267.596	29.52
267.812	93.01
268.028	54.1
268.244	-25.77
268.46	-25.77
268.676	-31.91
268.892	33.62
269.108	-54.44
269.324	15.19
269.54	21.33
269.756	31.57
269.972	-95.4
270.188	37.72
270.403	25.43
270.619	17.24
270.835	41.81
271.051	103.25
271.267	70.48
271.483	29.52
271.698	-7.34
271.914	50
272.13	-27.82
272.346	11.09
272.562	19.29
272.777	62.29
272.993	68.44
273.209	11.09
273.425	-1.19
273.64	13.14
273.856	109.4
274.072	-1.19
274.287	21.33
274.503	-36.01
274.719	72.53
274.934	-9.39
275.15	37.72
275.366	31.57
275.581	29.52
275.797	62.29
276.012	39.76
276.228	-85.16
276.444	41.81
276.659	13.14
276.875	-25.77
277.09	23.38
277.306	97.11
277.521	11.09
277.737	86.87
277.952	136.02
278.168	-54.44
278.383	84.82
278.599	25.43
278.814	154.45
279.03	37.72
279.245	-5.29
279.461	-5.29
279.676	68.44
279.892	-21.67
280.107	-7.34
280.322	50
280.538	-36.01
280.753	-9.39
280.969	123.73
281.184	27.48
281.399	56.15
281.615	93.01
281.83	47.96
282.045	-33.96
282.26	-29.87
282.476	45.91
282.691	127.83
282.906	-19.63
283.122	47.96
283.337	2.9
283.552	-44.2
283.767	-40.11
283.983	78.68
284.198	7
284.413	93.01
284.628	13.14
284.843	45.91
285.058	78.68
285.274	21.33
285.489	-87.21
285.704	105.3
285.919	58.2
286.134	78.68
286.349	-9.39
286.564	11.09
286.779	82.77
286.995	-60.59
287.21	-21.67
287.425	78.68
287.64	-25.77
287.855	68.44
288.07	-40.11
288.285	72.53
288.5	88.92
288.715	37.72
288.93	27.48
289.145	29.52
289.36	93.01
289.575	-58.54
289.79	136.02
290.004	-27.82
290.219	84.82
290.434	107.35
290.649	-23.72
290.864	-68.78
291.079	43.86
291.294	45.91
291.509	41.81
291.724	-19.63
291.938	29.52
292.153	-5.29
292.368	9.05
292.583	13.14
292.798	31.57
293.012	-3.24
293.227	47.96
293.442	62.29
293.657	52.05
293.871	86.87
294.086	0.85
294.301	90.96
294.516	88.92
294.73	23.38
294.945	35.67
295.16	-15.53
295.374	119.64
295.589	93.01
295.804	31.57
296.018	123.73
296.233	70.48
296.447	-62.63
296.662	50
296.877	111.44
297.091	11.09
297.306	21.33
297.52	19.29
297.735	80.72
297.949	7
298.164	33.62
298.378	11.09
298.593	-3.24
298.807	0.85
299.022	13.14
299.236	95.06
299.451	47.96
299.665	33.62
299.88	39.76
300.094	19.29
300.309	-44.2
300.523	-23.72
300.737	21.33
300.952	37.72
301.166	-36.01
301.381	-44.2
301.595	54.1
301.809	-42.15
302.024	-17.58
302.238	-3.24
302.452	13.14
302.667	-23.72
302.881	52.05
303.095	84.82
303.309	23.38
303.524	-13.48
303.738	54.1
303.952	-7.34
304.166	19.29
304.381	-40.11
304.595	97.11
304.809	-5.29
305.023	35.67
305.237	-38.06
305.452	-5.29
305.666	82.77
305.88	125.78
306.094	129.88
306.308	47.96
306.522	47.96
306.736	17.24
306.95	33.62
307.164	86.87
307.379	25.43
307.593	58.2
307.807	117.59
308.021	-23.72
308.235	17.24
308.449	-33.96
308.663	-5.29
308.877	150.36
309.091	-3.24
309.305	86.87
309.519	-58.54
309.733	136.02
309.947	-7.34
310.161	27.48
310.374	21.33
310.588	27.48
310.802	-15.53
311.016	-5.29
311.23	23.38
311.444	62.29
311.658	-3.24
311.872	121.68
312.085	93.01
312.299	99.16
312.513	54.1
312.727	107.35
312.941	-17.58
313.154	70.48
313.368	95.06
313.582	-27.82
313.796	86.87
314.009	35.67
314.223	43.86
314.437	17.24
314.651	95.06
314.864	68.44
315.078	31.57
315.292	2.9
315.505	-3.24
315.719	29.52
315.933	45.91
316.146	11.09
316.36	15.19
316.573	101.2
316.787	47.96
317.001	76.63
317.214	-95.4
317.428	27.48
317.641	-50.35
317.855	37.72
318.068	52.05
318.282	29.52
318.495	144.21
318.709	11.09
318.922	60.24
319.136	68.44
319.349	52.05
319.563	64.34
319.776	29.52
319.99	-23.72
320.203	15.19
320.417	52.05
320.63	117.59
320.843	109.4
321.057	39.76
321.27	52.05
321.483	15.19
321.697	150.36
321.91	47.96
322.124	109.4
322.337	29.52
322.55	88.92
322.763	2.9
322.977	72.53
323.19	13.14
323.403	4.95
323.617	119.64
323.83	56.15
324.043	-31.91
324.256	105.3
324.469	-38.06
324.683	60.24
324.896	19.29
325.109	95.06
325.322	-15.53
325.535	78.68
325.748	64.34
325.962	7
326.175	52.05
326.388	136.02
326.601	127.83
326.814	33.62
327.027	70.48
327.24	107.35
327.453	17.24
327.666	23.38
327.879	11.09
328.092	45.91
328.305	11.09
328.518	72.53
328.731	0.85
328.944	45.91
329.157	52.05
329.37	0.85
329.583	119.64
329.796	70.48
330.009	-5.29
330.222	9.05
330.435	60.24
330.648	-5.29
330.861	45.91
331.073	43.86
331.286	68.44
331.499	113.49
331.712	41.81
331.925	-7.34
332.138	68.44
332.35	119.64
332.563	9.05
332.776	68.44
332.989	-25.77
333.202	56.15
333.414	93.01
333.627	23.38
333.84	47.96
334.053	125.78
334.265	-9.39
334.478	-31.91
334.691	60.24
334.903	11.09
335.116	70.48
335.329	15.19
335.541	52.05
335.754	41.81
335.966	15.19
336.179	109.4
336.392	-17.58
336.604	23.38
336.817	-9.39
337.029	62.29
337.242	-27.82
337.454	56.15
337.667	90.96
337.88	88.92
338.092	70.48
338.305	66.39
338.517	37.72
338.729	93.01
338.942	84.82
339.154	-17.58
339.367	7
339.579	56.15
339.792	35.67
340.004	39.76
340.217	-17.58
340.429	74.58
340.641	-15.53
340.854	2.9
341.066	29.52
341.278	58.2
341.491	121.68
341.703	60.24
341.915	-11.43
342.128	99.16
342.34	27.48
342.552	-13.48
342.764	93.01
342.977	-7.34
343.189	37.72
343.401	15.19
343.613	62.29
343.826	33.62
344.038	-7.34
344.25	47.96
344.462	84.82
344.674	54.1
344.886	-42.15
345.099	41.81
345.311	43.86
345.523	21.33
345.735	-56.49
345.947	56.15
346.159	54.1
346.371	31.57
346.583	13.14
346.795	78.68
347.007	33.62
347.219	60.24
347.431	13.14
347.643	25.43
347.855	21.33
348.067	152.4
348.279	-36.01
348.491	95.06
348.703	7
348.915	21.33
349.127	-50.35
349.339	54.1
349.551	-5.29
349.763	29.52
349.975	90.96
350.187	103.25
350.399	66.39
350.61	117.59
350.822	-13.48
351.034	121.68
351.246	70.48
351.458	97.11
351.669	127.83
351.881	13.14
352.093	17.24
352.305	74.58
352.517	101.2
352.728	72.53
352.94	74.58
353.152	117.59
353.363	2.9
353.575	131.92
353.787	123.73
353.999	80.72
354.21	119.64
354.422	19.29
354.633	21.33
354.845	41.81
355.057	45.91
355.268	72.53
355.48	127.83
355.692	64.34
355.903	68.44
356.115	4.95
356.326	4.95
356.538	117.59
356.749	78.68
356.961	136.02
357.172	-19.63
357.384	-11.43
357.595	201.55
357.807	29.52
358.018	-36.01
358.23	43.86
358.441	88.92
358.653	76.63
358.864	15.19
359.075	43.86
359.287	23.38
359.498	107.35
359.709	29.52
359.921	25.43
360.132	68.44
360.344	86.87
360.555	11.09
360.766	-1.19
360.977	45.91
361.189	86.87
361.4	15.19
361.611	-11.43
361.823	64.34
362.034	64.34
362.245	11.09
362.456	25.43
362.667	125.78
362.879	113.49
363.09	54.1
363.301	23.38
363.512	72.53
363.723	-3.24
363.935	-54.44
364.146	72.53
364.357	-15.53
364.568	105.3
364.779	-1.19
364.99	45.91
365.201	9.05
365.412	80.72
365.623	2.9
365.834	-3.24
366.045	88.92
366.256	111.44
366.467	-9.39
366.678	25.43
366.889	58.2
367.1	95.06
367.311	88.92
367.522	-44.2
367.733	68.44
367.944	70.48
368.155	39.76
368.366	60.24
368.577	176.98
368.788	80.72
368.999	21.33
369.209	17.24
369.42	172.88
369.631	162.64
369.842	90.96
370.053	27.48
370.264	84.82
370.474	13.14
370.685	76.63
370.896	37.72
371.107	47.96
371.317	129.88
371.528	43.86
371.739	68.44
371.95	121.68
372.16	45.91
372.371	-3.24
372.582	127.83
372.792	35.67
373.003	50
373.214	-5.29
373.424	78.68
373.635	13.14
373.846	37.72
374.056	27.48
374.267	-36.01
374.477	82.77
374.688	7
374.898	121.68
375.109	29.52
375.319	58.2
375.53	62.29
375.74	39.76
375.951	41.81
376.161	50
376.372	64.34
376.582	2.9
376.793	113.49
377.003	60.24
377.214	-11.43
377.424	103.25
377.635	9.05
377.845	15.19
378.055	70.48
378.266	50
378.476	21.33
378.686	84.82
378.897	80.72
379.107	105.3
379.317	58.2
379.528	21.33
379.738	25.43
379.948	-17.58
380.158	109.4
380.369	43.86
380.579	101.2
380.789	11.09
380.999	39.76
381.21	144.21
381.42	162.64
381.63	70.48
381.84	86.87
382.05	93.01
382.261	58.2
382.471	164.69
382.681	-17.58
382.891	136.02
383.101	43.86
383.311	2.9
383.521	62.29
383.731	86.87
383.941	66.39
384.151	54.1
384.361	74.58
384.571	7
384.781	52.05
384.991	156.5
385.201	105.3
385.411	64.34
385.621	29.52
385.831	-5.29
386.041	9.05
386.251	115.54
386.461	101.2
386.671	-9.39
386.881	74.58
387.091	62.29
387.301	88.92
387.511	-9.39
387.72	39.76
387.93	84.82
388.14	-29.87
388.35	113.49
388.56	138.07
388.769	25.43
388.979	80.72
389.189	29.52
389.399	52.05
389.609	58.2
389.818	86.87
390.028	13.14
390.238	58.2
390.447	58.2
390.657	86.87
390.867	82.77
391.076	33.62
391.286	47.96
391.496	109.4
391.705	88.92
391.915	78.68
392.125	127.83
392.334	-5.29
392.544	115.54
392.753	41.81
392.963	66.39
393.172	119.64
393.382	66.39
393.591	146.26
393.801	-1.19
394.01	160.59
394.22	50
394.429	107.35
394.639	60.24
394.848	37.72
395.058	101.2
395.267	45.91
395.477	123.73
395.686	142.16
395.895	158.55
396.105	166.74
396.314	93.01
396.524	142.16
396.733	115.54
396.942	207.7
397.152	150.36
397.361	78.68
397.57	107.35
397.78	129.88
397.989	170.83
398.198	224.08
398.407	76.63
398.617	146.26
398.826	56.15
399.035	150.36
399.244	129.88
399.453	156.5
399.663	183.12
399.872	217.94
400.081	93.01
400.29	234.32
400.499	84.82
400.708	222.03
400.917	74.58
401.127	103.25
401.336	131.92
401.545	191.31
401.754	154.45
401.963	234.32
402.172	170.83
402.381	123.73
402.59	121.68
402.799	199.51
403.008	242.51
403.217	152.4
403.426	168.79
403.635	179.03
403.844	174.93
404.053	123.73
404.262	230.23
404.471	240.47
404.68	150.36
404.888	203.6
405.097	115.54
405.306	244.56
405.515	295.76
405.724	95.06
405.933	228.18
406.142	273.23
406.35	250.71
406.559	170.83
406.768	250.71
406.977	293.71
407.185	252.75
407.394	256.85
407.603	222.03
407.812	308.05
408.02	320.34
408.229	303.95
408.438	295.76
408.646	351.06
408.855	269.14
409.064	363.34
409.272	359.25
409.481	467.79
409.69	394.06
409.898	437.07
410.107	346.96
410.315	471.89
410.524	478.03
410.733	435.02
410.941	408.4
411.15	637.77
411.358	512.85
411.567	619.34
411.775	533.33
411.984	600.91
412.192	545.61
412.401	652.11
412.609	676.68
412.818	754.51
413.026	711.5
413.234	660.3
413.443	752.46
413.651	801.61
413.86	826.18
414.068	858.95
414.276	875.34
414.485	854.86
414.693	955.21
414.901	1000.26
415.11	924.49
415.318	971.59
415.526	1108.8
415.734	1022.79
415.943	1145.67
416.151	1205.06
416.359	1176.39
416.567	1241.92
416.776	1278.79
416.984	1338.18
417.192	1381.18
417.4	1381.18
417.608	1315.65
417.817	1436.48
418.025	1600.32
418.233	1786.68
418.441	1475.39
418.649	1723.2
418.857	1778.49
419.065	1835.83
419.273	1817.4
419.481	2026.29
419.689	1977.14
419.897	2050.87
420.105	2122.55
420.313	2190.13
420.521	2308.91
420.729	2407.22
420.937	2401.07
421.145	2505.52
421.353	2644.78
421.561	2773.8
421.769	2837.29
421.977	2868.01
422.185	2949.93
422.393	3009.32
422.601	3232.55
422.809	3205.92
423.017	3126.05
423.224	3343.14
423.432	3519.26
423.64	3414.82
423.848	3834.65
424.056	3652.38
424.263	3998.49
424.471	3949.34
424.679	4033.3
424.887	4281.11
425.094	4332.31
425.302	4385.55
425.51	4590.35
425.718	4594.45
425.925	4543.25
426.133	4881.16
426.341	5200.65
426.548	5337.86
426.756	5473.03
426.964	5358.34
427.171	5602.05
427.379	5931.77
427.586	5935.87
427.794	6171.38
428.001	6429.43
428.209	6705.9
428.417	6605.55
428.624	7058.15
428.832	7099.11
429.039	7054.06
429.247	6929.13
429.454	7551.71
429.662	7930.59
429.869	7611.11
430.076	8157.91
430.284	7744.22
430.491	8168.15
430.699	8782.54
430.906	8657.62
431.114	8698.58
431.321	8944.33
431.528	9263.82
431.736	9663.17
431.943	9986.75
432.15	9822.91
432.358	10095.29
432.565	10605.24
432.772	10162.87
432.979	10949.29
433.187	11188.91
433.394	11100.84
433.601	12049.05
433.808	11936.42
434.016	11891.36
434.223	12157.6
434.43	12987.02
434.637	12735.12
434.844	13632.13
435.052	13871.75
435.259	13757.06
435.466	13777.54
435.673	13482.63
435.88	14357.11
436.087	15034.99
436.294	15247.98
436.501	14926.45
436.708	14991.98
436.915	15549.03
437.122	16175.71
437.329	15876.71
437.537	16523.87
437.743	16753.24
437.95	16888.4
438.157	17547.85
438.364	18033.22
438.571	17887.81
438.778	18416.19
438.985	19821.09
439.192	19135.03
439.399	19474.99
439.606	18981.43
439.813	20109.86
440.02	21332.5
440.227	20906.52
440.433	20363.81
440.64	21029.4
440.847	21101.08
441.054	21688.84
441.261	22972.92
441.467	22915.58
441.674	22858.23
441.881	23800.3
442.088	23667.18
442.294	23630.32
442.501	23964.14
442.708	24738.27
442.914	25625.04
443.121	26587.58
443.328	25663.95
443.534	27574.7
443.741	26825.15
443.948	25891.27
444.154	28174.76
444.361	27898.28
444.568	27840.94
444.774	28041.64
444.981	28006.83
445.187	29421.97
445.394	30329.22
445.6	29579.67
445.807	32508.26
446.013	30980.48
446.22	31349.11
446.426	32745.83
446.633	32794.98
446.839	33913.17
447.046	32258.41
447.252	34464.07
447.459	34302.28
447.665	34068.81
447.871	35694.9
448.078	36940.07
448.284	35195.2
448.491	35969.33
448.697	37064.99
448.903	38226.19
449.11	38179.09
449.316	37224.73
449.522	37665.05
449.728	38983.94
449.935	38803.72
450.141	39246.08
450.347	39614.71
450.553	38265.1
450.76	38703.37
450.966	40077.55
451.172	39776.5
451.378	40571.11
451.584	39586.04
451.791	40702.18
451.997	40343.79
452.203	40831.21
452.409	40765.67
452.615	40567.02
452.821	39178.5
453.027	39178.5
453.233	40374.51
453.44	38621.45
453.646	39010.56
453.852	39153.92
454.058	39872.76
454.264	38426.89
454.47	39022.85
454.676	38250.77
454.882	39430.4
455.088	35950.9
455.294	36868.39
455.5	36895.01
455.705	37484.83
455.911	36092.21
456.117	34894.14
456.323	34763.07
456.529	32651.62
456.735	34077.01
456.941	33048.93
457.147	32485.73
457.352	31322.49
457.558	30796.16
457.764	31119.74
457.97	30007.69
458.176	29589.91
458.381	29491.6
458.587	28070.31
458.793	28420.52
458.999	26577.34
459.204	28506.53
459.41	27525.55
459.616	25561.55
459.821	25672.14
460.027	25440.72
460.233	24820.19
460.438	23699.95
460.644	24232.42
460.85	22807.03
461.055	22344.19
461.261	22409.73
461.466	20857.37
461.672	19933.73
461.878	21359.12
462.083	19907.11
462.289	19479.08
462.494	19370.54
462.7	18276.93
462.905	17834.57
463.111	18610.75
463.316	18416.19
463.522	18027.07
463.727	18031.17
463.932	18000.45
464.138	17853
464.343	18100.8
464.549	17584.71
464.754	17795.65
464.959	17545.8
465.165	17408.59
465.37	16722.52
465.575	16015.97
465.781	16732.76
465.986	17001.04
466.191	16370.27
466.397	16101.98
466.602	14985.84
466.807	15903.33
