Data from USB4F104151__2__12-11-10-462.txt Node

Date: Fri Mar 14 12:11:10 EDT 2025
User: louis
Spectrometer: USB4F10415
Trigger mode: 4
Integration Time (sec): 5.000000E-2
Scans to average: 1
Electric dark correction enabled: true
Nonlinearity correction enabled: false
Boxcar width: 0
XAxis mode: Wavelengths
Number of Pixels in Spectrum: 3648
>>>>>Begin Spectral Data<<<<<
178.204	-262.31
178.424	-262.31
178.644	-262.31
178.864	-151.72
179.084	-237.74
179.304	98.13
179.524	20.31
179.744	8.02
179.964	69.46
180.184	-43.18
180.404	26.45
180.624	32.6
180.844	-47.27
181.064	-92.33
181.283	30.55
181.503	-45.23
181.723	-57.51
181.943	-34.99
182.163	130.9
182.383	1.88
182.602	75.6
182.822	61.27
183.042	69.46
183.262	-39.08
183.482	32.6
183.701	-8.36
183.921	14.17
184.141	-4.27
184.361	-24.75
184.58	122.71
184.8	61.27
185.02	65.36
185.239	139.09
185.459	14.17
185.679	100.18
185.898	34.64
186.118	100.18
186.338	51.03
186.557	77.65
186.777	77.65
186.997	-39.08
187.216	14.17
187.436	30.55
187.655	118.61
187.875	122.71
188.095	48.98
188.314	77.65
188.534	51.03
188.753	-88.23
188.973	69.46
189.192	73.56
189.412	3.93
189.631	28.5
189.851	38.74
190.07	89.94
190.29	14.17
190.509	-34.99
190.729	46.93
190.948	141.14
191.168	266.07
191.387	96.08
191.607	-28.84
191.826	10.07
192.045	51.03
192.265	8.02
192.484	126.8
192.704	12.12
192.923	-16.55
193.142	77.65
193.362	81.75
193.581	130.9
193.8	53.08
194.02	83.8
194.239	87.89
194.458	5.97
194.678	67.41
194.897	116.56
195.116	24.4
195.335	-37.03
195.555	69.46
195.774	-10.41
195.993	77.65
196.212	24.4
196.432	75.6
196.651	22.36
196.87	-6.31
197.089	126.8
197.308	128.85
197.528	79.7
197.747	-57.51
197.966	8.02
198.185	61.27
198.404	30.55
198.623	38.74
198.842	53.08
199.062	51.03
199.281	124.76
199.5	89.94
199.719	46.93
199.938	118.61
200.157	79.7
200.376	57.17
200.595	122.71
200.814	8.02
201.033	69.46
201.252	106.32
201.471	75.6
201.69	73.56
201.909	46.93
202.128	98.13
202.347	61.27
202.566	28.5
202.785	5.97
203.004	-24.75
203.223	178
203.442	55.12
203.661	46.93
203.879	22.36
204.098	89.94
204.317	36.69
204.536	79.7
204.755	89.94
204.974	67.41
205.193	22.36
205.411	143.19
205.63	89.94
205.849	51.03
206.068	-32.94
206.287	12.12
206.505	137.04
206.724	61.27
206.943	-12.46
207.162	22.36
207.381	16.21
207.599	30.55
207.818	98.13
208.037	-8.36
208.255	22.36
208.474	75.6
208.693	79.7
208.911	8.02
209.13	65.36
209.349	28.5
209.567	89.94
209.786	36.69
210.005	110.42
210.223	5.97
210.442	-49.32
210.661	98.13
210.879	75.6
211.098	53.08
211.316	83.8
211.535	118.61
211.753	24.4
211.972	65.36
212.191	-14.51
212.409	-20.65
212.628	61.27
212.846	36.69
213.065	108.37
213.283	114.52
213.502	-22.7
213.72	63.32
213.938	42.84
214.157	18.26
214.375	128.85
214.594	34.64
214.812	-22.7
215.031	96.08
215.249	28.5
215.467	69.46
215.686	-6.31
215.904	77.65
216.122	10.07
216.341	96.08
216.559	-8.36
216.778	141.14
216.996	167.76
217.214	53.08
217.432	36.69
217.651	46.93
217.869	106.32
218.087	-20.65
218.306	38.74
218.524	98.13
218.742	-14.51
218.96	67.41
219.179	-14.51
219.397	8.02
219.615	89.94
219.833	-90.28
220.051	24.4
220.27	57.17
220.488	75.6
220.706	83.8
220.924	32.6
221.142	114.52
221.36	61.27
221.578	100.18
221.796	20.31
222.015	53.08
222.233	44.88
222.451	135
222.669	10.07
222.887	26.45
223.105	51.03
223.323	14.17
223.541	-43.18
223.759	116.56
223.977	10.07
224.195	120.66
224.413	114.52
224.631	73.56
224.849	5.97
225.067	151.38
225.285	-20.65
225.503	32.6
225.721	5.97
225.939	110.42
226.157	40.79
226.375	216.91
226.592	-43.18
226.81	73.56
227.028	26.45
227.246	69.46
227.464	-12.46
227.682	48.98
227.9	34.64
228.117	55.12
228.335	40.79
228.553	67.41
228.771	34.64
228.989	51.03
229.206	132.95
229.424	46.93
229.642	42.84
229.86	1.88
230.077	59.22
230.295	73.56
230.513	63.32
230.731	85.84
230.948	155.47
231.166	85.84
231.384	116.56
231.601	53.08
231.819	149.33
232.037	-37.03
232.254	-32.94
232.472	81.75
232.689	-37.03
232.907	30.55
233.125	18.26
233.342	38.74
233.56	1.88
233.777	1.88
233.995	89.94
234.213	159.57
234.43	59.22
234.648	48.98
234.865	38.74
235.083	-20.65
235.3	38.74
235.518	8.02
235.735	110.42
235.953	55.12
236.17	71.51
236.388	48.98
236.605	59.22
236.822	180.05
237.04	77.65
237.257	14.17
237.475	16.21
237.692	38.74
237.909	18.26
238.127	42.84
238.344	38.74
238.562	73.56
238.779	22.36
238.996	-92.33
239.214	-0.17
239.431	55.12
239.648	-30.89
239.865	77.65
240.083	89.94
240.3	22.36
240.517	-20.65
240.735	32.6
240.952	135
241.169	67.41
241.386	65.36
241.603	-20.65
241.821	-28.84
242.038	96.08
242.255	28.5
242.472	81.75
242.689	89.94
242.907	63.32
243.124	36.69
243.341	3.93
243.558	-24.75
243.775	1.88
243.992	-51.37
244.209	81.75
244.426	100.18
244.643	10.07
244.86	36.69
245.078	165.71
245.295	12.12
245.512	22.36
245.729	-41.13
245.946	67.41
246.163	55.12
246.38	42.84
246.597	65.36
246.814	40.79
247.031	40.79
247.248	83.8
247.464	46.93
247.681	30.55
247.898	34.64
248.115	59.22
248.332	110.42
248.549	85.84
248.766	114.52
248.983	57.17
249.2	112.47
249.417	96.08
249.633	-2.22
249.85	67.41
250.067	61.27
250.284	32.6
250.501	147.28
250.717	24.4
250.934	10.07
251.151	26.45
251.368	12.12
251.585	143.19
251.801	108.37
252.018	-24.75
252.235	38.74
252.451	14.17
252.668	-14.51
252.885	44.88
253.102	24.4
253.318	73.56
253.535	-24.75
253.752	46.93
253.968	38.74
254.185	-51.37
254.401	5.97
254.618	110.42
254.835	53.08
255.051	77.65
255.268	108.37
255.484	122.71
255.701	53.08
255.917	106.32
256.134	36.69
256.351	22.36
256.567	14.17
256.784	8.02
257	81.75
257.217	12.12
257.433	89.94
257.65	85.84
257.866	-26.79
258.082	26.45
258.299	-0.17
258.515	46.93
258.732	85.84
258.948	26.45
259.165	38.74
259.381	-8.36
259.597	87.89
259.814	3.93
260.03	46.93
260.246	42.84
260.463	79.7
260.679	16.21
260.895	79.7
261.112	81.75
261.328	83.8
261.544	8.02
261.761	108.37
261.977	89.94
262.193	-53.42
262.409	28.5
262.626	55.12
262.842	-18.6
263.058	-20.65
263.274	85.84
263.49	14.17
263.707	24.4
263.923	85.84
264.139	-69.8
264.355	-4.27
264.571	67.41
264.787	75.6
265.004	61.27
265.22	40.79
265.436	-0.17
265.652	30.55
265.868	59.22
266.084	53.08
266.3	36.69
266.516	-18.6
266.732	139.09
266.948	-4.27
267.164	51.03
267.38	36.69
267.596	30.55
267.812	130.9
268.028	10.07
268.244	36.69
268.46	81.75
268.676	91.99
268.892	3.93
269.108	10.07
269.324	-14.51
269.54	-67.75
269.756	102.23
269.972	14.17
270.188	34.64
270.403	26.45
270.619	-14.51
270.835	24.4
271.051	94.04
271.267	-6.31
271.483	32.6
271.698	85.84
271.914	-18.6
272.13	91.99
272.346	71.51
272.562	18.26
272.777	61.27
272.993	91.99
273.209	51.03
273.425	51.03
273.64	-73.9
273.856	1.88
274.072	26.45
274.287	-14.51
274.503	167.76
274.719	71.51
274.934	16.21
275.15	-77.99
275.366	26.45
275.581	5.97
275.797	26.45
276.012	36.69
276.228	-14.51
276.444	34.64
276.659	77.65
276.875	-61.61
277.09	12.12
277.306	40.79
277.521	85.84
277.737	94.04
277.952	96.08
278.168	75.6
278.383	42.84
278.599	55.12
278.814	-6.31
279.03	59.22
279.245	53.08
279.461	-41.13
279.676	112.47
279.892	12.12
280.107	20.31
280.322	30.55
280.538	32.6
280.753	-8.36
280.969	-8.36
281.184	14.17
281.399	79.7
281.615	67.41
281.83	94.04
282.045	-51.37
282.26	48.98
282.476	8.02
282.691	26.45
282.906	55.12
283.122	63.32
283.337	-39.08
283.552	100.18
283.767	53.08
283.983	67.41
284.198	8.02
284.413	61.27
284.628	-18.6
284.843	5.97
285.058	1.88
285.274	-4.27
285.489	-2.22
285.704	32.6
285.919	-16.55
286.134	63.32
286.349	51.03
286.564	20.31
286.779	65.36
286.995	46.93
287.21	-65.71
287.425	42.84
287.64	36.69
287.855	53.08
288.07	-2.22
288.285	42.84
288.5	87.89
288.715	42.84
288.93	5.97
289.145	59.22
289.36	128.85
289.575	8.02
289.79	120.66
290.004	44.88
290.219	89.94
290.434	22.36
290.649	-26.79
290.864	51.03
291.079	-8.36
291.294	53.08
291.509	81.75
291.724	40.79
291.938	42.84
292.153	67.41
292.368	77.65
292.583	-16.55
292.798	34.64
293.012	87.89
293.227	102.23
293.442	57.17
293.657	118.61
293.871	157.52
294.086	81.75
294.301	135
294.516	122.71
294.73	-22.7
294.945	28.5
295.16	71.51
295.374	94.04
295.589	87.89
295.804	-10.41
296.018	32.6
296.233	96.08
296.447	77.65
296.662	46.93
296.877	163.67
297.091	40.79
297.306	10.07
297.52	48.98
297.735	-10.41
297.949	36.69
298.164	36.69
298.378	104.28
298.593	63.32
298.807	-2.22
299.022	26.45
299.236	98.13
299.451	83.8
299.665	59.22
299.88	40.79
300.094	38.74
300.309	12.12
300.523	122.71
300.737	98.13
300.952	98.13
301.166	87.89
301.381	-16.55
301.595	53.08
301.809	48.98
302.024	100.18
302.238	28.5
302.452	104.28
302.667	34.64
302.881	114.52
303.095	34.64
303.309	-30.89
303.524	-41.13
303.738	55.12
303.952	75.6
304.166	87.89
304.381	-108.71
304.595	67.41
304.809	36.69
305.023	75.6
305.237	-2.22
305.452	36.69
305.666	96.08
305.88	94.04
306.094	106.32
306.308	26.45
306.522	65.36
306.736	85.84
306.95	96.08
307.164	18.26
307.379	42.84
307.593	96.08
307.807	96.08
308.021	65.36
308.235	46.93
308.449	5.97
308.663	46.93
308.877	135
309.091	71.51
309.305	151.38
309.519	-67.75
309.733	106.32
309.947	-14.51
310.161	24.4
310.374	102.23
310.588	112.47
310.802	-10.41
311.016	48.98
311.23	65.36
311.444	14.17
311.658	61.27
311.872	85.84
312.085	98.13
312.299	79.7
312.513	79.7
312.727	36.69
312.941	-18.6
313.154	63.32
313.368	38.74
313.582	87.89
313.796	34.64
314.009	104.28
314.223	83.8
314.437	59.22
314.651	42.84
314.864	28.5
315.078	-53.42
315.292	-32.94
315.505	46.93
315.719	77.65
315.933	42.84
316.146	57.17
316.36	75.6
316.573	71.51
316.787	137.04
317.001	53.08
317.214	36.69
317.428	26.45
317.641	20.31
317.855	14.17
318.068	94.04
318.282	40.79
318.495	126.8
318.709	77.65
318.922	114.52
319.136	63.32
319.349	24.4
319.563	67.41
319.776	32.6
319.99	8.02
320.203	100.18
320.417	51.03
320.63	75.6
320.843	167.76
321.057	5.97
321.27	59.22
321.483	118.61
321.697	67.41
321.91	53.08
322.124	55.12
322.337	53.08
322.55	-2.22
322.763	69.46
322.977	26.45
323.19	-8.36
323.403	18.26
323.617	53.08
323.83	28.5
324.043	77.65
324.256	-12.46
324.469	10.07
324.683	114.52
324.896	63.32
325.109	14.17
325.322	-41.13
325.535	102.23
325.748	44.88
325.962	-10.41
326.175	73.56
326.388	79.7
326.601	124.76
326.814	-4.27
327.027	61.27
327.24	120.66
327.453	8.02
327.666	-0.17
327.879	100.18
328.092	44.88
328.305	36.69
328.518	8.02
328.731	40.79
328.944	26.45
329.157	110.42
329.37	-39.08
329.583	155.47
329.796	89.94
330.009	-47.27
330.222	108.37
330.435	102.23
330.648	53.08
330.861	36.69
331.073	53.08
331.286	69.46
331.499	96.08
331.712	-37.03
331.925	-2.22
332.138	10.07
332.35	36.69
332.563	46.93
332.776	63.32
332.989	-14.51
333.202	26.45
333.414	-22.7
333.627	38.74
333.84	69.46
334.053	22.36
334.265	124.76
334.478	46.93
334.691	40.79
334.903	130.9
335.116	3.93
335.329	14.17
335.541	79.7
335.754	44.88
335.966	-2.22
336.179	34.64
336.392	-2.22
336.604	108.37
336.817	10.07
337.029	16.21
337.242	24.4
337.454	87.89
337.667	63.32
337.88	34.64
338.092	28.5
338.305	67.41
338.517	-24.75
338.729	106.32
338.942	106.32
339.154	32.6
339.367	-8.36
339.579	94.04
339.792	-51.37
340.004	77.65
340.217	-0.17
340.429	-16.55
340.641	40.79
340.854	28.5
341.066	51.03
341.278	182.1
341.491	104.28
341.703	28.5
341.915	42.84
342.128	61.27
342.34	53.08
342.552	40.79
342.764	83.8
342.977	38.74
343.189	30.55
343.401	44.88
343.613	1.88
343.826	-14.51
344.038	59.22
344.25	22.36
344.462	24.4
344.674	48.98
344.886	128.85
345.099	139.09
345.311	59.22
345.523	79.7
345.735	38.74
345.947	128.85
346.159	-26.79
346.371	40.79
346.583	188.24
346.795	147.28
347.007	-32.94
347.219	28.5
347.431	65.36
347.643	96.08
347.855	34.64
348.067	96.08
348.279	-18.6
348.491	1.88
348.703	8.02
348.915	48.98
349.127	12.12
349.339	81.75
349.551	-2.22
349.763	69.46
349.975	53.08
350.187	102.23
350.399	85.84
350.61	89.94
350.822	-6.31
351.034	75.6
351.246	53.08
351.458	44.88
351.669	46.93
351.881	98.13
352.093	77.65
352.305	44.88
352.517	57.17
352.728	137.04
352.94	116.56
353.152	128.85
353.363	22.36
353.575	51.03
353.787	96.08
353.999	79.7
354.21	130.9
354.422	28.5
354.633	32.6
354.845	55.12
355.057	20.31
355.268	32.6
355.48	98.13
355.692	-20.65
355.903	96.08
356.115	73.56
356.326	-51.37
356.538	120.66
356.749	38.74
356.961	81.75
357.172	-43.18
357.384	5.97
357.595	124.76
357.807	38.74
358.018	46.93
358.23	85.84
358.441	42.84
358.653	120.66
358.864	57.17
359.075	20.31
359.287	30.55
359.498	18.26
359.709	87.89
359.921	87.89
360.132	135
360.344	46.93
360.555	-4.27
360.766	73.56
360.977	8.02
361.189	102.23
361.4	63.32
361.611	-18.6
361.823	73.56
362.034	38.74
362.245	20.31
362.456	26.45
362.667	139.09
362.879	-16.55
363.09	3.93
363.301	51.03
363.512	81.75
363.723	81.75
363.935	38.74
364.146	149.33
364.357	100.18
364.568	32.6
364.779	-26.79
364.99	55.12
365.201	8.02
365.412	53.08
365.623	-2.22
365.834	116.56
366.045	10.07
366.256	98.13
366.467	87.89
366.678	46.93
366.889	75.6
367.1	26.45
367.311	57.17
367.522	22.36
367.733	53.08
367.944	122.71
368.155	87.89
368.366	157.52
368.577	65.36
368.788	44.88
368.999	53.08
369.209	57.17
369.42	122.71
369.631	175.95
369.842	30.55
370.053	98.13
370.264	42.84
370.474	-18.6
370.685	94.04
370.896	48.98
371.107	57.17
371.317	81.75
371.528	73.56
371.739	89.94
371.95	77.65
372.16	85.84
372.371	26.45
372.582	18.26
372.792	77.65
373.003	118.61
373.214	147.28
373.424	77.65
373.635	34.64
373.846	96.08
374.056	85.84
374.267	75.6
374.477	69.46
374.688	48.98
374.898	28.5
375.109	112.47
375.319	61.27
375.53	157.52
375.74	36.69
375.951	59.22
376.161	55.12
376.372	104.28
376.582	42.84
376.793	55.12
377.003	-6.31
377.214	42.84
377.424	96.08
377.635	32.6
377.845	42.84
378.055	57.17
378.266	-32.94
378.476	-4.27
378.686	28.5
378.897	53.08
379.107	118.61
379.317	98.13
379.528	12.12
379.738	42.84
379.948	55.12
380.158	69.46
380.369	28.5
380.579	77.65
380.789	22.36
380.999	112.47
381.21	169.81
381.42	143.19
381.63	57.17
381.84	94.04
382.05	51.03
382.261	135
382.471	73.56
382.681	30.55
382.891	116.56
383.101	51.03
383.311	69.46
383.521	22.36
383.731	53.08
383.941	173.91
384.151	98.13
384.361	55.12
384.571	114.52
384.781	28.5
384.991	130.9
385.201	139.09
385.411	81.75
385.621	124.76
385.831	32.6
386.041	87.89
386.251	32.6
386.461	85.84
386.671	-14.51
386.881	53.08
387.091	-12.46
387.301	139.09
387.511	79.7
387.72	69.46
387.93	112.47
388.14	20.31
388.35	128.85
388.56	94.04
388.769	106.32
388.979	112.47
389.189	22.36
389.399	145.24
389.609	104.28
389.818	188.24
390.028	79.7
390.238	67.41
390.447	22.36
390.657	126.8
390.867	18.26
391.076	51.03
391.286	36.69
391.496	55.12
391.705	83.8
391.915	175.95
392.125	112.47
392.334	24.4
392.544	137.04
392.753	100.18
392.963	55.12
393.172	108.37
393.382	55.12
393.591	139.09
393.801	69.46
394.01	110.42
394.22	169.81
394.429	116.56
394.639	57.17
394.848	145.24
395.058	145.24
395.267	46.93
395.477	10.07
395.686	182.1
395.895	167.76
396.105	231.25
396.314	147.28
396.524	153.43
396.733	112.47
396.942	106.32
397.152	128.85
397.361	190.29
397.57	91.99
397.78	128.85
397.989	169.81
398.198	200.53
398.407	165.71
398.617	96.08
398.826	128.85
399.035	83.8
399.244	194.39
399.453	79.7
399.663	69.46
399.872	153.43
400.081	73.56
400.29	149.33
400.499	106.32
400.708	135
400.917	173.91
401.127	151.38
401.336	85.84
401.545	214.87
401.754	143.19
401.963	155.47
402.172	85.84
402.381	175.95
402.59	3.93
402.799	153.43
403.008	200.53
403.217	167.76
403.426	124.76
403.635	114.52
403.844	173.91
404.053	165.71
404.262	122.71
404.471	288.59
404.68	71.51
404.888	139.09
405.097	135
405.306	145.24
405.515	206.67
405.724	188.24
405.933	245.59
406.142	229.2
406.35	216.91
406.559	208.72
406.768	163.67
406.977	208.72
407.185	163.67
407.394	184.15
407.603	167.76
407.812	276.31
408.02	286.54
408.229	241.49
408.438	194.39
408.646	186.19
408.855	282.45
409.064	261.97
409.272	266.07
409.481	286.54
409.69	239.44
409.898	296.78
410.107	304.98
410.315	364.37
410.524	274.26
410.733	304.98
410.941	388.94
411.15	462.67
411.358	468.81
411.567	442.19
411.775	384.85
411.984	485.2
412.192	522.06
412.401	479.05
412.609	503.63
412.818	550.73
413.026	560.97
413.234	472.91
413.443	550.73
413.651	532.3
413.86	644.94
414.068	689.99
414.276	651.08
414.485	669.52
414.693	661.32
414.901	784.2
415.11	769.87
415.318	800.59
415.526	880.46
415.734	821.06
415.943	853.83
416.151	880.46
416.359	896.84
416.567	972.61
416.776	1040.2
416.984	954.18
417.192	1017.67
417.4	1105.73
417.608	1050.44
417.817	1052.49
418.025	1128.26
418.233	1181.51
418.441	1376.06
418.649	1259.33
418.857	1326.91
419.065	1412.93
419.273	1324.87
419.481	1455.94
419.689	1462.08
419.897	1597.24
420.105	1625.92
420.313	1529.66
420.521	1613.63
420.729	1718.08
420.937	1695.55
421.145	1785.66
421.353	2027.32
421.561	2074.42
421.769	2070.33
421.977	2066.23
422.185	2094.9
422.393	2273.07
422.601	2316.08
422.809	2303.79
423.017	2287.41
423.224	2606.89
423.432	2658.09
423.64	2619.18
423.848	2914.09
424.056	2711.34
424.263	2891.56
424.471	2967.34
424.679	3012.39
424.887	3270.44
425.094	3376.93
425.302	3254.05
425.51	3409.7
425.718	3569.44
425.925	3690.27
426.133	3622.69
426.341	3991.32
426.548	4040.47
426.756	4044.57
426.964	4173.59
427.171	4337.43
427.379	4507.41
427.586	4517.65
427.794	4560.66
428.001	5015.3
428.209	5076.74
428.417	4970.25
428.624	5435.14
428.832	5424.9
429.039	5342.98
429.247	5320.45
429.454	5861.12
429.662	6280.95
429.869	5902.08
430.076	6319.86
430.284	6041.34
430.491	6436.6
430.699	6786.8
430.906	6747.89
431.114	6829.81
431.321	6956.78
431.528	7218.92
431.736	7706.34
431.943	8070.87
432.15	7814.88
432.358	7622.37
432.565	8378.07
432.772	8333.01
432.979	8824.53
433.187	8824.53
433.394	8873.68
433.601	9391.81
433.808	9651.91
434.016	9361.09
434.223	9836.22
434.43	10307.26
434.637	10270.39
434.844	10950.32
435.052	11110.06
435.259	10962.61
435.466	11206.31
435.673	10987.18
435.88	11562.66
436.087	12416.66
436.294	12232.35
436.501	11949.73
436.708	12293.79
436.915	12701.33
437.122	13088.4
437.329	13233.8
437.537	13760.13
437.743	13694.6
437.95	13717.12
438.157	14517.88
438.364	14978.67
438.571	15027.82
438.778	14978.67
438.985	16445.02
439.192	15801.96
439.399	16578.14
439.606	15849.06
439.813	16719.45
440.02	17600.07
440.227	17460.81
440.433	17110.61
440.64	17911.36
440.847	17677.9
441.054	18134.59
441.261	19469.87
441.467	18921.01
441.674	19586.6
441.881	19910.18
442.088	20053.54
442.294	19766.82
442.501	20717.08
442.708	20893.21
442.914	21802.5
443.121	22754.81
443.328	21810.7
443.534	23588.33
443.741	22984.18
443.948	22349.31
444.154	24278.5
444.361	24157.67
444.568	24100.33
444.774	24258.02
444.981	24688.09
445.187	25329.11
445.394	26248.64
445.6	25902.54
445.807	28382.63
446.013	27483.57
446.22	27913.64
446.426	28886.43
446.633	29089.18
446.839	30131.59
447.046	28878.24
447.252	30555.52
447.459	30391.69
447.665	30049.67
447.871	31794.54
448.078	33072.48
448.284	31118.71
448.491	31989.1
448.697	33787.22
448.903	34311.5
449.11	34633.03
449.316	33680.72
449.522	33926.48
449.728	34989.38
449.935	35351.87
450.141	35413.3
450.347	35956.02
450.553	35075.39
450.76	35444.02
450.966	36797.73
451.172	35988.78
451.378	37233.95
451.584	36521.26
451.791	37020.96
451.997	36959.52
452.203	37657.88
452.409	37840.15
452.615	37496.09
452.821	35925.3
453.027	35775.8
453.233	37295.39
453.44	36470.06
453.646	36744.48
453.852	36670.76
454.058	37303.58
454.264	35988.78
454.47	36889.89
454.676	35581.24
454.882	37387.55
455.088	34303.31
455.294	34477.38
455.5	34755.91
455.705	35474.74
455.911	33801.55
456.117	32914.78
456.323	32767.33
456.529	30721.41
456.735	32214.38
456.941	31608.18
457.147	31255.93
457.352	29906.32
457.558	29529.49
457.764	29916.56
457.97	28886.43
458.176	28779.93
458.381	28550.56
458.587	27020.73
458.793	27182.52
458.999	25988.55
459.204	27712.94
459.41	26535.36
459.616	24931.8
459.821	24714.72
460.027	24933.85
460.233	24483.3
460.438	23336.43
460.644	23279.09
460.85	22418.94
461.055	21734.92
461.261	21878.28
461.466	20153.89
461.672	19303.98
461.878	20887.06
462.083	19752.49
462.289	19041.84
462.494	18896.44
462.7	17946.18
462.905	17886.79
463.111	18241.09
463.316	18353.73
463.522	17958.47
463.727	18056.77
463.932	17727.05
464.138	17632.84
464.343	18036.29
464.549	17348.17
464.754	17827.4
464.959	17835.59
465.165	17469
465.37	16709.21
465.575	16291.42
465.781	17086.03
465.986	16950.87
466.191	16488.03
466.397	16125.54
466.602	15242.86
