Data from USB4F104151__0__12-11-08-529.txt Node

Date: Fri Mar 14 12:11:08 EDT 2025
User: louis
Spectrometer: USB4F10415
Trigger mode: 4
Integration Time (sec): 5.000000E-2
Scans to average: 1
Electric dark correction enabled: true
Nonlinearity correction enabled: false
Boxcar width: 0
XAxis mode: Wavelengths
Number of Pixels in Spectrum: 3648
>>>>>Begin Spectral Data<<<<<
178.204	-233.13
178.424	-233.13
178.644	-233.13
178.864	-235.18
179.084	-175.78
179.304	-42.67
179.524	53.59
179.744	-7.85
179.964	43.35
180.184	2.39
180.404	-22.19
180.624	24.92
180.844	-50.86
181.064	-32.43
181.283	2.39
181.503	-22.19
181.723	51.54
181.943	-61.1
182.163	119.12
182.383	14.68
182.602	-18.09
182.822	76.12
183.042	18.77
183.262	-20.14
183.482	-54.95
183.701	43.35
183.921	106.84
184.141	-44.71
184.361	20.82
184.58	22.87
184.8	37.2
185.02	-3.75
185.239	98.64
185.459	10.58
185.679	92.5
185.898	-7.85
186.118	92.5
186.338	-1.71
186.557	86.36
186.777	-9.9
186.997	26.96
187.216	-24.23
187.436	117.08
187.655	61.78
187.875	141.65
188.095	-5.8
188.314	88.4
188.534	84.31
188.753	-13.99
188.973	94.55
189.192	135.51
189.412	67.92
189.631	0.34
189.851	63.83
190.07	47.44
190.29	-112.3
190.509	98.64
190.729	39.25
190.948	10.58
191.168	147.8
191.387	78.16
191.607	-7.85
191.826	33.11
192.045	8.53
192.265	29.01
192.484	53.59
192.704	-13.99
192.923	-65.19
193.142	147.8
193.362	14.68
193.581	6.49
193.8	16.73
194.02	59.73
194.239	76.12
194.458	57.68
194.678	29.01
194.897	92.5
195.116	78.16
195.335	96.6
195.555	-57
195.774	16.73
195.993	6.49
196.212	-34.47
196.432	16.73
196.651	22.87
196.87	-32.43
197.089	141.65
197.308	65.88
197.528	86.36
197.747	16.73
197.966	-1.71
198.185	112.98
198.404	47.44
198.623	63.83
198.842	78.16
199.062	20.82
199.281	51.54
199.5	-7.85
199.719	100.69
199.938	61.78
200.157	88.4
200.376	53.59
200.595	49.49
200.814	4.44
201.033	-52.91
201.252	37.2
201.471	29.01
201.69	26.96
201.909	-36.52
202.128	45.4
202.347	104.79
202.566	153.94
202.785	51.54
203.004	-57
203.223	131.41
203.442	43.35
203.661	-9.9
203.879	82.26
204.098	14.68
204.317	-85.67
204.536	-1.71
204.755	0.34
204.974	53.59
205.193	39.25
205.411	86.36
205.63	55.64
205.849	53.59
206.068	6.49
206.287	-22.19
206.505	35.16
206.724	-24.23
206.943	-7.85
207.162	-5.8
207.381	22.87
207.599	37.2
207.818	33.11
208.037	-34.47
208.255	31.06
208.474	-3.75
208.693	84.31
208.911	-11.95
209.13	-18.09
209.349	53.59
209.567	94.55
209.786	106.84
210.005	92.5
210.223	57.68
210.442	-61.1
210.661	-5.8
210.879	26.96
211.098	53.59
211.316	22.87
211.535	-16.04
211.753	45.4
211.972	84.31
212.191	-48.81
212.409	8.53
212.628	63.83
212.846	41.3
213.065	123.22
213.283	69.97
213.502	-16.04
213.72	-48.81
213.938	59.73
214.157	-3.75
214.375	78.16
214.594	37.2
214.812	88.4
215.031	76.12
215.249	6.49
215.467	96.6
215.686	37.2
215.904	26.96
216.122	69.97
216.341	115.03
216.559	-34.47
216.778	43.35
216.996	65.88
217.214	-7.85
217.432	-1.71
217.651	-63.15
217.869	0.34
218.087	37.2
218.306	12.63
218.524	-102.06
218.742	-30.38
218.96	-5.8
219.179	-13.99
219.397	-18.09
219.615	69.97
219.833	29.01
220.051	-30.38
220.27	57.68
220.488	98.64
220.706	61.78
220.924	41.3
221.142	4.44
221.36	22.87
221.578	29.01
221.796	108.88
222.015	49.49
222.233	-11.95
222.451	72.02
222.669	-48.81
222.887	69.97
223.105	10.58
223.323	-13.99
223.541	-38.57
223.759	51.54
223.977	51.54
224.195	90.45
224.413	-61.1
224.631	26.96
224.849	37.2
225.067	72.02
225.285	57.68
225.503	35.16
225.721	-42.67
225.939	26.96
226.157	106.84
226.375	215.38
226.592	51.54
226.81	82.26
227.028	82.26
227.246	51.54
227.464	-36.52
227.682	2.39
227.9	57.68
228.117	-13.99
228.335	55.64
228.553	4.44
228.771	26.96
228.989	47.44
229.206	69.97
229.424	108.88
229.642	20.82
229.86	-11.95
230.077	55.64
230.295	20.82
230.513	104.79
230.731	-9.9
230.948	80.21
231.166	141.65
231.384	24.92
231.601	18.77
231.819	69.97
232.037	20.82
232.254	-7.85
232.472	43.35
232.689	-18.09
232.907	37.2
233.125	20.82
233.342	-13.99
233.56	8.53
233.777	-44.71
233.995	55.64
234.213	59.73
234.43	65.88
234.648	8.53
234.865	-24.23
235.083	112.98
235.3	35.16
235.518	41.3
235.735	12.63
235.953	145.75
236.17	59.73
236.388	-40.62
236.605	55.64
236.822	65.88
237.04	16.73
237.257	4.44
237.475	-69.29
237.692	74.07
237.909	63.83
238.127	29.01
238.344	63.83
238.562	43.35
238.779	14.68
238.996	-32.43
239.214	55.64
239.431	-9.9
239.648	31.06
239.865	33.11
240.083	24.92
240.3	53.59
240.517	8.53
240.735	51.54
240.952	31.06
241.169	49.49
241.386	24.92
241.603	33.11
241.821	-83.63
242.038	90.45
242.255	88.4
242.472	-18.09
242.689	43.35
242.907	90.45
243.124	39.25
243.341	-11.95
243.558	14.68
243.775	-36.52
243.992	-63.15
244.209	45.4
244.426	125.27
244.643	-7.85
244.86	-1.71
245.078	69.97
245.295	92.5
245.512	29.01
245.729	2.39
245.946	18.77
246.163	31.06
246.38	108.88
246.597	29.01
246.814	39.25
247.031	-54.95
247.248	33.11
247.464	4.44
247.681	-9.9
247.898	65.88
248.115	-1.71
248.332	-5.8
248.549	-22.19
248.766	155.99
248.983	96.6
249.2	37.2
249.417	53.59
249.633	10.58
249.85	80.21
250.067	76.12
250.284	-5.8
250.501	92.5
250.717	78.16
250.934	-44.71
251.151	67.92
251.368	-59.05
251.585	-22.19
251.801	-30.38
252.018	39.25
252.235	31.06
252.451	-13.99
252.668	53.59
252.885	67.92
253.102	84.31
253.318	76.12
253.535	10.58
253.752	49.49
253.968	96.6
254.185	20.82
254.401	53.59
254.618	57.68
254.835	-22.19
255.051	117.08
255.268	8.53
255.484	26.96
255.701	72.02
255.917	26.96
256.134	-32.43
256.351	59.73
256.567	-79.53
256.784	-61.1
257	-57
257.217	110.93
257.433	51.54
257.65	37.2
257.866	55.64
258.082	-54.95
258.299	-16.04
258.515	-11.95
258.732	96.6
258.948	20.82
259.165	-28.33
259.381	2.39
259.597	29.01
259.814	49.49
260.03	49.49
260.246	4.44
260.463	117.08
260.679	115.03
260.895	37.2
261.112	76.12
261.328	-13.99
261.544	-30.38
261.761	80.21
261.977	20.82
262.193	-61.1
262.409	104.79
262.626	67.92
262.842	49.49
263.058	-36.52
263.274	63.83
263.49	88.4
263.707	92.5
263.923	51.54
264.139	-38.57
264.355	16.73
264.571	49.49
264.787	47.44
265.004	-3.75
265.22	108.88
265.436	2.39
265.652	-20.14
265.868	18.77
266.084	74.07
266.3	18.77
266.516	-50.86
266.732	115.03
266.948	84.31
267.164	10.58
267.38	65.88
267.596	55.64
267.812	117.08
268.028	14.68
268.244	-32.43
268.46	16.73
268.676	22.87
268.892	39.25
269.108	-32.43
269.324	-67.24
269.54	-3.75
269.756	100.69
269.972	6.49
270.188	55.64
270.403	-32.43
270.619	8.53
270.835	78.16
271.051	33.11
271.267	63.83
271.483	29.01
271.698	26.96
271.914	117.08
272.13	67.92
272.346	-30.38
272.562	31.06
272.777	6.49
272.993	22.87
273.209	-1.71
273.425	-50.86
273.64	18.77
273.856	69.97
274.072	-65.19
274.287	8.53
274.503	29.01
274.719	0.34
274.934	43.35
275.15	-59.05
275.366	51.54
275.581	-16.04
275.797	18.77
276.012	47.44
276.228	0.34
276.444	55.64
276.659	94.55
276.875	-22.19
277.09	8.53
277.306	-22.19
277.521	41.3
277.737	43.35
277.952	63.83
278.168	-38.57
278.383	153.94
278.599	35.16
278.814	61.78
279.03	22.87
279.245	47.44
279.461	24.92
279.676	-42.67
279.892	35.16
280.107	-40.62
280.322	-18.09
280.538	67.92
280.753	-22.19
280.969	16.73
281.184	41.3
281.399	119.12
281.615	102.74
281.83	117.08
282.045	14.68
282.26	-24.23
282.476	22.87
282.691	45.4
282.906	90.45
283.122	-3.75
283.337	-48.81
283.552	29.01
283.767	-36.52
283.983	141.65
284.198	4.44
284.413	100.69
284.628	-57
284.843	14.68
285.058	121.17
285.274	63.83
285.489	-16.04
285.704	63.83
285.919	20.82
286.134	16.73
286.349	-5.8
286.564	74.07
286.779	53.59
286.995	18.77
287.21	-38.57
287.425	127.32
287.64	37.2
287.855	22.87
288.07	-20.14
288.285	78.16
288.5	18.77
288.715	112.98
288.93	4.44
289.145	-5.8
289.36	98.64
289.575	-28.33
289.79	20.82
290.004	69.97
290.219	29.01
290.434	53.59
290.649	-34.47
290.864	24.92
291.079	12.63
291.294	47.44
291.509	10.58
291.724	10.58
291.938	-26.28
292.153	33.11
292.368	-5.8
292.583	37.2
292.798	108.88
293.012	8.53
293.227	-32.43
293.442	37.2
293.657	78.16
293.871	112.98
294.086	43.35
294.301	41.3
294.516	29.01
294.73	10.58
294.945	-36.52
295.16	12.63
295.374	84.31
295.589	88.4
295.804	8.53
296.018	47.44
296.233	115.03
296.447	4.44
296.662	82.26
296.877	-18.09
297.091	33.11
297.306	53.59
297.52	14.68
297.735	104.79
297.949	45.4
298.164	39.25
298.378	49.49
298.593	-32.43
298.807	-20.14
299.022	43.35
299.236	143.7
299.451	53.59
299.665	12.63
299.88	4.44
300.094	24.92
300.309	145.75
300.523	45.4
300.737	78.16
300.952	41.3
301.166	2.39
301.381	106.84
301.595	16.73
301.809	-3.75
302.024	57.68
302.238	2.39
302.452	80.21
302.667	8.53
302.881	86.36
303.095	141.65
303.309	-40.62
303.524	59.73
303.738	92.5
303.952	8.53
304.166	-50.86
304.381	-16.04
304.595	106.84
304.809	12.63
305.023	88.4
305.237	20.82
305.452	18.77
305.666	88.4
305.88	10.58
306.094	86.36
306.308	55.64
306.522	139.6
306.736	74.07
306.95	90.45
307.164	65.88
307.379	-24.23
307.593	80.21
307.807	39.25
308.021	69.97
308.235	84.31
308.449	-79.53
308.663	-24.23
308.877	86.36
309.091	49.49
309.305	31.06
309.519	-50.86
309.733	80.21
309.947	24.92
310.161	37.2
310.374	59.73
310.588	78.16
310.802	-44.71
311.016	-5.8
311.23	-24.23
311.444	29.01
311.658	24.92
311.872	47.44
312.085	80.21
312.299	10.58
312.513	110.93
312.727	-1.71
312.941	-16.04
313.154	123.22
313.368	33.11
313.582	18.77
313.796	63.83
314.009	35.16
314.223	2.39
314.437	-5.8
314.651	61.78
314.864	-20.14
315.078	-13.99
315.292	-63.15
315.505	57.68
315.719	88.4
315.933	16.73
316.146	-5.8
316.36	-22.19
316.573	86.36
316.787	80.21
317.001	76.12
317.214	-38.57
317.428	80.21
317.641	41.3
317.855	-13.99
318.068	24.92
318.282	59.73
318.495	102.74
318.709	69.97
318.922	22.87
319.136	92.5
319.349	43.35
319.563	-59.05
319.776	84.31
319.99	-28.33
320.203	139.6
320.417	-26.28
320.63	-34.47
320.843	43.35
321.057	-34.47
321.27	-3.75
321.483	-57
321.697	37.2
321.91	33.11
322.124	47.44
322.337	8.53
322.55	63.83
322.763	43.35
322.977	-22.19
323.19	-57
323.403	47.44
323.617	24.92
323.83	155.99
324.043	106.84
324.256	45.4
324.469	26.96
324.683	76.12
324.896	-40.62
325.109	24.92
325.322	-30.38
325.535	53.59
325.748	84.31
325.962	35.16
326.175	67.92
326.388	59.73
326.601	51.54
326.814	51.54
327.027	20.82
327.24	69.97
327.453	-32.43
327.666	104.79
327.879	67.92
328.092	53.59
328.305	4.44
328.518	59.73
328.731	29.01
328.944	51.54
329.157	26.96
329.37	0.34
329.583	47.44
329.796	82.26
330.009	2.39
330.222	76.12
330.435	74.07
330.648	33.11
330.861	39.25
331.073	43.35
331.286	57.68
331.499	37.2
331.712	33.11
331.925	47.44
332.138	29.01
332.35	78.16
332.563	-1.71
332.776	65.88
332.989	-52.91
333.202	-20.14
333.414	-5.8
333.627	2.39
333.84	4.44
334.053	59.73
334.265	-16.04
334.478	2.39
334.691	37.2
334.903	22.87
335.116	22.87
335.329	135.51
335.541	20.82
335.754	149.84
335.966	43.35
336.179	12.63
336.392	4.44
336.604	47.44
336.817	78.16
337.029	76.12
337.242	26.96
337.454	22.87
337.667	96.6
337.88	117.08
338.092	45.4
338.305	-9.9
338.517	35.16
338.729	110.93
338.942	82.26
339.154	-46.76
339.367	-16.04
339.579	37.2
339.792	8.53
340.004	61.78
340.217	-16.04
340.429	67.92
340.641	-13.99
340.854	31.06
341.066	-18.09
341.278	104.79
341.491	84.31
341.703	29.01
341.915	74.07
342.128	74.07
342.34	-32.43
342.552	26.96
342.764	35.16
342.977	63.83
343.189	33.11
343.401	24.92
343.613	-9.9
343.826	31.06
344.038	-7.85
344.25	53.59
344.462	-67.24
344.674	-44.71
344.886	84.31
345.099	88.4
345.311	92.5
345.523	88.4
345.735	-13.99
345.947	2.39
346.159	53.59
346.371	90.45
346.583	49.49
346.795	162.13
347.007	76.12
347.219	35.16
347.431	-18.09
347.643	92.5
347.855	-16.04
348.067	129.36
348.279	4.44
348.491	43.35
348.703	33.11
348.915	59.73
349.127	-42.67
349.339	115.03
349.551	49.49
349.763	53.59
349.975	-5.8
350.187	108.88
350.399	121.17
350.61	106.84
350.822	22.87
351.034	35.16
351.246	69.97
351.458	80.21
351.669	61.78
351.881	76.12
352.093	82.26
352.305	18.77
352.517	39.25
352.728	61.78
352.94	6.49
353.152	65.88
353.363	59.73
353.575	80.21
353.787	43.35
353.999	-7.85
354.21	166.23
354.422	63.83
354.633	-3.75
354.845	45.4
355.057	-1.71
355.268	72.02
355.48	45.4
355.692	14.68
355.903	26.96
356.115	80.21
356.326	-57
356.538	112.98
356.749	117.08
356.961	129.36
357.172	76.12
357.384	12.63
357.595	153.94
357.807	80.21
358.018	108.88
358.23	18.77
358.441	100.69
358.653	53.59
358.864	-20.14
359.075	-9.9
359.287	-85.67
359.498	121.17
359.709	26.96
359.921	20.82
360.132	61.78
360.344	-20.14
360.555	31.06
360.766	22.87
360.977	57.68
361.189	43.35
361.4	53.59
361.611	74.07
361.823	86.36
362.034	24.92
362.245	16.73
362.456	31.06
362.667	69.97
362.879	16.73
363.09	59.73
363.301	94.55
363.512	86.36
363.723	37.2
363.935	20.82
364.146	88.4
364.357	16.73
364.568	94.55
364.779	24.92
364.99	92.5
365.201	31.06
365.412	133.46
365.623	-69.29
365.834	76.12
366.045	22.87
366.256	35.16
366.467	74.07
366.678	-11.95
366.889	14.68
367.1	61.78
367.311	80.21
367.522	57.68
367.733	110.93
367.944	158.03
368.155	29.01
368.366	139.6
368.577	37.2
368.788	80.21
368.999	12.63
369.209	84.31
369.42	198.99
369.631	145.75
369.842	20.82
370.053	16.73
370.264	102.74
370.474	-3.75
370.685	90.45
370.896	82.26
371.107	127.32
371.317	53.59
371.528	-48.81
371.739	39.25
371.95	53.59
372.16	-16.04
372.371	-13.99
372.582	59.73
372.792	102.74
373.003	108.88
373.214	31.06
373.424	47.44
373.635	-50.86
373.846	135.51
374.056	65.88
374.267	2.39
374.477	-44.71
374.688	14.68
374.898	-7.85
375.109	20.82
375.319	102.74
375.53	61.78
375.74	51.54
375.951	65.88
376.161	127.32
376.372	137.56
376.582	82.26
376.793	92.5
377.003	-13.99
377.214	65.88
377.424	100.69
377.635	53.59
377.845	-40.62
378.055	82.26
378.266	-1.71
378.476	51.54
378.686	20.82
378.897	125.27
379.107	59.73
379.317	180.56
379.528	-50.86
379.738	84.31
379.948	37.2
380.158	72.02
380.369	78.16
380.579	67.92
380.789	63.83
380.999	41.3
381.21	2.39
381.42	86.36
381.63	43.35
381.84	170.32
382.05	94.55
382.261	53.59
382.471	78.16
382.681	2.39
382.891	63.83
383.101	33.11
383.311	-22.19
383.521	-36.52
383.731	145.75
383.941	80.21
384.151	104.79
384.361	35.16
384.571	67.92
384.781	26.96
384.991	106.84
385.201	76.12
385.411	35.16
385.621	-11.95
385.831	94.55
386.041	74.07
386.251	37.2
386.461	53.59
386.671	55.64
386.881	39.25
387.091	16.73
387.301	47.44
387.511	45.4
387.72	26.96
387.93	53.59
388.14	-9.9
388.35	117.08
388.56	88.4
388.769	133.46
388.979	78.16
389.189	14.68
389.399	0.34
389.609	115.03
389.818	78.16
390.028	29.01
390.238	59.73
390.447	-22.19
390.657	57.68
390.867	100.69
391.076	-11.95
391.286	61.78
391.496	78.16
391.705	100.69
391.915	86.36
392.125	82.26
392.334	-7.85
392.544	145.75
392.753	129.36
392.963	-32.43
393.172	76.12
393.382	26.96
393.591	149.84
393.801	104.79
394.01	102.74
394.22	92.5
394.429	65.88
394.639	121.17
394.848	119.12
395.058	6.49
395.267	100.69
395.477	51.54
395.686	67.92
395.895	145.75
396.105	186.71
396.314	133.46
396.524	12.63
396.733	8.53
396.942	129.36
397.152	84.31
397.361	104.79
397.57	41.3
397.78	160.08
397.989	49.49
398.198	190.8
398.407	88.4
398.617	127.32
398.826	65.88
399.035	98.64
399.244	121.17
399.453	151.89
399.663	69.97
399.872	155.99
400.081	121.17
400.29	186.71
400.499	131.41
400.708	143.7
400.917	63.83
401.127	145.75
401.336	63.83
401.545	235.86
401.754	143.7
401.963	188.75
402.172	106.84
402.381	61.78
402.59	96.6
402.799	125.27
403.008	250.19
403.217	82.26
403.426	194.9
403.635	92.5
403.844	115.03
404.053	137.56
404.262	55.64
404.471	215.38
404.68	225.62
404.888	67.92
405.097	178.51
405.306	96.6
405.515	233.81
405.724	207.19
405.933	198.99
406.142	141.65
406.35	164.18
406.559	203.09
406.768	153.94
406.977	264.53
407.185	190.8
407.394	174.42
407.603	219.47
407.812	266.58
408.02	262.48
408.229	299.34
408.438	305.49
408.646	293.2
408.855	305.49
409.064	276.82
409.272	229.71
409.481	303.44
409.69	274.77
409.898	219.47
410.107	321.87
410.315	344.4
410.524	248.15
410.733	397.65
410.941	303.44
411.15	387.41
411.358	459.09
411.567	495.95
411.775	368.98
411.984	409.94
412.192	401.74
412.401	420.17
412.609	516.43
412.818	559.44
413.026	581.96
413.234	516.43
413.443	498
413.651	637.26
413.86	567.63
414.068	592.2
414.276	710.99
414.485	723.27
414.693	719.18
414.901	756.04
415.11	635.21
415.318	733.51
415.526	708.94
415.734	766.28
415.943	758.09
416.151	942.41
416.359	850.25
416.567	897.35
416.776	1024.33
416.984	979.27
417.192	1055.05
417.4	1018.18
417.608	1100.1
417.817	1020.23
418.025	1132.87
418.233	1198.4
418.441	1122.63
418.649	1196.36
418.857	1331.52
419.065	1458.5
419.273	1374.53
419.481	1325.38
419.689	1452.35
419.897	1509.69
420.105	1564.99
420.313	1605.95
420.521	1689.92
420.729	1761.59
420.937	1712.44
421.145	1739.07
421.353	1978.68
421.561	1995.06
421.769	2056.5
421.977	2122.04
422.185	2160.95
422.393	2140.47
422.601	2320.69
422.809	2298.16
423.017	2517.29
423.224	2472.24
423.432	2566.45
423.64	2511.15
423.848	2926.89
424.056	2662.7
424.263	2941.22
424.471	3029.29
424.679	3131.69
424.887	3150.12
425.094	3281.19
425.302	3346.72
425.51	3369.25
425.718	3420.45
425.925	3531.04
426.133	3586.33
426.341	3883.29
426.548	3930.39
426.756	4022.55
426.964	4215.06
427.171	4342.04
427.379	4344.08
427.586	4555.02
427.794	4583.7
428.001	4942.09
428.209	5075.21
428.417	4968.71
428.624	5404.93
428.832	5273.86
429.039	5288.2
429.247	5347.59
429.454	5857.53
429.662	6203.64
429.869	5880.06
430.076	6271.22
430.284	6121.72
430.491	6471.92
430.699	6795.5
430.906	6633.71
431.114	6734.06
431.321	7106.79
431.528	7198.95
431.736	7573.73
431.943	8057.05
432.15	7680.22
432.358	7616.74
432.565	8376.53
432.772	8349.91
432.979	8642.77
433.187	8726.74
433.394	8913.1
433.601	9253.06
433.808	9552.07
434.016	9566.4
434.223	9648.32
434.43	10557.62
434.637	10135.74
434.844	10705.07
435.052	11094.19
435.259	10928.3
435.466	11155.63
435.673	10903.73
435.88	11710.63
436.087	12214.43
436.294	12544.15
436.501	11991.2
436.708	12130.46
436.915	12755.09
437.122	13252.75
437.329	12963.98
437.537	13435.02
437.743	13750.4
437.95	13785.22
438.157	14377.08
438.364	14770.29
438.571	14571.64
438.778	14852.21
438.985	16427.1
439.192	15454.31
439.399	16132.19
439.606	16152.67
439.813	16537.69
440.02	17803.33
440.227	17342.54
440.433	17205.33
440.64	17668.17
440.847	17840.2
441.054	18186.3
441.261	19284.02
441.467	19165.23
441.674	19511.34
441.881	20002.85
442.088	20156.45
442.294	19851.3
442.501	20578.33
442.708	20690.97
442.914	21633.04
443.121	22540.29
443.328	21889.03
443.534	23611.37
443.741	22714.36
443.948	22470.65
444.154	24158.18
444.361	23934.95
444.568	24201.19
444.774	24467.42
444.981	24410.08
445.187	25192.4
445.394	26226.63
445.6	25884.62
445.807	28665.76
446.013	26920.89
446.22	27490.23
446.426	28831.65
446.633	28839.84
446.839	30111.63
447.046	28563.36
447.252	30091.15
447.459	30214.02
447.665	30287.75
447.871	31668.08
448.078	32853.86
448.284	31428.47
448.491	32243.56
448.697	33439.58
448.903	34230.09
449.11	33994.57
449.316	33310.55
449.522	34066.25
449.728	35137.34
449.935	35202.88
450.141	35147.58
450.347	36190
450.553	35006.27
450.76	35161.92
450.966	36742.95
451.172	35903.28
451.378	37031.71
451.584	36190
451.791	37207.84
451.997	36925.22
452.203	37517.08
452.409	37586.71
452.615	37650.2
452.821	36171.57
453.027	35405.63
453.233	37619.48
453.44	36118.32
453.646	36380.46
453.852	36216.62
454.058	37158.69
454.264	35974.96
454.47	36450.09
454.676	35934
454.882	37068.58
455.088	33836.88
455.294	34203.47
455.5	34649.92
455.705	35135.29
455.911	33587.03
456.117	32964.45
456.323	32862.05
456.529	30879.61
456.735	32298.86
456.941	31319.93
457.147	31100.79
457.352	29681.55
457.558	29460.37
457.764	29441.94
457.97	29044.63
458.176	28512.16
458.381	28475.3
458.587	27058.1
458.793	26709.95
458.999	25626.57
459.204	27125.69
459.41	26441.67
459.616	24729.56
459.821	24725.47
460.027	24784.86
460.233	23963.62
460.438	23150.58
460.644	23234.55
460.85	22108.16
461.055	21850.12
461.261	21839.88
461.466	20027.43
461.672	19220.53
461.878	21153.81
462.083	19540.01
462.289	19200.05
462.494	18911.28
462.7	18325.57
462.905	17805.38
463.111	18204.74
463.316	18470.97
463.522	17993.79
463.727	17930.31
463.932	17829.96
464.138	17475.66
464.343	17774.66
464.549	17084.5
464.754	17641.54
464.959	17412.17
465.165	17414.22
465.37	16509.02
465.575	16388.19
465.781	16879.7
465.986	16920.66
466.191	16314.46
466.397	16437.34
466.602	15163.5
466.807	15972.45
