Data from USB4F104151__75__12-12-47-892.txt Node

Date: Fri Mar 14 12:12:47 EDT 2025
User: louis
Spectrometer: USB4F10415
Trigger mode: 4
Integration Time (sec): 5.000000E-2
Scans to average: 1
Electric dark correction enabled: true
Nonlinearity correction enabled: false
Boxcar width: 0
XAxis mode: Wavelengths
Number of Pixels in Spectrum: 3648
>>>>>Begin Spectral Data<<<<<
178.204	-194.05
178.424	-194.05
178.644	-194.05
178.864	-220.67
179.084	-181.76
179.304	8.7
179.524	12.8
179.744	6.66
179.964	14.85
180.184	29.18
180.404	18.94
180.624	-46.59
180.844	-34.3
181.064	-71.17
181.283	47.62
181.503	-48.64
181.723	61.95
181.943	-42.5
182.163	88.57
182.383	-40.45
182.602	88.57
182.822	80.38
183.042	39.42
183.262	66.05
183.482	57.86
183.701	-7.68
183.921	51.71
184.141	2.56
184.361	64
184.58	12.8
184.8	-5.63
185.02	18.94
185.239	29.18
185.459	100.86
185.679	78.33
185.898	29.18
186.118	111.1
186.338	14.85
186.557	25.09
186.777	27.14
186.997	2.56
187.216	74.24
187.436	123.39
187.655	92.67
187.875	35.33
188.095	45.57
188.314	49.66
188.534	49.66
188.753	45.57
188.973	72.19
189.192	131.58
189.412	45.57
189.631	18.94
189.851	109.05
190.07	182.78
190.29	-34.3
190.509	51.71
190.729	-38.4
190.948	131.58
191.168	238.08
191.387	31.23
191.607	-77.31
191.826	107.01
192.045	10.75
192.265	64
192.484	-26.11
192.704	-26.11
192.923	64
193.142	150.01
193.362	53.76
193.581	111.1
193.8	45.57
194.02	68.09
194.239	78.33
194.458	23.04
194.678	82.43
194.897	27.14
195.116	64
195.335	64
195.555	-34.3
195.774	-11.78
195.993	53.76
196.212	86.53
196.432	-50.69
196.651	45.57
196.87	6.66
197.089	59.9
197.308	-3.58
197.528	74.24
197.747	-34.3
197.966	8.7
198.185	47.62
198.404	-15.87
198.623	14.85
198.842	64
199.062	90.62
199.281	57.86
199.5	25.09
199.719	55.81
199.938	12.8
200.157	84.48
200.376	47.62
200.595	64
200.814	70.14
201.033	-5.63
201.252	84.48
201.471	94.72
201.69	104.96
201.909	127.49
202.128	-30.21
202.347	123.39
202.566	4.61
202.785	29.18
203.004	-50.69
203.223	152.06
203.442	111.1
203.661	-19.97
203.879	39.42
204.098	127.49
204.317	-15.87
204.536	27.14
204.755	43.52
204.974	31.23
205.193	49.66
205.411	135.68
205.63	92.67
205.849	2.56
206.068	68.09
206.287	41.47
206.505	90.62
206.724	20.99
206.943	4.61
207.162	47.62
207.381	18.94
207.599	-1.54
207.818	10.75
208.037	-56.83
208.255	33.28
208.474	41.47
208.693	57.86
208.911	10.75
209.13	4.61
209.349	70.14
209.567	47.62
209.786	96.77
210.005	82.43
210.223	10.75
210.442	14.85
210.661	0.51
210.879	88.57
211.098	-22.02
211.316	-50.69
211.535	115.2
211.753	20.99
211.972	88.57
212.191	43.52
212.409	76.29
212.628	33.28
212.846	20.99
213.065	68.09
213.283	137.73
213.502	6.66
213.72	55.81
213.938	49.66
214.157	-9.73
214.375	10.75
214.594	10.75
214.812	49.66
215.031	82.43
215.249	29.18
215.467	-17.92
215.686	59.9
215.904	47.62
216.122	-40.45
216.341	35.33
216.559	84.48
216.778	41.47
216.996	88.57
217.214	-11.78
217.432	35.33
217.651	4.61
217.869	23.04
218.087	16.9
218.306	53.76
218.524	37.38
218.742	29.18
218.96	115.2
219.179	100.86
219.397	68.09
219.615	102.91
219.833	61.95
220.051	-34.3
220.27	61.95
220.488	33.28
220.706	145.92
220.924	41.47
221.142	-24.06
221.36	31.23
221.578	104.96
221.796	-1.54
222.015	-93.69
222.233	8.7
222.451	90.62
222.669	20.99
222.887	92.67
223.105	41.47
223.323	-15.87
223.541	-62.98
223.759	84.48
223.977	31.23
224.195	107.01
224.413	53.76
224.631	82.43
224.849	143.87
225.067	158.21
225.285	8.7
225.503	-9.73
225.721	-7.68
225.939	-5.63
226.157	18.94
226.375	184.83
226.592	20.99
226.81	29.18
227.028	104.96
227.246	72.19
227.464	39.42
227.682	125.44
227.9	90.62
228.117	64
228.335	-34.3
228.553	23.04
228.771	8.7
228.989	68.09
229.206	-30.21
229.424	-34.3
229.642	27.14
229.86	-3.58
230.077	76.29
230.295	94.72
230.513	51.71
230.731	31.23
230.948	33.28
231.166	41.47
231.384	2.56
231.601	49.66
231.819	-3.58
232.037	39.42
232.254	29.18
232.472	104.96
232.689	-85.5
232.907	104.96
233.125	109.05
233.342	-73.21
233.56	-13.82
233.777	-7.68
233.995	-13.82
234.213	25.09
234.43	66.05
234.648	20.99
234.865	31.23
235.083	88.57
235.3	4.61
235.518	45.57
235.735	55.81
235.953	41.47
236.17	47.62
236.388	23.04
236.605	53.76
236.822	66.05
237.04	59.9
237.257	76.29
237.475	29.18
237.692	53.76
237.909	45.57
238.127	18.94
238.344	-15.87
238.562	51.71
238.779	27.14
238.996	14.85
239.214	20.99
239.431	70.14
239.648	-50.69
239.865	10.75
240.083	107.01
240.3	96.77
240.517	4.61
240.735	20.99
240.952	162.3
241.169	64
241.386	70.14
241.603	70.14
241.821	-9.73
242.038	66.05
242.255	82.43
242.472	37.38
242.689	74.24
242.907	90.62
243.124	80.38
243.341	20.99
243.558	-52.74
243.775	-17.92
243.992	-28.16
244.209	125.44
244.426	100.86
244.643	86.53
244.86	4.61
245.078	78.33
245.295	35.33
245.512	29.18
245.729	-26.11
245.946	0.51
246.163	76.29
246.38	51.71
246.597	74.24
246.814	-5.63
247.031	25.09
247.248	25.09
247.464	59.9
247.681	-36.35
247.898	41.47
248.115	53.76
248.332	-7.68
248.549	96.77
248.766	164.35
248.983	64
249.2	45.57
249.417	43.52
249.633	92.67
249.85	104.96
250.067	49.66
250.284	74.24
250.501	12.8
250.717	78.33
250.934	16.9
251.151	18.94
251.368	98.81
251.585	37.38
251.801	10.75
252.018	-17.92
252.235	16.9
252.451	31.23
252.668	33.28
252.885	117.25
253.102	84.48
253.318	-9.73
253.535	-19.97
253.752	4.61
253.968	37.38
254.185	-44.54
254.401	43.52
254.618	78.33
254.835	37.38
255.051	135.68
255.268	-44.54
255.484	90.62
255.701	-3.58
255.917	90.62
256.134	14.85
256.351	51.71
256.567	-13.82
256.784	70.14
257	-52.74
257.217	29.18
257.433	43.52
257.65	147.97
257.866	59.9
258.082	-114.17
258.299	74.24
258.515	49.66
258.732	16.9
258.948	-13.82
259.165	23.04
259.381	2.56
259.597	49.66
259.814	27.14
260.03	-24.06
260.246	51.71
260.463	80.38
260.679	104.96
260.895	55.81
261.112	16.9
261.328	37.38
261.544	-7.68
261.761	102.91
261.977	25.09
262.193	-36.35
262.409	78.33
262.626	59.9
262.842	-30.21
263.058	-26.11
263.274	72.19
263.49	20.99
263.707	64
263.923	55.81
264.139	-1.54
264.355	86.53
264.571	104.96
264.787	61.95
265.004	16.9
265.22	33.28
265.436	43.52
265.652	31.23
265.868	53.76
266.084	0.51
266.3	64
266.516	57.86
266.732	100.86
266.948	29.18
267.164	-5.63
267.38	27.14
267.596	6.66
267.812	117.25
268.028	20.99
268.244	-3.58
268.46	-22.02
268.676	-38.4
268.892	25.09
269.108	-24.06
269.324	16.9
269.54	-28.16
269.756	72.19
269.972	16.9
270.188	57.86
270.403	-7.68
270.619	80.38
270.835	41.47
271.051	61.95
271.267	-65.02
271.483	53.76
271.698	27.14
271.914	100.86
272.13	16.9
272.346	45.57
272.562	25.09
272.777	45.57
272.993	31.23
273.209	53.76
273.425	115.2
273.64	-34.3
273.856	25.09
274.072	6.66
274.287	16.9
274.503	82.43
274.719	27.14
274.934	59.9
275.15	-50.69
275.366	47.62
275.581	12.8
275.797	68.09
276.012	18.94
276.228	70.14
276.444	78.33
276.659	160.25
276.875	-19.97
277.09	43.52
277.306	37.38
277.521	84.48
277.737	23.04
277.952	45.57
278.168	18.94
278.383	92.67
278.599	23.04
278.814	29.18
279.03	45.57
279.245	82.43
279.461	20.99
279.676	8.7
279.892	25.09
280.107	-26.11
280.322	35.33
280.538	80.38
280.753	43.52
280.969	18.94
281.184	39.42
281.399	111.1
281.615	14.85
281.83	29.18
282.045	20.99
282.26	59.9
282.476	55.81
282.691	43.52
282.906	43.52
283.122	31.23
283.337	-3.58
283.552	109.05
283.767	94.72
283.983	88.57
284.198	31.23
284.413	53.76
284.628	-13.82
284.843	-28.16
285.058	0.51
285.274	61.95
285.489	20.99
285.704	113.15
285.919	-17.92
286.134	-24.06
286.349	53.76
286.564	-62.98
286.779	119.29
286.995	25.09
287.21	-87.55
287.425	29.18
287.64	6.66
287.855	23.04
288.07	47.62
288.285	49.66
288.5	72.19
288.715	102.91
288.93	-1.54
289.145	18.94
289.36	80.38
289.575	8.7
289.79	31.23
290.004	33.28
290.219	74.24
290.434	12.8
290.649	-30.21
290.864	111.1
291.079	-24.06
291.294	51.71
291.509	35.33
291.724	10.75
291.938	27.14
292.153	37.38
292.368	4.61
292.583	41.47
292.798	-48.64
293.012	18.94
293.227	23.04
293.442	4.61
293.657	66.05
293.871	55.81
294.086	8.7
294.301	64
294.516	25.09
294.73	-5.63
294.945	0.51
295.16	10.75
295.374	35.33
295.589	123.39
295.804	25.09
296.018	29.18
296.233	96.77
296.447	4.61
296.662	20.99
296.877	31.23
297.091	104.96
297.306	-36.35
297.52	74.24
297.735	49.66
297.949	57.86
298.164	16.9
298.378	-24.06
298.593	10.75
298.807	72.19
299.022	68.09
299.236	68.09
299.451	-30.21
299.665	-58.88
299.88	41.47
300.094	31.23
300.309	-19.97
300.523	10.75
300.737	10.75
300.952	31.23
301.166	90.62
301.381	74.24
301.595	-26.11
301.809	-1.54
302.024	-13.82
302.238	-15.87
302.452	88.57
302.667	33.28
302.881	123.39
303.095	61.95
303.309	43.52
303.524	29.18
303.738	35.33
303.952	125.44
304.166	72.19
304.381	-32.26
304.595	135.68
304.809	-28.16
305.023	-32.26
305.237	47.62
305.452	64
305.666	43.52
305.88	104.96
306.094	51.71
306.308	37.38
306.522	61.95
306.736	4.61
306.95	131.58
307.164	25.09
307.379	31.23
307.593	39.42
307.807	66.05
308.021	4.61
308.235	61.95
308.449	18.94
308.663	-11.78
308.877	111.1
309.091	-13.82
309.305	64
309.519	-54.78
309.733	147.97
309.947	-50.69
310.161	59.9
310.374	49.66
310.588	96.77
310.802	20.99
311.016	31.23
311.23	-13.82
311.444	20.99
311.658	49.66
311.872	84.48
312.085	61.95
312.299	141.82
312.513	160.25
312.727	64
312.941	-54.78
313.154	98.81
313.368	-5.63
313.582	104.96
313.796	20.99
314.009	31.23
314.223	76.29
314.437	125.44
314.651	121.34
314.864	78.33
315.078	23.04
315.292	-60.93
315.505	-19.97
315.719	84.48
315.933	64
316.146	55.81
316.36	14.85
316.573	35.33
316.787	-3.58
317.001	90.62
317.214	6.66
317.428	53.76
317.641	-54.78
317.855	76.29
318.068	47.62
318.282	80.38
318.495	137.73
318.709	43.52
318.922	0.51
319.136	86.53
319.349	-3.58
319.563	6.66
319.776	57.86
319.99	41.47
320.203	55.81
320.417	20.99
320.63	86.53
320.843	39.42
321.057	61.95
321.27	133.63
321.483	39.42
321.697	135.68
321.91	-15.87
322.124	10.75
322.337	90.62
322.55	31.23
322.763	88.57
322.977	-17.92
323.19	-60.93
323.403	53.76
323.617	49.66
323.83	98.81
324.043	39.42
324.256	100.86
324.469	-9.73
324.683	70.14
324.896	23.04
325.109	4.61
325.322	8.7
325.535	8.7
325.748	133.63
325.962	-42.5
326.175	35.33
326.388	82.43
326.601	64
326.814	27.14
327.027	33.28
327.24	39.42
327.453	-13.82
327.666	51.71
327.879	20.99
328.092	96.77
328.305	29.18
328.518	-34.3
328.731	-46.59
328.944	23.04
329.157	20.99
329.37	14.85
329.583	92.67
329.796	115.2
330.009	-17.92
330.222	16.9
330.435	49.66
330.648	14.85
330.861	-5.63
331.073	-73.21
331.286	64
331.499	37.38
331.712	-32.26
331.925	33.28
332.138	72.19
332.35	29.18
332.563	-1.54
332.776	94.72
332.989	-5.63
333.202	23.04
333.414	121.34
333.627	45.57
333.84	35.33
334.053	-11.78
334.265	18.94
334.478	20.99
334.691	74.24
334.903	100.86
335.116	82.43
335.329	47.62
335.541	18.94
335.754	51.71
335.966	12.8
336.179	78.33
336.392	47.62
336.604	-5.63
336.817	143.87
337.029	49.66
337.242	82.43
337.454	61.95
337.667	-34.3
337.88	102.91
338.092	64
338.305	64
338.517	-22.02
338.729	113.15
338.942	90.62
339.154	55.81
339.367	-5.63
339.579	-32.26
339.792	35.33
340.004	45.57
340.217	6.66
340.429	90.62
340.641	51.71
340.854	-11.78
341.066	43.52
341.278	78.33
341.491	102.91
341.703	45.57
341.915	-30.21
342.128	0.51
342.34	35.33
342.552	-56.83
342.764	-34.3
342.977	-13.82
343.189	18.94
343.401	47.62
343.613	-48.64
343.826	86.53
344.038	-50.69
344.25	35.33
344.462	51.71
344.674	29.18
344.886	59.9
345.099	100.86
345.311	12.8
345.523	37.38
345.735	12.8
345.947	31.23
346.159	25.09
346.371	55.81
346.583	12.8
346.795	143.87
347.007	4.61
347.219	88.57
347.431	25.09
347.643	94.72
347.855	-7.68
348.067	70.14
348.279	-24.06
348.491	12.8
348.703	55.81
348.915	-5.63
349.127	76.29
349.339	23.04
349.551	-5.63
349.763	66.05
349.975	51.71
350.187	109.05
350.399	94.72
350.61	51.71
350.822	-7.68
351.034	96.77
351.246	12.8
351.458	74.24
351.669	70.14
351.881	70.14
352.093	68.09
352.305	113.15
352.517	39.42
352.728	158.21
352.94	-7.68
353.152	41.47
353.363	-34.3
353.575	31.23
353.787	139.77
353.999	55.81
354.21	127.49
354.422	-42.5
354.633	29.18
354.845	57.86
355.057	37.38
355.268	33.28
355.48	29.18
355.692	25.09
355.903	86.53
356.115	-42.5
356.326	-3.58
356.538	31.23
356.749	49.66
356.961	20.99
357.172	43.52
357.384	8.7
357.595	172.54
357.807	-167.42
358.018	-60.93
358.23	53.76
358.441	125.44
358.653	76.29
358.864	43.52
359.075	51.71
359.287	6.66
359.498	59.9
359.709	-17.92
359.921	-13.82
360.132	80.38
360.344	4.61
360.555	90.62
360.766	29.18
360.977	-9.73
361.189	49.66
361.4	92.67
361.611	86.53
361.823	61.95
362.034	88.57
362.245	37.38
362.456	4.61
362.667	-67.07
362.879	23.04
363.09	84.48
363.301	-36.35
363.512	64
363.723	-3.58
363.935	37.38
364.146	92.67
364.357	6.66
364.568	51.71
364.779	-42.5
364.99	137.73
365.201	-26.11
365.412	113.15
365.623	27.14
365.834	-15.87
366.045	55.81
366.256	94.72
366.467	35.33
366.678	-3.58
366.889	123.39
367.1	0.51
367.311	78.33
367.522	47.62
367.733	12.8
367.944	86.53
368.155	-32.26
368.366	18.94
368.577	61.95
368.788	41.47
368.999	41.47
369.209	55.81
369.42	80.38
369.631	160.25
369.842	66.05
370.053	23.04
370.264	4.61
370.474	23.04
370.685	84.48
370.896	14.85
371.107	113.15
371.317	-28.16
371.528	0.51
371.739	74.24
371.95	78.33
372.16	-32.26
372.371	-24.06
372.582	8.7
372.792	-28.16
373.003	70.14
373.214	74.24
373.424	49.66
373.635	-54.78
373.846	84.48
374.056	96.77
374.267	25.09
374.477	39.42
374.688	74.24
374.898	68.09
375.109	10.75
375.319	84.48
375.53	96.77
375.74	14.85
375.951	37.38
376.161	102.91
376.372	141.82
376.582	-15.87
376.793	29.18
377.003	2.56
377.214	2.56
377.424	33.28
377.635	61.95
377.845	-56.83
378.055	80.38
378.266	-1.54
378.476	78.33
378.686	12.8
378.897	74.24
379.107	27.14
379.317	0.51
379.528	31.23
379.738	80.38
379.948	-11.78
380.158	86.53
380.369	51.71
380.579	45.57
380.789	0.51
380.999	35.33
381.21	86.53
381.42	107.01
381.63	49.66
381.84	14.85
382.05	100.86
382.261	88.57
382.471	74.24
382.681	55.81
382.891	96.77
383.101	80.38
383.311	-83.45
383.521	-34.3
383.731	80.38
383.941	94.72
384.151	31.23
384.361	-15.87
384.571	72.19
384.781	61.95
384.991	162.3
385.201	143.87
385.411	66.05
385.621	64
385.831	64
386.041	-1.54
386.251	-1.54
386.461	86.53
386.671	20.99
386.881	59.9
387.091	25.09
387.301	100.86
387.511	59.9
387.72	33.28
387.93	35.33
388.14	76.29
388.35	43.52
388.56	129.53
388.769	133.63
388.979	12.8
389.189	8.7
389.399	29.18
389.609	41.47
389.818	92.67
390.028	80.38
390.238	72.19
390.447	8.7
390.657	68.09
390.867	72.19
391.076	61.95
391.286	49.66
391.496	51.71
391.705	115.2
391.915	115.2
392.125	109.05
392.334	8.7
392.544	25.09
392.753	18.94
392.963	6.66
393.172	-17.92
393.382	-3.58
393.591	84.48
393.801	39.42
394.01	115.2
394.22	64
394.429	94.72
394.639	-24.06
394.848	78.33
395.058	72.19
395.267	51.71
395.477	55.81
395.686	74.24
395.895	98.81
396.105	190.97
396.314	6.66
396.524	94.72
396.733	14.85
396.942	129.53
397.152	121.34
397.361	145.92
397.57	53.76
397.78	66.05
397.989	115.2
398.198	113.15
398.407	-9.73
398.617	107.01
398.826	10.75
399.035	107.01
399.244	66.05
399.453	84.48
399.663	160.25
399.872	127.49
400.081	8.7
400.29	84.48
400.499	-26.11
400.708	123.39
400.917	84.48
401.127	10.75
401.336	86.53
401.545	195.07
401.754	49.66
401.963	102.91
402.172	57.86
402.381	43.52
402.59	125.44
402.799	84.48
403.008	96.77
403.217	115.2
403.426	90.62
403.635	27.14
403.844	111.1
404.053	57.86
404.262	104.96
404.471	215.55
404.68	129.53
404.888	88.57
405.097	94.72
405.306	80.38
405.515	139.77
405.724	152.06
405.933	98.81
406.142	139.77
406.35	188.93
406.559	80.38
406.768	90.62
406.977	160.25
407.185	90.62
407.394	90.62
407.603	90.62
407.812	180.73
408.02	184.83
408.229	90.62
408.438	217.6
408.646	127.49
408.855	117.25
409.064	184.83
409.272	145.92
409.481	193.02
409.69	131.58
409.898	137.73
410.107	227.84
410.315	258.56
410.524	219.64
410.733	238.08
410.941	268.8
411.15	238.08
411.358	240.12
411.567	297.47
411.775	225.79
411.984	236.03
412.192	313.85
412.401	246.27
412.609	311.8
412.818	344.57
413.026	295.42
413.234	303.61
413.443	322.04
413.651	242.17
413.86	348.67
414.068	365.05
414.276	459.26
414.485	342.52
414.693	434.68
414.901	436.73
415.11	397.82
415.318	406.01
415.526	453.11
415.734	410.11
415.943	410.11
416.151	479.74
416.359	518.65
416.567	561.66
416.776	487.93
416.984	528.89
417.192	582.14
417.4	569.85
417.608	631.29
417.817	612.85
418.025	639.48
418.233	629.24
418.441	676.34
418.649	711.16
418.857	776.69
419.065	799.22
419.273	731.64
419.481	715.25
419.689	829.94
419.897	821.75
420.105	782.84
420.313	860.66
420.521	987.63
420.729	1008.11
420.937	979.44
421.145	913.91
421.353	1075.7
421.561	1110.51
421.769	1139.18
421.977	1161.71
422.185	1229.29
422.393	1194.48
422.601	1292.78
422.809	1282.54
423.017	1280.49
423.224	1309.16
423.432	1356.27
423.64	1415.66
423.848	1493.48
424.056	1579.5
424.263	1614.31
424.471	1610.22
424.679	1622.5
424.887	1718.76
425.094	1823.2
425.302	1790.44
425.51	1780.2
425.718	1944.03
425.925	1894.88
426.133	2021.86
426.341	2191.84
426.548	2169.31
426.756	2185.69
426.964	2222.56
427.171	2335.2
427.379	2343.39
427.586	2423.26
427.794	2515.42
428.001	2626.01
428.209	2808.28
428.417	2599.38
428.624	2904.53
428.832	2949.59
429.039	2808.28
429.247	2836.95
429.454	3119.57
429.662	3340.75
429.869	3156.43
430.076	3471.82
430.284	3166.67
430.491	3369.42
430.699	3537.35
430.906	3516.87
431.114	3762.63
431.321	3895.75
431.528	3867.08
431.736	4125.12
431.943	4194.75
432.15	4147.65
432.358	4207.04
432.565	4436.41
432.772	4274.62
432.979	4768.18
433.187	4633.02
433.394	4735.42
433.601	5054.9
433.808	5058.99
434.016	5110.19
434.223	5394.86
434.43	5554.6
434.637	5552.56
434.844	5935.53
435.052	5992.87
435.259	5956.01
435.466	6005.16
435.673	5894.57
435.88	6216.1
436.087	6666.65
436.294	6496.67
436.501	6412.7
436.708	6496.67
436.915	6797.72
437.122	7231.89
437.329	7092.63
437.537	7203.22
437.743	7281.04
437.95	7238.03
438.157	7827.85
438.364	7774.6
438.571	7920.01
438.778	7885.19
438.985	8647.04
439.192	8331.65
439.399	8569.21
439.606	8563.07
439.813	8962.42
440.02	9513.33
440.227	9286
440.433	9189.75
440.64	9591.15
440.847	9537.9
441.054	9660.78
441.261	10434.91
441.467	10058.09
441.674	10383.71
441.881	10574.17
442.088	10748.25
442.294	10668.38
442.501	11034.97
442.708	11438.42
442.914	11483.47
443.121	11827.53
443.328	11637.07
443.534	12302.66
443.741	12280.13
443.948	11909.45
444.154	12861.76
444.361	12714.3
444.568	12822.84
444.774	12908.86
444.981	13021.5
445.187	13324.6
445.394	13895.98
445.6	13797.68
445.807	14915.87
446.013	14399.78
446.22	14807.33
446.426	15345.94
446.633	15603.99
446.839	16201.99
447.046	15479.06
447.252	16060.68
447.459	16267.53
447.665	16249.1
447.871	16791.81
448.078	17592.56
448.284	16640.26
448.491	17084.67
448.697	17744.11
448.903	18211.05
449.11	18247.91
449.316	17797.36
449.522	18309.35
449.728	18448.61
449.935	19026.14
450.141	18659.56
450.347	19173.6
450.553	18864.35
450.76	18983.13
450.966	19558.61
451.172	19337.43
451.378	19491.03
451.584	19427.54
451.791	20019.41
451.997	19839.19
452.203	20007.12
452.409	20162.76
452.615	20130
452.821	19343.58
453.027	19091.68
453.233	20084.94
453.44	19558.61
453.646	19638.48
453.852	19767.51
454.058	19906.77
454.264	19198.17
454.47	19622.1
454.676	19302.62
454.882	19806.42
455.088	18311.4
455.294	18276.59
455.5	18739.43
455.705	19198.17
455.911	18149.61
456.117	17891.57
456.323	17578.23
456.529	16752.9
456.735	17395.96
456.941	16681.22
457.147	16879.87
457.352	16347.4
457.558	16148.75
457.764	16009.48
457.97	15946
458.176	15368.47
458.381	15388.95
458.587	14518.56
458.793	14797.09
458.999	13844.78
459.204	14858.53
459.41	14539.04
459.616	13607.22
459.821	13611.31
460.027	13248.82
460.233	13134.14
460.438	12566.85
460.644	12519.74
460.85	12069.19
461.055	12081.48
461.261	11944.27
461.466	11125.08
461.672	10563.93
461.878	11303.25
462.083	10641.76
462.289	10389.86
462.494	10266.98
462.7	9783.66
462.905	9552.24
463.111	10006.89
463.316	10131.81
463.522	9773.42
463.727	9802.09
463.932	9716.08
464.138	9585.01
464.343	9625.97
464.549	9113.97
464.754	9617.77
464.959	9539.95
465.165	9636.2
465.37	9044.34
465.575	8917.37
465.781	9185.65
465.986	9412.98
466.191	8825.21
466.397	8782.2
466.602	8237.44
466.807	8634.75
467.012	8597.88
467.218	8466.81
467.423	8546.69
467.628	8489.34
467.833	8819.07
468.038	8573.31
468.244	8145.28
468.449	8569.21
468.654	8282.5
