Data from USB4F104151__46__12-12-13-655.txt Node

Date: Fri Mar 14 12:12:13 EDT 2025
User: louis
Spectrometer: USB4F10415
Trigger mode: 4
Integration Time (sec): 5.000000E-2
Scans to average: 1
Electric dark correction enabled: true
Nonlinearity correction enabled: false
Boxcar width: 0
XAxis mode: Wavelengths
Number of Pixels in Spectrum: 3648
>>>>>Begin Spectral Data<<<<<
178.204	-203.94
178.424	-203.94
178.644	-203.94
178.864	-263.33
179.084	-226.47
179.304	23.38
179.524	19.29
179.744	4.95
179.964	-1.19
180.184	-29.87
180.404	-13.48
180.624	11.09
180.844	-3.24
181.064	-42.15
181.283	-9.39
181.503	-29.87
181.723	70.48
181.943	37.72
182.163	86.87
182.383	52.05
182.602	84.82
182.822	13.14
183.042	11.09
183.262	31.57
183.482	23.38
183.701	70.48
183.921	74.58
184.141	-17.58
184.361	115.54
184.58	17.24
184.8	45.91
185.02	7
185.239	47.96
185.459	7
185.679	88.92
185.898	-46.25
186.118	43.86
186.338	25.43
186.557	52.05
186.777	47.96
186.997	-29.87
187.216	-23.72
187.436	133.97
187.655	39.76
187.875	13.14
188.095	27.48
188.314	166.74
188.534	15.19
188.753	0.85
188.973	47.96
189.192	56.15
189.412	17.24
189.631	138.07
189.851	158.55
190.07	29.52
190.29	0.85
190.509	7
190.729	13.14
190.948	95.06
191.168	197.46
191.387	31.57
191.607	19.29
191.826	19.29
192.045	62.29
192.265	7
192.484	99.16
192.704	-23.72
192.923	0.85
193.142	80.72
193.362	60.24
193.581	62.29
193.8	41.81
194.02	52.05
194.239	9.05
194.458	31.57
194.678	35.67
194.897	-15.53
195.116	45.91
195.335	52.05
195.555	78.68
195.774	41.81
195.993	72.53
196.212	-17.58
196.432	64.34
196.651	-7.34
196.87	50
197.089	191.31
197.308	125.78
197.528	47.96
197.747	-27.82
197.966	25.43
198.185	80.72
198.404	52.05
198.623	72.53
198.842	58.2
199.062	82.77
199.281	131.92
199.5	-93.35
199.719	80.72
199.938	88.92
200.157	64.34
200.376	45.91
200.595	52.05
200.814	43.86
201.033	-15.53
201.252	127.83
201.471	23.38
201.69	56.15
201.909	74.58
202.128	43.86
202.347	33.62
202.566	60.24
202.785	0.85
203.004	39.76
203.223	101.2
203.442	54.1
203.661	7
203.879	-5.29
204.098	109.4
204.317	-11.43
204.536	25.43
204.755	76.63
204.974	103.25
205.193	29.52
205.411	152.4
205.63	7
205.849	70.48
206.068	13.14
206.287	35.67
206.505	60.24
206.724	78.68
206.943	70.48
207.162	2.9
207.381	31.57
207.599	17.24
207.818	43.86
208.037	-31.91
208.255	64.34
208.474	62.29
208.693	78.68
208.911	-9.39
209.13	78.68
209.349	-1.19
209.567	84.82
209.786	105.3
210.005	84.82
210.223	23.38
210.442	-64.68
210.661	4.95
210.879	47.96
211.098	33.62
211.316	27.48
211.535	39.76
211.753	2.9
211.972	113.49
212.191	72.53
212.409	54.1
212.628	74.58
212.846	39.76
213.065	17.24
213.283	56.15
213.502	47.96
213.72	66.39
213.938	88.92
214.157	4.95
214.375	105.3
214.594	70.48
214.812	52.05
215.031	35.67
215.249	4.95
215.467	35.67
215.686	50
215.904	35.67
216.122	-50.35
216.341	113.49
216.559	11.09
216.778	23.38
216.996	17.24
217.214	52.05
217.432	-29.87
217.651	29.52
217.869	2.9
218.087	-15.53
218.306	-9.39
218.524	25.43
218.742	-40.11
218.96	45.91
219.179	35.67
219.397	-1.19
219.615	148.31
219.833	70.48
220.051	43.86
220.27	56.15
220.488	74.58
220.706	23.38
220.924	-36.01
221.142	39.76
221.36	13.14
221.578	72.53
221.796	50
222.015	23.38
222.233	47.96
222.451	93.01
222.669	9.05
222.887	123.73
223.105	-21.67
223.323	88.92
223.541	-1.19
223.759	31.57
223.977	33.62
224.195	62.29
224.413	121.68
224.631	-9.39
224.849	78.68
225.067	93.01
225.285	117.59
225.503	74.58
225.721	7
225.939	80.72
226.157	72.53
226.375	207.7
226.592	-50.35
226.81	4.95
227.028	82.77
227.246	127.83
227.464	101.2
227.682	103.25
227.9	62.29
228.117	43.86
228.335	-19.63
228.553	9.05
228.771	56.15
228.989	64.34
229.206	33.62
229.424	-15.53
229.642	25.43
229.86	27.48
230.077	21.33
230.295	60.24
230.513	58.2
230.731	109.4
230.948	181.07
231.166	78.68
231.384	31.57
231.601	-5.29
231.819	142.16
232.037	37.72
232.254	9.05
232.472	41.81
232.689	-5.29
232.907	86.87
233.125	11.09
233.342	-33.96
233.56	-27.82
233.777	39.76
233.995	-1.19
234.213	93.01
234.43	68.44
234.648	-1.19
234.865	-7.34
235.083	113.49
235.3	39.76
235.518	35.67
235.735	113.49
235.953	131.92
236.17	41.81
236.388	64.34
236.605	-27.82
236.822	123.73
237.04	54.1
237.257	47.96
237.475	15.19
237.692	-27.82
237.909	97.11
238.127	72.53
238.344	66.39
238.562	2.9
238.779	-19.63
238.996	-9.39
239.214	25.43
239.431	58.2
239.648	-40.11
239.865	72.53
240.083	13.14
240.3	11.09
240.517	-7.34
240.735	2.9
240.952	119.64
241.169	99.16
241.386	62.29
241.603	27.48
241.821	23.38
242.038	45.91
242.255	54.1
242.472	-50.35
242.689	31.57
242.907	82.77
243.124	76.63
243.341	4.95
243.558	56.15
243.775	74.58
243.992	-83.11
244.209	29.52
244.426	121.68
244.643	103.25
244.86	-23.72
245.078	43.86
245.295	103.25
245.512	47.96
245.729	27.48
245.946	21.33
246.163	76.63
246.38	29.52
246.597	31.57
246.814	2.9
247.031	17.24
247.248	7
247.464	60.24
247.681	33.62
247.898	78.68
248.115	4.95
248.332	47.96
248.549	43.86
248.766	84.82
248.983	78.68
249.2	68.44
249.417	50
249.633	-23.72
249.85	17.24
250.067	-9.39
250.284	45.91
250.501	21.33
250.717	107.35
250.934	-25.77
251.151	80.72
251.368	88.92
251.585	138.07
251.801	39.76
252.018	-13.48
252.235	64.34
252.451	52.05
252.668	33.62
252.885	86.87
253.102	66.39
253.318	-7.34
253.535	-15.53
253.752	27.48
253.968	-21.67
254.185	-27.82
254.401	0.85
254.618	31.57
254.835	43.86
255.051	111.44
255.268	27.48
255.484	-13.48
255.701	111.44
255.917	88.92
256.134	15.19
256.351	-7.34
256.567	0.85
256.784	86.87
257	-36.01
257.217	97.11
257.433	45.91
257.65	68.44
257.866	121.68
258.082	-95.4
258.299	-19.63
258.515	19.29
258.732	-29.87
258.948	-3.24
259.165	2.9
259.381	0.85
259.597	66.39
259.814	97.11
260.03	9.05
260.246	72.53
260.463	35.67
260.679	62.29
260.895	-1.19
261.112	15.19
261.328	74.58
261.544	2.9
261.761	119.64
261.977	-27.82
262.193	-29.87
262.409	54.1
262.626	74.58
262.842	2.9
263.058	60.24
263.274	60.24
263.49	58.2
263.707	35.67
263.923	43.86
264.139	-19.63
264.355	15.19
264.571	158.55
264.787	41.81
265.004	23.38
265.22	23.38
265.436	111.44
265.652	43.86
265.868	-40.11
266.084	-31.91
266.3	58.2
266.516	-13.48
266.732	11.09
266.948	50
267.164	-36.01
267.38	123.73
267.596	11.09
267.812	140.12
268.028	111.44
268.244	-1.19
268.46	-50.35
268.676	4.95
268.892	21.33
269.108	7
269.324	-66.73
269.54	-17.58
269.756	35.67
269.972	-56.49
270.188	88.92
270.403	-1.19
270.619	56.15
270.835	58.2
271.051	84.82
271.267	17.24
271.483	-48.3
271.698	99.16
271.914	19.29
272.13	29.52
272.346	17.24
272.562	-7.34
272.777	76.63
272.993	31.57
273.209	39.76
273.425	133.97
273.64	13.14
273.856	0.85
274.072	7
274.287	0.85
274.503	86.87
274.719	31.57
274.934	9.05
275.15	-25.77
275.366	66.39
275.581	17.24
275.797	27.48
276.012	50
276.228	0.85
276.444	101.2
276.659	103.25
276.875	-21.67
277.09	0.85
277.306	31.57
277.521	54.1
277.737	56.15
277.952	41.81
278.168	-15.53
278.383	7
278.599	41.81
278.814	72.53
279.03	0.85
279.245	41.81
279.461	62.29
279.676	43.86
279.892	23.38
280.107	-9.39
280.322	-91.31
280.538	90.96
280.753	-64.68
280.969	86.87
281.184	2.9
281.399	88.92
281.615	72.53
281.83	86.87
282.045	-52.39
282.26	2.9
282.476	7
282.691	41.81
282.906	74.58
283.122	47.96
283.337	17.24
283.552	45.91
283.767	-66.73
283.983	54.1
284.198	-9.39
284.413	15.19
284.628	-50.35
284.843	66.39
285.058	62.29
285.274	-36.01
285.489	-58.54
285.704	2.9
285.919	13.14
286.134	33.62
286.349	93.01
286.564	-33.96
286.779	107.35
286.995	21.33
287.21	-85.16
287.425	60.24
287.64	43.86
287.855	97.11
288.07	-9.39
288.285	80.72
288.5	25.43
288.715	99.16
288.93	41.81
289.145	15.19
289.36	-1.19
289.575	-68.78
289.79	80.72
290.004	41.81
290.219	82.77
290.434	37.72
290.649	2.9
290.864	-9.39
291.079	35.67
291.294	97.11
291.509	52.05
291.724	-29.87
291.938	-50.35
292.153	119.64
292.368	23.38
292.583	64.34
292.798	27.48
293.012	-13.48
293.227	72.53
293.442	-3.24
293.657	17.24
293.871	43.86
294.086	64.34
294.301	127.83
294.516	86.87
294.73	93.01
294.945	23.38
295.16	-31.91
295.374	119.64
295.589	95.06
295.804	64.34
296.018	101.2
296.233	144.21
296.447	29.52
296.662	64.34
296.877	115.54
297.091	72.53
297.306	15.19
297.52	74.58
297.735	97.11
297.949	23.38
298.164	113.49
298.378	29.52
298.593	4.95
298.807	-40.11
299.022	72.53
299.236	70.48
299.451	-44.2
299.665	52.05
299.88	37.72
300.094	17.24
300.309	43.86
300.523	0.85
300.737	39.76
300.952	105.3
301.166	47.96
301.381	41.81
301.595	58.2
301.809	21.33
302.024	31.57
302.238	-50.35
302.452	107.35
302.667	-50.35
302.881	76.63
303.095	105.3
303.309	62.29
303.524	-36.01
303.738	54.1
303.952	4.95
304.166	82.77
304.381	-52.39
304.595	95.06
304.809	33.62
305.023	99.16
305.237	-27.82
305.452	47.96
305.666	25.43
305.88	76.63
306.094	58.2
306.308	105.3
306.522	45.91
306.736	66.39
306.95	64.34
307.164	52.05
307.379	-38.06
307.593	121.68
307.807	39.76
308.021	64.34
308.235	74.58
308.449	-119.98
308.663	43.86
308.877	201.55
309.091	39.76
309.305	54.1
309.519	-40.11
309.733	7
309.947	-46.25
310.161	9.05
310.374	70.48
310.588	164.69
310.802	-1.19
311.016	54.1
311.23	70.48
311.444	56.15
311.658	13.14
311.872	47.96
312.085	111.44
312.299	127.83
312.513	84.82
312.727	111.44
312.941	31.57
313.154	-11.43
313.368	121.68
313.582	66.39
313.796	7
314.009	11.09
314.223	113.49
314.437	41.81
314.651	99.16
314.864	-27.82
315.078	-15.53
315.292	9.05
315.505	-19.63
315.719	39.76
315.933	31.57
316.146	54.1
316.36	-23.72
316.573	86.87
316.787	78.68
317.001	187.22
317.214	-31.91
317.428	-13.48
317.641	-42.15
317.855	9.05
318.068	11.09
318.282	17.24
318.495	93.01
318.709	88.92
318.922	146.26
319.136	15.19
319.349	60.24
319.563	27.48
319.776	47.96
319.99	19.29
320.203	168.79
320.417	35.67
320.63	97.11
320.843	181.07
321.057	45.91
321.27	50
321.483	101.2
321.697	82.77
321.91	29.52
322.124	39.76
322.337	47.96
322.55	-48.3
322.763	13.14
322.977	64.34
323.19	15.19
323.403	43.86
323.617	-3.24
323.83	105.3
324.043	47.96
324.256	7
324.469	-7.34
324.683	56.15
324.896	64.34
325.109	66.39
325.322	-31.91
325.535	138.07
325.748	123.73
325.962	54.1
326.175	138.07
326.388	31.57
326.601	138.07
326.814	80.72
327.027	60.24
327.24	185.17
327.453	-17.58
327.666	72.53
327.879	109.4
328.092	13.14
328.305	45.91
328.518	50
328.731	-17.58
328.944	4.95
329.157	54.1
329.37	-7.34
329.583	84.82
329.796	66.39
330.009	9.05
330.222	105.3
330.435	82.77
330.648	29.52
330.861	37.72
331.073	13.14
331.286	103.25
331.499	-1.19
331.712	-5.29
331.925	47.96
332.138	37.72
332.35	109.4
332.563	-3.24
332.776	72.53
332.989	-13.48
333.202	52.05
333.414	-5.29
333.627	90.96
333.84	-11.43
334.053	62.29
334.265	84.82
334.478	105.3
334.691	39.76
334.903	111.44
335.116	2.9
335.329	88.92
335.541	58.2
335.754	78.68
335.966	58.2
336.179	29.52
336.392	-13.48
336.604	-19.63
336.817	70.48
337.029	43.86
337.242	80.72
337.454	54.1
337.667	62.29
337.88	66.39
338.092	27.48
338.305	107.35
338.517	-46.25
338.729	35.67
338.942	76.63
339.154	37.72
339.367	-33.96
339.579	21.33
339.792	15.19
340.004	9.05
340.217	66.39
340.429	56.15
340.641	13.14
340.854	31.57
341.066	56.15
341.278	39.76
341.491	129.88
341.703	21.33
341.915	101.2
342.128	68.44
342.34	29.52
342.552	39.76
342.764	35.67
342.977	-5.29
343.189	7
343.401	50
343.613	-23.72
343.826	58.2
344.038	-66.73
344.25	113.49
344.462	-9.39
344.674	95.06
344.886	41.81
345.099	93.01
345.311	62.29
345.523	19.29
345.735	-101.55
345.947	0.85
346.159	64.34
346.371	74.58
346.583	39.76
346.795	164.69
347.007	-52.39
347.219	76.63
347.431	17.24
347.643	70.48
347.855	35.67
348.067	50
348.279	-19.63
348.491	111.44
348.703	52.05
348.915	-54.44
349.127	35.67
349.339	50
349.551	-17.58
349.763	133.97
349.975	99.16
350.187	60.24
350.399	129.88
350.61	43.86
350.822	78.68
351.034	90.96
351.246	88.92
351.458	62.29
351.669	56.15
351.881	52.05
352.093	33.62
352.305	64.34
352.517	70.48
352.728	74.58
352.94	45.91
353.152	107.35
353.363	-13.48
353.575	23.38
353.787	97.11
353.999	103.25
354.21	64.34
354.422	-76.97
354.633	68.44
354.845	39.76
355.057	84.82
355.268	45.91
355.48	-11.43
355.692	7
355.903	74.58
356.115	-17.58
356.326	7
356.538	97.11
356.749	76.63
356.961	131.92
357.172	101.2
357.384	-15.53
357.595	136.02
357.807	56.15
358.018	9.05
358.23	84.82
358.441	97.11
358.653	136.02
358.864	60.24
359.075	-5.29
359.287	27.48
359.498	82.77
359.709	64.34
359.921	37.72
360.132	41.81
360.344	-60.59
360.555	78.68
360.766	82.77
360.977	109.4
361.189	99.16
361.4	47.96
361.611	103.25
361.823	50
362.034	13.14
362.245	4.95
362.456	-11.43
362.667	43.86
362.879	15.19
363.09	45.91
363.301	43.86
363.512	2.9
363.723	19.29
363.935	47.96
364.146	41.81
364.357	-40.11
364.568	70.48
364.779	-11.43
364.99	131.92
365.201	-17.58
365.412	78.68
365.623	-1.19
365.834	82.77
366.045	37.72
366.256	11.09
366.467	82.77
366.678	64.34
366.889	39.76
367.1	88.92
367.311	148.31
367.522	29.52
367.733	105.3
367.944	154.45
368.155	19.29
368.366	-7.34
368.577	88.92
368.788	80.72
368.999	-7.34
369.209	11.09
369.42	172.88
369.631	195.41
369.842	138.07
370.053	76.63
370.264	74.58
370.474	-17.58
370.685	74.58
370.896	111.44
371.107	45.91
371.317	17.24
371.528	64.34
371.739	133.97
371.95	37.72
372.16	41.81
372.371	23.38
372.582	101.2
372.792	45.91
373.003	50
373.214	43.86
373.424	56.15
373.635	-46.25
373.846	27.48
374.056	47.96
374.267	76.63
374.477	111.44
374.688	31.57
374.898	86.87
375.109	129.88
375.319	-13.48
375.53	99.16
375.74	148.31
375.951	-40.11
376.161	93.01
376.372	90.96
376.582	2.9
376.793	43.86
377.003	23.38
377.214	39.76
377.424	133.97
377.635	93.01
377.845	56.15
378.055	158.55
378.266	37.72
378.476	127.83
378.686	62.29
378.897	113.49
379.107	66.39
379.317	86.87
379.528	7
379.738	117.59
379.948	11.09
380.158	62.29
380.369	52.05
380.579	127.83
380.789	43.86
380.999	95.06
381.21	47.96
381.42	138.07
381.63	115.54
381.84	152.4
382.05	43.86
382.261	97.11
382.471	43.86
382.681	78.68
382.891	99.16
383.101	111.44
383.311	56.15
383.521	80.72
383.731	117.59
383.941	21.33
384.151	33.62
384.361	47.96
384.571	129.88
384.781	103.25
384.991	105.3
385.201	121.68
385.411	78.68
385.621	74.58
385.831	50
386.041	103.25
386.251	31.57
386.461	185.17
386.671	82.77
386.881	50
387.091	11.09
387.301	111.44
387.511	74.58
387.72	56.15
387.93	66.39
388.14	-54.44
388.35	78.68
388.56	127.83
388.769	97.11
388.979	72.53
389.189	27.48
389.399	-23.72
389.609	86.87
389.818	43.86
390.028	90.96
390.238	68.44
390.447	2.9
390.657	68.44
390.867	41.81
391.076	9.05
391.286	164.69
391.496	66.39
391.705	93.01
391.915	166.74
392.125	99.16
392.334	84.82
392.544	185.17
392.753	54.1
392.963	9.05
393.172	54.1
393.382	74.58
393.591	111.44
393.801	103.25
394.01	160.59
394.22	88.92
394.429	119.64
394.639	56.15
394.848	152.4
395.058	93.01
395.267	185.17
395.477	162.64
395.686	47.96
395.895	129.88
396.105	193.36
396.314	154.45
396.524	107.35
396.733	78.68
396.942	183.12
397.152	144.21
397.361	222.03
397.57	64.34
397.78	166.74
397.989	166.74
398.198	193.36
398.407	117.59
398.617	99.16
398.826	168.79
399.035	148.31
399.244	129.88
399.453	179.03
399.663	121.68
399.872	146.26
400.081	93.01
400.29	170.83
400.499	99.16
400.708	236.37
400.917	142.16
401.127	123.73
401.336	201.55
401.545	195.41
401.754	172.88
401.963	172.88
402.172	187.22
402.381	236.37
402.59	156.5
402.799	111.44
403.008	179.03
403.217	195.41
403.426	131.92
403.635	176.98
403.844	146.26
404.053	158.55
404.262	158.55
404.471	179.03
404.68	176.98
404.888	275.28
405.097	248.66
405.306	125.78
405.515	275.28
405.724	195.41
405.933	222.03
406.142	222.03
406.35	262.99
406.559	254.8
406.768	232.27
406.977	346.96
407.185	340.82
407.394	306
407.603	303.95
407.812	267.09
408.02	392.02
408.229	371.54
408.438	332.62
408.646	299.86
408.855	324.43
409.064	420.69
409.272	322.38
409.481	478.03
409.69	400.21
409.898	400.21
410.107	549.71
410.315	455.5
410.524	392.02
410.733	549.71
410.941	453.45
411.15	547.66
411.358	545.61
411.567	586.57
411.775	637.77
411.984	523.09
412.192	656.2
412.401	609.1
412.609	783.18
412.818	676.68
413.026	731.98
413.234	682.83
413.443	660.3
413.651	787.27
413.86	852.81
414.068	906.06
414.276	947.01
414.485	867.14
414.693	901.96
414.901	1129.28
415.11	992.07
415.318	985.93
415.526	1076.04
415.734	1192.77
415.943	1217.35
416.151	1160
416.359	1194.82
416.567	1225.54
416.776	1340.22
416.984	1375.04
417.192	1430.34
417.4	1389.38
417.608	1422.14
417.817	1438.53
418.025	1610.56
418.233	1690.43
418.441	1674.04
418.649	1657.66
418.857	1807.16
419.065	1825.59
419.273	1876.79
419.481	1942.33
419.689	2024.25
419.897	2112.31
420.105	2167.6
420.313	2319.15
420.521	2304.82
420.729	2198.32
420.937	2437.94
421.145	2659.12
421.353	2720.56
421.561	2736.94
421.769	2874.15
421.977	2968.36
422.185	2999.08
422.393	3126.05
422.601	3273.51
422.809	3298.08
423.017	3275.56
423.224	3470.11
423.432	3529.5
423.64	3728.16
423.848	3990.3
424.056	3889.95
424.263	4209.43
424.471	4137.75
424.679	4252.44
424.887	4508.43
425.094	4750.09
425.302	4547.34
425.51	4829.96
425.718	4887.31
425.925	5128.97
426.133	5133.06
426.341	5487.36
426.548	5921.53
426.756	5622.53
426.964	5954.3
427.171	6165.24
427.379	6150.9
427.586	6335.22
427.794	6658.8
428.001	6978.28
428.209	7146.22
428.417	6998.76
428.624	7664.35
428.832	7682.78
429.039	7477.99
429.247	7582.43
429.454	8286.93
429.662	8737.49
429.869	8237.78
430.076	8837.84
430.284	8637.14
430.491	8964.81
430.699	9589.44
430.906	9327.3
431.114	9566.92
431.321	9829.06
431.528	10078.91
431.736	10812.08
431.943	11135.66
432.15	10754.74
432.358	11119.28
432.565	11332.26
432.772	11696.8
432.979	12296.86
433.187	12216.99
433.394	12376.73
433.601	13001.36
433.808	13333.13
434.016	13140.62
434.223	13640.33
434.43	14568.06
434.637	14062.21
434.844	15080.05
435.052	15315.56
435.259	15284.84
435.466	15397.48
435.673	15444.59
435.88	16073.31
436.087	17103.44
436.294	16945.75
436.501	16859.73
436.708	16941.65
436.915	17748.55
437.122	18158.14
437.329	17898.05
437.537	18842.17
437.743	19391.02
437.95	18901.56
438.157	19931.69
438.364	20533.79
438.571	20793.88
438.778	20834.84
438.985	22610.43
439.192	21654.03
439.399	22530.56
439.606	21797.38
439.813	23222.77
440.02	24664.54
440.227	23925.22
440.433	23683.56
440.64	24693.21
440.847	24500.7
441.054	25145.81
441.261	26614.21
441.467	26378.69
441.674	27251.13
441.881	27896.24
442.088	27693.49
442.294	27234.74
442.501	27998.63
442.708	28854.69
442.914	29702.54
443.121	31060.35
443.328	30308.74
443.534	32375.14
443.741	31388.02
443.948	31089.02
444.154	33120.6
444.361	33104.22
444.568	32985.44
444.774	33352.02
444.981	33288.54
445.187	34449.74
445.394	36028.72
445.6	35465.53
445.807	38899.97
446.013	37105.95
446.22	37497.11
446.426	38959.36
446.633	39278.85
446.839	40681.7
447.046	39031.04
447.252	40995.04
447.459	41255.14
447.665	41158.88
447.871	42901.7
448.078	44462.25
448.284	42553.55
448.491	43557.05
448.697	45338.79
448.903	46190.74
449.11	46112.92
449.316	45330.59
449.522	46309.52
449.728	47407.23
449.935	47208.58
450.141	47861.88
450.347	48824.43
450.553	47007.88
450.76	47526.02
450.966	48844.91
451.172	48562.29
451.378	49334.37
451.584	48781.42
451.791	50055.26
451.997	49743.97
452.203	50147.42
452.409	50563.15
452.615	49977.43
452.821	48066.68
453.027	47460.48
453.233	50190.42
453.44	48246.9
453.646	48748.65
453.852	48853.1
454.058	49721.44
454.264	47954.04
454.47	48754.8
454.676	48035.96
454.882	49633.38
455.088	44939.43
455.294	45875.35
455.5	46581.9
455.705	46909.58
455.911	44976.3
456.117	44730.54
456.323	43731.13
456.529	41359.58
456.735	43049.16
456.941	42143.95
457.147	41470.17
457.352	40009.97
457.558	39631.1
457.764	39860.47
457.97	38762.76
458.176	38156.56
458.381	38148.37
458.587	35989.81
458.793	35846.45
458.999	34265.42
459.204	36546.86
459.41	35596.6
459.616	33454.42
459.821	33304.92
460.027	33405.27
460.233	32455.01
460.438	30675.33
460.644	31330.68
460.85	29692.3
461.055	29153.69
461.261	29192.6
461.466	26894.78
461.672	26208.71
461.878	28129.7
462.083	26059.21
462.289	25524.69
462.494	25250.26
462.7	24373.73
462.905	23056.89
463.111	24592.86
463.316	24283.62
463.522	23728.62
463.727	23998.95
463.932	24039.91
464.138	23489.01
464.343	23581.17
464.549	22833.66
464.754	23636.46
464.959	23566.83
465.165	23149.04
465.37	22022.66
465.575	21651.98
465.781	22528.51
465.986	22366.72
466.191	21877.26
466.397	21418.51
466.602	20279.84
466.807	21148.18
467.012	21232.15
