Data from USB4F104151__3__12-11-10-913.txt Node

Date: Fri Mar 14 12:11:10 EDT 2025
User: louis
Spectrometer: USB4F10415
Trigger mode: 4
Integration Time (sec): 5.000000E-2
Scans to average: 1
Electric dark correction enabled: true
Nonlinearity correction enabled: false
Boxcar width: 0
XAxis mode: Wavelengths
Number of Pixels in Spectrum: 3648
>>>>>Begin Spectral Data<<<<<
178.204	-204.28
178.424	-204.28
178.644	-204.28
178.864	-226.81
179.084	-196.09
179.304	10.75
179.524	-11.78
179.744	-9.73
179.964	33.28
180.184	6.66
180.404	-15.87
180.624	39.42
180.844	-15.87
181.064	-89.6
181.283	23.04
181.503	27.14
181.723	2.56
181.943	-7.68
182.163	143.87
182.383	-15.87
182.602	57.86
182.822	90.62
183.042	84.48
183.262	-5.63
183.482	41.47
183.701	16.9
183.921	-42.5
184.141	-22.02
184.361	-1.54
184.58	94.72
184.8	-5.63
185.02	2.56
185.239	115.2
185.459	41.47
185.679	45.57
185.898	-32.26
186.118	51.71
186.338	18.94
186.557	-7.68
186.777	-54.78
186.997	27.14
187.216	100.86
187.436	70.14
187.655	107.01
187.875	100.86
188.095	23.04
188.314	100.86
188.534	41.47
188.753	33.28
188.973	88.57
189.192	27.14
189.412	66.05
189.631	92.67
189.851	82.43
190.07	92.67
190.29	-46.59
190.509	-11.78
190.729	41.47
190.948	78.33
191.168	215.55
191.387	127.49
191.607	25.09
191.826	6.66
192.045	53.76
192.265	-62.98
192.484	51.71
192.704	14.85
192.923	-3.58
193.142	184.83
193.362	31.23
193.581	137.73
193.8	53.76
194.02	96.77
194.239	92.67
194.458	51.71
194.678	53.76
194.897	35.33
195.116	100.86
195.335	59.9
195.555	53.76
195.774	43.52
195.993	68.09
196.212	80.38
196.432	-24.06
196.651	-5.63
196.87	25.09
197.089	137.73
197.308	41.47
197.528	45.57
197.747	-24.06
197.966	74.24
198.185	115.2
198.404	20.99
198.623	117.25
198.842	92.67
199.062	100.86
199.281	80.38
199.5	68.09
199.719	111.1
199.938	88.57
200.157	68.09
200.376	27.14
200.595	70.14
200.814	25.09
201.033	31.23
201.252	135.68
201.471	0.51
201.69	76.29
201.909	53.76
202.128	66.05
202.347	109.05
202.566	-24.06
202.785	-46.59
203.004	16.9
203.223	82.43
203.442	55.81
203.661	23.04
203.879	51.71
204.098	104.96
204.317	-17.92
204.536	90.62
204.755	88.57
204.974	113.15
205.193	-9.73
205.411	143.87
205.63	33.28
205.849	98.81
206.068	92.67
206.287	2.56
206.505	90.62
206.724	33.28
206.943	72.19
207.162	0.51
207.381	51.71
207.599	8.7
207.818	74.24
208.037	-19.97
208.255	107.01
208.474	35.33
208.693	25.09
208.911	51.71
209.13	41.47
209.349	45.57
209.567	121.34
209.786	82.43
210.005	23.04
210.223	16.9
210.442	37.38
210.661	66.05
210.879	78.33
211.098	72.19
211.316	74.24
211.535	131.58
211.753	23.04
211.972	90.62
212.191	20.99
212.409	96.77
212.628	10.75
212.846	43.52
213.065	55.81
213.283	68.09
213.502	72.19
213.72	41.47
213.938	113.15
214.157	-7.68
214.375	55.81
214.594	111.1
214.812	127.49
215.031	80.38
215.249	37.38
215.467	76.29
215.686	8.7
215.904	57.86
216.122	47.62
216.341	45.57
216.559	55.81
216.778	68.09
216.996	27.14
217.214	29.18
217.432	-15.87
217.651	-32.26
217.869	115.2
218.087	6.66
218.306	-15.87
218.524	0.51
218.742	29.18
218.96	68.09
219.179	-5.63
219.397	66.05
219.615	180.73
219.833	61.95
220.051	-13.82
220.27	98.81
220.488	23.04
220.706	-22.02
220.924	20.99
221.142	74.24
221.36	96.77
221.578	53.76
221.796	80.38
222.015	88.57
222.233	55.81
222.451	31.23
222.669	49.66
222.887	125.44
223.105	-7.68
223.323	-58.88
223.541	43.52
223.759	135.68
223.977	45.57
224.195	51.71
224.413	133.63
224.631	23.04
224.849	88.57
225.067	109.05
225.285	39.42
225.503	70.14
225.721	-48.64
225.939	59.9
226.157	57.86
226.375	182.78
226.592	-9.73
226.81	16.9
227.028	66.05
227.246	123.39
227.464	64
227.682	100.86
227.9	45.57
228.117	-44.54
228.335	66.05
228.553	-26.11
228.771	92.67
228.989	141.82
229.206	88.57
229.424	-58.88
229.642	25.09
229.86	-52.74
230.077	90.62
230.295	135.68
230.513	49.66
230.731	121.34
230.948	131.58
231.166	186.88
231.384	31.23
231.601	70.14
231.819	45.57
232.037	82.43
232.254	8.7
232.472	-3.58
232.689	23.04
232.907	45.57
233.125	20.99
233.342	25.09
233.56	-17.92
233.777	51.71
233.995	78.33
234.213	127.49
234.43	117.25
234.648	61.95
234.865	43.52
235.083	72.19
235.3	59.9
235.518	76.29
235.735	104.96
235.953	72.19
236.17	12.8
236.388	59.9
236.605	33.28
236.822	78.33
237.04	59.9
237.257	92.67
237.475	43.52
237.692	70.14
237.909	74.24
238.127	78.33
238.344	29.18
238.562	82.43
238.779	-32.26
238.996	35.33
239.214	-7.68
239.431	57.86
239.648	66.05
239.865	133.63
240.083	45.57
240.3	70.14
240.517	6.66
240.735	55.81
240.952	88.57
241.169	104.96
241.386	59.9
241.603	14.85
241.821	18.94
242.038	158.21
242.255	49.66
242.472	-22.02
242.689	94.72
242.907	154.11
243.124	4.61
243.341	20.99
243.558	0.51
243.775	-30.21
243.992	-13.82
244.209	6.66
244.426	154.11
244.643	111.1
244.86	96.77
245.078	72.19
245.295	158.21
245.512	2.56
245.729	-19.97
245.946	64
246.163	74.24
246.38	31.23
246.597	53.76
246.814	39.42
247.031	0.51
247.248	82.43
247.464	0.51
247.681	51.71
247.898	43.52
248.115	47.62
248.332	25.09
248.549	88.57
248.766	125.44
248.983	94.72
249.2	18.94
249.417	139.77
249.633	0.51
249.85	14.85
250.067	-34.3
250.284	33.28
250.501	90.62
250.717	98.81
250.934	-5.63
251.151	20.99
251.368	90.62
251.585	72.19
251.801	37.38
252.018	51.71
252.235	39.42
252.451	-17.92
252.668	55.81
252.885	90.62
253.102	74.24
253.318	117.25
253.535	35.33
253.752	-9.73
253.968	-1.54
254.185	-22.02
254.401	25.09
254.618	31.23
254.835	-19.97
255.051	55.81
255.268	45.57
255.484	51.71
255.701	-32.26
255.917	12.8
256.134	31.23
256.351	86.53
256.567	-28.16
256.784	55.81
257	-50.69
257.217	61.95
257.433	117.25
257.65	84.48
257.866	78.33
258.082	0.51
258.299	35.33
258.515	88.57
258.732	14.85
258.948	41.47
259.165	4.61
259.381	8.7
259.597	59.9
259.814	113.15
260.03	35.33
260.246	64
260.463	139.77
260.679	107.01
260.895	20.99
261.112	74.24
261.328	100.86
261.544	-26.11
261.761	158.21
261.977	49.66
262.193	-15.87
262.409	20.99
262.626	119.29
262.842	-22.02
263.058	51.71
263.274	90.62
263.49	119.29
263.707	133.63
263.923	61.95
264.139	-5.63
264.355	74.24
264.571	88.57
264.787	64
265.004	113.15
265.22	33.28
265.436	82.43
265.652	74.24
265.868	43.52
266.084	12.8
266.3	68.09
266.516	-69.12
266.732	78.33
266.948	72.19
267.164	16.9
267.38	92.67
267.596	39.42
267.812	145.92
268.028	25.09
268.244	-71.17
268.46	127.49
268.676	104.96
268.892	76.29
269.108	-5.63
269.324	-15.87
269.54	-83.45
269.756	104.96
269.972	-11.78
270.188	53.76
270.403	72.19
270.619	12.8
270.835	35.33
271.051	-40.45
271.267	72.19
271.483	23.04
271.698	-5.63
271.914	39.42
272.13	66.05
272.346	59.9
272.562	57.86
272.777	178.69
272.993	37.38
273.209	64
273.425	59.9
273.64	47.62
273.856	20.99
274.072	33.28
274.287	20.99
274.503	119.29
274.719	94.72
274.934	49.66
275.15	2.56
275.366	12.8
275.581	20.99
275.797	49.66
276.012	25.09
276.228	-28.16
276.444	64
276.659	84.48
276.875	-28.16
277.09	47.62
277.306	-13.82
277.521	68.09
277.737	41.47
277.952	84.48
278.168	57.86
278.383	98.81
278.599	20.99
278.814	43.52
279.03	86.53
279.245	90.62
279.461	78.33
279.676	104.96
279.892	-17.92
280.107	2.56
280.322	-5.63
280.538	35.33
280.753	74.24
280.969	51.71
281.184	49.66
281.399	78.33
281.615	125.44
281.83	59.9
282.045	-28.16
282.26	41.47
282.476	39.42
282.691	41.47
282.906	64
283.122	16.9
283.337	39.42
283.552	82.43
283.767	82.43
283.983	49.66
284.198	10.75
284.413	96.77
284.628	27.14
284.843	55.81
285.058	113.15
285.274	92.67
285.489	12.8
285.704	-36.35
285.919	37.38
286.134	14.85
286.349	100.86
286.564	-22.02
286.779	88.57
286.995	39.42
287.21	-3.58
287.425	25.09
287.64	80.38
287.855	31.23
288.07	20.99
288.285	168.45
288.5	152.06
288.715	90.62
288.93	43.52
289.145	43.52
289.36	45.57
289.575	27.14
289.79	55.81
290.004	-9.73
290.219	115.2
290.434	47.62
290.649	23.04
290.864	23.04
291.079	90.62
291.294	39.42
291.509	80.38
291.724	10.75
291.938	43.52
292.153	35.33
292.368	39.42
292.583	111.1
292.798	109.05
293.012	49.66
293.227	70.14
293.442	98.81
293.657	4.61
293.871	84.48
294.086	70.14
294.301	92.67
294.516	100.86
294.73	14.85
294.945	39.42
295.16	66.05
295.374	94.72
295.589	68.09
295.804	53.76
296.018	96.77
296.233	90.62
296.447	131.58
296.662	84.48
296.877	84.48
297.091	80.38
297.306	39.42
297.52	20.99
297.735	43.52
297.949	68.09
298.164	49.66
298.378	64
298.593	-13.82
298.807	27.14
299.022	76.29
299.236	27.14
299.451	8.7
299.665	20.99
299.88	49.66
300.094	86.53
300.309	-44.54
300.523	98.81
300.737	8.7
300.952	61.95
301.166	51.71
301.381	-5.63
301.595	-5.63
301.809	107.01
302.024	57.86
302.238	53.76
302.452	88.57
302.667	47.62
302.881	131.58
303.095	59.9
303.309	160.25
303.524	31.23
303.738	33.28
303.952	8.7
304.166	51.71
304.381	-60.93
304.595	66.05
304.809	43.52
305.023	68.09
305.237	115.2
305.452	43.52
305.666	57.86
305.88	90.62
306.094	80.38
306.308	8.7
306.522	39.42
306.736	-28.16
306.95	31.23
307.164	14.85
307.379	-3.58
307.593	162.3
307.807	55.81
308.021	127.49
308.235	33.28
308.449	-7.68
308.663	31.23
308.877	158.21
309.091	154.11
309.305	129.53
309.519	-58.88
309.733	107.01
309.947	-24.06
310.161	107.01
310.374	102.91
310.588	88.57
310.802	-46.59
311.016	2.56
311.23	90.62
311.444	74.24
311.658	33.28
311.872	90.62
312.085	72.19
312.299	27.14
312.513	133.63
312.727	31.23
312.941	39.42
313.154	29.18
313.368	68.09
313.582	10.75
313.796	53.76
314.009	-19.97
314.223	59.9
314.437	49.66
314.651	94.72
314.864	-30.21
315.078	35.33
315.292	2.56
315.505	78.33
315.719	33.28
315.933	14.85
316.146	31.23
316.36	-58.88
316.573	96.77
316.787	98.81
317.001	41.47
317.214	4.61
317.428	45.57
317.641	61.95
317.855	-34.3
318.068	98.81
318.282	55.81
318.495	182.78
318.709	47.62
318.922	64
319.136	129.53
319.349	57.86
319.563	8.7
319.776	109.05
319.99	41.47
320.203	102.91
320.417	33.28
320.63	98.81
320.843	166.4
321.057	59.9
321.27	27.14
321.483	86.53
321.697	70.14
321.91	51.71
322.124	100.86
322.337	111.1
322.55	61.95
322.763	86.53
322.977	20.99
323.19	4.61
323.403	78.33
323.617	6.66
323.83	98.81
324.043	23.04
324.256	109.05
324.469	14.85
324.683	47.62
324.896	72.19
325.109	53.76
325.322	88.57
325.535	150.01
325.748	68.09
325.962	12.8
326.175	164.35
326.388	41.47
326.601	119.29
326.814	66.05
327.027	27.14
327.24	76.29
327.453	-17.92
327.666	61.95
327.879	78.33
328.092	23.04
328.305	47.62
328.518	98.81
328.731	29.18
328.944	23.04
329.157	107.01
329.37	121.34
329.583	168.45
329.796	127.49
330.009	41.47
330.222	59.9
330.435	100.86
330.648	31.23
330.861	96.77
331.073	84.48
331.286	57.86
331.499	45.57
331.712	43.52
331.925	25.09
332.138	57.86
332.35	137.73
332.563	72.19
332.776	59.9
332.989	33.28
333.202	-7.68
333.414	47.62
333.627	96.77
333.84	23.04
334.053	92.67
334.265	-3.58
334.478	6.66
334.691	74.24
334.903	41.47
335.116	92.67
335.329	78.33
335.541	84.48
335.754	113.15
335.966	49.66
336.179	-36.35
336.392	2.56
336.604	123.39
336.817	125.44
337.029	16.9
337.242	137.73
337.454	57.86
337.667	-28.16
337.88	82.43
338.092	100.86
338.305	160.25
338.517	55.81
338.729	39.42
338.942	66.05
339.154	20.99
339.367	-7.68
339.579	135.68
339.792	31.23
340.004	59.9
340.217	29.18
340.429	57.86
340.641	49.66
340.854	33.28
341.066	68.09
341.278	74.24
341.491	176.64
341.703	115.2
341.915	16.9
342.128	90.62
342.34	41.47
342.552	72.19
342.764	76.29
342.977	78.33
343.189	90.62
343.401	68.09
343.613	10.75
343.826	70.14
344.038	-24.06
344.25	-42.5
344.462	33.28
344.674	115.2
344.886	-38.4
345.099	66.05
345.311	84.48
345.523	35.33
345.735	55.81
345.947	74.24
346.159	84.48
346.371	47.62
346.583	6.66
346.795	86.53
347.007	27.14
347.219	18.94
347.431	59.9
347.643	143.87
347.855	-19.97
348.067	123.39
348.279	55.81
348.491	-3.58
348.703	82.43
348.915	27.14
349.127	-52.74
349.339	47.62
349.551	2.56
349.763	123.39
349.975	6.66
350.187	23.04
350.399	68.09
350.61	86.53
350.822	20.99
351.034	51.71
351.246	35.33
351.458	66.05
351.669	43.52
351.881	76.29
352.093	113.15
352.305	94.72
352.517	113.15
352.728	72.19
352.94	33.28
353.152	115.2
353.363	-5.63
353.575	31.23
353.787	131.58
353.999	64
354.21	201.21
354.422	25.09
354.633	33.28
354.845	-11.78
355.057	100.86
355.268	113.15
355.48	70.14
355.692	80.38
355.903	98.81
356.115	-22.02
356.326	-77.31
356.538	80.38
356.749	43.52
356.961	80.38
357.172	66.05
357.384	-17.92
357.595	152.06
357.807	18.94
358.018	29.18
358.23	80.38
358.441	51.71
358.653	59.9
358.864	88.57
359.075	47.62
359.287	33.28
359.498	100.86
359.709	59.9
359.921	104.96
360.132	53.76
360.344	49.66
360.555	80.38
360.766	98.81
360.977	88.57
361.189	80.38
361.4	55.81
361.611	82.43
361.823	117.25
362.034	78.33
362.245	33.28
362.456	70.14
362.667	96.77
362.879	18.94
363.09	20.99
363.301	84.48
363.512	57.86
363.723	82.43
363.935	51.71
364.146	84.48
364.357	12.8
364.568	49.66
364.779	-3.58
364.99	88.57
365.201	51.71
365.412	98.81
365.623	66.05
365.834	90.62
366.045	78.33
366.256	152.06
366.467	55.81
366.678	113.15
366.889	2.56
367.1	-7.68
367.311	20.99
367.522	64
367.733	64
367.944	23.04
368.155	45.57
368.366	88.57
368.577	94.72
368.788	66.05
368.999	8.7
369.209	45.57
369.42	246.27
369.631	188.93
369.842	125.44
370.053	33.28
370.264	59.9
370.474	37.38
370.685	10.75
370.896	29.18
371.107	117.25
371.317	70.14
371.528	64
371.739	98.81
371.95	111.1
372.16	180.73
372.371	-9.73
372.582	82.43
372.792	72.19
373.003	102.91
373.214	66.05
373.424	84.48
373.635	100.86
373.846	102.91
374.056	72.19
374.267	154.11
374.477	94.72
374.688	70.14
374.898	100.86
375.109	70.14
375.319	43.52
375.53	109.05
375.74	90.62
375.951	78.33
376.161	18.94
376.372	154.11
376.582	14.85
376.793	119.29
377.003	-3.58
377.214	102.91
377.424	86.53
377.635	137.73
377.845	27.14
378.055	68.09
378.266	16.9
378.476	-26.11
378.686	92.67
378.897	98.81
379.107	37.38
379.317	49.66
379.528	53.76
379.738	27.14
379.948	-26.11
380.158	135.68
380.369	39.42
380.579	55.81
380.789	37.38
380.999	76.29
381.21	82.43
381.42	197.12
381.63	27.14
381.84	129.53
382.05	66.05
382.261	156.16
382.471	113.15
382.681	55.81
382.891	176.64
383.101	35.33
383.311	6.66
383.521	12.8
383.731	84.48
383.941	90.62
384.151	74.24
384.361	31.23
384.571	82.43
384.781	125.44
384.991	125.44
385.201	76.29
385.411	78.33
385.621	76.29
385.831	55.81
386.041	82.43
386.251	49.66
386.461	64
386.671	43.52
386.881	80.38
387.091	117.25
387.301	100.86
387.511	90.62
387.72	94.72
387.93	135.68
388.14	102.91
388.35	94.72
388.56	47.62
388.769	129.53
388.979	64
389.189	61.95
389.399	59.9
389.609	70.14
389.818	12.8
390.028	78.33
390.238	137.73
390.447	33.28
390.657	27.14
390.867	90.62
391.076	37.38
391.286	119.29
391.496	86.53
391.705	64
391.915	102.91
392.125	111.1
392.334	55.81
392.544	156.16
392.753	104.96
392.963	125.44
393.172	57.86
393.382	23.04
393.591	174.59
393.801	104.96
394.01	119.29
394.22	125.44
394.429	31.23
394.639	-9.73
394.848	92.67
395.058	104.96
395.267	45.57
395.477	57.86
395.686	119.29
395.895	205.31
396.105	211.45
396.314	162.3
396.524	123.39
396.733	72.19
396.942	139.77
397.152	127.49
397.361	90.62
397.57	125.44
397.78	59.9
397.989	133.63
398.198	215.55
398.407	64
398.617	61.95
398.826	121.34
399.035	137.73
399.244	127.49
399.453	53.76
399.663	64
399.872	141.82
400.081	111.1
400.29	123.39
400.499	147.97
400.708	209.4
400.917	139.77
401.127	156.16
401.336	117.25
401.545	117.25
401.754	135.68
401.963	188.93
402.172	145.92
402.381	100.86
402.59	125.44
402.799	70.14
403.008	172.54
403.217	127.49
403.426	233.98
403.635	68.09
403.844	156.16
404.053	72.19
404.262	47.62
404.471	176.64
404.68	160.25
404.888	164.35
405.097	115.2
405.306	266.75
405.515	215.55
405.724	197.12
405.933	250.36
406.142	166.4
406.35	352.76
406.559	188.93
406.768	158.21
406.977	299.52
407.185	207.36
407.394	221.69
407.603	197.12
407.812	244.22
408.02	322.04
408.229	279.04
408.438	250.36
408.646	233.98
408.855	256.51
409.064	293.37
409.272	289.28
409.481	367.1
409.69	203.26
409.898	285.18
410.107	295.42
410.315	387.58
410.524	360.95
410.733	401.91
410.941	350.71
411.15	403.96
411.358	403.96
411.567	483.83
411.775	395.77
411.984	442.87
412.192	485.88
412.401	489.98
412.609	539.13
412.818	586.23
413.026	449.02
413.234	598.52
413.443	555.51
413.651	590.33
413.86	612.85
414.068	705.01
414.276	647.67
414.485	645.62
414.693	692.73
414.901	774.64
415.11	852.47
415.318	760.31
415.526	784.88
415.734	780.79
415.943	881.14
416.151	936.43
416.359	860.66
416.567	942.58
416.776	991.73
416.984	999.92
417.192	1053.17
417.4	1051.12
417.608	938.48
417.817	1085.94
418.025	1149.42
418.233	1169.9
418.441	1214.96
418.649	1188.33
418.857	1384.94
419.065	1350.12
419.273	1436.14
419.481	1479.15
419.689	1477.1
419.897	1544.68
420.105	1524.2
420.313	1602.02
420.521	1741.29
420.729	1597.93
420.937	1804.77
421.145	1817.06
421.353	1935.84
421.561	1972.71
421.769	1993.19
421.977	2154.98
422.185	2105.82
422.393	2230.75
422.601	2419.16
422.809	2349.53
423.017	2494.94
423.224	2531.8
423.432	2607.58
423.64	2478.55
423.848	2855.38
424.056	2750.93
424.263	2959.83
424.471	3011.03
424.679	3228.11
424.887	3178.96
425.094	3316.17
425.302	3316.17
425.51	3342.8
425.718	3559.88
425.925	3500.49
426.133	3635.66
426.341	3957.19
426.548	4127.17
426.756	3998.15
426.964	4092.35
427.171	4295.1
427.379	4485.56
427.586	4540.86
427.794	4575.67
428.001	4870.58
428.209	5071.28
428.417	5083.57
428.624	5462.44
428.832	5444.01
429.039	5468.59
429.247	5431.73
429.454	5843.37
429.662	6365.6
429.869	5886.37
430.076	6236.58
430.284	6111.65
430.491	6392.22
430.699	6582.68
430.906	6822.3
431.114	6767
431.321	7018.9
431.528	7250.32
431.736	7561.61
431.943	8049.03
432.15	7694.73
432.358	7850.38
432.565	8470.91
432.772	8153.48
432.979	8626.56
433.187	8763.77
433.394	8819.07
433.601	9415.02
433.808	9585.01
434.016	9515.37
434.223	9888.11
434.43	10449.25
434.637	10244.45
434.844	10864.99
435.052	11086.17
435.259	11028.82
435.466	11055.45
435.673	10955.1
435.88	11684.17
436.087	12294.47
436.294	12525.89
436.501	11960.65
436.708	12255.56
436.915	12796.22
437.122	13359.41
437.329	12929.34
437.537	13676.85
437.743	13918.51
437.95	13879.6
438.157	14526.75
438.364	14901.53
438.571	14926.11
438.778	15163.67
438.985	16363.78
439.192	15726.86
439.399	16187.66
439.606	15956.24
439.813	17002.75
440.02	17748.21
440.227	17428.73
440.433	17490.17
440.64	18086.12
440.847	17750.26
441.054	18073.84
441.261	19187.93
441.467	19263.71
441.674	19454.17
441.881	20332.75
442.088	20021.45
442.294	19972.3
442.501	20316.36
442.708	21024.96
442.914	21721.27
443.121	22700.2
443.328	21872.82
443.534	23949.46
443.741	23044.26
443.948	22980.77
444.154	24324.24
444.361	24299.66
444.568	24002.71
444.774	24303.76
444.981	24512.65
445.187	25337.98
445.394	26237.04
445.6	26081.39
445.807	28493.9
446.013	27664.47
446.22	27721.82
446.426	28997.7
446.633	28801.1
446.839	30009.4
447.046	28950.6
447.252	30322.74
447.459	30439.47
447.665	30115.89
447.871	31567.9
448.078	33079.3
448.284	31326.24
448.491	32288.79
448.697	33685.5
448.903	34150.39
449.11	33900.54
449.316	33656.83
449.522	34488.31
449.728	35352.55
449.935	35594.21
450.141	35796.96
450.347	36167.64
450.553	35149.8
450.76	35502.05
450.966	36689.87
451.172	36194.26
451.378	36990.92
451.584	36544.47
451.791	37427.14
451.997	36870.09
452.203	37926.85
452.409	37490.63
452.615	37603.27
452.821	36106.2
453.027	35878.88
453.233	37601.22
453.44	36315.09
453.646	36530.13
453.852	36921.29
454.058	37185.48
454.264	36233.18
454.47	36700.11
454.676	35913.69
454.882	37103.56
455.088	34144.25
455.294	34662.38
455.5	34754.54
455.705	35069.93
455.911	34052.09
456.117	33087.5
456.323	32536.59
456.529	31174.69
456.735	32215.06
456.941	31520.8
457.147	30881.83
457.352	30146.61
457.558	29728.83
457.764	29751.35
457.97	29130.82
458.176	28356.69
458.381	28352.59
458.587	27363.42
458.793	27248.74
458.999	25692.28
459.204	27566.17
459.41	26660.97
459.616	24860.8
459.821	24963.2
460.027	24950.92
460.233	24283.28
460.438	22880.42
460.644	23115.94
460.85	22261.93
461.055	21915.83
461.261	22091.95
461.466	20207.82
461.672	19677.4
461.878	21184.7
462.083	19689.68
462.289	19380.44
462.494	19142.88
462.7	17991.92
462.905	17826.03
463.111	18327.78
463.316	17950.96
463.522	18174.19
463.727	18016.49
463.932	17889.52
464.138	17682.67
464.343	17731.83
464.549	17240.31
464.754	17791.22
464.959	17680.63
465.165	17682.67
465.37	16546.05
465.575	16578.82
465.781	17078.52
465.986	17000.7
466.191	16408.84
466.397	16023.82
466.602	15251.74
