Data from USB4F104151__47__12-12-14-005.txt Node

Date: Fri Mar 14 12:12:14 EDT 2025
User: louis
Spectrometer: USB4F10415
Trigger mode: 4
Integration Time (sec): 5.000000E-2
Scans to average: 1
Electric dark correction enabled: true
Nonlinearity correction enabled: false
Boxcar width: 0
XAxis mode: Wavelengths
Number of Pixels in Spectrum: 3648
>>>>>Begin Spectral Data<<<<<
178.204	-225.79
178.424	-225.79
178.644	-225.79
178.864	-221.69
179.084	-272.89
179.304	-4.61
179.524	-6.66
179.744	52.74
179.964	67.07
180.184	32.26
180.404	3.58
180.624	-29.18
180.844	-39.42
181.064	-74.24
181.283	50.69
181.503	-33.28
181.723	-18.94
181.943	-90.62
182.163	144.89
182.383	1.54
182.602	54.78
182.822	167.42
183.042	19.97
183.262	-27.14
183.482	118.27
183.701	-43.52
183.921	26.11
184.141	-55.81
184.361	19.97
184.58	30.21
184.8	44.54
185.02	28.16
185.239	95.74
185.459	46.59
185.679	120.32
185.898	3.58
186.118	93.69
186.338	11.78
186.557	52.74
186.777	15.87
186.997	44.54
187.216	-41.47
187.436	65.02
187.655	-8.7
187.875	52.74
188.095	36.35
188.314	87.55
188.534	128.51
188.753	44.54
188.973	85.5
189.192	69.12
189.412	42.5
189.631	85.5
189.851	-2.56
190.07	144.89
190.29	-6.66
190.509	-43.52
190.729	56.83
190.948	93.69
191.168	181.76
191.387	54.78
191.607	28.16
191.826	44.54
192.045	99.84
192.265	22.02
192.484	60.93
192.704	28.16
192.923	32.26
193.142	112.13
193.362	69.12
193.581	34.3
193.8	62.98
194.02	97.79
194.239	22.02
194.458	62.98
194.678	103.93
194.897	99.84
195.116	15.87
195.335	48.64
195.555	40.45
195.774	-12.8
195.993	44.54
196.212	-10.75
196.432	-12.8
196.651	15.87
196.87	9.73
197.089	243.2
197.308	60.93
197.528	81.41
197.747	15.87
197.966	52.74
198.185	73.21
198.404	46.59
198.623	48.64
198.842	1.54
199.062	69.12
199.281	110.08
199.5	118.27
199.719	-8.7
199.938	62.98
200.157	40.45
200.376	58.88
200.595	60.93
200.814	112.13
201.033	-78.33
201.252	110.08
201.471	34.3
201.69	99.84
201.909	15.87
202.128	19.97
202.347	17.92
202.566	69.12
202.785	-39.42
203.004	-37.38
203.223	108.03
203.442	114.17
203.661	30.21
203.879	40.45
204.098	85.5
204.317	-6.66
204.536	69.12
204.755	34.3
204.974	30.21
205.193	19.97
205.411	146.94
205.63	-0.51
205.849	38.4
206.068	48.64
206.287	-61.95
206.505	93.69
206.724	38.4
206.943	48.64
207.162	62.98
207.381	56.83
207.599	24.06
207.818	60.93
208.037	19.97
208.255	5.63
208.474	5.63
208.693	122.37
208.911	103.93
209.13	79.36
209.349	62.98
209.567	89.6
209.786	46.59
210.005	99.84
210.223	3.58
210.442	-2.56
210.661	26.11
210.879	67.07
211.098	50.69
211.316	26.11
211.535	97.79
211.753	85.5
211.972	26.11
212.191	-0.51
212.409	34.3
212.628	67.07
212.846	-0.51
213.065	73.21
213.283	34.3
213.502	17.92
213.72	-27.14
213.938	75.26
214.157	50.69
214.375	128.51
214.594	48.64
214.812	36.35
215.031	69.12
215.249	44.54
215.467	38.4
215.686	79.36
215.904	95.74
216.122	50.69
216.341	60.93
216.559	32.26
216.778	192
216.996	-4.61
217.214	42.5
217.432	46.59
217.651	32.26
217.869	56.83
218.087	-45.57
218.306	58.88
218.524	44.54
218.742	19.97
218.96	165.37
219.179	42.5
219.397	19.97
219.615	44.54
219.833	71.17
220.051	19.97
220.27	32.26
220.488	138.75
220.706	79.36
220.924	42.5
221.142	9.73
221.36	44.54
221.578	42.5
221.796	11.78
222.015	97.79
222.233	13.82
222.451	93.69
222.669	-35.33
222.887	22.02
223.105	1.54
223.323	46.59
223.541	17.92
223.759	32.26
223.977	9.73
224.195	144.89
224.413	42.5
224.631	46.59
224.849	40.45
225.067	173.57
225.285	15.87
225.503	40.45
225.721	-35.33
225.939	28.16
226.157	19.97
226.375	208.38
226.592	28.16
226.81	60.93
227.028	124.41
227.246	103.93
227.464	71.17
227.682	95.74
227.9	50.69
228.117	22.02
228.335	101.89
228.553	-35.33
228.771	-2.56
228.989	52.74
229.206	42.5
229.424	122.37
229.642	15.87
229.86	-23.04
230.077	-0.51
230.295	99.84
230.513	67.07
230.731	54.78
230.948	148.99
231.166	114.17
231.384	89.6
231.601	19.97
231.819	118.27
232.037	73.21
232.254	-12.8
232.472	-0.51
232.689	-10.75
232.907	11.78
233.125	-2.56
233.342	15.87
233.56	-25.09
233.777	32.26
233.995	77.31
234.213	19.97
234.43	34.3
234.648	40.45
234.865	54.78
235.083	71.17
235.3	-23.04
235.518	83.45
235.735	130.56
235.953	122.37
236.17	40.45
236.388	34.3
236.605	22.02
236.822	30.21
237.04	110.08
237.257	65.02
237.475	-12.8
237.692	42.5
237.909	40.45
238.127	65.02
238.344	89.6
238.562	65.02
238.779	-31.23
238.996	-45.57
239.214	67.07
239.431	77.31
239.648	-33.28
239.865	62.98
240.083	30.21
240.3	-2.56
240.517	-37.38
240.735	116.22
240.952	122.37
241.169	87.55
241.386	38.4
241.603	60.93
241.821	1.54
242.038	83.45
242.255	3.58
242.472	-84.48
242.689	-8.7
242.907	105.98
243.124	42.5
243.341	89.6
243.558	-35.33
243.775	42.5
243.992	30.21
244.209	62.98
244.426	130.56
244.643	42.5
244.86	93.69
245.078	60.93
245.295	65.02
245.512	93.69
245.729	-10.75
245.946	73.21
246.163	101.89
246.38	110.08
246.597	87.55
246.814	-10.75
247.031	56.83
247.248	67.07
247.464	54.78
247.681	24.06
247.898	42.5
248.115	87.55
248.332	1.54
248.549	110.08
248.766	13.82
248.983	101.89
249.2	110.08
249.417	67.07
249.633	-16.9
249.85	124.41
250.067	50.69
250.284	36.35
250.501	110.08
250.717	105.98
250.934	-29.18
251.151	40.45
251.368	-10.75
251.585	56.83
251.801	-4.61
252.018	17.92
252.235	67.07
252.451	65.02
252.668	110.08
252.885	89.6
253.102	11.78
253.318	15.87
253.535	17.92
253.752	-10.75
253.968	15.87
254.185	-0.51
254.401	-8.7
254.618	38.4
254.835	-25.09
255.051	103.93
255.268	-16.9
255.484	52.74
255.701	65.02
255.917	54.78
256.134	-2.56
256.351	28.16
256.567	-14.85
256.784	24.06
257	-14.85
257.217	40.45
257.433	71.17
257.65	15.87
257.866	134.65
258.082	-18.94
258.299	19.97
258.515	32.26
258.732	7.68
258.948	54.78
259.165	130.56
259.381	34.3
259.597	83.45
259.814	-20.99
260.03	-61.95
260.246	73.21
260.463	148.99
260.679	1.54
260.895	62.98
261.112	56.83
261.328	-27.14
261.544	-12.8
261.761	144.89
261.977	-8.7
262.193	30.21
262.409	95.74
262.626	50.69
262.842	50.69
263.058	19.97
263.274	62.98
263.49	105.98
263.707	101.89
263.923	15.87
264.139	-2.56
264.355	30.21
264.571	32.26
264.787	108.03
265.004	134.65
265.22	22.02
265.436	5.63
265.652	32.26
265.868	58.88
266.084	-35.33
266.3	93.69
266.516	13.82
266.732	32.26
266.948	19.97
267.164	19.97
267.38	52.74
267.596	112.13
267.812	110.08
268.028	32.26
268.244	62.98
268.46	15.87
268.676	79.36
268.892	155.13
269.108	-23.04
269.324	62.98
269.54	65.02
269.756	103.93
269.972	-35.33
270.188	15.87
270.403	-64
270.619	-18.94
270.835	36.35
271.051	-25.09
271.267	28.16
271.483	75.26
271.698	134.65
271.914	65.02
272.13	69.12
272.346	105.98
272.562	13.82
272.777	97.79
272.993	-33.28
273.209	-16.9
273.425	32.26
273.64	-27.14
273.856	136.7
274.072	5.63
274.287	44.54
274.503	46.59
274.719	60.93
274.934	36.35
275.15	-123.39
275.366	-29.18
275.581	71.17
275.797	11.78
276.012	24.06
276.228	-0.51
276.444	28.16
276.659	60.93
276.875	-0.51
277.09	67.07
277.306	-37.38
277.521	28.16
277.737	46.59
277.952	124.41
278.168	71.17
278.383	71.17
278.599	-8.7
278.814	-2.56
279.03	48.64
279.245	120.32
279.461	40.45
279.676	97.79
279.892	-59.9
280.107	46.59
280.322	28.16
280.538	52.74
280.753	3.58
280.969	3.58
281.184	13.82
281.399	95.74
281.615	62.98
281.83	40.45
282.045	34.3
282.26	36.35
282.476	71.17
282.691	140.8
282.906	67.07
283.122	11.78
283.337	32.26
283.552	67.07
283.767	54.78
283.983	73.21
284.198	24.06
284.413	110.08
284.628	-27.14
284.843	50.69
285.058	118.27
285.274	91.65
285.489	-10.75
285.704	67.07
285.919	67.07
286.134	24.06
286.349	42.5
286.564	36.35
286.779	40.45
286.995	-0.51
287.21	87.55
287.425	58.88
287.64	28.16
287.855	-10.75
288.07	-2.56
288.285	54.78
288.5	167.42
288.715	120.32
288.93	-20.99
289.145	-25.09
289.36	79.36
289.575	26.11
289.79	46.59
290.004	7.68
290.219	128.51
290.434	-4.61
290.649	3.58
290.864	-47.62
291.079	73.21
291.294	65.02
291.509	103.93
291.724	7.68
291.938	24.06
292.153	93.69
292.368	42.5
292.583	54.78
292.798	97.79
293.012	60.93
293.227	36.35
293.442	-102.91
293.657	75.26
293.871	24.06
294.086	-2.56
294.301	192
294.516	79.36
294.73	38.4
294.945	-6.66
295.16	71.17
295.374	89.6
295.589	40.45
295.804	48.64
296.018	32.26
296.233	136.7
296.447	48.64
296.662	71.17
296.877	118.27
297.091	3.58
297.306	-2.56
297.52	-8.7
297.735	62.98
297.949	30.21
298.164	46.59
298.378	30.21
298.593	40.45
298.807	1.54
299.022	50.69
299.236	144.89
299.451	69.12
299.665	-66.05
299.88	-12.8
300.094	48.64
300.309	44.54
300.523	40.45
300.737	48.64
300.952	71.17
301.166	36.35
301.381	32.26
301.595	30.21
301.809	46.59
302.024	67.07
302.238	67.07
302.452	58.88
302.667	-2.56
302.881	69.12
303.095	34.3
303.309	69.12
303.524	97.79
303.738	81.41
303.952	32.26
304.166	87.55
304.381	-35.33
304.595	77.31
304.809	-4.61
305.023	13.82
305.237	-16.9
305.452	-8.7
305.666	62.98
305.88	116.22
306.094	58.88
306.308	71.17
306.522	85.5
306.736	103.93
306.95	83.45
307.164	17.92
307.379	60.93
307.593	126.46
307.807	24.06
308.021	50.69
308.235	77.31
308.449	-49.66
308.663	32.26
308.877	112.13
309.091	65.02
309.305	22.02
309.519	-64
309.733	89.6
309.947	-53.76
310.161	19.97
310.374	91.65
310.588	126.46
310.802	101.89
311.016	32.26
311.23	85.5
311.444	24.06
311.658	34.3
311.872	58.88
312.085	95.74
312.299	112.13
312.513	124.41
312.727	132.61
312.941	9.73
313.154	5.63
313.368	101.89
313.582	34.3
313.796	67.07
314.009	30.21
314.223	101.89
314.437	9.73
314.651	69.12
314.864	95.74
315.078	13.82
315.292	15.87
315.505	32.26
315.719	87.55
315.933	103.93
316.146	44.54
316.36	40.45
316.573	153.09
316.787	60.93
317.001	1.54
317.214	22.02
317.428	60.93
317.641	34.3
317.855	13.82
318.068	40.45
318.282	56.83
318.495	101.89
318.709	40.45
318.922	69.12
319.136	95.74
319.349	153.09
319.563	54.78
319.776	87.55
319.99	46.59
320.203	140.8
320.417	79.36
320.63	46.59
320.843	120.32
321.057	103.93
321.27	52.74
321.483	73.21
321.697	114.17
321.91	93.69
322.124	130.56
322.337	77.31
322.55	-2.56
322.763	22.02
322.977	83.45
323.19	75.26
323.403	54.78
323.617	112.13
323.83	77.31
324.043	-14.85
324.256	54.78
324.469	5.63
324.683	87.55
324.896	19.97
325.109	87.55
325.322	-4.61
325.535	151.04
325.748	75.26
325.962	-14.85
326.175	7.68
326.388	50.69
326.601	58.88
326.814	120.32
327.027	38.4
327.24	159.23
327.453	-25.09
327.666	105.98
327.879	112.13
328.092	77.31
328.305	28.16
328.518	50.69
328.731	15.87
328.944	42.5
329.157	17.92
329.37	79.36
329.583	101.89
329.796	120.32
330.009	-31.23
330.222	108.03
330.435	130.56
330.648	118.27
330.861	101.89
331.073	54.78
331.286	67.07
331.499	-6.66
331.712	36.35
331.925	114.17
332.138	38.4
332.35	175.61
332.563	79.36
332.776	36.35
332.989	-68.09
333.202	34.3
333.414	28.16
333.627	19.97
333.84	-2.56
334.053	17.92
334.265	15.87
334.478	30.21
334.691	7.68
334.903	19.97
335.116	15.87
335.329	5.63
335.541	5.63
335.754	81.41
335.966	69.12
336.179	19.97
336.392	112.13
336.604	97.79
336.817	50.69
337.029	60.93
337.242	28.16
337.454	103.93
337.667	48.64
337.88	85.5
338.092	71.17
338.305	144.89
338.517	11.78
338.729	105.98
338.942	122.37
339.154	-8.7
339.367	-68.09
339.579	48.64
339.792	48.64
340.004	140.8
340.217	75.26
340.429	73.21
340.641	-43.52
340.854	56.83
341.066	36.35
341.278	62.98
341.491	73.21
341.703	30.21
341.915	30.21
342.128	122.37
342.34	75.26
342.552	17.92
342.764	99.84
342.977	79.36
343.189	97.79
343.401	5.63
343.613	-6.66
343.826	52.74
344.038	-6.66
344.25	99.84
344.462	-20.99
344.674	22.02
344.886	52.74
345.099	77.31
345.311	56.83
345.523	60.93
345.735	5.63
345.947	122.37
346.159	103.93
346.371	13.82
346.583	36.35
346.795	177.66
347.007	-64
347.219	22.02
347.431	79.36
347.643	177.66
347.855	7.68
348.067	87.55
348.279	-18.94
348.491	34.3
348.703	89.6
348.915	69.12
349.127	60.93
349.339	48.64
349.551	40.45
349.763	56.83
349.975	108.03
350.187	46.59
350.399	124.41
350.61	32.26
350.822	52.74
351.034	85.5
351.246	32.26
351.458	132.61
351.669	89.6
351.881	122.37
352.093	114.17
352.305	103.93
352.517	122.37
352.728	105.98
352.94	71.17
353.152	134.65
353.363	34.3
353.575	124.41
353.787	89.6
353.999	105.98
354.21	132.61
354.422	28.16
354.633	75.26
354.845	7.68
355.057	42.5
355.268	124.41
355.48	58.88
355.692	75.26
355.903	122.37
356.115	73.21
356.326	118.27
356.538	67.07
356.749	19.97
356.961	146.94
357.172	97.79
357.384	44.54
357.595	114.17
357.807	67.07
358.018	32.26
358.23	22.02
358.441	181.76
358.653	124.41
358.864	-8.7
359.075	48.64
359.287	58.88
359.498	101.89
359.709	60.93
359.921	67.07
360.132	97.79
360.344	3.58
360.555	79.36
360.766	87.55
360.977	134.65
361.189	79.36
361.4	-6.66
361.611	60.93
361.823	81.41
362.034	95.74
362.245	1.54
362.456	-0.51
362.667	112.13
362.879	62.98
363.09	56.83
363.301	79.36
363.512	87.55
363.723	62.98
363.935	36.35
364.146	73.21
364.357	34.3
364.568	77.31
364.779	24.06
364.99	34.3
365.201	46.59
365.412	56.83
365.623	9.73
365.834	19.97
366.045	-14.85
366.256	1.54
366.467	136.7
366.678	44.54
366.889	-0.51
367.1	38.4
367.311	77.31
367.522	3.58
367.733	112.13
367.944	108.03
368.155	32.26
368.366	132.61
368.577	67.07
368.788	130.56
368.999	5.63
369.209	36.35
369.42	126.46
369.631	124.41
369.842	83.45
370.053	-6.66
370.264	187.9
370.474	-16.9
370.685	13.82
370.896	116.22
371.107	95.74
371.317	69.12
371.528	79.36
371.739	75.26
371.95	140.8
372.16	48.64
372.371	36.35
372.582	46.59
372.792	120.32
373.003	46.59
373.214	83.45
373.424	99.84
373.635	50.69
373.846	140.8
374.056	134.65
374.267	83.45
374.477	103.93
374.688	105.98
374.898	9.73
375.109	67.07
375.319	97.79
375.53	122.37
375.74	136.7
375.951	56.83
376.161	159.23
376.372	48.64
376.582	5.63
376.793	112.13
377.003	-16.9
377.214	103.93
377.424	157.18
377.635	7.68
377.845	52.74
378.055	146.94
378.266	46.59
378.476	15.87
378.686	60.93
378.897	120.32
379.107	69.12
379.317	91.65
379.528	52.74
379.738	122.37
379.948	95.74
380.158	81.41
380.369	-33.28
380.579	69.12
380.789	17.92
380.999	136.7
381.21	69.12
381.42	142.85
381.63	44.54
381.84	93.69
382.05	151.04
382.261	32.26
382.471	110.08
382.681	46.59
382.891	132.61
383.101	93.69
383.311	28.16
383.521	9.73
383.731	105.98
383.941	138.75
384.151	105.98
384.361	71.17
384.571	128.51
384.781	69.12
384.991	126.46
385.201	118.27
385.411	134.65
385.621	132.61
385.831	79.36
386.041	52.74
386.251	140.8
386.461	105.98
386.671	128.51
386.881	44.54
387.091	122.37
387.301	148.99
387.511	93.69
387.72	148.99
387.93	134.65
388.14	67.07
388.35	142.85
388.56	128.51
388.769	132.61
388.979	85.5
389.189	-33.28
389.399	116.22
389.609	196.09
389.818	103.93
390.028	99.84
390.238	138.75
390.447	19.97
390.657	67.07
390.867	75.26
391.076	-8.7
391.286	93.69
391.496	97.79
391.705	75.26
391.915	116.22
392.125	62.98
392.334	54.78
392.544	122.37
392.753	73.21
392.963	116.22
393.172	105.98
393.382	-31.23
393.591	110.08
393.801	15.87
394.01	175.61
394.22	108.03
394.429	67.07
394.639	108.03
394.848	155.13
395.058	89.6
395.267	81.41
395.477	108.03
395.686	85.5
395.895	185.85
396.105	204.28
396.314	187.9
396.524	153.09
396.733	116.22
396.942	99.84
397.152	130.56
397.361	173.57
397.57	108.03
397.78	124.41
397.989	163.33
398.198	286.2
398.407	216.57
398.617	157.18
398.826	128.51
399.035	157.18
399.244	210.43
399.453	105.98
399.663	202.24
399.872	189.95
400.081	54.78
400.29	194.05
400.499	103.93
400.708	122.37
400.917	173.57
401.127	194.05
401.336	142.85
401.545	263.68
401.754	175.61
401.963	200.19
402.172	185.85
402.381	56.83
402.59	189.95
402.799	185.85
403.008	210.43
403.217	206.33
403.426	196.09
403.635	19.97
403.844	122.37
404.053	220.67
404.262	120.32
404.471	282.11
404.68	228.86
404.888	265.72
405.097	255.48
405.306	259.58
405.515	290.3
405.724	263.68
405.933	247.29
406.142	265.72
406.35	292.35
406.559	314.88
406.768	312.83
406.977	335.35
407.185	312.83
407.394	341.5
407.603	273.92
407.812	374.27
408.02	413.18
408.229	241.15
408.438	392.7
408.646	382.46
408.855	300.54
409.064	411.13
409.272	452.09
409.481	521.72
409.69	429.56
409.898	404.99
410.107	517.62
410.315	503.29
410.524	431.61
410.733	527.86
410.941	525.82
411.15	509.43
411.358	605.69
411.567	570.87
411.775	599.54
411.984	636.41
412.192	683.51
412.401	593.4
412.609	765.43
412.818	642.55
413.026	759.28
413.234	851.44
413.443	710.13
413.651	753.14
413.86	876.02
414.068	853.49
414.276	890.35
414.485	884.21
414.693	964.08
414.901	1050.1
415.11	962.03
415.318	1076.72
415.526	1046
415.734	1070.58
415.943	1154.54
416.151	1226.22
416.359	1277.42
416.567	1310.19
416.776	1383.91
416.984	1365.48
417.192	1519.08
417.4	1381.87
417.608	1488.36
417.817	1502.7
418.025	1555.94
418.233	1773.03
418.441	1732.07
418.649	1660.39
418.857	1893.86
419.065	1893.86
419.273	1848.8
419.481	1881.57
419.689	2135.52
419.897	2194.91
420.105	2248.16
420.313	2242.01
420.521	2461.15
420.729	2444.76
420.937	2543.07
421.145	2667.99
421.353	2729.43
421.561	2803.16
421.769	2897.36
421.977	2991.57
422.185	3020.24
422.393	3169.74
422.601	3343.82
422.809	3368.4
423.017	3421.64
423.224	3521.99
423.432	3700.17
423.64	3687.88
423.848	4038.08
424.056	3849.67
424.263	4189.63
424.471	4007.36
424.679	4294.08
424.887	4707.77
425.094	4703.67
425.302	4701.62
425.51	4914.61
425.718	4883.89
425.925	4859.32
426.133	5107.12
426.341	5610.92
426.548	5719.46
426.756	5752.23
426.964	5789.1
427.171	6034.85
427.379	6452.64
427.586	6399.39
427.794	6802.84
428.001	6919.57
428.209	7167.38
428.417	7157.14
428.624	7511.44
428.832	7738.76
429.039	7595.4
429.247	7710.09
429.454	8406.4
429.662	8705.4
429.869	8215.94
430.076	8842.62
430.284	8418.69
430.491	8805.75
430.699	9438.58
430.906	9274.74
431.114	9409.9
431.321	9993.58
431.528	10161.51
431.736	10524
431.943	11105.62
432.15	10964.31
432.358	10763.61
432.565	11515.22
432.772	11496.78
432.979	12174.66
433.187	12512.58
433.394	12510.53
433.601	13190.45
433.808	13135.16
434.016	12954.94
434.223	13532.47
434.43	14193.96
434.637	14296.36
434.844	14990.62
435.052	15418.64
435.259	15039.77
435.466	15377.69
435.673	15369.49
435.88	16377.09
436.087	17007.87
436.294	17200.38
436.501	16659.71
436.708	16946.43
436.915	17620.21
437.122	18320.62
437.329	18404.58
437.537	18926.82
437.743	19094.75
437.95	18928.86
438.157	20198.6
438.364	20780.23
438.571	20487.37
438.778	20792.51
438.985	22508.71
439.192	21765.3
439.399	22305.96
439.606	21957.81
439.813	23082.14
440.02	24546.44
440.227	24106.13
440.433	23854.23
440.64	24509.58
440.847	24638.6
441.054	24915.08
441.261	26313.84
441.467	26213.49
441.674	26774.63
441.881	27823.19
442.088	27673.69
442.294	27315.3
442.501	28001.36
442.708	28910.66
442.914	29764.67
443.121	31167.52
443.328	30503.98
443.534	32582.67
443.741	31333.41
443.948	31239.2
444.154	33307.65
444.361	33334.28
444.568	33215.49
444.774	32963.59
444.981	33432.58
445.187	34700.27
445.394	36256.73
445.6	35587.04
445.807	38839.22
446.013	37579.71
446.22	37772.22
446.426	39359.4
446.633	39420.84
446.839	40561.56
447.046	39222.19
447.252	41153.42
447.459	41282.44
447.665	41540.49
447.871	43017.07
448.078	44784.47
448.284	42271.61
448.491	43705.19
448.697	45208.4
448.903	45755.21
449.11	46146.37
449.316	45339.47
449.522	46424.89
449.728	47401.77
449.935	47817.51
450.141	47799.08
450.347	48268.06
450.553	46715.7
450.76	47905.57
450.966	49369.87
451.172	48859.93
451.378	49517.32
451.584	48763.67
451.791	49963.78
451.997	49408.78
452.203	50338.56
452.409	50578.17
452.615	50139.91
452.821	48274.21
453.027	47805.22
453.233	50006.79
453.44	48380.7
453.646	48874.26
453.852	49310.48
454.058	49650.44
454.264	48642.84
454.47	48726.81
454.676	48034.6
454.882	49343.25
455.088	45400.91
455.294	45968.19
455.5	46625.59
455.705	46998.32
455.911	44931.92
456.117	44452.7
456.323	43780.96
456.529	41581.45
456.735	43256.68
456.941	42158.97
457.147	41139.08
457.352	40121.24
457.558	39441.32
457.764	39697.31
457.97	38740.91
458.176	37829.57
458.381	38245.3
458.587	36103.13
458.793	36330.45
458.999	34370.55
459.204	36813.77
459.41	35886.04
459.616	33324.04
459.821	33317.89
460.027	33172.49
460.233	32467.98
460.438	31155.24
460.644	31218.72
460.85	29797.43
461.055	29008.97
461.261	29006.92
461.466	26985.57
461.672	25975.92
461.878	27755.61
462.083	26248.3
462.289	25554.04
462.494	25044.1
462.7	24292.49
462.905	23704.73
463.111	24392.84
463.316	24396.94
463.522	23913.62
463.727	23798.93
463.932	23870.61
464.138	23491.74
464.343	23901.33
464.549	22748.32
464.754	23731.35
464.959	23647.38
465.165	23307.42
465.37	22148.27
465.575	21546.17
465.781	22199.47
