Data from USB4F104151__53__12-54-00-393.txt Node

Date: Fri Mar 14 12:54:00 EDT 2025
User: louis
Spectrometer: USB4F10415
Trigger mode: 4
Integration Time (sec): 1.000000E-2
Scans to average: 1
Electric dark correction enabled: true
Nonlinearity correction enabled: false
Boxcar width: 0
XAxis mode: Wavelengths
Number of Pixels in Spectrum: 3648
>>>>>Begin Spectral Data<<<<<
178.204	-37.38
178.424	-37.38
178.644	-37.38
178.864	-25.09
179.084	-96.77
179.304	-12.8
179.524	-49.66
179.744	-33.28
179.964	30.21
180.184	3.58
180.404	7.68
180.624	-0.51
180.844	-10.75
181.064	-20.99
181.283	1.54
181.503	-27.14
181.723	112.13
181.943	-33.28
182.163	-10.75
182.383	-16.9
182.602	81.41
182.822	1.54
183.042	-14.85
183.262	28.16
183.482	50.69
183.701	-16.9
183.921	15.87
184.141	19.97
184.361	42.5
184.58	-59.9
184.8	-8.7
185.02	5.63
185.239	40.45
185.459	-18.94
185.679	24.06
185.898	-23.04
186.118	7.68
186.338	30.21
186.557	24.06
186.777	-37.38
186.997	118.27
187.216	26.11
187.436	22.02
187.655	32.26
187.875	75.26
188.095	1.54
188.314	89.6
188.534	-2.56
188.753	9.73
188.973	26.11
189.192	79.36
189.412	15.87
189.631	11.78
189.851	26.11
190.07	32.26
190.29	11.78
190.509	1.54
190.729	-88.57
190.948	52.74
191.168	46.59
191.387	-29.18
191.607	46.59
191.826	93.69
192.045	-0.51
192.265	83.45
192.484	-39.42
192.704	13.82
192.923	-66.05
193.142	-6.66
193.362	-76.29
193.581	24.06
193.8	22.02
194.02	75.26
194.239	19.97
194.458	28.16
194.678	-37.38
194.897	-31.23
195.116	85.5
195.335	1.54
195.555	-18.94
195.774	-0.51
195.993	50.69
196.212	38.4
196.432	-49.66
196.651	34.3
196.87	46.59
197.089	32.26
197.308	19.97
197.528	19.97
197.747	-70.14
197.966	32.26
198.185	-16.9
198.404	38.4
198.623	19.97
198.842	26.11
199.062	-20.99
199.281	46.59
199.5	-43.52
199.719	95.74
199.938	9.73
200.157	28.16
200.376	5.63
200.595	-6.66
200.814	56.83
201.033	-41.47
201.252	9.73
201.471	13.82
201.69	-35.33
201.909	-8.7
202.128	7.68
202.347	75.26
202.566	54.78
202.785	83.45
203.004	3.58
203.223	56.83
203.442	-2.56
203.661	79.36
203.879	32.26
204.098	-12.8
204.317	-14.85
204.536	52.74
204.755	24.06
204.974	-8.7
205.193	-33.28
205.411	48.64
205.63	-45.57
205.849	-31.23
206.068	-41.47
206.287	19.97
206.505	-12.8
206.724	69.12
206.943	-14.85
207.162	15.87
207.381	19.97
207.599	81.41
207.818	54.78
208.037	77.31
208.255	56.83
208.474	7.68
208.693	11.78
208.911	-6.66
209.13	32.26
209.349	32.26
209.567	-61.95
209.786	19.97
210.005	112.13
210.223	-41.47
210.442	36.35
210.661	-20.99
210.879	-18.94
211.098	19.97
211.316	7.68
211.535	34.3
211.753	-61.95
211.972	3.58
212.191	62.98
212.409	7.68
212.628	48.64
212.846	-4.61
213.065	28.16
213.283	-8.7
213.502	-31.23
213.72	-12.8
213.938	30.21
214.157	28.16
214.375	-47.62
214.594	22.02
214.812	22.02
215.031	-29.18
215.249	22.02
215.467	-31.23
215.686	-6.66
215.904	60.93
216.122	-59.9
216.341	9.73
216.559	-66.05
216.778	-23.04
216.996	11.78
217.214	42.5
217.432	-51.71
217.651	1.54
217.869	-49.66
218.087	40.45
218.306	28.16
218.524	36.35
218.742	-18.94
218.96	-10.75
219.179	38.4
219.397	-2.56
219.615	32.26
219.833	-8.7
220.051	5.63
220.27	36.35
220.488	22.02
220.706	42.5
220.924	-8.7
221.142	54.78
221.36	-6.66
221.578	34.3
221.796	58.88
222.015	9.73
222.233	-8.7
222.451	-57.86
222.669	-76.29
222.887	34.3
223.105	-6.66
223.323	-14.85
223.541	24.06
223.759	26.11
223.977	-8.7
224.195	101.89
224.413	50.69
224.631	13.82
224.849	9.73
225.067	7.68
225.285	3.58
225.503	69.12
225.721	24.06
225.939	5.63
226.157	15.87
226.375	91.65
226.592	-90.62
226.81	-0.51
227.028	5.63
227.246	5.63
227.464	15.87
227.682	48.64
227.9	65.02
228.117	60.93
228.335	-23.04
228.553	32.26
228.771	-0.51
228.989	105.98
229.206	52.74
229.424	40.45
229.642	19.97
229.86	-31.23
230.077	38.4
230.295	-31.23
230.513	34.3
230.731	108.03
230.948	-25.09
231.166	-2.56
231.384	22.02
231.601	-18.94
231.819	7.68
232.037	-4.61
232.254	26.11
232.472	28.16
232.689	3.58
232.907	89.6
233.125	1.54
233.342	19.97
233.56	28.16
233.777	15.87
233.995	-16.9
234.213	34.3
234.43	44.54
234.648	-2.56
234.865	-18.94
235.083	-12.8
235.3	5.63
235.518	-0.51
235.735	-23.04
235.953	56.83
236.17	13.82
236.388	5.63
236.605	-59.9
236.822	71.17
237.04	40.45
237.257	36.35
237.475	-23.04
237.692	36.35
237.909	7.68
238.127	44.54
238.344	-10.75
238.562	114.17
238.779	48.64
238.996	-14.85
239.214	-37.38
239.431	48.64
239.648	-8.7
239.865	7.68
240.083	-8.7
240.3	52.74
240.517	-25.09
240.735	34.3
240.952	-20.99
241.169	-0.51
241.386	-25.09
241.603	11.78
241.821	9.73
242.038	11.78
242.255	87.55
242.472	28.16
242.689	36.35
242.907	-18.94
243.124	56.83
243.341	60.93
243.558	-16.9
243.775	-18.94
243.992	15.87
244.209	73.21
244.426	32.26
244.643	73.21
244.86	67.07
245.078	22.02
245.295	-2.56
245.512	-8.7
245.729	9.73
245.946	1.54
246.163	26.11
246.38	-23.04
246.597	-25.09
246.814	11.78
247.031	-31.23
247.248	-64
247.464	-2.56
247.681	30.21
247.898	7.68
248.115	-16.9
248.332	15.87
248.549	30.21
248.766	-0.51
248.983	50.69
249.2	67.07
249.417	-39.42
249.633	30.21
249.85	9.73
250.067	-41.47
250.284	-47.62
250.501	-35.33
250.717	-2.56
250.934	1.54
251.151	34.3
251.368	-6.66
251.585	-27.14
251.801	81.41
252.018	-23.04
252.235	-10.75
252.451	24.06
252.668	-31.23
252.885	19.97
253.102	48.64
253.318	50.69
253.535	-25.09
253.752	73.21
253.968	38.4
254.185	48.64
254.401	-35.33
254.618	9.73
254.835	58.88
255.051	3.58
255.268	17.92
255.484	32.26
255.701	15.87
255.917	-10.75
256.134	-6.66
256.351	-18.94
256.567	-18.94
256.784	3.58
257	-8.7
257.217	-51.71
257.433	24.06
257.65	-12.8
257.866	83.45
258.082	-25.09
258.299	-37.38
258.515	13.82
258.732	-45.57
258.948	-88.57
259.165	-35.33
259.381	58.88
259.597	3.58
259.814	48.64
260.03	-39.42
260.246	75.26
260.463	32.26
260.679	19.97
260.895	38.4
261.112	17.92
261.328	36.35
261.544	-14.85
261.761	108.03
261.977	-20.99
262.193	11.78
262.409	-12.8
262.626	17.92
262.842	7.68
263.058	48.64
263.274	22.02
263.49	38.4
263.707	81.41
263.923	7.68
264.139	50.69
264.355	52.74
264.571	13.82
264.787	-16.9
265.004	77.31
265.22	54.78
265.436	26.11
265.652	46.59
265.868	-29.18
266.084	-0.51
266.3	17.92
266.516	-0.51
266.732	-14.85
266.948	50.69
267.164	17.92
267.38	17.92
267.596	110.08
267.812	83.45
268.028	-25.09
268.244	32.26
268.46	56.83
268.676	-59.9
268.892	77.31
269.108	28.16
269.324	56.83
269.54	44.54
269.756	52.74
269.972	48.64
270.188	-12.8
270.403	-18.94
270.619	93.69
270.835	93.69
271.051	9.73
271.267	15.87
271.483	-14.85
271.698	42.5
271.914	7.68
272.13	67.07
272.346	28.16
272.562	-2.56
272.777	26.11
272.993	52.74
273.209	-8.7
273.425	19.97
273.64	-37.38
273.856	-8.7
274.072	-39.42
274.287	24.06
274.503	15.87
274.719	3.58
274.934	1.54
275.15	-10.75
275.366	36.35
275.581	58.88
275.797	9.73
276.012	44.54
276.228	-27.14
276.444	15.87
276.659	7.68
276.875	-16.9
277.09	42.5
277.306	13.82
277.521	3.58
277.737	-20.99
277.952	9.73
278.168	46.59
278.383	40.45
278.599	-10.75
278.814	34.3
279.03	73.21
279.245	-8.7
279.461	11.78
279.676	32.26
279.892	3.58
280.107	19.97
280.322	36.35
280.538	36.35
280.753	26.11
280.969	-29.18
281.184	62.98
281.399	36.35
281.615	9.73
281.83	34.3
282.045	-20.99
282.26	-20.99
282.476	-66.05
282.691	19.97
282.906	32.26
283.122	15.87
283.337	40.45
283.552	81.41
283.767	26.11
283.983	30.21
284.198	19.97
284.413	62.98
284.628	11.78
284.843	-33.28
285.058	-23.04
285.274	13.82
285.489	58.88
285.704	40.45
285.919	62.98
286.134	15.87
286.349	30.21
286.564	58.88
286.779	89.6
286.995	-12.8
287.21	5.63
287.425	-10.75
287.64	9.73
287.855	40.45
288.07	-2.56
288.285	15.87
288.5	-16.9
288.715	42.5
288.93	54.78
289.145	15.87
289.36	1.54
289.575	9.73
289.79	30.21
290.004	26.11
290.219	48.64
290.434	-37.38
290.649	28.16
290.864	-23.04
291.079	15.87
291.294	58.88
291.509	11.78
291.724	105.98
291.938	50.69
292.153	-14.85
292.368	15.87
292.583	-4.61
292.798	56.83
293.012	-6.66
293.227	-29.18
293.442	34.3
293.657	3.58
293.871	-20.99
294.086	-18.94
294.301	83.45
294.516	30.21
294.73	-49.66
294.945	17.92
295.16	56.83
295.374	15.87
295.589	-25.09
295.804	62.98
296.018	-4.61
296.233	11.78
296.447	19.97
296.662	32.26
296.877	-25.09
297.091	-12.8
297.306	11.78
297.52	52.74
297.735	99.84
297.949	-6.66
298.164	5.63
298.378	-59.9
298.593	22.02
298.807	36.35
299.022	62.98
299.236	40.45
299.451	34.3
299.665	7.68
299.88	50.69
300.094	-14.85
300.309	97.79
300.523	24.06
300.737	36.35
300.952	-37.38
301.166	15.87
301.381	17.92
301.595	9.73
301.809	48.64
302.024	32.26
302.238	38.4
302.452	5.63
302.667	-4.61
302.881	11.78
303.095	-14.85
303.309	28.16
303.524	50.69
303.738	32.26
303.952	-47.62
304.166	30.21
304.381	-12.8
304.595	30.21
304.809	7.68
305.023	-8.7
305.237	46.59
305.452	19.97
305.666	15.87
305.88	48.64
306.094	-10.75
306.308	-39.42
306.522	-0.51
306.736	28.16
306.95	-14.85
307.164	114.17
307.379	-35.33
307.593	56.83
307.807	1.54
308.021	-0.51
308.235	67.07
308.449	44.54
308.663	46.59
308.877	38.4
309.091	46.59
309.305	85.5
309.519	-4.61
309.733	69.12
309.947	-92.67
310.161	52.74
310.374	17.92
310.588	26.11
310.802	-59.9
311.016	1.54
311.23	-12.8
311.444	46.59
311.658	36.35
311.872	-4.61
312.085	-37.38
312.299	67.07
312.513	114.17
312.727	19.97
312.941	15.87
313.154	48.64
313.368	28.16
313.582	-6.66
313.796	36.35
314.009	32.26
314.223	34.3
314.437	28.16
314.651	-25.09
314.864	-16.9
315.078	-68.09
315.292	-14.85
315.505	24.06
315.719	13.82
315.933	75.26
316.146	73.21
316.36	40.45
316.573	7.68
316.787	9.73
317.001	15.87
317.214	62.98
317.428	11.78
317.641	7.68
317.855	-39.42
318.068	-51.71
318.282	71.17
318.495	87.55
318.709	-12.8
318.922	28.16
319.136	-64
319.349	-10.75
319.563	67.07
319.776	34.3
319.99	-12.8
320.203	36.35
320.417	40.45
320.63	28.16
320.843	15.87
321.057	30.21
321.27	65.02
321.483	32.26
321.697	52.74
321.91	5.63
322.124	69.12
322.337	-6.66
322.55	11.78
322.763	13.82
322.977	9.73
323.19	5.63
323.403	22.02
323.617	30.21
323.83	-31.23
324.043	3.58
324.256	-35.33
324.469	-35.33
324.683	1.54
324.896	-53.76
325.109	77.31
325.322	-33.28
325.535	32.26
325.748	-12.8
325.962	-8.7
326.175	-23.04
326.388	38.4
326.601	7.68
326.814	-66.05
327.027	32.26
327.24	-18.94
327.453	-35.33
327.666	1.54
327.879	13.82
328.092	9.73
328.305	69.12
328.518	34.3
328.731	-20.99
328.944	67.07
329.157	44.54
329.37	36.35
329.583	83.45
329.796	11.78
330.009	67.07
330.222	-0.51
330.435	71.17
330.648	-18.94
330.861	-10.75
331.073	24.06
331.286	56.83
331.499	56.83
331.712	22.02
331.925	3.58
332.138	28.16
332.35	24.06
332.563	-47.62
332.776	-27.14
332.989	-25.09
333.202	87.55
333.414	9.73
333.627	3.58
333.84	32.26
334.053	-4.61
334.265	24.06
334.478	36.35
334.691	-4.61
334.903	24.06
335.116	-0.51
335.329	7.68
335.541	56.83
335.754	-14.85
335.966	17.92
336.179	30.21
336.392	13.82
336.604	15.87
336.817	1.54
337.029	-41.47
337.242	101.89
337.454	97.79
337.667	34.3
337.88	75.26
338.092	-25.09
338.305	-0.51
338.517	65.02
338.729	-0.51
338.942	44.54
339.154	-8.7
339.367	-23.04
339.579	3.58
339.792	-2.56
340.004	56.83
340.217	-14.85
340.429	19.97
340.641	-20.99
340.854	-27.14
341.066	32.26
341.278	19.97
341.491	-0.51
341.703	30.21
341.915	-18.94
342.128	108.03
342.34	50.69
342.552	-84.48
342.764	30.21
342.977	13.82
343.189	62.98
343.401	-16.9
343.613	-20.99
343.826	13.82
344.038	1.54
344.25	22.02
344.462	-4.61
344.674	-0.51
344.886	-29.18
345.099	26.11
345.311	81.41
345.523	15.87
345.735	56.83
345.947	38.4
346.159	36.35
346.371	52.74
346.583	56.83
346.795	67.07
347.007	-14.85
347.219	-33.28
347.431	24.06
347.643	7.68
347.855	-0.51
348.067	24.06
348.279	-18.94
348.491	34.3
348.703	-8.7
348.915	-2.56
349.127	28.16
349.339	-8.7
349.551	-18.94
349.763	-6.66
349.975	69.12
350.187	36.35
350.399	-16.9
350.61	-27.14
350.822	-20.99
351.034	79.36
351.246	58.88
351.458	73.21
351.669	24.06
351.881	32.26
352.093	73.21
352.305	-10.75
352.517	-4.61
352.728	46.59
352.94	24.06
353.152	40.45
353.363	-10.75
353.575	65.02
353.787	65.02
353.999	13.82
354.21	44.54
354.422	-10.75
354.633	65.02
354.845	48.64
355.057	48.64
355.268	-6.66
355.48	81.41
355.692	24.06
355.903	44.54
356.115	1.54
356.326	26.11
356.538	77.31
356.749	40.45
356.961	85.5
357.172	-64
357.384	26.11
357.595	50.69
357.807	-0.51
358.018	-8.7
358.23	-29.18
358.441	60.93
358.653	-8.7
358.864	15.87
359.075	42.5
359.287	-6.66
359.498	69.12
359.709	69.12
359.921	15.87
360.132	83.45
360.344	56.83
360.555	-25.09
360.766	56.83
360.977	3.58
361.189	56.83
361.4	-16.9
361.611	24.06
361.823	13.82
362.034	13.82
362.245	26.11
362.456	-49.66
362.667	44.54
362.879	26.11
363.09	-23.04
363.301	26.11
363.512	9.73
363.723	91.65
363.935	91.65
364.146	-0.51
364.357	38.4
364.568	40.45
364.779	60.93
364.99	-18.94
365.201	67.07
365.412	65.02
365.623	116.22
365.834	11.78
366.045	22.02
366.256	65.02
366.467	58.88
366.678	58.88
366.889	-61.95
367.1	-39.42
367.311	69.12
367.522	9.73
367.733	28.16
367.944	56.83
368.155	1.54
368.366	28.16
368.577	54.78
368.788	58.88
368.999	36.35
369.209	34.3
369.42	24.06
369.631	24.06
369.842	42.5
370.053	13.82
370.264	-4.61
370.474	-39.42
370.685	-10.75
370.896	-0.51
371.107	93.69
371.317	38.4
371.528	-10.75
371.739	30.21
371.95	32.26
372.16	69.12
372.371	-33.28
372.582	120.32
372.792	9.73
373.003	17.92
373.214	83.45
373.424	140.8
373.635	-25.09
373.846	7.68
374.056	7.68
374.267	38.4
374.477	-14.85
374.688	71.17
374.898	36.35
375.109	60.93
375.319	36.35
375.53	30.21
375.74	69.12
375.951	-16.9
376.161	-37.38
376.372	120.32
376.582	30.21
376.793	67.07
377.003	-27.14
377.214	30.21
377.424	48.64
377.635	69.12
377.845	95.74
378.055	17.92
378.266	19.97
378.476	26.11
378.686	34.3
378.897	22.02
379.107	50.69
379.317	-10.75
379.528	44.54
379.738	9.73
379.948	15.87
380.158	7.68
380.369	-16.9
380.579	50.69
380.789	48.64
380.999	-0.51
381.21	40.45
381.42	101.89
381.63	77.31
381.84	-14.85
382.05	13.82
382.261	-2.56
382.471	83.45
382.681	17.92
382.891	-8.7
383.101	75.26
383.311	3.58
383.521	19.97
383.731	97.79
383.941	81.41
384.151	19.97
384.361	99.84
384.571	3.58
384.781	19.97
384.991	38.4
385.201	15.87
385.411	93.69
385.621	58.88
385.831	15.87
386.041	58.88
386.251	42.5
386.461	15.87
386.671	1.54
386.881	75.26
387.091	5.63
387.301	32.26
387.511	24.06
387.72	58.88
387.93	19.97
388.14	30.21
388.35	28.16
388.56	81.41
388.769	75.26
388.979	40.45
389.189	75.26
389.399	-0.51
389.609	52.74
389.818	-6.66
390.028	26.11
390.238	13.82
390.447	19.97
390.657	46.59
390.867	56.83
391.076	75.26
391.286	52.74
391.496	99.84
391.705	-12.8
391.915	91.65
392.125	34.3
392.334	17.92
392.544	58.88
392.753	34.3
392.963	75.26
393.172	62.98
393.382	97.79
393.591	69.12
393.801	69.12
394.01	5.63
394.22	15.87
394.429	83.45
394.639	22.02
394.848	142.85
395.058	22.02
395.267	71.17
395.477	40.45
395.686	79.36
395.895	87.55
396.105	140.8
396.314	167.42
396.524	142.85
396.733	-23.04
396.942	73.21
397.152	36.35
397.361	91.65
397.57	65.02
397.78	130.56
397.989	40.45
398.198	128.51
398.407	134.65
398.617	122.37
398.826	11.78
399.035	40.45
399.244	87.55
399.453	99.84
399.663	67.07
399.872	146.94
400.081	58.88
400.29	52.74
400.499	65.02
400.708	75.26
400.917	69.12
401.127	87.55
401.336	153.09
401.545	151.04
401.754	71.17
401.963	132.61
402.172	3.58
402.381	54.78
402.59	116.22
402.799	81.41
403.008	50.69
403.217	157.18
403.426	1.54
403.635	89.6
403.844	97.79
404.053	65.02
404.262	118.27
404.471	71.17
404.68	40.45
404.888	93.69
405.097	42.5
405.306	136.7
405.515	81.41
405.724	97.79
405.933	97.79
406.142	161.28
406.35	163.33
406.559	216.57
406.768	155.13
406.977	130.56
407.185	108.03
407.394	183.81
407.603	101.89
407.812	161.28
408.02	196.09
408.229	171.52
408.438	126.46
408.646	105.98
408.855	169.47
409.064	173.57
409.272	230.91
409.481	198.14
409.69	271.87
409.898	128.51
410.107	181.76
410.315	206.33
410.524	222.72
410.733	259.58
410.941	245.24
411.15	280.06
411.358	300.54
411.567	296.44
411.775	294.4
411.984	265.72
412.192	329.21
412.401	325.12
412.609	349.69
412.818	396.79
413.026	304.64
413.234	386.55
413.443	335.35
413.651	378.36
413.86	435.71
414.068	427.51
414.276	486.9
414.485	470.52
414.693	421.37
414.901	447.99
415.11	515.58
415.318	579.06
415.526	583.16
415.734	572.92
415.943	540.15
416.151	660.98
416.359	583.16
416.567	693.75
416.776	577.02
416.984	689.65
417.192	736.76
417.4	689.65
417.608	728.56
417.817	703.99
418.025	824.82
418.233	835.06
418.441	808.44
418.649	804.34
418.857	847.35
419.065	1007.09
419.273	945.65
419.481	925.17
419.689	949.75
419.897	1142.25
420.105	1089.01
420.313	1134.06
420.521	1162.73
420.729	1213.93
420.937	1170.93
421.145	1293.8
421.353	1273.32
421.561	1353.2
421.769	1392.11
421.977	1523.18
422.185	1560.04
422.393	1514.98
422.601	1553.9
422.809	1621.48
423.017	1732.07
423.224	1697.25
423.432	1797.6
423.64	1873.38
423.848	1969.63
424.056	1977.83
424.263	2123.23
424.471	1973.73
424.679	2127.33
424.887	2250.21
425.094	2348.51
425.302	2379.23
425.51	2409.95
425.718	2407.9
425.925	2393.56
426.133	2586.07
426.341	2629.08
426.548	2817.49
426.756	2678.23
426.964	2876.88
427.171	3124.69
427.379	3083.73
427.586	3106.26
427.794	3309.01
428.001	3335.63
428.209	3603.91
428.417	3567.05
428.624	3859.91
428.832	3925.44
429.039	3689.93
429.247	3810.76
429.454	4087.23
429.662	4294.08
429.869	4113.86
430.076	4269.5
430.284	4214.21
430.491	4314.56
430.699	4670.9
430.906	4654.52
431.114	4801.97
431.321	5076.4
431.528	4971.96
431.736	5326.25
431.943	5799.34
432.15	5504.43
432.358	5664.17
432.565	5752.23
432.772	5907.88
432.979	6018.47
433.187	6159.78
433.394	6305.18
433.601	6798.74
433.808	6661.53
434.016	6792.6
434.223	6993.3
434.43	7386.51
434.637	7306.64
434.844	7871.88
435.052	7798.15
435.259	7732.62
435.466	7986.57
435.673	7806.34
435.88	8297.86
436.087	8992.12
436.294	8686.97
436.501	8629.63
436.708	8711.55
436.915	9037.17
437.122	9362.8
437.329	9383.28
437.537	9925.99
437.743	9973.1
437.95	9821.55
438.157	10235.24
438.364	10556.77
438.571	10655.07
438.778	10769.76
438.985	11654.48
439.192	11380.05
439.399	11666.77
439.606	11382.1
439.813	12143.94
440.02	13030.71
440.227	12559.68
440.433	12356.93
440.64	13143.35
440.847	12907.84
441.054	13182.26
441.261	14081.32
441.467	13794.61
441.674	13940.01
441.881	14605.6
442.088	14761.25
442.294	14478.63
442.501	14779.68
442.708	15054.11
442.914	15672.59
443.121	16231.69
443.328	15940.88
443.534	17126.65
443.741	16688.39
443.948	16342.28
444.154	17634.55
444.361	17515.76
444.568	17712.37
444.774	17585.4
444.981	17808.62
445.187	18398.44
445.394	19154.14
445.6	18689.25
445.807	20731.08
446.013	19647.7
446.22	20124.88
446.426	20997.31
446.633	20913.34
446.839	21990.58
447.046	21112
447.252	22172.85
447.459	22078.64
447.665	22115.5
447.871	23020.7
448.078	23985.3
448.284	23061.66
448.491	23653.53
448.697	24511.63
448.903	24736.9
449.11	24665.22
449.316	24620.17
449.522	25058.43
449.728	25646.2
449.935	26213.49
450.141	25885.81
450.347	26649.71
450.553	25730.17
450.76	25891.96
450.966	27059.3
451.172	26803.3
451.378	27335.77
451.584	26733.67
451.791	27282.53
451.997	27225.18
452.203	27868.25
452.409	27704.41
452.615	27542.62
452.821	26887.27
453.027	26387.57
453.233	27655.26
453.44	26477.68
453.646	27176.03
453.852	27139.17
454.058	27784.28
454.264	26670.19
454.47	27122.79
454.676	26737.77
454.882	27761.75
455.088	25306.24
455.294	25609.34
455.5	26139.76
455.705	26248.3
455.911	25095.3
456.117	24583.3
456.323	24726.66
456.529	23047.33
456.735	24099.98
456.941	23837.84
457.147	23047.33
457.352	22633.64
457.558	22439.08
457.764	22471.85
457.97	21996.72
458.176	21406.91
458.381	21380.28
458.587	20470.98
458.793	20499.66
458.999	19346.65
459.204	20686.02
459.41	20417.74
459.616	18902.24
459.821	19068.13
460.027	19002.59
460.233	18638.05
460.438	17501.43
460.644	17982.7
460.85	16973.05
461.055	16813.31
461.261	16954.62
461.466	15531.28
461.672	14984.48
461.878	16174.35
462.083	14986.52
462.289	14658.85
462.494	14683.42
462.7	14226.73
462.905	13536.56
463.111	13976.87
463.316	14261.54
463.522	13747.5
463.727	13767.98
463.932	13755.69
464.138	13661.49
464.343	13847.85
464.549	13493.55
464.754	13806.89
464.959	13559.09
465.165	13839.66
465.37	13034.81
465.575	12522.82
465.781	13307.19
465.986	13501.75
466.191	12844.35
466.397	12752.19
466.602	11859.28
466.807	12428.61
467.012	12459.33
467.218	12240.2
467.423	12365.12
467.628	12287.3
467.833	12928.31
468.038	12627.26
468.244	12057.93
