Data from USB4F104151__83__12-54-48-018.txt Node

Date: Fri Mar 14 12:54:48 EDT 2025
User: louis
Spectrometer: USB4F10415
Trigger mode: 4
Integration Time (sec): 1.000000E-2
Scans to average: 1
Electric dark correction enabled: true
Nonlinearity correction enabled: false
Boxcar width: 0
XAxis mode: Wavelengths
Number of Pixels in Spectrum: 3648
>>>>>Begin Spectral Data<<<<<
178.204	-41.81
178.424	-41.81
178.644	-41.81
178.864	-19.29
179.084	-72.53
179.304	27.82
179.524	-41.81
179.744	-39.76
179.964	76.97
180.184	1.19
180.404	11.43
180.624	-41.81
180.844	19.63
181.064	7.34
181.283	-0.85
181.503	-11.09
181.723	-9.05
181.943	-0.85
182.163	52.39
182.383	19.63
182.602	109.74
182.822	-66.39
183.042	83.11
183.262	31.91
183.482	40.11
183.701	23.72
183.921	9.39
184.141	29.87
184.361	29.87
184.58	21.67
184.8	9.39
185.02	68.78
185.239	40.11
185.459	56.49
185.679	79.02
185.898	5.29
186.118	44.2
186.338	23.72
186.557	-50
186.777	29.87
186.997	33.96
187.216	-52.05
187.436	-11.09
187.655	13.48
187.875	5.29
188.095	74.92
188.314	103.59
188.534	56.49
188.753	-33.62
188.973	-27.48
189.192	29.87
189.412	-56.15
189.631	-19.29
189.851	60.59
190.07	103.59
190.29	-50
190.509	3.24
190.729	9.39
190.948	5.29
191.168	54.44
191.387	91.31
191.607	-29.52
191.826	95.4
192.045	-7
192.265	-21.33
192.484	19.63
192.704	-13.14
192.923	11.43
193.142	52.39
193.362	89.26
193.581	76.97
193.8	-47.96
194.02	50.35
194.239	11.43
194.458	36.01
194.678	76.97
194.897	-0.85
195.116	-35.67
195.335	11.43
195.555	-17.24
195.774	23.72
195.993	27.82
196.212	33.96
196.432	19.63
196.651	40.11
196.87	25.77
197.089	99.5
197.308	13.48
197.528	79.02
197.747	29.87
197.966	76.97
198.185	42.15
198.404	13.48
198.623	7.34
198.842	19.63
199.062	40.11
199.281	19.63
199.5	-13.14
199.719	68.78
199.938	13.48
200.157	13.48
200.376	-27.48
200.595	19.63
200.814	46.25
201.033	-25.43
201.252	54.44
201.471	31.91
201.69	-0.85
201.909	-0.85
202.128	-13.14
202.347	-19.29
202.566	-50
202.785	46.25
203.004	25.77
203.223	42.15
203.442	-2.9
203.661	19.63
203.879	-2.9
204.098	19.63
204.317	15.53
204.536	-47.96
204.755	60.59
204.974	62.63
205.193	17.58
205.411	-21.33
205.63	56.49
205.849	13.48
206.068	93.35
206.287	46.25
206.505	1.19
206.724	-39.76
206.943	-11.09
207.162	-54.1
207.381	13.48
207.599	64.68
207.818	27.82
208.037	23.72
208.255	29.87
208.474	-4.95
208.693	17.58
208.911	46.25
209.13	42.15
209.349	31.91
209.567	46.25
209.786	44.2
210.005	29.87
210.223	-4.95
210.442	-17.24
210.661	5.29
210.879	-21.33
211.098	40.11
211.316	11.43
211.535	62.63
211.753	70.83
211.972	29.87
212.191	62.63
212.409	25.77
212.628	-39.76
212.846	66.73
213.065	-80.72
213.283	54.44
213.502	58.54
213.72	19.63
213.938	33.96
214.157	72.87
214.375	7.34
214.594	44.2
214.812	19.63
215.031	40.11
215.249	52.39
215.467	23.72
215.686	52.39
215.904	74.92
216.122	-15.19
216.341	52.39
216.559	-0.85
216.778	-11.09
216.996	56.49
217.214	-11.09
217.432	40.11
217.651	19.63
217.869	7.34
218.087	50.35
218.306	89.26
218.524	9.39
218.742	17.58
218.96	91.31
219.179	-9.05
219.397	-52.05
219.615	74.92
219.833	11.43
220.051	99.5
220.27	70.83
220.488	-2.9
220.706	-13.14
220.924	-62.29
221.142	27.82
221.36	36.01
221.578	54.44
221.796	44.2
222.015	48.3
222.233	1.19
222.451	58.54
222.669	21.67
222.887	38.06
223.105	11.43
223.323	-54.1
223.541	33.96
223.759	101.55
223.977	40.11
224.195	79.02
224.413	21.67
224.631	25.77
224.849	5.29
225.067	13.48
225.285	-52.05
225.503	66.73
225.721	52.39
225.939	1.19
226.157	46.25
226.375	40.11
226.592	-60.24
226.81	5.29
227.028	56.49
227.246	-4.95
227.464	23.72
227.682	36.01
227.9	-25.43
228.117	115.88
228.335	40.11
228.553	46.25
228.771	27.82
228.989	103.59
229.206	52.39
229.424	66.73
229.642	40.11
229.86	38.06
230.077	97.45
230.295	38.06
230.513	-35.67
230.731	11.43
230.948	44.2
231.166	150.7
231.384	64.68
231.601	3.24
231.819	19.63
232.037	44.2
232.254	19.63
232.472	50.35
232.689	21.67
232.907	44.2
233.125	-45.91
233.342	89.26
233.56	5.29
233.777	17.58
233.995	-35.67
234.213	19.63
234.43	21.67
234.648	-15.19
234.865	29.87
235.083	64.68
235.3	40.11
235.518	56.49
235.735	44.2
235.953	60.59
236.17	33.96
236.388	9.39
236.605	66.73
236.822	58.54
237.04	52.39
237.257	17.58
237.475	-78.68
237.692	15.53
237.909	68.78
238.127	3.24
238.344	19.63
238.562	7.34
238.779	17.58
238.996	117.93
239.214	7.34
239.431	38.06
239.648	33.96
239.865	54.44
240.083	-25.43
240.3	-13.14
240.517	17.58
240.735	11.43
240.952	-13.14
241.169	87.21
241.386	48.3
241.603	93.35
241.821	-29.52
242.038	33.96
242.255	52.39
242.472	29.87
242.689	66.73
242.907	38.06
243.124	62.63
243.341	74.92
243.558	17.58
243.775	13.48
243.992	-50
244.209	83.11
244.426	54.44
244.643	46.25
244.86	-19.29
245.078	48.3
245.295	81.07
245.512	19.63
245.729	-31.57
245.946	66.73
246.163	17.58
246.38	1.19
246.597	-2.9
246.814	27.82
247.031	-70.48
247.248	62.63
247.464	9.39
247.681	66.73
247.898	60.59
248.115	-50
248.332	13.48
248.549	38.06
248.766	48.3
248.983	38.06
249.2	-2.9
249.417	-4.95
249.633	79.02
249.85	-0.85
250.067	1.19
250.284	31.91
250.501	27.82
250.717	21.67
250.934	-70.48
251.151	-74.58
251.368	29.87
251.585	-31.57
251.801	48.3
252.018	29.87
252.235	13.48
252.451	-29.52
252.668	25.77
252.885	3.24
253.102	31.91
253.318	29.87
253.535	29.87
253.752	62.63
253.968	15.53
254.185	-47.96
254.401	-17.24
254.618	105.64
254.835	60.59
255.051	-52.05
255.268	-21.33
255.484	5.29
255.701	83.11
255.917	-0.85
256.134	9.39
256.351	60.59
256.567	13.48
256.784	52.39
257	33.96
257.217	48.3
257.433	38.06
257.65	48.3
257.866	9.39
258.082	40.11
258.299	-4.95
258.515	44.2
258.732	85.16
258.948	-35.67
259.165	64.68
259.381	-2.9
259.597	1.19
259.814	19.63
260.03	36.01
260.246	-33.62
260.463	7.34
260.679	58.54
260.895	74.92
261.112	-0.85
261.328	19.63
261.544	5.29
261.761	60.59
261.977	101.55
262.193	-13.14
262.409	40.11
262.626	66.73
262.842	79.02
263.058	13.48
263.274	33.96
263.49	72.87
263.707	81.07
263.923	17.58
264.139	-68.44
264.355	68.78
264.571	29.87
264.787	56.49
265.004	-35.67
265.22	29.87
265.436	-0.85
265.652	-17.24
265.868	17.58
266.084	13.48
266.3	-25.43
266.516	5.29
266.732	40.11
266.948	15.53
267.164	60.59
267.38	11.43
267.596	48.3
267.812	7.34
268.028	54.44
268.244	-50
268.46	44.2
268.676	58.54
268.892	21.67
269.108	-0.85
269.324	66.73
269.54	38.06
269.756	-4.95
269.972	36.01
270.188	29.87
270.403	-66.39
270.619	85.16
270.835	40.11
271.051	40.11
271.267	-39.76
271.483	36.01
271.698	23.72
271.914	-62.29
272.13	-7
272.346	46.25
272.562	81.07
272.777	23.72
272.993	48.3
273.209	89.26
273.425	83.11
273.64	38.06
273.856	46.25
274.072	74.92
274.287	33.96
274.503	23.72
274.719	83.11
274.934	62.63
275.15	40.11
275.366	60.59
275.581	134.31
275.797	38.06
276.012	66.73
276.228	-45.91
276.444	38.06
276.659	95.4
276.875	-9.05
277.09	-60.24
277.306	3.24
277.521	58.54
277.737	-0.85
277.952	19.63
278.168	33.96
278.383	-39.76
278.599	72.87
278.814	66.73
279.03	-17.24
279.245	-7
279.461	79.02
279.676	27.82
279.892	-45.91
280.107	44.2
280.322	27.82
280.538	-2.9
280.753	3.24
280.969	-13.14
281.184	87.21
281.399	85.16
281.615	46.25
281.83	-21.33
282.045	21.67
282.26	13.48
282.476	29.87
282.691	83.11
282.906	19.63
283.122	76.97
283.337	-25.43
283.552	-4.95
283.767	36.01
283.983	70.83
284.198	-9.05
284.413	44.2
284.628	-29.52
284.843	7.34
285.058	40.11
285.274	-27.48
285.489	46.25
285.704	9.39
285.919	23.72
286.134	42.15
286.349	-9.05
286.564	5.29
286.779	85.16
286.995	13.48
287.21	-41.81
287.425	95.4
287.64	-33.62
287.855	33.96
288.07	-50
288.285	50.35
288.5	-7
288.715	58.54
288.93	40.11
289.145	-29.52
289.36	-23.38
289.575	-15.19
289.79	70.83
290.004	97.45
290.219	15.53
290.434	23.72
290.649	5.29
290.864	-2.9
291.079	-13.14
291.294	38.06
291.509	122.02
291.724	-19.29
291.938	1.19
292.153	-2.9
292.368	33.96
292.583	25.77
292.798	7.34
293.012	19.63
293.227	70.83
293.442	81.07
293.657	76.97
293.871	23.72
294.086	-7
294.301	29.87
294.516	11.43
294.73	105.64
294.945	60.59
295.16	119.98
295.374	-13.14
295.589	-29.52
295.804	-45.91
296.018	3.24
296.233	33.96
296.447	-2.9
296.662	40.11
296.877	11.43
297.091	81.07
297.306	72.87
297.52	50.35
297.735	-0.85
297.949	17.58
298.164	-0.85
298.378	-29.52
298.593	64.68
298.807	-15.19
299.022	33.96
299.236	74.92
299.451	46.25
299.665	87.21
299.88	-9.05
300.094	3.24
300.309	40.11
300.523	3.24
300.737	-2.9
300.952	-13.14
301.166	40.11
301.381	42.15
301.595	56.49
301.809	36.01
302.024	99.5
302.238	-50
302.452	-29.52
302.667	23.72
302.881	72.87
303.095	11.43
303.309	46.25
303.524	31.91
303.738	27.82
303.952	31.91
304.166	15.53
304.381	-9.05
304.595	97.45
304.809	29.87
305.023	62.63
305.237	9.39
305.452	25.77
305.666	74.92
305.88	93.35
306.094	38.06
306.308	5.29
306.522	-41.81
306.736	54.44
306.95	27.82
307.164	-0.85
307.379	-11.09
307.593	54.44
307.807	46.25
308.021	21.67
308.235	23.72
308.449	44.2
308.663	54.44
308.877	54.44
309.091	5.29
309.305	83.11
309.519	33.96
309.733	-9.05
309.947	-43.86
310.161	21.67
310.374	44.2
310.588	68.78
310.802	-35.67
311.016	76.97
311.23	27.82
311.444	44.2
311.658	-17.24
311.872	5.29
312.085	70.83
312.299	60.59
312.513	-27.48
312.727	-21.33
312.941	3.24
313.154	109.74
313.368	29.87
313.582	60.59
313.796	-35.67
314.009	11.43
314.223	68.78
314.437	5.29
314.651	83.11
314.864	87.21
315.078	-11.09
315.292	5.29
315.505	48.3
315.719	15.53
315.933	40.11
316.146	17.58
316.36	11.43
316.573	-2.9
316.787	25.77
317.001	-43.86
317.214	107.69
317.428	54.44
317.641	29.87
317.855	60.59
318.068	40.11
318.282	85.16
318.495	58.54
318.709	19.63
318.922	-27.48
319.136	36.01
319.349	-11.09
319.563	3.24
319.776	27.82
319.99	-58.2
320.203	60.59
320.417	42.15
320.63	40.11
320.843	66.73
321.057	58.54
321.27	85.16
321.483	42.15
321.697	-41.81
321.91	19.63
322.124	29.87
322.337	117.93
322.55	-9.05
322.763	-9.05
322.977	44.2
323.19	-2.9
323.403	44.2
323.617	93.35
323.83	52.39
324.043	74.92
324.256	27.82
324.469	3.24
324.683	58.54
324.896	17.58
325.109	83.11
325.322	1.19
325.535	54.44
325.748	52.39
325.962	79.02
326.175	25.77
326.388	52.39
326.601	105.64
326.814	31.91
327.027	-43.86
327.24	25.77
327.453	44.2
327.666	87.21
327.879	-37.72
328.092	89.26
328.305	21.67
328.518	-0.85
328.731	9.39
328.944	17.58
329.157	85.16
329.37	124.07
329.583	19.63
329.796	56.49
330.009	19.63
330.222	17.58
330.435	119.98
330.648	36.01
330.861	3.24
331.073	54.44
331.286	13.48
331.499	91.31
331.712	-0.85
331.925	38.06
332.138	33.96
332.35	50.35
332.563	-7
332.776	74.92
332.989	7.34
333.202	44.2
333.414	27.82
333.627	40.11
333.84	95.4
334.053	15.53
334.265	-11.09
334.478	74.92
334.691	3.24
334.903	103.59
335.116	13.48
335.329	27.82
335.541	-2.9
335.754	66.73
335.966	68.78
336.179	50.35
336.392	-15.19
336.604	36.01
336.817	74.92
337.029	-4.95
337.242	74.92
337.454	46.25
337.667	21.67
337.88	19.63
338.092	-7
338.305	5.29
338.517	42.15
338.729	21.67
338.942	13.48
339.154	64.68
339.367	27.82
339.579	50.35
339.792	15.53
340.004	44.2
340.217	93.35
340.429	40.11
340.641	-21.33
340.854	48.3
341.066	111.78
341.278	3.24
341.491	-4.95
341.703	70.83
341.915	93.35
342.128	-21.33
342.34	25.77
342.552	17.58
342.764	81.07
342.977	60.59
343.189	-13.14
343.401	1.19
343.613	-25.43
343.826	42.15
344.038	-4.95
344.25	83.11
344.462	50.35
344.674	9.39
344.886	-27.48
345.099	13.48
345.311	50.35
345.523	27.82
345.735	15.53
345.947	-0.85
346.159	81.07
346.371	107.69
346.583	27.82
346.795	128.17
347.007	44.2
347.219	68.78
347.431	64.68
347.643	42.15
347.855	33.96
348.067	74.92
348.279	17.58
348.491	-21.33
348.703	11.43
348.915	-13.14
349.127	46.25
349.339	9.39
349.551	11.43
349.763	33.96
349.975	-13.14
350.187	79.02
350.399	17.58
350.61	-21.33
350.822	7.34
351.034	17.58
351.246	68.78
351.458	68.78
351.669	-9.05
351.881	95.4
352.093	27.82
352.305	64.68
352.517	56.49
352.728	7.34
352.94	-19.29
353.152	83.11
353.363	58.54
353.575	54.44
353.787	33.96
353.999	13.48
354.21	50.35
354.422	91.31
354.633	-21.33
354.845	124.07
355.057	-78.68
355.268	44.2
355.48	-39.76
355.692	25.77
355.903	91.31
356.115	42.15
356.326	-9.05
356.538	19.63
356.749	60.59
356.961	99.5
357.172	3.24
357.384	19.63
357.595	-2.9
357.807	58.54
358.018	13.48
358.23	3.24
358.441	66.73
358.653	46.25
358.864	40.11
359.075	48.3
359.287	-2.9
359.498	68.78
359.709	15.53
359.921	13.48
360.132	7.34
360.344	44.2
360.555	11.43
360.766	5.29
360.977	27.82
361.189	7.34
361.4	23.72
361.611	64.68
361.823	-27.48
362.034	54.44
362.245	-0.85
362.456	19.63
362.667	42.15
362.879	44.2
363.09	40.11
363.301	19.63
363.512	-15.19
363.723	62.63
363.935	48.3
364.146	124.07
364.357	15.53
364.568	36.01
364.779	5.29
364.99	60.59
365.201	31.91
365.412	76.97
365.623	99.5
365.834	56.49
366.045	130.22
366.256	21.67
366.467	15.53
366.678	79.02
366.889	-33.62
367.1	-29.52
367.311	-52.05
367.522	29.87
367.733	95.4
367.944	66.73
368.155	-0.85
368.366	89.26
368.577	62.63
368.788	23.72
368.999	-29.52
369.209	-43.86
369.42	66.73
369.631	91.31
369.842	21.67
370.053	23.72
370.264	44.2
370.474	107.69
370.685	21.67
370.896	-11.09
371.107	46.25
371.317	-13.14
371.528	19.63
371.739	97.45
371.95	50.35
372.16	-33.62
372.371	-13.14
372.582	52.39
372.792	1.19
373.003	27.82
373.214	64.68
373.424	-29.52
373.635	36.01
373.846	60.59
374.056	52.39
374.267	66.73
374.477	29.87
374.688	7.34
374.898	64.68
375.109	29.87
375.319	58.54
375.53	52.39
375.74	-19.29
375.951	29.87
376.161	9.39
376.372	140.46
376.582	42.15
376.793	23.72
377.003	48.3
377.214	21.67
377.424	9.39
377.635	89.26
377.845	76.97
378.055	126.12
378.266	62.63
378.476	-0.85
378.686	38.06
378.897	25.77
379.107	-0.85
379.317	44.2
379.528	44.2
379.738	17.58
379.948	3.24
380.158	-35.67
380.369	93.35
380.579	68.78
380.789	19.63
380.999	81.07
381.21	19.63
381.42	99.5
381.63	40.11
381.84	64.68
382.05	27.82
382.261	54.44
382.471	17.58
382.681	33.96
382.891	-0.85
383.101	62.63
383.311	70.83
383.521	31.91
383.731	1.19
383.941	64.68
384.151	-4.95
384.361	66.73
384.571	74.92
384.781	97.45
384.991	74.92
385.201	154.79
385.411	27.82
385.621	105.64
385.831	95.4
386.041	11.43
386.251	66.73
386.461	1.19
386.671	79.02
386.881	111.78
387.091	68.78
387.301	62.63
387.511	85.16
387.72	56.49
387.93	89.26
388.14	25.77
388.35	-2.9
388.56	122.02
388.769	-64.34
388.979	11.43
389.189	40.11
389.399	76.97
389.609	66.73
389.818	-2.9
390.028	54.44
390.238	27.82
390.447	-25.43
390.657	29.87
390.867	93.35
391.076	126.12
391.286	-4.95
391.496	64.68
391.705	31.91
391.915	-19.29
392.125	60.59
392.334	15.53
392.544	-9.05
392.753	9.39
392.963	42.15
393.172	46.25
393.382	29.87
393.591	107.69
393.801	50.35
394.01	52.39
394.22	7.34
394.429	87.21
394.639	56.49
394.848	68.78
395.058	17.58
395.267	62.63
395.477	40.11
395.686	29.87
395.895	46.25
396.105	56.49
396.314	36.01
396.524	154.79
396.733	9.39
396.942	33.96
397.152	23.72
397.361	62.63
397.57	-17.24
397.78	25.77
397.989	36.01
398.198	70.83
398.407	105.64
398.617	148.65
398.826	52.39
399.035	134.31
399.244	36.01
399.453	79.02
399.663	103.59
399.872	70.83
400.081	27.82
400.29	27.82
400.499	38.06
400.708	113.83
400.917	83.11
401.127	33.96
401.336	5.29
401.545	50.35
401.754	76.97
401.963	70.83
402.172	64.68
402.381	113.83
402.59	44.2
402.799	42.15
403.008	52.39
403.217	21.67
403.426	76.97
403.635	-0.85
403.844	85.16
404.053	111.78
404.262	91.31
404.471	85.16
404.68	83.11
404.888	97.45
405.097	-74.58
405.306	54.44
405.515	99.5
405.724	60.59
405.933	130.22
406.142	140.46
406.35	142.5
406.559	76.97
406.768	165.03
406.977	101.55
407.185	115.88
407.394	85.16
407.603	79.02
407.812	105.64
408.02	87.21
408.229	101.55
408.438	91.31
408.646	103.59
408.855	87.21
409.064	132.26
409.272	74.92
409.481	128.17
409.69	85.16
409.898	175.27
410.107	173.22
410.315	158.89
410.524	62.63
410.733	232.62
410.941	152.74
411.15	238.76
411.358	138.41
411.567	261.29
411.775	205.99
411.984	257.19
412.192	220.33
412.401	130.22
412.609	228.52
412.818	193.7
413.026	226.47
413.234	279.72
413.443	261.29
413.651	224.42
413.86	171.18
414.068	330.92
414.276	300.2
414.485	289.96
414.693	316.58
414.901	378.02
415.11	296.1
415.318	308.39
415.526	328.87
415.734	382.12
415.943	406.69
416.151	367.78
416.359	386.21
416.567	375.97
416.776	357.54
416.984	482.47
417.192	472.23
417.4	502.95
417.608	482.47
417.817	435.36
418.025	404.64
418.233	568.48
418.441	560.29
418.649	584.87
418.857	507.04
419.065	539.81
419.273	543.91
419.481	654.5
419.689	634.02
419.897	642.21
420.105	586.91
420.313	724.13
420.521	638.11
420.729	687.26
420.937	687.26
421.145	793.76
421.353	785.57
421.561	871.58
421.769	939.16
421.977	879.77
422.185	953.5
422.393	912.54
422.601	1074.33
422.809	1119.39
423.017	1010.84
423.224	1107.1
423.432	1209.5
423.64	1078.43
423.848	1234.07
424.056	1170.58
424.263	1244.31
424.471	1176.73
424.679	1342.61
424.887	1363.09
425.094	1445.01
425.302	1334.42
425.51	1449.11
425.718	1547.41
425.925	1502.36
426.133	1598.61
426.341	1682.58
426.548	1721.49
426.756	1707.15
426.964	1819.79
427.171	1856.65
427.379	1977.48
427.586	2036.88
427.794	1987.72
428.001	2012.3
428.209	2155.66
428.417	2102.41
428.624	2364.55
428.832	2268.3
429.039	2292.87
429.247	2292.87
429.454	2548.87
429.662	2565.25
429.869	2514.05
430.076	2657.41
430.284	2575.49
430.491	2780.29
430.699	2985.09
430.906	2862.21
431.114	2882.69
431.321	2962.56
431.528	3173.5
431.736	3232.89
431.943	3427.45
432.15	3288.18
432.358	3484.79
432.565	3570.8
432.772	3572.85
432.979	3538.04
433.187	3855.47
433.394	3787.89
433.601	4086.89
433.808	3994.73
434.016	4113.52
434.223	4226.15
434.43	4365.42
434.637	4353.13
434.844	4643.94
435.052	4689
435.259	4693.09
435.466	4746.34
435.673	4621.41
435.88	4973.66
436.087	5456.98
436.294	5225.56
436.501	5205.08
436.708	5229.66
436.915	5409.88
437.122	5526.61
437.329	5641.3
437.537	5815.38
437.743	5885.01
437.95	5745.75
438.157	6069.33
438.364	6476.87
438.571	6462.54
438.778	6351.95
438.985	6999.1
439.192	6892.61
439.399	7185.47
439.606	6820.93
439.813	7326.78
440.02	7568.44
440.227	7609.4
440.433	7457.85
440.64	7717.94
440.847	7851.06
441.054	7949.36
441.261	8274.99
441.467	8164.4
441.674	8444.97
441.881	8660.01
442.088	8592.42
442.294	8711.21
442.501	9116.7
442.708	8969.25
442.914	9350.17
443.121	9884.69
443.328	9530.39
443.534	10300.43
443.741	9870.36
443.948	9647.13
444.154	10548.23
444.361	10435.6
444.568	10621.96
444.774	10408.97
444.981	10769.41
445.187	10857.48
445.394	11338.75
445.6	11310.08
445.807	12289.01
446.013	11813.88
446.22	12141.55
446.426	12530.67
446.633	12649.45
446.839	13022.18
447.046	12669.93
447.252	13245.41
447.459	13399.01
447.665	13452.25
447.871	13913.05
448.078	14328.78
448.284	13724.63
448.491	14019.54
448.697	14797.77
448.903	15092.68
449.11	15107.01
449.316	14760.91
449.522	15037.38
449.728	15324.1
449.935	15793.08
450.141	15516.61
450.347	15885.24
450.553	15573.95
450.76	16004.02
450.966	16077.75
451.172	15989.69
451.378	16493.49
451.584	16307.12
451.791	16673.71
451.997	16708.52
452.203	16534.45
452.409	16935.85
452.615	16774.06
452.821	16075.7
453.027	15764.41
453.233	16815.02
453.44	16411.57
453.646	16233.39
453.852	16196.53
454.058	16546.73
454.264	15866.81
454.47	16401.33
454.676	15950.78
454.882	16937.9
455.088	15408.06
455.294	15381.44
455.5	15627.2
455.705	15840.18
455.911	15162.31
456.117	15115.2
456.323	14517.2
456.529	13732.83
456.735	14156.75
456.941	14074.84
457.147	13681.63
457.352	13542.36
457.558	13302.75
457.764	13308.9
457.97	13153.25
458.176	12782.57
458.381	12862.44
458.587	12102.64
458.793	12098.55
458.999	11455.48
459.204	12215.28
459.41	11987.96
459.616	11205.63
459.821	11140.1
460.027	11469.82
460.233	10984.45
460.438	10505.23
460.644	10654.73
460.85	9987.09
461.055	9776.15
461.261	9878.55
461.466	9063.46
461.672	8887.33
461.878	9452.57
462.083	8748.07
462.289	8653.86
462.494	8629.29
462.7	8264.75
462.905	7986.22
463.111	8305.71
463.316	8088.62
463.522	8041.52
463.727	8227.89
463.932	8205.36
464.138	8031.28
464.343	8145.97
464.549	7871.54
464.754	8133.68
464.959	8006.7
465.165	7849.01
465.37	7492.66
465.575	7607.35
465.781	7828.53
465.986	7869.49
466.191	7580.73
466.397	7466.04
466.602	7025.73
466.807	7390.27
467.012	7349.31
467.218	7281.72
467.423	7216.19
467.628	7283.77
467.833	7623.73
468.038	7457.85
468.244	6972.48
468.449	7396.41
468.654	7056.45
468.859	7011.39
469.064	6880.32
469.269	6720.58
469.474	6827.07
469.679	6868.03
469.885	6698.05
