Data from USB4F104151__45__12-53-50-535.txt Node

Date: Fri Mar 14 12:53:50 EDT 2025
User: louis
Spectrometer: USB4F10415
Trigger mode: 4
Integration Time (sec): 1.000000E-2
Scans to average: 1
Electric dark correction enabled: true
Nonlinearity correction enabled: false
Boxcar width: 0
XAxis mode: Wavelengths
Number of Pixels in Spectrum: 3648
>>>>>Begin Spectral Data<<<<<
178.204	-29.35
178.424	-29.35
178.644	-29.35
178.864	-10.92
179.084	40.28
179.304	64.85
179.524	-62.12
179.744	32.08
179.964	-25.26
180.184	-4.78
180.404	-10.92
180.624	30.04
180.844	-4.78
181.064	-39.59
181.283	-0.68
181.503	-27.31
181.723	48.47
181.943	-0.68
182.163	58.71
182.383	-8.87
182.602	34.13
182.822	-31.4
183.042	-35.5
183.262	5.46
183.482	36.18
183.701	-43.69
183.921	-25.26
184.141	-35.5
184.361	73.04
184.58	-15.02
184.8	62.8
185.02	27.99
185.239	81.24
185.459	-15.02
185.679	7.51
185.898	17.75
186.118	58.71
186.338	-0.68
186.557	9.56
186.777	30.04
186.997	46.42
187.216	1.37
187.436	60.76
187.655	97.62
187.875	15.7
188.095	58.71
188.314	116.05
188.534	27.99
188.753	27.99
188.973	64.85
189.192	44.37
189.412	68.95
189.631	7.51
189.851	-2.73
190.07	-19.11
190.29	36.18
190.509	25.94
190.729	56.66
190.948	56.66
191.168	15.7
191.387	122.2
191.607	-2.73
191.826	34.13
192.045	68.95
192.265	52.56
192.484	-2.73
192.704	38.23
192.923	36.18
193.142	91.48
193.362	42.32
193.581	85.33
193.8	44.37
194.02	38.23
194.239	27.99
194.458	19.8
194.678	34.13
194.897	1.37
195.116	-27.31
195.335	11.61
195.555	27.99
195.774	30.04
195.993	-19.11
196.212	44.37
196.432	-10.92
196.651	11.61
196.87	-45.74
197.089	-2.73
197.308	48.47
197.528	38.23
197.747	-25.26
197.966	36.18
198.185	81.24
198.404	9.56
198.623	48.47
198.842	5.46
199.062	-25.26
199.281	5.46
199.5	38.23
199.719	-4.78
199.938	-72.36
200.157	-17.07
200.376	64.85
200.595	54.61
200.814	32.08
201.033	32.08
201.252	30.04
201.471	23.89
201.69	-17.07
201.909	46.42
202.128	36.18
202.347	17.75
202.566	27.99
202.785	1.37
203.004	34.13
203.223	54.61
203.442	68.95
203.661	3.41
203.879	3.41
204.098	54.61
204.317	17.75
204.536	38.23
204.755	-27.31
204.974	-15.02
205.193	56.66
205.411	46.42
205.63	68.95
205.849	17.75
206.068	56.66
206.287	36.18
206.505	30.04
206.724	19.8
206.943	-19.11
207.162	27.99
207.381	32.08
207.599	85.33
207.818	11.61
208.037	19.8
208.255	13.65
208.474	107.86
208.693	25.94
208.911	60.76
209.13	38.23
209.349	66.9
209.567	30.04
209.786	25.94
210.005	66.9
210.223	25.94
210.442	-35.5
210.661	17.75
210.879	-10.92
211.098	38.23
211.316	-49.83
211.535	27.99
211.753	-45.74
211.972	81.24
212.191	-6.83
212.409	36.18
212.628	36.18
212.846	11.61
213.065	25.94
213.283	107.86
213.502	73.04
213.72	64.85
213.938	42.32
214.157	-31.4
214.375	21.85
214.594	13.65
214.812	15.7
215.031	-2.73
215.249	95.57
215.467	-35.5
215.686	60.76
215.904	32.08
216.122	56.66
216.341	126.29
216.559	93.52
216.778	-41.64
216.996	-23.21
217.214	1.37
217.432	56.66
217.651	48.47
217.869	7.51
218.087	136.53
218.306	44.37
218.524	30.04
218.742	48.47
218.96	64.85
219.179	19.8
219.397	79.19
219.615	79.19
219.833	64.85
220.051	85.33
220.27	44.37
220.488	60.76
220.706	77.14
220.924	21.85
221.142	-17.07
221.36	68.95
221.578	52.56
221.796	23.89
222.015	40.28
222.233	-41.64
222.451	50.52
222.669	-2.73
222.887	50.52
223.105	-23.21
223.323	101.72
223.541	23.89
223.759	34.13
223.977	1.37
224.195	50.52
224.413	79.19
224.631	-2.73
224.849	-15.02
225.067	48.47
225.285	-19.11
225.503	99.67
225.721	56.66
225.939	52.56
226.157	114
226.375	81.24
226.592	19.8
226.81	71
227.028	56.66
227.246	62.8
227.464	-53.93
227.682	-33.45
227.9	-25.26
228.117	7.51
228.335	21.85
228.553	73.04
228.771	-8.87
228.989	-25.26
229.206	60.76
229.424	19.8
229.642	-0.68
229.86	40.28
230.077	19.8
230.295	60.76
230.513	75.09
230.731	-31.4
230.948	75.09
231.166	68.95
231.384	5.46
231.601	54.61
231.819	-25.26
232.037	19.8
232.254	38.23
232.472	83.28
232.689	68.95
232.907	52.56
233.125	19.8
233.342	85.33
233.56	15.7
233.777	30.04
233.995	81.24
234.213	62.8
234.43	27.99
234.648	11.61
234.865	71
235.083	101.72
235.3	-66.22
235.518	140.63
235.735	89.43
235.953	23.89
236.17	15.7
236.388	58.71
236.605	-25.26
236.822	13.65
237.04	95.57
237.257	79.19
237.475	56.66
237.692	52.56
237.909	56.66
238.127	36.18
238.344	38.23
238.562	21.85
238.779	73.04
238.996	-2.73
239.214	5.46
239.431	54.61
239.648	11.61
239.865	60.76
240.083	46.42
240.3	34.13
240.517	27.99
240.735	30.04
240.952	-35.5
241.169	73.04
241.386	77.14
241.603	56.66
241.821	42.32
242.038	9.56
242.255	9.56
242.472	34.13
242.689	30.04
242.907	91.48
243.124	44.37
243.341	32.08
243.558	77.14
243.775	56.66
243.992	171.35
244.209	27.99
244.426	60.76
244.643	44.37
244.86	-39.59
245.078	81.24
245.295	11.61
245.512	21.85
245.729	60.76
245.946	-41.64
246.163	89.43
246.38	5.46
246.597	9.56
246.814	25.94
247.031	85.33
247.248	77.14
247.464	25.94
247.681	-17.07
247.898	-4.78
248.115	17.75
248.332	-12.97
248.549	71
248.766	62.8
248.983	19.8
249.2	7.51
249.417	19.8
249.633	34.13
249.85	54.61
250.067	62.8
250.284	15.7
250.501	3.41
250.717	32.08
250.934	-10.92
251.151	-37.55
251.368	3.41
251.585	124.24
251.801	36.18
252.018	3.41
252.235	23.89
252.451	36.18
252.668	138.58
252.885	79.19
253.102	36.18
253.318	3.41
253.535	11.61
253.752	-8.87
253.968	23.89
254.185	32.08
254.401	-15.02
254.618	-27.31
254.835	46.42
255.051	48.47
255.268	21.85
255.484	42.32
255.701	9.56
255.917	77.14
256.134	-15.02
256.351	60.76
256.567	50.52
256.784	79.19
257	-47.79
257.217	85.33
257.433	71
257.65	36.18
257.866	38.23
258.082	48.47
258.299	-25.26
258.515	89.43
258.732	-31.4
258.948	-4.78
259.165	5.46
259.381	-4.78
259.597	27.99
259.814	64.85
260.03	-53.93
260.246	77.14
260.463	56.66
260.679	77.14
260.895	83.28
261.112	118.1
261.328	-0.68
261.544	-10.92
261.761	91.48
261.977	7.51
262.193	38.23
262.409	25.94
262.626	-29.35
262.842	36.18
263.058	30.04
263.274	-47.79
263.49	91.48
263.707	36.18
263.923	-12.97
264.139	101.72
264.355	46.42
264.571	46.42
264.787	11.61
265.004	-2.73
265.22	64.85
265.436	3.41
265.652	50.52
265.868	21.85
266.084	23.89
266.3	44.37
266.516	15.7
266.732	85.33
266.948	71
267.164	50.52
267.38	132.44
267.596	52.56
267.812	-0.68
268.028	64.85
268.244	9.56
268.46	36.18
268.676	36.18
268.892	-27.31
269.108	38.23
269.324	-43.69
269.54	-4.78
269.756	42.32
269.972	38.23
270.188	165.2
270.403	23.89
270.619	40.28
270.835	50.52
271.051	81.24
271.267	-12.97
271.483	93.52
271.698	13.65
271.914	36.18
272.13	27.99
272.346	118.1
272.562	34.13
272.777	27.99
272.993	7.51
273.209	25.94
273.425	11.61
273.64	3.41
273.856	42.32
274.072	77.14
274.287	27.99
274.503	-0.68
274.719	105.81
274.934	25.94
275.15	-12.97
275.366	68.95
275.581	62.8
275.797	40.28
276.012	23.89
276.228	81.24
276.444	66.9
276.659	71
276.875	56.66
277.09	44.37
277.306	75.09
277.521	68.95
277.737	44.37
277.952	7.51
278.168	77.14
278.383	15.7
278.599	23.89
278.814	38.23
279.03	75.09
279.245	58.71
279.461	21.85
279.676	48.47
279.892	-12.97
280.107	64.85
280.322	44.37
280.538	15.7
280.753	25.94
280.969	-37.55
281.184	-29.35
281.399	93.52
281.615	93.52
281.83	54.61
282.045	30.04
282.26	3.41
282.476	89.43
282.691	103.76
282.906	13.65
283.122	7.51
283.337	34.13
283.552	87.38
283.767	27.99
283.983	-31.4
284.198	40.28
284.413	40.28
284.628	-21.16
284.843	36.18
285.058	15.7
285.274	30.04
285.489	54.61
285.704	52.56
285.919	44.37
286.134	44.37
286.349	34.13
286.564	27.99
286.779	118.1
286.995	79.19
287.21	-8.87
287.425	56.66
287.64	21.85
287.855	87.38
288.07	1.37
288.285	5.46
288.5	11.61
288.715	116.05
288.93	-23.21
289.145	62.8
289.36	109.91
289.575	23.89
289.79	23.89
290.004	64.85
290.219	68.95
290.434	7.51
290.649	38.23
290.864	25.94
291.079	62.8
291.294	19.8
291.509	42.32
291.724	58.71
291.938	50.52
292.153	62.8
292.368	13.65
292.583	-29.35
292.798	-19.11
293.012	1.37
293.227	81.24
293.442	-15.02
293.657	30.04
293.871	109.91
294.086	46.42
294.301	44.37
294.516	52.56
294.73	68.95
294.945	-41.64
295.16	-25.26
295.374	38.23
295.589	-4.78
295.804	25.94
296.018	36.18
296.233	71
296.447	21.85
296.662	64.85
296.877	66.9
297.091	85.33
297.306	-25.26
297.52	1.37
297.735	27.99
297.949	87.38
298.164	58.71
298.378	71
298.593	40.28
298.807	21.85
299.022	99.67
299.236	-21.16
299.451	3.41
299.665	23.89
299.88	93.52
300.094	109.91
300.309	15.7
300.523	-2.73
300.737	58.71
300.952	-19.11
301.166	-45.74
301.381	7.51
301.595	38.23
301.809	52.56
302.024	58.71
302.238	87.38
302.452	93.52
302.667	27.99
302.881	5.46
303.095	30.04
303.309	101.72
303.524	32.08
303.738	44.37
303.952	11.61
304.166	-6.83
304.381	7.51
304.595	85.33
304.809	48.47
305.023	-2.73
305.237	-25.26
305.452	27.99
305.666	1.37
305.88	1.37
306.094	-39.59
306.308	23.89
306.522	81.24
306.736	21.85
306.95	19.8
307.164	52.56
307.379	52.56
307.593	38.23
307.807	-4.78
308.021	60.76
308.235	46.42
308.449	40.28
308.663	36.18
308.877	97.62
309.091	-0.68
309.305	54.61
309.519	25.94
309.733	89.43
309.947	-2.73
310.161	68.95
310.374	68.95
310.588	52.56
310.802	52.56
311.016	-49.83
311.23	-10.92
311.444	48.47
311.658	85.33
311.872	-25.26
312.085	71
312.299	-4.78
312.513	19.8
312.727	21.85
312.941	114
313.154	-23.21
313.368	-39.59
313.582	11.61
313.796	25.94
314.009	7.51
314.223	48.47
314.437	23.89
314.651	1.37
314.864	38.23
315.078	-0.68
315.292	83.28
315.505	7.51
315.719	-2.73
315.933	21.85
316.146	73.04
316.36	3.41
316.573	77.14
316.787	-6.83
317.001	93.52
317.214	105.81
317.428	60.76
317.641	36.18
317.855	11.61
318.068	40.28
318.282	-60.07
318.495	44.37
318.709	19.8
318.922	13.65
319.136	56.66
319.349	46.42
319.563	-4.78
319.776	85.33
319.99	109.91
320.203	83.28
320.417	21.85
320.63	-21.16
320.843	79.19
321.057	-4.78
321.27	52.56
321.483	75.09
321.697	15.7
321.91	64.85
322.124	75.09
322.337	23.89
322.55	3.41
322.763	13.65
322.977	44.37
323.19	60.76
323.403	-10.92
323.617	23.89
323.83	87.38
324.043	-29.35
324.256	9.56
324.469	44.37
324.683	62.8
324.896	44.37
325.109	-12.97
325.322	58.71
325.535	36.18
325.748	27.99
325.962	36.18
326.175	38.23
326.388	62.8
326.601	-17.07
326.814	62.8
327.027	122.2
327.24	46.42
327.453	54.61
327.666	48.47
327.879	19.8
328.092	79.19
328.305	17.75
328.518	40.28
328.731	89.43
328.944	79.19
329.157	23.89
329.37	-17.07
329.583	1.37
329.796	114
330.009	93.52
330.222	32.08
330.435	68.95
330.648	48.47
330.861	25.94
331.073	36.18
331.286	107.86
331.499	-12.97
331.712	13.65
331.925	48.47
332.138	32.08
332.35	27.99
332.563	75.09
332.776	21.85
332.989	38.23
333.202	68.95
333.414	66.9
333.627	81.24
333.84	44.37
334.053	5.46
334.265	66.9
334.478	40.28
334.691	73.04
334.903	-45.74
335.116	91.48
335.329	27.99
335.541	25.94
335.754	58.71
335.966	1.37
336.179	21.85
336.392	62.8
336.604	1.37
336.817	109.91
337.029	-0.68
337.242	38.23
337.454	109.91
337.667	9.56
337.88	97.62
338.092	85.33
338.305	83.28
338.517	27.99
338.729	68.95
338.942	-10.92
339.154	48.47
339.367	-10.92
339.579	56.66
339.792	13.65
340.004	32.08
340.217	-39.59
340.429	68.95
340.641	83.28
340.854	25.94
341.066	64.85
341.278	9.56
341.491	68.95
341.703	30.04
341.915	23.89
342.128	17.75
342.34	23.89
342.552	62.8
342.764	58.71
342.977	34.13
343.189	34.13
343.401	21.85
343.613	23.89
343.826	79.19
344.038	-21.16
344.25	62.8
344.462	32.08
344.674	5.46
344.886	23.89
345.099	111.96
345.311	83.28
345.523	11.61
345.735	38.23
345.947	38.23
346.159	34.13
346.371	50.52
346.583	13.65
346.795	120.15
347.007	64.85
347.219	44.37
347.431	68.95
347.643	60.76
347.855	144.72
348.067	23.89
348.279	64.85
348.491	118.1
348.703	34.13
348.915	103.76
349.127	-8.87
349.339	52.56
349.551	-10.92
349.763	136.53
349.975	-17.07
350.187	62.8
350.399	-47.79
350.61	17.75
350.822	32.08
351.034	44.37
351.246	58.71
351.458	77.14
351.669	93.52
351.881	-43.69
352.093	68.95
352.305	81.24
352.517	48.47
352.728	64.85
352.94	17.75
353.152	13.65
353.363	107.86
353.575	95.57
353.787	50.52
353.999	3.41
354.21	-2.73
354.422	93.52
354.633	40.28
354.845	64.85
355.057	93.52
355.268	132.44
355.48	38.23
355.692	79.19
355.903	109.91
356.115	-8.87
356.326	48.47
356.538	48.47
356.749	17.75
356.961	68.95
357.172	32.08
357.384	34.13
357.595	9.56
357.807	-6.83
358.018	93.52
358.23	114
358.441	138.58
358.653	71
358.864	83.28
359.075	-21.16
359.287	19.8
359.498	56.66
359.709	-12.97
359.921	56.66
360.132	54.61
360.344	34.13
360.555	48.47
360.766	101.72
360.977	7.51
361.189	11.61
361.4	7.51
361.611	38.23
361.823	36.18
362.034	34.13
362.245	38.23
362.456	36.18
362.667	40.28
362.879	38.23
363.09	-15.02
363.301	-25.26
363.512	89.43
363.723	56.66
363.935	81.24
364.146	60.76
364.357	44.37
364.568	75.09
364.779	73.04
364.99	30.04
365.201	38.23
365.412	132.44
365.623	62.8
365.834	36.18
366.045	99.67
366.256	54.61
366.467	34.13
366.678	25.94
366.889	81.24
367.1	56.66
367.311	25.94
367.522	87.38
367.733	79.19
367.944	27.99
368.155	42.32
368.366	99.67
368.577	97.62
368.788	42.32
368.999	99.67
369.209	-12.97
369.42	120.15
369.631	114
369.842	36.18
370.053	44.37
370.264	27.99
370.474	79.19
370.685	27.99
370.896	40.28
371.107	95.57
371.317	85.33
371.528	13.65
371.739	99.67
371.95	9.56
372.16	36.18
372.371	38.23
372.582	99.67
372.792	101.72
373.003	97.62
373.214	7.51
373.424	50.52
373.635	17.75
373.846	95.57
374.056	46.42
374.267	13.65
374.477	3.41
374.688	34.13
374.898	136.53
375.109	87.38
375.319	3.41
375.53	85.33
375.74	50.52
375.951	3.41
376.161	99.67
376.372	87.38
376.582	38.23
376.793	32.08
377.003	13.65
377.214	42.32
377.424	27.99
377.635	48.47
377.845	73.04
378.055	93.52
378.266	-8.87
378.476	38.23
378.686	79.19
378.897	36.18
379.107	62.8
379.317	15.7
379.528	103.76
379.738	71
379.948	122.2
380.158	73.04
380.369	97.62
380.579	3.41
380.789	34.13
380.999	60.76
381.21	66.9
381.42	42.32
381.63	52.56
381.84	85.33
382.05	52.56
382.261	97.62
382.471	64.85
382.681	56.66
382.891	128.34
383.101	71
383.311	42.32
383.521	146.77
383.731	36.18
383.941	130.39
384.151	77.14
384.361	75.09
384.571	15.7
384.781	54.61
384.991	132.44
385.201	73.04
385.411	111.96
385.621	62.8
385.831	114
386.041	44.37
386.251	77.14
386.461	111.96
386.671	34.13
386.881	13.65
387.091	83.28
387.301	40.28
387.511	95.57
387.72	19.8
387.93	44.37
388.14	46.42
388.35	42.32
388.56	-4.78
388.769	64.85
388.979	60.76
389.189	9.56
389.399	75.09
389.609	60.76
389.818	60.76
390.028	-15.02
390.238	111.96
390.447	11.61
390.657	38.23
390.867	3.41
391.076	25.94
391.286	50.52
391.496	50.52
391.705	34.13
391.915	44.37
392.125	101.72
392.334	79.19
392.544	25.94
392.753	30.04
392.963	77.14
393.172	83.28
393.382	89.43
393.591	32.08
393.801	23.89
394.01	146.77
394.22	36.18
394.429	116.05
394.639	105.81
394.848	144.72
395.058	132.44
395.267	105.81
395.477	75.09
395.686	109.91
395.895	50.52
396.105	136.53
396.314	93.52
396.524	132.44
396.733	77.14
396.942	77.14
397.152	60.76
397.361	101.72
397.57	132.44
397.78	165.2
397.989	27.99
398.198	107.86
398.407	19.8
398.617	21.85
398.826	34.13
399.035	52.56
399.244	66.9
399.453	95.57
399.663	75.09
399.872	66.9
400.081	101.72
400.29	171.35
400.499	-15.02
400.708	130.39
400.917	126.29
401.127	181.59
401.336	15.7
401.545	126.29
401.754	142.68
401.963	95.57
402.172	73.04
402.381	122.2
402.59	159.06
402.799	103.76
403.008	79.19
403.217	95.57
403.426	71
403.635	107.86
403.844	136.53
404.053	56.66
404.262	87.38
404.471	152.92
404.68	161.11
404.888	91.48
405.097	126.29
405.306	81.24
405.515	146.77
405.724	54.61
405.933	140.63
406.142	159.06
406.35	187.73
406.559	167.25
406.768	128.34
406.977	175.44
407.185	165.2
407.394	109.91
407.603	148.82
407.812	177.49
408.02	142.68
408.229	163.15
408.438	120.15
408.646	200.02
408.855	142.68
409.064	232.79
409.272	193.87
409.481	191.83
409.69	181.59
409.898	204.11
410.107	228.69
410.315	281.94
410.524	251.22
410.733	247.12
410.941	212.31
411.15	236.88
411.358	304.46
411.567	169.3
411.775	283.99
411.984	243.03
412.192	302.42
412.401	294.22
412.609	320.85
412.818	324.94
413.026	378.19
413.234	402.77
413.443	396.62
413.651	367.95
413.86	322.9
414.068	396.62
414.276	462.16
414.485	462.16
414.693	433.49
414.901	370
415.11	486.73
415.318	478.54
415.526	552.27
415.734	527.69
415.943	533.84
416.151	578.89
416.359	527.69
416.567	570.7
416.776	593.23
416.984	626
417.192	628.04
417.4	714.06
417.608	716.11
417.817	730.44
418.025	738.63
418.233	712.01
418.441	701.77
418.649	830.79
418.857	810.31
419.065	925
419.273	888.14
419.481	929.1
419.689	951.62
419.897	1013.06
420.105	974.15
420.313	1162.56
420.521	1047.88
420.729	1101.12
420.937	1150.28
421.145	1181
421.353	1191.24
421.561	1369.41
421.769	1250.63
421.977	1393.98
422.185	1402.18
422.393	1477.95
422.601	1527.1
422.809	1547.58
423.017	1543.49
423.224	1508.67
423.432	1629.5
423.64	1709.37
423.848	1875.26
424.056	1709.37
424.263	1844.54
424.471	1918.26
424.679	1832.25
424.887	2030.9
425.094	2051.38
425.302	2063.67
425.51	2217.27
425.718	2272.56
425.925	2164.02
426.133	2395.44
426.341	2254.13
426.548	2551.09
426.756	2688.3
426.964	2555.18
427.171	2678.06
427.379	2911.53
427.586	2856.23
427.794	2970.92
428.001	3130.66
428.209	3255.59
428.417	3163.43
428.624	3374.37
428.832	3347.75
429.039	3400.99
429.247	3476.77
429.454	3788.06
429.662	3990.81
429.869	3743
430.076	3786.01
430.284	3841.31
430.491	4097.3
430.699	4277.52
430.906	4312.34
431.114	4326.68
431.321	4525.33
431.528	4685.07
431.736	5080.33
431.943	4953.35
432.15	4994.31
432.358	5061.9
432.565	5291.27
432.772	5321.99
432.979	5549.31
433.187	5680.38
433.394	5731.58
433.601	6165.75
433.808	6171.9
434.016	6188.28
434.223	6317.3
434.43	6823.15
434.637	6634.74
434.844	7171.3
435.052	7261.41
435.259	7156.97
435.466	7224.55
435.673	7156.97
435.88	7613.67
436.087	8045.79
436.294	8039.64
436.501	7945.44
436.708	7898.33
436.915	8068.31
437.122	8508.63
437.329	8629.46
437.537	8957.13
437.743	8959.18
437.95	8887.5
438.157	9581.76
438.364	9735.36
438.571	9723.07
438.778	9866.43
438.985	10570.93
439.192	10329.27
439.399	10658.99
439.606	10380.47
439.813	11109.55
440.02	11515.05
440.227	11326.63
440.433	11261.1
440.64	11746.47
440.847	11719.84
441.054	11728.03
441.261	12778.64
441.467	12467.35
441.674	12948.62
441.881	13405.32
442.088	12999.82
442.294	13024.4
442.501	13368.46
442.708	13792.39
442.914	14236.8
443.121	15019.12
443.328	14478.46
443.534	15684.71
443.741	14924.91
443.948	14771.32
444.154	16100.45
444.361	15877.22
444.568	15934.56
444.774	16004.19
444.981	16196.7
445.187	16628.82
445.394	17505.35
445.6	17228.88
445.807	18588.73
446.013	17863.75
446.22	18531.39
446.426	19358.77
446.633	19086.39
446.839	19926.05
447.046	19323.95
447.252	20173.86
447.459	20468.76
447.665	20188.19
447.871	21048.34
448.078	22090.76
448.284	20909.08
448.491	21290
448.697	22330.37
448.903	22670.33
449.11	22969.33
449.316	22803.45
449.522	22537.21
449.728	23921.64
449.935	23862.25
450.141	23829.48
450.347	24366.05
450.553	23505.9
450.76	23954.41
450.966	24906.71
451.172	24632.29
451.378	25041.88
451.584	24320.99
451.791	25390.03
451.997	25037.78
452.203	25535.44
452.409	25846.73
452.615	25613.26
452.821	24622.05
453.027	24189.92
453.233	25439.19
453.44	24732.64
453.646	24841.18
453.852	24773.6
454.058	25340.88
454.264	24472.54
454.47	25240.53
454.676	24509.41
454.882	25170.9
455.088	23303.15
455.294	23833.58
455.5	23940.07
455.705	24245.22
455.911	23176.18
456.117	23038.97
456.323	22420.48
456.529	21232.66
456.735	22205.44
456.941	21922.82
457.147	21302.29
457.352	20700.19
457.558	20683.8
457.764	20681.75
457.97	20026.4
458.176	19586.09
458.381	19805.22
458.587	18779.19
458.793	18863.16
458.999	17830.98
459.204	18814.01
459.41	18414.65
459.616	17396.81
459.821	17417.29
460.027	17390.67
460.233	16819.28
460.438	16178.27
460.644	16229.47
460.85	15365.23
461.055	15447.15
461.261	15365.23
461.466	14367.87
461.672	13677.7
461.878	14550.14
462.083	13733
462.289	13423.75
462.494	13464.71
462.7	12956.82
462.905	12549.27
463.111	12827.79
463.316	12696.72
463.522	12747.92
463.727	12696.72
463.932	12827.79
464.138	12700.82
464.343	12752.02
464.549	12242.07
464.754	12899.47
464.959	12737.68
465.165	12668.05
465.37	11949.21
465.575	11793.57
465.781	12088.48
465.986	12252.31
466.191	11830.43
466.397	11934.88
466.602	10986.67
466.807	11547.81
467.012	11431.08
467.218	11426.98
467.423	11326.63
467.628	11267.24
467.833	11732.13
468.038	11306.15
468.244	11130.03
468.449	11445.41
468.654	11248.81
468.859	10986.67
