Data from USB4F104151__57__12-54-05-303.txt Node

Date: Fri Mar 14 12:54:05 EDT 2025
User: louis
Spectrometer: USB4F10415
Trigger mode: 4
Integration Time (sec): 1.000000E-2
Scans to average: 1
Electric dark correction enabled: true
Nonlinearity correction enabled: false
Boxcar width: 0
XAxis mode: Wavelengths
Number of Pixels in Spectrum: 3648
>>>>>Begin Spectral Data<<<<<
178.204	-39.94
178.424	-39.94
178.644	-39.94
178.864	15.36
179.084	-39.94
179.304	-56.32
179.524	13.31
179.744	23.55
179.964	-23.55
180.184	68.61
180.404	-17.41
180.624	-31.74
180.844	37.89
181.064	-1.02
181.283	-35.84
181.503	1.02
181.723	21.5
181.943	-35.84
182.163	91.13
182.383	-25.6
182.602	-54.27
182.822	-9.22
183.042	31.74
183.262	21.5
183.482	48.13
183.701	-21.5
183.921	9.22
184.141	15.36
184.361	54.27
184.58	9.22
184.8	66.56
185.02	35.84
185.239	23.55
185.459	48.13
185.679	3.07
185.898	46.08
186.118	-9.22
186.338	-9.22
186.557	7.17
186.777	-3.07
186.997	41.98
187.216	-5.12
187.436	23.55
187.655	80.89
187.875	31.74
188.095	-39.94
188.314	82.94
188.534	46.08
188.753	39.94
188.973	48.13
189.192	7.17
189.412	58.37
189.631	48.13
189.851	39.94
190.07	15.36
190.29	46.08
190.509	27.65
190.729	27.65
190.948	-23.55
191.168	41.98
191.387	82.94
191.607	1.02
191.826	66.56
192.045	19.46
192.265	41.98
192.484	72.7
192.704	56.32
192.923	31.74
193.142	27.65
193.362	29.7
193.581	72.7
193.8	7.17
194.02	15.36
194.239	56.32
194.458	58.37
194.678	-15.36
194.897	48.13
195.116	19.46
195.335	-15.36
195.555	33.79
195.774	23.55
195.993	72.7
196.212	-1.02
196.432	-9.22
196.651	15.36
196.87	60.42
197.089	9.22
197.308	70.65
197.528	48.13
197.747	-29.7
197.966	25.6
198.185	9.22
198.404	115.71
198.623	-1.02
198.842	56.32
199.062	54.27
199.281	5.12
199.5	27.65
199.719	15.36
199.938	29.7
200.157	11.26
200.376	33.79
200.595	39.94
200.814	9.22
201.033	68.61
201.252	-29.7
201.471	9.22
201.69	15.36
201.909	7.17
202.128	87.04
202.347	-17.41
202.566	23.55
202.785	31.74
203.004	-29.7
203.223	97.28
203.442	46.08
203.661	-35.84
203.879	17.41
204.098	35.84
204.317	48.13
204.536	11.26
204.755	91.13
204.974	39.94
205.193	52.22
205.411	68.61
205.63	68.61
205.849	-7.17
206.068	74.75
206.287	68.61
206.505	7.17
206.724	-3.07
206.943	66.56
207.162	48.13
207.381	115.71
207.599	41.98
207.818	15.36
208.037	-29.7
208.255	9.22
208.474	-9.22
208.693	-11.26
208.911	64.51
209.13	31.74
209.349	13.31
209.567	-41.98
209.786	-11.26
210.005	39.94
210.223	72.7
210.442	1.02
210.661	44.03
210.879	11.26
211.098	-21.5
211.316	-1.02
211.535	66.56
211.753	-9.22
211.972	17.41
212.191	62.46
212.409	56.32
212.628	37.89
212.846	9.22
213.065	35.84
213.283	31.74
213.502	1.02
213.72	41.98
213.938	13.31
214.157	41.98
214.375	27.65
214.594	11.26
214.812	44.03
215.031	-82.94
215.249	15.36
215.467	-7.17
215.686	74.75
215.904	66.56
216.122	105.47
216.341	-11.26
216.559	44.03
216.778	44.03
216.996	-3.07
217.214	5.12
217.432	25.6
217.651	7.17
217.869	-7.17
218.087	-1.02
218.306	-70.65
218.524	-1.02
218.742	-31.74
218.96	27.65
219.179	-37.89
219.397	56.32
219.615	33.79
219.833	56.32
220.051	19.46
220.27	89.09
220.488	-33.79
220.706	3.07
220.924	39.94
221.142	74.75
221.36	41.98
221.578	41.98
221.796	35.84
222.015	89.09
222.233	-7.17
222.451	48.13
222.669	3.07
222.887	-52.22
223.105	-5.12
223.323	74.75
223.541	58.37
223.759	82.94
223.977	58.37
224.195	29.7
224.413	-7.17
224.631	17.41
224.849	35.84
225.067	15.36
225.285	15.36
225.503	70.65
225.721	-3.07
225.939	39.94
226.157	9.22
226.375	64.51
226.592	23.55
226.81	37.89
227.028	11.26
227.246	52.22
227.464	11.26
227.682	39.94
227.9	66.56
228.117	15.36
228.335	-1.02
228.553	64.51
228.771	29.7
228.989	72.7
229.206	54.27
229.424	52.22
229.642	64.51
229.86	-1.02
230.077	-19.46
230.295	48.13
230.513	23.55
230.731	39.94
230.948	15.36
231.166	21.5
231.384	66.56
231.601	136.19
231.819	87.04
232.037	-13.31
232.254	-11.26
232.472	25.6
232.689	119.81
232.907	95.23
233.125	-9.22
233.342	-35.84
233.56	1.02
233.777	21.5
233.995	-27.65
234.213	-9.22
234.43	31.74
234.648	-46.08
234.865	56.32
235.083	1.02
235.3	66.56
235.518	66.56
235.735	82.94
235.953	105.47
236.17	50.18
236.388	70.65
236.605	-33.79
236.822	39.94
237.04	58.37
237.257	78.85
237.475	60.42
237.692	17.41
237.909	-31.74
238.127	29.7
238.344	9.22
238.562	52.22
238.779	-9.22
238.996	93.18
239.214	80.89
239.431	72.7
239.648	23.55
239.865	-1.02
240.083	31.74
240.3	25.6
240.517	39.94
240.735	-23.55
240.952	11.26
241.169	50.18
241.386	13.31
241.603	64.51
241.821	15.36
242.038	76.8
242.255	23.55
242.472	3.07
242.689	37.89
242.907	52.22
243.124	91.13
243.341	-58.37
243.558	44.03
243.775	-21.5
243.992	-46.08
244.209	7.17
244.426	1.02
244.643	60.42
244.86	35.84
245.078	-25.6
245.295	37.89
245.512	48.13
245.729	44.03
245.946	-13.31
246.163	62.46
246.38	25.6
246.597	-1.02
246.814	117.76
247.031	29.7
247.248	41.98
247.464	-23.55
247.681	56.32
247.898	-21.5
248.115	48.13
248.332	-37.89
248.549	44.03
248.766	74.75
248.983	11.26
249.2	46.08
249.417	-17.41
249.633	-9.22
249.85	-33.79
250.067	33.79
250.284	44.03
250.501	41.98
250.717	15.36
250.934	33.79
251.151	87.04
251.368	11.26
251.585	58.37
251.801	52.22
252.018	39.94
252.235	54.27
252.451	-37.89
252.668	-74.75
252.885	113.66
253.102	-21.5
253.318	-46.08
253.535	35.84
253.752	11.26
253.968	95.23
254.185	-17.41
254.401	50.18
254.618	39.94
254.835	11.26
255.051	41.98
255.268	-39.94
255.484	21.5
255.701	-5.12
255.917	60.42
256.134	25.6
256.351	123.9
256.567	54.27
256.784	44.03
257	-35.84
257.217	64.51
257.433	82.94
257.65	21.5
257.866	33.79
258.082	35.84
258.299	1.02
258.515	15.36
258.732	29.7
258.948	27.65
259.165	44.03
259.381	-37.89
259.597	19.46
259.814	25.6
260.03	46.08
260.246	44.03
260.463	48.13
260.679	3.07
260.895	15.36
261.112	89.09
261.328	66.56
261.544	-17.41
261.761	-13.31
261.977	56.32
262.193	-123.9
262.409	82.94
262.626	97.28
262.842	74.75
263.058	39.94
263.274	-7.17
263.49	5.12
263.707	56.32
263.923	33.79
264.139	64.51
264.355	74.75
264.571	52.22
264.787	29.7
265.004	-9.22
265.22	99.33
265.436	13.31
265.652	111.61
265.868	-5.12
266.084	48.13
266.3	15.36
266.516	66.56
266.732	3.07
266.948	76.8
267.164	-1.02
267.38	48.13
267.596	115.71
267.812	115.71
268.028	13.31
268.244	50.18
268.46	39.94
268.676	44.03
268.892	101.37
269.108	-17.41
269.324	9.22
269.54	17.41
269.756	76.8
269.972	52.22
270.188	56.32
270.403	7.17
270.619	78.85
270.835	62.46
271.051	62.46
271.267	54.27
271.483	64.51
271.698	68.61
271.914	19.46
272.13	64.51
272.346	91.13
272.562	-3.07
272.777	84.99
272.993	-11.26
273.209	54.27
273.425	52.22
273.64	-15.36
273.856	17.41
274.072	60.42
274.287	-29.7
274.503	97.28
274.719	60.42
274.934	41.98
275.15	48.13
275.366	-15.36
275.581	39.94
275.797	41.98
276.012	72.7
276.228	9.22
276.444	48.13
276.659	13.31
276.875	-7.17
277.09	21.5
277.306	-9.22
277.521	41.98
277.737	31.74
277.952	29.7
278.168	50.18
278.383	58.37
278.599	13.31
278.814	31.74
279.03	62.46
279.245	54.27
279.461	54.27
279.676	23.55
279.892	17.41
280.107	58.37
280.322	39.94
280.538	31.74
280.753	15.36
280.969	39.94
281.184	17.41
281.399	48.13
281.615	52.22
281.83	41.98
282.045	25.6
282.26	9.22
282.476	80.89
282.691	68.61
282.906	29.7
283.122	-50.18
283.337	1.02
283.552	-1.02
283.767	33.79
283.983	35.84
284.198	19.46
284.413	58.37
284.628	15.36
284.843	17.41
285.058	-1.02
285.274	48.13
285.489	31.74
285.704	27.65
285.919	23.55
286.134	62.46
286.349	27.65
286.564	68.61
286.779	5.12
286.995	91.13
287.21	39.94
287.425	91.13
287.64	-21.5
287.855	-7.17
288.07	46.08
288.285	80.89
288.5	19.46
288.715	35.84
288.93	7.17
289.145	54.27
289.36	62.46
289.575	41.98
289.79	62.46
290.004	17.41
290.219	15.36
290.434	23.55
290.649	66.56
290.864	27.65
291.079	-1.02
291.294	111.61
291.509	-23.55
291.724	25.6
291.938	25.6
292.153	25.6
292.368	52.22
292.583	60.42
292.798	50.18
293.012	33.79
293.227	64.51
293.442	66.56
293.657	50.18
293.871	82.94
294.086	44.03
294.301	101.37
294.516	3.07
294.73	48.13
294.945	48.13
295.16	62.46
295.374	70.65
295.589	-7.17
295.804	-37.89
296.018	17.41
296.233	80.89
296.447	70.65
296.662	21.5
296.877	33.79
297.091	58.37
297.306	50.18
297.52	54.27
297.735	35.84
297.949	41.98
298.164	117.76
298.378	-3.07
298.593	-37.89
298.807	56.32
299.022	99.33
299.236	54.27
299.451	56.32
299.665	23.55
299.88	82.94
300.094	80.89
300.309	23.55
300.523	74.75
300.737	7.17
300.952	-5.12
301.166	27.65
301.381	41.98
301.595	27.65
301.809	84.99
302.024	39.94
302.238	-56.32
302.452	56.32
302.667	58.37
302.881	119.81
303.095	-25.6
303.309	25.6
303.524	-19.46
303.738	-7.17
303.952	1.02
304.166	5.12
304.381	13.31
304.595	76.8
304.809	35.84
305.023	78.85
305.237	11.26
305.452	87.04
305.666	13.31
305.88	48.13
306.094	46.08
306.308	58.37
306.522	33.79
306.736	156.67
306.95	15.36
307.164	56.32
307.379	72.7
307.593	68.61
307.807	64.51
308.021	60.42
308.235	105.47
308.449	62.46
308.663	-23.55
308.877	60.42
309.091	35.84
309.305	103.42
309.519	80.89
309.733	93.18
309.947	19.46
310.161	1.02
310.374	103.42
310.588	19.46
310.802	31.74
311.016	-9.22
311.23	52.22
311.444	-46.08
311.658	-3.07
311.872	64.51
312.085	56.32
312.299	58.37
312.513	11.26
312.727	27.65
312.941	9.22
313.154	19.46
313.368	9.22
313.582	-9.22
313.796	15.36
314.009	80.89
314.223	25.6
314.437	11.26
314.651	7.17
314.864	-39.94
315.078	87.04
315.292	15.36
315.505	7.17
315.719	-19.46
315.933	5.12
316.146	9.22
316.36	11.26
316.573	74.75
316.787	91.13
317.001	78.85
317.214	7.17
317.428	9.22
317.641	33.79
317.855	23.55
318.068	3.07
318.282	82.94
318.495	48.13
318.709	52.22
318.922	17.41
319.136	35.84
319.349	56.32
319.563	-5.12
319.776	15.36
319.99	19.46
320.203	97.28
320.417	68.61
320.63	46.08
320.843	56.32
321.057	46.08
321.27	91.13
321.483	66.56
321.697	74.75
321.91	37.89
322.124	91.13
322.337	31.74
322.55	27.65
322.763	37.89
322.977	76.8
323.19	39.94
323.403	46.08
323.617	162.81
323.83	72.7
324.043	84.99
324.256	44.03
324.469	-23.55
324.683	60.42
324.896	-9.22
325.109	117.76
325.322	-17.41
325.535	70.65
325.748	82.94
325.962	39.94
326.175	80.89
326.388	27.65
326.601	25.6
326.814	56.32
327.027	33.79
327.24	84.99
327.453	-31.74
327.666	-29.7
327.879	9.22
328.092	80.89
328.305	128
328.518	66.56
328.731	95.23
328.944	58.37
329.157	41.98
329.37	17.41
329.583	50.18
329.796	52.22
330.009	39.94
330.222	70.65
330.435	84.99
330.648	-5.12
330.861	13.31
331.073	3.07
331.286	58.37
331.499	9.22
331.712	37.89
331.925	25.6
332.138	52.22
332.35	50.18
332.563	-50.18
332.776	33.79
332.989	46.08
333.202	58.37
333.414	-5.12
333.627	91.13
333.84	29.7
334.053	17.41
334.265	31.74
334.478	66.56
334.691	-3.07
334.903	52.22
335.116	41.98
335.329	68.61
335.541	25.6
335.754	41.98
335.966	15.36
336.179	87.04
336.392	27.65
336.604	29.7
336.817	33.79
337.029	21.5
337.242	27.65
337.454	39.94
337.667	60.42
337.88	193.53
338.092	31.74
338.305	-31.74
338.517	27.65
338.729	35.84
338.942	56.32
339.154	9.22
339.367	31.74
339.579	78.85
339.792	27.65
340.004	82.94
340.217	41.98
340.429	-21.5
340.641	35.84
340.854	48.13
341.066	25.6
341.278	56.32
341.491	31.74
341.703	99.33
341.915	80.89
342.128	52.22
342.34	35.84
342.552	76.8
342.764	-9.22
342.977	74.75
343.189	84.99
343.401	97.28
343.613	54.27
343.826	31.74
344.038	70.65
344.25	41.98
344.462	62.46
344.674	48.13
344.886	97.28
345.099	17.41
345.311	19.46
345.523	54.27
345.735	52.22
345.947	27.65
346.159	5.12
346.371	11.26
346.583	-11.26
346.795	60.42
347.007	13.31
347.219	23.55
347.431	101.37
347.643	72.7
347.855	84.99
348.067	101.37
348.279	13.31
348.491	15.36
348.703	99.33
348.915	35.84
349.127	17.41
349.339	54.27
349.551	35.84
349.763	37.89
349.975	3.07
350.187	54.27
350.399	15.36
350.61	27.65
350.822	-29.7
351.034	-21.5
351.246	7.17
351.458	82.94
351.669	29.7
351.881	56.32
352.093	-9.22
352.305	25.6
352.517	91.13
352.728	-37.89
352.94	48.13
353.152	44.03
353.363	82.94
353.575	23.55
353.787	70.65
353.999	31.74
354.21	11.26
354.422	31.74
354.633	-15.36
354.845	-1.02
355.057	41.98
355.268	31.74
355.48	-7.17
355.692	-13.31
355.903	23.55
356.115	27.65
356.326	13.31
356.538	70.65
356.749	52.22
356.961	41.98
357.172	-9.22
357.384	56.32
357.595	29.7
357.807	41.98
358.018	19.46
358.23	107.52
358.441	62.46
358.653	-7.17
358.864	52.22
359.075	1.02
359.287	78.85
359.498	52.22
359.709	60.42
359.921	44.03
360.132	19.46
360.344	46.08
360.555	3.07
360.766	105.47
360.977	52.22
361.189	35.84
361.4	39.94
361.611	91.13
361.823	3.07
362.034	48.13
362.245	56.32
362.456	25.6
362.667	84.99
362.879	91.13
363.09	62.46
363.301	78.85
363.512	48.13
363.723	91.13
363.935	39.94
364.146	107.52
364.357	56.32
364.568	64.51
364.779	37.89
364.99	35.84
365.201	9.22
365.412	87.04
365.623	46.08
365.834	37.89
366.045	46.08
366.256	93.18
366.467	48.13
366.678	87.04
366.889	41.98
367.1	37.89
367.311	44.03
367.522	74.75
367.733	66.56
367.944	117.76
368.155	52.22
368.366	23.55
368.577	60.42
368.788	105.47
368.999	-27.65
369.209	-11.26
369.42	48.13
369.631	58.37
369.842	74.75
370.053	23.55
370.264	9.22
370.474	64.51
370.685	37.89
370.896	15.36
371.107	70.65
371.317	82.94
371.528	44.03
371.739	19.46
371.95	84.99
372.16	109.57
372.371	39.94
372.582	58.37
372.792	70.65
373.003	41.98
373.214	-52.22
373.424	56.32
373.635	52.22
373.846	115.71
374.056	31.74
374.267	76.8
374.477	44.03
374.688	29.7
374.898	39.94
375.109	37.89
375.319	50.18
375.53	33.79
375.74	-1.02
375.951	66.56
376.161	54.27
376.372	72.7
376.582	66.56
376.793	60.42
377.003	80.89
377.214	39.94
377.424	68.61
377.635	82.94
377.845	35.84
378.055	50.18
378.266	15.36
378.476	25.6
378.686	-3.07
378.897	111.61
379.107	23.55
379.317	72.7
379.528	11.26
379.738	41.98
379.948	5.12
380.158	35.84
380.369	80.89
380.579	35.84
380.789	-35.84
380.999	13.31
381.21	62.46
381.42	66.56
381.63	80.89
381.84	1.02
382.05	39.94
382.261	58.37
382.471	25.6
382.681	107.52
382.891	74.75
383.101	23.55
383.311	19.46
383.521	87.04
383.731	-5.12
383.941	78.85
384.151	33.79
384.361	15.36
384.571	66.56
384.781	113.66
384.991	91.13
385.201	64.51
385.411	80.89
385.621	74.75
385.831	17.41
386.041	136.19
386.251	52.22
386.461	48.13
386.671	13.31
386.881	37.89
387.091	31.74
387.301	76.8
387.511	21.5
387.72	68.61
387.93	109.57
388.14	31.74
388.35	41.98
388.56	91.13
388.769	-13.31
388.979	136.19
389.189	37.89
389.399	70.65
389.609	29.7
389.818	41.98
390.028	58.37
390.238	29.7
390.447	148.48
390.657	107.52
390.867	91.13
391.076	7.17
391.286	74.75
391.496	121.85
391.705	27.65
391.915	119.81
392.125	58.37
392.334	21.5
392.544	-1.02
392.753	60.42
392.963	7.17
393.172	19.46
393.382	-25.6
393.591	160.77
393.801	64.51
394.01	105.47
394.22	21.5
394.429	37.89
394.639	25.6
394.848	121.85
395.058	56.32
395.267	89.09
395.477	3.07
395.686	150.53
395.895	68.61
396.105	56.32
396.314	97.28
396.524	70.65
396.733	111.61
396.942	99.33
397.152	72.7
397.361	80.89
397.57	76.8
397.78	64.51
397.989	91.13
398.198	-13.31
398.407	103.42
398.617	74.75
398.826	74.75
399.035	70.65
399.244	140.29
399.453	121.85
399.663	44.03
399.872	50.18
400.081	87.04
400.29	138.24
400.499	56.32
400.708	154.62
400.917	44.03
401.127	107.52
401.336	50.18
401.545	138.24
401.754	72.7
401.963	162.81
402.172	66.56
402.381	58.37
402.59	140.29
402.799	99.33
403.008	121.85
403.217	78.85
403.426	101.37
403.635	50.18
403.844	78.85
404.053	68.61
404.262	89.09
404.471	68.61
404.68	99.33
404.888	164.86
405.097	101.37
405.306	123.9
405.515	101.37
405.724	134.14
405.933	121.85
406.142	148.48
406.35	205.82
406.559	125.95
406.768	197.63
406.977	193.53
407.185	218.11
407.394	64.51
407.603	132.09
407.812	158.72
408.02	193.53
408.229	171.01
408.438	173.05
408.646	66.56
408.855	158.72
409.064	224.25
409.272	160.77
409.481	275.45
409.69	308.22
409.898	222.2
410.107	211.96
410.315	211.96
410.524	187.39
410.733	189.44
410.941	238.59
411.15	238.59
411.358	252.92
411.567	318.46
411.775	324.6
411.984	236.54
412.192	246.78
412.401	236.54
412.609	297.98
412.818	275.45
413.026	297.98
413.234	269.31
413.443	252.92
413.651	297.98
413.86	306.17
414.068	457.72
414.276	465.91
414.485	451.58
414.693	429.05
414.901	424.95
415.11	502.78
415.318	533.5
415.526	515.06
415.734	517.11
415.943	472.06
416.151	603.13
416.359	500.73
416.567	570.36
416.776	672.76
416.984	560.12
417.192	672.76
417.4	590.84
417.608	588.79
417.817	672.76
418.025	730.1
418.233	771.06
418.441	781.3
418.649	766.96
418.857	816.12
419.065	859.12
419.273	830.45
419.481	893.94
419.689	959.47
419.897	965.62
420.105	945.14
420.313	988.14
420.521	975.86
420.729	1000.43
420.937	1092.59
421.145	1061.87
421.353	1207.28
421.561	1219.57
421.769	1242.09
421.977	1354.73
422.185	1287.15
422.393	1276.91
422.601	1412.07
422.809	1385.45
423.017	1461.23
423.224	1502.19
423.432	1647.59
423.64	1598.44
423.848	1725.41
424.056	1618.92
424.263	1786.85
424.471	1813.48
424.679	1766.37
424.887	1926.11
425.094	1940.45
425.302	1899.49
425.51	2077.66
425.718	2173.92
425.925	2110.43
426.133	2163.68
426.341	2270.17
426.548	2421.72
426.756	2487.26
426.964	2472.92
427.171	2651.1
427.379	2737.11
427.586	2819.03
427.794	2866.13
428.001	2948.05
428.209	3048.4
428.417	3015.63
428.624	3267.53
428.832	3296.21
429.039	3208.14
429.247	3185.62
429.454	3632.07
429.662	3863.49
429.869	3578.83
430.076	3759.05
430.284	3849.16
430.491	3974.08
430.699	4146.11
430.906	3974.08
431.114	4133.82
431.321	4223.94
431.528	4471.74
431.736	4527.03
431.943	4803.51
432.15	4703.16
432.358	4787.13
432.565	5137.33
432.772	5030.84
432.979	5323.69
433.187	5424.05
433.394	5460.91
433.601	5833.64
433.808	5839.78
434.016	5858.21
434.223	6038.44
434.43	6329.25
434.637	6286.24
434.844	6736.79
435.052	6839.19
435.259	6847.38
435.466	6824.86
435.673	6740.89
435.88	7168.91
436.087	7512.97
436.294	7652.24
436.501	7355.28
436.708	7746.44
436.915	7871.37
437.122	8203.14
437.329	8024.97
437.537	8366.98
437.743	8670.08
437.95	8522.62
438.157	8973.18
438.364	9253.75
438.571	9374.58
438.778	9407.34
438.985	10122.09
439.192	9665.39
439.399	10013.54
439.606	9726.83
439.813	10494.82
440.02	11131.73
440.227	10720.09
440.433	10799.96
440.64	11170.65
440.847	10808.16
441.054	11481.94
441.261	12004.17
441.467	11965.26
441.674	12233.54
441.881	12657.47
442.088	12690.24
442.294	12581.7
442.501	12753.73
442.708	13026.11
442.914	13431.6
443.121	14308.13
443.328	13357.88
443.534	14476.07
443.741	14342.95
443.948	14060.33
444.154	15145.75
444.361	15026.97
444.568	15094.55
444.774	15289.11
444.981	15579.92
445.187	15645.46
445.394	16352.01
445.6	16216.84
445.807	17988.33
446.013	17042.17
446.22	17232.63
446.426	17887.98
446.633	18164.46
446.839	18952.93
447.046	17986.29
447.252	19127
447.459	19049.18
447.665	19153.63
447.871	19907.28
448.078	20617.93
448.284	19667.67
448.491	20210.38
448.697	21103.29
448.903	21289.66
449.11	21478.07
449.316	21357.24
449.522	21691.06
449.728	22047.41
449.935	22647.46
450.141	22555.3
450.347	22833.83
450.553	22254.25
450.76	22420.14
450.966	23208.61
451.172	22952.61
451.378	23460.51
451.584	23079.58
451.791	23552.66
451.997	23722.65
452.203	24150.67
452.409	24201.87
452.615	23857.81
452.821	23235.23
453.027	22631.08
453.233	24015.51
453.44	22930.08
453.646	23382.68
453.852	23497.37
454.058	23786.13
454.264	23165.6
454.47	23779.99
454.676	23138.97
454.882	23939.73
455.088	21908.15
455.294	22076.08
455.5	22397.61
455.705	22880.93
455.911	21754.55
456.117	21285.56
456.323	21066.43
456.529	19841.75
456.735	20798.15
456.941	20284.11
457.147	20169.42
457.352	19426.01
457.558	19233.5
457.764	19450.58
457.97	18864.86
458.176	18526.95
458.381	18741.99
458.587	17562.36
458.793	17525.49
458.999	16759.55
459.204	17900.27
459.41	17478.39
459.616	16380.68
459.821	16120.59
460.027	16411.4
460.233	15772.43
460.438	15108.89
460.644	15252.25
460.85	14338.85
461.055	14314.28
461.261	14385.96
461.466	13318.96
461.672	12997.43
461.878	13910.83
462.083	12960.57
462.289	12774.21
462.494	12802.88
462.7	11877.19
462.905	11813.71
463.111	12313.41
463.316	12178.25
463.522	11987.79
463.727	12096.33
463.932	11914.06
464.138	11862.86
464.343	11856.72
464.549	11522.9
464.754	11914.06
464.959	11739.98
465.165	11830.09
465.37	11424.59
465.575	11199.32
465.781	11430.74
465.986	11635.53
466.191	11299.67
466.397	10945.37
466.602	10515.3
466.807	10701.66
467.012	10879.83
467.218	10695.52
467.423	10619.74
467.628	10718.04
467.833	11133.78
468.038	10842.97
468.244	10408.8
468.449	10879.83
468.654	10556.25
