Data from USB4F104151__93__12-54-55-007.txt Node

Date: Fri Mar 14 12:54:55 EDT 2025
User: louis
Spectrometer: USB4F10415
Trigger mode: 4
Integration Time (sec): 1.000000E-2
Scans to average: 1
Electric dark correction enabled: true
Nonlinearity correction enabled: false
Boxcar width: 0
XAxis mode: Wavelengths
Number of Pixels in Spectrum: 3648
>>>>>Begin Spectral Data<<<<<
178.204	-37.03
178.424	-37.03
178.644	-37.03
178.864	1.88
179.084	-2.22
179.304	26.45
179.524	22.36
179.744	-43.18
179.964	-12.46
180.184	16.21
180.404	20.31
180.624	-32.94
180.844	-26.79
181.064	-41.13
181.283	-4.27
181.503	71.51
181.723	3.93
181.943	-14.51
182.163	40.79
182.383	20.31
182.602	77.65
182.822	44.88
183.042	77.65
183.262	42.84
183.482	-12.46
183.701	96.08
183.921	85.84
184.141	-30.89
184.361	61.27
184.58	-0.17
184.8	26.45
185.02	5.97
185.239	8.02
185.459	-49.32
185.679	67.41
185.898	40.79
186.118	8.02
186.338	75.6
186.557	63.32
186.777	-45.23
186.997	40.79
187.216	-41.13
187.436	59.22
187.655	55.12
187.875	26.45
188.095	-2.22
188.314	59.22
188.534	34.64
188.753	14.17
188.973	12.12
189.192	40.79
189.412	26.45
189.631	12.12
189.851	-28.84
190.07	32.6
190.29	-61.61
190.509	-2.22
190.729	30.55
190.948	-20.65
191.168	38.74
191.387	34.64
191.607	22.36
191.826	69.46
192.045	12.12
192.265	-4.27
192.484	24.4
192.704	63.32
192.923	36.69
193.142	53.08
193.362	-22.7
193.581	40.79
193.8	20.31
194.02	48.98
194.239	114.52
194.458	77.65
194.678	-14.51
194.897	34.64
195.116	38.74
195.335	-6.31
195.555	40.79
195.774	34.64
195.993	-22.7
196.212	130.9
196.432	53.08
196.651	55.12
196.87	44.88
197.089	46.93
197.308	98.13
197.528	102.23
197.747	-12.46
197.966	53.08
198.185	77.65
198.404	57.17
198.623	-4.27
198.842	12.12
199.062	22.36
199.281	46.93
199.5	-30.89
199.719	73.56
199.938	22.36
200.157	38.74
200.376	46.93
200.595	28.5
200.814	-18.6
201.033	-14.51
201.252	120.66
201.471	32.6
201.69	1.88
201.909	12.12
202.128	-30.89
202.347	5.97
202.566	-24.75
202.785	-8.36
203.004	30.55
203.223	44.88
203.442	48.98
203.661	-22.7
203.879	81.75
204.098	69.46
204.317	-10.41
204.536	-43.18
204.755	16.21
204.974	96.08
205.193	63.32
205.411	69.46
205.63	81.75
205.849	28.5
206.068	-4.27
206.287	30.55
206.505	77.65
206.724	-8.36
206.943	-34.99
207.162	40.79
207.381	24.4
207.599	89.94
207.818	48.98
208.037	83.8
208.255	-16.55
208.474	32.6
208.693	59.22
208.911	1.88
209.13	-28.84
209.349	20.31
209.567	14.17
209.786	20.31
210.005	24.4
210.223	53.08
210.442	8.02
210.661	-8.36
210.879	24.4
211.098	24.4
211.316	24.4
211.535	36.69
211.753	-4.27
211.972	-6.31
212.191	38.74
212.409	83.8
212.628	12.12
212.846	48.98
213.065	53.08
213.283	-10.41
213.502	69.46
213.72	77.65
213.938	53.08
214.157	12.12
214.375	-20.65
214.594	3.93
214.812	63.32
215.031	-67.75
215.249	18.26
215.467	-8.36
215.686	24.4
215.904	1.88
216.122	65.36
216.341	-2.22
216.559	67.41
216.778	14.17
216.996	20.31
217.214	-2.22
217.432	14.17
217.651	87.89
217.869	14.17
218.087	69.46
218.306	-6.31
218.524	-16.55
218.742	-2.22
218.96	-4.27
219.179	-4.27
219.397	-14.51
219.615	102.23
219.833	28.5
220.051	44.88
220.27	34.64
220.488	12.12
220.706	46.93
220.924	44.88
221.142	61.27
221.36	71.51
221.578	63.32
221.796	32.6
222.015	-10.41
222.233	-4.27
222.451	-45.23
222.669	65.36
222.887	102.23
223.105	51.03
223.323	28.5
223.541	44.88
223.759	22.36
223.977	1.88
224.195	-16.55
224.413	-8.36
224.631	30.55
224.849	46.93
225.067	106.32
225.285	24.4
225.503	46.93
225.721	63.32
225.939	34.64
226.157	149.33
226.375	83.8
226.592	42.84
226.81	14.17
227.028	67.41
227.246	69.46
227.464	24.4
227.682	61.27
227.9	-43.18
228.117	59.22
228.335	3.93
228.553	-28.84
228.771	-24.75
228.989	30.55
229.206	38.74
229.424	14.17
229.642	1.88
229.86	34.64
230.077	-2.22
230.295	-0.17
230.513	-0.17
230.731	26.45
230.948	-32.94
231.166	36.69
231.384	46.93
231.601	-16.55
231.819	73.56
232.037	5.97
232.254	22.36
232.472	30.55
232.689	-2.22
232.907	16.21
233.125	-39.08
233.342	30.55
233.56	10.07
233.777	53.08
233.995	14.17
234.213	8.02
234.43	-0.17
234.648	38.74
234.865	24.4
235.083	48.98
235.3	73.56
235.518	112.47
235.735	28.5
235.953	26.45
236.17	-32.94
236.388	-45.23
236.605	-14.51
236.822	42.84
237.04	-20.65
237.257	-12.46
237.475	26.45
237.692	-73.9
237.909	14.17
238.127	40.79
238.344	38.74
238.562	63.32
238.779	-0.17
238.996	59.22
239.214	53.08
239.431	114.52
239.648	-26.79
239.865	24.4
240.083	1.88
240.3	28.5
240.517	3.93
240.735	61.27
240.952	26.45
241.169	24.4
241.386	-30.89
241.603	32.6
241.821	44.88
242.038	-30.89
242.255	44.88
242.472	30.55
242.689	71.51
242.907	85.84
243.124	16.21
243.341	28.5
243.558	3.93
243.775	85.84
243.992	79.7
244.209	55.12
244.426	-28.84
244.643	-16.55
244.86	53.08
245.078	-28.84
245.295	-10.41
245.512	83.8
245.729	-12.46
245.946	22.36
246.163	32.6
246.38	63.32
246.597	8.02
246.814	-8.36
247.031	-20.65
247.248	75.6
247.464	57.17
247.681	16.21
247.898	5.97
248.115	5.97
248.332	36.69
248.549	22.36
248.766	65.36
248.983	-10.41
249.2	51.03
249.417	77.65
249.633	-34.99
249.85	-18.6
250.067	42.84
250.284	34.64
250.501	94.04
250.717	57.17
250.934	77.65
251.151	53.08
251.368	30.55
251.585	28.5
251.801	1.88
252.018	-2.22
252.235	-28.84
252.451	38.74
252.668	51.03
252.885	40.79
253.102	-8.36
253.318	22.36
253.535	18.26
253.752	-16.55
253.968	38.74
254.185	5.97
254.401	104.28
254.618	22.36
254.835	20.31
255.051	59.22
255.268	-0.17
255.484	-12.46
255.701	3.93
255.917	8.02
256.134	-106.67
256.351	20.31
256.567	-16.55
256.784	-34.99
257	-18.6
257.217	18.26
257.433	71.51
257.65	-20.65
257.866	8.02
258.082	14.17
258.299	79.7
258.515	-22.7
258.732	16.21
258.948	3.93
259.165	44.88
259.381	-30.89
259.597	85.84
259.814	98.13
260.03	-2.22
260.246	-41.13
260.463	26.45
260.679	26.45
260.895	26.45
261.112	69.46
261.328	1.88
261.544	77.65
261.761	46.93
261.977	-14.51
262.193	-28.84
262.409	3.93
262.626	24.4
262.842	69.46
263.058	1.88
263.274	59.22
263.49	53.08
263.707	16.21
263.923	28.5
264.139	-0.17
264.355	28.5
264.571	63.32
264.787	40.79
265.004	-28.84
265.22	16.21
265.436	30.55
265.652	-28.84
265.868	53.08
266.084	10.07
266.3	20.31
266.516	75.6
266.732	-16.55
266.948	-0.17
267.164	8.02
267.38	-80.04
267.596	38.74
267.812	22.36
268.028	44.88
268.244	53.08
268.46	34.64
268.676	-12.46
268.892	8.02
269.108	-12.46
269.324	40.79
269.54	32.6
269.756	-16.55
269.972	-6.31
270.188	42.84
270.403	36.69
270.619	-28.84
270.835	53.08
271.051	100.18
271.267	98.13
271.483	-67.75
271.698	22.36
271.914	53.08
272.13	24.4
272.346	34.64
272.562	48.98
272.777	-26.79
272.993	3.93
273.209	-20.65
273.425	38.74
273.64	61.27
273.856	67.41
274.072	-12.46
274.287	-2.22
274.503	71.51
274.719	26.45
274.934	22.36
275.15	85.84
275.366	36.69
275.581	48.98
275.797	87.89
276.012	55.12
276.228	38.74
276.444	-8.36
276.659	61.27
276.875	-34.99
277.09	30.55
277.306	16.21
277.521	75.6
277.737	44.88
277.952	81.75
278.168	38.74
278.383	44.88
278.599	14.17
278.814	36.69
279.03	-37.03
279.245	75.6
279.461	-20.65
279.676	42.84
279.892	10.07
280.107	-18.6
280.322	14.17
280.538	16.21
280.753	-2.22
280.969	40.79
281.184	48.98
281.399	36.69
281.615	71.51
281.83	24.4
282.045	-24.75
282.26	5.97
282.476	48.98
282.691	110.42
282.906	44.88
283.122	28.5
283.337	20.31
283.552	44.88
283.767	61.27
283.983	46.93
284.198	71.51
284.413	63.32
284.628	18.26
284.843	-4.27
285.058	46.93
285.274	14.17
285.489	-32.94
285.704	40.79
285.919	-24.75
286.134	108.37
286.349	-73.9
286.564	10.07
286.779	57.17
286.995	20.31
287.21	-6.31
287.425	42.84
287.64	73.56
287.855	38.74
288.07	-55.47
288.285	98.13
288.5	-10.41
288.715	-16.55
288.93	-12.46
289.145	-51.37
289.36	-75.95
289.575	12.12
289.79	14.17
290.004	30.55
290.219	8.02
290.434	40.79
290.649	100.18
290.864	40.79
291.079	44.88
291.294	28.5
291.509	67.41
291.724	-37.03
291.938	53.08
292.153	-43.18
292.368	-30.89
292.583	61.27
292.798	73.56
293.012	-16.55
293.227	36.69
293.442	-18.6
293.657	-14.51
293.871	24.4
294.086	51.03
294.301	36.69
294.516	-24.75
294.73	-32.94
294.945	26.45
295.16	69.46
295.374	-32.94
295.589	10.07
295.804	30.55
296.018	-69.8
296.233	55.12
296.447	53.08
296.662	48.98
296.877	44.88
297.091	85.84
297.306	-8.36
297.52	61.27
297.735	63.32
297.949	1.88
298.164	65.36
298.378	22.36
298.593	65.36
298.807	-18.6
299.022	-6.31
299.236	42.84
299.451	61.27
299.665	38.74
299.88	65.36
300.094	-6.31
300.309	-55.47
300.523	38.74
300.737	24.4
300.952	26.45
301.166	36.69
301.381	-37.03
301.595	-2.22
301.809	10.07
302.024	-4.27
302.238	20.31
302.452	65.36
302.667	42.84
302.881	5.97
303.095	42.84
303.309	28.5
303.524	22.36
303.738	94.04
303.952	14.17
304.166	-14.51
304.381	46.93
304.595	16.21
304.809	44.88
305.023	-2.22
305.237	63.32
305.452	30.55
305.666	-43.18
305.88	51.03
306.094	137.04
306.308	32.6
306.522	-6.31
306.736	-4.27
306.95	98.13
307.164	20.31
307.379	91.99
307.593	51.03
307.807	65.36
308.021	30.55
308.235	81.75
308.449	22.36
308.663	-0.17
308.877	59.22
309.091	59.22
309.305	26.45
309.519	-41.13
309.733	34.64
309.947	12.12
310.161	42.84
310.374	32.6
310.588	79.7
310.802	59.22
311.016	-12.46
311.23	10.07
311.444	73.56
311.658	-43.18
311.872	-2.22
312.085	24.4
312.299	53.08
312.513	55.12
312.727	-0.17
312.941	77.65
313.154	8.02
313.368	75.6
313.582	-53.42
313.796	36.69
314.009	-6.31
314.223	18.26
314.437	-20.65
314.651	34.64
314.864	-32.94
315.078	-41.13
315.292	20.31
315.505	-14.51
315.719	96.08
315.933	30.55
316.146	14.17
316.36	8.02
316.573	75.6
316.787	-0.17
317.001	-6.31
317.214	22.36
317.428	-34.99
317.641	28.5
317.855	26.45
318.068	34.64
318.282	28.5
318.495	40.79
318.709	20.31
318.922	-47.27
319.136	55.12
319.349	112.47
319.563	143.19
319.776	5.97
319.99	20.31
320.203	10.07
320.417	36.69
320.63	-37.03
320.843	75.6
321.057	14.17
321.27	24.4
321.483	8.02
321.697	89.94
321.91	65.36
322.124	36.69
322.337	-20.65
322.55	5.97
322.763	28.5
322.977	14.17
323.19	-8.36
323.403	20.31
323.617	61.27
323.83	-10.41
324.043	98.13
324.256	79.7
324.469	-24.75
324.683	46.93
324.896	-8.36
325.109	59.22
325.322	-26.79
325.535	8.02
325.748	38.74
325.962	-2.22
326.175	22.36
326.388	61.27
326.601	57.17
326.814	61.27
327.027	14.17
327.24	53.08
327.453	34.64
327.666	48.98
327.879	34.64
328.092	36.69
328.305	-41.13
328.518	-24.75
328.731	59.22
328.944	128.85
329.157	3.93
329.37	32.6
329.583	-4.27
329.796	38.74
330.009	8.02
330.222	53.08
330.435	57.17
330.648	1.88
330.861	16.21
331.073	87.89
331.286	-0.17
331.499	-37.03
331.712	-4.27
331.925	28.5
332.138	46.93
332.35	48.98
332.563	-6.31
332.776	63.32
332.989	65.36
333.202	5.97
333.414	12.12
333.627	91.99
333.84	-28.84
334.053	-2.22
334.265	77.65
334.478	1.88
334.691	32.6
334.903	5.97
335.116	77.65
335.329	-20.65
335.541	12.12
335.754	14.17
335.966	53.08
336.179	102.23
336.392	-14.51
336.604	26.45
336.817	-49.32
337.029	30.55
337.242	5.97
337.454	-8.36
337.667	-12.46
337.88	51.03
338.092	55.12
338.305	108.37
338.517	-0.17
338.729	28.5
338.942	3.93
339.154	55.12
339.367	-32.94
339.579	69.46
339.792	30.55
340.004	98.13
340.217	-26.79
340.429	112.47
340.641	26.45
340.854	48.98
341.066	5.97
341.278	20.31
341.491	143.19
341.703	-16.55
341.915	5.97
342.128	77.65
342.34	-59.56
342.552	-28.84
342.764	18.26
342.977	32.6
343.189	42.84
343.401	108.37
343.613	-4.27
343.826	51.03
344.038	-28.84
344.25	5.97
344.462	5.97
344.674	53.08
344.886	-20.65
345.099	94.04
345.311	24.4
345.523	57.17
345.735	-14.51
345.947	32.6
346.159	110.42
346.371	1.88
346.583	100.18
346.795	53.08
347.007	38.74
347.219	34.64
347.431	-8.36
347.643	-22.7
347.855	73.56
348.067	65.36
348.279	36.69
348.491	-20.65
348.703	46.93
348.915	69.46
349.127	-26.79
349.339	20.31
349.551	61.27
349.763	18.26
349.975	26.45
350.187	77.65
350.399	46.93
350.61	48.98
350.822	10.07
351.034	26.45
351.246	12.12
351.458	73.56
351.669	14.17
351.881	53.08
352.093	20.31
352.305	57.17
352.517	20.31
352.728	32.6
352.94	61.27
353.152	73.56
353.363	32.6
353.575	44.88
353.787	55.12
353.999	75.6
354.21	51.03
354.422	-4.27
354.633	-24.75
354.845	61.27
355.057	12.12
355.268	28.5
355.48	38.74
355.692	87.89
355.903	5.97
356.115	28.5
356.326	61.27
356.538	10.07
356.749	36.69
356.961	20.31
357.172	59.22
357.384	28.5
357.595	110.42
357.807	20.31
358.018	-4.27
358.23	28.5
358.441	42.84
358.653	40.79
358.864	63.32
359.075	63.32
359.287	53.08
359.498	63.32
359.709	16.21
359.921	20.31
360.132	-24.75
360.344	8.02
360.555	40.79
360.766	12.12
360.977	-30.89
361.189	38.74
361.4	53.08
361.611	22.36
361.823	44.88
362.034	61.27
362.245	65.36
362.456	40.79
362.667	16.21
362.879	-20.65
363.09	22.36
363.301	59.22
363.512	-10.41
363.723	-14.51
363.935	-22.7
364.146	55.12
364.357	20.31
364.568	34.64
364.779	32.6
364.99	81.75
365.201	32.6
365.412	32.6
365.623	14.17
365.834	63.32
366.045	79.7
366.256	87.89
366.467	53.08
366.678	-20.65
366.889	73.56
367.1	3.93
367.311	38.74
367.522	3.93
367.733	40.79
367.944	30.55
368.155	65.36
368.366	61.27
368.577	42.84
368.788	106.32
368.999	24.4
369.209	36.69
369.42	69.46
369.631	71.51
369.842	30.55
370.053	73.56
370.264	-28.84
370.474	-43.18
370.685	69.46
370.896	44.88
371.107	44.88
371.317	100.18
371.528	-10.41
371.739	44.88
371.95	-34.99
372.16	61.27
372.371	-14.51
372.582	61.27
372.792	61.27
373.003	96.08
373.214	59.22
373.424	67.41
373.635	24.4
373.846	32.6
374.056	46.93
374.267	36.69
374.477	-20.65
374.688	28.5
374.898	18.26
375.109	48.98
375.319	94.04
375.53	91.99
375.74	87.89
375.951	-14.51
376.161	32.6
376.372	59.22
376.582	16.21
376.793	30.55
377.003	48.98
377.214	32.6
377.424	36.69
377.635	65.36
377.845	46.93
378.055	14.17
378.266	46.93
378.476	40.79
378.686	32.6
378.897	46.93
379.107	38.74
379.317	-30.89
379.528	22.36
379.738	5.97
379.948	48.98
380.158	42.84
380.369	-45.23
380.579	16.21
380.789	91.99
380.999	32.6
381.21	16.21
381.42	89.94
381.63	40.79
381.84	36.69
382.05	30.55
382.261	14.17
382.471	55.12
382.681	26.45
382.891	81.75
383.101	75.6
383.311	53.08
383.521	32.6
383.731	-18.6
383.941	-12.46
384.151	-10.41
384.361	75.6
384.571	69.46
384.781	53.08
384.991	36.69
385.201	-0.17
385.411	-10.41
385.621	81.75
385.831	20.31
386.041	26.45
386.251	89.94
386.461	-32.94
386.671	69.46
386.881	59.22
387.091	57.17
387.301	51.03
387.511	34.64
387.72	16.21
387.93	40.79
388.14	42.84
388.35	36.69
388.56	63.32
388.769	75.6
388.979	79.7
389.189	-6.31
389.399	34.64
389.609	42.84
389.818	118.61
390.028	-41.13
390.238	51.03
390.447	53.08
390.657	120.66
390.867	63.32
391.076	81.75
391.286	32.6
391.496	24.4
391.705	53.08
391.915	42.84
392.125	104.28
392.334	44.88
392.544	51.03
392.753	48.98
392.963	-30.89
393.172	36.69
393.382	-4.27
393.591	46.93
393.801	24.4
394.01	91.99
394.22	30.55
394.429	34.64
394.639	-6.31
394.848	104.28
395.058	24.4
395.267	102.23
395.477	85.84
395.686	-6.31
395.895	69.46
396.105	85.84
396.314	-0.17
396.524	-0.17
396.733	32.6
396.942	110.42
397.152	34.64
397.361	83.8
397.57	44.88
397.78	-2.22
397.989	8.02
398.198	85.84
398.407	-2.22
398.617	96.08
398.826	1.88
399.035	-4.27
399.244	14.17
399.453	83.8
399.663	18.26
399.872	67.41
400.081	89.94
400.29	14.17
400.499	61.27
400.708	67.41
400.917	89.94
401.127	51.03
401.336	20.31
401.545	77.65
401.754	104.28
401.963	96.08
402.172	28.5
402.381	-22.7
402.59	57.17
402.799	153.43
403.008	106.32
403.217	118.61
403.426	69.46
403.635	30.55
403.844	79.7
404.053	40.79
404.262	51.03
404.471	57.17
404.68	57.17
404.888	63.32
405.097	18.26
405.306	51.03
405.515	-4.27
405.724	26.45
405.933	106.32
406.142	79.7
406.35	151.38
406.559	65.36
406.768	79.7
406.977	102.23
407.185	65.36
407.394	169.81
407.603	48.98
407.812	100.18
408.02	110.42
408.229	87.89
408.438	65.36
408.646	63.32
408.855	28.5
409.064	53.08
409.272	98.13
409.481	108.37
409.69	106.32
409.898	67.41
410.107	128.85
410.315	139.09
410.524	167.76
410.733	163.67
410.941	112.47
411.15	104.28
411.358	143.19
411.567	141.14
411.775	69.46
411.984	159.57
412.192	112.47
412.401	116.56
412.609	221.01
412.818	186.19
413.026	208.72
413.234	182.1
413.443	180.05
413.651	167.76
413.86	198.48
414.068	194.39
414.276	249.68
414.485	227.15
414.693	175.95
414.901	233.3
415.11	245.59
415.318	237.39
415.526	229.2
415.734	286.54
415.943	216.91
416.151	362.32
416.359	249.68
416.567	208.72
416.776	241.49
416.984	249.68
417.192	313.17
417.4	309.07
417.608	286.54
417.817	350.03
418.025	339.79
418.233	356.18
418.441	356.18
418.649	323.41
418.857	438.09
419.065	431.95
419.273	413.52
419.481	454.48
419.689	440.14
419.897	393.04
420.105	399.18
420.313	472.91
420.521	515.92
420.729	634.7
420.937	440.14
421.145	581.45
421.353	626.51
421.561	569.16
421.769	585.55
421.977	655.18
422.185	735.05
422.393	601.93
422.601	692.04
422.809	675.66
423.017	753.48
423.224	685.9
423.432	757.58
423.64	790.35
423.848	853.83
424.056	882.5
424.263	896.84
424.471	868.17
424.679	943.94
424.887	898.89
425.094	956.23
425.302	997.19
425.51	1019.72
425.718	1027.91
425.925	1027.91
426.133	1101.64
426.341	1185.6
426.548	1208.13
426.756	1238.85
426.964	1300.29
427.171	1201.99
427.379	1290.05
427.586	1361.73
427.794	1382.21
428.001	1486.65
428.209	1554.24
428.417	1355.58
428.624	1621.82
428.832	1535.81
429.039	1560.38
429.247	1632.06
429.454	1675.07
429.662	1789.75
429.869	1853.24
430.076	1918.78
430.284	1765.18
430.491	1912.63
430.699	1980.22
430.906	1967.93
431.114	1908.54
431.321	2076.47
431.528	2199.35
431.736	2287.41
431.943	2207.54
432.15	2211.64
432.358	2461.49
432.565	2430.77
432.772	2559.79
432.979	2580.27
433.187	2590.51
433.394	2539.31
433.601	2813.74
433.808	2871.08
434.016	2832.17
434.223	3008.3
434.43	2967.34
434.637	2948.9
434.844	3245.86
435.052	3323.68
435.259	3252
435.466	3286.82
435.673	3329.83
435.88	3444.51
436.087	3645.21
436.294	3735.32
436.501	3600.16
436.708	3526.43
436.915	3807
437.122	3952.41
437.329	3958.55
437.537	4232.98
437.743	4218.64
437.95	4071.19
438.157	4345.62
438.364	4476.69
438.571	4511.5
438.778	4386.58
438.985	4921.1
439.192	4814.6
439.399	4734.73
439.606	4790.03
439.813	5076.74
440.02	5246.73
440.227	5283.59
440.433	5179.14
440.64	5416.71
440.847	5318.4
441.054	5455.62
441.261	5840.64
441.467	5744.38
441.674	5709.57
441.881	5996.28
442.088	6139.64
442.294	6141.69
442.501	6205.17
442.708	6362.87
442.914	6616.82
443.121	6825.71
443.328	6633.2
443.534	7120.62
443.741	6905.58
443.948	6928.11
444.154	7202.54
444.361	7241.45
444.568	7255.78
444.774	7270.12
444.981	7415.52
445.187	7630.56
445.394	7943.9
445.6	7814.88
445.807	8627.92
446.013	8183.51
446.22	8322.77
446.426	8693.46
446.633	8736.46
446.839	9301.7
447.046	8500.95
447.252	9264.84
447.459	9203.4
447.665	8900.3
447.871	9473.73
448.078	10143.42
448.284	9529.03
448.491	9821.89
448.697	10454.71
448.903	10362.55
449.11	10397.37
449.316	10020.54
449.522	10251.96
449.728	10661.55
449.935	10741.43
450.141	10831.54
450.347	11204.27
450.553	10710.71
450.76	10745.52
450.966	11282.09
451.172	11001.52
451.378	11570.85
451.584	11153.07
451.791	11523.75
451.997	11380.39
452.203	11599.52
452.409	11421.35
452.615	11687.59
452.821	11204.27
453.027	11093.68
453.233	11656.87
453.44	11089.58
453.646	11300.52
453.852	11239.08
454.058	11591.33
454.264	11173.55
454.47	11314.86
454.676	11159.21
454.882	11462.31
455.088	10469.05
455.294	10694.32
455.5	10880.69
455.705	10829.49
455.911	10467
456.117	10292.92
456.323	10159.8
456.529	9590.47
456.735	10032.83
456.941	9805.5
457.147	9664.19
457.352	9060.04
457.558	9266.89
457.764	9213.64
457.97	9150.15
458.176	9014.99
458.381	8744.66
458.587	8380.12
458.793	8343.25
458.999	7847.65
459.204	8453.84
459.41	8287.96
459.616	7648.99
459.821	7845.6
460.027	7849.69
460.233	7354.09
460.438	7288.55
460.644	7137
460.85	6962.92
461.055	6833.9
461.261	6926.06
461.466	6432.5
461.672	6248.18
461.878	6567.67
462.083	6022.91
462.289	5983.99
462.494	5891.84
462.7	5748.48
462.905	5437.19
463.111	5832.44
463.316	5703.42
463.522	5541.63
463.727	5611.26
463.932	5603.07
464.138	5709.57
464.343	5592.83
464.549	5584.64
464.754	5615.36
464.959	5603.07
465.165	5588.74
465.37	5213.96
465.575	5175.05
465.781	5377.8
465.986	5388.04
466.191	5256.97
466.397	5166.85
466.602	4853.52
466.807	4955.91
467.012	5181.19
467.218	5000.97
467.423	4951.82
467.628	5019.4
467.833	5232.39
468.038	4992.78
468.244	4810.51
468.449	5039.88
468.654	4912.91
468.859	4843.28
469.064	4849.42
469.269	4761.36
469.474	4628.24
469.679	4830.99
469.885	4699.92
470.09	4779.79
470.295	4740.88
