Data from USB4F104151__36__12-53-44-095.txt Node

Date: Fri Mar 14 12:53:44 EDT 2025
User: louis
Spectrometer: USB4F10415
Trigger mode: 4
Integration Time (sec): 1.000000E-2
Scans to average: 1
Electric dark correction enabled: true
Nonlinearity correction enabled: false
Boxcar width: 0
XAxis mode: Wavelengths
Number of Pixels in Spectrum: 3648
>>>>>Begin Spectral Data<<<<<
178.204	-80.04
178.424	-80.04
178.644	-80.04
178.864	-80.04
179.084	-4.27
179.304	-47.27
179.524	44.88
179.744	-63.66
179.964	8.02
180.184	73.56
180.404	-18.6
180.624	48.98
180.844	-28.84
181.064	-16.55
181.283	32.6
181.503	-71.85
181.723	38.74
181.943	-34.99
182.163	-32.94
182.383	-4.27
182.602	10.07
182.822	32.6
183.042	32.6
183.262	16.21
183.482	65.36
183.701	12.12
183.921	75.6
184.141	-84.14
184.361	53.08
184.58	71.51
184.8	-4.27
185.02	3.93
185.239	14.17
185.459	42.84
185.679	87.89
185.898	57.17
186.118	67.41
186.338	24.4
186.557	1.88
186.777	-59.56
186.997	48.98
187.216	12.12
187.436	-0.17
187.655	-20.65
187.875	-47.27
188.095	-20.65
188.314	42.84
188.534	12.12
188.753	20.31
188.973	36.69
189.192	-26.79
189.412	-59.56
189.631	53.08
189.851	34.64
190.07	42.84
190.29	40.79
190.509	-80.04
190.729	-8.36
190.948	-22.7
191.168	-10.41
191.387	-6.31
191.607	26.45
191.826	3.93
192.045	20.31
192.265	-45.23
192.484	-47.27
192.704	-28.84
192.923	-12.46
193.142	22.36
193.362	10.07
193.581	-0.17
193.8	30.55
194.02	5.97
194.239	3.93
194.458	73.56
194.678	67.41
194.897	18.26
195.116	-18.6
195.335	-4.27
195.555	8.02
195.774	18.26
195.993	1.88
196.212	36.69
196.432	26.45
196.651	-14.51
196.87	22.36
197.089	28.5
197.308	59.22
197.528	-2.22
197.747	-6.31
197.966	1.88
198.185	67.41
198.404	55.12
198.623	-4.27
198.842	3.93
199.062	51.03
199.281	-6.31
199.5	14.17
199.719	48.98
199.938	-10.41
200.157	79.7
200.376	40.79
200.595	22.36
200.814	-10.41
201.033	-10.41
201.252	36.69
201.471	71.51
201.69	102.23
201.909	87.89
202.128	26.45
202.347	-12.46
202.566	30.55
202.785	46.93
203.004	26.45
203.223	53.08
203.442	67.41
203.661	-49.32
203.879	-0.17
204.098	-26.79
204.317	81.75
204.536	1.88
204.755	14.17
204.974	61.27
205.193	28.5
205.411	20.31
205.63	-8.36
205.849	18.26
206.068	14.17
206.287	44.88
206.505	20.31
206.724	20.31
206.943	38.74
207.162	44.88
207.381	32.6
207.599	67.41
207.818	40.79
208.037	3.93
208.255	16.21
208.474	42.84
208.693	-12.46
208.911	14.17
209.13	36.69
209.349	38.74
209.567	26.45
209.786	3.93
210.005	40.79
210.223	40.79
210.442	42.84
210.661	51.03
210.879	-12.46
211.098	5.97
211.316	22.36
211.535	28.5
211.753	26.45
211.972	16.21
212.191	28.5
212.409	16.21
212.628	51.03
212.846	28.5
213.065	16.21
213.283	-28.84
213.502	85.84
213.72	26.45
213.938	-0.17
214.157	85.84
214.375	-12.46
214.594	12.12
214.812	18.26
215.031	-14.51
215.249	-12.46
215.467	36.69
215.686	67.41
215.904	65.36
216.122	79.7
216.341	44.88
216.559	-30.89
216.778	-37.03
216.996	8.02
217.214	24.4
217.432	-2.22
217.651	-6.31
217.869	-20.65
218.087	-12.46
218.306	3.93
218.524	79.7
218.742	71.51
218.96	12.12
219.179	-20.65
219.397	34.64
219.615	59.22
219.833	3.93
220.051	14.17
220.27	24.4
220.488	-37.03
220.706	34.64
220.924	-32.94
221.142	8.02
221.36	20.31
221.578	46.93
221.796	-10.41
222.015	-8.36
222.233	-32.94
222.451	-47.27
222.669	30.55
222.887	-6.31
223.105	1.88
223.323	-32.94
223.541	-14.51
223.759	-14.51
223.977	32.6
224.195	10.07
224.413	32.6
224.631	1.88
224.849	16.21
225.067	55.12
225.285	-12.46
225.503	26.45
225.721	-18.6
225.939	10.07
226.157	48.98
226.375	65.36
226.592	8.02
226.81	10.07
227.028	40.79
227.246	-0.17
227.464	-49.32
227.682	-28.84
227.9	20.31
228.117	40.79
228.335	-34.99
228.553	91.99
228.771	38.74
228.989	67.41
229.206	46.93
229.424	94.04
229.642	-0.17
229.86	-39.08
230.077	1.88
230.295	-20.65
230.513	75.6
230.731	-32.94
230.948	20.31
231.166	16.21
231.384	42.84
231.601	-82.09
231.819	63.32
232.037	-18.6
232.254	1.88
232.472	-26.79
232.689	46.93
232.907	44.88
233.125	-6.31
233.342	-39.08
233.56	-18.6
233.777	63.32
233.995	110.42
234.213	-24.75
234.43	36.69
234.648	-16.55
234.865	28.5
235.083	61.27
235.3	57.17
235.518	44.88
235.735	36.69
235.953	79.7
236.17	-14.51
236.388	91.99
236.605	30.55
236.822	48.98
237.04	-20.65
237.257	59.22
237.475	8.02
237.692	-6.31
237.909	20.31
238.127	42.84
238.344	57.17
238.562	38.74
238.779	5.97
238.996	-43.18
239.214	38.74
239.431	55.12
239.648	-59.56
239.865	5.97
240.083	26.45
240.3	20.31
240.517	-34.99
240.735	3.93
240.952	32.6
241.169	-6.31
241.386	-2.22
241.603	3.93
241.821	48.98
242.038	-0.17
242.255	-16.55
242.472	61.27
242.689	5.97
242.907	96.08
243.124	-55.47
243.341	40.79
243.558	22.36
243.775	46.93
243.992	18.26
244.209	-22.7
244.426	16.21
244.643	-10.41
244.86	48.98
245.078	59.22
245.295	-37.03
245.512	-12.46
245.729	55.12
245.946	85.84
246.163	-55.47
246.38	40.79
246.597	30.55
246.814	32.6
247.031	5.97
247.248	8.02
247.464	53.08
247.681	-47.27
247.898	40.79
248.115	32.6
248.332	46.93
248.549	89.94
248.766	24.4
248.983	57.17
249.2	71.51
249.417	3.93
249.633	79.7
249.85	-39.08
250.067	-22.7
250.284	-32.94
250.501	-26.79
250.717	-43.18
250.934	28.5
251.151	63.32
251.368	12.12
251.585	42.84
251.801	-8.36
252.018	32.6
252.235	46.93
252.451	-14.51
252.668	-47.27
252.885	67.41
253.102	55.12
253.318	57.17
253.535	3.93
253.752	30.55
253.968	24.4
254.185	12.12
254.401	14.17
254.618	-34.99
254.835	18.26
255.051	-0.17
255.268	67.41
255.484	-10.41
255.701	-12.46
255.917	42.84
256.134	-8.36
256.351	44.88
256.567	22.36
256.784	106.32
257	102.23
257.217	12.12
257.433	-30.89
257.65	42.84
257.866	-32.94
258.082	67.41
258.299	3.93
258.515	-8.36
258.732	-24.75
258.948	36.69
259.165	-45.23
259.381	3.93
259.597	-6.31
259.814	16.21
260.03	-2.22
260.246	5.97
260.463	53.08
260.679	-6.31
260.895	36.69
261.112	26.45
261.328	14.17
261.544	16.21
261.761	26.45
261.977	18.26
262.193	-12.46
262.409	1.88
262.626	-39.08
262.842	44.88
263.058	46.93
263.274	-39.08
263.49	28.5
263.707	55.12
263.923	14.17
264.139	3.93
264.355	26.45
264.571	73.56
264.787	10.07
265.004	69.46
265.22	18.26
265.436	12.12
265.652	46.93
265.868	32.6
266.084	42.84
266.3	75.6
266.516	10.07
266.732	42.84
266.948	36.69
267.164	30.55
267.38	40.79
267.596	14.17
267.812	32.6
268.028	-28.84
268.244	-20.65
268.46	100.18
268.676	57.17
268.892	65.36
269.108	5.97
269.324	26.45
269.54	-32.94
269.756	-26.79
269.972	-34.99
270.188	14.17
270.403	55.12
270.619	24.4
270.835	8.02
271.051	57.17
271.267	16.21
271.483	38.74
271.698	-4.27
271.914	55.12
272.13	28.5
272.346	20.31
272.562	5.97
272.777	-2.22
272.993	16.21
273.209	67.41
273.425	38.74
273.64	-12.46
273.856	-12.46
274.072	48.98
274.287	-34.99
274.503	75.6
274.719	-30.89
274.934	69.46
275.15	-6.31
275.366	36.69
275.581	57.17
275.797	46.93
276.012	36.69
276.228	18.26
276.444	-4.27
276.659	116.56
276.875	79.7
277.09	26.45
277.306	-6.31
277.521	-30.89
277.737	36.69
277.952	104.28
278.168	36.69
278.383	44.88
278.599	5.97
278.814	69.46
279.03	53.08
279.245	-10.41
279.461	75.6
279.676	-30.89
279.892	-45.23
280.107	12.12
280.322	1.88
280.538	16.21
280.753	8.02
280.969	28.5
281.184	26.45
281.399	34.64
281.615	-2.22
281.83	28.5
282.045	-4.27
282.26	55.12
282.476	12.12
282.691	79.7
282.906	16.21
283.122	75.6
283.337	16.21
283.552	3.93
283.767	26.45
283.983	85.84
284.198	-45.23
284.413	85.84
284.628	1.88
284.843	-16.55
285.058	53.08
285.274	22.36
285.489	16.21
285.704	-6.31
285.919	-10.41
286.134	48.98
286.349	59.22
286.564	32.6
286.779	10.07
286.995	42.84
287.21	51.03
287.425	10.07
287.64	20.31
287.855	28.5
288.07	26.45
288.285	12.12
288.5	46.93
288.715	-0.17
288.93	3.93
289.145	48.98
289.36	26.45
289.575	28.5
289.79	51.03
290.004	10.07
290.219	44.88
290.434	65.36
290.649	34.64
290.864	51.03
291.079	-14.51
291.294	-37.03
291.509	-32.94
291.724	1.88
291.938	24.4
292.153	-14.51
292.368	1.88
292.583	77.65
292.798	14.17
293.012	63.32
293.227	10.07
293.442	-45.23
293.657	8.02
293.871	36.69
294.086	53.08
294.301	26.45
294.516	46.93
294.73	22.36
294.945	53.08
295.16	24.4
295.374	-6.31
295.589	44.88
295.804	3.93
296.018	79.7
296.233	89.94
296.447	65.36
296.662	28.5
296.877	34.64
297.091	8.02
297.306	8.02
297.52	42.84
297.735	34.64
297.949	-12.46
298.164	63.32
298.378	10.07
298.593	65.36
298.807	10.07
299.022	59.22
299.236	-28.84
299.451	61.27
299.665	44.88
299.88	12.12
300.094	51.03
300.309	8.02
300.523	26.45
300.737	30.55
300.952	63.32
301.166	51.03
301.381	-43.18
301.595	67.41
301.809	81.75
302.024	20.31
302.238	12.12
302.452	46.93
302.667	36.69
302.881	20.31
303.095	-0.17
303.309	100.18
303.524	-10.41
303.738	26.45
303.952	14.17
304.166	38.74
304.381	73.56
304.595	-12.46
304.809	30.55
305.023	-6.31
305.237	-18.6
305.452	20.31
305.666	20.31
305.88	40.79
306.094	36.69
306.308	-32.94
306.522	22.36
306.736	32.6
306.95	159.57
307.164	26.45
307.379	40.79
307.593	32.6
307.807	-4.27
308.021	65.36
308.235	26.45
308.449	-39.08
308.663	46.93
308.877	69.46
309.091	57.17
309.305	18.26
309.519	44.88
309.733	22.36
309.947	12.12
310.161	38.74
310.374	-73.9
310.588	24.4
310.802	-53.42
311.016	14.17
311.23	1.88
311.444	14.17
311.658	34.64
311.872	-8.36
312.085	57.17
312.299	38.74
312.513	12.12
312.727	57.17
312.941	-14.51
313.154	114.52
313.368	16.21
313.582	67.41
313.796	-39.08
314.009	34.64
314.223	14.17
314.437	-10.41
314.651	44.88
314.864	40.79
315.078	22.36
315.292	42.84
315.505	-39.08
315.719	26.45
315.933	-18.6
316.146	51.03
316.36	-10.41
316.573	91.99
316.787	104.28
317.001	40.79
317.214	-53.42
317.428	46.93
317.641	34.64
317.855	-14.51
318.068	36.69
318.282	30.55
318.495	55.12
318.709	10.07
318.922	10.07
319.136	30.55
319.349	46.93
319.563	112.47
319.776	-2.22
319.99	51.03
320.203	5.97
320.417	73.56
320.63	1.88
320.843	79.7
321.057	-2.22
321.27	128.85
321.483	-43.18
321.697	3.93
321.91	132.95
322.124	-96.43
322.337	102.23
322.55	-41.13
322.763	-16.55
322.977	22.36
323.19	-14.51
323.403	40.79
323.617	-8.36
323.83	26.45
324.043	22.36
324.256	5.97
324.469	12.12
324.683	1.88
324.896	40.79
325.109	-2.22
325.322	51.03
325.535	32.6
325.748	53.08
325.962	98.13
326.175	30.55
326.388	42.84
326.601	24.4
326.814	81.75
327.027	-51.37
327.24	100.18
327.453	-4.27
327.666	79.7
327.879	-2.22
328.092	73.56
328.305	28.5
328.518	-16.55
328.731	-32.94
328.944	10.07
329.157	-16.55
329.37	-49.32
329.583	12.12
329.796	61.27
330.009	-6.31
330.222	48.98
330.435	-24.75
330.648	73.56
330.861	18.26
331.073	36.69
331.286	-0.17
331.499	75.6
331.712	24.4
331.925	32.6
332.138	73.56
332.35	100.18
332.563	32.6
332.776	63.32
332.989	30.55
333.202	34.64
333.414	38.74
333.627	26.45
333.84	22.36
334.053	42.84
334.265	1.88
334.478	124.76
334.691	34.64
334.903	3.93
335.116	34.64
335.329	24.4
335.541	51.03
335.754	10.07
335.966	-6.31
336.179	71.51
336.392	-14.51
336.604	-8.36
336.817	22.36
337.029	-24.75
337.242	-53.42
337.454	120.66
337.667	42.84
337.88	38.74
338.092	-49.32
338.305	44.88
338.517	8.02
338.729	32.6
338.942	-2.22
339.154	26.45
339.367	18.26
339.579	-22.7
339.792	-20.65
340.004	34.64
340.217	65.36
340.429	40.79
340.641	18.26
340.854	36.69
341.066	32.6
341.278	100.18
341.491	30.55
341.703	-16.55
341.915	-10.41
342.128	16.21
342.34	46.93
342.552	61.27
342.764	22.36
342.977	55.12
343.189	5.97
343.401	-14.51
343.613	36.69
343.826	44.88
344.038	-24.75
344.25	67.41
344.462	-4.27
344.674	10.07
344.886	28.5
345.099	61.27
345.311	67.41
345.523	3.93
345.735	1.88
345.947	67.41
346.159	38.74
346.371	-6.31
346.583	-16.55
346.795	10.07
347.007	81.75
347.219	30.55
347.431	38.74
347.643	69.46
347.855	-24.75
348.067	75.6
348.279	59.22
348.491	94.04
348.703	3.93
348.915	79.7
349.127	-18.6
349.339	38.74
349.551	-12.46
349.763	14.17
349.975	-16.55
350.187	-2.22
350.399	69.46
350.61	10.07
350.822	91.99
351.034	46.93
351.246	38.74
351.458	96.08
351.669	28.5
351.881	30.55
352.093	65.36
352.305	20.31
352.517	59.22
352.728	12.12
352.94	16.21
353.152	126.8
353.363	67.41
353.575	69.46
353.787	77.65
353.999	14.17
354.21	-14.51
354.422	30.55
354.633	59.22
354.845	38.74
355.057	59.22
355.268	-2.22
355.48	24.4
355.692	63.32
355.903	14.17
356.115	57.17
356.326	18.26
356.538	-8.36
356.749	61.27
356.961	65.36
357.172	61.27
357.384	51.03
357.595	16.21
357.807	59.22
358.018	28.5
358.23	22.36
358.441	24.4
358.653	53.08
358.864	18.26
359.075	53.08
359.287	14.17
359.498	77.65
359.709	51.03
359.921	20.31
360.132	3.93
360.344	30.55
360.555	20.31
360.766	53.08
360.977	42.84
361.189	108.37
361.4	36.69
361.611	10.07
361.823	69.46
362.034	48.98
362.245	14.17
362.456	-12.46
362.667	85.84
362.879	53.08
363.09	-0.17
363.301	53.08
363.512	85.84
363.723	85.84
363.935	51.03
364.146	57.17
364.357	-4.27
364.568	-12.46
364.779	40.79
364.99	26.45
365.201	-0.17
365.412	69.46
365.623	8.02
365.834	102.23
366.045	75.6
366.256	71.51
366.467	-34.99
366.678	46.93
366.889	-2.22
367.1	-10.41
367.311	3.93
367.522	38.74
367.733	85.84
367.944	-6.31
368.155	-18.6
368.366	55.12
368.577	-22.7
368.788	67.41
368.999	18.26
369.209	83.8
369.42	85.84
369.631	24.4
369.842	16.21
370.053	63.32
370.264	-61.61
370.474	53.08
370.685	22.36
370.896	42.84
371.107	77.65
371.317	10.07
371.528	81.75
371.739	61.27
371.95	51.03
372.16	128.85
372.371	48.98
372.582	32.6
372.792	24.4
373.003	59.22
373.214	69.46
373.424	69.46
373.635	-47.27
373.846	5.97
374.056	69.46
374.267	-6.31
374.477	-8.36
374.688	34.64
374.898	28.5
375.109	44.88
375.319	-18.6
375.53	100.18
375.74	44.88
375.951	53.08
376.161	16.21
376.372	10.07
376.582	-10.41
376.793	87.89
377.003	36.69
377.214	14.17
377.424	44.88
377.635	59.22
377.845	55.12
378.055	53.08
378.266	46.93
378.476	36.69
378.686	-6.31
378.897	14.17
379.107	77.65
379.317	-98.47
379.528	8.02
379.738	3.93
379.948	10.07
380.158	1.88
380.369	44.88
380.579	55.12
380.789	-34.99
380.999	51.03
381.21	81.75
381.42	14.17
381.63	8.02
381.84	67.41
382.05	40.79
382.261	-18.6
382.471	38.74
382.681	-16.55
382.891	26.45
383.101	-28.84
383.311	8.02
383.521	67.41
383.731	-34.99
383.941	38.74
384.151	48.98
384.361	-8.36
384.571	32.6
384.781	108.37
384.991	57.17
385.201	14.17
385.411	1.88
385.621	85.84
385.831	20.31
386.041	20.31
386.251	30.55
386.461	-30.89
386.671	46.93
386.881	38.74
387.091	-24.75
387.301	3.93
387.511	-26.79
387.72	10.07
387.93	71.51
388.14	83.8
388.35	-43.18
388.56	151.38
388.769	89.94
388.979	18.26
389.189	75.6
389.399	1.88
389.609	63.32
389.818	122.71
390.028	36.69
390.238	59.22
390.447	59.22
390.657	-16.55
390.867	24.4
391.076	-2.22
391.286	24.4
391.496	40.79
391.705	42.84
391.915	102.23
392.125	32.6
392.334	26.45
392.544	77.65
392.753	63.32
392.963	-20.65
393.172	44.88
393.382	-16.55
393.591	5.97
393.801	-8.36
394.01	73.56
394.22	102.23
394.429	73.56
394.639	94.04
394.848	65.36
395.058	67.41
395.267	32.6
395.477	-14.51
395.686	28.5
395.895	96.08
396.105	91.99
396.314	87.89
396.524	-6.31
396.733	96.08
396.942	1.88
397.152	79.7
397.361	53.08
397.57	63.32
397.78	67.41
397.989	16.21
398.198	57.17
398.407	69.46
398.617	110.42
398.826	40.79
399.035	65.36
399.244	71.51
399.453	98.13
399.663	26.45
399.872	61.27
400.081	67.41
400.29	132.95
400.499	46.93
400.708	59.22
400.917	69.46
401.127	71.51
401.336	75.6
401.545	124.76
401.754	28.5
401.963	124.76
402.172	42.84
402.381	71.51
402.59	51.03
402.799	38.74
403.008	38.74
403.217	69.46
403.426	135
403.635	59.22
403.844	59.22
404.053	128.85
404.262	77.65
404.471	77.65
404.68	147.28
404.888	85.84
405.097	10.07
405.306	124.76
405.515	145.24
405.724	96.08
405.933	108.37
406.142	163.67
406.35	100.18
406.559	141.14
406.768	53.08
406.977	141.14
407.185	91.99
407.394	79.7
407.603	89.94
407.812	102.23
408.02	118.61
408.229	63.32
408.438	161.62
408.646	126.8
408.855	126.8
409.064	126.8
409.272	85.84
409.481	239.44
409.69	157.52
409.898	69.46
410.107	120.66
410.315	151.38
410.524	98.13
410.733	231.25
410.941	274.26
411.15	151.38
411.358	196.43
411.567	235.35
411.775	237.39
411.984	178
412.192	218.96
412.401	249.68
412.609	253.78
412.818	241.49
413.026	264.02
413.234	321.36
413.443	264.02
413.651	266.07
413.86	239.44
414.068	309.07
414.276	296.78
414.485	304.98
414.693	319.31
414.901	390.99
415.11	343.89
415.318	321.36
415.526	327.5
415.734	380.75
415.943	386.9
416.151	444.24
416.359	434
416.567	460.62
416.776	440.14
416.984	491.34
417.192	419.66
417.4	481.1
417.608	436.05
417.817	495.44
418.025	526.16
418.233	606.03
418.441	581.45
418.649	687.95
418.857	718.67
419.065	667.47
419.273	646.99
419.481	706.38
419.689	708.43
419.897	825.16
420.105	778.06
420.313	753.48
420.521	806.73
420.729	917.32
420.937	878.41
421.145	845.64
421.353	956.23
421.561	884.55
421.769	954.18
421.977	1066.82
422.185	982.85
422.393	1111.88
422.601	1115.97
422.809	1107.78
423.017	1189.7
423.224	1169.22
423.432	1322.82
423.64	1306.43
423.848	1343.3
424.056	1335.1
424.263	1474.37
424.471	1447.74
424.679	1507.13
424.887	1705.79
425.094	1517.37
425.302	1648.44
425.51	1744.7
425.718	1679.16
425.925	1685.31
426.133	1771.32
426.341	1892.15
426.548	1990.45
426.756	2031.41
426.964	1988.41
427.171	2037.56
427.379	2182.96
427.586	2160.44
427.794	2318.13
428.001	2338.61
428.209	2494.26
428.417	2418.48
428.624	2635.57
428.832	2674.48
429.039	2631.47
429.247	2635.57
429.454	2848.55
429.662	3116.84
429.869	2953
430.076	3075.88
430.284	2957.1
430.491	3245.86
430.699	3237.67
430.906	3194.66
431.114	3180.32
431.321	3534.62
431.528	3407.65
431.736	3669.79
431.943	3829.53
432.15	3850.01
432.358	3782.43
432.565	3976.98
432.772	4103.96
432.979	4263.7
433.187	4302.61
433.394	4429.59
433.601	4554.51
433.808	4718.35
434.016	4618
434.223	4798.22
434.43	5183.24
434.637	5021.45
434.844	5275.4
435.052	5400.32
435.259	5330.69
435.466	5457.67
435.673	5422.85
435.88	5965.56
436.087	5889.79
436.294	6106.87
436.501	5963.51
436.708	5990.14
436.915	6258.42
437.122	6559.47
437.329	6438.64
437.537	6758.13
437.743	6751.98
437.95	6862.57
438.157	7231.21
438.364	7280.36
438.571	7327.46
438.778	7427.81
438.985	8175.32
439.192	7837.41
439.399	8019.67
439.606	7896.8
439.813	8281.81
440.02	8773.33
440.227	8445.65
440.433	8474.32
440.64	8795.86
440.847	8750.8
441.054	9010.89
441.261	9453.25
441.467	9604.8
441.674	9780.93
441.881	10086.08
442.088	10153.66
442.294	9932.48
442.501	10211
442.708	10591.92
442.914	10831.54
443.121	11304.62
443.328	10999.47
443.534	11697.83
443.741	11519.65
443.948	11454.12
444.154	12275.35
444.361	12267.16
444.568	12154.52
444.774	12189.34
444.981	12609.17
445.187	12719.76
445.394	13291.15
445.6	13012.62
445.807	14192.25
446.013	13762.18
446.22	14116.48
446.426	14454.39
446.633	14607.99
446.839	15122.03
447.046	14636.66
447.252	15328.88
447.459	15519.34
447.665	15210.09
447.871	16084.58
448.078	16686.68
448.284	15840.87
448.491	16295.52
448.697	16887.38
448.903	17321.55
449.11	17393.23
449.316	17458.76
449.522	17241.68
449.728	17886.79
449.935	18212.42
450.141	17940.04
450.347	18447.93
450.553	17851.97
450.76	18210.37
450.966	18632.25
451.172	18562.62
451.378	18863.67
451.584	18669.11
451.791	19064.37
451.997	19258.93
452.203	19334.7
452.409	19525.16
452.615	19224.11
452.821	18425.4
453.027	18357.82
453.233	19279.41
453.44	18617.91
453.646	18667.06
453.852	18896.44
454.058	19301.93
454.264	18533.95
454.47	19164.72
454.676	18308.67
454.882	19172.91
455.088	17573.45
455.294	17765.96
455.5	18091.59
455.705	18302.53
455.911	17458.76
456.117	17077.84
456.323	16891.48
456.529	16029.28
456.735	16404.06
456.941	16494.17
457.147	15992.42
457.352	15468.14
457.558	15513.19
457.764	15281.77
457.97	15228.52
458.176	15140.46
458.381	14694.01
458.587	13983.36
458.793	13969.02
458.999	13303.43
459.204	14182.01
459.41	13854.34
459.616	13225.61
459.821	12996.24
460.027	12922.51
460.233	12807.83
460.438	12054.17
460.644	12189.34
460.85	11609.76
461.055	11220.65
461.261	11407.02
461.466	10643.12
461.672	10342.07
461.878	11126.44
462.083	10290.87
462.289	10098.36
462.494	10096.32
462.7	9266.89
462.905	9342.66
463.111	9629.38
463.316	9879.23
463.522	9545.41
463.727	9705.15
463.932	9445.06
464.138	9490.12
464.343	9340.61
464.549	9348.81
464.754	9506.5
464.959	9195.21
465.165	9250.5
465.37	8984.27
465.575	8732.37
465.781	8918.73
465.986	9184.97
466.191	8758.99
466.397	8576.72
466.602	8199.9
466.807	8679.12
467.012	8416.98
467.218	8615.63
467.423	8425.17
467.628	8525.52
467.833	8632.02
468.038	8300.25
468.244	8283.86
468.449	8558.29
468.654	8255.19
468.859	8242.9
469.064	8226.52
