Data from USB4F104151__15__12-53-13-889.txt Node

Date: Fri Mar 14 12:53:13 EDT 2025
User: louis
Spectrometer: USB4F10415
Trigger mode: 4
Integration Time (sec): 1.000000E-2
Scans to average: 1
Electric dark correction enabled: true
Nonlinearity correction enabled: false
Boxcar width: 0
XAxis mode: Wavelengths
Number of Pixels in Spectrum: 3648
>>>>>Begin Spectral Data<<<<<
178.204	-16.04
178.424	-16.04
178.644	-16.04
178.864	-20.14
179.084	59.73
179.304	-28.33
179.524	-13.99
179.744	-3.75
179.964	29.01
180.184	39.25
180.404	-54.95
180.624	-59.05
180.844	4.44
181.064	22.87
181.283	29.01
181.503	4.44
181.723	31.06
181.943	-57
182.163	20.82
182.383	61.78
182.602	-54.95
182.822	-18.09
183.042	33.11
183.262	-67.24
183.482	22.87
183.701	22.87
183.921	6.49
184.141	35.16
184.361	49.49
184.58	-1.71
184.8	41.3
185.02	0.34
185.239	10.58
185.459	4.44
185.679	29.01
185.898	-5.8
186.118	35.16
186.338	-3.75
186.557	41.3
186.777	-46.76
186.997	-11.95
187.216	31.06
187.436	-5.8
187.655	33.11
187.875	14.68
188.095	94.55
188.314	82.26
188.534	63.83
188.753	12.63
188.973	-18.09
189.192	-5.8
189.412	0.34
189.631	26.96
189.851	26.96
190.07	-5.8
190.29	41.3
190.509	43.35
190.729	14.68
190.948	29.01
191.168	57.68
191.387	-18.09
191.607	49.49
191.826	51.54
192.045	2.39
192.265	-61.1
192.484	33.11
192.704	-1.71
192.923	-13.99
193.142	35.16
193.362	43.35
193.581	37.2
193.8	31.06
194.02	-22.19
194.239	-34.47
194.458	-34.47
194.678	53.59
194.897	-18.09
195.116	51.54
195.335	18.77
195.555	2.39
195.774	-11.95
195.993	26.96
196.212	12.63
196.432	49.49
196.651	29.01
196.87	-44.71
197.089	4.44
197.308	-22.19
197.528	98.64
197.747	76.12
197.966	14.68
198.185	-22.19
198.404	-42.67
198.623	41.3
198.842	12.63
199.062	37.2
199.281	57.68
199.5	12.63
199.719	-16.04
199.938	65.88
200.157	72.02
200.376	-16.04
200.595	-24.23
200.814	16.73
201.033	-13.99
201.252	2.39
201.471	-61.1
201.69	-13.99
201.909	-11.95
202.128	-24.23
202.347	63.83
202.566	-42.67
202.785	72.02
203.004	18.77
203.223	69.97
203.442	53.59
203.661	-61.1
203.879	-16.04
204.098	14.68
204.317	-5.8
204.536	10.58
204.755	74.07
204.974	24.92
205.193	-44.71
205.411	-3.75
205.63	16.73
205.849	61.78
206.068	-44.71
206.287	-13.99
206.505	12.63
206.724	-16.04
206.943	-46.76
207.162	-24.23
207.381	-67.24
207.599	18.77
207.818	-5.8
208.037	18.77
208.255	10.58
208.474	-16.04
208.693	4.44
208.911	-32.43
209.13	-5.8
209.349	2.39
209.567	-28.33
209.786	10.58
210.005	-22.19
210.223	76.12
210.442	-9.9
210.661	72.02
210.879	-9.9
211.098	37.2
211.316	94.55
211.535	-16.04
211.753	33.11
211.972	-32.43
212.191	37.2
212.409	0.34
212.628	18.77
212.846	43.35
213.065	-1.71
213.283	43.35
213.502	-3.75
213.72	29.01
213.938	-40.62
214.157	33.11
214.375	18.77
214.594	43.35
214.812	24.92
215.031	29.01
215.249	26.96
215.467	31.06
215.686	18.77
215.904	72.02
216.122	8.53
216.341	-16.04
216.559	74.07
216.778	59.73
216.996	55.64
217.214	-5.8
217.432	-20.14
217.651	-40.62
217.869	-24.23
218.087	16.73
218.306	10.58
218.524	-20.14
218.742	-28.33
218.96	14.68
219.179	-20.14
219.397	49.49
219.615	67.92
219.833	6.49
220.051	-18.09
220.27	-24.23
220.488	12.63
220.706	14.68
220.924	8.53
221.142	45.4
221.36	49.49
221.578	20.82
221.796	69.97
222.015	18.77
222.233	-13.99
222.451	53.59
222.669	20.82
222.887	-46.76
223.105	0.34
223.323	37.2
223.541	-16.04
223.759	4.44
223.977	-57
224.195	57.68
224.413	-54.95
224.631	86.36
224.849	24.92
225.067	49.49
225.285	-46.76
225.503	8.53
225.721	-3.75
225.939	24.92
226.157	-1.71
226.375	80.21
226.592	-5.8
226.81	-9.9
227.028	35.16
227.246	65.88
227.464	47.44
227.682	8.53
227.9	22.87
228.117	20.82
228.335	-9.9
228.553	-7.85
228.771	39.25
228.989	92.5
229.206	8.53
229.424	37.2
229.642	-24.23
229.86	31.06
230.077	72.02
230.295	92.5
230.513	90.45
230.731	-9.9
230.948	37.2
231.166	18.77
231.384	29.01
231.601	51.54
231.819	-1.71
232.037	4.44
232.254	33.11
232.472	0.34
232.689	-16.04
232.907	10.58
233.125	-65.19
233.342	22.87
233.56	39.25
233.777	80.21
233.995	-46.76
234.213	108.88
234.43	6.49
234.648	18.77
234.865	43.35
235.083	125.27
235.3	6.49
235.518	76.12
235.735	39.25
235.953	-3.75
236.17	-42.67
236.388	41.3
236.605	22.87
236.822	45.4
237.04	59.73
237.257	41.3
237.475	-30.38
237.692	4.44
237.909	-11.95
238.127	37.2
238.344	-7.85
238.562	43.35
238.779	8.53
238.996	-9.9
239.214	45.4
239.431	49.49
239.648	33.11
239.865	47.44
240.083	49.49
240.3	-32.43
240.517	-36.52
240.735	-28.33
240.952	-26.28
241.169	84.31
241.386	-1.71
241.603	61.78
241.821	10.58
242.038	18.77
242.255	18.77
242.472	20.82
242.689	14.68
242.907	22.87
243.124	4.44
243.341	31.06
243.558	-32.43
243.775	-16.04
243.992	0.34
244.209	88.4
244.426	29.01
244.643	29.01
244.86	24.92
245.078	10.58
245.295	-32.43
245.512	76.12
245.729	24.92
245.946	41.3
246.163	14.68
246.38	57.68
246.597	-34.47
246.814	31.06
247.031	22.87
247.248	-32.43
247.464	-5.8
247.681	33.11
247.898	18.77
248.115	29.01
248.332	-13.99
248.549	106.84
248.766	37.2
248.983	-1.71
249.2	37.2
249.417	18.77
249.633	0.34
249.85	20.82
250.067	-38.57
250.284	47.44
250.501	121.17
250.717	0.34
250.934	-16.04
251.151	0.34
251.368	6.49
251.585	-24.23
251.801	-9.9
252.018	41.3
252.235	-24.23
252.451	-7.85
252.668	45.4
252.885	-44.71
253.102	43.35
253.318	49.49
253.535	-32.43
253.752	31.06
253.968	49.49
254.185	22.87
254.401	-1.71
254.618	24.92
254.835	31.06
255.051	92.5
255.268	47.44
255.484	20.82
255.701	-28.33
255.917	35.16
256.134	-1.71
256.351	31.06
256.567	59.73
256.784	4.44
257	4.44
257.217	37.2
257.433	37.2
257.65	45.4
257.866	67.92
258.082	67.92
258.299	45.4
258.515	65.88
258.732	-36.52
258.948	37.2
259.165	2.39
259.381	-5.8
259.597	84.31
259.814	18.77
260.03	37.2
260.246	53.59
260.463	-1.71
260.679	43.35
260.895	53.59
261.112	10.58
261.328	10.58
261.544	-18.09
261.761	-13.99
261.977	-20.14
262.193	16.73
262.409	26.96
262.626	33.11
262.842	-26.28
263.058	74.07
263.274	-3.75
263.49	-24.23
263.707	-24.23
263.923	45.4
264.139	37.2
264.355	22.87
264.571	33.11
264.787	-50.86
265.004	2.39
265.22	45.4
265.436	-57
265.652	86.36
265.868	24.92
266.084	14.68
266.3	-5.8
266.516	-24.23
266.732	33.11
266.948	-32.43
267.164	24.92
267.38	14.68
267.596	8.53
267.812	59.73
268.028	10.58
268.244	-44.71
268.46	67.92
268.676	22.87
268.892	-30.38
269.108	8.53
269.324	37.2
269.54	-3.75
269.756	49.49
269.972	18.77
270.188	-16.04
270.403	80.21
270.619	16.73
270.835	76.12
271.051	26.96
271.267	35.16
271.483	67.92
271.698	47.44
271.914	61.78
272.13	88.4
272.346	29.01
272.562	14.68
272.777	-30.38
272.993	-73.39
273.209	74.07
273.425	51.54
273.64	51.54
273.856	0.34
274.072	76.12
274.287	51.54
274.503	-13.99
274.719	26.96
274.934	33.11
275.15	53.59
275.366	18.77
275.581	8.53
275.797	104.79
276.012	10.58
276.228	26.96
276.444	6.49
276.659	49.49
276.875	-26.28
277.09	82.26
277.306	-44.71
277.521	0.34
277.737	-36.52
277.952	2.39
278.168	10.58
278.383	16.73
278.599	57.68
278.814	18.77
279.03	-81.58
279.245	26.96
279.461	29.01
279.676	59.73
279.892	-59.05
280.107	35.16
280.322	-44.71
280.538	-5.8
280.753	26.96
280.969	37.2
281.184	37.2
281.399	26.96
281.615	-20.14
281.83	6.49
282.045	26.96
282.26	-36.52
282.476	-44.71
282.691	-13.99
282.906	8.53
283.122	72.02
283.337	26.96
283.552	80.21
283.767	51.54
283.983	39.25
284.198	84.31
284.413	14.68
284.628	-46.76
284.843	26.96
285.058	-28.33
285.274	26.96
285.489	29.01
285.704	-3.75
285.919	57.68
286.134	14.68
286.349	-1.71
286.564	43.35
286.779	57.68
286.995	63.83
287.21	-30.38
287.425	94.55
287.64	-28.33
287.855	72.02
288.07	37.2
288.285	22.87
288.5	-1.71
288.715	67.92
288.93	47.44
289.145	-16.04
289.36	18.77
289.575	39.25
289.79	6.49
290.004	-22.19
290.219	-9.9
290.434	6.49
290.649	-32.43
290.864	53.59
291.079	29.01
291.294	-30.38
291.509	-7.85
291.724	74.07
291.938	-1.71
292.153	35.16
292.368	-46.76
292.583	2.39
292.798	82.26
293.012	-7.85
293.227	29.01
293.442	-1.71
293.657	37.2
293.871	69.97
294.086	-13.99
294.301	14.68
294.516	67.92
294.73	59.73
294.945	-28.33
295.16	47.44
295.374	39.25
295.589	18.77
295.804	-20.14
296.018	-5.8
296.233	39.25
296.447	108.88
296.662	43.35
296.877	43.35
297.091	18.77
297.306	106.84
297.52	18.77
297.735	16.73
297.949	41.3
298.164	100.69
298.378	88.4
298.593	55.64
298.807	-46.76
299.022	-46.76
299.236	-24.23
299.451	6.49
299.665	33.11
299.88	6.49
300.094	-61.1
300.309	49.49
300.523	-9.9
300.737	63.83
300.952	37.2
301.166	35.16
301.381	20.82
301.595	22.87
301.809	-13.99
302.024	4.44
302.238	59.73
302.452	-5.8
302.667	-18.09
302.881	24.92
303.095	-9.9
303.309	41.3
303.524	-16.04
303.738	-11.95
303.952	29.01
304.166	8.53
304.381	24.92
304.595	51.54
304.809	24.92
305.023	0.34
305.237	57.68
305.452	49.49
305.666	10.58
305.88	4.44
306.094	45.4
306.308	8.53
306.522	-11.95
306.736	49.49
306.95	-40.62
307.164	-1.71
307.379	-7.85
307.593	49.49
307.807	-3.75
308.021	24.92
308.235	47.44
308.449	-3.75
308.663	4.44
308.877	43.35
309.091	16.73
309.305	-5.8
309.519	-22.19
309.733	24.92
309.947	-3.75
310.161	20.82
310.374	0.34
310.588	10.58
310.802	55.64
311.016	-28.33
311.23	24.92
311.444	-22.19
311.658	29.01
311.872	33.11
312.085	6.49
312.299	53.59
312.513	-20.14
312.727	-38.57
312.941	16.73
313.154	53.59
313.368	115.03
313.582	-22.19
313.796	-24.23
314.009	47.44
314.223	92.5
314.437	88.4
314.651	22.87
314.864	-13.99
315.078	14.68
315.292	16.73
315.505	-36.52
315.719	86.36
315.933	37.2
316.146	-7.85
316.36	-24.23
316.573	-9.9
316.787	-3.75
317.001	4.44
317.214	18.77
317.428	-20.14
317.641	10.58
317.855	-13.99
318.068	57.68
318.282	53.59
318.495	37.2
318.709	0.34
318.922	24.92
319.136	69.97
319.349	100.69
319.563	-5.8
319.776	-13.99
319.99	26.96
320.203	14.68
320.417	61.78
320.63	115.03
320.843	6.49
321.057	67.92
321.27	33.11
321.483	-1.71
321.697	55.64
321.91	29.01
322.124	-20.14
322.337	2.39
322.55	39.25
322.763	-11.95
322.977	53.59
323.19	29.01
323.403	-1.71
323.617	6.49
323.83	18.77
324.043	12.63
324.256	10.58
324.469	-7.85
324.683	22.87
324.896	16.73
325.109	-3.75
325.322	31.06
325.535	80.21
325.748	33.11
325.962	104.79
326.175	37.2
326.388	74.07
326.601	39.25
326.814	33.11
327.027	51.54
327.24	69.97
327.453	47.44
327.666	0.34
327.879	-28.33
328.092	78.16
328.305	88.4
328.518	-13.99
328.731	-9.9
328.944	59.73
329.157	76.12
329.37	35.16
329.583	-13.99
329.796	22.87
330.009	33.11
330.222	33.11
330.435	-7.85
330.648	20.82
330.861	10.58
331.073	72.02
331.286	43.35
331.499	18.77
331.712	-36.52
331.925	22.87
332.138	-3.75
332.35	47.44
332.563	16.73
332.776	47.44
332.989	37.2
333.202	43.35
333.414	-3.75
333.627	53.59
333.84	37.2
334.053	57.68
334.265	18.77
334.478	55.64
334.691	78.16
334.903	49.49
335.116	-42.67
335.329	37.2
335.541	6.49
335.754	41.3
335.966	-95.91
336.179	-59.05
336.392	-9.9
336.604	4.44
336.817	100.69
337.029	72.02
337.242	37.2
337.454	41.3
337.667	53.59
337.88	-30.38
338.092	18.77
338.305	35.16
338.517	65.88
338.729	-7.85
338.942	8.53
339.154	33.11
339.367	35.16
339.579	51.54
339.792	49.49
340.004	29.01
340.217	0.34
340.429	43.35
340.641	45.4
340.854	69.97
341.066	-13.99
341.278	-89.77
341.491	16.73
341.703	0.34
341.915	33.11
342.128	63.83
342.34	59.73
342.552	80.21
342.764	-20.14
342.977	45.4
343.189	35.16
343.401	2.39
343.613	18.77
343.826	4.44
344.038	20.82
344.25	55.64
344.462	35.16
344.674	-30.38
344.886	49.49
345.099	8.53
345.311	-50.86
345.523	-40.62
345.735	-9.9
345.947	33.11
346.159	16.73
346.371	24.92
346.583	51.54
346.795	90.45
347.007	18.77
347.219	115.03
347.431	8.53
347.643	76.12
347.855	53.59
348.067	26.96
348.279	-36.52
348.491	33.11
348.703	-3.75
348.915	57.68
349.127	14.68
349.339	47.44
349.551	-44.71
349.763	67.92
349.975	4.44
350.187	-1.71
350.399	33.11
350.61	100.69
350.822	59.73
351.034	4.44
351.246	18.77
351.458	-13.99
351.669	74.07
351.881	-11.95
352.093	6.49
352.305	69.97
352.517	-20.14
352.728	80.21
352.94	33.11
353.152	55.64
353.363	-52.91
353.575	8.53
353.787	49.49
353.999	35.16
354.21	31.06
354.422	33.11
354.633	-30.38
354.845	76.12
355.057	45.4
355.268	45.4
355.48	55.64
355.692	-5.8
355.903	-9.9
356.115	47.44
356.326	-13.99
356.538	110.93
356.749	29.01
356.961	43.35
357.172	16.73
357.384	31.06
357.595	86.36
357.807	43.35
358.018	37.2
358.23	-3.75
358.441	80.21
358.653	80.21
358.864	-11.95
359.075	-1.71
359.287	10.58
359.498	20.82
359.709	-18.09
359.921	-3.75
360.132	74.07
360.344	-42.67
360.555	16.73
360.766	57.68
360.977	69.97
361.189	18.77
361.4	24.92
361.611	20.82
361.823	18.77
362.034	57.68
362.245	39.25
362.456	45.4
362.667	61.78
362.879	-24.23
363.09	49.49
363.301	78.16
363.512	82.26
363.723	41.3
363.935	-61.1
364.146	69.97
364.357	-30.38
364.568	41.3
364.779	4.44
364.99	86.36
365.201	-18.09
365.412	67.92
365.623	-38.57
365.834	29.01
366.045	33.11
366.256	26.96
366.467	94.55
366.678	61.78
366.889	0.34
367.1	0.34
367.311	65.88
367.522	37.2
367.733	43.35
367.944	8.53
368.155	57.68
368.366	43.35
368.577	74.07
368.788	65.88
368.999	24.92
369.209	47.44
369.42	80.21
369.631	65.88
369.842	-57
370.053	49.49
370.264	98.64
370.474	41.3
370.685	10.58
370.896	72.02
371.107	-9.9
371.317	82.26
371.528	33.11
371.739	78.16
371.95	49.49
372.16	22.87
372.371	98.64
372.582	90.45
372.792	45.4
373.003	8.53
373.214	84.31
373.424	-18.09
373.635	43.35
373.846	61.78
374.056	45.4
374.267	51.54
374.477	41.3
374.688	-54.95
374.898	47.44
375.109	22.87
375.319	12.63
375.53	39.25
375.74	55.64
375.951	37.2
376.161	-20.14
376.372	8.53
376.582	22.87
376.793	22.87
377.003	29.01
377.214	53.59
377.424	6.49
377.635	55.64
377.845	6.49
378.055	-16.04
378.266	6.49
378.476	94.55
378.686	31.06
378.897	26.96
379.107	86.36
379.317	8.53
379.528	14.68
379.738	51.54
379.948	4.44
380.158	80.21
380.369	57.68
380.579	-57
380.789	47.44
380.999	31.06
381.21	53.59
381.42	84.31
381.63	26.96
381.84	67.92
382.05	12.63
382.261	-1.71
382.471	10.58
382.681	-30.38
382.891	65.88
383.101	55.64
383.311	-16.04
383.521	35.16
383.731	22.87
383.941	92.5
384.151	65.88
384.361	55.64
384.571	-32.43
384.781	98.64
384.991	-5.8
385.201	-7.85
385.411	45.4
385.621	63.83
385.831	18.77
386.041	84.31
386.251	57.68
386.461	63.83
386.671	72.02
386.881	10.58
387.091	110.93
387.301	76.12
387.511	45.4
387.72	59.73
387.93	47.44
388.14	57.68
388.35	43.35
388.56	108.88
388.769	72.02
388.979	-1.71
389.189	86.36
389.399	8.53
389.609	-30.38
389.818	49.49
390.028	72.02
390.238	41.3
390.447	-40.62
390.657	92.5
390.867	35.16
391.076	29.01
391.286	57.68
391.496	84.31
391.705	-3.75
391.915	39.25
392.125	47.44
392.334	33.11
392.544	-18.09
392.753	59.73
392.963	-11.95
393.172	72.02
393.382	6.49
393.591	94.55
393.801	18.77
394.01	96.6
394.22	100.69
394.429	45.4
394.639	74.07
394.848	-22.19
395.058	51.54
395.267	131.41
395.477	33.11
395.686	51.54
395.895	88.4
396.105	12.63
396.314	45.4
396.524	47.44
396.733	24.92
396.942	59.73
397.152	67.92
397.361	137.56
397.57	119.12
397.78	76.12
397.989	127.32
398.198	61.78
398.407	74.07
398.617	76.12
398.826	96.6
399.035	72.02
399.244	65.88
399.453	26.96
399.663	45.4
399.872	72.02
400.081	69.97
400.29	88.4
400.499	-22.19
400.708	72.02
400.917	43.35
401.127	37.2
401.336	110.93
401.545	131.41
401.754	2.39
401.963	129.36
402.172	63.83
402.381	41.3
402.59	39.25
402.799	61.78
403.008	78.16
403.217	92.5
403.426	24.92
403.635	112.98
403.844	106.84
404.053	49.49
404.262	76.12
404.471	125.27
404.68	96.6
404.888	155.99
405.097	102.74
405.306	131.41
405.515	84.31
405.724	67.92
405.933	76.12
406.142	84.31
406.35	170.32
406.559	115.03
406.768	98.64
406.977	139.6
407.185	153.94
407.394	123.22
407.603	170.32
407.812	112.98
408.02	90.45
408.229	151.89
408.438	186.71
408.646	135.51
408.855	178.51
409.064	110.93
409.272	205.14
409.481	221.52
409.69	137.56
409.898	133.46
410.107	270.67
410.315	174.42
410.524	225.62
410.733	162.13
410.941	178.51
411.15	180.56
411.358	225.62
411.567	225.62
411.775	248.15
411.984	164.18
412.192	215.38
412.401	231.76
412.609	254.29
412.818	307.54
413.026	280.91
413.234	344.4
413.443	264.53
413.651	233.81
413.86	264.53
414.068	287.06
414.276	463.18
414.485	418.13
414.693	313.68
414.901	428.37
415.11	411.98
415.318	391.5
415.526	418.13
415.734	467.28
415.943	459.09
416.151	520.53
416.359	473.42
416.567	504.14
416.776	467.28
416.984	577.87
417.192	557.39
417.4	639.31
417.608	522.57
417.817	545.1
418.025	645.45
418.233	629.07
418.441	606.54
418.649	663.88
418.857	747.85
419.065	717.13
419.273	696.65
419.481	768.33
419.689	848.2
419.897	778.57
420.105	858.44
420.313	870.73
420.521	874.82
420.729	960.84
420.937	997.7
421.145	987.46
421.353	991.56
421.561	1079.62
421.769	1093.96
421.977	1118.53
422.185	1081.67
422.393	1227.07
422.601	1380.67
422.809	1280.32
423.017	1186.12
423.224	1372.48
423.432	1317.19
423.64	1343.81
423.848	1446.21
424.056	1448.26
424.263	1589.57
424.471	1626.43
424.679	1630.52
424.887	1771.83
425.094	1755.45
425.302	1835.32
425.51	1741.11
425.718	1900.86
425.925	1947.96
426.133	2015.54
426.341	1978.68
426.548	2152.76
426.756	2165.04
426.964	2138.42
427.171	2423.09
427.379	2406.7
427.586	2441.52
427.794	2509.1
428.001	2611.5
428.209	2674.99
428.417	2672.94
428.624	2908.46
428.832	2951.46
429.039	2967.85
429.247	2879.79
429.454	3201.32
429.662	3373.35
429.869	3170.6
430.076	3453.22
430.284	3316
430.491	3477.79
430.699	3623.2
430.906	3604.77
431.114	3711.26
431.321	3739.93
431.528	3907.87
431.736	4165.91
431.943	4395.28
432.15	4165.91
432.358	4217.11
432.565	4518.16
432.772	4604.18
432.979	4829.45
433.187	4811.02
433.394	4794.64
433.601	5191.94
433.808	5288.2
434.016	5069.06
434.223	5357.83
434.43	5720.32
434.637	5517.57
434.844	6119.67
435.052	5871.87
435.259	5933.31
435.466	6179.06
435.673	6129.91
435.88	6398.2
436.087	6709.49
436.294	6725.87
436.501	6611.18
436.708	6637.81
436.915	6906.09
437.122	7313.64
437.329	7133.42
437.537	7356.65
437.743	7684.32
437.95	7602.4
438.157	7786.72
438.364	8249.56
438.571	8274.14
438.778	8278.23
438.985	9142.47
439.192	8620.24
439.399	9152.71
439.606	8839.37
439.813	9185.48
440.02	9773.25
440.227	9681.09
440.433	9476.29
440.64	10135.74
440.847	9943.23
441.054	10113.21
441.261	10811.57
441.467	10594.48
441.674	10719.41
441.881	11374.76
442.088	11241.64
442.294	10946.73
442.501	11655.33
442.708	11737.25
442.914	11983.01
443.121	12562.58
443.328	12273.82
443.534	13287.56
443.741	12583.06
443.948	12687.51
444.154	13629.57
444.361	13623.43
444.568	13705.35
444.774	13873.28
444.981	13922.43
445.187	14143.61
445.394	14850.16
445.6	14854.26
445.807	16048.22
446.013	15360.11
446.22	15687.78
446.426	16142.43
446.633	16494.68
446.839	17018.96
447.046	16150.62
447.252	17385.55
447.459	17029.2
447.665	17074.26
447.871	17659.98
448.078	18786.36
448.284	17868.87
448.491	18077.76
448.697	18843.7
448.903	19167.28
449.11	19372.08
449.316	18942
449.522	19515.44
449.728	19802.15
449.935	20326.43
450.141	20004.9
450.347	20527.13
450.553	19841.06
450.76	20121.63
450.966	20942.87
451.172	20308
451.378	21338.13
451.584	20762.65
451.791	21252.11
451.997	21274.64
452.203	21501.97
452.409	21565.45
452.615	21555.21
452.821	20668.44
453.027	20725.79
453.233	21696.52
453.44	20746.26
453.646	21329.94
453.852	21100.56
454.058	21579.79
454.264	21032.98
454.47	21141.52
454.676	20652.06
454.882	21381.14
455.088	19755.05
455.294	19656.75
455.5	20207.65
455.705	20140.07
455.911	19558.44
456.117	19169.33
456.323	19204.14
456.529	17991.75
456.735	18753.59
456.941	18688.06
457.147	18055.23
457.352	17440.84
457.558	17166.42
457.764	17436.75
457.97	16943.19
458.176	16631.9
458.381	16509.02
458.587	15671.4
458.793	15777.89
458.999	14952.56
459.204	15835.24
459.41	15558.76
459.616	14569.59
459.821	14551.16
460.027	14561.4
460.233	14186.62
460.438	13717.64
460.644	13584.52
460.85	13168.78
461.055	12996.75
461.261	12959.89
461.466	11985.05
461.672	11569.32
461.878	12701.84
462.083	11595.94
462.289	11495.59
462.494	11597.99
462.7	10807.47
462.905	10479.8
463.111	10879.15
463.316	11036.84
463.522	10717.36
463.727	10662.07
463.932	10690.74
464.138	10660.02
464.343	10737.84
464.549	10424.5
464.754	10647.73
464.959	10725.55
465.165	10633.4
465.37	10168.51
465.575	9885.89
465.781	10193.08
465.986	10293.43
466.191	9898.17
466.397	9658.56
466.602	9375.94
466.807	9593.03
467.012	9738.43
467.218	9533.64
467.423	9699.52
467.628	9590.98
467.833	10070.2
468.038	9554.12
468.244	9396.42
468.449	9572.55
468.654	9377.99
468.859	9421
469.064	9117.9
469.269	8939.72
