Data from USB4F104151__2__12-53-04-110.txt Node

Date: Fri Mar 14 12:53:04 EDT 2025
User: louis
Spectrometer: USB4F10415
Trigger mode: 4
Integration Time (sec): 1.000000E-2
Scans to average: 1
Electric dark correction enabled: true
Nonlinearity correction enabled: false
Boxcar width: 0
XAxis mode: Wavelengths
Number of Pixels in Spectrum: 3648
>>>>>Begin Spectral Data<<<<<
178.204	-16.9
178.424	-16.9
178.644	-16.9
178.864	17.92
179.084	9.73
179.304	-76.29
179.524	5.63
179.744	-31.23
179.964	50.69
180.184	-66.05
180.404	7.68
180.624	26.11
180.844	-0.51
181.064	7.68
181.283	73.21
181.503	1.54
181.723	1.54
181.943	-20.99
182.163	36.35
182.383	26.11
182.602	-12.8
182.822	-16.9
183.042	11.78
183.262	-6.66
183.482	17.92
183.701	73.21
183.921	26.11
184.141	40.45
184.361	65.02
184.58	50.69
184.8	34.3
185.02	22.02
185.239	-0.51
185.459	-20.99
185.679	17.92
185.898	-39.42
186.118	-6.66
186.338	-49.66
186.557	28.16
186.777	11.78
186.997	46.59
187.216	-59.9
187.436	56.83
187.655	-18.94
187.875	81.41
188.095	9.73
188.314	-23.04
188.534	81.41
188.753	42.5
188.973	-10.75
189.192	5.63
189.412	-29.18
189.631	69.12
189.851	79.36
190.07	-2.56
190.29	9.73
190.509	7.68
190.729	24.06
190.948	-14.85
191.168	22.02
191.387	46.59
191.607	-33.28
191.826	75.26
192.045	9.73
192.265	-29.18
192.484	26.11
192.704	81.41
192.923	52.74
193.142	73.21
193.362	44.54
193.581	7.68
193.8	1.54
194.02	32.26
194.239	-25.09
194.458	-10.75
194.678	-45.57
194.897	-80.38
195.116	-0.51
195.335	1.54
195.555	19.97
195.774	24.06
195.993	-2.56
196.212	9.73
196.432	13.82
196.651	-4.61
196.87	-29.18
197.089	-18.94
197.308	-0.51
197.528	-12.8
197.747	34.3
197.966	124.41
198.185	40.45
198.404	-68.09
198.623	-8.7
198.842	-25.09
199.062	-0.51
199.281	-23.04
199.5	-2.56
199.719	32.26
199.938	62.98
200.157	38.4
200.376	-37.38
200.595	1.54
200.814	44.54
201.033	-16.9
201.252	46.59
201.471	38.4
201.69	-20.99
201.909	30.21
202.128	15.87
202.347	62.98
202.566	22.02
202.785	30.21
203.004	15.87
203.223	9.73
203.442	56.83
203.661	46.59
203.879	-0.51
204.098	42.5
204.317	30.21
204.536	40.45
204.755	19.97
204.974	81.41
205.193	44.54
205.411	38.4
205.63	-16.9
205.849	56.83
206.068	50.69
206.287	13.82
206.505	67.07
206.724	44.54
206.943	77.31
207.162	-4.61
207.381	120.32
207.599	36.35
207.818	-2.56
208.037	17.92
208.255	38.4
208.474	-25.09
208.693	-2.56
208.911	-4.61
209.13	19.97
209.349	-47.62
209.567	-0.51
209.786	83.45
210.005	34.3
210.223	1.54
210.442	54.78
210.661	15.87
210.879	-70.14
211.098	7.68
211.316	19.97
211.535	93.69
211.753	48.64
211.972	50.69
212.191	-6.66
212.409	40.45
212.628	-37.38
212.846	15.87
213.065	-49.66
213.283	24.06
213.502	38.4
213.72	-20.99
213.938	-94.72
214.157	-10.75
214.375	50.69
214.594	-70.14
214.812	24.06
215.031	34.3
215.249	50.69
215.467	-23.04
215.686	32.26
215.904	-25.09
216.122	-12.8
216.341	44.54
216.559	24.06
216.778	-18.94
216.996	9.73
217.214	-12.8
217.432	-31.23
217.651	-43.52
217.869	-4.61
218.087	-16.9
218.306	11.78
218.524	120.32
218.742	-16.9
218.96	38.4
219.179	3.58
219.397	81.41
219.615	69.12
219.833	19.97
220.051	30.21
220.27	9.73
220.488	-33.28
220.706	-33.28
220.924	26.11
221.142	81.41
221.36	-4.61
221.578	36.35
221.796	30.21
222.015	-6.66
222.233	-25.09
222.451	79.36
222.669	32.26
222.887	79.36
223.105	-8.7
223.323	34.3
223.541	7.68
223.759	-25.09
223.977	-92.67
224.195	32.26
224.413	79.36
224.631	24.06
224.849	-66.05
225.067	65.02
225.285	1.54
225.503	13.82
225.721	-20.99
225.939	56.83
226.157	32.26
226.375	69.12
226.592	-10.75
226.81	24.06
227.028	58.88
227.246	-29.18
227.464	15.87
227.682	60.93
227.9	9.73
228.117	-16.9
228.335	42.5
228.553	44.54
228.771	9.73
228.989	1.54
229.206	11.78
229.424	97.79
229.642	89.6
229.86	7.68
230.077	65.02
230.295	48.64
230.513	-8.7
230.731	-68.09
230.948	13.82
231.166	32.26
231.384	-0.51
231.601	-68.09
231.819	58.88
232.037	38.4
232.254	38.4
232.472	40.45
232.689	7.68
232.907	54.78
233.125	32.26
233.342	30.21
233.56	3.58
233.777	-14.85
233.995	19.97
234.213	19.97
234.43	56.83
234.648	-0.51
234.865	69.12
235.083	44.54
235.3	58.88
235.518	5.63
235.735	-2.56
235.953	46.59
236.17	40.45
236.388	-0.51
236.605	-4.61
236.822	-6.66
237.04	22.02
237.257	42.5
237.475	-66.05
237.692	52.74
237.909	62.98
238.127	7.68
238.344	-0.51
238.562	-31.23
238.779	-59.9
238.996	-41.47
239.214	67.07
239.431	19.97
239.648	3.58
239.865	69.12
240.083	-2.56
240.3	-57.86
240.517	-12.8
240.735	38.4
240.952	56.83
241.169	48.64
241.386	93.69
241.603	22.02
241.821	28.16
242.038	40.45
242.255	-27.14
242.472	77.31
242.689	77.31
242.907	54.78
243.124	15.87
243.341	19.97
243.558	44.54
243.775	13.82
243.992	-64
244.209	-29.18
244.426	-51.71
244.643	-33.28
244.86	34.3
245.078	50.69
245.295	-49.66
245.512	44.54
245.729	-39.42
245.946	19.97
246.163	24.06
246.38	-6.66
246.597	26.11
246.814	1.54
247.031	-16.9
247.248	5.63
247.464	7.68
247.681	24.06
247.898	87.55
248.115	-33.28
248.332	46.59
248.549	65.02
248.766	34.3
248.983	85.5
249.2	-31.23
249.417	-74.24
249.633	15.87
249.85	-27.14
250.067	24.06
250.284	75.26
250.501	52.74
250.717	9.73
250.934	13.82
251.151	46.59
251.368	62.98
251.585	30.21
251.801	-0.51
252.018	60.93
252.235	13.82
252.451	52.74
252.668	54.78
252.885	3.58
253.102	17.92
253.318	-33.28
253.535	24.06
253.752	-37.38
253.968	-41.47
254.185	-4.61
254.401	-0.51
254.618	69.12
254.835	46.59
255.051	28.16
255.268	15.87
255.484	-10.75
255.701	87.55
255.917	56.83
256.134	52.74
256.351	42.5
256.567	42.5
256.784	50.69
257	11.78
257.217	22.02
257.433	19.97
257.65	-10.75
257.866	69.12
258.082	62.98
258.299	9.73
258.515	28.16
258.732	9.73
258.948	60.93
259.165	13.82
259.381	-59.9
259.597	36.35
259.814	7.68
260.03	34.3
260.246	11.78
260.463	-6.66
260.679	48.64
260.895	36.35
261.112	81.41
261.328	-33.28
261.544	40.45
261.761	85.5
261.977	38.4
262.193	-20.99
262.409	24.06
262.626	83.45
262.842	52.74
263.058	38.4
263.274	7.68
263.49	1.54
263.707	58.88
263.923	19.97
264.139	-4.61
264.355	24.06
264.571	73.21
264.787	36.35
265.004	91.65
265.22	-29.18
265.436	-6.66
265.652	17.92
265.868	15.87
266.084	69.12
266.3	-45.57
266.516	105.98
266.732	15.87
266.948	52.74
267.164	15.87
267.38	44.54
267.596	1.54
267.812	38.4
268.028	38.4
268.244	1.54
268.46	85.5
268.676	26.11
268.892	34.3
269.108	-2.56
269.324	50.69
269.54	32.26
269.756	60.93
269.972	-64
270.188	34.3
270.403	17.92
270.619	-6.66
270.835	-12.8
271.051	-29.18
271.267	93.69
271.483	91.65
271.698	79.36
271.914	30.21
272.13	-14.85
272.346	42.5
272.562	97.79
272.777	9.73
272.993	3.58
273.209	-33.28
273.425	1.54
273.64	-66.05
273.856	-20.99
274.072	73.21
274.287	50.69
274.503	26.11
274.719	-14.85
274.934	30.21
275.15	75.26
275.366	42.5
275.581	-39.42
275.797	7.68
276.012	-18.94
276.228	42.5
276.444	-0.51
276.659	1.54
276.875	85.5
277.09	-18.94
277.306	34.3
277.521	17.92
277.737	22.02
277.952	-8.7
278.168	89.6
278.383	50.69
278.599	1.54
278.814	73.21
279.03	3.58
279.245	85.5
279.461	42.5
279.676	95.74
279.892	-20.99
280.107	48.64
280.322	71.17
280.538	22.02
280.753	30.21
280.969	9.73
281.184	3.58
281.399	73.21
281.615	50.69
281.83	46.59
282.045	11.78
282.26	7.68
282.476	-0.51
282.691	36.35
282.906	19.97
283.122	62.98
283.337	1.54
283.552	-37.38
283.767	9.73
283.983	101.89
284.198	-14.85
284.413	7.68
284.628	-10.75
284.843	-16.9
285.058	60.93
285.274	40.45
285.489	15.87
285.704	1.54
285.919	22.02
286.134	46.59
286.349	28.16
286.564	-0.51
286.779	1.54
286.995	7.68
287.21	42.5
287.425	-45.57
287.64	15.87
287.855	56.83
288.07	-37.38
288.285	-8.7
288.5	5.63
288.715	-16.9
288.93	50.69
289.145	56.83
289.36	95.74
289.575	38.4
289.79	-14.85
290.004	-4.61
290.219	-4.61
290.434	9.73
290.649	34.3
290.864	32.26
291.079	13.82
291.294	-10.75
291.509	15.87
291.724	-14.85
291.938	-16.9
292.153	50.69
292.368	40.45
292.583	-8.7
292.798	46.59
293.012	42.5
293.227	5.63
293.442	91.65
293.657	97.79
293.871	40.45
294.086	-2.56
294.301	-2.56
294.516	67.07
294.73	58.88
294.945	-96.77
295.16	50.69
295.374	15.87
295.589	1.54
295.804	-47.62
296.018	54.78
296.233	56.83
296.447	-0.51
296.662	67.07
296.877	17.92
297.091	1.54
297.306	34.3
297.52	28.16
297.735	71.17
297.949	26.11
298.164	95.74
298.378	19.97
298.593	-0.51
298.807	-18.94
299.022	7.68
299.236	34.3
299.451	9.73
299.665	36.35
299.88	40.45
300.094	-16.9
300.309	40.45
300.523	-10.75
300.737	108.03
300.952	24.06
301.166	99.84
301.381	22.02
301.595	-45.57
301.809	-12.8
302.024	75.26
302.238	30.21
302.452	44.54
302.667	11.78
302.881	50.69
303.095	26.11
303.309	28.16
303.524	65.02
303.738	58.88
303.952	32.26
304.166	48.64
304.381	32.26
304.595	22.02
304.809	-49.66
305.023	-0.51
305.237	11.78
305.452	5.63
305.666	22.02
305.88	79.36
306.094	50.69
306.308	30.21
306.522	91.65
306.736	24.06
306.95	58.88
307.164	50.69
307.379	26.11
307.593	58.88
307.807	15.87
308.021	48.64
308.235	60.93
308.449	50.69
308.663	28.16
308.877	52.74
309.091	-35.33
309.305	-0.51
309.519	11.78
309.733	32.26
309.947	-76.29
310.161	40.45
310.374	24.06
310.588	-18.94
310.802	-8.7
311.016	44.54
311.23	73.21
311.444	44.54
311.658	5.63
311.872	9.73
312.085	-4.61
312.299	48.64
312.513	42.5
312.727	46.59
312.941	50.69
313.154	-37.38
313.368	42.5
313.582	-31.23
313.796	91.65
314.009	42.5
314.223	-35.33
314.437	44.54
314.651	11.78
314.864	83.45
315.078	-104.96
315.292	9.73
315.505	-33.28
315.719	-39.42
315.933	67.07
316.146	1.54
316.36	73.21
316.573	-47.62
316.787	93.69
317.001	11.78
317.214	-2.56
317.428	85.5
317.641	62.98
317.855	1.54
318.068	-16.9
318.282	-53.76
318.495	-39.42
318.709	93.69
318.922	7.68
319.136	128.51
319.349	-0.51
319.563	15.87
319.776	38.4
319.99	-59.9
320.203	1.54
320.417	34.3
320.63	105.98
320.843	19.97
321.057	46.59
321.27	17.92
321.483	26.11
321.697	-25.09
321.91	67.07
322.124	40.45
322.337	42.5
322.55	71.17
322.763	69.12
322.977	-49.66
323.19	-12.8
323.403	32.26
323.617	50.69
323.83	60.93
324.043	58.88
324.256	15.87
324.469	38.4
324.683	40.45
324.896	50.69
325.109	-14.85
325.322	-10.75
325.535	48.64
325.748	22.02
325.962	89.6
326.175	62.98
326.388	73.21
326.601	38.4
326.814	-51.71
327.027	9.73
327.24	40.45
327.453	-39.42
327.666	32.26
327.879	60.93
328.092	50.69
328.305	-16.9
328.518	28.16
328.731	48.64
328.944	44.54
329.157	52.74
329.37	50.69
329.583	17.92
329.796	19.97
330.009	71.17
330.222	-12.8
330.435	-4.61
330.648	11.78
330.861	-8.7
331.073	19.97
331.286	22.02
331.499	46.59
331.712	-6.66
331.925	46.59
332.138	-12.8
332.35	62.98
332.563	-31.23
332.776	-41.47
332.989	-6.66
333.202	58.88
333.414	-18.94
333.627	89.6
333.84	-10.75
334.053	17.92
334.265	48.64
334.478	38.4
334.691	-39.42
334.903	42.5
335.116	54.78
335.329	-27.14
335.541	46.59
335.754	79.36
335.966	-53.76
336.179	58.88
336.392	-0.51
336.604	-74.24
336.817	40.45
337.029	19.97
337.242	22.02
337.454	89.6
337.667	103.93
337.88	73.21
338.092	11.78
338.305	-35.33
338.517	26.11
338.729	38.4
338.942	-14.85
339.154	-4.61
339.367	79.36
339.579	83.45
339.792	40.45
340.004	48.64
340.217	48.64
340.429	58.88
340.641	-14.85
340.854	-51.71
341.066	-25.09
341.278	17.92
341.491	44.54
341.703	62.98
341.915	34.3
342.128	71.17
342.34	-20.99
342.552	44.54
342.764	-12.8
342.977	75.26
343.189	13.82
343.401	97.79
343.613	87.55
343.826	22.02
344.038	36.35
344.25	40.45
344.462	9.73
344.674	-23.04
344.886	44.54
345.099	17.92
345.311	19.97
345.523	36.35
345.735	101.89
345.947	42.5
346.159	40.45
346.371	48.64
346.583	28.16
346.795	60.93
347.007	-41.47
347.219	-25.09
347.431	48.64
347.643	148.99
347.855	89.6
348.067	15.87
348.279	36.35
348.491	46.59
348.703	-80.38
348.915	-59.9
349.127	69.12
349.339	56.83
349.551	-43.52
349.763	83.45
349.975	3.58
350.187	67.07
350.399	17.92
350.61	114.17
350.822	15.87
351.034	73.21
351.246	50.69
351.458	60.93
351.669	-6.66
351.881	-0.51
352.093	11.78
352.305	-55.81
352.517	67.07
352.728	50.69
352.94	-12.8
353.152	77.31
353.363	36.35
353.575	1.54
353.787	62.98
353.999	48.64
354.21	50.69
354.422	85.5
354.633	95.74
354.845	-20.99
355.057	-23.04
355.268	103.93
355.48	42.5
355.692	44.54
355.903	81.41
356.115	19.97
356.326	71.17
356.538	50.69
356.749	101.89
356.961	101.89
357.172	19.97
357.384	9.73
357.595	-4.61
357.807	58.88
358.018	19.97
358.23	7.68
358.441	34.3
358.653	69.12
358.864	54.78
359.075	-0.51
359.287	36.35
359.498	67.07
359.709	73.21
359.921	89.6
360.132	34.3
360.344	50.69
360.555	22.02
360.766	17.92
360.977	-39.42
361.189	71.17
361.4	-16.9
361.611	24.06
361.823	19.97
362.034	-20.99
362.245	52.74
362.456	69.12
362.667	38.4
362.879	105.98
363.09	91.65
363.301	75.26
363.512	40.45
363.723	26.11
363.935	-12.8
364.146	32.26
364.357	42.5
364.568	44.54
364.779	48.64
364.99	67.07
365.201	93.69
365.412	34.3
365.623	67.07
365.834	46.59
366.045	28.16
366.256	-8.7
366.467	28.16
366.678	24.06
366.889	-45.57
367.1	1.54
367.311	19.97
367.522	77.31
367.733	11.78
367.944	87.55
368.155	11.78
368.366	-8.7
368.577	48.64
368.788	67.07
368.999	50.69
369.209	48.64
369.42	-18.94
369.631	56.83
369.842	-31.23
370.053	34.3
370.264	40.45
370.474	22.02
370.685	50.69
370.896	26.11
371.107	91.65
371.317	22.02
371.528	-25.09
371.739	30.21
371.95	97.79
372.16	56.83
372.371	30.21
372.582	77.31
372.792	28.16
373.003	69.12
373.214	99.84
373.424	17.92
373.635	142.85
373.846	42.5
374.056	34.3
374.267	-23.04
374.477	75.26
374.688	-4.61
374.898	97.79
375.109	54.78
375.319	3.58
375.53	7.68
375.74	69.12
375.951	69.12
376.161	71.17
376.372	50.69
376.582	58.88
376.793	81.41
377.003	-20.99
377.214	11.78
377.424	17.92
377.635	58.88
377.845	26.11
378.055	58.88
378.266	-0.51
378.476	11.78
378.686	-20.99
378.897	105.98
379.107	26.11
379.317	-0.51
379.528	54.78
379.738	34.3
379.948	-33.28
380.158	28.16
380.369	40.45
380.579	13.82
380.789	24.06
380.999	32.26
381.21	95.74
381.42	32.26
381.63	-49.66
381.84	-4.61
382.05	79.36
382.261	-39.42
382.471	-18.94
382.681	-27.14
382.891	50.69
383.101	5.63
383.311	69.12
383.521	-18.94
383.731	-6.66
383.941	32.26
384.151	-16.9
384.361	42.5
384.571	54.78
384.781	-49.66
384.991	-0.51
385.201	91.65
385.411	120.32
385.621	32.26
385.831	1.54
386.041	7.68
386.251	77.31
386.461	81.41
386.671	83.45
386.881	103.93
387.091	54.78
387.301	36.35
387.511	36.35
387.72	38.4
387.93	-18.94
388.14	13.82
388.35	34.3
388.56	89.6
388.769	32.26
388.979	19.97
389.189	67.07
389.399	22.02
389.609	62.98
389.818	81.41
390.028	32.26
390.238	40.45
390.447	-37.38
390.657	-31.23
390.867	19.97
391.076	28.16
391.286	56.83
391.496	56.83
391.705	22.02
391.915	95.74
392.125	77.31
392.334	56.83
392.544	32.26
392.753	42.5
392.963	-6.66
393.172	-12.8
393.382	32.26
393.591	65.02
393.801	85.5
394.01	50.69
394.22	81.41
394.429	73.21
394.639	-4.61
394.848	89.6
395.058	67.07
395.267	26.11
395.477	56.83
395.686	48.64
395.895	54.78
396.105	151.04
396.314	46.59
396.524	77.31
396.733	146.94
396.942	73.21
397.152	-16.9
397.361	62.98
397.57	44.54
397.78	134.65
397.989	28.16
398.198	148.99
398.407	60.93
398.617	103.93
398.826	-0.51
399.035	130.56
399.244	62.98
399.453	11.78
399.663	38.4
399.872	44.54
400.081	9.73
400.29	120.32
400.499	36.35
400.708	148.99
400.917	69.12
401.127	60.93
401.336	110.08
401.545	58.88
401.754	138.75
401.963	87.55
402.172	50.69
402.381	73.21
402.59	99.84
402.799	60.93
403.008	155.13
403.217	103.93
403.426	28.16
403.635	89.6
403.844	58.88
404.053	181.76
404.262	124.41
404.471	89.6
404.68	132.61
404.888	54.78
405.097	122.37
405.306	93.69
405.515	97.79
405.724	50.69
405.933	138.75
406.142	194.05
406.35	116.22
406.559	73.21
406.768	95.74
406.977	165.37
407.185	124.41
407.394	108.03
407.603	126.46
407.812	142.85
408.02	105.98
408.229	179.71
408.438	224.76
408.646	198.14
408.855	202.24
409.064	134.65
409.272	120.32
409.481	183.81
409.69	204.28
409.898	118.27
410.107	239.1
410.315	265.72
410.524	200.19
410.733	263.68
410.941	179.71
411.15	241.15
411.358	335.35
411.567	271.87
411.775	212.48
411.984	323.07
412.192	296.44
412.401	323.07
412.609	349.69
412.818	380.41
413.026	376.31
413.234	341.5
413.443	298.49
413.651	402.94
413.86	380.41
414.068	359.93
414.276	452.09
414.485	396.79
414.693	421.37
414.901	476.66
415.11	466.42
415.318	437.75
415.526	474.62
415.734	531.96
415.943	538.1
416.151	488.95
416.359	536.06
416.567	548.34
416.776	652.79
416.984	552.44
417.192	708.09
417.4	699.89
417.608	638.45
417.817	706.04
418.025	687.61
418.233	783.86
418.441	771.57
418.649	765.43
418.857	957.94
419.065	843.25
419.273	882.16
419.481	951.79
419.689	1050.1
419.897	1048.05
420.105	1025.52
420.313	1056.24
420.521	1119.73
420.729	1123.82
420.937	1119.73
421.145	1228.27
421.353	1209.84
421.561	1287.66
421.769	1428.97
421.977	1359.34
422.185	1328.62
422.393	1492.46
422.601	1557.99
422.809	1471.98
423.017	1506.79
423.224	1740.26
423.432	1721.83
423.64	1695.21
423.848	1926.63
424.056	1809.89
424.263	1947.11
424.471	1902.05
424.679	2076.13
424.887	2057.7
425.094	2203.1
425.302	2131.42
425.51	2235.87
425.718	2223.58
425.925	2412
426.133	2534.87
426.341	2504.15
426.548	2680.28
426.756	2639.32
426.964	2809.3
427.171	3007.95
427.379	2934.23
427.586	3096.02
427.794	3063.25
428.001	3292.62
428.209	3392.97
428.417	3313.1
428.624	3587.53
428.832	3540.43
429.039	3634.63
429.247	3528.14
429.454	3913.16
429.662	4124.1
429.869	3868.1
430.076	4226.5
430.284	3849.67
430.491	4249.02
430.699	4408.76
430.906	4421.05
431.114	4462.01
431.321	4644.28
431.528	4715.96
431.736	5152.18
431.943	5299.63
432.15	5107.12
432.358	5154.23
432.565	5584.3
432.772	5461.42
432.979	5766.57
433.187	5825.96
433.394	5893.54
433.601	6307.23
433.808	6389.15
434.016	6335.9
434.223	6579.61
434.43	7015.83
434.637	6956.44
434.844	7304.59
435.052	7624.08
435.259	7361.94
435.466	7312.78
435.673	7509.39
435.88	7726.47
436.087	8344.96
436.294	8347.01
436.501	8066.44
436.708	8271.23
436.915	8729.98
437.122	8887.67
437.329	9151.86
437.537	9215.35
437.743	9299.31
437.95	9192.82
438.157	9874.79
438.364	10218.85
438.571	10159.46
438.778	10077.54
438.985	11068.76
439.192	10655.07
439.399	11042.14
439.606	10843.48
439.813	11519.31
440.02	12160.33
440.227	12008.78
440.433	11787.6
440.64	12324.16
440.847	11980.11
441.054	12373.32
441.261	13114.68
441.467	13014.33
441.674	13385.01
441.881	13747.5
442.088	13829.42
442.294	13665.58
442.501	14054.7
442.708	14476.58
442.914	14519.59
443.121	15404.31
443.328	15107.35
443.534	16248.07
443.741	15811.85
443.948	15510.8
444.154	16657.67
444.361	16526.6
444.568	16686.34
444.774	16909.57
444.981	17059.07
445.187	17503.48
445.394	17939.69
445.6	17771.76
445.807	19666.13
446.013	18662.63
446.22	19236.06
446.426	19809.49
446.633	20081.87
446.839	20796.61
447.046	19934.42
447.252	20956.35
447.459	21089.47
447.665	21003.46
447.871	21974.19
448.078	23030.94
448.284	21906.61
448.491	22209.71
448.697	23375
448.903	23925.91
449.11	23725.21
449.316	23245.98
449.522	23825.56
449.728	24290.45
449.935	24609.93
450.141	24374.41
450.347	25121.92
450.553	24190.09
450.76	24814.73
450.966	25611.39
451.172	25330.81
451.378	25904.24
451.584	25459.84
451.791	26141.81
451.997	25957.49
452.203	26338.41
452.409	26451.05
452.615	26229.87
452.821	25320.57
453.027	25062.53
453.233	26317.93
453.44	25476.22
453.646	25646.2
453.852	25316.48
454.058	26063.99
454.264	25312.38
454.47	25894
454.676	25302.14
454.882	26027.12
455.088	23964.82
455.294	24206.48
455.5	24853.64
455.705	24962.18
455.911	23882.9
456.117	23415.96
456.323	23041.18
456.529	21966
456.735	22748.32
456.941	22467.75
457.147	21867.7
457.352	21142.72
457.558	21062.85
457.764	21107.9
457.97	20901.06
458.176	20206.8
458.381	20399.3
458.587	19596.5
458.793	19332.31
458.999	18267.37
459.204	19528.92
459.41	19045.6
459.616	17761.52
459.821	17796.34
460.027	17782
460.233	17468.66
460.438	16721.15
460.644	16956.67
460.85	15777.04
461.055	16008.46
461.261	15719.7
461.466	14607.65
461.672	14206.25
461.878	15250.71
462.083	14486.82
462.289	14136.62
462.494	13595.95
462.7	13096.25
462.905	12733.76
463.111	13260.09
463.316	13493.55
463.522	12975.42
463.727	13043
463.932	13311.28
464.138	13153.59
464.343	13172.02
464.549	12655.93
464.754	12901.69
464.959	13012.28
465.165	12967.23
465.37	12305.73
465.575	12049.74
465.781	12461.38
465.986	12684.61
466.191	12141.89
466.397	12088.65
466.602	11421.01
466.807	11949.39
467.012	11908.43
467.218	11863.37
467.423	11711.82
467.628	11799.88
467.833	12244.29
468.038	11889.99
468.244	11347.28
468.449	11896.14
468.654	11447.63
468.859	11554.13
