Data from USB4F104151__58__12-54-05-623.txt Node

Date: Fri Mar 14 12:54:05 EDT 2025
User: louis
Spectrometer: USB4F10415
Trigger mode: 4
Integration Time (sec): 1.000000E-2
Scans to average: 1
Electric dark correction enabled: true
Nonlinearity correction enabled: false
Boxcar width: 0
XAxis mode: Wavelengths
Number of Pixels in Spectrum: 3648
>>>>>Begin Spectral Data<<<<<
178.204	27.14
178.424	27.14
178.644	27.14
178.864	-67.07
179.084	-60.93
179.304	-22.02
179.524	35.33
179.744	-3.58
179.964	-19.97
180.184	-83.45
180.404	23.04
180.624	53.76
180.844	33.28
181.064	-89.6
181.283	-13.82
181.503	61.95
181.723	25.09
181.943	23.04
182.163	0.51
182.383	76.29
182.602	84.48
182.822	27.14
183.042	45.57
183.262	2.56
183.482	29.18
183.701	-38.4
183.921	33.28
184.141	-24.06
184.361	16.9
184.58	49.66
184.8	55.81
185.02	16.9
185.239	6.66
185.459	6.66
185.679	-60.93
185.898	27.14
186.118	8.7
186.338	-5.63
186.557	84.48
186.777	-46.59
186.997	64
187.216	20.99
187.436	86.53
187.655	14.85
187.875	4.61
188.095	-50.69
188.314	111.1
188.534	31.23
188.753	49.66
188.973	-5.63
189.192	6.66
189.412	78.33
189.631	18.94
189.851	27.14
190.07	57.86
190.29	-7.68
190.509	2.56
190.729	47.62
190.948	0.51
191.168	45.57
191.387	66.05
191.607	8.7
191.826	10.75
192.045	-24.06
192.265	-1.54
192.484	66.05
192.704	-11.78
192.923	-11.78
193.142	4.61
193.362	72.19
193.581	33.28
193.8	27.14
194.02	94.72
194.239	-28.16
194.458	6.66
194.678	41.47
194.897	80.38
195.116	4.61
195.335	41.47
195.555	23.04
195.774	88.57
195.993	-28.16
196.212	-3.58
196.432	8.7
196.651	-11.78
196.87	-15.87
197.089	45.57
197.308	10.75
197.528	76.29
197.747	-44.54
197.966	4.61
198.185	90.62
198.404	39.42
198.623	27.14
198.842	-5.63
199.062	39.42
199.281	37.38
199.5	-22.02
199.719	33.28
199.938	-3.58
200.157	94.72
200.376	-17.92
200.595	74.24
200.814	20.99
201.033	-56.83
201.252	-56.83
201.471	55.81
201.69	-28.16
201.909	18.94
202.128	8.7
202.347	-3.58
202.566	16.9
202.785	25.09
203.004	31.23
203.223	20.99
203.442	104.96
203.661	57.86
203.879	-40.45
204.098	31.23
204.317	14.85
204.536	4.61
204.755	47.62
204.974	-24.06
205.193	37.38
205.411	-7.68
205.63	18.94
205.849	-13.82
206.068	76.29
206.287	0.51
206.505	64
206.724	43.52
206.943	47.62
207.162	29.18
207.381	33.28
207.599	12.8
207.818	35.33
208.037	-15.87
208.255	-48.64
208.474	4.61
208.693	25.09
208.911	-11.78
209.13	-7.68
209.349	-42.5
209.567	45.57
209.786	78.33
210.005	25.09
210.223	53.76
210.442	-28.16
210.661	-9.73
210.879	82.43
211.098	37.38
211.316	47.62
211.535	25.09
211.753	-24.06
211.972	41.47
212.191	-7.68
212.409	-9.73
212.628	-13.82
212.846	45.57
213.065	37.38
213.283	80.38
213.502	8.7
213.72	25.09
213.938	27.14
214.157	35.33
214.375	59.9
214.594	39.42
214.812	29.18
215.031	8.7
215.249	-17.92
215.467	-22.02
215.686	16.9
215.904	86.53
216.122	14.85
216.341	88.57
216.559	41.47
216.778	39.42
216.996	10.75
217.214	18.94
217.432	41.47
217.651	66.05
217.869	39.42
218.087	29.18
218.306	-32.26
218.524	27.14
218.742	-1.54
218.96	25.09
219.179	-11.78
219.397	57.86
219.615	10.75
219.833	33.28
220.051	64
220.27	8.7
220.488	27.14
220.706	53.76
220.924	8.7
221.142	37.38
221.36	76.29
221.578	-38.4
221.796	23.04
222.015	23.04
222.233	-46.59
222.451	55.81
222.669	2.56
222.887	-17.92
223.105	74.24
223.323	37.38
223.541	31.23
223.759	29.18
223.977	-7.68
224.195	55.81
224.413	-1.54
224.631	45.57
224.849	4.61
225.067	107.01
225.285	68.09
225.503	66.05
225.721	8.7
225.939	35.33
226.157	61.95
226.375	-5.63
226.592	64
226.81	-3.58
227.028	8.7
227.246	27.14
227.464	51.71
227.682	-46.59
227.9	33.28
228.117	-26.11
228.335	-28.16
228.553	8.7
228.771	29.18
228.989	70.14
229.206	96.77
229.424	8.7
229.642	-58.88
229.86	45.57
230.077	123.39
230.295	-26.11
230.513	59.9
230.731	0.51
230.948	33.28
231.166	16.9
231.384	-19.97
231.601	-34.3
231.819	68.09
232.037	64
232.254	45.57
232.472	59.9
232.689	8.7
232.907	-1.54
233.125	10.75
233.342	16.9
233.56	-65.02
233.777	-3.58
233.995	76.29
234.213	-24.06
234.43	74.24
234.648	-28.16
234.865	14.85
235.083	43.52
235.3	35.33
235.518	70.14
235.735	12.8
235.953	-44.54
236.17	-42.5
236.388	78.33
236.605	4.61
236.822	25.09
237.04	41.47
237.257	80.38
237.475	35.33
237.692	74.24
237.909	39.42
238.127	0.51
238.344	10.75
238.562	31.23
238.779	10.75
238.996	16.9
239.214	-1.54
239.431	18.94
239.648	-3.58
239.865	-5.63
240.083	82.43
240.3	18.94
240.517	74.24
240.735	0.51
240.952	61.95
241.169	20.99
241.386	61.95
241.603	-17.92
241.821	16.9
242.038	25.09
242.255	14.85
242.472	59.9
242.689	-34.3
242.907	76.29
243.124	-15.87
243.341	25.09
243.558	-13.82
243.775	41.47
243.992	53.76
244.209	-19.97
244.426	-17.92
244.643	29.18
244.86	-56.83
245.078	47.62
245.295	-40.45
245.512	64
245.729	-54.78
245.946	2.56
246.163	25.09
246.38	66.05
246.597	-9.73
246.814	68.09
247.031	-34.3
247.248	23.04
247.464	59.9
247.681	-34.3
247.898	31.23
248.115	49.66
248.332	8.7
248.549	113.15
248.766	76.29
248.983	-9.73
249.2	-58.88
249.417	4.61
249.633	-28.16
249.85	6.66
250.067	4.61
250.284	-69.12
250.501	-5.63
250.717	82.43
250.934	20.99
251.151	41.47
251.368	-28.16
251.585	66.05
251.801	33.28
252.018	29.18
252.235	33.28
252.451	-5.63
252.668	4.61
252.885	10.75
253.102	-13.82
253.318	33.28
253.535	-71.17
253.752	53.76
253.968	31.23
254.185	39.42
254.401	41.47
254.618	14.85
254.835	12.8
255.051	41.47
255.268	29.18
255.484	86.53
255.701	-65.02
255.917	35.33
256.134	-11.78
256.351	29.18
256.567	18.94
256.784	-28.16
257	57.86
257.217	64
257.433	2.56
257.65	-5.63
257.866	23.04
258.082	96.77
258.299	70.14
258.515	76.29
258.732	20.99
258.948	-1.54
259.165	-5.63
259.381	35.33
259.597	14.85
259.814	68.09
260.03	49.66
260.246	16.9
260.463	59.9
260.679	-11.78
260.895	14.85
261.112	61.95
261.328	39.42
261.544	-22.02
261.761	23.04
261.977	45.57
262.193	-5.63
262.409	59.9
262.626	-3.58
262.842	70.14
263.058	4.61
263.274	88.57
263.49	25.09
263.707	121.34
263.923	47.62
264.139	39.42
264.355	43.52
264.571	68.09
264.787	53.76
265.004	45.57
265.22	37.38
265.436	31.23
265.652	-11.78
265.868	115.2
266.084	-48.64
266.3	14.85
266.516	25.09
266.732	27.14
266.948	66.05
267.164	45.57
267.38	31.23
267.596	-19.97
267.812	45.57
268.028	29.18
268.244	-1.54
268.46	14.85
268.676	2.56
268.892	4.61
269.108	68.09
269.324	-11.78
269.54	-34.3
269.756	61.95
269.972	-24.06
270.188	16.9
270.403	29.18
270.619	88.57
270.835	-65.02
271.051	45.57
271.267	41.47
271.483	16.9
271.698	-38.4
271.914	37.38
272.13	-13.82
272.346	68.09
272.562	29.18
272.777	55.81
272.993	23.04
273.209	-26.11
273.425	20.99
273.64	14.85
273.856	-7.68
274.072	4.61
274.287	18.94
274.503	25.09
274.719	-13.82
274.934	45.57
275.15	18.94
275.366	-28.16
275.581	25.09
275.797	72.19
276.012	43.52
276.228	117.25
276.444	0.51
276.659	123.39
276.875	25.09
277.09	57.86
277.306	39.42
277.521	70.14
277.737	88.57
277.952	-46.59
278.168	74.24
278.383	53.76
278.599	20.99
278.814	18.94
279.03	39.42
279.245	35.33
279.461	-38.4
279.676	64
279.892	-46.59
280.107	-67.07
280.322	74.24
280.538	25.09
280.753	45.57
280.969	-60.93
281.184	-24.06
281.399	96.77
281.615	23.04
281.83	64
282.045	-11.78
282.26	14.85
282.476	61.95
282.691	-24.06
282.906	-1.54
283.122	82.43
283.337	35.33
283.552	27.14
283.767	20.99
283.983	92.67
284.198	-50.69
284.413	-5.63
284.628	-65.02
284.843	61.95
285.058	49.66
285.274	61.95
285.489	47.62
285.704	37.38
285.919	-5.63
286.134	37.38
286.349	96.77
286.564	-30.21
286.779	12.8
286.995	8.7
287.21	29.18
287.425	49.66
287.64	-54.78
287.855	57.86
288.07	74.24
288.285	61.95
288.5	68.09
288.715	51.71
288.93	12.8
289.145	37.38
289.36	70.14
289.575	6.66
289.79	18.94
290.004	72.19
290.219	6.66
290.434	39.42
290.649	41.47
290.864	102.91
291.079	-28.16
291.294	20.99
291.509	16.9
291.724	-19.97
291.938	-50.69
292.153	6.66
292.368	18.94
292.583	14.85
292.798	25.09
293.012	74.24
293.227	96.77
293.442	78.33
293.657	20.99
293.871	86.53
294.086	-11.78
294.301	33.28
294.516	-13.82
294.73	-26.11
294.945	-9.73
295.16	-73.21
295.374	80.38
295.589	53.76
295.804	2.56
296.018	-22.02
296.233	-42.5
296.447	25.09
296.662	25.09
296.877	14.85
297.091	61.95
297.306	12.8
297.52	72.19
297.735	51.71
297.949	-24.06
298.164	8.7
298.378	6.66
298.593	37.38
298.807	0.51
299.022	20.99
299.236	96.77
299.451	-34.3
299.665	31.23
299.88	6.66
300.094	20.99
300.309	57.86
300.523	16.9
300.737	-28.16
300.952	66.05
301.166	-7.68
301.381	-19.97
301.595	-11.78
301.809	10.75
302.024	-11.78
302.238	39.42
302.452	-19.97
302.667	55.81
302.881	74.24
303.095	76.29
303.309	109.05
303.524	-34.3
303.738	20.99
303.952	-17.92
304.166	4.61
304.381	-28.16
304.595	74.24
304.809	-9.73
305.023	55.81
305.237	53.76
305.452	37.38
305.666	4.61
305.88	25.09
306.094	86.53
306.308	37.38
306.522	-5.63
306.736	55.81
306.95	20.99
307.164	12.8
307.379	59.9
307.593	16.9
307.807	23.04
308.021	59.9
308.235	20.99
308.449	8.7
308.663	66.05
308.877	88.57
309.091	66.05
309.305	23.04
309.519	10.75
309.733	45.57
309.947	2.56
310.161	16.9
310.374	43.52
310.588	12.8
310.802	-9.73
311.016	104.96
311.23	-1.54
311.444	86.53
311.658	29.18
311.872	-5.63
312.085	53.76
312.299	4.61
312.513	64
312.727	-11.78
312.941	14.85
313.154	14.85
313.368	35.33
313.582	-13.82
313.796	20.99
314.009	49.66
314.223	55.81
314.437	37.38
314.651	8.7
314.864	31.23
315.078	-7.68
315.292	29.18
315.505	37.38
315.719	76.29
315.933	80.38
316.146	102.91
316.36	-26.11
316.573	35.33
316.787	-5.63
317.001	64
317.214	0.51
317.428	8.7
317.641	66.05
317.855	39.42
318.068	45.57
318.282	70.14
318.495	96.77
318.709	68.09
318.922	-54.78
319.136	78.33
319.349	12.8
319.563	41.47
319.776	39.42
319.99	2.56
320.203	45.57
320.417	14.85
320.63	-65.02
320.843	78.33
321.057	45.57
321.27	10.75
321.483	39.42
321.697	37.38
321.91	14.85
322.124	57.86
322.337	61.95
322.55	76.29
322.763	57.86
322.977	-24.06
323.19	-22.02
323.403	23.04
323.617	-75.26
323.83	20.99
324.043	84.48
324.256	0.51
324.469	23.04
324.683	-19.97
324.896	147.97
325.109	88.57
325.322	68.09
325.535	-9.73
325.748	8.7
325.962	100.86
326.175	6.66
326.388	29.18
326.601	-36.35
326.814	107.01
327.027	51.71
327.24	61.95
327.453	-15.87
327.666	47.62
327.879	82.43
328.092	33.28
328.305	-75.26
328.518	0.51
328.731	94.72
328.944	-1.54
329.157	-11.78
329.37	53.76
329.583	-36.35
329.796	23.04
330.009	-17.92
330.222	43.52
330.435	10.75
330.648	27.14
330.861	10.75
331.073	82.43
331.286	31.23
331.499	88.57
331.712	20.99
331.925	18.94
332.138	-19.97
332.35	70.14
332.563	16.9
332.776	37.38
332.989	-3.58
333.202	31.23
333.414	12.8
333.627	53.76
333.84	6.66
334.053	55.81
334.265	14.85
334.478	0.51
334.691	8.7
334.903	39.42
335.116	39.42
335.329	47.62
335.541	-40.45
335.754	80.38
335.966	-24.06
336.179	59.9
336.392	6.66
336.604	-40.45
336.817	59.9
337.029	64
337.242	-40.45
337.454	-1.54
337.667	-3.58
337.88	47.62
338.092	74.24
338.305	16.9
338.517	4.61
338.729	53.76
338.942	-13.82
339.154	43.52
339.367	111.1
339.579	66.05
339.792	43.52
340.004	25.09
340.217	-52.74
340.429	-19.97
340.641	-15.87
340.854	35.33
341.066	8.7
341.278	61.95
341.491	37.38
341.703	37.38
341.915	59.9
342.128	10.75
342.34	49.66
342.552	31.23
342.764	0.51
342.977	41.47
343.189	-19.97
343.401	82.43
343.613	12.8
343.826	12.8
344.038	61.95
344.25	82.43
344.462	-11.78
344.674	18.94
344.886	74.24
345.099	107.01
345.311	18.94
345.523	68.09
345.735	29.18
345.947	25.09
346.159	-24.06
346.371	16.9
346.583	-9.73
346.795	74.24
347.007	10.75
347.219	64
347.431	8.7
347.643	61.95
347.855	4.61
348.067	23.04
348.279	39.42
348.491	45.57
348.703	41.47
348.915	61.95
349.127	-3.58
349.339	-9.73
349.551	-60.93
349.763	23.04
349.975	41.47
350.187	18.94
350.399	-26.11
350.61	-15.87
350.822	29.18
351.034	31.23
351.246	2.56
351.458	-26.11
351.669	47.62
351.881	100.86
352.093	43.52
352.305	84.48
352.517	33.28
352.728	31.23
352.94	41.47
353.152	41.47
353.363	-15.87
353.575	47.62
353.787	-44.54
353.999	70.14
354.21	10.75
354.422	78.33
354.633	51.71
354.845	100.86
355.057	45.57
355.268	23.04
355.48	4.61
355.692	-3.58
355.903	31.23
356.115	111.1
356.326	41.47
356.538	64
356.749	70.14
356.961	12.8
357.172	-65.02
357.384	47.62
357.595	59.9
357.807	96.77
358.018	2.56
358.23	53.76
358.441	4.61
358.653	10.75
358.864	86.53
359.075	16.9
359.287	47.62
359.498	86.53
359.709	-19.97
359.921	8.7
360.132	18.94
360.344	53.76
360.555	-17.92
360.766	57.86
360.977	82.43
361.189	70.14
361.4	66.05
361.611	-22.02
361.823	57.86
362.034	-15.87
362.245	10.75
362.456	37.38
362.667	45.57
362.879	37.38
363.09	-50.69
363.301	23.04
363.512	66.05
363.723	4.61
363.935	47.62
364.146	72.19
364.357	68.09
364.568	-5.63
364.779	23.04
364.99	18.94
365.201	-42.5
365.412	8.7
365.623	-5.63
365.834	107.01
366.045	121.34
366.256	-46.59
366.467	31.23
366.678	92.67
366.889	-34.3
367.1	-17.92
367.311	74.24
367.522	20.99
367.733	47.62
367.944	66.05
368.155	4.61
368.366	29.18
368.577	10.75
368.788	41.47
368.999	123.39
369.209	20.99
369.42	-54.78
369.631	82.43
369.842	49.66
370.053	90.62
370.264	31.23
370.474	-28.16
370.685	20.99
370.896	45.57
371.107	6.66
371.317	49.66
371.528	25.09
371.739	51.71
371.95	-1.54
372.16	-22.02
372.371	0.51
372.582	-15.87
372.792	41.47
373.003	-5.63
373.214	47.62
373.424	47.62
373.635	45.57
373.846	51.71
374.056	10.75
374.267	8.7
374.477	10.75
374.688	41.47
374.898	16.9
375.109	-30.21
375.319	33.28
375.53	59.9
375.74	35.33
375.951	41.47
376.161	14.85
376.372	-9.73
376.582	64
376.793	59.9
377.003	14.85
377.214	4.61
377.424	29.18
377.635	47.62
377.845	39.42
378.055	4.61
378.266	33.28
378.476	20.99
378.686	47.62
378.897	-5.63
379.107	98.81
379.317	45.57
379.528	2.56
379.738	94.72
379.948	29.18
380.158	-9.73
380.369	57.86
380.579	16.9
380.789	20.99
380.999	45.57
381.21	-13.82
381.42	-11.78
381.63	10.75
381.84	0.51
382.05	14.85
382.261	57.86
382.471	8.7
382.681	-28.16
382.891	152.06
383.101	98.81
383.311	45.57
383.521	4.61
383.731	72.19
383.941	59.9
384.151	20.99
384.361	-17.92
384.571	27.14
384.781	84.48
384.991	37.38
385.201	113.15
385.411	-5.63
385.621	68.09
385.831	47.62
386.041	4.61
386.251	10.75
386.461	41.47
386.671	64
386.881	57.86
387.091	64
387.301	0.51
387.511	29.18
387.72	25.09
387.93	43.52
388.14	37.38
388.35	84.48
388.56	23.04
388.769	72.19
388.979	94.72
389.189	16.9
389.399	45.57
389.609	31.23
389.818	-15.87
390.028	121.34
390.238	74.24
390.447	45.57
390.657	76.29
390.867	68.09
391.076	37.38
391.286	-11.78
391.496	43.52
391.705	57.86
391.915	57.86
392.125	51.71
392.334	59.9
392.544	-28.16
392.753	61.95
392.963	8.7
393.172	-1.54
393.382	-22.02
393.591	16.9
393.801	20.99
394.01	45.57
394.22	61.95
394.429	78.33
394.639	57.86
394.848	84.48
395.058	70.14
395.267	76.29
395.477	0.51
395.686	125.44
395.895	39.42
396.105	64
396.314	25.09
396.524	66.05
396.733	49.66
396.942	107.01
397.152	90.62
397.361	49.66
397.57	64
397.78	31.23
397.989	49.66
398.198	55.81
398.407	2.56
398.617	78.33
398.826	25.09
399.035	72.19
399.244	59.9
399.453	162.3
399.663	47.62
399.872	70.14
400.081	33.28
400.29	121.34
400.499	70.14
400.708	125.44
400.917	70.14
401.127	29.18
401.336	39.42
401.545	123.39
401.754	88.57
401.963	94.72
402.172	76.29
402.381	-9.73
402.59	57.86
402.799	104.96
403.008	86.53
403.217	59.9
403.426	96.77
403.635	141.82
403.844	90.62
404.053	78.33
404.262	94.72
404.471	145.92
404.68	68.09
404.888	76.29
405.097	137.73
405.306	96.77
405.515	86.53
405.724	78.33
405.933	119.29
406.142	35.33
406.35	88.57
406.559	127.49
406.768	119.29
406.977	137.73
407.185	121.34
407.394	162.3
407.603	53.76
407.812	100.86
408.02	168.45
408.229	139.77
408.438	227.84
408.646	102.91
408.855	152.06
409.064	156.16
409.272	121.34
409.481	272.89
409.69	201.21
409.898	231.93
410.107	207.36
410.315	190.97
410.524	182.78
410.733	172.54
410.941	166.4
411.15	279.04
411.358	238.08
411.567	307.71
411.775	313.85
411.984	215.55
412.192	219.64
412.401	336.38
412.609	287.23
412.818	393.72
413.026	342.52
413.234	287.23
413.443	301.56
413.651	348.67
413.86	305.66
414.068	367.1
414.276	373.24
414.485	383.48
414.693	434.68
414.901	373.24
415.11	455.16
415.318	446.97
415.526	514.55
415.734	438.78
415.943	543.22
416.151	569.85
416.359	426.49
416.567	543.22
416.776	563.7
416.984	627.19
417.192	670.2
417.4	655.86
417.608	623.09
417.817	604.66
418.025	696.82
418.233	674.29
418.441	793.08
418.649	723.44
418.857	866.8
419.065	856.56
419.273	827.89
419.481	856.56
419.689	915.95
419.897	911.86
420.105	932.34
420.313	907.76
420.521	993.78
420.729	1061.36
420.937	971.25
421.145	1143.28
421.353	1151.47
421.561	1176.05
421.769	1235.44
421.977	1307.12
422.185	1266.16
422.393	1368.56
422.601	1417.71
422.809	1499.63
423.017	1479.15
423.224	1532.39
423.432	1571.3
423.64	1559.02
423.848	1749.48
424.056	1741.29
424.263	1815.01
424.471	1884.64
424.679	1827.3
424.887	1968.61
425.094	1901.03
425.302	1898.98
425.51	2136.54
425.718	2210.27
425.925	2204.13
426.133	2234.85
426.341	2310.62
426.548	2472.41
426.756	2503.13
426.964	2490.84
427.171	2611.67
427.379	2718.17
427.586	2822.61
427.794	2812.37
428.001	3041.75
428.209	3156.43
428.417	2986.45
428.624	3301.84
428.832	3158.48
429.039	3125.71
429.247	3387.85
429.454	3584.46
429.662	3801.54
429.869	3473.87
430.076	3693
430.284	3617.22
430.491	3774.92
430.699	4227.52
430.906	4110.79
431.114	4161.98
431.321	4180.42
431.528	4428.22
431.736	4731.32
431.943	4921.78
432.15	4704.7
432.358	4835.77
432.565	5128.63
432.772	5163.44
432.979	5267.89
433.187	5499.31
433.394	5403.05
433.601	5931.43
433.808	5886.37
434.016	5753.26
434.223	6103.46
434.43	6304.16
434.637	6218.15
434.844	6711.71
435.052	7002.52
435.259	6898.07
435.466	6810.01
435.673	6842.78
435.88	7217.55
436.087	7567.76
436.294	7614.86
436.501	7317.9
436.708	7682.44
436.915	7727.5
437.122	8200.58
437.329	8120.71
437.537	8319.36
437.743	8653.18
437.95	8542.59
438.157	8927.61
438.364	9415.02
438.571	9236.85
438.778	9179.51
438.985	10039.65
439.192	9785.71
439.399	10113.38
439.606	9806.19
439.813	10465.63
440.02	11118.93
440.227	10658.14
440.433	10830.17
440.64	11127.13
440.847	10989.91
441.054	11254.1
441.261	11888.97
441.467	11891.02
441.674	12163.4
441.881	12597.57
442.088	12480.83
442.294	12384.58
442.501	12831.04
442.708	13027.64
442.914	13357.36
443.121	14299.43
443.328	13750.57
443.534	14727.46
443.741	14342.44
443.948	14043.43
444.154	15139.1
444.361	14987.55
444.568	15042.84
444.774	15063.32
444.981	15274.26
445.187	15698.19
445.394	16326.92
445.6	16140.55
445.807	17692.91
446.013	17002.75
446.22	17355
446.426	18030.83
446.633	18178.28
446.839	18919.65
447.046	17991.92
447.252	18974.94
447.459	19382.49
447.665	18966.75
447.871	19830.99
448.078	20828.35
448.284	19927.25
448.491	20183.24
448.697	20891.84
448.903	21379.26
449.11	21559.48
449.316	21309.63
449.522	21475.51
449.728	22044.85
449.935	22327.47
450.141	22194.35
450.347	22522.02
450.553	22184.11
450.76	22337.71
450.966	23263.39
451.172	22675.62
451.378	23333.02
451.584	23154.85
451.791	23648.41
451.997	23584.92
452.203	24047.76
452.409	24252.56
452.615	23715.99
452.821	22800.55
453.027	22902.95
453.233	23822.48
453.44	23249.05
453.646	23285.92
453.852	23435.42
454.058	23576.73
454.264	22978.72
454.47	23949.46
454.676	23120.03
454.882	24080.53
455.088	21764.28
455.294	22198.45
455.5	22251.69
455.705	22534.31
455.911	22003.89
456.117	21301.43
456.323	21123.26
456.529	19978.45
456.735	20920.51
456.941	20277.45
457.147	19933.39
457.352	19273.95
457.558	19228.89
457.764	19294.43
457.97	19075.29
458.176	18551.01
458.381	18233.58
458.587	17600.76
458.793	17701.11
458.999	16894.21
459.204	17936.62
459.41	17359.1
459.616	16259.34
459.821	16259.34
460.027	16242.95
460.233	15905.04
460.438	15137.05
460.644	15397.14
460.85	14543.14
461.055	14584.1
461.261	14424.36
461.466	13267.25
461.672	13127.99
461.878	13967.66
462.083	12818.75
462.289	12677.44
462.494	12722.49
462.7	12247.37
462.905	11815.24
463.111	12220.74
463.316	12237.13
463.522	12050.76
463.727	11979.08
463.932	11925.83
464.138	12136.77
464.343	11880.78
464.549	11678.03
464.754	11878.73
464.959	12056.9
465.165	11899.21
465.37	11383.12
465.575	11051.35
465.781	11583.82
465.986	11702.61
466.191	11153.75
466.397	10951
466.602	10467.68
466.807	10701.15
467.012	10998.1
467.218	10963.29
467.423	10486.11
467.628	10647.9
467.833	11309.4
468.038	10629.47
468.244	10563.93
468.449	10735.96
468.654	10574.17
468.859	10602.85
469.064	10357.09
469.269	10129.77
