Data from USB4F104151__66__12-54-13-202.txt Node

Date: Fri Mar 14 12:54:13 EDT 2025
User: louis
Spectrometer: USB4F10415
Trigger mode: 4
Integration Time (sec): 1.000000E-2
Scans to average: 1
Electric dark correction enabled: true
Nonlinearity correction enabled: false
Boxcar width: 0
XAxis mode: Wavelengths
Number of Pixels in Spectrum: 3648
>>>>>Begin Spectral Data<<<<<
178.204	-1.54
178.424	-1.54
178.644	-1.54
178.864	-91.65
179.084	-69.12
179.304	-69.12
179.524	18.94
179.744	2.56
179.964	121.34
180.184	-62.98
180.404	-28.16
180.624	-1.54
180.844	-13.82
181.064	-44.54
181.283	25.09
181.503	53.76
181.723	-1.54
181.943	-85.5
182.163	-38.4
182.383	16.9
182.602	-5.63
182.822	12.8
183.042	-36.35
183.262	2.56
183.482	-50.69
183.701	-38.4
183.921	-52.74
184.141	51.71
184.361	-11.78
184.58	-22.02
184.8	-54.78
185.02	-17.92
185.239	25.09
185.459	12.8
185.679	-17.92
185.898	57.86
186.118	27.14
186.338	-13.82
186.557	-15.87
186.777	80.38
186.997	20.99
187.216	16.9
187.436	-1.54
187.655	-19.97
187.875	59.9
188.095	-19.97
188.314	-5.63
188.534	2.56
188.753	-5.63
188.973	-24.06
189.192	0.51
189.412	-60.93
189.631	-1.54
189.851	-7.68
190.07	-22.02
190.29	-46.59
190.509	-22.02
190.729	-52.74
190.948	23.04
191.168	-54.78
191.387	57.86
191.607	12.8
191.826	64
192.045	10.75
192.265	-3.58
192.484	66.05
192.704	-17.92
192.923	12.8
193.142	23.04
193.362	45.57
193.581	10.75
193.8	-69.12
194.02	2.56
194.239	-46.59
194.458	-3.58
194.678	2.56
194.897	-73.21
195.116	-13.82
195.335	25.09
195.555	-5.63
195.774	14.85
195.993	-44.54
196.212	-50.69
196.432	-5.63
196.651	-17.92
196.87	27.14
197.089	39.42
197.308	-1.54
197.528	4.61
197.747	4.61
197.966	-50.69
198.185	31.23
198.404	25.09
198.623	-13.82
198.842	18.94
199.062	66.05
199.281	6.66
199.5	-22.02
199.719	-7.68
199.938	53.76
200.157	10.75
200.376	27.14
200.595	16.9
200.814	-1.54
201.033	-52.74
201.252	123.39
201.471	78.33
201.69	4.61
201.909	31.23
202.128	-7.68
202.347	35.33
202.566	47.62
202.785	2.56
203.004	49.66
203.223	35.33
203.442	-9.73
203.661	-26.11
203.879	-77.31
204.098	59.9
204.317	10.75
204.536	43.52
204.755	82.43
204.974	61.95
205.193	2.56
205.411	74.24
205.63	-5.63
205.849	68.09
206.068	-56.83
206.287	-36.35
206.505	2.56
206.724	-7.68
206.943	27.14
207.162	-28.16
207.381	43.52
207.599	-9.73
207.818	10.75
208.037	-11.78
208.255	41.47
208.474	35.33
208.693	-54.78
208.911	8.7
209.13	41.47
209.349	41.47
209.567	-7.68
209.786	-1.54
210.005	66.05
210.223	33.28
210.442	12.8
210.661	-5.63
210.879	35.33
211.098	4.61
211.316	68.09
211.535	20.99
211.753	-32.26
211.972	2.56
212.191	72.19
212.409	-7.68
212.628	31.23
212.846	-9.73
213.065	-32.26
213.283	-13.82
213.502	6.66
213.72	-13.82
213.938	-32.26
214.157	39.42
214.375	53.76
214.594	-13.82
214.812	49.66
215.031	27.14
215.249	68.09
215.467	-56.83
215.686	57.86
215.904	31.23
216.122	-52.74
216.341	10.75
216.559	10.75
216.778	-1.54
216.996	-30.21
217.214	-7.68
217.432	-7.68
217.651	-17.92
217.869	25.09
218.087	-17.92
218.306	23.04
218.524	20.99
218.742	-50.69
218.96	27.14
219.179	33.28
219.397	-13.82
219.615	-7.68
219.833	-3.58
220.051	-17.92
220.27	68.09
220.488	18.94
220.706	80.38
220.924	6.66
221.142	35.33
221.36	-5.63
221.578	-24.06
221.796	57.86
222.015	47.62
222.233	10.75
222.451	-11.78
222.669	6.66
222.887	31.23
223.105	4.61
223.323	43.52
223.541	20.99
223.759	-32.26
223.977	18.94
224.195	20.99
224.413	37.38
224.631	14.85
224.849	4.61
225.067	2.56
225.285	-3.58
225.503	-3.58
225.721	-19.97
225.939	-22.02
226.157	8.7
226.375	31.23
226.592	27.14
226.81	16.9
227.028	39.42
227.246	12.8
227.464	66.05
227.682	6.66
227.9	18.94
228.117	92.67
228.335	47.62
228.553	64
228.771	25.09
228.989	-5.63
229.206	-3.58
229.424	72.19
229.642	43.52
229.86	-46.59
230.077	-11.78
230.295	53.76
230.513	37.38
230.731	4.61
230.948	4.61
231.166	-3.58
231.384	-3.58
231.601	-38.4
231.819	72.19
232.037	-32.26
232.254	-1.54
232.472	25.09
232.689	-22.02
232.907	-5.63
233.125	18.94
233.342	-1.54
233.56	6.66
233.777	-1.54
233.995	-30.21
234.213	33.28
234.43	-15.87
234.648	-9.73
234.865	-1.54
235.083	-52.74
235.3	-30.21
235.518	14.85
235.735	82.43
235.953	37.38
236.17	-56.83
236.388	-65.02
236.605	-52.74
236.822	41.47
237.04	66.05
237.257	39.42
237.475	6.66
237.692	-5.63
237.909	53.76
238.127	6.66
238.344	16.9
238.562	10.75
238.779	80.38
238.996	-60.93
239.214	-26.11
239.431	43.52
239.648	37.38
239.865	119.29
240.083	35.33
240.3	-3.58
240.517	41.47
240.735	25.09
240.952	-13.82
241.169	43.52
241.386	-38.4
241.603	-11.78
241.821	16.9
242.038	33.28
242.255	14.85
242.472	16.9
242.689	41.47
242.907	49.66
243.124	25.09
243.341	-46.59
243.558	-22.02
243.775	-13.82
243.992	27.14
244.209	90.62
244.426	4.61
244.643	25.09
244.86	2.56
245.078	-30.21
245.295	41.47
245.512	-13.82
245.729	4.61
245.946	10.75
246.163	12.8
246.38	-11.78
246.597	-7.68
246.814	-69.12
247.031	-13.82
247.248	25.09
247.464	16.9
247.681	-13.82
247.898	72.19
248.115	10.75
248.332	-40.45
248.549	29.18
248.766	-9.73
248.983	25.09
249.2	33.28
249.417	57.86
249.633	8.7
249.85	33.28
250.067	-56.83
250.284	-15.87
250.501	-24.06
250.717	23.04
250.934	-44.54
251.151	-3.58
251.368	4.61
251.585	57.86
251.801	37.38
252.018	-28.16
252.235	4.61
252.451	0.51
252.668	-22.02
252.885	49.66
253.102	109.05
253.318	-3.58
253.535	-19.97
253.752	27.14
253.968	-15.87
254.185	-5.63
254.401	-19.97
254.618	-30.21
254.835	10.75
255.051	10.75
255.268	-9.73
255.484	10.75
255.701	-5.63
255.917	47.62
256.134	-50.69
256.351	-85.5
256.567	4.61
256.784	84.48
257	4.61
257.217	31.23
257.433	23.04
257.65	20.99
257.866	74.24
258.082	37.38
258.299	-81.41
258.515	14.85
258.732	27.14
258.948	35.33
259.165	27.14
259.381	-44.54
259.597	-22.02
259.814	16.9
260.03	-44.54
260.246	-7.68
260.463	-19.97
260.679	-28.16
260.895	0.51
261.112	2.56
261.328	35.33
261.544	4.61
261.761	45.57
261.977	-1.54
262.193	-19.97
262.409	27.14
262.626	0.51
262.842	25.09
263.058	-19.97
263.274	14.85
263.49	-67.07
263.707	39.42
263.923	0.51
264.139	-11.78
264.355	-11.78
264.571	-5.63
264.787	29.18
265.004	-22.02
265.22	29.18
265.436	47.62
265.652	-26.11
265.868	35.33
266.084	-13.82
266.3	29.18
266.516	-24.06
266.732	18.94
266.948	-11.78
267.164	0.51
267.38	-52.74
267.596	12.8
267.812	18.94
268.028	33.28
268.244	27.14
268.46	33.28
268.676	-32.26
268.892	10.75
269.108	-19.97
269.324	-11.78
269.54	66.05
269.756	8.7
269.972	-67.07
270.188	0.51
270.403	-1.54
270.619	12.8
270.835	35.33
271.051	-28.16
271.267	45.57
271.483	-17.92
271.698	14.85
271.914	14.85
272.13	14.85
272.346	18.94
272.562	82.43
272.777	37.38
272.993	-56.83
273.209	20.99
273.425	94.72
273.64	4.61
273.856	10.75
274.072	-26.11
274.287	-52.74
274.503	-30.21
274.719	8.7
274.934	-26.11
275.15	-75.26
275.366	-26.11
275.581	8.7
275.797	20.99
276.012	14.85
276.228	47.62
276.444	-1.54
276.659	29.18
276.875	8.7
277.09	43.52
277.306	-93.69
277.521	16.9
277.737	10.75
277.952	-7.68
278.168	8.7
278.383	23.04
278.599	-48.64
278.814	8.7
279.03	-5.63
279.245	-50.69
279.461	4.61
279.676	6.66
279.892	-28.16
280.107	78.33
280.322	-1.54
280.538	35.33
280.753	45.57
280.969	80.38
281.184	37.38
281.399	47.62
281.615	12.8
281.83	-7.68
282.045	-19.97
282.26	-1.54
282.476	20.99
282.691	-17.92
282.906	-9.73
283.122	29.18
283.337	-38.4
283.552	-32.26
283.767	8.7
283.983	10.75
284.198	-22.02
284.413	-46.59
284.628	-38.4
284.843	33.28
285.058	12.8
285.274	-17.92
285.489	-26.11
285.704	47.62
285.919	16.9
286.134	35.33
286.349	2.56
286.564	53.76
286.779	-30.21
286.995	-48.64
287.21	-15.87
287.425	-3.58
287.64	64
287.855	-11.78
288.07	-32.26
288.285	55.81
288.5	41.47
288.715	-44.54
288.93	-1.54
289.145	2.56
289.36	-19.97
289.575	6.66
289.79	-26.11
290.004	14.85
290.219	10.75
290.434	39.42
290.649	51.71
290.864	4.61
291.079	-13.82
291.294	4.61
291.509	14.85
291.724	-26.11
291.938	-19.97
292.153	14.85
292.368	-11.78
292.583	43.52
292.798	35.33
293.012	-26.11
293.227	12.8
293.442	18.94
293.657	64
293.871	-24.06
294.086	41.47
294.301	14.85
294.516	12.8
294.73	6.66
294.945	-32.26
295.16	14.85
295.374	2.56
295.589	47.62
295.804	8.7
296.018	-32.26
296.233	-42.5
296.447	-13.82
296.662	25.09
296.877	-62.98
297.091	-36.35
297.306	12.8
297.52	-52.74
297.735	31.23
297.949	47.62
298.164	-44.54
298.378	53.76
298.593	-5.63
298.807	-11.78
299.022	47.62
299.236	-38.4
299.451	4.61
299.665	33.28
299.88	-71.17
300.094	-52.74
300.309	70.14
300.523	4.61
300.737	-24.06
300.952	31.23
301.166	16.9
301.381	-7.68
301.595	72.19
301.809	-1.54
302.024	33.28
302.238	-40.45
302.452	29.18
302.667	-30.21
302.881	35.33
303.095	18.94
303.309	14.85
303.524	10.75
303.738	37.38
303.952	-58.88
304.166	25.09
304.381	-15.87
304.595	82.43
304.809	0.51
305.023	2.56
305.237	8.7
305.452	-28.16
305.666	59.9
305.88	10.75
306.094	14.85
306.308	51.71
306.522	10.75
306.736	0.51
306.95	29.18
307.164	12.8
307.379	-19.97
307.593	-42.5
307.807	41.47
308.021	-5.63
308.235	35.33
308.449	-3.58
308.663	-3.58
308.877	29.18
309.091	23.04
309.305	16.9
309.519	-60.93
309.733	49.66
309.947	6.66
310.161	-32.26
310.374	18.94
310.588	25.09
310.802	6.66
311.016	72.19
311.23	70.14
311.444	82.43
311.658	-17.92
311.872	-42.5
312.085	43.52
312.299	133.63
312.513	61.95
312.727	53.76
312.941	-19.97
313.154	-26.11
313.368	-30.21
313.582	-22.02
313.796	-5.63
314.009	12.8
314.223	72.19
314.437	84.48
314.651	-42.5
314.864	29.18
315.078	35.33
315.292	86.53
315.505	-3.58
315.719	-11.78
315.933	23.04
316.146	-1.54
316.36	4.61
316.573	6.66
316.787	6.66
317.001	55.81
317.214	20.99
317.428	14.85
317.641	27.14
317.855	33.28
318.068	14.85
318.282	12.8
318.495	-22.02
318.709	16.9
318.922	-56.83
319.136	6.66
319.349	72.19
319.563	18.94
319.776	35.33
319.99	-17.92
320.203	-9.73
320.417	-9.73
320.63	0.51
320.843	-3.58
321.057	2.56
321.27	35.33
321.483	-30.21
321.697	2.56
321.91	2.56
322.124	-5.63
322.337	27.14
322.55	14.85
322.763	-38.4
322.977	25.09
323.19	20.99
323.403	-32.26
323.617	-48.64
323.83	51.71
324.043	-83.45
324.256	10.75
324.469	-24.06
324.683	20.99
324.896	18.94
325.109	64
325.322	-13.82
325.535	35.33
325.748	-1.54
325.962	35.33
326.175	25.09
326.388	-5.63
326.601	-30.21
326.814	-48.64
327.027	-3.58
327.24	43.52
327.453	-15.87
327.666	-54.78
327.879	6.66
328.092	37.38
328.305	-11.78
328.518	20.99
328.731	43.52
328.944	68.09
329.157	-9.73
329.37	-11.78
329.583	0.51
329.796	82.43
330.009	-17.92
330.222	-36.35
330.435	-3.58
330.648	29.18
330.861	2.56
331.073	10.75
331.286	-24.06
331.499	27.14
331.712	-13.82
331.925	2.56
332.138	49.66
332.35	4.61
332.563	25.09
332.776	6.66
332.989	-13.82
333.202	29.18
333.414	8.7
333.627	-11.78
333.84	14.85
334.053	25.09
334.265	53.76
334.478	18.94
334.691	14.85
334.903	47.62
335.116	-85.5
335.329	57.86
335.541	92.67
335.754	27.14
335.966	4.61
336.179	55.81
336.392	35.33
336.604	2.56
336.817	33.28
337.029	33.28
337.242	-85.5
337.454	35.33
337.667	0.51
337.88	47.62
338.092	23.04
338.305	51.71
338.517	12.8
338.729	31.23
338.942	0.51
339.154	29.18
339.367	104.96
339.579	47.62
339.792	-99.84
340.004	10.75
340.217	-71.17
340.429	12.8
340.641	-11.78
340.854	-7.68
341.066	96.77
341.278	-32.26
341.491	-83.45
341.703	92.67
341.915	14.85
342.128	25.09
342.34	31.23
342.552	53.76
342.764	37.38
342.977	-44.54
343.189	-44.54
343.401	35.33
343.613	-15.87
343.826	72.19
344.038	14.85
344.25	49.66
344.462	57.86
344.674	20.99
344.886	10.75
345.099	41.47
345.311	0.51
345.523	39.42
345.735	-9.73
345.947	94.72
346.159	4.61
346.371	6.66
346.583	84.48
346.795	-5.63
347.007	-3.58
347.219	20.99
347.431	37.38
347.643	18.94
347.855	-28.16
348.067	61.95
348.279	-30.21
348.491	68.09
348.703	0.51
348.915	-11.78
349.127	-30.21
349.339	57.86
349.551	66.05
349.763	-11.78
349.975	-17.92
350.187	-1.54
350.399	-28.16
350.61	-15.87
350.822	45.57
351.034	-26.11
351.246	55.81
351.458	27.14
351.669	66.05
351.881	4.61
352.093	16.9
352.305	12.8
352.517	20.99
352.728	14.85
352.94	-24.06
353.152	0.51
353.363	78.33
353.575	61.95
353.787	-3.58
353.999	-3.58
354.21	90.62
354.422	18.94
354.633	37.38
354.845	14.85
355.057	-32.26
355.268	18.94
355.48	18.94
355.692	6.66
355.903	-34.3
356.115	12.8
356.326	-38.4
356.538	43.52
356.749	86.53
356.961	64
357.172	-46.59
357.384	57.86
357.595	55.81
357.807	27.14
358.018	-11.78
358.23	49.66
358.441	20.99
358.653	-30.21
358.864	23.04
359.075	107.01
359.287	64
359.498	66.05
359.709	66.05
359.921	29.18
360.132	-5.63
360.344	23.04
360.555	43.52
360.766	31.23
360.977	-1.54
361.189	-5.63
361.4	23.04
361.611	0.51
361.823	18.94
362.034	37.38
362.245	-5.63
362.456	92.67
362.667	8.7
362.879	10.75
363.09	23.04
363.301	51.71
363.512	57.86
363.723	-1.54
363.935	55.81
364.146	45.57
364.357	-48.64
364.568	80.38
364.779	10.75
364.99	35.33
365.201	57.86
365.412	45.57
365.623	6.66
365.834	53.76
366.045	64
366.256	41.47
366.467	78.33
366.678	-11.78
366.889	14.85
367.1	-28.16
367.311	-13.82
367.522	29.18
367.733	2.56
367.944	0.51
368.155	29.18
368.366	29.18
368.577	80.38
368.788	-3.58
368.999	12.8
369.209	51.71
369.42	-3.58
369.631	41.47
369.842	27.14
370.053	29.18
370.264	-26.11
370.474	-11.78
370.685	64
370.896	70.14
371.107	72.19
371.317	31.23
371.528	33.28
371.739	-1.54
371.95	45.57
372.16	59.9
372.371	31.23
372.582	51.71
372.792	41.47
373.003	37.38
373.214	-44.54
373.424	33.28
373.635	-42.5
373.846	29.18
374.056	18.94
374.267	68.09
374.477	66.05
374.688	29.18
374.898	-5.63
375.109	4.61
375.319	43.52
375.53	18.94
375.74	16.9
375.951	12.8
376.161	33.28
376.372	0.51
376.582	-11.78
376.793	23.04
377.003	66.05
377.214	-36.35
377.424	33.28
377.635	10.75
377.845	-60.93
378.055	86.53
378.266	64
378.476	59.9
378.686	-5.63
378.897	41.47
379.107	-3.58
379.317	66.05
379.528	39.42
379.738	-3.58
379.948	-7.68
380.158	51.71
380.369	-26.11
380.579	10.75
380.789	45.57
380.999	12.8
381.21	57.86
381.42	0.51
381.63	20.99
381.84	68.09
382.05	29.18
382.261	45.57
382.471	113.15
382.681	68.09
382.891	84.48
383.101	-13.82
383.311	45.57
383.521	29.18
383.731	76.29
383.941	59.9
384.151	39.42
384.361	-5.63
384.571	6.66
384.781	72.19
384.991	57.86
385.201	-19.97
385.411	-38.4
385.621	-5.63
385.831	31.23
386.041	2.56
386.251	-5.63
386.461	76.29
386.671	4.61
386.881	29.18
387.091	41.47
387.301	25.09
387.511	12.8
387.72	100.86
387.93	29.18
388.14	-54.78
388.35	25.09
388.56	59.9
388.769	31.23
388.979	53.76
389.189	-32.26
389.399	39.42
389.609	27.14
389.818	-1.54
390.028	-67.07
390.238	43.52
390.447	-26.11
390.657	-9.73
390.867	68.09
391.076	-50.69
391.286	43.52
391.496	39.42
391.705	-5.63
391.915	86.53
392.125	35.33
392.334	113.15
392.544	80.38
392.753	29.18
392.963	39.42
393.172	55.81
393.382	-22.02
393.591	43.52
393.801	-1.54
394.01	39.42
394.22	33.28
394.429	90.62
394.639	10.75
394.848	23.04
395.058	39.42
395.267	29.18
395.477	33.28
395.686	-85.5
395.895	111.1
396.105	102.91
396.314	-40.45
396.524	57.86
396.733	68.09
396.942	147.97
397.152	25.09
397.361	68.09
397.57	14.85
397.78	47.62
397.989	57.86
398.198	72.19
398.407	31.23
398.617	14.85
398.826	6.66
399.035	84.48
399.244	20.99
399.453	61.95
399.663	59.9
399.872	43.52
400.081	25.09
400.29	100.86
400.499	10.75
400.708	61.95
400.917	-17.92
401.127	51.71
401.336	41.47
401.545	102.91
401.754	16.9
401.963	33.28
402.172	39.42
402.381	2.56
402.59	33.28
402.799	80.38
403.008	-34.3
403.217	51.71
403.426	29.18
403.635	94.72
403.844	4.61
404.053	147.97
404.262	10.75
404.471	10.75
404.68	113.15
404.888	76.29
405.097	143.87
405.306	35.33
405.515	43.52
405.724	68.09
405.933	109.05
406.142	37.38
406.35	72.19
406.559	98.81
406.768	78.33
406.977	90.62
407.185	119.29
407.394	35.33
407.603	129.53
407.812	109.05
408.02	193.02
408.229	115.2
408.438	47.62
408.646	113.15
408.855	82.43
409.064	70.14
409.272	174.59
409.481	129.53
409.69	98.81
409.898	117.25
410.107	59.9
410.315	178.69
410.524	154.11
410.733	127.49
410.941	141.82
411.15	184.83
411.358	154.11
411.567	209.4
411.775	211.45
411.984	195.07
412.192	172.54
412.401	238.08
412.609	227.84
412.818	250.36
413.026	238.08
413.234	260.6
413.443	207.36
413.651	324.09
413.86	272.89
414.068	250.36
414.276	326.14
414.485	242.17
414.693	322.04
414.901	336.38
415.11	334.33
415.318	315.9
415.526	410.11
415.734	446.97
415.943	393.72
416.151	381.43
416.359	354.81
416.567	428.54
416.776	383.48
416.984	481.78
417.192	479.74
417.4	397.82
417.608	457.21
417.817	504.31
418.025	514.55
418.233	596.47
418.441	506.36
418.649	598.52
418.857	573.94
419.065	637.43
419.273	678.39
419.481	674.29
419.689	692.73
419.897	715.25
420.105	700.92
420.313	741.88
420.521	776.69
420.729	719.35
420.937	766.45
421.145	946.67
421.353	866.8
421.561	883.19
421.769	952.82
421.977	979.44
422.185	920.05
422.393	1104.37
422.601	1161.71
422.809	1026.54
423.017	1057.26
423.224	1149.42
423.432	1217.01
423.64	1167.85
423.848	1266.16
424.056	1286.64
424.263	1231.34
424.471	1298.92
424.679	1376.75
424.887	1432.04
425.094	1518.06
425.302	1475.05
425.51	1567.21
425.718	1716.71
425.925	1597.93
426.133	1729
426.341	1802.72
426.548	1894.88
426.756	1903.07
426.964	1858.02
427.171	2099.68
427.379	2099.68
427.586	2079.2
427.794	2208.22
428.001	2249.18
428.209	2306.52
428.417	2306.52
428.624	2513.37
428.832	2496.99
429.039	2324.96
429.247	2484.7
429.454	2703.83
429.662	2898.39
429.869	2662.87
430.076	2871.76
430.284	2779.61
430.491	2992.59
430.699	3166.67
430.906	3054.03
431.114	3080.66
431.321	3189.2
431.528	3379.66
431.736	3537.35
431.943	3811.78
432.15	3617.22
432.358	3713.48
432.565	3850.69
432.772	3779.01
432.979	4090.31
433.187	4149.7
433.394	4250.05
433.601	4444.6
433.808	4432.32
434.016	4395.45
434.223	4518.33
434.43	4907.45
434.637	4895.16
434.844	5183.92
435.052	5212.59
435.259	5280.18
435.466	5188.02
435.673	5261.74
435.88	5542.32
436.087	5869.99
436.294	5740.97
436.501	5806.5
436.708	5859.75
436.915	5962.15
437.122	6259.1
437.329	6265.25
437.537	6398.37
437.743	6586.78
437.95	6494.62
438.157	6916.5
438.364	7125.4
438.571	6922.65
438.778	7006.61
438.985	7786.89
439.192	7428.49
439.399	7571.85
439.606	7575.95
439.813	7999.88
440.02	8511.87
440.227	8259.97
440.433	8049.03
440.64	8460.67
440.847	8356.22
441.054	8626.56
441.261	9230.71
441.467	9181.56
441.674	9324.91
441.881	9509.23
442.088	9810.28
442.294	9386.35
442.501	9769.32
442.708	10000.74
442.914	10555.74
443.121	10666.33
443.328	10340.71
443.534	11286.87
443.741	10953.05
443.948	10885.47
444.154	11604.3
444.361	11495.76
444.568	11800.91
444.774	11551.06
444.981	11751.76
445.187	11942.22
445.394	12710.21
445.6	12423.49
445.807	13404.47
446.013	13111.61
446.22	13117.75
446.426	13738.29
446.633	13836.59
446.839	14309.67
447.046	13783.34
447.252	14573.86
447.459	14563.62
447.665	14571.81
447.871	15184.15
448.078	15845.65
448.284	15261.98
448.491	15550.74
448.697	16052.49
448.903	16392.45
449.11	16455.94
449.316	16314.63
449.522	16492.8
449.728	16931.07
449.935	17043.71
450.141	17080.57
450.347	17600.76
450.553	16920.83
450.76	16963.84
450.966	17469.69
451.172	17654
451.378	18084.08
451.584	17467.64
451.791	18094.32
451.997	17807.6
452.203	18778.34
452.409	18587.88
452.615	18292.97
452.821	17793.26
453.027	17232.12
453.233	18460.9
453.44	17871.09
453.646	18010.35
453.852	18122.99
454.058	18270.44
454.264	17725.68
454.47	18135.28
454.676	17600.76
454.882	18284.78
455.088	16697.6
455.294	17142.01
455.5	17180.92
455.705	17379.57
455.911	16773.38
456.117	16576.77
456.323	16259.34
456.529	15272.21
456.735	16216.33
456.941	15802.64
457.147	15257.88
457.352	14686.5
457.558	14928.16
457.764	14596.39
457.97	14678.3
458.176	14248.23
458.381	14149.93
458.587	13416.76
458.793	13654.32
458.999	12876.09
459.204	13617.46
459.41	13236.53
459.616	12667.2
459.821	12622.14
460.027	12620.1
460.233	12284.23
460.438	11780.43
460.644	11837.77
460.85	11356.5
461.055	11053.4
461.261	11145.56
461.466	10221.92
461.672	9865.58
461.878	10811.74
462.083	10072.42
462.289	9785.71
462.494	9771.37
462.7	9226.61
462.905	9195.89
463.111	9462.13
463.316	9253.23
463.522	9220.47
463.727	9251.19
463.932	9521.52
464.138	9300.34
464.343	9208.18
464.549	9054.58
464.754	9361.78
464.959	9306.48
465.165	9269.62
465.37	8737.15
465.575	8700.28
465.781	8989.05
465.986	8880.5
466.191	8704.38
466.397	8579.45
466.602	8143.24
466.807	8419.71
467.012	8497.53
467.218	8458.62
467.423	8208.77
467.628	8370.56
467.833	8573.31
468.038	8296.83
468.244	8167.81
468.449	8434.05
468.654	8122.76
468.859	8180.1
