Data from USB4F104151__52__12-53-59-813.txt Node

Date: Fri Mar 14 12:53:59 EDT 2025
User: louis
Spectrometer: USB4F10415
Trigger mode: 4
Integration Time (sec): 1.000000E-2
Scans to average: 1
Electric dark correction enabled: true
Nonlinearity correction enabled: false
Boxcar width: 0
XAxis mode: Wavelengths
Number of Pixels in Spectrum: 3648
>>>>>Begin Spectral Data<<<<<
178.204	9.9
178.424	9.9
178.644	9.9
178.864	-14.68
179.084	-53.59
179.304	73.39
179.524	-57.68
179.744	30.38
179.964	-31.06
180.184	-41.3
180.404	-18.77
180.624	46.76
180.844	3.75
181.064	-39.25
181.283	-2.39
181.503	3.75
181.723	32.43
181.943	-4.44
182.163	54.95
182.383	-4.44
182.602	-4.44
182.822	13.99
183.042	-4.44
183.262	59.05
183.482	-2.39
183.701	-24.92
183.921	16.04
184.141	9.9
184.361	38.57
184.58	32.43
184.8	44.71
185.02	36.52
185.239	59.05
185.459	-63.83
185.679	13.99
185.898	7.85
186.118	-16.73
186.338	-20.82
186.557	-0.34
186.777	20.14
186.997	-4.44
187.216	20.14
187.436	26.28
187.655	87.72
187.875	59.05
188.095	24.23
188.314	30.38
188.534	5.8
188.753	69.29
188.973	-18.77
189.192	-10.58
189.412	32.43
189.631	1.71
189.851	13.99
190.07	-16.73
190.29	-16.73
190.509	-6.49
190.729	-8.53
190.948	81.58
191.168	65.19
191.387	57
191.607	28.33
191.826	95.91
192.045	9.9
192.265	-78.16
192.484	28.33
192.704	-10.58
192.923	20.14
193.142	-6.49
193.362	42.67
193.581	50.86
193.8	11.95
194.02	30.38
194.239	-20.82
194.458	34.47
194.678	-20.82
194.897	-35.16
195.116	26.28
195.335	18.09
195.555	-20.82
195.774	73.39
195.993	-8.53
196.212	-22.87
196.432	32.43
196.651	20.14
196.87	-49.49
197.089	46.76
197.308	22.19
197.528	-0.34
197.747	-39.25
197.966	-29.01
198.185	34.47
198.404	-18.77
198.623	-4.44
198.842	36.52
199.062	-8.53
199.281	61.1
199.5	-22.87
199.719	-0.34
199.938	5.8
200.157	32.43
200.376	48.81
200.595	48.81
200.814	30.38
201.033	36.52
201.252	-26.96
201.471	-33.11
201.69	30.38
201.909	5.8
202.128	9.9
202.347	36.52
202.566	11.95
202.785	16.04
203.004	20.14
203.223	102.06
203.442	-4.44
203.661	-6.49
203.879	22.19
204.098	30.38
204.317	32.43
204.536	91.82
204.755	-6.49
204.974	42.67
205.193	16.04
205.411	30.38
205.63	-2.39
205.849	69.29
206.068	7.85
206.287	5.8
206.505	18.09
206.724	-12.63
206.943	-24.92
207.162	-33.11
207.381	30.38
207.599	26.28
207.818	-24.92
208.037	-22.87
208.255	48.81
208.474	13.99
208.693	-2.39
208.911	40.62
209.13	42.67
209.349	34.47
209.567	26.28
209.786	73.39
210.005	57
210.223	59.05
210.442	48.81
210.661	20.14
210.879	-20.82
211.098	44.71
211.316	44.71
211.535	-0.34
211.753	22.19
211.972	-20.82
212.191	71.34
212.409	48.81
212.628	18.09
212.846	63.15
213.065	13.99
213.283	30.38
213.502	46.76
213.72	-16.73
213.938	-47.44
214.157	-14.68
214.375	28.33
214.594	26.28
214.812	-20.82
215.031	42.67
215.249	-37.2
215.467	54.95
215.686	5.8
215.904	-18.77
216.122	-6.49
216.341	75.43
216.559	46.76
216.778	7.85
216.996	-33.11
217.214	67.24
217.432	-14.68
217.651	22.19
217.869	67.24
218.087	-22.87
218.306	46.76
218.524	38.57
218.742	-20.82
218.96	54.95
219.179	20.14
219.397	77.48
219.615	-0.34
219.833	34.47
220.051	85.67
220.27	48.81
220.488	22.19
220.706	11.95
220.924	-0.34
221.142	11.95
221.36	54.95
221.578	30.38
221.796	42.67
222.015	79.53
222.233	24.23
222.451	-35.16
222.669	52.91
222.887	85.67
223.105	-37.2
223.323	26.28
223.541	-49.49
223.759	24.23
223.977	106.15
224.195	57
224.413	5.8
224.631	54.95
224.849	-35.16
225.067	1.71
225.285	13.99
225.503	-8.53
225.721	-10.58
225.939	16.04
226.157	-6.49
226.375	-2.39
226.592	13.99
226.81	36.52
227.028	13.99
227.246	3.75
227.464	-43.35
227.682	-8.53
227.9	50.86
228.117	26.28
228.335	46.76
228.553	75.43
228.771	32.43
228.989	75.43
229.206	46.76
229.424	30.38
229.642	-33.11
229.86	-10.58
230.077	7.85
230.295	46.76
230.513	59.05
230.731	89.77
230.948	13.99
231.166	-10.58
231.384	24.23
231.601	59.05
231.819	9.9
232.037	-14.68
232.254	22.19
232.472	26.28
232.689	81.58
232.907	-26.96
233.125	-24.92
233.342	-16.73
233.56	48.81
233.777	36.52
233.995	24.23
234.213	114.34
234.43	75.43
234.648	38.57
234.865	-24.92
235.083	-8.53
235.3	-10.58
235.518	79.53
235.735	46.76
235.953	40.62
236.17	-37.2
236.388	-8.53
236.605	-51.54
236.822	40.62
237.04	7.85
237.257	-2.39
237.475	-10.58
237.692	26.28
237.909	54.95
238.127	38.57
238.344	48.81
238.562	28.33
238.779	-6.49
238.996	-63.83
239.214	3.75
239.431	24.23
239.648	22.19
239.865	11.95
240.083	38.57
240.3	1.71
240.517	118.44
240.735	7.85
240.952	16.04
241.169	3.75
241.386	18.09
241.603	-10.58
241.821	38.57
242.038	44.71
242.255	13.99
242.472	38.57
242.689	108.2
242.907	57
243.124	-57.68
243.341	16.04
243.558	20.14
243.775	3.75
243.992	93.87
244.209	42.67
244.426	97.96
244.643	71.34
244.86	46.76
245.078	-20.82
245.295	9.9
245.512	118.44
245.729	-33.11
245.946	11.95
246.163	16.04
246.38	73.39
246.597	-2.39
246.814	16.04
247.031	24.23
247.248	-20.82
247.464	-39.25
247.681	24.23
247.898	104.11
248.115	34.47
248.332	50.86
248.549	44.71
248.766	11.95
248.983	124.58
249.2	69.29
249.417	1.71
249.633	65.19
249.85	38.57
250.067	-26.96
250.284	67.24
250.501	42.67
250.717	40.62
250.934	50.86
251.151	32.43
251.368	50.86
251.585	-6.49
251.801	42.67
252.018	22.19
252.235	79.53
252.451	38.57
252.668	-2.39
252.885	48.81
253.102	57
253.318	40.62
253.535	-16.73
253.752	34.47
253.968	44.71
254.185	3.75
254.401	-0.34
254.618	57
254.835	69.29
255.051	67.24
255.268	13.99
255.484	-2.39
255.701	50.86
255.917	5.8
256.134	9.9
256.351	50.86
256.567	-29.01
256.784	20.14
257	28.33
257.217	20.14
257.433	-8.53
257.65	7.85
257.866	36.52
258.082	40.62
258.299	-72.02
258.515	-26.96
258.732	42.67
258.948	-20.82
259.165	44.71
259.381	65.19
259.597	18.09
259.814	91.82
260.03	46.76
260.246	-8.53
260.463	61.1
260.679	34.47
260.895	40.62
261.112	-4.44
261.328	32.43
261.544	16.04
261.761	22.19
261.977	11.95
262.193	-14.68
262.409	81.58
262.626	24.23
262.842	-29.01
263.058	-24.92
263.274	-10.58
263.49	-35.16
263.707	57
263.923	7.85
264.139	77.48
264.355	46.76
264.571	9.9
264.787	24.23
265.004	26.28
265.22	24.23
265.436	18.09
265.652	77.48
265.868	32.43
266.084	-4.44
266.3	3.75
266.516	26.28
266.732	-22.87
266.948	3.75
267.164	65.19
267.38	3.75
267.596	48.81
267.812	22.19
268.028	77.48
268.244	18.09
268.46	81.58
268.676	30.38
268.892	-22.87
269.108	-8.53
269.324	36.52
269.54	-43.35
269.756	-51.54
269.972	5.8
270.188	69.29
270.403	36.52
270.619	-10.58
270.835	48.81
271.051	-0.34
271.267	-43.35
271.483	75.43
271.698	-63.83
271.914	-20.82
272.13	34.47
272.346	52.91
272.562	-57.68
272.777	63.15
272.993	48.81
273.209	36.52
273.425	59.05
273.64	11.95
273.856	32.43
274.072	-82.26
274.287	40.62
274.503	-6.49
274.719	83.63
274.934	46.76
275.15	24.23
275.366	85.67
275.581	50.86
275.797	85.67
276.012	63.15
276.228	-10.58
276.444	-22.87
276.659	5.8
276.875	22.19
277.09	44.71
277.306	81.58
277.521	75.43
277.737	61.1
277.952	-4.44
278.168	13.99
278.383	36.52
278.599	40.62
278.814	-8.53
279.03	61.1
279.245	93.87
279.461	32.43
279.676	20.14
279.892	38.57
280.107	-24.92
280.322	-51.54
280.538	52.91
280.753	42.67
280.969	52.91
281.184	-43.35
281.399	13.99
281.615	38.57
281.83	63.15
282.045	61.1
282.26	75.43
282.476	-37.2
282.691	5.8
282.906	42.67
283.122	65.19
283.337	28.33
283.552	85.67
283.767	54.95
283.983	7.85
284.198	22.19
284.413	13.99
284.628	-22.87
284.843	1.71
285.058	59.05
285.274	-20.82
285.489	34.47
285.704	59.05
285.919	-16.73
286.134	28.33
286.349	7.85
286.564	-24.92
286.779	36.52
286.995	16.04
287.21	-35.16
287.425	83.63
287.64	-84.31
287.855	42.67
288.07	-16.73
288.285	77.48
288.5	24.23
288.715	89.77
288.93	30.38
289.145	48.81
289.36	26.28
289.575	52.91
289.79	48.81
290.004	-10.58
290.219	-6.49
290.434	20.14
290.649	-29.01
290.864	3.75
291.079	59.05
291.294	44.71
291.509	-14.68
291.724	-43.35
291.938	36.52
292.153	71.34
292.368	5.8
292.583	30.38
292.798	-22.87
293.012	130.73
293.227	93.87
293.442	44.71
293.657	26.28
293.871	50.86
294.086	44.71
294.301	79.53
294.516	-2.39
294.73	22.19
294.945	46.76
295.16	57
295.374	-10.58
295.589	106.15
295.804	-6.49
296.018	30.38
296.233	-8.53
296.447	57
296.662	-24.92
296.877	73.39
297.091	13.99
297.306	-16.73
297.52	-6.49
297.735	83.63
297.949	11.95
298.164	54.95
298.378	26.28
298.593	-14.68
298.807	40.62
299.022	79.53
299.236	42.67
299.451	32.43
299.665	59.05
299.88	7.85
300.094	-35.16
300.309	13.99
300.523	-12.63
300.737	30.38
300.952	71.34
301.166	59.05
301.381	26.28
301.595	24.23
301.809	54.95
302.024	-35.16
302.238	-33.11
302.452	57
302.667	24.23
302.881	59.05
303.095	28.33
303.309	50.86
303.524	7.85
303.738	11.95
303.952	-24.92
304.166	38.57
304.381	-0.34
304.595	122.54
304.809	18.09
305.023	63.15
305.237	46.76
305.452	61.1
305.666	-72.02
305.88	1.71
306.094	-39.25
306.308	40.62
306.522	50.86
306.736	-10.58
306.95	28.33
307.164	7.85
307.379	-14.68
307.593	-16.73
307.807	24.23
308.021	1.71
308.235	77.48
308.449	3.75
308.663	59.05
308.877	28.33
309.091	5.8
309.305	34.47
309.519	22.19
309.733	61.1
309.947	7.85
310.161	59.05
310.374	20.14
310.588	-16.73
310.802	69.29
311.016	16.04
311.23	-0.34
311.444	30.38
311.658	38.57
311.872	52.91
312.085	-39.25
312.299	75.43
312.513	95.91
312.727	-2.39
312.941	-65.88
313.154	28.33
313.368	54.95
313.582	-14.68
313.796	-24.92
314.009	102.06
314.223	116.39
314.437	-4.44
314.651	-2.39
314.864	-39.25
315.078	-20.82
315.292	3.75
315.505	32.43
315.719	-10.58
315.933	42.67
316.146	63.15
316.36	-18.77
316.573	69.29
316.787	1.71
317.001	44.71
317.214	22.19
317.428	40.62
317.641	-8.53
317.855	-14.68
318.068	18.09
318.282	52.91
318.495	100.01
318.709	-2.39
318.922	40.62
319.136	54.95
319.349	-10.58
319.563	48.81
319.776	-10.58
319.99	24.23
320.203	3.75
320.417	44.71
320.63	65.19
320.843	65.19
321.057	30.38
321.27	54.95
321.483	20.14
321.697	77.48
321.91	-10.58
322.124	57
322.337	36.52
322.55	-8.53
322.763	30.38
322.977	-10.58
323.19	16.04
323.403	34.47
323.617	-35.16
323.83	57
324.043	-47.44
324.256	97.96
324.469	-31.06
324.683	-26.96
324.896	44.71
325.109	-55.64
325.322	-22.87
325.535	-0.34
325.748	81.58
325.962	48.81
326.175	9.9
326.388	30.38
326.601	71.34
326.814	40.62
327.027	42.67
327.24	40.62
327.453	-4.44
327.666	-20.82
327.879	69.29
328.092	9.9
328.305	46.76
328.518	61.1
328.731	5.8
328.944	1.71
329.157	157.35
329.37	71.34
329.583	89.77
329.796	44.71
330.009	1.71
330.222	1.71
330.435	-22.87
330.648	22.19
330.861	-10.58
331.073	91.82
331.286	-2.39
331.499	38.57
331.712	-31.06
331.925	73.39
332.138	46.76
332.35	22.19
332.563	-67.92
332.776	79.53
332.989	63.15
333.202	28.33
333.414	52.91
333.627	40.62
333.84	104.11
334.053	57
334.265	75.43
334.478	42.67
334.691	-24.92
334.903	32.43
335.116	7.85
335.329	5.8
335.541	38.57
335.754	38.57
335.966	32.43
336.179	9.9
336.392	-8.53
336.604	1.71
336.817	-4.44
337.029	46.76
337.242	1.71
337.454	75.43
337.667	-24.92
337.88	7.85
338.092	83.63
338.305	18.09
338.517	30.38
338.729	81.58
338.942	13.99
339.154	22.19
339.367	13.99
339.579	30.38
339.792	-12.63
340.004	-0.34
340.217	42.67
340.429	48.81
340.641	42.67
340.854	-10.58
341.066	-29.01
341.278	-24.92
341.491	83.63
341.703	52.91
341.915	9.9
342.128	32.43
342.34	87.72
342.552	50.86
342.764	48.81
342.977	-18.77
343.189	46.76
343.401	63.15
343.613	48.81
343.826	20.14
344.038	59.05
344.25	59.05
344.462	116.39
344.674	13.99
344.886	32.43
345.099	3.75
345.311	16.04
345.523	-67.92
345.735	97.96
345.947	-8.53
346.159	65.19
346.371	3.75
346.583	11.95
346.795	63.15
347.007	38.57
347.219	24.23
347.431	13.99
347.643	48.81
347.855	-22.87
348.067	63.15
348.279	52.91
348.491	13.99
348.703	-33.11
348.915	26.28
349.127	83.63
349.339	32.43
349.551	79.53
349.763	83.63
349.975	42.67
350.187	18.09
350.399	-35.16
350.61	38.57
350.822	69.29
351.034	71.34
351.246	30.38
351.458	22.19
351.669	89.77
351.881	87.72
352.093	24.23
352.305	79.53
352.517	36.52
352.728	136.87
352.94	50.86
353.152	67.24
353.363	11.95
353.575	79.53
353.787	26.28
353.999	57
354.21	77.48
354.422	30.38
354.633	-18.77
354.845	-31.06
355.057	71.34
355.268	40.62
355.48	-57.68
355.692	34.47
355.903	104.11
356.115	52.91
356.326	-16.73
356.538	38.57
356.749	91.82
356.961	7.85
357.172	61.1
357.384	11.95
357.595	126.63
357.807	95.91
358.018	57
358.23	63.15
358.441	11.95
358.653	91.82
358.864	9.9
359.075	61.1
359.287	-53.59
359.498	87.72
359.709	16.04
359.921	87.72
360.132	-41.3
360.344	-2.39
360.555	-0.34
360.766	89.77
360.977	36.52
361.189	124.58
361.4	18.09
361.611	34.47
361.823	57
362.034	42.67
362.245	67.24
362.456	85.67
362.667	100.01
362.879	128.68
363.09	102.06
363.301	59.05
363.512	3.75
363.723	-4.44
363.935	54.95
364.146	54.95
364.357	20.14
364.568	40.62
364.779	-14.68
364.99	71.34
365.201	91.82
365.412	67.24
365.623	13.99
365.834	46.76
366.045	50.86
366.256	52.91
366.467	75.43
366.678	30.38
366.889	-33.11
367.1	61.1
367.311	54.95
367.522	16.04
367.733	79.53
367.944	7.85
368.155	61.1
368.366	5.8
368.577	112.3
368.788	102.06
368.999	-39.25
369.209	1.71
369.42	46.76
369.631	59.05
369.842	34.47
370.053	34.47
370.264	69.29
370.474	75.43
370.685	52.91
370.896	77.48
371.107	28.33
371.317	79.53
371.528	1.71
371.739	122.54
371.95	83.63
372.16	52.91
372.371	-55.64
372.582	77.48
372.792	7.85
373.003	81.58
373.214	-26.96
373.424	87.72
373.635	5.8
373.846	30.38
374.056	42.67
374.267	54.95
374.477	-2.39
374.688	13.99
374.898	38.57
375.109	16.04
375.319	110.25
375.53	67.24
375.74	38.57
375.951	-6.49
376.161	28.33
376.372	3.75
376.582	69.29
376.793	3.75
377.003	95.91
377.214	-12.63
377.424	40.62
377.635	67.24
377.845	63.15
378.055	59.05
378.266	-0.34
378.476	-14.68
378.686	-10.58
378.897	-43.35
379.107	22.19
379.317	102.06
379.528	93.87
379.738	44.71
379.948	67.24
380.158	65.19
380.369	95.91
380.579	30.38
380.789	42.67
380.999	69.29
381.21	-0.34
381.42	67.24
381.63	22.19
381.84	61.1
382.05	100.01
382.261	22.19
382.471	42.67
382.681	13.99
382.891	42.67
383.101	108.2
383.311	54.95
383.521	9.9
383.731	11.95
383.941	48.81
384.151	48.81
384.361	38.57
384.571	67.24
384.781	40.62
384.991	73.39
385.201	11.95
385.411	50.86
385.621	65.19
385.831	132.78
386.041	48.81
386.251	38.57
386.461	73.39
386.671	61.1
386.881	38.57
387.091	57
387.301	54.95
387.511	36.52
387.72	-10.58
387.93	42.67
388.14	1.71
388.35	30.38
388.56	63.15
388.769	52.91
388.979	-16.73
389.189	32.43
389.399	18.09
389.609	22.19
389.818	87.72
390.028	44.71
390.238	57
390.447	38.57
390.657	52.91
390.867	30.38
391.076	44.71
391.286	7.85
391.496	34.47
391.705	24.23
391.915	120.49
392.125	54.95
392.334	16.04
392.544	85.67
392.753	81.58
392.963	-22.87
393.172	77.48
393.382	59.05
393.591	50.86
393.801	63.15
394.01	30.38
394.22	54.95
394.429	61.1
394.639	69.29
394.848	85.67
395.058	59.05
395.267	120.49
395.477	57
395.686	71.34
395.895	122.54
396.105	63.15
396.314	50.86
396.524	18.09
396.733	7.85
396.942	34.47
397.152	34.47
397.361	161.45
397.57	5.8
397.78	71.34
397.989	13.99
398.198	179.88
398.407	71.34
398.617	93.87
398.826	20.14
399.035	30.38
399.244	116.39
399.453	73.39
399.663	67.24
399.872	136.87
400.081	87.72
400.29	116.39
400.499	57
400.708	120.49
400.917	106.15
401.127	26.28
401.336	79.53
401.545	175.78
401.754	159.4
401.963	46.76
402.172	75.43
402.381	112.3
402.59	63.15
402.799	132.78
403.008	143.02
403.217	114.34
403.426	155.3
403.635	63.15
403.844	73.39
404.053	87.72
404.262	106.15
404.471	30.38
404.68	102.06
404.888	181.93
405.097	65.19
405.306	149.16
405.515	89.77
405.724	177.83
405.933	112.3
406.142	114.34
406.35	145.06
406.559	190.12
406.768	140.97
406.977	122.54
407.185	114.34
407.394	194.22
407.603	149.16
407.812	241.32
408.02	157.35
408.229	208.55
408.438	173.74
408.646	210.6
408.855	122.54
409.064	235.18
409.272	163.5
409.481	224.94
409.69	169.64
409.898	194.22
410.107	183.98
410.315	231.08
410.524	222.89
410.733	226.98
410.941	186.02
411.15	358.05
411.358	247.46
411.567	319.14
411.775	263.85
411.984	272.04
412.192	349.86
412.401	360.1
412.609	327.33
412.818	306.85
413.026	394.92
413.234	386.72
413.443	358.05
413.651	396.96
413.86	394.92
414.068	499.36
414.276	478.88
414.485	425.64
414.693	452.26
414.901	489.12
415.11	456.36
415.318	446.12
415.526	573.09
415.734	597.67
415.943	542.37
416.151	618.15
416.359	659.1
416.567	657.06
416.776	587.43
416.984	628.39
417.192	685.73
417.4	747.17
417.608	667.3
417.817	704.16
418.025	775.84
418.233	833.18
418.441	824.99
418.649	861.85
418.857	827.04
419.065	939.68
419.273	1015.45
419.481	980.64
419.689	1099.42
419.897	1148.57
420.105	1093.27
420.313	1119.9
420.521	1101.47
420.729	1126.04
420.937	1203.86
421.145	1353.37
421.353	1402.52
421.561	1373.85
421.769	1478.29
421.977	1451.67
422.185	1459.86
422.393	1547.92
422.601	1654.42
422.809	1656.47
423.017	1597.07
423.224	1775.25
423.432	1902.22
423.64	1877.65
423.848	1953.42
424.056	1906.32
424.263	1922.7
424.471	2018.96
424.679	2051.72
424.887	2299.53
425.094	2426.5
425.302	2307.72
425.51	2336.39
425.718	2487.94
425.925	2498.18
426.133	2487.94
426.341	2637.44
426.548	2811.52
426.756	2852.48
426.964	2842.24
427.171	3094.14
427.379	3069.56
427.586	3120.76
427.794	3253.88
428.001	3475.06
428.209	3659.38
428.417	3479.16
428.624	3835.5
428.832	3835.5
429.039	3786.35
429.247	3761.78
429.454	4144.75
429.662	4376.17
429.869	4066.92
430.076	4324.97
430.284	4306.54
430.491	4370.02
430.699	4691.56
430.906	4736.61
431.114	4871.78
431.321	4965.98
431.528	4992.61
431.736	5361.24
431.943	5520.98
432.15	5498.45
432.358	5506.65
432.565	5817.94
432.772	5897.81
432.979	6266.44
433.187	6227.53
433.394	6229.58
433.601	6864.45
433.808	6792.77
434.016	6700.61
434.223	6899.27
434.43	7499.32
434.637	7028.29
434.844	7874.1
435.052	7958.07
435.259	7857.71
435.466	7773.75
435.673	7896.63
435.88	8394.28
436.087	8717.86
436.294	8893.99
436.501	8660.52
436.708	8781.35
436.915	9029.15
437.122	9651.74
437.329	9377.31
437.537	9836.05
437.743	10141.2
437.95	9903.64
438.157	10290.7
438.364	10714.63
438.571	10628.62
438.778	10724.87
438.985	11974.13
439.192	11322.88
439.399	11853.3
439.606	11535.87
439.813	12166.64
440.02	12805.61
440.227	12449.26
440.433	12457.45
440.64	12543.47
440.847	12746.22
441.054	13264.35
441.261	13805.02
441.467	14056.92
441.674	14235.09
441.881	14616.01
442.088	14353.87
442.294	14480.85
442.501	14517.71
442.708	15082.95
442.914	15529.41
443.121	16180.66
443.328	15852.98
443.534	17141.16
443.741	16614.83
443.948	16498.09
444.154	17460.64
444.361	17450.4
444.568	17497.5
444.774	17704.35
444.981	18159
445.187	18089.37
445.394	18953.61
445.6	18845.07
445.807	20923.76
446.013	19862.91
446.22	20202.87
446.426	20888.94
446.633	21099.88
446.839	21892.44
447.046	21054.83
447.252	22224.22
447.459	22041.95
447.665	21921.12
447.871	23172.43
448.078	23956.8
448.284	22885.71
448.491	23536.96
448.697	24747.31
448.903	25056.56
449.11	25208.11
449.316	24687.92
449.522	25171.24
449.728	25623.84
449.935	25986.33
450.141	25754.91
450.347	26613.01
450.553	25724.19
450.76	25945.37
450.966	27049.23
451.172	26529.05
451.378	27256.07
451.584	26864.91
451.791	27200.78
451.997	27268.36
452.203	27794.69
452.409	28095.74
452.615	27901.18
452.821	26410.26
453.027	26483.99
453.233	27940.1
453.44	27053.33
453.646	27217.16
453.852	27182.35
454.058	27870.47
454.264	26692.88
454.47	27536.65
454.676	26834.19
454.882	27997.44
455.088	25314.6
455.294	25734.43
455.5	25675.04
455.705	26465.56
455.911	25109.8
456.117	24659.25
456.323	24868.14
456.529	23321.93
456.735	24481.08
456.941	23760.19
457.147	23201.1
457.352	22308.18
457.558	22248.79
457.764	22396.24
457.97	21831.01
458.176	21398.88
458.381	21208.42
458.587	20508.02
458.793	20446.58
458.999	19508.61
459.204	20753.77
459.41	20333.94
459.616	18824.59
459.821	19004.81
460.027	19006.86
460.233	18396.56
460.438	17474.98
460.644	17665.44
460.85	16848.3
461.055	16956.84
461.261	16801.19
461.466	15601.08
461.672	14919.11
461.878	15955.38
462.083	15242.69
462.289	14525.9
462.494	14589.39
462.7	14061.01
462.905	13641.18
463.111	14108.12
463.316	14271.95
463.522	13831.64
463.727	13927.89
463.932	14050.77
464.138	13641.18
464.343	13839.83
464.549	13573.6
464.754	13710.81
464.959	13723.1
465.165	13643.23
465.37	13233.63
465.575	12609
465.781	13313.5
465.986	13440.48
466.191	13041.12
466.397	12735.98
466.602	11879.93
466.807	12568.04
467.012	12801.51
467.218	12715.5
467.423	12244.46
467.628	12420.59
467.833	12940.77
468.038	12375.53
468.244	12097.01
