Data from USB4F104151__95__12-54-55-607.txt Node

Date: Fri Mar 14 12:54:55 EDT 2025
User: louis
Spectrometer: USB4F10415
Trigger mode: 4
Integration Time (sec): 1.000000E-2
Scans to average: 1
Electric dark correction enabled: true
Nonlinearity correction enabled: false
Boxcar width: 0
XAxis mode: Wavelengths
Number of Pixels in Spectrum: 3648
>>>>>Begin Spectral Data<<<<<
178.204	-64.68
178.424	-64.68
178.644	-64.68
178.864	-72.87
179.084	-62.63
179.304	-19.63
179.524	70.48
179.744	-1.19
179.964	-5.29
180.184	17.24
180.404	23.38
180.624	25.43
180.844	17.24
181.064	-31.91
181.283	-38.06
181.503	-62.63
181.723	4.95
181.943	2.9
182.163	0.85
182.383	-64.68
182.602	43.86
182.822	-42.15
183.042	68.44
183.262	-9.39
183.482	27.48
183.701	0.85
183.921	-3.24
184.141	7
184.361	-31.91
184.58	4.95
184.8	-70.83
185.02	-23.72
185.239	4.95
185.459	-19.63
185.679	60.24
185.898	-5.29
186.118	13.14
186.338	0.85
186.557	7
186.777	-3.24
186.997	-19.63
187.216	-99.5
187.436	29.52
187.655	47.96
187.875	-124.07
188.095	52.05
188.314	25.43
188.534	-50.35
188.753	-13.48
188.973	-64.68
189.192	0.85
189.412	-44.2
189.631	0.85
189.851	13.14
190.07	-74.92
190.29	9.05
190.509	52.05
190.729	-7.34
190.948	-66.73
191.168	25.43
191.387	-19.63
191.607	-38.06
191.826	-38.06
192.045	-15.53
192.265	-27.82
192.484	117.59
192.704	68.44
192.923	41.81
193.142	9.05
193.362	-56.49
193.581	17.24
193.8	60.24
194.02	23.38
194.239	-27.82
194.458	-58.54
194.678	-23.72
194.897	11.09
195.116	11.09
195.335	-9.39
195.555	29.52
195.774	-27.82
195.993	27.48
196.212	-31.91
196.432	52.05
196.651	-36.01
196.87	-17.58
197.089	-5.29
197.308	-27.82
197.528	50
197.747	-44.2
197.966	29.52
198.185	-7.34
198.404	-60.59
198.623	21.33
198.842	-29.87
199.062	15.19
199.281	29.52
199.5	-27.82
199.719	19.29
199.938	0.85
200.157	2.9
200.376	-5.29
200.595	-29.87
200.814	-70.83
201.033	19.29
201.252	-25.77
201.471	-13.48
201.69	-11.43
201.909	2.9
202.128	25.43
202.347	29.52
202.566	-9.39
202.785	-38.06
203.004	-9.39
203.223	-76.97
203.442	-38.06
203.661	-7.34
203.879	99.16
204.098	11.09
204.317	43.86
204.536	45.91
204.755	-29.87
204.974	-9.39
205.193	-19.63
205.411	90.96
205.63	-93.35
205.849	4.95
206.068	-74.92
206.287	17.24
206.505	2.9
206.724	11.09
206.943	29.52
207.162	11.09
207.381	-9.39
207.599	-15.53
207.818	-11.43
208.037	-23.72
208.255	-36.01
208.474	2.9
208.693	-60.59
208.911	13.14
209.13	64.34
209.349	64.34
209.567	41.81
209.786	-31.91
210.005	-1.19
210.223	7
210.442	-15.53
210.661	0.85
210.879	-17.58
211.098	9.05
211.316	-15.53
211.535	4.95
211.753	27.48
211.972	2.9
212.191	-19.63
212.409	-36.01
212.628	60.24
212.846	-46.25
213.065	68.44
213.283	31.57
213.502	74.58
213.72	-46.25
213.938	-15.53
214.157	7
214.375	37.72
214.594	7
214.812	-13.48
215.031	-33.96
215.249	-13.48
215.467	-1.19
215.686	-25.77
215.904	29.52
216.122	11.09
216.341	21.33
216.559	43.86
216.778	7
216.996	-11.43
217.214	25.43
217.432	-52.39
217.651	33.62
217.869	-52.39
218.087	39.76
218.306	-5.29
218.524	-44.2
218.742	15.19
218.96	-19.63
219.179	2.9
219.397	-36.01
219.615	33.62
219.833	9.05
220.051	4.95
220.27	45.91
220.488	15.19
220.706	0.85
220.924	-46.25
221.142	45.91
221.36	-5.29
221.578	43.86
221.796	7
222.015	27.48
222.233	-70.83
222.451	27.48
222.669	-25.77
222.887	-70.83
223.105	-52.39
223.323	-56.49
223.541	-21.67
223.759	11.09
223.977	13.14
224.195	-50.35
224.413	41.81
224.631	33.62
224.849	-3.24
225.067	-11.43
225.285	-5.29
225.503	-31.91
225.721	-17.58
225.939	21.33
226.157	0.85
226.375	58.2
226.592	-9.39
226.81	-15.53
227.028	-38.06
227.246	39.76
227.464	7
227.682	15.19
227.9	-36.01
228.117	-7.34
228.335	19.29
228.553	13.14
228.771	11.09
228.989	62.29
229.206	-29.87
229.424	-40.11
229.642	-11.43
229.86	-33.96
230.077	25.43
230.295	-36.01
230.513	21.33
230.731	-1.19
230.948	-23.72
231.166	78.68
231.384	-76.97
231.601	2.9
231.819	21.33
232.037	-3.24
232.254	-79.02
232.472	43.86
232.689	-38.06
232.907	4.95
233.125	31.57
233.342	-25.77
233.56	-38.06
233.777	-5.29
233.995	9.05
234.213	27.48
234.43	-56.49
234.648	27.48
234.865	-107.69
235.083	11.09
235.3	-42.15
235.518	-21.67
235.735	-40.11
235.953	-23.72
236.17	31.57
236.388	56.15
236.605	7
236.822	15.19
237.04	21.33
237.257	19.29
237.475	-40.11
237.692	-44.2
237.909	-1.19
238.127	7
238.344	62.29
238.562	-3.24
238.779	29.52
238.996	39.76
239.214	-29.87
239.431	-1.19
239.648	19.29
239.865	-13.48
240.083	-87.21
240.3	33.62
240.517	-76.97
240.735	-7.34
240.952	-13.48
241.169	11.09
241.386	-81.07
241.603	43.86
241.821	27.48
242.038	107.35
242.255	54.1
242.472	-40.11
242.689	15.19
242.907	-60.59
243.124	19.29
243.341	41.81
243.558	13.14
243.775	-42.15
243.992	-50.35
244.209	45.91
244.426	-36.01
244.643	39.76
244.86	-46.25
245.078	-3.24
245.295	-11.43
245.512	-36.01
245.729	-25.77
245.946	-17.58
246.163	-62.63
246.38	4.95
246.597	11.09
246.814	62.29
247.031	54.1
247.248	-27.82
247.464	39.76
247.681	-70.83
247.898	-1.19
248.115	-11.43
248.332	-93.35
248.549	-5.29
248.766	-36.01
248.983	-15.53
249.2	-7.34
249.417	-1.19
249.633	-62.63
249.85	4.95
250.067	-5.29
250.284	13.14
250.501	-52.39
250.717	-74.92
250.934	-17.58
251.151	27.48
251.368	-17.58
251.585	78.68
251.801	2.9
252.018	-31.91
252.235	13.14
252.451	-29.87
252.668	-48.3
252.885	0.85
253.102	-74.92
253.318	-11.43
253.535	-1.19
253.752	21.33
253.968	21.33
254.185	0.85
254.401	37.72
254.618	23.38
254.835	-11.43
255.051	-5.29
255.268	-27.82
255.484	27.48
255.701	101.2
255.917	11.09
256.134	4.95
256.351	-15.53
256.567	15.19
256.784	-46.25
257	-52.39
257.217	37.72
257.433	-56.49
257.65	80.72
257.866	41.81
258.082	-11.43
258.299	-1.19
258.515	-7.34
258.732	-9.39
258.948	2.9
259.165	7
259.381	-33.96
259.597	-17.58
259.814	-5.29
260.03	43.86
260.246	-29.87
260.463	-7.34
260.679	4.95
260.895	-44.2
261.112	78.68
261.328	-15.53
261.544	29.52
261.761	11.09
261.977	47.96
262.193	-91.31
262.409	21.33
262.626	27.48
262.842	13.14
263.058	2.9
263.274	52.05
263.49	39.76
263.707	45.91
263.923	19.29
264.139	-58.54
264.355	-54.44
264.571	47.96
264.787	2.9
265.004	-40.11
265.22	-54.44
265.436	-64.68
265.652	-19.63
265.868	0.85
266.084	-7.34
266.3	19.29
266.516	-33.96
266.732	-64.68
266.948	-29.87
267.164	31.57
267.38	11.09
267.596	-3.24
267.812	7
268.028	-62.63
268.244	19.29
268.46	19.29
268.676	-3.24
268.892	7
269.108	35.67
269.324	15.19
269.54	-11.43
269.756	-11.43
269.972	-15.53
270.188	-1.19
270.403	-54.44
270.619	-7.34
270.835	-1.19
271.051	-56.49
271.267	45.91
271.483	11.09
271.698	0.85
271.914	50
272.13	11.09
272.346	-33.96
272.562	2.9
272.777	2.9
272.993	52.05
273.209	58.2
273.425	-21.67
273.64	-46.25
273.856	-40.11
274.072	-27.82
274.287	-23.72
274.503	-19.63
274.719	11.09
274.934	-36.01
275.15	-44.2
275.366	-38.06
275.581	45.91
275.797	-27.82
276.012	-1.19
276.228	41.81
276.444	35.67
276.659	7
276.875	29.52
277.09	-19.63
277.306	35.67
277.521	-38.06
277.737	-46.25
277.952	23.38
278.168	-3.24
278.383	-19.63
278.599	-25.77
278.814	-52.39
279.03	-60.59
279.245	-40.11
279.461	-1.19
279.676	-21.67
279.892	-62.63
280.107	-23.72
280.322	56.15
280.538	-60.59
280.753	-54.44
280.969	31.57
281.184	-79.02
281.399	97.11
281.615	-3.24
281.83	13.14
282.045	-3.24
282.26	-3.24
282.476	37.72
282.691	0.85
282.906	4.95
283.122	50
283.337	13.14
283.552	43.86
283.767	13.14
283.983	0.85
284.198	-9.39
284.413	35.67
284.628	-11.43
284.843	13.14
285.058	-11.43
285.274	-21.67
285.489	-19.63
285.704	45.91
285.919	-56.49
286.134	56.15
286.349	-5.29
286.564	-27.82
286.779	-31.91
286.995	-76.97
287.21	0.85
287.425	-19.63
287.64	-13.48
287.855	-38.06
288.07	13.14
288.285	21.33
288.5	-66.73
288.715	39.76
288.93	-23.72
289.145	-29.87
289.36	9.05
289.575	11.09
289.79	56.15
290.004	25.43
290.219	27.48
290.434	-40.11
290.649	9.05
290.864	58.2
291.079	-11.43
291.294	-17.58
291.509	-13.48
291.724	23.38
291.938	-44.2
292.153	7
292.368	47.96
292.583	25.43
292.798	-5.29
293.012	23.38
293.227	-42.15
293.442	-1.19
293.657	-36.01
293.871	50
294.086	29.52
294.301	15.19
294.516	-33.96
294.73	-38.06
294.945	-48.3
295.16	13.14
295.374	-9.39
295.589	29.52
295.804	-17.58
296.018	-11.43
296.233	-38.06
296.447	-9.39
296.662	7
296.877	-13.48
297.091	99.16
297.306	-25.77
297.52	15.19
297.735	-9.39
297.949	0.85
298.164	-5.29
298.378	-17.58
298.593	0.85
298.807	-15.53
299.022	-3.24
299.236	-1.19
299.451	-15.53
299.665	-13.48
299.88	41.81
300.094	-21.67
300.309	-11.43
300.523	-25.77
300.737	80.72
300.952	13.14
301.166	-38.06
301.381	-54.44
301.595	0.85
301.809	23.38
302.024	37.72
302.238	41.81
302.452	39.76
302.667	-95.4
302.881	29.52
303.095	0.85
303.309	0.85
303.524	9.05
303.738	-38.06
303.952	52.05
304.166	39.76
304.381	-5.29
304.595	-13.48
304.809	-21.67
305.023	-17.58
305.237	37.72
305.452	-25.77
305.666	-3.24
305.88	-25.77
306.094	-17.58
306.308	-1.19
306.522	33.62
306.736	-21.67
306.95	9.05
307.164	15.19
307.379	-13.48
307.593	15.19
307.807	-15.53
308.021	41.81
308.235	50
308.449	-29.87
308.663	-7.34
308.877	-23.72
309.091	-11.43
309.305	-38.06
309.519	-13.48
309.733	-21.67
309.947	-21.67
310.161	70.48
310.374	-44.2
310.588	21.33
310.802	-50.35
311.016	-3.24
311.23	0.85
311.444	88.92
311.658	43.86
311.872	-17.58
312.085	43.86
312.299	84.82
312.513	-17.58
312.727	2.9
312.941	21.33
313.154	-3.24
313.368	-54.44
313.582	15.19
313.796	2.9
314.009	-48.3
314.223	23.38
314.437	47.96
314.651	21.33
314.864	-19.63
315.078	-54.44
315.292	37.72
315.505	-46.25
315.719	35.67
315.933	-23.72
316.146	11.09
316.36	-9.39
316.573	17.24
316.787	31.57
317.001	7
317.214	-25.77
317.428	-44.2
317.641	-79.02
317.855	-21.67
318.068	-7.34
318.282	2.9
318.495	-64.68
318.709	19.29
318.922	11.09
319.136	35.67
319.349	-15.53
319.563	-5.29
319.776	-19.63
319.99	-3.24
320.203	-38.06
320.417	4.95
320.63	84.82
320.843	45.91
321.057	33.62
321.27	-11.43
321.483	-15.53
321.697	29.52
321.91	35.67
322.124	19.29
322.337	29.52
322.55	-46.25
322.763	-9.39
322.977	52.05
323.19	-15.53
323.403	-7.34
323.617	41.81
323.83	62.29
324.043	37.72
324.256	52.05
324.469	60.24
324.683	19.29
324.896	21.33
325.109	-17.58
325.322	-36.01
325.535	-13.48
325.748	84.82
325.962	-70.83
326.175	25.43
326.388	-9.39
326.601	50
326.814	21.33
327.027	15.19
327.24	64.34
327.453	-31.91
327.666	29.52
327.879	-3.24
328.092	21.33
328.305	23.38
328.518	15.19
328.731	7
328.944	19.29
329.157	23.38
329.37	27.48
329.583	93.01
329.796	60.24
330.009	-23.72
330.222	62.29
330.435	27.48
330.648	35.67
330.861	4.95
331.073	-46.25
331.286	-17.58
331.499	-17.58
331.712	-15.53
331.925	2.9
332.138	13.14
332.35	29.52
332.563	17.24
332.776	-50.35
332.989	-13.48
333.202	-15.53
333.414	-50.35
333.627	31.57
333.84	0.85
334.053	11.09
334.265	-29.87
334.478	-38.06
334.691	19.29
334.903	23.38
335.116	29.52
335.329	-15.53
335.541	-76.97
335.754	43.86
335.966	-42.15
336.179	-36.01
336.392	-13.48
336.604	-25.77
336.817	-1.19
337.029	15.19
337.242	25.43
337.454	9.05
337.667	-25.77
337.88	7
338.092	33.62
338.305	-3.24
338.517	56.15
338.729	-15.53
338.942	-11.43
339.154	-13.48
339.367	9.05
339.579	-62.63
339.792	21.33
340.004	25.43
340.217	-1.19
340.429	-38.06
340.641	-3.24
340.854	0.85
341.066	-111.78
341.278	9.05
341.491	-11.43
341.703	-38.06
341.915	9.05
342.128	-27.82
342.34	-27.82
342.552	9.05
342.764	52.05
342.977	-21.67
343.189	11.09
343.401	7
343.613	-68.78
343.826	4.95
344.038	-62.63
344.25	19.29
344.462	-29.87
344.674	27.48
344.886	-1.19
345.099	-17.58
345.311	33.62
345.523	47.96
345.735	-87.21
345.947	54.1
346.159	7
346.371	-1.19
346.583	-33.96
346.795	27.48
347.007	-76.97
347.219	-9.39
347.431	-13.48
347.643	-15.53
347.855	-15.53
348.067	-29.87
348.279	-17.58
348.491	0.85
348.703	-42.15
348.915	-33.96
349.127	21.33
349.339	72.53
349.551	0.85
349.763	11.09
349.975	-17.58
350.187	39.76
350.399	29.52
350.61	25.43
350.822	-11.43
351.034	54.1
351.246	-19.63
351.458	-25.77
351.669	66.39
351.881	35.67
352.093	27.48
352.305	37.72
352.517	-19.63
352.728	-25.77
352.94	31.57
353.152	23.38
353.363	29.52
353.575	-13.48
353.787	31.57
353.999	-27.82
354.21	25.43
354.422	33.62
354.633	-1.19
354.845	-36.01
355.057	-11.43
355.268	37.72
355.48	41.81
355.692	37.72
355.903	-3.24
356.115	-9.39
356.326	-29.87
356.538	-29.87
356.749	-7.34
356.961	78.68
357.172	-27.82
357.384	2.9
357.595	64.34
357.807	64.34
358.018	23.38
358.23	37.72
358.441	17.24
358.653	19.29
358.864	-27.82
359.075	-11.43
359.287	-15.53
359.498	35.67
359.709	-13.48
359.921	19.29
360.132	-1.19
360.344	-13.48
360.555	35.67
360.766	-13.48
360.977	7
361.189	105.3
361.4	-17.58
361.611	21.33
361.823	-19.63
362.034	-31.91
362.245	-64.68
362.456	-48.3
362.667	37.72
362.879	15.19
363.09	-52.39
363.301	-13.48
363.512	-50.35
363.723	19.29
363.935	43.86
364.146	13.14
364.357	-11.43
364.568	47.96
364.779	-27.82
364.99	-7.34
365.201	-50.35
365.412	43.86
365.623	-3.24
365.834	-3.24
366.045	-23.72
366.256	-54.44
366.467	-31.91
366.678	54.1
366.889	-13.48
367.1	41.81
367.311	58.2
367.522	64.34
367.733	21.33
367.944	23.38
368.155	39.76
368.366	-11.43
368.577	-25.77
368.788	-19.63
368.999	21.33
369.209	-13.48
369.42	-25.77
369.631	58.2
369.842	29.52
370.053	-21.67
370.264	-11.43
370.474	-42.15
370.685	-13.48
370.896	11.09
371.107	-17.58
371.317	-5.29
371.528	39.76
371.739	29.52
371.95	-38.06
372.16	43.86
372.371	15.19
372.582	47.96
372.792	56.15
373.003	-3.24
373.214	-3.24
373.424	66.39
373.635	72.53
373.846	-15.53
374.056	11.09
374.267	4.95
374.477	50
374.688	-1.19
374.898	76.63
375.109	-5.29
375.319	-11.43
375.53	-46.25
375.74	-17.58
375.951	-36.01
376.161	31.57
376.372	37.72
376.582	-13.48
376.793	9.05
377.003	-36.01
377.214	-11.43
377.424	35.67
377.635	23.38
377.845	11.09
378.055	11.09
378.266	-36.01
378.476	-44.2
378.686	29.52
378.897	-9.39
379.107	17.24
379.317	60.24
379.528	33.62
379.738	9.05
379.948	13.14
380.158	17.24
380.369	-21.67
380.579	33.62
380.789	13.14
380.999	19.29
381.21	-36.01
381.42	-5.29
381.63	-33.96
381.84	15.19
382.05	33.62
382.261	15.19
382.471	68.44
382.681	21.33
382.891	15.19
383.101	15.19
383.311	-9.39
383.521	-5.29
383.731	-87.21
383.941	111.44
384.151	11.09
384.361	43.86
384.571	-13.48
384.781	7
384.991	50
385.201	-11.43
385.411	15.19
385.621	-29.87
385.831	-27.82
386.041	9.05
386.251	17.24
386.461	64.34
386.671	86.87
386.881	37.72
387.091	-40.11
387.301	21.33
387.511	54.1
387.72	31.57
387.93	15.19
388.14	-19.63
388.35	-42.15
388.56	-33.96
388.769	-9.39
388.979	19.29
389.189	97.11
389.399	-25.77
389.609	25.43
389.818	-11.43
390.028	-36.01
390.238	-38.06
390.447	33.62
390.657	-60.59
390.867	17.24
391.076	-3.24
391.286	29.52
391.496	41.81
391.705	84.82
391.915	-5.29
392.125	50
392.334	-29.87
392.544	-46.25
392.753	13.14
392.963	58.2
393.172	-27.82
393.382	17.24
393.591	2.9
393.801	-3.24
394.01	-1.19
394.22	17.24
394.429	31.57
394.639	-54.44
394.848	-5.29
395.058	-23.72
395.267	27.48
395.477	2.9
395.686	58.2
395.895	11.09
396.105	27.48
396.314	-42.15
396.524	-11.43
396.733	25.43
396.942	86.87
397.152	148.31
397.361	33.62
397.57	-36.01
397.78	37.72
397.989	84.82
398.198	-38.06
398.407	64.34
398.617	56.15
398.826	-3.24
399.035	80.72
399.244	45.91
399.453	-42.15
399.663	17.24
399.872	35.67
400.081	2.9
400.29	4.95
400.499	-5.29
400.708	45.91
400.917	66.39
401.127	-5.29
401.336	17.24
401.545	95.06
401.754	47.96
401.963	43.86
402.172	-29.87
402.381	47.96
402.59	47.96
402.799	45.91
403.008	-19.63
403.217	50
403.426	43.86
403.635	62.29
403.844	19.29
404.053	84.82
404.262	2.9
404.471	113.49
404.68	15.19
404.888	52.05
405.097	-9.39
405.306	45.91
405.515	-21.67
405.724	4.95
405.933	45.91
406.142	58.2
406.35	9.05
406.559	-31.91
406.768	88.92
406.977	101.2
407.185	74.58
407.394	41.81
407.603	43.86
407.812	84.82
408.02	93.01
408.229	115.54
408.438	25.43
408.646	25.43
408.855	76.63
409.064	76.63
409.272	-40.11
409.481	168.79
409.69	60.24
409.898	43.86
410.107	35.67
410.315	133.97
410.524	56.15
410.733	60.24
410.941	107.35
411.15	95.06
411.358	136.02
411.567	176.98
411.775	129.88
411.984	88.92
412.192	154.45
412.401	164.69
412.609	138.07
412.818	131.92
413.026	156.5
413.234	99.16
413.443	88.92
413.651	101.2
413.86	138.07
414.068	99.16
414.276	150.36
414.485	234.32
414.693	117.59
414.901	238.42
415.11	226.13
415.318	179.03
415.526	301.9
415.734	150.36
415.943	236.37
416.151	176.98
416.359	226.13
416.567	179.03
416.776	316.24
416.984	287.57
417.192	230.23
417.4	297.81
417.608	271.19
417.817	342.86
418.025	287.57
418.233	367.44
418.441	402.26
418.649	428.88
418.857	392.02
419.065	432.97
419.273	381.78
419.481	473.93
419.689	381.78
419.897	453.45
420.105	461.65
420.313	518.99
420.521	461.65
420.729	535.37
420.937	576.33
421.145	541.52
421.353	502.61
421.561	570.19
421.769	586.57
421.977	613.2
422.185	518.99
422.393	617.29
422.601	588.62
422.809	629.58
423.017	715.59
423.224	721.74
423.432	752.46
423.64	838.47
423.848	840.52
424.056	693.07
424.263	904.01
424.471	871.24
424.679	828.23
424.887	936.78
425.094	947.01
425.302	1000.26
425.51	920.39
425.718	1061.7
425.925	936.78
426.133	1076.04
426.341	1102.66
426.548	1258.31
426.756	1147.72
426.964	1229.63
427.171	1266.5
427.379	1305.41
427.586	1299.27
427.794	1311.55
428.001	1407.81
428.209	1491.77
428.417	1475.39
428.624	1542.97
428.832	1569.6
429.039	1622.84
429.247	1514.3
429.454	1747.77
429.662	1833.79
429.869	1784.63
430.076	1932.09
430.284	1882.94
430.491	1825.59
430.699	1942.33
430.906	2054.97
431.114	1913.66
431.321	2028.34
431.528	2014.01
431.736	2241.33
431.943	2327.35
432.15	2224.95
432.358	2302.77
432.565	2462.51
432.772	2386.74
432.979	2564.91
433.187	2566.96
433.394	2612.01
433.601	2618.16
433.808	2757.42
434.016	2714.41
434.223	2923.3
434.43	3091.24
434.637	2964.26
434.844	3115.81
435.052	3283.75
435.259	3058.47
435.466	3197.73
435.673	3205.92
435.88	3506.98
436.087	3642.14
436.294	3672.86
436.501	3535.65
436.708	3560.22
436.915	3623.71
437.122	3842.84
437.329	3973.91
437.537	3998.49
437.743	4035.35
437.95	4064.02
438.157	4180.76
438.364	4277.01
438.571	4363.03
438.778	4317.97
438.985	4680.46
439.192	4625.17
439.399	4791.05
439.606	4621.07
439.813	4848.4
440.02	5331.72
440.227	5192.45
440.433	5085.96
440.64	5247.75
440.847	5165.83
441.054	5307.14
441.261	5581.57
441.467	5612.29
441.674	5593.86
441.881	5794.56
442.088	5974.78
442.294	5962.49
442.501	6077.18
442.708	6257.4
442.914	6501.11
443.121	6687.47
443.328	6355.7
443.534	7156.46
443.741	6537.97
443.948	6712.05
444.154	7224.04
444.361	7181.03
444.568	7135.98
444.774	7305.96
444.981	7170.79
445.187	7482.08
445.394	7850.72
445.6	7815.9
445.807	8567.51
446.013	8026.84
446.22	8284.89
446.426	8751.82
446.633	8665.81
446.839	8876.75
447.046	8467.16
447.252	9145.03
447.459	9030.35
447.665	9095.88
447.871	9495.24
448.078	10042.04
448.284	9478.85
448.491	9685.7
448.697	9941.69
448.903	10040
449.11	10199.74
449.316	10007.23
449.522	10197.69
449.728	10681.01
449.935	10668.72
450.141	10607.28
450.347	11066.03
450.553	10451.64
450.76	10638
450.966	11004.59
451.172	11080.36
451.378	11129.52
451.584	10947.25
451.791	11393.7
451.997	11125.42
452.203	11416.23
452.409	11385.51
452.615	11266.73
452.821	11070.12
453.027	10963.63
453.233	11299.5
453.44	10836.66
453.646	10885.81
453.852	11168.43
454.058	11336.36
454.264	10885.81
454.47	11279.02
454.676	10830.51
454.882	11172.52
455.088	10187.45
455.294	10689.2
455.5	10736.31
455.705	10771.12
455.911	10312.38
456.117	10195.64
456.323	9970.37
456.529	9644.74
456.735	9818.82
456.941	9671.36
457.147	9464.52
457.352	9149.13
457.558	9183.95
457.764	9048.78
457.97	8794.83
458.176	8815.31
458.381	8731.34
458.587	8270.55
458.793	8243.93
458.999	7850.72
459.204	8301.27
459.41	8078.04
459.616	7584.48
459.821	7488.23
460.027	7494.37
460.233	7363.3
460.438	7068.39
460.644	7150.31
460.85	6675.18
461.055	6748.91
461.261	6607.6
461.466	6177.53
461.672	6107.9
461.878	6396.66
462.083	5958.39
462.289	5868.28
462.494	5872.38
462.7	5626.62
462.905	5475.07
463.111	5522.18
463.316	5673.73
463.522	5356.29
463.727	5552.9
463.932	5503.75
464.138	5280.52
464.343	5423.87
464.549	5165.83
464.754	5432.07
464.959	5456.64
465.165	5477.12
465.37	5145.35
465.575	4930.31
465.781	5333.76
465.986	5288.71
466.191	4969.23
466.397	4981.51
466.602	4772.62
466.807	4961.03
467.012	4991.75
467.218	4963.08
467.423	4901.64
467.628	4979.47
467.833	5071.62
468.038	4797.2
468.244	4725.52
468.449	4975.37
468.654	4840.2
