Data from USB4F104151__48__12-53-55-114.txt Node

Date: Fri Mar 14 12:53:55 EDT 2025
User: louis
Spectrometer: USB4F10415
Trigger mode: 4
Integration Time (sec): 1.000000E-2
Scans to average: 1
Electric dark correction enabled: true
Nonlinearity correction enabled: false
Boxcar width: 0
XAxis mode: Wavelengths
Number of Pixels in Spectrum: 3648
>>>>>Begin Spectral Data<<<<<
178.204	-145.75
178.424	-145.75
178.644	-145.75
178.864	-20.82
179.084	-0.34
179.304	-35.16
179.524	-59.73
179.744	7.85
179.964	38.57
180.184	-59.73
180.404	59.05
180.624	-10.58
180.844	18.09
181.064	3.75
181.283	16.04
181.503	-2.39
181.723	24.23
181.943	28.33
182.163	-26.96
182.383	-51.54
182.602	-14.68
182.822	34.47
183.042	-53.59
183.262	-2.39
183.482	-26.96
183.701	-86.36
183.921	-22.87
184.141	-12.63
184.361	-31.06
184.58	-20.82
184.8	-8.53
185.02	-33.11
185.239	5.8
185.459	9.9
185.679	-22.87
185.898	1.71
186.118	30.38
186.338	-18.77
186.557	67.24
186.777	16.04
186.997	-16.73
187.216	-37.2
187.436	-16.73
187.655	-0.34
187.875	1.71
188.095	9.9
188.314	75.43
188.534	-20.82
188.753	3.75
188.973	38.57
189.192	-31.06
189.412	-12.63
189.631	-24.92
189.851	24.23
190.07	95.91
190.29	-74.07
190.509	38.57
190.729	-29.01
190.948	36.52
191.168	13.99
191.387	-0.34
191.607	-8.53
191.826	42.67
192.045	-16.73
192.265	30.38
192.484	-31.06
192.704	-14.68
192.923	-0.34
193.142	79.53
193.362	-29.01
193.581	30.38
193.8	20.14
194.02	52.91
194.239	24.23
194.458	-6.49
194.678	-51.54
194.897	89.77
195.116	-22.87
195.335	3.75
195.555	-24.92
195.774	26.28
195.993	9.9
196.212	22.19
196.432	38.57
196.651	-39.25
196.87	-16.73
197.089	34.47
197.308	11.95
197.528	44.71
197.747	-47.44
197.966	-16.73
198.185	73.39
198.404	-26.96
198.623	-2.39
198.842	57
199.062	32.43
199.281	50.86
199.5	-0.34
199.719	18.09
199.938	-49.49
200.157	22.19
200.376	9.9
200.595	16.04
200.814	-31.06
201.033	-12.63
201.252	30.38
201.471	-14.68
201.69	5.8
201.909	36.52
202.128	13.99
202.347	-2.39
202.566	-16.73
202.785	26.28
203.004	16.04
203.223	-8.53
203.442	32.43
203.661	-57.68
203.879	18.09
204.098	118.44
204.317	7.85
204.536	69.29
204.755	34.47
204.974	22.19
205.193	32.43
205.411	69.29
205.63	48.81
205.849	-10.58
206.068	32.43
206.287	-0.34
206.505	18.09
206.724	-10.58
206.943	34.47
207.162	40.62
207.381	-43.35
207.599	48.81
207.818	-55.64
208.037	-20.82
208.255	-4.44
208.474	42.67
208.693	7.85
208.911	-16.73
209.13	20.14
209.349	-37.2
209.567	38.57
209.786	-59.73
210.005	67.24
210.223	30.38
210.442	36.52
210.661	11.95
210.879	-0.34
211.098	-6.49
211.316	-57.68
211.535	63.15
211.753	-22.87
211.972	38.57
212.191	5.8
212.409	-20.82
212.628	46.76
212.846	-33.11
213.065	-12.63
213.283	20.14
213.502	-8.53
213.72	-45.4
213.938	1.71
214.157	11.95
214.375	11.95
214.594	1.71
214.812	1.71
215.031	-16.73
215.249	5.8
215.467	-35.16
215.686	-6.49
215.904	-18.77
216.122	54.95
216.341	-16.73
216.559	-2.39
216.778	-72.02
216.996	-37.2
217.214	-0.34
217.432	36.52
217.651	-8.53
217.869	13.99
218.087	38.57
218.306	63.15
218.524	46.76
218.742	18.09
218.96	-6.49
219.179	3.75
219.397	-10.58
219.615	54.95
219.833	13.99
220.051	-31.06
220.27	-0.34
220.488	5.8
220.706	40.62
220.924	-8.53
221.142	61.1
221.36	20.14
221.578	5.8
221.796	-78.16
222.015	13.99
222.233	83.63
222.451	20.14
222.669	-80.21
222.887	5.8
223.105	38.57
223.323	24.23
223.541	-24.92
223.759	20.14
223.977	-41.3
224.195	-26.96
224.413	-8.53
224.631	28.33
224.849	-8.53
225.067	18.09
225.285	61.1
225.503	9.9
225.721	-26.96
225.939	-26.96
226.157	-2.39
226.375	32.43
226.592	-57.68
226.81	-4.44
227.028	67.24
227.246	-4.44
227.464	3.75
227.682	28.33
227.9	22.19
228.117	100.01
228.335	-26.96
228.553	-12.63
228.771	-33.11
228.989	-65.88
229.206	13.99
229.424	65.19
229.642	-51.54
229.86	22.19
230.077	61.1
230.295	-65.88
230.513	11.95
230.731	16.04
230.948	-59.73
231.166	32.43
231.384	81.58
231.601	36.52
231.819	16.04
232.037	38.57
232.254	-35.16
232.472	16.04
232.689	9.9
232.907	-41.3
233.125	38.57
233.342	-47.44
233.56	22.19
233.777	-20.82
233.995	-49.49
234.213	-51.54
234.43	-2.39
234.648	1.71
234.865	-43.35
235.083	16.04
235.3	30.38
235.518	75.43
235.735	22.19
235.953	5.8
236.17	24.23
236.388	40.62
236.605	48.81
236.822	-51.54
237.04	34.47
237.257	30.38
237.475	48.81
237.692	28.33
237.909	-45.4
238.127	-2.39
238.344	-33.11
238.562	22.19
238.779	-80.21
238.996	-59.73
239.214	9.9
239.431	26.28
239.648	11.95
239.865	-43.35
240.083	95.91
240.3	26.28
240.517	-18.77
240.735	-12.63
240.952	54.95
241.169	5.8
241.386	-53.59
241.603	71.34
241.821	26.28
242.038	-61.78
242.255	-35.16
242.472	24.23
242.689	11.95
242.907	83.63
243.124	-24.92
243.341	81.58
243.558	-10.58
243.775	100.01
243.992	11.95
244.209	36.52
244.426	-2.39
244.643	-37.2
244.86	5.8
245.078	65.19
245.295	7.85
245.512	42.67
245.729	-8.53
245.946	32.43
246.163	48.81
246.38	13.99
246.597	-14.68
246.814	-29.01
247.031	-6.49
247.248	11.95
247.464	-31.06
247.681	44.71
247.898	-39.25
248.115	-67.92
248.332	-43.35
248.549	77.48
248.766	-16.73
248.983	9.9
249.2	-72.02
249.417	7.85
249.633	-4.44
249.85	-18.77
250.067	-14.68
250.284	26.28
250.501	57
250.717	-47.44
250.934	-49.49
251.151	-59.73
251.368	-33.11
251.585	-53.59
251.801	-6.49
252.018	-14.68
252.235	9.9
252.451	34.47
252.668	32.43
252.885	-18.77
253.102	-6.49
253.318	-2.39
253.535	16.04
253.752	18.09
253.968	-57.68
254.185	3.75
254.401	122.54
254.618	-12.63
254.835	59.05
255.051	63.15
255.268	-0.34
255.484	1.71
255.701	20.14
255.917	81.58
256.134	40.62
256.351	36.52
256.567	50.86
256.784	-53.59
257	20.14
257.217	16.04
257.433	42.67
257.65	71.34
257.866	24.23
258.082	-22.87
258.299	30.38
258.515	5.8
258.732	11.95
258.948	-22.87
259.165	1.71
259.381	1.71
259.597	54.95
259.814	-53.59
260.03	-33.11
260.246	5.8
260.463	-10.58
260.679	-6.49
260.895	22.19
261.112	42.67
261.328	18.09
261.544	-16.73
261.761	54.95
261.977	-26.96
262.193	-0.34
262.409	34.47
262.626	11.95
262.842	73.39
263.058	30.38
263.274	36.52
263.49	18.09
263.707	-2.39
263.923	-24.92
264.139	-29.01
264.355	46.76
264.571	106.15
264.787	52.91
265.004	-20.82
265.22	-37.2
265.436	20.14
265.652	-18.77
265.868	38.57
266.084	18.09
266.3	-49.49
266.516	5.8
266.732	13.99
266.948	91.82
267.164	67.24
267.38	24.23
267.596	-57.68
267.812	-26.96
268.028	-4.44
268.244	40.62
268.46	63.15
268.676	77.48
268.892	-49.49
269.108	-8.53
269.324	1.71
269.54	1.71
269.756	-65.88
269.972	-2.39
270.188	26.28
270.403	-4.44
270.619	-29.01
270.835	11.95
271.051	30.38
271.267	7.85
271.483	-0.34
271.698	-24.92
271.914	38.57
272.13	3.75
272.346	-90.45
272.562	61.1
272.777	3.75
272.993	-8.53
273.209	28.33
273.425	-29.01
273.64	63.15
273.856	38.57
274.072	-35.16
274.287	-16.73
274.503	-8.53
274.719	40.62
274.934	-35.16
275.15	-18.77
275.366	-6.49
275.581	-94.55
275.797	16.04
276.012	-14.68
276.228	9.9
276.444	5.8
276.659	59.05
276.875	-67.92
277.09	32.43
277.306	-39.25
277.521	104.11
277.737	52.91
277.952	77.48
278.168	-26.96
278.383	30.38
278.599	-29.01
278.814	-57.68
279.03	-6.49
279.245	11.95
279.461	22.19
279.676	42.67
279.892	-37.2
280.107	-31.06
280.322	20.14
280.538	28.33
280.753	-43.35
280.969	-55.64
281.184	-31.06
281.399	54.95
281.615	-20.82
281.83	40.62
282.045	22.19
282.26	54.95
282.476	-14.68
282.691	-18.77
282.906	-57.68
283.122	26.28
283.337	-26.96
283.552	22.19
283.767	-22.87
283.983	20.14
284.198	-12.63
284.413	-22.87
284.628	-20.82
284.843	9.9
285.058	57
285.274	24.23
285.489	1.71
285.704	30.38
285.919	-37.2
286.134	26.28
286.349	59.05
286.564	3.75
286.779	71.34
286.995	-8.53
287.21	-10.58
287.425	42.67
287.64	-12.63
287.855	28.33
288.07	61.1
288.285	-16.73
288.5	3.75
288.715	28.33
288.93	-14.68
289.145	-10.58
289.36	-31.06
289.575	-35.16
289.79	5.8
290.004	-22.87
290.219	48.81
290.434	18.09
290.649	7.85
290.864	5.8
291.079	9.9
291.294	-41.3
291.509	40.62
291.724	9.9
291.938	24.23
292.153	-8.53
292.368	40.62
292.583	-2.39
292.798	95.91
293.012	77.48
293.227	46.76
293.442	-20.82
293.657	-29.01
293.871	11.95
294.086	65.19
294.301	-26.96
294.516	-53.59
294.73	-29.01
294.945	-33.11
295.16	-14.68
295.374	69.29
295.589	16.04
295.804	54.95
296.018	30.38
296.233	-45.4
296.447	22.19
296.662	-12.63
296.877	11.95
297.091	11.95
297.306	7.85
297.52	-26.96
297.735	38.57
297.949	-0.34
298.164	-86.36
298.378	22.19
298.593	20.14
298.807	-4.44
299.022	65.19
299.236	38.57
299.451	48.81
299.665	-24.92
299.88	-16.73
300.094	91.82
300.309	16.04
300.523	-4.44
300.737	-22.87
300.952	9.9
301.166	-49.49
301.381	-22.87
301.595	16.04
301.809	-4.44
302.024	7.85
302.238	26.28
302.452	32.43
302.667	-22.87
302.881	5.8
303.095	-6.49
303.309	11.95
303.524	38.57
303.738	32.43
303.952	13.99
304.166	11.95
304.381	20.14
304.595	46.76
304.809	61.1
305.023	54.95
305.237	16.04
305.452	-53.59
305.666	-8.53
305.88	18.09
306.094	-35.16
306.308	-18.77
306.522	30.38
306.736	-26.96
306.95	-22.87
307.164	54.95
307.379	-4.44
307.593	46.76
307.807	3.75
308.021	5.8
308.235	26.28
308.449	24.23
308.663	-33.11
308.877	-16.73
309.091	26.28
309.305	44.71
309.519	-61.78
309.733	13.99
309.947	-59.73
310.161	-26.96
310.374	36.52
310.588	32.43
310.802	-43.35
311.016	22.19
311.23	59.05
311.444	-29.01
311.658	42.67
311.872	-4.44
312.085	22.19
312.299	46.76
312.513	26.28
312.727	-31.06
312.941	-35.16
313.154	5.8
313.368	28.33
313.582	-0.34
313.796	-22.87
314.009	11.95
314.223	16.04
314.437	32.43
314.651	-12.63
314.864	61.1
315.078	7.85
315.292	-49.49
315.505	30.38
315.719	-24.92
315.933	63.15
316.146	71.34
316.36	-65.88
316.573	30.38
316.787	9.9
317.001	9.9
317.214	-10.58
317.428	59.05
317.641	-6.49
317.855	-8.53
318.068	44.71
318.282	46.76
318.495	22.19
318.709	32.43
318.922	38.57
319.136	22.19
319.349	61.1
319.563	-6.49
319.776	-35.16
319.99	-18.77
320.203	-10.58
320.417	-35.16
320.63	-10.58
320.843	1.71
321.057	16.04
321.27	-0.34
321.483	71.34
321.697	-49.49
321.91	30.38
322.124	38.57
322.337	-10.58
322.55	5.8
322.763	-20.82
322.977	7.85
323.19	-35.16
323.403	-39.25
323.617	3.75
323.83	20.14
324.043	5.8
324.256	106.15
324.469	9.9
324.683	5.8
324.896	44.71
325.109	3.75
325.322	-67.92
325.535	61.1
325.748	-53.59
325.962	-16.73
326.175	5.8
326.388	13.99
326.601	48.81
326.814	38.57
327.027	13.99
327.24	-35.16
327.453	38.57
327.666	5.8
327.879	-29.01
328.092	28.33
328.305	-6.49
328.518	-18.77
328.731	-8.53
328.944	46.76
329.157	-29.01
329.37	24.23
329.583	22.19
329.796	-26.96
330.009	24.23
330.222	40.62
330.435	63.15
330.648	-14.68
330.861	59.05
331.073	5.8
331.286	16.04
331.499	-16.73
331.712	-6.49
331.925	-14.68
332.138	-0.34
332.35	63.15
332.563	9.9
332.776	-16.73
332.989	5.8
333.202	34.47
333.414	108.2
333.627	-24.92
333.84	24.23
334.053	20.14
334.265	32.43
334.478	30.38
334.691	54.95
334.903	42.67
335.116	-2.39
335.329	-2.39
335.541	54.95
335.754	30.38
335.966	-6.49
336.179	26.28
336.392	-10.58
336.604	16.04
336.817	24.23
337.029	-16.73
337.242	-31.06
337.454	1.71
337.667	-0.34
337.88	36.52
338.092	-72.02
338.305	-12.63
338.517	46.76
338.729	79.53
338.942	-22.87
339.154	11.95
339.367	13.99
339.579	-26.96
339.792	-39.25
340.004	69.29
340.217	71.34
340.429	5.8
340.641	-47.44
340.854	30.38
341.066	-31.06
341.278	13.99
341.491	20.14
341.703	20.14
341.915	69.29
342.128	36.52
342.34	65.19
342.552	11.95
342.764	-26.96
342.977	13.99
343.189	24.23
343.401	11.95
343.613	13.99
343.826	38.57
344.038	-12.63
344.25	11.95
344.462	-55.64
344.674	42.67
344.886	-39.25
345.099	48.81
345.311	52.91
345.523	18.09
345.735	-47.44
345.947	54.95
346.159	28.33
346.371	5.8
346.583	36.52
346.795	32.43
347.007	42.67
347.219	34.47
347.431	-6.49
347.643	42.67
347.855	-6.49
348.067	-33.11
348.279	48.81
348.491	30.38
348.703	28.33
348.915	26.28
349.127	-55.64
349.339	-10.58
349.551	-10.58
349.763	-10.58
349.975	38.57
350.187	22.19
350.399	24.23
350.61	-6.49
350.822	7.85
351.034	-41.3
351.246	38.57
351.458	-24.92
351.669	-16.73
351.881	38.57
352.093	-10.58
352.305	73.39
352.517	-8.53
352.728	-14.68
352.94	-55.64
353.152	9.9
353.363	-16.73
353.575	7.85
353.787	-2.39
353.999	-24.92
354.21	79.53
354.422	79.53
354.633	-8.53
354.845	-22.87
355.057	89.77
355.268	-0.34
355.48	63.15
355.692	9.9
355.903	18.09
356.115	52.91
356.326	11.95
356.538	-0.34
356.749	42.67
356.961	42.67
357.172	3.75
357.384	73.39
357.595	28.33
357.807	57
358.018	-57.68
358.23	59.05
358.441	13.99
358.653	54.95
358.864	-51.54
359.075	71.34
359.287	7.85
359.498	69.29
359.709	97.96
359.921	36.52
360.132	-53.59
360.344	-39.25
360.555	73.39
360.766	20.14
360.977	-6.49
361.189	48.81
361.4	-0.34
361.611	-10.58
361.823	42.67
362.034	59.05
362.245	7.85
362.456	-33.11
362.667	63.15
362.879	32.43
363.09	11.95
363.301	42.67
363.512	22.19
363.723	-20.82
363.935	9.9
364.146	-49.49
364.357	-0.34
364.568	61.1
364.779	-10.58
364.99	75.43
365.201	11.95
365.412	16.04
365.623	9.9
365.834	-6.49
366.045	57
366.256	22.19
366.467	7.85
366.678	16.04
366.889	54.95
367.1	65.19
367.311	-16.73
367.522	-26.96
367.733	67.24
367.944	3.75
368.155	26.28
368.366	149.16
368.577	-53.59
368.788	-86.36
368.999	-61.78
369.209	-24.92
369.42	48.81
369.631	69.29
369.842	57
370.053	-2.39
370.264	16.04
370.474	20.14
370.685	7.85
370.896	38.57
371.107	-0.34
371.317	-10.58
371.528	13.99
371.739	-4.44
371.95	-43.35
372.16	38.57
372.371	54.95
372.582	52.91
372.792	-4.44
373.003	26.28
373.214	44.71
373.424	59.05
373.635	-12.63
373.846	-35.16
374.056	-20.82
374.267	46.76
374.477	34.47
374.688	20.14
374.898	75.43
375.109	42.67
375.319	5.8
375.53	1.71
375.74	5.8
375.951	-26.96
376.161	42.67
376.372	38.57
376.582	9.9
376.793	7.85
377.003	40.62
377.214	59.05
377.424	32.43
377.635	-8.53
377.845	-29.01
378.055	34.47
378.266	-26.96
378.476	5.8
378.686	18.09
378.897	13.99
379.107	1.71
379.317	11.95
379.528	-10.58
379.738	93.87
379.948	-12.63
380.158	-45.4
380.369	-55.64
380.579	-0.34
380.789	-49.49
380.999	-57.68
381.21	-26.96
381.42	65.19
381.63	28.33
381.84	22.19
382.05	24.23
382.261	54.95
382.471	28.33
382.681	-33.11
382.891	63.15
383.101	67.24
383.311	30.38
383.521	-20.82
383.731	9.9
383.941	67.24
384.151	38.57
384.361	36.52
384.571	-53.59
384.781	-18.77
384.991	-47.44
385.201	140.97
385.411	65.19
385.621	71.34
385.831	-22.87
386.041	65.19
386.251	-35.16
386.461	-14.68
386.671	-0.34
386.881	11.95
387.091	28.33
387.301	130.73
387.511	-12.63
387.72	13.99
387.93	30.38
388.14	28.33
388.35	-16.73
388.56	46.76
388.769	30.38
388.979	-0.34
389.189	44.71
389.399	26.28
389.609	-24.92
389.818	79.53
390.028	-31.06
390.238	32.43
390.447	36.52
390.657	22.19
390.867	-26.96
391.076	7.85
391.286	-2.39
391.496	-8.53
391.705	5.8
391.915	50.86
392.125	22.19
392.334	-4.44
392.544	-49.49
392.753	71.34
392.963	7.85
393.172	73.39
393.382	52.91
393.591	-10.58
393.801	13.99
394.01	65.19
394.22	-26.96
394.429	73.39
394.639	38.57
394.848	20.14
395.058	50.86
395.267	-12.63
395.477	65.19
395.686	44.71
395.895	11.95
396.105	30.38
396.314	-2.39
396.524	59.05
396.733	46.76
396.942	54.95
397.152	102.06
397.361	26.28
397.57	-16.73
397.78	16.04
397.989	36.52
398.198	22.19
398.407	16.04
398.617	3.75
398.826	50.86
399.035	61.1
399.244	44.71
399.453	65.19
399.663	67.24
399.872	18.09
400.081	20.14
400.29	1.71
400.499	26.28
400.708	116.39
400.917	5.8
401.127	16.04
401.336	-37.2
401.545	5.8
401.754	67.24
401.963	61.1
402.172	22.19
402.381	-14.68
402.59	-35.16
402.799	30.38
403.008	22.19
403.217	22.19
403.426	69.29
403.635	79.53
403.844	-24.92
404.053	59.05
404.262	-49.49
404.471	59.05
404.68	-51.54
404.888	42.67
405.097	3.75
405.306	26.28
405.515	-0.34
405.724	71.34
405.933	30.38
406.142	108.2
406.35	-4.44
406.559	30.38
406.768	-14.68
406.977	7.85
407.185	-2.39
407.394	124.58
407.603	73.39
407.812	71.34
408.02	38.57
408.229	87.72
408.438	93.87
408.646	46.76
408.855	16.04
409.064	-22.87
409.272	65.19
409.481	40.62
409.69	69.29
409.898	22.19
410.107	87.72
410.315	73.39
410.524	36.52
410.733	67.24
410.941	18.09
411.15	77.48
411.358	79.53
411.567	42.67
411.775	132.78
411.984	87.72
412.192	83.63
412.401	100.01
412.609	126.63
412.818	38.57
413.026	77.48
413.234	106.15
413.443	30.38
413.651	63.15
413.86	126.63
414.068	140.97
414.276	50.86
414.485	100.01
414.693	128.68
414.901	153.26
415.11	81.58
415.318	97.96
415.526	134.82
415.734	175.78
415.943	181.93
416.151	153.26
416.359	108.2
416.567	124.58
416.776	89.77
416.984	151.21
417.192	169.64
417.4	177.83
417.608	216.74
417.817	179.88
418.025	173.74
418.233	220.84
418.441	231.08
418.649	157.35
418.857	274.09
419.065	231.08
419.273	226.98
419.481	317.09
419.689	321.19
419.897	265.89
420.105	286.37
420.313	351.91
420.521	347.81
420.729	315.05
420.937	296.61
421.145	280.23
421.353	374.44
421.561	407.2
421.769	325.29
421.977	425.64
422.185	368.29
422.393	396.96
422.601	380.58
422.809	392.87
423.017	425.64
423.224	415.4
423.432	435.88
423.64	409.25
423.848	468.64
424.056	505.51
424.263	497.32
424.471	536.23
424.679	575.14
424.887	609.95
425.094	560.8
425.302	612
425.51	601.76
425.718	669.34
425.925	640.67
426.133	646.82
426.341	693.92
426.548	769.69
426.756	693.92
426.964	714.4
427.171	702.11
427.379	802.46
427.586	827.04
427.794	796.32
428.001	865.95
428.209	886.43
428.417	919.2
428.624	1007.26
428.832	978.59
429.039	927.39
429.247	917.15
429.454	1080.99
429.662	1037.98
429.869	1009.31
430.076	997.02
430.284	1123.99
430.491	1119.9
430.699	1162.9
430.906	1123.99
431.114	1246.87
431.321	1271.45
431.528	1242.78
431.736	1275.54
431.943	1361.56
432.15	1355.41
432.358	1386.13
432.565	1482.39
432.772	1447.57
432.979	1547.92
433.187	1517.2
433.394	1570.45
433.601	1642.13
433.808	1619.6
434.016	1584.79
434.223	1678.99
434.43	1851.02
434.637	1937.04
434.844	1879.69
435.052	1922.7
435.259	1986.19
435.466	1941.13
435.673	1955.47
435.88	2156.17
436.087	2197.13
436.294	2178.7
436.501	1967.76
436.708	2203.27
436.915	2328.2
437.122	2254.47
437.329	2449.03
437.537	2424.45
437.743	2424.45
437.95	2397.83
438.157	2662.02
438.364	2623.11
438.571	2680.45
438.778	2555.52
438.985	2981.5
439.192	2670.21
439.399	2905.73
439.606	2799.23
439.813	2899.58
440.02	3065.47
440.227	3108.48
440.433	3044.99
440.64	3231.35
440.847	3100.28
441.054	3323.51
441.261	3380.86
441.467	3421.81
441.674	3479.16
441.881	3501.69
442.088	3579.51
442.294	3546.74
442.501	3571.32
442.708	3786.35
442.914	4036.21
443.121	4036.21
443.328	3731.06
443.534	4208.23
443.741	3989.1
443.948	3884.66
444.154	4294.25
444.361	4286.06
444.568	4367.98
444.774	4296.3
444.981	4253.29
445.187	4503.14
445.394	4617.83
445.6	4650.6
445.807	5189.21
446.013	4912.74
446.22	4847.2
446.426	5101.15
446.633	5082.72
446.839	5506.65
447.046	5154.4
447.252	5447.26
447.459	5418.58
447.665	5334.62
447.871	5604.95
448.078	5977.68
448.284	5678.68
448.491	5731.92
448.697	5865.04
448.903	6049.36
449.11	6028.88
449.316	6133.33
449.522	6239.82
449.728	6262.35
449.935	6452.81
450.141	6547.01
450.347	6565.45
450.553	6348.36
450.76	6413.9
450.966	6684.23
451.172	6577.73
451.378	6866.5
451.584	6594.12
451.791	6747.72
451.997	6827.59
452.203	6874.69
452.409	6823.49
452.615	7034.43
452.821	6653.51
453.027	6571.59
453.233	6950.46
453.44	6690.37
453.646	6815.3
453.852	6811.2
454.058	6921.79
454.264	6794.82
454.47	6862.4
454.676	6733.38
454.882	6975.04
455.088	6305.35
455.294	6538.82
455.5	6604.36
455.705	6497.86
455.911	6452.81
456.117	6078.03
456.323	6114.89
456.529	5758.55
456.735	6176.33
456.941	5836.37
457.147	5879.38
457.352	5742.16
457.558	5690.96
457.764	5627.48
457.97	5502.55
458.176	5402.2
458.381	5494.36
458.587	5285.47
458.793	5174.88
458.999	4877.92
459.204	5254.75
459.41	5260.89
459.616	4836.96
459.821	4763.23
460.027	4830.82
460.233	4634.21
460.438	4605.54
460.644	4537.96
460.85	4290.15
461.055	4394.6
461.261	4277.87
461.466	3919.47
461.672	3888.75
461.878	4025.97
462.083	3898.99
462.289	3790.45
462.494	3843.7
462.7	3606.13
462.905	3624.56
463.111	3624.56
463.316	3649.14
463.522	3675.76
463.727	3645.04
463.932	3548.79
464.138	3587.7
464.343	3552.88
464.549	3462.77
464.754	3530.36
464.959	3577.46
465.165	3632.76
465.37	3421.81
465.575	3360.38
465.781	3432.05
465.986	3419.77
466.191	3366.52
466.397	3276.41
466.602	3206.78
466.807	3296.89
467.012	3341.94
467.218	3208.83
467.423	3122.81
467.628	3309.18
467.833	3356.28
468.038	3204.73
468.244	3194.49
468.449	3374.71
468.654	3198.59
468.859	3194.49
469.064	3096.19
469.269	3061.37
469.474	3063.42
469.679	3104.38
469.885	3024.51
470.09	3102.33
