Data from USB4F104151__76__12-54-42-506.txt Node

Date: Fri Mar 14 12:54:42 EDT 2025
User: louis
Spectrometer: USB4F10415
Trigger mode: 4
Integration Time (sec): 1.000000E-2
Scans to average: 1
Electric dark correction enabled: true
Nonlinearity correction enabled: false
Boxcar width: 0
XAxis mode: Wavelengths
Number of Pixels in Spectrum: 3648
>>>>>Begin Spectral Data<<<<<
178.204	-23.72
178.424	-23.72
178.644	-23.72
178.864	15.19
179.084	-13.48
179.304	-60.59
179.524	-21.67
179.744	29.52
179.964	-13.48
180.184	35.67
180.404	-21.67
180.624	72.53
180.844	21.33
181.064	-36.01
181.283	19.29
181.503	-13.48
181.723	-11.43
181.943	17.24
182.163	41.81
182.383	23.38
182.602	31.57
182.822	33.62
183.042	95.06
183.262	39.76
183.482	54.1
183.701	-56.49
183.921	-46.25
184.141	23.38
184.361	-27.82
184.58	-13.48
184.8	-7.34
185.02	21.33
185.239	60.24
185.459	0.85
185.679	54.1
185.898	-31.91
186.118	45.91
186.338	37.72
186.557	21.33
186.777	33.62
186.997	41.81
187.216	25.43
187.436	39.76
187.655	33.62
187.875	21.33
188.095	-31.91
188.314	-5.29
188.534	50
188.753	-7.34
188.973	25.43
189.192	13.14
189.412	-36.01
189.631	27.48
189.851	2.9
190.07	58.2
190.29	-38.06
190.509	43.86
190.729	33.62
190.948	66.39
191.168	25.43
191.387	50
191.607	-17.58
191.826	23.38
192.045	47.96
192.265	33.62
192.484	31.57
192.704	27.48
192.923	-15.53
193.142	72.53
193.362	-5.29
193.581	-23.72
193.8	-33.96
194.02	21.33
194.239	17.24
194.458	11.09
194.678	25.43
194.897	-3.24
195.116	17.24
195.335	-5.29
195.555	27.48
195.774	-66.73
195.993	66.39
196.212	29.52
196.432	-48.3
196.651	-1.19
196.87	-17.58
197.089	47.96
197.308	11.09
197.528	47.96
197.747	17.24
197.966	66.39
198.185	76.63
198.404	90.96
198.623	-33.96
198.842	19.29
199.062	11.09
199.281	-3.24
199.5	-42.15
199.719	0.85
199.938	74.58
200.157	74.58
200.376	-56.49
200.595	70.48
200.814	72.53
201.033	-19.63
201.252	41.81
201.471	50
201.69	29.52
201.909	2.9
202.128	37.72
202.347	-11.43
202.566	21.33
202.785	31.57
203.004	7
203.223	88.92
203.442	-38.06
203.661	84.82
203.879	70.48
204.098	-11.43
204.317	25.43
204.536	45.91
204.755	17.24
204.974	-27.82
205.193	47.96
205.411	93.01
205.63	50
205.849	35.67
206.068	29.52
206.287	66.39
206.505	66.39
206.724	47.96
206.943	-3.24
207.162	-29.87
207.381	31.57
207.599	56.15
207.818	9.05
208.037	-44.2
208.255	-5.29
208.474	33.62
208.693	-19.63
208.911	17.24
209.13	4.95
209.349	43.86
209.567	2.9
209.786	11.09
210.005	29.52
210.223	37.72
210.442	84.82
210.661	-17.58
210.879	-17.58
211.098	17.24
211.316	29.52
211.535	80.72
211.753	74.58
211.972	62.29
212.191	-11.43
212.409	23.38
212.628	41.81
212.846	66.39
213.065	-11.43
213.283	2.9
213.502	-44.2
213.72	50
213.938	-5.29
214.157	-15.53
214.375	-3.24
214.594	54.1
214.812	-31.91
215.031	-23.72
215.249	4.95
215.467	21.33
215.686	-19.63
215.904	64.34
216.122	-15.53
216.341	23.38
216.559	-36.01
216.778	25.43
216.996	4.95
217.214	21.33
217.432	-3.24
217.651	2.9
217.869	76.63
218.087	-62.63
218.306	-36.01
218.524	0.85
218.742	-5.29
218.96	19.29
219.179	-7.34
219.397	4.95
219.615	23.38
219.833	17.24
220.051	56.15
220.27	25.43
220.488	41.81
220.706	-9.39
220.924	74.58
221.142	86.87
221.36	78.68
221.578	39.76
221.796	52.05
222.015	41.81
222.233	-19.63
222.451	23.38
222.669	68.44
222.887	-7.34
223.105	17.24
223.323	27.48
223.541	29.52
223.759	2.9
223.977	58.2
224.195	-7.34
224.413	-21.67
224.631	88.92
224.849	47.96
225.067	76.63
225.285	0.85
225.503	76.63
225.721	-21.67
225.939	70.48
226.157	21.33
226.375	17.24
226.592	2.9
226.81	-5.29
227.028	27.48
227.246	4.95
227.464	31.57
227.682	74.58
227.9	11.09
228.117	-11.43
228.335	2.9
228.553	17.24
228.771	13.14
228.989	13.14
229.206	29.52
229.424	-17.58
229.642	21.33
229.86	35.67
230.077	31.57
230.295	25.43
230.513	25.43
230.731	4.95
230.948	19.29
231.166	56.15
231.384	27.48
231.601	45.91
231.819	33.62
232.037	93.01
232.254	19.29
232.472	50
232.689	66.39
232.907	35.67
233.125	-91.31
233.342	25.43
233.56	13.14
233.777	-5.29
233.995	37.72
234.213	23.38
234.43	-13.48
234.648	25.43
234.865	7
235.083	56.15
235.3	-21.67
235.518	41.81
235.735	-7.34
235.953	19.29
236.17	-7.34
236.388	11.09
236.605	9.05
236.822	31.57
237.04	-33.96
237.257	-13.48
237.475	25.43
237.692	68.44
237.909	-3.24
238.127	41.81
238.344	27.48
238.562	-3.24
238.779	-33.96
238.996	-23.72
239.214	-17.58
239.431	70.48
239.648	-1.19
239.865	19.29
240.083	-38.06
240.3	25.43
240.517	68.44
240.735	52.05
240.952	25.43
241.169	39.76
241.386	50
241.603	9.05
241.821	47.96
242.038	17.24
242.255	7
242.472	47.96
242.689	45.91
242.907	70.48
243.124	-29.87
243.341	-5.29
243.558	0.85
243.775	52.05
243.992	7
244.209	82.77
244.426	25.43
244.643	47.96
244.86	58.2
245.078	52.05
245.295	25.43
245.512	17.24
245.729	31.57
245.946	31.57
246.163	33.62
246.38	19.29
246.597	-19.63
246.814	78.68
247.031	-9.39
247.248	9.05
247.464	50
247.681	62.29
247.898	52.05
248.115	13.14
248.332	-5.29
248.549	19.29
248.766	52.05
248.983	2.9
249.2	54.1
249.417	21.33
249.633	99.16
249.85	60.24
250.067	2.9
250.284	80.72
250.501	15.19
250.717	43.86
250.934	13.14
251.151	7
251.368	21.33
251.585	21.33
251.801	27.48
252.018	70.48
252.235	-23.72
252.451	-48.3
252.668	45.91
252.885	25.43
253.102	43.86
253.318	23.38
253.535	54.1
253.752	58.2
253.968	2.9
254.185	43.86
254.401	29.52
254.618	54.1
254.835	88.92
255.051	2.9
255.268	-60.59
255.484	25.43
255.701	41.81
255.917	72.53
256.134	41.81
256.351	41.81
256.567	56.15
256.784	56.15
257	-11.43
257.217	-27.82
257.433	101.2
257.65	-13.48
257.866	60.24
258.082	-19.63
258.299	78.68
258.515	27.48
258.732	-5.29
258.948	21.33
259.165	70.48
259.381	39.76
259.597	15.19
259.814	-25.77
260.03	29.52
260.246	7
260.463	25.43
260.679	107.35
260.895	43.86
261.112	27.48
261.328	-3.24
261.544	2.9
261.761	-25.77
261.977	70.48
262.193	17.24
262.409	23.38
262.626	-38.06
262.842	39.76
263.058	-7.34
263.274	37.72
263.49	21.33
263.707	29.52
263.923	115.54
264.139	-9.39
264.355	7
264.571	35.67
264.787	54.1
265.004	23.38
265.22	27.48
265.436	64.34
265.652	-7.34
265.868	-3.24
266.084	-7.34
266.3	4.95
266.516	50
266.732	-19.63
266.948	41.81
267.164	-9.39
267.38	15.19
267.596	15.19
267.812	70.48
268.028	19.29
268.244	-17.58
268.46	37.72
268.676	15.19
268.892	43.86
269.108	-21.67
269.324	33.62
269.54	60.24
269.756	27.48
269.972	29.52
270.188	68.44
270.403	50
270.619	41.81
270.835	11.09
271.051	-15.53
271.267	50
271.483	31.57
271.698	27.48
271.914	11.09
272.13	45.91
272.346	7
272.562	-5.29
272.777	-1.19
272.993	62.29
273.209	-1.19
273.425	4.95
273.64	11.09
273.856	15.19
274.072	13.14
274.287	0.85
274.503	4.95
274.719	-5.29
274.934	9.05
275.15	-17.58
275.366	74.58
275.581	80.72
275.797	13.14
276.012	58.2
276.228	37.72
276.444	35.67
276.659	45.91
276.875	41.81
277.09	52.05
277.306	68.44
277.521	27.48
277.737	-13.48
277.952	27.48
278.168	-3.24
278.383	45.91
278.599	-9.39
278.814	56.15
279.03	78.68
279.245	39.76
279.461	11.09
279.676	45.91
279.892	35.67
280.107	54.1
280.322	4.95
280.538	56.15
280.753	15.19
280.969	43.86
281.184	-13.48
281.399	-27.82
281.615	70.48
281.83	88.92
282.045	-5.29
282.26	-31.91
282.476	-38.06
282.691	11.09
282.906	-3.24
283.122	86.87
283.337	37.72
283.552	43.86
283.767	29.52
283.983	74.58
284.198	-15.53
284.413	50
284.628	-1.19
284.843	121.68
285.058	103.25
285.274	39.76
285.489	41.81
285.704	52.05
285.919	27.48
286.134	-17.58
286.349	15.19
286.564	7
286.779	50
286.995	54.1
287.21	17.24
287.425	25.43
287.64	-44.2
287.855	13.14
288.07	11.09
288.285	25.43
288.5	25.43
288.715	0.85
288.93	35.67
289.145	17.24
289.36	-25.77
289.575	84.82
289.79	17.24
290.004	99.16
290.219	43.86
290.434	-3.24
290.649	66.39
290.864	-11.43
291.079	2.9
291.294	80.72
291.509	86.87
291.724	-5.29
291.938	37.72
292.153	-33.96
292.368	-40.11
292.583	95.06
292.798	50
293.012	-38.06
293.227	31.57
293.442	146.26
293.657	101.2
293.871	76.63
294.086	19.29
294.301	45.91
294.516	7
294.73	97.11
294.945	33.62
295.16	-40.11
295.374	86.87
295.589	76.63
295.804	-27.82
296.018	-13.48
296.233	4.95
296.447	21.33
296.662	21.33
296.877	45.91
297.091	66.39
297.306	4.95
297.52	50
297.735	-19.63
297.949	68.44
298.164	-50.35
298.378	62.29
298.593	56.15
298.807	-38.06
299.022	-1.19
299.236	4.95
299.451	27.48
299.665	11.09
299.88	115.54
300.094	15.19
300.309	33.62
300.523	43.86
300.737	43.86
300.952	-25.77
301.166	93.01
301.381	-5.29
301.595	50
301.809	-7.34
302.024	45.91
302.238	66.39
302.452	66.39
302.667	33.62
302.881	60.24
303.095	70.48
303.309	37.72
303.524	-3.24
303.738	90.96
303.952	7
304.166	25.43
304.381	15.19
304.595	105.3
304.809	-60.59
305.023	17.24
305.237	-5.29
305.452	78.68
305.666	56.15
305.88	56.15
306.094	27.48
306.308	-38.06
306.522	101.2
306.736	-38.06
306.95	58.2
307.164	56.15
307.379	-3.24
307.593	31.57
307.807	9.05
308.021	54.1
308.235	66.39
308.449	-13.48
308.663	25.43
308.877	97.11
309.091	-19.63
309.305	45.91
309.519	80.72
309.733	37.72
309.947	39.76
310.161	68.44
310.374	35.67
310.588	125.78
310.802	31.57
311.016	4.95
311.23	7
311.444	25.43
311.658	93.01
311.872	15.19
312.085	11.09
312.299	35.67
312.513	93.01
312.727	-36.01
312.941	-21.67
313.154	45.91
313.368	-27.82
313.582	23.38
313.796	-7.34
314.009	0.85
314.223	105.3
314.437	31.57
314.651	-46.25
314.864	2.9
315.078	54.1
315.292	-11.43
315.505	11.09
315.719	62.29
315.933	-5.29
316.146	27.48
316.36	78.68
316.573	21.33
316.787	21.33
317.001	54.1
317.214	2.9
317.428	7
317.641	74.58
317.855	-31.91
318.068	31.57
318.282	37.72
318.495	31.57
318.709	50
318.922	80.72
319.136	60.24
319.349	66.39
319.563	117.59
319.776	29.52
319.99	-31.91
320.203	37.72
320.417	60.24
320.63	29.52
320.843	133.97
321.057	-3.24
321.27	19.29
321.483	68.44
321.697	19.29
321.91	31.57
322.124	4.95
322.337	56.15
322.55	15.19
322.763	-48.3
322.977	35.67
323.19	2.9
323.403	50
323.617	-79.02
323.83	37.72
324.043	-9.39
324.256	39.76
324.469	-46.25
324.683	54.1
324.896	54.1
325.109	-21.67
325.322	-42.15
325.535	41.81
325.748	15.19
325.962	82.77
326.175	15.19
326.388	-38.06
326.601	-64.68
326.814	21.33
327.027	4.95
327.24	47.96
327.453	31.57
327.666	4.95
327.879	-25.77
328.092	13.14
328.305	15.19
328.518	-21.67
328.731	-23.72
328.944	23.38
329.157	23.38
329.37	-33.96
329.583	84.82
329.796	58.2
330.009	70.48
330.222	88.92
330.435	-38.06
330.648	47.96
330.861	45.91
331.073	43.86
331.286	70.48
331.499	21.33
331.712	7
331.925	-5.29
332.138	56.15
332.35	37.72
332.563	103.25
332.776	21.33
332.989	47.96
333.202	27.48
333.414	-3.24
333.627	-33.96
333.84	45.91
334.053	70.48
334.265	-13.48
334.478	31.57
334.691	60.24
334.903	35.67
335.116	13.14
335.329	113.49
335.541	-23.72
335.754	54.1
335.966	9.05
336.179	43.86
336.392	-38.06
336.604	33.62
336.817	68.44
337.029	37.72
337.242	39.76
337.454	13.14
337.667	64.34
337.88	45.91
338.092	25.43
338.305	68.44
338.517	-17.58
338.729	50
338.942	0.85
339.154	-15.53
339.367	7
339.579	82.77
339.792	13.14
340.004	64.34
340.217	37.72
340.429	-17.58
340.641	43.86
340.854	84.82
341.066	11.09
341.278	9.05
341.491	54.1
341.703	17.24
341.915	103.25
342.128	70.48
342.34	72.53
342.552	25.43
342.764	-17.58
342.977	2.9
343.189	56.15
343.401	107.35
343.613	11.09
343.826	33.62
344.038	-7.34
344.25	127.83
344.462	-11.43
344.674	60.24
344.886	41.81
345.099	121.68
345.311	37.72
345.523	47.96
345.735	21.33
345.947	19.29
346.159	15.19
346.371	103.25
346.583	-9.39
346.795	82.77
347.007	41.81
347.219	88.92
347.431	25.43
347.643	11.09
347.855	-46.25
348.067	-11.43
348.279	-9.39
348.491	84.82
348.703	-54.44
348.915	66.39
349.127	4.95
349.339	76.63
349.551	90.96
349.763	33.62
349.975	11.09
350.187	37.72
350.399	66.39
350.61	78.68
350.822	68.44
351.034	68.44
351.246	-5.29
351.458	86.87
351.669	21.33
351.881	60.24
352.093	54.1
352.305	74.58
352.517	-27.82
352.728	95.06
352.94	99.16
353.152	56.15
353.363	15.19
353.575	21.33
353.787	-21.67
353.999	58.2
354.21	62.29
354.422	60.24
354.633	19.29
354.845	11.09
355.057	31.57
355.268	56.15
355.48	-19.63
355.692	-3.24
355.903	52.05
356.115	31.57
356.326	23.38
356.538	39.76
356.749	56.15
356.961	29.52
357.172	41.81
357.384	-19.63
357.595	76.63
357.807	82.77
358.018	2.9
358.23	-9.39
358.441	7
358.653	60.24
358.864	47.96
359.075	35.67
359.287	17.24
359.498	39.76
359.709	29.52
359.921	97.11
360.132	35.67
360.344	54.1
360.555	-3.24
360.766	35.67
360.977	29.52
361.189	43.86
361.4	11.09
361.611	35.67
361.823	82.77
362.034	99.16
362.245	-15.53
362.456	29.52
362.667	25.43
362.879	64.34
363.09	27.48
363.301	68.44
363.512	7
363.723	-7.34
363.935	-1.19
364.146	-11.43
364.357	29.52
364.568	-5.29
364.779	37.72
364.99	21.33
365.201	60.24
365.412	56.15
365.623	-15.53
365.834	74.58
366.045	45.91
366.256	95.06
366.467	60.24
366.678	19.29
366.889	60.24
367.1	23.38
367.311	-3.24
367.522	-3.24
367.733	70.48
367.944	56.15
368.155	50
368.366	-21.67
368.577	70.48
368.788	68.44
368.999	-15.53
369.209	15.19
369.42	125.78
369.631	21.33
369.842	27.48
370.053	13.14
370.264	68.44
370.474	43.86
370.685	47.96
370.896	-11.43
371.107	82.77
371.317	47.96
371.528	52.05
371.739	41.81
371.95	58.2
372.16	62.29
372.371	35.67
372.582	39.76
372.792	39.76
373.003	-13.48
373.214	4.95
373.424	50
373.635	2.9
373.846	21.33
374.056	41.81
374.267	45.91
374.477	82.77
374.688	35.67
374.898	78.68
375.109	107.35
375.319	-17.58
375.53	17.24
375.74	33.62
375.951	47.96
376.161	15.19
376.372	-25.77
376.582	74.58
376.793	-7.34
377.003	29.52
377.214	-40.11
377.424	93.01
377.635	27.48
377.845	19.29
378.055	35.67
378.266	-83.11
378.476	37.72
378.686	-38.06
378.897	-31.91
379.107	31.57
379.317	25.43
379.528	35.67
379.738	43.86
379.948	17.24
380.158	19.29
380.369	31.57
380.579	2.9
380.789	-15.53
380.999	2.9
381.21	37.72
381.42	62.29
381.63	39.76
381.84	9.05
382.05	43.86
382.261	13.14
382.471	39.76
382.681	27.48
382.891	68.44
383.101	99.16
383.311	66.39
383.521	-5.29
383.731	33.62
383.941	17.24
384.151	37.72
384.361	41.81
384.571	-15.53
384.781	-3.24
384.991	50
385.201	76.63
385.411	64.34
385.621	72.53
385.831	-25.77
386.041	2.9
386.251	15.19
386.461	93.01
386.671	111.44
386.881	76.63
387.091	31.57
387.301	9.05
387.511	45.91
387.72	35.67
387.93	54.1
388.14	25.43
388.35	99.16
388.56	109.4
388.769	21.33
388.979	56.15
389.189	27.48
389.399	78.68
389.609	62.29
389.818	37.72
390.028	90.96
390.238	64.34
390.447	-9.39
390.657	-33.96
390.867	47.96
391.076	-5.29
391.286	76.63
391.496	54.1
391.705	-21.67
391.915	35.67
392.125	62.29
392.334	86.87
392.544	111.44
392.753	45.91
392.963	95.06
393.172	50
393.382	93.01
393.591	41.81
393.801	29.52
394.01	86.87
394.22	101.2
394.429	78.68
394.639	19.29
394.848	62.29
395.058	17.24
395.267	27.48
395.477	86.87
395.686	37.72
395.895	43.86
396.105	156.5
396.314	82.77
396.524	41.81
396.733	15.19
396.942	82.77
397.152	62.29
397.361	84.82
397.57	9.05
397.78	74.58
397.989	19.29
398.198	109.4
398.407	76.63
398.617	47.96
398.826	43.86
399.035	2.9
399.244	68.44
399.453	86.87
399.663	45.91
399.872	101.2
400.081	107.35
400.29	15.19
400.499	39.76
400.708	201.55
400.917	84.82
401.127	45.91
401.336	72.53
401.545	105.3
401.754	52.05
401.963	43.86
402.172	117.59
402.381	15.19
402.59	88.92
402.799	111.44
403.008	27.48
403.217	54.1
403.426	54.1
403.635	103.25
403.844	80.72
404.053	142.16
404.262	-3.24
404.471	119.64
404.68	33.62
404.888	162.64
405.097	115.54
405.306	72.53
405.515	64.34
405.724	45.91
405.933	74.58
406.142	125.78
406.35	140.12
406.559	131.92
406.768	80.72
406.977	136.02
407.185	117.59
407.394	88.92
407.603	183.12
407.812	195.41
408.02	119.64
408.229	150.36
408.438	219.99
408.646	170.83
408.855	74.58
409.064	166.74
409.272	207.7
409.481	146.26
409.69	133.97
409.898	164.69
410.107	131.92
410.315	119.64
410.524	232.27
410.733	219.99
410.941	179.03
411.15	238.42
411.358	254.8
411.567	240.47
411.775	258.9
411.984	211.79
412.192	244.56
412.401	252.75
412.609	197.46
412.818	291.66
413.026	269.14
413.234	262.99
413.443	271.19
413.651	299.86
413.86	287.57
414.068	369.49
414.276	387.92
414.485	287.57
414.693	394.06
414.901	406.35
415.11	381.78
415.318	396.11
415.526	406.35
415.734	467.79
415.943	408.4
416.151	439.12
416.359	404.3
416.567	412.5
416.776	463.69
416.984	611.15
417.192	551.76
417.4	551.76
417.608	566.09
417.817	535.37
418.025	619.34
418.233	652.11
418.441	641.87
418.649	650.06
418.857	662.35
419.065	715.59
419.273	660.3
419.481	639.82
419.689	807.75
419.897	801.61
420.105	901.96
420.313	832.33
420.521	854.86
420.729	832.33
420.937	947.01
421.145	1067.85
421.353	1059.65
421.561	987.97
421.769	1043.27
421.977	1162.05
422.185	1069.89
422.393	1192.77
422.601	1262.4
422.809	1172.29
423.017	1297.22
423.224	1286.98
423.432	1221.44
423.64	1332.03
423.848	1467.2
424.056	1520.45
424.263	1528.64
424.471	1575.74
424.679	1633.08
424.887	1553.21
425.094	1723.2
425.302	1641.28
425.51	1884.98
425.718	1862.46
425.925	1809.21
426.133	1919.8
426.341	2009.91
426.548	2212.66
426.756	2089.78
426.964	2038.58
427.171	2218.8
427.379	2292.53
427.586	2376.5
427.794	2407.22
428.001	2601.77
428.209	2614.06
428.417	2577.2
428.624	2837.29
428.832	2708.27
429.039	2784.04
429.247	2818.86
429.454	3037.99
429.662	3279.65
429.869	2882.35
430.076	3234.6
430.284	3197.73
430.491	3279.65
430.699	3539.74
430.906	3363.62
431.114	3580.7
431.321	3711.77
431.528	3885.85
431.736	4070.17
431.943	4164.37
432.15	4010.78
432.358	4111.13
432.565	4346.64
432.772	4383.51
432.979	4649.74
433.187	4723.47
433.394	4655.89
433.601	4897.55
433.808	4866.83
434.016	4918.03
434.223	5085.96
434.43	5608.19
434.637	5370.63
434.844	5577.47
435.052	5669.63
435.259	5812.99
435.466	5860.09
435.673	5765.89
435.88	6228.73
436.087	6458.1
436.294	6478.58
436.501	6279.93
436.708	6345.46
436.915	6806.25
437.122	7205.61
437.329	6769.39
437.537	7062.25
437.743	7262.95
437.95	7303.91
438.157	7525.09
438.364	8026.84
438.571	7660.26
438.778	7858.91
438.985	8635.09
439.192	8297.17
439.399	8649.43
439.606	8235.74
439.813	8774.35
440.02	9382.6
440.227	9265.86
440.433	9147.08
440.64	9327.3
440.847	9278.15
441.054	9724.61
441.261	10388.15
441.467	10072.76
441.674	10390.2
441.881	10853.04
442.088	10621.62
442.294	10672.82
442.501	10807.98
442.708	11270.83
442.914	11360.94
443.121	12262.04
443.328	11578.02
443.534	12518.04
443.741	12120.73
443.948	11971.23
444.154	13048.46
444.361	13034.13
444.568	12984.98
444.774	12921.49
444.981	13101.71
445.187	13775.49
445.394	14238.33
445.6	13963.9
445.807	15266.41
446.013	14627.45
446.22	14926.45
446.426	15673.96
446.633	15645.29
446.839	16079.46
447.046	15391.34
447.252	16370.27
447.459	16650.84
447.665	16341.6
447.871	17207.89
448.078	17730.12
448.284	17087.06
448.491	17465.93
448.697	17908.29
448.903	18401.85
449.11	18580.03
449.316	18461.24
449.522	18815.54
449.728	19130.93
449.935	19466.8
450.141	19094.07
450.347	19911.21
450.553	19161.65
450.76	19284.53
450.966	19939.88
451.172	19784.23
451.378	20271.65
451.584	19982.88
451.791	20355.61
451.997	20386.33
452.203	21017.11
452.409	20709.91
452.615	20566.56
452.821	20367.9
453.027	19556.91
453.233	20857.37
453.44	20075.04
453.646	20109.86
453.852	19982.88
454.058	20566.56
454.264	19931.69
454.47	20529.69
454.676	19999.27
454.882	20683.29
455.088	18885.17
455.294	19001.91
455.5	19184.18
455.705	19638.83
455.911	18876.98
456.117	18252.35
456.323	18035.27
456.529	17146.45
456.735	18123.33
456.941	17506.89
457.147	17074.77
457.352	16925.27
457.558	16603.74
457.764	16644.7
457.97	16179.81
458.176	15962.72
458.381	15919.71
458.587	15131.25
458.793	15164.01
458.999	14385.79
459.204	15409.77
459.41	15096.43
459.616	13912.71
459.821	14150.27
460.027	13771.4
460.233	13453.96
460.438	13140.62
460.644	13249.16
460.85	12573.33
461.055	12337.82
461.261	12206.75
461.466	11410.09
461.672	10992.3
461.878	11754.15
462.083	11020.97
462.289	10805.94
462.494	10787.5
462.7	10396.34
462.905	10052.28
463.111	10279.61
463.316	10320.57
463.522	10097.34
463.727	10234.55
463.932	10306.23
464.138	9968.32
464.343	10070.72
464.549	9618.11
464.754	9960.13
464.959	10033.85
465.165	9816.77
465.37	9581.25
465.575	9372.36
465.781	9616.07
465.986	9677.51
466.191	9454.28
466.397	9104.07
466.602	8698.58
466.807	9089.74
467.012	8985.29
467.218	8936.14
467.423	8866.51
467.628	9069.26
467.833	9413.32
468.038	8970.96
468.244	8708.82
468.449	9128.65
468.654	8936.14
468.859	8749.78
469.064	8737.49
469.269	8450.77
469.474	8669.91
469.679	8600.27
469.885	8301.27
470.09	8542.93
