Data from USB4F104151__26__12-53-35-906.txt Node

Date: Fri Mar 14 12:53:35 EDT 2025
User: louis
Spectrometer: USB4F10415
Trigger mode: 4
Integration Time (sec): 1.000000E-2
Scans to average: 1
Electric dark correction enabled: true
Nonlinearity correction enabled: false
Boxcar width: 0
XAxis mode: Wavelengths
Number of Pixels in Spectrum: 3648
>>>>>Begin Spectral Data<<<<<
178.204	-63.83
178.424	-63.83
178.644	-63.83
178.864	-4.44
179.084	-74.07
179.304	40.62
179.524	20.14
179.744	-20.82
179.964	-8.53
180.184	1.71
180.404	-41.3
180.624	18.09
180.844	32.43
181.064	-20.82
181.283	-33.11
181.503	18.09
181.723	-6.49
181.943	30.38
182.163	75.43
182.383	7.85
182.602	63.15
182.822	71.34
183.042	7.85
183.262	9.9
183.482	-8.53
183.701	104.11
183.921	108.2
184.141	18.09
184.361	-20.82
184.58	24.23
184.8	77.48
185.02	30.38
185.239	28.33
185.459	73.39
185.679	22.19
185.898	-10.58
186.118	44.71
186.338	122.54
186.557	67.24
186.777	-53.59
186.997	22.19
187.216	-8.53
187.436	13.99
187.655	26.28
187.875	-20.82
188.095	36.52
188.314	20.14
188.534	-24.92
188.753	42.67
188.973	61.1
189.192	63.15
189.412	5.8
189.631	3.75
189.851	-35.16
190.07	46.76
190.29	71.34
190.509	65.19
190.729	24.23
190.948	36.52
191.168	18.09
191.387	-16.73
191.607	38.57
191.826	40.62
192.045	20.14
192.265	11.95
192.484	50.86
192.704	28.33
192.923	-86.36
193.142	81.58
193.362	46.76
193.581	73.39
193.8	22.19
194.02	79.53
194.239	42.67
194.458	5.8
194.678	3.75
194.897	-35.16
195.116	-45.4
195.335	63.15
195.555	46.76
195.774	38.57
195.993	54.95
196.212	9.9
196.432	26.28
196.651	-35.16
196.87	-35.16
197.089	28.33
197.308	65.19
197.528	32.43
197.747	28.33
197.966	-16.73
198.185	-8.53
198.404	54.95
198.623	13.99
198.842	54.95
199.062	-16.73
199.281	13.99
199.5	65.19
199.719	-6.49
199.938	42.67
200.157	48.81
200.376	5.8
200.595	28.33
200.814	46.76
201.033	-2.39
201.252	32.43
201.471	24.23
201.69	36.52
201.909	65.19
202.128	46.76
202.347	52.91
202.566	11.95
202.785	42.67
203.004	26.28
203.223	59.05
203.442	38.57
203.661	11.95
203.879	18.09
204.098	40.62
204.317	26.28
204.536	63.15
204.755	83.63
204.974	71.34
205.193	61.1
205.411	91.82
205.63	11.95
205.849	73.39
206.068	32.43
206.287	-4.44
206.505	11.95
206.724	114.34
206.943	-35.16
207.162	75.43
207.381	65.19
207.599	85.67
207.818	-26.96
208.037	5.8
208.255	52.91
208.474	59.05
208.693	-8.53
208.911	24.23
209.13	20.14
209.349	79.53
209.567	83.63
209.786	100.01
210.005	50.86
210.223	-20.82
210.442	-37.2
210.661	28.33
210.879	57
211.098	36.52
211.316	57
211.535	81.58
211.753	38.57
211.972	71.34
212.191	-29.01
212.409	-8.53
212.628	71.34
212.846	46.76
213.065	46.76
213.283	42.67
213.502	5.8
213.72	30.38
213.938	-24.92
214.157	26.28
214.375	13.99
214.594	-18.77
214.812	32.43
215.031	28.33
215.249	-20.82
215.467	73.39
215.686	32.43
215.904	30.38
216.122	7.85
216.341	-39.25
216.559	40.62
216.778	7.85
216.996	18.09
217.214	38.57
217.432	1.71
217.651	102.06
217.869	30.38
218.087	73.39
218.306	28.33
218.524	81.58
218.742	32.43
218.96	40.62
219.179	-2.39
219.397	38.57
219.615	50.86
219.833	57
220.051	20.14
220.27	54.95
220.488	57
220.706	-39.25
220.924	11.95
221.142	9.9
221.36	97.96
221.578	-12.63
221.796	118.44
222.015	-12.63
222.233	28.33
222.451	24.23
222.669	-39.25
222.887	59.05
223.105	-29.01
223.323	28.33
223.541	38.57
223.759	65.19
223.977	-10.58
224.195	87.72
224.413	59.05
224.631	-41.3
224.849	65.19
225.067	28.33
225.285	-26.96
225.503	-2.39
225.721	61.1
225.939	69.29
226.157	36.52
226.375	-8.53
226.592	-33.11
226.81	100.01
227.028	40.62
227.246	79.53
227.464	57
227.682	-39.25
227.9	-33.11
228.117	87.72
228.335	-20.82
228.553	48.81
228.771	-24.92
228.989	65.19
229.206	73.39
229.424	9.9
229.642	-39.25
229.86	-31.06
230.077	52.91
230.295	22.19
230.513	46.76
230.731	1.71
230.948	-4.44
231.166	24.23
231.384	20.14
231.601	18.09
231.819	32.43
232.037	22.19
232.254	9.9
232.472	-10.58
232.689	120.49
232.907	89.77
233.125	34.47
233.342	63.15
233.56	50.86
233.777	24.23
233.995	67.24
234.213	50.86
234.43	-4.44
234.648	7.85
234.865	7.85
235.083	67.24
235.3	-6.49
235.518	30.38
235.735	54.95
235.953	24.23
236.17	75.43
236.388	7.85
236.605	30.38
236.822	7.85
237.04	3.75
237.257	7.85
237.475	18.09
237.692	16.04
237.909	71.34
238.127	100.01
238.344	34.47
238.562	-0.34
238.779	-24.92
238.996	38.57
239.214	26.28
239.431	36.52
239.648	-35.16
239.865	-14.68
240.083	46.76
240.3	79.53
240.517	5.8
240.735	63.15
240.952	32.43
241.169	11.95
241.386	61.1
241.603	-49.49
241.821	20.14
242.038	13.99
242.255	59.05
242.472	-10.58
242.689	24.23
242.907	20.14
243.124	36.52
243.341	13.99
243.558	36.52
243.775	20.14
243.992	-82.26
244.209	50.86
244.426	134.82
244.643	69.29
244.86	54.95
245.078	54.95
245.295	-0.34
245.512	24.23
245.729	11.95
245.946	110.25
246.163	-20.82
246.38	-49.49
246.597	54.95
246.814	79.53
247.031	24.23
247.248	91.82
247.464	13.99
247.681	63.15
247.898	67.24
248.115	95.91
248.332	36.52
248.549	26.28
248.766	102.06
248.983	1.71
249.2	67.24
249.417	87.72
249.633	3.75
249.85	63.15
250.067	18.09
250.284	48.81
250.501	42.67
250.717	36.52
250.934	38.57
251.151	22.19
251.368	5.8
251.585	75.43
251.801	-2.39
252.018	5.8
252.235	5.8
252.451	7.85
252.668	5.8
252.885	30.38
253.102	61.1
253.318	50.86
253.535	22.19
253.752	22.19
253.968	5.8
254.185	54.95
254.401	54.95
254.618	42.67
254.835	79.53
255.051	91.82
255.268	24.23
255.484	36.52
255.701	59.05
255.917	11.95
256.134	34.47
256.351	34.47
256.567	67.24
256.784	36.52
257	22.19
257.217	95.91
257.433	-14.68
257.65	32.43
257.866	77.48
258.082	18.09
258.299	34.47
258.515	50.86
258.732	-4.44
258.948	7.85
259.165	-12.63
259.381	22.19
259.597	7.85
259.814	-20.82
260.03	-61.78
260.246	44.71
260.463	-0.34
260.679	54.95
260.895	-24.92
261.112	52.91
261.328	46.76
261.544	52.91
261.761	3.75
261.977	24.23
262.193	65.19
262.409	65.19
262.626	-33.11
262.842	22.19
263.058	-31.06
263.274	3.75
263.49	-22.87
263.707	75.43
263.923	97.96
264.139	32.43
264.355	-0.34
264.571	30.38
264.787	65.19
265.004	97.96
265.22	46.76
265.436	7.85
265.652	11.95
265.868	3.75
266.084	1.71
266.3	-24.92
266.516	30.38
266.732	34.47
266.948	13.99
267.164	16.04
267.38	57
267.596	13.99
267.812	93.87
268.028	87.72
268.244	44.71
268.46	67.24
268.676	97.96
268.892	7.85
269.108	26.28
269.324	9.9
269.54	7.85
269.756	36.52
269.972	-33.11
270.188	22.19
270.403	36.52
270.619	-8.53
270.835	-8.53
271.051	46.76
271.267	-2.39
271.483	48.81
271.698	9.9
271.914	7.85
272.13	9.9
272.346	54.95
272.562	91.82
272.777	16.04
272.993	38.57
273.209	50.86
273.425	61.1
273.64	1.71
273.856	42.67
274.072	30.38
274.287	42.67
274.503	18.09
274.719	79.53
274.934	44.71
275.15	-2.39
275.366	63.15
275.581	79.53
275.797	36.52
276.012	34.47
276.228	75.43
276.444	3.75
276.659	7.85
276.875	-33.11
277.09	65.19
277.306	32.43
277.521	89.77
277.737	-29.01
277.952	24.23
278.168	18.09
278.383	91.82
278.599	42.67
278.814	59.05
279.03	40.62
279.245	69.29
279.461	52.91
279.676	52.91
279.892	13.99
280.107	5.8
280.322	59.05
280.538	52.91
280.753	-2.39
280.969	11.95
281.184	-22.87
281.399	120.49
281.615	40.62
281.83	11.95
282.045	-57.68
282.26	100.01
282.476	54.95
282.691	38.57
282.906	61.1
283.122	-12.63
283.337	20.14
283.552	18.09
283.767	65.19
283.983	77.48
284.198	77.48
284.413	42.67
284.628	54.95
284.843	46.76
285.058	30.38
285.274	11.95
285.489	3.75
285.704	46.76
285.919	44.71
286.134	67.24
286.349	42.67
286.564	36.52
286.779	54.95
286.995	102.06
287.21	20.14
287.425	89.77
287.64	5.8
287.855	-41.3
288.07	-35.16
288.285	83.63
288.5	120.49
288.715	79.53
288.93	100.01
289.145	163.5
289.36	63.15
289.575	30.38
289.79	95.91
290.004	38.57
290.219	61.1
290.434	3.75
290.649	-0.34
290.864	40.62
291.079	16.04
291.294	-2.39
291.509	13.99
291.724	26.28
291.938	40.62
292.153	16.04
292.368	13.99
292.583	38.57
292.798	67.24
293.012	81.58
293.227	83.63
293.442	-10.58
293.657	40.62
293.871	61.1
294.086	32.43
294.301	120.49
294.516	61.1
294.73	46.76
294.945	59.05
295.16	-8.53
295.374	38.57
295.589	108.2
295.804	97.96
296.018	-31.06
296.233	89.77
296.447	32.43
296.662	34.47
296.877	42.67
297.091	118.44
297.306	20.14
297.52	106.15
297.735	44.71
297.949	-4.44
298.164	54.95
298.378	42.67
298.593	7.85
298.807	100.01
299.022	40.62
299.236	44.71
299.451	79.53
299.665	75.43
299.88	75.43
300.094	42.67
300.309	32.43
300.523	46.76
300.737	-43.35
300.952	26.28
301.166	54.95
301.381	-39.25
301.595	93.87
301.809	42.67
302.024	9.9
302.238	-43.35
302.452	46.76
302.667	26.28
302.881	26.28
303.095	93.87
303.309	42.67
303.524	36.52
303.738	36.52
303.952	46.76
304.166	-29.01
304.381	42.67
304.595	65.19
304.809	79.53
305.023	34.47
305.237	77.48
305.452	30.38
305.666	-6.49
305.88	95.91
306.094	50.86
306.308	67.24
306.522	40.62
306.736	-0.34
306.95	38.57
307.164	77.48
307.379	-31.06
307.593	95.91
307.807	-22.87
308.021	87.72
308.235	-2.39
308.449	59.05
308.663	-51.54
308.877	108.2
309.091	1.71
309.305	61.1
309.519	61.1
309.733	38.57
309.947	54.95
310.161	22.19
310.374	7.85
310.588	-12.63
310.802	-12.63
311.016	75.43
311.23	24.23
311.444	5.8
311.658	46.76
311.872	59.05
312.085	85.67
312.299	-53.59
312.513	9.9
312.727	46.76
312.941	54.95
313.154	28.33
313.368	-22.87
313.582	46.76
313.796	-31.06
314.009	63.15
314.223	-8.53
314.437	11.95
314.651	18.09
314.864	16.04
315.078	-6.49
315.292	65.19
315.505	61.1
315.719	44.71
315.933	-4.44
316.146	71.34
316.36	-51.54
316.573	52.91
316.787	-18.77
317.001	44.71
317.214	89.77
317.428	93.87
317.641	3.75
317.855	77.48
318.068	-4.44
318.282	118.44
318.495	63.15
318.709	-4.44
318.922	22.19
319.136	57
319.349	28.33
319.563	42.67
319.776	42.67
319.99	65.19
320.203	67.24
320.417	-4.44
320.63	36.52
320.843	16.04
321.057	48.81
321.27	65.19
321.483	61.1
321.697	38.57
321.91	38.57
322.124	22.19
322.337	100.01
322.55	95.91
322.763	-31.06
322.977	110.25
323.19	1.71
323.403	-24.92
323.617	-12.63
323.83	81.58
324.043	-20.82
324.256	44.71
324.469	44.71
324.683	-26.96
324.896	40.62
325.109	75.43
325.322	42.67
325.535	85.67
325.748	5.8
325.962	7.85
326.175	63.15
326.388	38.57
326.601	-16.73
326.814	97.96
327.027	1.71
327.24	91.82
327.453	13.99
327.666	3.75
327.879	75.43
328.092	48.81
328.305	44.71
328.518	52.91
328.731	13.99
328.944	30.38
329.157	44.71
329.37	34.47
329.583	-10.58
329.796	36.52
330.009	-43.35
330.222	22.19
330.435	13.99
330.648	9.9
330.861	40.62
331.073	48.81
331.286	36.52
331.499	54.95
331.712	16.04
331.925	38.57
332.138	38.57
332.35	9.9
332.563	22.19
332.776	-0.34
332.989	24.23
333.202	42.67
333.414	9.9
333.627	-2.39
333.84	65.19
334.053	73.39
334.265	65.19
334.478	7.85
334.691	67.24
334.903	24.23
335.116	34.47
335.329	67.24
335.541	7.85
335.754	-0.34
335.966	75.43
336.179	54.95
336.392	40.62
336.604	16.04
336.817	-10.58
337.029	54.95
337.242	54.95
337.454	24.23
337.667	63.15
337.88	118.44
338.092	36.52
338.305	73.39
338.517	32.43
338.729	65.19
338.942	71.34
339.154	48.81
339.367	57
339.579	79.53
339.792	16.04
340.004	11.95
340.217	34.47
340.429	30.38
340.641	20.14
340.854	34.47
341.066	38.57
341.278	34.47
341.491	104.11
341.703	75.43
341.915	73.39
342.128	97.96
342.34	30.38
342.552	63.15
342.764	83.63
342.977	95.91
343.189	57
343.401	73.39
343.613	-12.63
343.826	24.23
344.038	61.1
344.25	44.71
344.462	63.15
344.674	42.67
344.886	38.57
345.099	91.82
345.311	26.28
345.523	-0.34
345.735	7.85
345.947	46.76
346.159	91.82
346.371	22.19
346.583	38.57
346.795	30.38
347.007	22.19
347.219	5.8
347.431	48.81
347.643	136.87
347.855	36.52
348.067	134.82
348.279	-29.01
348.491	-12.63
348.703	65.19
348.915	100.01
349.127	61.1
349.339	-8.53
349.551	20.14
349.763	42.67
349.975	63.15
350.187	40.62
350.399	54.95
350.61	34.47
350.822	67.24
351.034	-37.2
351.246	-16.73
351.458	7.85
351.669	5.8
351.881	100.01
352.093	102.06
352.305	120.49
352.517	18.09
352.728	77.48
352.94	22.19
353.152	57
353.363	106.15
353.575	83.63
353.787	13.99
353.999	-10.58
354.21	104.11
354.422	22.19
354.633	-6.49
354.845	36.52
355.057	50.86
355.268	28.33
355.48	-16.73
355.692	87.72
355.903	42.67
356.115	52.91
356.326	52.91
356.538	30.38
356.749	26.28
356.961	48.81
357.172	-2.39
357.384	22.19
357.595	54.95
357.807	69.29
358.018	26.28
358.23	1.71
358.441	40.62
358.653	22.19
358.864	32.43
359.075	30.38
359.287	93.87
359.498	79.53
359.709	40.62
359.921	38.57
360.132	22.19
360.344	48.81
360.555	75.43
360.766	57
360.977	38.57
361.189	50.86
361.4	5.8
361.611	93.87
361.823	3.75
362.034	46.76
362.245	83.63
362.456	73.39
362.667	34.47
362.879	32.43
363.09	63.15
363.301	22.19
363.512	42.67
363.723	-18.77
363.935	-31.06
364.146	30.38
364.357	50.86
364.568	13.99
364.779	16.04
364.99	67.24
365.201	59.05
365.412	42.67
365.623	63.15
365.834	69.29
366.045	75.43
366.256	44.71
366.467	79.53
366.678	83.63
366.889	36.52
367.1	59.05
367.311	-6.49
367.522	-24.92
367.733	54.95
367.944	26.28
368.155	22.19
368.366	83.63
368.577	32.43
368.788	87.72
368.999	52.91
369.209	50.86
369.42	-26.96
369.631	73.39
369.842	48.81
370.053	32.43
370.264	-6.49
370.474	91.82
370.685	50.86
370.896	42.67
371.107	1.71
371.317	18.09
371.528	38.57
371.739	18.09
371.95	50.86
372.16	-26.96
372.371	63.15
372.582	9.9
372.792	26.28
373.003	138.92
373.214	59.05
373.424	61.1
373.635	24.23
373.846	34.47
374.056	3.75
374.267	79.53
374.477	28.33
374.688	7.85
374.898	40.62
375.109	63.15
375.319	34.47
375.53	59.05
375.74	79.53
375.951	110.25
376.161	36.52
376.372	65.19
376.582	48.81
376.793	71.34
377.003	67.24
377.214	22.19
377.424	73.39
377.635	3.75
377.845	54.95
378.055	54.95
378.266	34.47
378.476	83.63
378.686	13.99
378.897	110.25
379.107	83.63
379.317	20.14
379.528	28.33
379.738	108.2
379.948	42.67
380.158	38.57
380.369	81.58
380.579	26.28
380.789	-6.49
380.999	73.39
381.21	48.81
381.42	46.76
381.63	93.87
381.84	106.15
382.05	11.95
382.261	132.78
382.471	63.15
382.681	67.24
382.891	77.48
383.101	48.81
383.311	44.71
383.521	54.95
383.731	-0.34
383.941	18.09
384.151	28.33
384.361	46.76
384.571	-10.58
384.781	28.33
384.991	5.8
385.201	85.67
385.411	87.72
385.621	73.39
385.831	75.43
386.041	40.62
386.251	32.43
386.461	52.91
386.671	77.48
386.881	50.86
387.091	83.63
387.301	42.67
387.511	77.48
387.72	42.67
387.93	-6.49
388.14	95.91
388.35	-26.96
388.56	63.15
388.769	116.39
388.979	95.91
389.189	75.43
389.399	112.3
389.609	61.1
389.818	100.01
390.028	102.06
390.238	67.24
390.447	32.43
390.657	100.01
390.867	69.29
391.076	46.76
391.286	106.15
391.496	122.54
391.705	59.05
391.915	30.38
392.125	65.19
392.334	48.81
392.544	-10.58
392.753	77.48
392.963	69.29
393.172	87.72
393.382	85.67
393.591	54.95
393.801	52.91
394.01	32.43
394.22	36.52
394.429	93.87
394.639	112.3
394.848	-4.44
395.058	65.19
395.267	65.19
395.477	38.57
395.686	120.49
395.895	77.48
396.105	79.53
396.314	77.48
396.524	38.57
396.733	91.82
396.942	120.49
397.152	54.95
397.361	63.15
397.57	57
397.78	87.72
397.989	65.19
398.198	102.06
398.407	118.44
398.617	102.06
398.826	42.67
399.035	140.97
399.244	97.96
399.453	48.81
399.663	110.25
399.872	77.48
400.081	97.96
400.29	108.2
400.499	65.19
400.708	128.68
400.917	13.99
401.127	50.86
401.336	20.14
401.545	75.43
401.754	59.05
401.963	95.91
402.172	54.95
402.381	71.34
402.59	75.43
402.799	59.05
403.008	110.25
403.217	122.54
403.426	118.44
403.635	73.39
403.844	89.77
404.053	110.25
404.262	77.48
404.471	140.97
404.68	87.72
404.888	118.44
405.097	165.54
405.306	112.3
405.515	79.53
405.724	108.2
405.933	50.86
406.142	-0.34
406.35	73.39
406.559	145.06
406.768	93.87
406.977	136.87
407.185	171.69
407.394	190.12
407.603	140.97
407.812	97.96
408.02	173.74
408.229	155.3
408.438	118.44
408.646	157.35
408.855	122.54
409.064	231.08
409.272	202.41
409.481	224.94
409.69	163.5
409.898	216.74
410.107	169.64
410.315	186.02
410.524	222.89
410.733	233.13
410.941	126.63
411.15	212.65
411.358	251.56
411.567	171.69
411.775	214.7
411.984	188.07
412.192	216.74
412.401	251.56
412.609	269.99
412.818	284.33
413.026	300.71
413.234	374.44
413.443	263.85
413.651	294.57
413.86	345.77
414.068	435.88
414.276	364.2
414.485	319.14
414.693	325.29
414.901	466.6
415.11	360.1
415.318	439.97
415.526	433.83
415.734	515.75
415.943	417.44
416.151	390.82
416.359	431.78
416.567	495.27
416.776	394.92
416.984	571.04
417.192	564.9
417.4	612
417.608	575.14
417.817	525.99
418.025	583.33
418.233	638.62
418.441	661.15
418.649	763.55
418.857	683.68
419.065	802.46
419.273	751.26
419.481	763.55
419.689	814.75
419.897	857.76
420.105	890.53
420.313	880.29
420.521	878.24
420.729	880.29
420.937	990.88
421.145	1046.17
421.353	1052.31
421.561	1199.77
421.769	1123.99
421.977	1238.68
422.185	1171.1
422.393	1142.43
422.601	1308.31
422.809	1220.25
423.017	1255.06
423.224	1441.43
423.432	1425.04
423.64	1445.52
423.848	1629.84
424.056	1527.44
424.263	1515.16
424.471	1625.75
424.679	1556.11
424.887	1754.77
425.094	1801.87
425.302	1834.64
425.51	1926.8
425.718	1828.49
425.925	1932.94
426.133	1930.89
426.341	1990.28
426.548	2188.94
426.756	2109.07
426.964	2215.56
427.171	2412.17
427.379	2328.2
427.586	2365.06
427.794	2676.35
428.001	2643.59
428.209	2834.05
428.417	2799.23
428.624	2948.73
428.832	2905.73
429.039	2909.82
429.247	2889.34
429.454	3147.39
429.662	3346.04
429.869	3223.16
430.076	3450.49
430.284	3272.31
430.491	3446.39
430.699	3577.46
430.906	3638.9
431.114	3761.78
431.321	3802.74
431.528	3970.67
431.736	4075.12
431.943	4310.63
432.15	4142.7
432.358	4308.58
432.565	4392.55
432.772	4527.72
432.979	4720.23
433.187	4820.58
433.394	4994.65
433.601	5191.26
433.808	5164.64
434.016	5060.19
434.223	5348.95
434.43	5791.31
434.637	5475.93
434.844	5908.05
435.052	6094.41
435.259	6049.36
435.466	6014.54
435.673	5895.76
435.88	6342.22
436.087	6880.83
436.294	6678.08
436.501	6542.92
436.708	6823.49
436.915	6792.77
437.122	7204.41
437.329	7165.5
437.537	7300.67
437.743	7738.93
437.95	7634.49
438.157	8013.36
438.364	8218.16
438.571	8199.73
438.778	8189.49
438.985	9082.4
439.192	8558.12
439.399	8910.37
439.606	8803.88
439.813	9405.98
440.02	9909.78
440.227	9834
440.433	9524.76
440.64	9895.44
440.847	10042.9
441.054	10124.82
441.261	10591.75
441.467	10702.34
441.674	11021.83
441.881	11058.69
442.088	11230.72
442.294	11027.97
442.501	11261.44
442.708	11539.96
442.914	12051.95
443.121	12688.87
443.328	12209.65
443.534	13237.73
443.741	12895.72
443.948	12641.77
444.154	13563.36
444.361	13475.29
444.568	13508.06
444.774	13534.68
444.981	13622.75
445.187	14112.21
445.394	14400.97
445.6	14441.93
445.807	15918.52
446.013	15384
446.22	15523.26
446.426	16281.01
446.633	16303.54
446.839	16786.86
447.046	16199.09
447.252	16901.54
447.459	17112.49
447.665	17001.9
447.871	17939.86
448.078	18621.84
448.284	17751.45
448.491	17683.87
448.697	18646.41
448.903	19029.38
449.11	19234.18
449.316	18840.97
449.522	19363.2
449.728	19838.33
449.935	20170.1
450.141	19965.31
450.347	20548.98
450.553	19776.89
450.76	20243.83
450.966	20743.53
451.172	20831.6
451.378	21181.8
451.584	20753.77
451.791	20942.19
451.997	21040.49
452.203	21583.2
452.409	21542.24
452.615	21419.36
452.821	20716.91
453.027	20217.21
453.233	21525.86
453.44	20622.7
453.646	20944.24
453.852	21060.97
454.058	21321.06
454.264	20598.13
454.47	21253.48
454.676	20661.62
454.882	21349.73
455.088	19453.31
455.294	19875.2
455.5	20211.06
455.705	20204.92
455.911	19617.15
456.117	19193.22
456.323	18955.66
456.529	17882.52
456.735	18552.21
456.941	18283.92
457.147	17929.63
457.352	17417.63
457.558	17116.58
457.764	17309.09
457.97	17026.47
458.176	16557.49
458.381	16625.07
458.587	15764.92
458.793	15836.6
458.999	14962.12
459.204	16119.22
459.41	15572.41
459.616	14595.53
459.821	14652.88
460.027	14341.58
460.233	14253.52
460.438	13571.55
460.644	13694.43
460.85	13129.19
461.055	12772.84
461.261	12967.4
461.466	11802.1
461.672	11406.84
461.878	12314.09
462.083	11408.89
462.289	11339.26
462.494	11167.23
462.7	10608.14
462.905	10477.07
463.111	10784.26
463.316	10962.44
463.522	10456.59
463.727	10708.49
463.932	10601.99
464.138	10567.18
464.343	10853.89
464.549	10288.65
464.754	10886.66
464.959	10505.74
465.165	10696.2
465.37	10057.23
465.575	9877.01
465.781	10391.05
465.986	10399.24
466.191	9926.16
466.397	9649.69
466.602	9436.7
466.807	9594.39
467.012	9680.41
467.218	9500.19
467.423	9641.5
467.628	9494.04
467.833	9940.5
468.038	9707.03
468.244	9121.31
468.449	9745.94
468.654	9401.88
468.859	9360.92
469.064	9201.18
469.269	9072.16
