Data from USB4F104151__24__12-53-28-947.txt Node

Date: Fri Mar 14 12:53:28 EDT 2025
User: louis
Spectrometer: USB4F10415
Trigger mode: 4
Integration Time (sec): 1.000000E-2
Scans to average: 1
Electric dark correction enabled: true
Nonlinearity correction enabled: false
Boxcar width: 0
XAxis mode: Wavelengths
Number of Pixels in Spectrum: 3648
>>>>>Begin Spectral Data<<<<<
178.204	9.05
178.424	9.05
178.644	9.05
178.864	-1.19
179.084	-48.3
179.304	11.09
179.524	25.43
179.744	35.67
179.964	15.19
180.184	-60.59
180.404	47.96
180.624	-17.58
180.844	-19.63
181.064	-15.53
181.283	-13.48
181.503	-9.39
181.723	0.85
181.943	39.76
182.163	-19.63
182.383	15.19
182.602	15.19
182.822	-1.19
183.042	109.4
183.262	-23.72
183.482	62.29
183.701	15.19
183.921	50
184.141	-3.24
184.361	21.33
184.58	-25.77
184.8	-58.54
185.02	-50.35
185.239	-9.39
185.459	-40.11
185.679	-52.39
185.898	43.86
186.118	-15.53
186.338	4.95
186.557	37.72
186.777	-60.59
186.997	115.54
187.216	0.85
187.436	39.76
187.655	-17.58
187.875	29.52
188.095	-27.82
188.314	37.72
188.534	-72.87
188.753	50
188.973	-11.43
189.192	-48.3
189.412	-1.19
189.631	72.53
189.851	39.76
190.07	4.95
190.29	9.05
190.509	19.29
190.729	21.33
190.948	-25.77
191.168	-27.82
191.387	-13.48
191.607	-29.87
191.826	31.57
192.045	23.38
192.265	29.52
192.484	52.05
192.704	39.76
192.923	-11.43
193.142	21.33
193.362	21.33
193.581	45.91
193.8	-62.63
194.02	29.52
194.239	19.29
194.458	21.33
194.678	-9.39
194.897	0.85
195.116	35.67
195.335	29.52
195.555	-23.72
195.774	19.29
195.993	11.09
196.212	4.95
196.432	23.38
196.651	58.2
196.87	4.95
197.089	56.15
197.308	-68.78
197.528	39.76
197.747	-40.11
197.966	97.11
198.185	35.67
198.404	-76.97
198.623	-11.43
198.842	47.96
199.062	21.33
199.281	62.29
199.5	-87.21
199.719	33.62
199.938	-25.77
200.157	11.09
200.376	58.2
200.595	-1.19
200.814	62.29
201.033	-1.19
201.252	39.76
201.471	25.43
201.69	41.81
201.909	27.48
202.128	-68.78
202.347	29.52
202.566	-31.91
202.785	78.68
203.004	-54.44
203.223	41.81
203.442	-29.87
203.661	-23.72
203.879	60.24
204.098	45.91
204.317	45.91
204.536	23.38
204.755	-60.59
204.974	90.96
205.193	50
205.411	-60.59
205.63	-70.83
205.849	58.2
206.068	7
206.287	-9.39
206.505	2.9
206.724	41.81
206.943	29.52
207.162	-5.29
207.381	-7.34
207.599	-19.63
207.818	-13.48
208.037	45.91
208.255	-1.19
208.474	54.1
208.693	9.05
208.911	68.44
209.13	19.29
209.349	-27.82
209.567	144.21
209.786	-76.97
210.005	-42.15
210.223	9.05
210.442	-15.53
210.661	72.53
210.879	88.92
211.098	43.86
211.316	7
211.535	62.29
211.753	-9.39
211.972	54.1
212.191	39.76
212.409	-23.72
212.628	-7.34
212.846	62.29
213.065	52.05
213.283	19.29
213.502	64.34
213.72	41.81
213.938	9.05
214.157	39.76
214.375	-48.3
214.594	-5.29
214.812	47.96
215.031	-52.39
215.249	-5.29
215.467	-64.68
215.686	-21.67
215.904	47.96
216.122	-19.63
216.341	41.81
216.559	-13.48
216.778	-5.29
216.996	17.24
217.214	11.09
217.432	19.29
217.651	-27.82
217.869	45.91
218.087	-3.24
218.306	29.52
218.524	25.43
218.742	13.14
218.96	11.09
219.179	33.62
219.397	-9.39
219.615	7
219.833	-17.58
220.051	-29.87
220.27	62.29
220.488	4.95
220.706	-1.19
220.924	29.52
221.142	-36.01
221.36	-15.53
221.578	-27.82
221.796	21.33
222.015	103.25
222.233	-42.15
222.451	64.34
222.669	78.68
222.887	148.31
223.105	-1.19
223.323	27.48
223.541	50
223.759	54.1
223.977	74.58
224.195	25.43
224.413	9.05
224.631	52.05
224.849	47.96
225.067	4.95
225.285	19.29
225.503	-17.58
225.721	21.33
225.939	13.14
226.157	-13.48
226.375	103.25
226.592	-44.2
226.81	56.15
227.028	2.9
227.246	29.52
227.464	13.14
227.682	54.1
227.9	-15.53
228.117	-9.39
228.335	-25.77
228.553	27.48
228.771	-29.87
228.989	9.05
229.206	4.95
229.424	17.24
229.642	-13.48
229.86	4.95
230.077	15.19
230.295	0.85
230.513	4.95
230.731	7
230.948	39.76
231.166	62.29
231.384	93.01
231.601	-19.63
231.819	-1.19
232.037	41.81
232.254	-1.19
232.472	-70.83
232.689	7
232.907	0.85
233.125	-23.72
233.342	-40.11
233.56	-62.63
233.777	-13.48
233.995	-17.58
234.213	-9.39
234.43	-31.91
234.648	39.76
234.865	17.24
235.083	-15.53
235.3	-19.63
235.518	58.2
235.735	68.44
235.953	-21.67
236.17	39.76
236.388	21.33
236.605	37.72
236.822	15.19
237.04	25.43
237.257	-33.96
237.475	21.33
237.692	33.62
237.909	-9.39
238.127	62.29
238.344	50
238.562	15.19
238.779	-40.11
238.996	45.91
239.214	-3.24
239.431	29.52
239.648	-72.87
239.865	-23.72
240.083	45.91
240.3	25.43
240.517	21.33
240.735	-27.82
240.952	58.2
241.169	-15.53
241.386	2.9
241.603	15.19
241.821	-7.34
242.038	25.43
242.255	-31.91
242.472	-7.34
242.689	90.96
242.907	-25.77
243.124	-48.3
243.341	45.91
243.558	-48.3
243.775	25.43
243.992	31.57
244.209	117.59
244.426	45.91
244.643	21.33
244.86	-23.72
245.078	31.57
245.295	33.62
245.512	13.14
245.729	-5.29
245.946	29.52
246.163	-9.39
246.38	66.39
246.597	-7.34
246.814	17.24
247.031	54.1
247.248	7
247.464	-9.39
247.681	82.77
247.898	2.9
248.115	41.81
248.332	2.9
248.549	21.33
248.766	-5.29
248.983	56.15
249.2	66.39
249.417	0.85
249.633	-17.58
249.85	-46.25
250.067	-33.96
250.284	15.19
250.501	50
250.717	43.86
250.934	76.63
251.151	-74.92
251.368	52.05
251.585	-19.63
251.801	27.48
252.018	41.81
252.235	37.72
252.451	13.14
252.668	19.29
252.885	33.62
253.102	-44.2
253.318	68.44
253.535	27.48
253.752	-7.34
253.968	70.48
254.185	-66.73
254.401	21.33
254.618	21.33
254.835	31.57
255.051	88.92
255.268	25.43
255.484	15.19
255.701	-50.35
255.917	-19.63
256.134	52.05
256.351	37.72
256.567	-3.24
256.784	80.72
257	41.81
257.217	7
257.433	-1.19
257.65	15.19
257.866	17.24
258.082	-31.91
258.299	17.24
258.515	23.38
258.732	-17.58
258.948	-7.34
259.165	-23.72
259.381	35.67
259.597	27.48
259.814	68.44
260.03	-21.67
260.246	41.81
260.463	-21.67
260.679	4.95
260.895	7
261.112	2.9
261.328	70.48
261.544	80.72
261.761	-5.29
261.977	27.48
262.193	54.1
262.409	23.38
262.626	-31.91
262.842	25.43
263.058	19.29
263.274	62.29
263.49	27.48
263.707	56.15
263.923	-7.34
264.139	72.53
264.355	43.86
264.571	33.62
264.787	45.91
265.004	-11.43
265.22	-21.67
265.436	4.95
265.652	-13.48
265.868	-33.96
266.084	-40.11
266.3	35.67
266.516	72.53
266.732	4.95
266.948	21.33
267.164	23.38
267.38	80.72
267.596	60.24
267.812	7
268.028	-7.34
268.244	45.91
268.46	72.53
268.676	39.76
268.892	0.85
269.108	54.1
269.324	37.72
269.54	-62.63
269.756	15.19
269.972	19.29
270.188	82.77
270.403	-1.19
270.619	13.14
270.835	45.91
271.051	-11.43
271.267	23.38
271.483	50
271.698	2.9
271.914	17.24
272.13	33.62
272.346	27.48
272.562	47.96
272.777	-25.77
272.993	-1.19
273.209	60.24
273.425	15.19
273.64	76.63
273.856	93.01
274.072	-17.58
274.287	72.53
274.503	-21.67
274.719	-27.82
274.934	-11.43
275.15	47.96
275.366	-54.44
275.581	-44.2
275.797	45.91
276.012	23.38
276.228	29.52
276.444	-27.82
276.659	39.76
276.875	13.14
277.09	-27.82
277.306	-42.15
277.521	-21.67
277.737	-64.68
277.952	70.48
278.168	-31.91
278.383	0.85
278.599	-27.82
278.814	9.05
279.03	17.24
279.245	54.1
279.461	2.9
279.676	-3.24
279.892	-66.73
280.107	64.34
280.322	31.57
280.538	-7.34
280.753	-15.53
280.969	62.29
281.184	13.14
281.399	7
281.615	29.52
281.83	31.57
282.045	-23.72
282.26	-50.35
282.476	119.64
282.691	25.43
282.906	37.72
283.122	-9.39
283.337	-15.53
283.552	52.05
283.767	13.14
283.983	-17.58
284.198	68.44
284.413	-11.43
284.628	-68.78
284.843	-1.19
285.058	21.33
285.274	29.52
285.489	4.95
285.704	74.58
285.919	-5.29
286.134	0.85
286.349	50
286.564	15.19
286.779	23.38
286.995	54.1
287.21	-25.77
287.425	-1.19
287.64	17.24
287.855	37.72
288.07	15.19
288.285	-58.54
288.5	-5.29
288.715	-13.48
288.93	35.67
289.145	-52.39
289.36	78.68
289.575	-13.48
289.79	4.95
290.004	-60.59
290.219	-3.24
290.434	-36.01
290.649	13.14
290.864	-25.77
291.079	-3.24
291.294	62.29
291.509	-1.19
291.724	-1.19
291.938	2.9
292.153	13.14
292.368	19.29
292.583	-11.43
292.798	-19.63
293.012	4.95
293.227	7
293.442	33.62
293.657	41.81
293.871	-21.67
294.086	19.29
294.301	9.05
294.516	54.1
294.73	17.24
294.945	9.05
295.16	7
295.374	68.44
295.589	15.19
295.804	-40.11
296.018	-15.53
296.233	-31.91
296.447	-33.96
296.662	-36.01
296.877	-19.63
297.091	0.85
297.306	4.95
297.52	25.43
297.735	9.05
297.949	-66.73
298.164	-1.19
298.378	15.19
298.593	-7.34
298.807	31.57
299.022	-68.78
299.236	58.2
299.451	13.14
299.665	47.96
299.88	45.91
300.094	29.52
300.309	-50.35
300.523	88.92
300.737	70.48
300.952	-48.3
301.166	82.77
301.381	29.52
301.595	-1.19
301.809	4.95
302.024	9.05
302.238	-17.58
302.452	52.05
302.667	4.95
302.881	17.24
303.095	41.81
303.309	62.29
303.524	-29.87
303.738	-36.01
303.952	56.15
304.166	82.77
304.381	-13.48
304.595	74.58
304.809	-27.82
305.023	13.14
305.237	-97.45
305.452	54.1
305.666	-3.24
305.88	56.15
306.094	7
306.308	17.24
306.522	19.29
306.736	-5.29
306.95	47.96
307.164	25.43
307.379	35.67
307.593	15.19
307.807	101.2
308.021	41.81
308.235	-3.24
308.449	29.52
308.663	-17.58
308.877	54.1
309.091	-44.2
309.305	-62.63
309.519	31.57
309.733	-19.63
309.947	45.91
310.161	62.29
310.374	50
310.588	50
310.802	-5.29
311.016	-1.19
311.23	-68.78
311.444	56.15
311.658	45.91
311.872	2.9
312.085	9.05
312.299	33.62
312.513	78.68
312.727	45.91
312.941	-3.24
313.154	35.67
313.368	74.58
313.582	15.19
313.796	13.14
314.009	9.05
314.223	58.2
314.437	66.39
314.651	-3.24
314.864	68.44
315.078	52.05
315.292	11.09
315.505	-31.91
315.719	39.76
315.933	9.05
316.146	0.85
316.36	25.43
316.573	101.2
316.787	-3.24
317.001	25.43
317.214	45.91
317.428	-42.15
317.641	-23.72
317.855	-58.54
318.068	-1.19
318.282	50
318.495	64.34
318.709	-36.01
318.922	-27.82
319.136	41.81
319.349	-21.67
319.563	21.33
319.776	0.85
319.99	23.38
320.203	56.15
320.417	-38.06
320.63	-1.19
320.843	56.15
321.057	33.62
321.27	-1.19
321.483	-76.97
321.697	88.92
321.91	45.91
322.124	37.72
322.337	56.15
322.55	-66.73
322.763	15.19
322.977	-11.43
323.19	70.48
323.403	64.34
323.617	-15.53
323.83	4.95
324.043	35.67
324.256	39.76
324.469	27.48
324.683	23.38
324.896	54.1
325.109	-25.77
325.322	-87.21
325.535	78.68
325.748	-3.24
325.962	4.95
326.175	-9.39
326.388	9.05
326.601	-19.63
326.814	9.05
327.027	68.44
327.24	-13.48
327.453	-19.63
327.666	25.43
327.879	-31.91
328.092	60.24
328.305	25.43
328.518	-19.63
328.731	-44.2
328.944	-21.67
329.157	17.24
329.37	19.29
329.583	-11.43
329.796	47.96
330.009	-25.77
330.222	37.72
330.435	15.19
330.648	45.91
330.861	2.9
331.073	-23.72
331.286	7
331.499	99.16
331.712	27.48
331.925	-46.25
332.138	9.05
332.35	31.57
332.563	23.38
332.776	33.62
332.989	109.4
333.202	-29.87
333.414	-1.19
333.627	-44.2
333.84	-25.77
334.053	-31.91
334.265	-5.29
334.478	0.85
334.691	7
334.903	60.24
335.116	-13.48
335.329	43.86
335.541	13.14
335.754	4.95
335.966	35.67
336.179	7
336.392	4.95
336.604	15.19
336.817	11.09
337.029	-5.29
337.242	50
337.454	39.76
337.667	-3.24
337.88	68.44
338.092	29.52
338.305	0.85
338.517	17.24
338.729	29.52
338.942	15.19
339.154	2.9
339.367	13.14
339.579	9.05
339.792	0.85
340.004	84.82
340.217	29.52
340.429	13.14
340.641	17.24
340.854	64.34
341.066	2.9
341.278	37.72
341.491	-13.48
341.703	13.14
341.915	17.24
342.128	78.68
342.34	50
342.552	37.72
342.764	33.62
342.977	50
343.189	45.91
343.401	27.48
343.613	17.24
343.826	64.34
344.038	-50.35
344.25	9.05
344.462	66.39
344.674	-27.82
344.886	17.24
345.099	11.09
345.311	0.85
345.523	31.57
345.735	-81.07
345.947	0.85
346.159	-15.53
346.371	52.05
346.583	45.91
346.795	50
347.007	39.76
347.219	-40.11
347.431	25.43
347.643	35.67
347.855	31.57
348.067	25.43
348.279	31.57
348.491	45.91
348.703	-38.06
348.915	-11.43
349.127	72.53
349.339	52.05
349.551	4.95
349.763	13.14
349.975	-17.58
350.187	-5.29
350.399	25.43
350.61	19.29
350.822	33.62
351.034	-17.58
351.246	-76.97
351.458	66.39
351.669	-17.58
351.881	72.53
352.093	-27.82
352.305	66.39
352.517	-11.43
352.728	-31.91
352.94	-23.72
353.152	68.44
353.363	2.9
353.575	21.33
353.787	23.38
353.999	54.1
354.21	50
354.422	7
354.633	17.24
354.845	76.63
355.057	-7.34
355.268	43.86
355.48	0.85
355.692	-46.25
355.903	17.24
356.115	23.38
356.326	0.85
356.538	-25.77
356.749	4.95
356.961	95.06
357.172	19.29
357.384	-11.43
357.595	-29.87
357.807	47.96
358.018	54.1
358.23	-33.96
358.441	-17.58
358.653	-44.2
358.864	-17.58
359.075	-21.67
359.287	37.72
359.498	-76.97
359.709	50
359.921	-11.43
360.132	-11.43
360.344	78.68
360.555	29.52
360.766	7
360.977	-1.19
361.189	74.58
361.4	41.81
361.611	97.11
361.823	50
362.034	-11.43
362.245	-56.49
362.456	66.39
362.667	-17.58
362.879	43.86
363.09	-7.34
363.301	-33.96
363.512	105.3
363.723	-15.53
363.935	-7.34
364.146	72.53
364.357	39.76
364.568	74.58
364.779	-9.39
364.99	-13.48
365.201	33.62
365.412	39.76
365.623	-17.58
365.834	11.09
366.045	15.19
366.256	-1.19
366.467	11.09
366.678	17.24
366.889	-3.24
367.1	64.34
367.311	11.09
367.522	-15.53
367.733	27.48
367.944	-27.82
368.155	-19.63
368.366	9.05
368.577	4.95
368.788	39.76
368.999	-46.25
369.209	-40.11
369.42	-9.39
369.631	70.48
369.842	-9.39
370.053	23.38
370.264	23.38
370.474	39.76
370.685	-13.48
370.896	35.67
371.107	56.15
371.317	35.67
371.528	17.24
371.739	23.38
371.95	4.95
372.16	0.85
372.371	-19.63
372.582	-33.96
372.792	-68.78
373.003	11.09
373.214	54.1
373.424	-38.06
373.635	13.14
373.846	56.15
374.056	-31.91
374.267	-17.58
374.477	21.33
374.688	41.81
374.898	74.58
375.109	-11.43
375.319	23.38
375.53	54.1
375.74	29.52
375.951	27.48
376.161	11.09
376.372	33.62
376.582	7
376.793	23.38
377.003	7
377.214	23.38
377.424	-17.58
377.635	66.39
377.845	-66.73
378.055	35.67
378.266	76.63
378.476	4.95
378.686	43.86
378.897	-7.34
379.107	-21.67
379.317	86.87
379.528	-13.48
379.738	117.59
379.948	-40.11
380.158	-17.58
380.369	-70.83
380.579	86.87
380.789	15.19
380.999	52.05
381.21	105.3
381.42	21.33
381.63	-3.24
381.84	41.81
382.05	27.48
382.261	-33.96
382.471	-3.24
382.681	-27.82
382.891	45.91
383.101	9.05
383.311	27.48
383.521	-17.58
383.731	72.53
383.941	0.85
384.151	-46.25
384.361	33.62
384.571	2.9
384.781	47.96
384.991	88.92
385.201	52.05
385.411	62.29
385.621	47.96
385.831	-19.63
386.041	-62.63
386.251	21.33
386.461	33.62
386.671	13.14
386.881	15.19
387.091	25.43
387.301	70.48
387.511	-3.24
387.72	52.05
387.93	27.48
388.14	-29.87
388.35	-1.19
388.56	-9.39
388.769	107.35
388.979	54.1
389.189	-85.16
389.399	41.81
389.609	13.14
389.818	39.76
390.028	33.62
390.238	11.09
390.447	33.62
390.657	50
390.867	-15.53
391.076	-11.43
391.286	29.52
391.496	47.96
391.705	0.85
391.915	13.14
392.125	-5.29
392.334	78.68
392.544	-1.19
392.753	47.96
392.963	33.62
393.172	4.95
393.382	68.44
393.591	62.29
393.801	-3.24
394.01	29.52
394.22	13.14
394.429	7
394.639	-25.77
394.848	-7.34
395.058	35.67
395.267	7
395.477	90.96
395.686	47.96
395.895	58.2
396.105	9.05
396.314	15.19
396.524	-1.19
396.733	-19.63
396.942	39.76
397.152	-3.24
397.361	-46.25
397.57	35.67
397.78	-74.92
397.989	-3.24
398.198	-29.87
398.407	0.85
398.617	111.44
398.826	47.96
399.035	-50.35
399.244	-3.24
399.453	2.9
399.663	13.14
399.872	54.1
400.081	0.85
400.29	43.86
400.499	50
400.708	13.14
400.917	-27.82
401.127	-21.67
401.336	17.24
401.545	4.95
401.754	4.95
401.963	97.11
402.172	0.85
402.381	19.29
402.59	-31.91
402.799	15.19
403.008	-9.39
403.217	0.85
403.426	-7.34
403.635	-13.48
403.844	19.29
404.053	111.44
404.262	-42.15
404.471	111.44
404.68	-50.35
404.888	-54.44
405.097	7
405.306	90.96
405.515	47.96
405.724	4.95
405.933	-1.19
406.142	76.63
406.35	47.96
406.559	4.95
406.768	43.86
406.977	39.76
407.185	-9.39
407.394	4.95
407.603	-27.82
407.812	-31.91
408.02	13.14
408.229	21.33
408.438	62.29
408.646	7
408.855	56.15
409.064	31.57
409.272	41.81
409.481	72.53
409.69	23.38
409.898	72.53
410.107	54.1
410.315	54.1
410.524	47.96
410.733	37.72
410.941	80.72
411.15	142.16
411.358	99.16
411.567	78.68
411.775	111.44
411.984	25.43
412.192	39.76
412.401	80.72
412.609	68.44
412.818	86.87
413.026	45.91
413.234	70.48
413.443	113.49
413.651	76.63
413.86	39.76
414.068	68.44
414.276	115.54
414.485	103.25
414.693	113.49
414.901	166.74
415.11	119.64
415.318	125.78
415.526	150.36
415.734	170.83
415.943	115.54
416.151	107.35
416.359	93.01
416.567	203.6
416.776	154.45
416.984	142.16
417.192	158.55
417.4	215.89
417.608	119.64
417.817	203.6
418.025	181.07
418.233	267.09
418.441	158.55
418.649	176.98
418.857	181.07
419.065	250.71
419.273	185.17
419.481	203.6
419.689	217.94
419.897	234.32
420.105	205.65
420.313	201.55
420.521	285.52
420.729	328.53
420.937	316.24
421.145	336.72
421.353	314.19
421.561	295.76
421.769	408.4
421.977	297.81
422.185	402.26
422.393	367.44
422.601	279.38
422.809	392.02
423.017	414.54
423.224	492.37
423.432	410.45
423.64	398.16
423.848	492.37
424.056	432.97
424.263	484.17
424.471	422.73
424.679	420.69
424.887	510.8
425.094	535.37
425.302	437.07
425.51	463.69
425.718	611.15
425.925	607.05
426.133	621.39
426.341	619.34
426.548	627.53
426.756	619.34
426.964	627.53
427.171	721.74
427.379	619.34
427.586	777.03
427.794	768.84
428.001	721.74
428.209	861
428.417	828.23
428.624	928.58
428.832	875.34
429.039	752.46
429.247	785.23
429.454	938.82
429.662	977.73
429.869	912.2
430.076	951.11
430.284	944.97
430.491	953.16
430.699	1047.37
430.906	996.17
431.114	1082.18
431.321	1098.56
431.528	1192.77
431.736	1266.5
431.943	1276.74
432.15	1233.73
432.358	1311.55
432.565	1268.55
432.772	1344.32
432.979	1471.29
433.187	1465.15
433.394	1397.57
433.601	1393.47
433.808	1569.6
434.016	1520.45
434.223	1534.78
434.43	1565.5
434.637	1626.94
434.844	1809.21
435.052	1809.21
435.259	1841.98
435.466	1841.98
435.673	1610.56
435.88	1948.47
436.087	2020.15
436.294	1962.81
436.501	1985.34
436.708	1880.89
436.915	2085.69
437.122	2163.51
437.329	2122.55
437.537	2157.36
437.743	2274.1
437.95	2227
438.157	2394.93
438.364	2370.35
438.571	2548.53
438.778	2356.02
438.985	2546.48
439.192	2632.49
439.399	2571.05
439.606	2689.84
439.813	2794.28
440.02	2853.67
440.227	2822.95
440.433	2816.81
440.64	2835.24
440.847	2878.25
441.054	2929.45
441.261	3113.77
441.467	3128.1
441.674	3175.2
441.881	3207.97
442.088	3171.11
442.294	3310.37
442.501	3226.4
442.708	3408.67
442.914	3629.85
443.121	3607.33
443.328	3502.88
443.534	3799.84
443.741	3619.61
443.948	3736.35
444.154	3932.95
444.361	3953.43
444.568	3945.24
444.774	3918.62
444.981	3953.43
445.187	4119.32
445.394	4389.65
445.6	4252.44
445.807	4657.93
446.013	4586.26
446.22	4391.7
446.426	4713.23
446.633	4854.54
446.839	4924.17
447.046	4733.71
447.252	4969.23
447.459	4932.36
447.665	4971.27
447.871	5278.47
448.078	5470.98
448.284	5247.75
448.491	5313.28
448.697	5600
448.903	5530.37
449.11	5589.76
449.316	5593.86
449.522	5616.38
449.728	5810.94
449.935	5843.71
450.141	5798.65
450.347	5958.39
450.553	5817.08
450.76	5823.23
450.966	6021.88
451.172	6009.59
451.378	6300.41
451.584	6044.41
451.791	6206.2
451.997	6185.72
452.203	6195.96
452.409	6345.46
452.615	6322.93
452.821	5960.44
453.027	6079.22
453.233	6337.27
453.44	6056.7
453.646	6075.13
453.852	6071.03
454.058	6210.29
454.264	6081.27
454.47	6210.29
454.676	5960.44
454.882	6122.23
455.088	5731.07
455.294	5743.36
455.5	5958.39
455.705	6064.89
455.911	5755.65
456.117	5552.9
456.323	5542.66
456.529	5219.08
456.735	5458.69
456.941	5225.22
457.147	5077.77
457.352	5131.02
457.558	5065.48
457.764	4815.63
457.97	4940.55
458.176	4811.53
458.381	4803.34
458.587	4643.6
458.793	4641.55
458.999	4514.58
459.204	4680.46
459.41	4537.1
459.616	4285.2
459.821	4125.46
460.027	4168.47
460.233	4102.93
460.438	3973.91
460.644	4039.45
460.85	3863.32
461.055	3691.29
461.261	3717.92
461.466	3447.58
461.672	3380
461.878	3756.83
462.083	3345.19
462.289	3230.5
462.494	3271.46
462.7	3142.44
462.905	2997.03
463.111	3181.35
463.316	3255.08
463.522	3042.09
463.727	3212.07
463.932	3060.52
464.138	3162.92
464.343	3201.83
464.549	2949.93
464.754	3214.12
464.959	3259.17
465.165	3015.46
465.37	3078.95
465.575	2835.24
465.781	2968.36
465.986	2990.89
466.191	2923.3
466.397	2710.32
466.602	2716.46
466.807	2753.32
467.012	2798.38
467.218	2773.8
467.423	2794.28
467.628	2855.72
467.833	2997.03
468.038	2792.23
468.244	2710.32
468.449	2894.63
468.654	2872.11
468.859	2738.99
469.064	2693.93
469.269	2569.01
469.474	2724.65
469.679	2704.17
469.885	2634.54
470.09	2612.01
470.295	2587.44
470.5	2536.24
470.705	2558.77
470.91	2456.37
471.115	2439.98
471.32	2505.52
471.525	2538.29
471.73	2403.12
471.935	2454.32
472.139	2272.05
