Data from USB4F104151__59__12-54-05-943.txt Node

Date: Fri Mar 14 12:54:05 EDT 2025
User: louis
Spectrometer: USB4F10415
Trigger mode: 4
Integration Time (sec): 1.000000E-2
Scans to average: 1
Electric dark correction enabled: true
Nonlinearity correction enabled: false
Boxcar width: 0
XAxis mode: Wavelengths
Number of Pixels in Spectrum: 3648
>>>>>Begin Spectral Data<<<<<
178.204	6.83
178.424	6.83
178.644	6.83
178.864	10.92
179.084	-60.76
179.304	-25.94
179.524	27.31
179.744	19.11
179.964	2.73
180.184	17.07
180.404	-21.84
180.624	-44.37
180.844	15.02
181.064	15.02
181.283	-3.41
181.503	-32.08
181.723	31.4
181.943	-64.85
182.163	74.41
182.383	72.36
182.602	47.79
182.822	66.22
183.042	96.94
183.262	-23.89
183.482	64.17
183.701	41.64
183.921	88.75
184.141	68.27
184.361	58.03
184.58	23.21
184.8	39.59
185.02	31.4
185.239	12.97
185.459	17.07
185.679	53.93
185.898	31.4
186.118	27.31
186.338	49.83
186.557	86.7
186.777	19.11
186.997	33.45
187.216	70.31
187.436	78.51
187.655	80.55
187.875	43.69
188.095	94.89
188.314	15.02
188.534	45.74
188.753	86.7
188.973	15.02
189.192	27.31
189.412	15.02
189.631	74.41
189.851	66.22
190.07	-7.51
190.29	49.83
190.509	49.83
190.729	-3.41
190.948	88.75
191.168	51.88
191.387	66.22
191.607	37.55
191.826	60.07
192.045	4.78
192.265	-7.51
192.484	-23.89
192.704	41.64
192.923	0.68
193.142	80.55
193.362	37.55
193.581	72.36
193.8	47.79
194.02	88.75
194.239	10.92
194.458	0.68
194.678	19.11
194.897	43.69
195.116	55.98
195.335	55.98
195.555	51.88
195.774	6.83
195.993	-3.41
196.212	39.59
196.432	55.98
196.651	37.55
196.87	86.7
197.089	105.13
197.308	109.23
197.528	109.23
197.747	35.5
197.966	12.97
198.185	64.17
198.404	17.07
198.623	49.83
198.842	35.5
199.062	23.21
199.281	76.46
199.5	19.11
199.719	25.26
199.938	60.07
200.157	49.83
200.376	58.03
200.595	98.99
200.814	31.4
201.033	25.26
201.252	31.4
201.471	41.64
201.69	41.64
201.909	21.16
202.128	72.36
202.347	17.07
202.566	-42.32
202.785	8.87
203.004	84.65
203.223	105.13
203.442	33.45
203.661	170.66
203.879	107.18
204.098	86.7
204.317	43.69
204.536	23.21
204.755	62.12
204.974	80.55
205.193	21.16
205.411	119.46
205.63	-17.75
205.849	80.55
206.068	66.22
206.287	31.4
206.505	51.88
206.724	10.92
206.943	10.92
207.162	76.46
207.381	27.31
207.599	92.84
207.818	39.59
208.037	12.97
208.255	12.97
208.474	117.42
208.693	8.87
208.911	68.27
209.13	72.36
209.349	15.02
209.567	35.5
209.786	144.04
210.005	29.35
210.223	64.17
210.442	8.87
210.661	37.55
210.879	-7.51
211.098	2.73
211.316	66.22
211.535	78.51
211.753	74.41
211.972	39.59
212.191	88.75
212.409	-25.94
212.628	-46.42
212.846	-5.46
213.065	27.31
213.283	35.5
213.502	8.87
213.72	109.23
213.938	31.4
214.157	74.41
214.375	119.46
214.594	-11.61
214.812	6.83
215.031	29.35
215.249	-5.46
215.467	123.56
215.686	111.27
215.904	68.27
216.122	35.5
216.341	90.79
216.559	17.07
216.778	39.59
216.996	66.22
217.214	49.83
217.432	80.55
217.651	72.36
217.869	43.69
218.087	62.12
218.306	78.51
218.524	98.99
218.742	64.17
218.96	66.22
219.179	68.27
219.397	33.45
219.615	78.51
219.833	19.11
220.051	70.31
220.27	107.18
220.488	49.83
220.706	82.6
220.924	-15.7
221.142	64.17
221.36	39.59
221.578	80.55
221.796	19.11
222.015	47.79
222.233	45.74
222.451	35.5
222.669	88.75
222.887	27.31
223.105	62.12
223.323	76.46
223.541	101.03
223.759	80.55
223.977	39.59
224.195	78.51
224.413	53.93
224.631	111.27
224.849	2.73
225.067	39.59
225.285	53.93
225.503	45.74
225.721	0.68
225.939	31.4
226.157	80.55
226.375	15.02
226.592	0.68
226.81	107.18
227.028	103.08
227.246	64.17
227.464	12.97
227.682	64.17
227.9	66.22
228.117	53.93
228.335	35.5
228.553	23.21
228.771	4.78
228.989	23.21
229.206	58.03
229.424	47.79
229.642	-9.56
229.86	94.89
230.077	35.5
230.295	66.22
230.513	-25.94
230.731	78.51
230.948	25.26
231.166	76.46
231.384	4.78
231.601	60.07
231.819	-13.65
232.037	68.27
232.254	47.79
232.472	19.11
232.689	107.18
232.907	64.17
233.125	27.31
233.342	94.89
233.56	10.92
233.777	15.02
233.995	10.92
234.213	103.08
234.43	33.45
234.648	49.83
234.865	92.84
235.083	60.07
235.3	33.45
235.518	60.07
235.735	101.03
235.953	25.26
236.17	64.17
236.388	111.27
236.605	12.97
236.822	76.46
237.04	76.46
237.257	109.23
237.475	137.9
237.692	-3.41
237.909	39.59
238.127	74.41
238.344	10.92
238.562	135.85
238.779	45.74
238.996	31.4
239.214	117.42
239.431	78.51
239.648	60.07
239.865	41.64
240.083	80.55
240.3	82.6
240.517	27.31
240.735	-5.46
240.952	31.4
241.169	47.79
241.386	80.55
241.603	58.03
241.821	74.41
242.038	15.02
242.255	8.87
242.472	66.22
242.689	-3.41
242.907	43.69
243.124	60.07
243.341	53.93
243.558	37.55
243.775	55.98
243.992	6.83
244.209	27.31
244.426	15.02
244.643	2.73
244.86	39.59
245.078	96.94
245.295	49.83
245.512	68.27
245.729	39.59
245.946	66.22
246.163	-34.13
246.38	41.64
246.597	17.07
246.814	62.12
247.031	29.35
247.248	49.83
247.464	125.61
247.681	29.35
247.898	101.03
248.115	35.5
248.332	-9.56
248.549	92.84
248.766	107.18
248.983	37.55
249.2	39.59
249.417	70.31
249.633	33.45
249.85	82.6
250.067	92.84
250.284	-5.46
250.501	10.92
250.717	31.4
250.934	15.02
251.151	60.07
251.368	78.51
251.585	113.32
251.801	21.16
252.018	70.31
252.235	39.59
252.451	51.88
252.668	-1.37
252.885	60.07
253.102	0.68
253.318	19.11
253.535	66.22
253.752	37.55
253.968	64.17
254.185	27.31
254.401	62.12
254.618	49.83
254.835	74.41
255.051	41.64
255.268	88.75
255.484	103.08
255.701	58.03
255.917	15.02
256.134	66.22
256.351	92.84
256.567	80.55
256.784	113.32
257	-19.8
257.217	113.32
257.433	66.22
257.65	53.93
257.866	51.88
258.082	60.07
258.299	-15.7
258.515	47.79
258.732	35.5
258.948	113.32
259.165	47.79
259.381	84.65
259.597	55.98
259.814	109.23
260.03	60.07
260.246	105.13
260.463	37.55
260.679	88.75
260.895	25.26
261.112	66.22
261.328	78.51
261.544	21.16
261.761	96.94
261.977	105.13
262.193	43.69
262.409	47.79
262.626	74.41
262.842	98.99
263.058	88.75
263.274	45.74
263.49	64.17
263.707	107.18
263.923	43.69
264.139	41.64
264.355	51.88
264.571	70.31
264.787	17.07
265.004	109.23
265.22	-19.8
265.436	92.84
265.652	2.73
265.868	53.93
266.084	121.51
266.3	94.89
266.516	0.68
266.732	72.36
266.948	17.07
267.164	80.55
267.38	101.03
267.596	43.69
267.812	137.9
268.028	55.98
268.244	68.27
268.46	27.31
268.676	70.31
268.892	80.55
269.108	23.21
269.324	29.35
269.54	45.74
269.756	117.42
269.972	39.59
270.188	37.55
270.403	0.68
270.619	94.89
270.835	88.75
271.051	76.46
271.267	31.4
271.483	8.87
271.698	31.4
271.914	25.26
272.13	49.83
272.346	80.55
272.562	31.4
272.777	31.4
272.993	-34.13
273.209	78.51
273.425	62.12
273.64	45.74
273.856	62.12
274.072	78.51
274.287	43.69
274.503	33.45
274.719	31.4
274.934	113.32
275.15	-15.7
275.366	37.55
275.581	90.79
275.797	53.93
276.012	68.27
276.228	49.83
276.444	10.92
276.659	98.99
276.875	49.83
277.09	82.6
277.306	19.11
277.521	41.64
277.737	80.55
277.952	23.21
278.168	47.79
278.383	82.6
278.599	33.45
278.814	41.64
279.03	68.27
279.245	84.65
279.461	53.93
279.676	29.35
279.892	39.59
280.107	80.55
280.322	25.26
280.538	84.65
280.753	2.73
280.969	72.36
281.184	29.35
281.399	60.07
281.615	109.23
281.83	47.79
282.045	80.55
282.26	84.65
282.476	66.22
282.691	76.46
282.906	23.21
283.122	15.02
283.337	62.12
283.552	29.35
283.767	35.5
283.983	82.6
284.198	66.22
284.413	70.31
284.628	35.5
284.843	107.18
285.058	146.09
285.274	84.65
285.489	0.68
285.704	47.79
285.919	74.41
286.134	139.94
286.349	-25.94
286.564	35.5
286.779	10.92
286.995	17.07
287.21	60.07
287.425	146.09
287.64	53.93
287.855	25.26
288.07	-21.84
288.285	41.64
288.5	21.16
288.715	39.59
288.93	92.84
289.145	66.22
289.36	33.45
289.575	43.69
289.79	39.59
290.004	55.98
290.219	98.99
290.434	101.03
290.649	21.16
290.864	15.02
291.079	64.17
291.294	113.32
291.509	53.93
291.724	86.7
291.938	15.02
292.153	72.36
292.368	23.21
292.583	60.07
292.798	74.41
293.012	88.75
293.227	58.03
293.442	29.35
293.657	43.69
293.871	92.84
294.086	-3.41
294.301	137.9
294.516	96.94
294.73	29.35
294.945	78.51
295.16	80.55
295.374	49.83
295.589	86.7
295.804	49.83
296.018	94.89
296.233	43.69
296.447	113.32
296.662	49.83
296.877	43.69
297.091	47.79
297.306	117.42
297.52	98.99
297.735	43.69
297.949	33.45
298.164	86.7
298.378	-30.04
298.593	47.79
298.807	103.08
299.022	-17.75
299.236	23.21
299.451	78.51
299.665	62.12
299.88	70.31
300.094	12.97
300.309	19.11
300.523	58.03
300.737	23.21
300.952	45.74
301.166	141.99
301.381	84.65
301.595	10.92
301.809	41.64
302.024	111.27
302.238	78.51
302.452	37.55
302.667	-1.37
302.881	23.21
303.095	23.21
303.309	162.47
303.524	74.41
303.738	72.36
303.952	43.69
304.166	19.11
304.381	64.17
304.595	101.03
304.809	66.22
305.023	96.94
305.237	78.51
305.452	58.03
305.666	15.02
305.88	27.31
306.094	76.46
306.308	-15.7
306.522	6.83
306.736	80.55
306.95	84.65
307.164	88.75
307.379	33.45
307.593	84.65
307.807	49.83
308.021	55.98
308.235	74.41
308.449	146.09
308.663	62.12
308.877	66.22
309.091	43.69
309.305	49.83
309.519	8.87
309.733	33.45
309.947	-3.41
310.161	162.47
310.374	27.31
310.588	74.41
310.802	6.83
311.016	107.18
311.23	60.07
311.444	68.27
311.658	33.45
311.872	113.32
312.085	51.88
312.299	-27.99
312.513	109.23
312.727	15.02
312.941	-21.84
313.154	64.17
313.368	-38.23
313.582	60.07
313.796	45.74
314.009	98.99
314.223	2.73
314.437	39.59
314.651	43.69
314.864	86.7
315.078	23.21
315.292	15.02
315.505	21.16
315.719	55.98
315.933	70.31
316.146	47.79
316.36	98.99
316.573	78.51
316.787	8.87
317.001	105.13
317.214	72.36
317.428	-7.51
317.641	64.17
317.855	82.6
318.068	39.59
318.282	68.27
318.495	105.13
318.709	27.31
318.922	15.02
319.136	117.42
319.349	96.94
319.563	41.64
319.776	-1.37
319.99	53.93
320.203	17.07
320.417	105.13
320.63	51.88
320.843	43.69
321.057	127.66
321.27	90.79
321.483	58.03
321.697	66.22
321.91	88.75
322.124	84.65
322.337	76.46
322.55	41.64
322.763	0.68
322.977	8.87
323.19	47.79
323.403	4.78
323.617	72.36
323.83	82.6
324.043	23.21
324.256	82.6
324.469	49.83
324.683	45.74
324.896	49.83
325.109	84.65
325.322	47.79
325.535	76.46
325.748	58.03
325.962	55.98
326.175	29.35
326.388	68.27
326.601	123.56
326.814	105.13
327.027	21.16
327.24	92.84
327.453	27.31
327.666	15.02
327.879	115.37
328.092	66.22
328.305	68.27
328.518	66.22
328.731	27.31
328.944	64.17
329.157	101.03
329.37	74.41
329.583	60.07
329.796	68.27
330.009	96.94
330.222	88.75
330.435	90.79
330.648	41.64
330.861	53.93
331.073	51.88
331.286	6.83
331.499	55.98
331.712	70.31
331.925	107.18
332.138	74.41
332.35	53.93
332.563	43.69
332.776	90.79
332.989	64.17
333.202	49.83
333.414	43.69
333.627	98.99
333.84	25.26
334.053	39.59
334.265	53.93
334.478	-1.37
334.691	23.21
334.903	82.6
335.116	74.41
335.329	49.83
335.541	105.13
335.754	29.35
335.966	33.45
336.179	49.83
336.392	62.12
336.604	55.98
336.817	23.21
337.029	51.88
337.242	78.51
337.454	58.03
337.667	80.55
337.88	148.14
338.092	55.98
338.305	74.41
338.517	45.74
338.729	12.97
338.942	86.7
339.154	62.12
339.367	-1.37
339.579	66.22
339.792	105.13
340.004	121.51
340.217	35.5
340.429	12.97
340.641	123.56
340.854	96.94
341.066	74.41
341.278	121.51
341.491	43.69
341.703	125.61
341.915	88.75
342.128	29.35
342.34	23.21
342.552	96.94
342.764	62.12
342.977	90.79
343.189	53.93
343.401	45.74
343.613	84.65
343.826	94.89
344.038	41.64
344.25	119.46
344.462	119.46
344.674	90.79
344.886	17.07
345.099	92.84
345.311	78.51
345.523	90.79
345.735	121.51
345.947	62.12
346.159	33.45
346.371	90.79
346.583	37.55
346.795	39.59
347.007	17.07
347.219	4.78
347.431	101.03
347.643	90.79
347.855	25.26
348.067	111.27
348.279	33.45
348.491	137.9
348.703	-3.41
348.915	45.74
349.127	27.31
349.339	76.46
349.551	43.69
349.763	96.94
349.975	103.08
350.187	-1.37
350.399	98.99
350.61	105.13
350.822	41.64
351.034	82.6
351.246	-5.46
351.458	76.46
351.669	80.55
351.881	31.4
352.093	39.59
352.305	98.99
352.517	109.23
352.728	70.31
352.94	84.65
353.152	80.55
353.363	-5.46
353.575	113.32
353.787	109.23
353.999	123.56
354.21	115.37
354.422	90.79
354.633	70.31
354.845	115.37
355.057	115.37
355.268	117.42
355.48	76.46
355.692	53.93
355.903	72.36
356.115	80.55
356.326	31.4
356.538	135.85
356.749	82.6
356.961	98.99
357.172	8.87
357.384	53.93
357.595	123.56
357.807	-19.8
358.018	43.69
358.23	88.75
358.441	68.27
358.653	125.61
358.864	55.98
359.075	103.08
359.287	76.46
359.498	64.17
359.709	76.46
359.921	92.84
360.132	29.35
360.344	86.7
360.555	109.23
360.766	15.02
360.977	8.87
361.189	74.41
361.4	-44.37
361.611	107.18
361.823	86.7
362.034	53.93
362.245	76.46
362.456	19.11
362.667	96.94
362.879	66.22
363.09	101.03
363.301	66.22
363.512	164.52
363.723	96.94
363.935	-13.65
364.146	43.69
364.357	98.99
364.568	113.32
364.779	53.93
364.99	27.31
365.201	70.31
365.412	139.94
365.623	72.36
365.834	127.66
366.045	131.75
366.256	137.9
366.467	62.12
366.678	92.84
366.889	-21.84
367.1	23.21
367.311	92.84
367.522	141.99
367.733	41.64
367.944	115.37
368.155	94.89
368.366	15.02
368.577	139.94
368.788	107.18
368.999	23.21
369.209	121.51
369.42	72.36
369.631	96.94
369.842	74.41
370.053	60.07
370.264	121.51
370.474	64.17
370.685	12.97
370.896	88.75
371.107	25.26
371.317	80.55
371.528	72.36
371.739	103.08
371.95	35.5
372.16	113.32
372.371	74.41
372.582	96.94
372.792	39.59
373.003	92.84
373.214	49.83
373.424	164.52
373.635	127.66
373.846	72.36
374.056	41.64
374.267	17.07
374.477	74.41
374.688	-19.8
374.898	86.7
375.109	58.03
375.319	10.92
375.53	60.07
375.74	92.84
375.951	82.6
376.161	72.36
376.372	70.31
376.582	43.69
376.793	105.13
377.003	96.94
377.214	62.12
377.424	47.79
377.635	154.28
377.845	103.08
378.055	125.61
378.266	103.08
378.476	88.75
378.686	109.23
378.897	70.31
379.107	25.26
379.317	139.94
379.528	17.07
379.738	84.65
379.948	-11.61
380.158	88.75
380.369	-7.51
380.579	115.37
380.789	12.97
380.999	90.79
381.21	133.8
381.42	90.79
381.63	90.79
381.84	94.89
382.05	105.13
382.261	88.75
382.471	121.51
382.681	86.7
382.891	96.94
383.101	111.27
383.311	115.37
383.521	84.65
383.731	27.31
383.941	70.31
384.151	98.99
384.361	131.75
384.571	64.17
384.781	115.37
384.991	121.51
385.201	72.36
385.411	115.37
385.621	19.11
385.831	76.46
386.041	80.55
386.251	113.32
386.461	137.9
386.671	33.45
386.881	115.37
387.091	6.83
387.301	78.51
387.511	96.94
387.72	111.27
387.93	53.93
388.14	113.32
388.35	-7.51
388.56	-17.75
388.769	64.17
388.979	103.08
389.189	98.99
389.399	109.23
389.609	74.41
389.818	58.03
390.028	23.21
390.238	98.99
390.447	111.27
390.657	101.03
390.867	103.08
391.076	70.31
391.286	53.93
391.496	70.31
391.705	105.13
391.915	111.27
392.125	148.14
392.334	117.42
392.544	80.55
392.753	98.99
392.963	96.94
393.172	10.92
393.382	152.23
393.591	125.61
393.801	55.98
394.01	53.93
394.22	62.12
394.429	125.61
394.639	60.07
394.848	90.79
395.058	90.79
395.267	158.38
395.477	72.36
395.686	55.98
395.895	19.11
396.105	139.94
396.314	148.14
396.524	47.79
396.733	76.46
396.942	146.09
397.152	131.75
397.361	164.52
397.57	154.28
397.78	96.94
397.989	17.07
398.198	115.37
398.407	96.94
398.617	141.99
398.826	137.9
399.035	74.41
399.244	115.37
399.453	96.94
399.663	148.14
399.872	174.76
400.081	74.41
400.29	113.32
400.499	72.36
400.708	115.37
400.917	49.83
401.127	51.88
401.336	84.65
401.545	133.8
401.754	88.75
401.963	139.94
402.172	86.7
402.381	35.5
402.59	88.75
402.799	41.64
403.008	146.09
403.217	164.52
403.426	115.37
403.635	150.18
403.844	68.27
404.053	180.9
404.262	162.47
404.471	144.04
404.68	119.46
404.888	137.9
405.097	80.55
405.306	125.61
405.515	98.99
405.724	178.86
405.933	70.31
406.142	203.43
406.35	158.38
406.559	193.19
406.768	158.38
406.977	203.43
407.185	98.99
407.394	219.82
407.603	201.38
407.812	109.23
408.02	98.99
408.229	207.53
408.438	144.04
408.646	209.58
408.855	189.1
409.064	195.24
409.272	121.51
409.481	207.53
409.69	244.39
409.898	197.29
410.107	191.14
410.315	289.45
410.524	262.82
410.733	316.07
410.941	260.77
411.15	291.49
411.358	131.75
411.567	316.07
411.775	309.93
411.984	293.54
412.192	297.64
412.401	279.21
412.609	326.31
412.818	350.89
413.026	342.69
413.234	326.31
413.443	385.7
413.651	363.17
413.86	357.03
414.068	428.71
414.276	451.24
414.485	408.23
414.693	453.28
414.901	488.1
415.11	418.47
415.318	504.48
415.526	467.62
415.734	527.01
415.943	488.1
416.151	498.34
416.359	580.26
416.567	606.88
416.776	629.41
416.984	670.37
417.192	688.8
417.4	701.09
417.608	696.99
417.817	703.14
418.025	604.83
418.233	832.16
418.441	670.37
418.649	760.48
418.857	805.53
419.065	776.86
419.273	756.38
419.481	860.83
419.689	938.65
419.897	963.23
420.105	998.04
420.313	1000.09
420.521	981.66
420.729	1043.1
420.937	1129.11
421.145	1217.18
421.353	1233.56
421.561	1256.09
421.769	1235.61
421.977	1376.92
422.185	1331.86
422.393	1358.49
422.601	1477.27
422.809	1610.39
423.017	1528.47
423.224	1536.66
423.432	1604.24
423.64	1575.57
423.848	1858.19
424.056	1759.89
424.263	1829.52
424.471	1794.7
424.679	1880.72
424.887	1974.92
425.094	2009.74
425.302	2007.69
425.51	2003.6
425.718	2220.68
425.925	2130.57
426.133	2206.35
426.341	2364.04
426.548	2505.35
426.756	2503.3
426.964	2468.49
427.171	2712.19
427.379	2869.89
427.586	2697.86
427.794	2876.03
428.001	2931.33
428.209	3119.74
428.417	3103.36
428.624	3424.89
428.832	3390.07
429.039	3263.1
429.247	3275.38
429.454	3547.76
429.662	3742.32
429.869	3623.54
430.076	3773.04
430.284	3814
430.491	3857.01
430.699	4295.27
430.906	4082.28
431.114	4098.67
431.321	4414.06
431.528	4383.34
431.736	4618.85
431.943	4924
432.15	4872.8
432.358	4854.37
432.565	5165.66
432.772	5005.92
432.979	5401.18
433.187	5304.92
433.394	5499.48
433.601	5960.27
433.808	5956.18
434.016	5837.39
434.223	6034
434.43	6519.37
434.637	6189.64
434.844	6679.11
435.052	6685.25
435.259	6777.41
435.466	6928.96
435.673	6933.06
435.88	7307.84
436.087	7645.75
436.294	7633.46
436.501	7535.16
436.708	7623.22
436.915	7881.27
437.122	8077.87
437.329	8340.01
437.537	8372.78
437.743	8487.47
437.95	8475.18
438.157	8911.39
438.364	9341.47
438.571	9273.89
438.778	9396.76
438.985	10230.29
439.192	9728.53
439.399	10084.88
439.606	9900.56
439.813	10326.54
440.02	11184.64
440.227	10924.55
440.433	10773
440.64	11190.78
440.847	10885.64
441.054	11409.92
441.261	11936.24
441.467	12083.7
441.674	12022.26
441.881	12679.66
442.088	12734.95
442.294	12321.26
442.501	12618.22
442.708	12882.41
442.914	13500.89
443.121	14195.15
443.328	13748.7
443.534	14643.66
443.741	14594.51
443.948	14174.67
444.154	15329.73
444.361	14836.17
444.568	15319.49
444.774	15208.9
444.981	15202.75
445.187	15860.15
445.394	16427.44
445.6	16144.82
445.807	17719.71
446.013	16953.77
446.22	17521.06
446.426	17785.24
446.633	18213.27
446.839	18946.44
447.046	18250.13
447.252	18934.15
447.459	18831.76
447.665	19020.17
447.871	20064.63
448.078	20652.4
448.284	19470.72
448.491	20447.6
448.697	21266.79
448.903	21471.59
449.11	21633.38
449.316	21260.65
449.522	21836.13
449.728	22333.78
449.935	22532.43
450.141	22356.31
450.347	23044.43
450.553	22247.77
450.76	22411.6
450.966	23304.52
451.172	22978.89
451.378	23447.88
451.584	23109.96
451.791	23552.32
451.997	23605.57
452.203	23671.11
452.409	24043.84
452.615	23742.78
452.821	23339.33
453.027	22569.3
453.233	24135.99
453.44	23142.73
453.646	23621.95
453.852	23263.56
454.058	23935.29
454.264	23222.6
454.47	23626.05
454.676	22901.07
454.882	23908.67
455.088	21899.61
455.294	22344.02
455.5	22200.66
455.705	22823.25
455.911	21961.05
456.117	21244.26
456.323	21164.39
456.529	19782.01
456.735	20908.4
456.941	20357.49
457.147	20103.54
457.352	19415.43
457.558	19138.95
457.764	19216.77
457.97	18848.14
458.176	18315.67
458.381	18688.4
458.587	17463.71
458.793	17502.62
458.999	16648.62
459.204	17709.47
459.41	17629.6
459.616	16345.52
459.821	16357.81
460.027	16191.92
460.233	15886.78
460.438	15358.4
460.644	15546.81
460.85	14453.2
461.055	14563.79
461.261	14393.81
461.466	13359.58
461.672	12810.73
461.878	13973.97
462.083	12880.36
462.289	12835.3
462.494	12700.14
462.7	12038.64
462.905	11719.16
463.111	12095.99
463.316	12143.09
463.522	11948.53
463.727	11969.01
463.932	11936.24
464.138	11618.81
464.343	11901.43
464.549	11743.74
464.754	11866.61
464.959	11880.95
465.165	11870.71
465.37	11207.17
465.575	11106.82
465.781	11645.43
465.986	11848.18
466.191	11069.95
466.397	11121.15
466.602	10736.13
466.807	10797.57
467.012	10930.69
467.218	10797.57
467.423	10488.33
467.628	10646.02
