Data from USB4F104151__99__12-54-59-454.txt Node

Date: Fri Mar 14 12:54:59 EDT 2025
User: louis
Spectrometer: USB4F10415
Trigger mode: 4
Integration Time (sec): 1.000000E-2
Scans to average: 1
Electric dark correction enabled: true
Nonlinearity correction enabled: false
Boxcar width: 0
XAxis mode: Wavelengths
Number of Pixels in Spectrum: 3648
>>>>>Begin Spectral Data<<<<<
178.204	-28.67
178.424	-28.67
178.644	-28.67
178.864	-6.14
179.084	-51.2
179.304	-20.48
179.524	-4.1
179.744	-20.48
179.964	-26.62
180.184	-12.29
180.404	-26.62
180.624	-57.34
180.844	40.96
181.064	45.06
181.283	51.2
181.503	2.05
181.723	28.67
181.943	-16.38
182.163	22.53
182.383	47.1
182.602	-24.58
182.822	30.72
183.042	75.77
183.262	8.19
183.482	-47.1
183.701	24.58
183.921	-38.91
184.141	-6.14
184.361	-12.29
184.58	-51.2
184.8	-20.48
185.02	43.01
185.239	18.43
185.459	14.34
185.679	24.58
185.898	102.4
186.118	30.72
186.338	47.1
186.557	-2.05
186.777	-12.29
186.997	-22.53
187.216	-28.67
187.436	-98.3
187.655	61.44
187.875	-16.38
188.095	71.68
188.314	16.38
188.534	47.1
188.753	79.87
188.973	-26.62
189.192	-14.34
189.412	26.62
189.631	24.58
189.851	0
190.07	-22.53
190.29	71.68
190.509	51.2
190.729	24.58
190.948	4.1
191.168	12.29
191.387	59.39
191.607	34.82
191.826	6.14
192.045	-30.72
192.265	108.54
192.484	47.1
192.704	-12.29
192.923	16.38
193.142	55.3
193.362	26.62
193.581	30.72
193.8	47.1
194.02	63.49
194.239	-45.06
194.458	24.58
194.678	61.44
194.897	36.86
195.116	-30.72
195.335	45.06
195.555	-8.19
195.774	-40.96
195.993	4.1
196.212	22.53
196.432	-18.43
196.651	-28.67
196.87	2.05
197.089	-8.19
197.308	63.49
197.528	-63.49
197.747	-81.92
197.966	-14.34
198.185	94.21
198.404	0
198.623	10.24
198.842	10.24
199.062	-4.1
199.281	-10.24
199.5	6.14
199.719	22.53
199.938	43.01
200.157	18.43
200.376	-8.19
200.595	34.82
200.814	4.1
201.033	32.77
201.252	34.82
201.471	26.62
201.69	32.77
201.909	18.43
202.128	-69.63
202.347	-22.53
202.566	-36.86
202.785	47.1
203.004	26.62
203.223	45.06
203.442	22.53
203.661	14.34
203.879	18.43
204.098	30.72
204.317	-22.53
204.536	22.53
204.755	2.05
204.974	8.19
205.193	-34.82
205.411	53.25
205.63	75.77
205.849	-10.24
206.068	26.62
206.287	-77.82
206.505	71.68
206.724	69.63
206.943	55.3
207.162	86.01
207.381	67.58
207.599	59.39
207.818	-24.58
208.037	10.24
208.255	10.24
208.474	8.19
208.693	-22.53
208.911	-40.96
209.13	-4.1
209.349	57.34
209.567	43.01
209.786	47.1
210.005	-40.96
210.223	10.24
210.442	-22.53
210.661	22.53
210.879	49.15
211.098	10.24
211.316	26.62
211.535	-30.72
211.753	-12.29
211.972	51.2
212.191	-61.44
212.409	-2.05
212.628	69.63
212.846	88.06
213.065	-4.1
213.283	61.44
213.502	6.14
213.72	6.14
213.938	16.38
214.157	32.77
214.375	45.06
214.594	71.68
214.812	12.29
215.031	-12.29
215.249	61.44
215.467	-8.19
215.686	-16.38
215.904	18.43
216.122	36.86
216.341	47.1
216.559	-63.49
216.778	28.67
216.996	30.72
217.214	-6.14
217.432	-36.86
217.651	-18.43
217.869	59.39
218.087	8.19
218.306	-4.1
218.524	30.72
218.742	83.97
218.96	63.49
219.179	-18.43
219.397	45.06
219.615	22.53
219.833	8.19
220.051	32.77
220.27	-2.05
220.488	49.15
220.706	-45.06
220.924	-45.06
221.142	2.05
221.36	14.34
221.578	10.24
221.796	10.24
222.015	69.63
222.233	51.2
222.451	79.87
222.669	-18.43
222.887	36.86
223.105	-6.14
223.323	36.86
223.541	0
223.759	79.87
223.977	14.34
224.195	59.39
224.413	-63.49
224.631	-6.14
224.849	10.24
225.067	14.34
225.285	-67.58
225.503	10.24
225.721	40.96
225.939	79.87
226.157	18.43
226.375	47.1
226.592	0
226.81	59.39
227.028	43.01
227.246	57.34
227.464	-24.58
227.682	-22.53
227.9	-34.82
228.117	34.82
228.335	49.15
228.553	65.54
228.771	-16.38
228.989	28.67
229.206	-8.19
229.424	30.72
229.642	40.96
229.86	-4.1
230.077	38.91
230.295	2.05
230.513	14.34
230.731	-16.38
230.948	-10.24
231.166	2.05
231.384	-30.72
231.601	14.34
231.819	-16.38
232.037	30.72
232.254	-30.72
232.472	53.25
232.689	6.14
232.907	32.77
233.125	28.67
233.342	2.05
233.56	40.96
233.777	-12.29
233.995	47.1
234.213	59.39
234.43	53.25
234.648	96.25
234.865	4.1
235.083	83.97
235.3	18.43
235.518	-10.24
235.735	57.34
235.953	34.82
236.17	-6.14
236.388	6.14
236.605	32.77
236.822	71.68
237.04	8.19
237.257	75.77
237.475	36.86
237.692	69.63
237.909	-18.43
238.127	-2.05
238.344	26.62
238.562	88.06
238.779	-2.05
238.996	26.62
239.214	0
239.431	-20.48
239.648	-26.62
239.865	4.1
240.083	28.67
240.3	55.3
240.517	2.05
240.735	-40.96
240.952	43.01
241.169	120.83
241.386	-14.34
241.603	10.24
241.821	-47.1
242.038	71.68
242.255	26.62
242.472	-22.53
242.689	20.48
242.907	28.67
243.124	118.78
243.341	59.39
243.558	-73.73
243.775	2.05
243.992	-14.34
244.209	14.34
244.426	22.53
244.643	-14.34
244.86	-75.77
245.078	34.82
245.295	2.05
245.512	18.43
245.729	30.72
245.946	12.29
246.163	26.62
246.38	45.06
246.597	57.34
246.814	34.82
247.031	40.96
247.248	-45.06
247.464	22.53
247.681	30.72
247.898	-34.82
248.115	75.77
248.332	-6.14
248.549	36.86
248.766	4.1
248.983	53.25
249.2	12.29
249.417	2.05
249.633	38.91
249.85	124.93
250.067	-18.43
250.284	59.39
250.501	16.38
250.717	36.86
250.934	28.67
251.151	8.19
251.368	-40.96
251.585	53.25
251.801	34.82
252.018	-8.19
252.235	4.1
252.451	0
252.668	28.67
252.885	51.2
253.102	6.14
253.318	36.86
253.535	-6.14
253.752	77.82
253.968	36.86
254.185	20.48
254.401	22.53
254.618	43.01
254.835	-12.29
255.051	75.77
255.268	8.19
255.484	45.06
255.701	-4.1
255.917	53.25
256.134	-38.91
256.351	34.82
256.567	45.06
256.784	16.38
257	-77.82
257.217	12.29
257.433	-14.34
257.65	-32.77
257.866	-59.39
258.082	-43.01
258.299	-8.19
258.515	-63.49
258.732	26.62
258.948	-16.38
259.165	-10.24
259.381	18.43
259.597	65.54
259.814	2.05
260.03	0
260.246	30.72
260.463	-38.91
260.679	53.25
260.895	26.62
261.112	24.58
261.328	51.2
261.544	-24.58
261.761	-18.43
261.977	100.35
262.193	-57.34
262.409	45.06
262.626	38.91
262.842	-2.05
263.058	51.2
263.274	34.82
263.49	-10.24
263.707	98.3
263.923	34.82
264.139	-36.86
264.355	-36.86
264.571	112.64
264.787	40.96
265.004	8.19
265.22	12.29
265.436	32.77
265.652	2.05
265.868	63.49
266.084	-36.86
266.3	2.05
266.516	-32.77
266.732	90.11
266.948	22.53
267.164	-63.49
267.38	-12.29
267.596	77.82
267.812	-34.82
268.028	-6.14
268.244	108.54
268.46	10.24
268.676	-4.1
268.892	-8.19
269.108	67.58
269.324	36.86
269.54	10.24
269.756	45.06
269.972	-22.53
270.188	10.24
270.403	51.2
270.619	16.38
270.835	32.77
271.051	-20.48
271.267	32.77
271.483	73.73
271.698	10.24
271.914	61.44
272.13	20.48
272.346	-20.48
272.562	20.48
272.777	61.44
272.993	-24.58
273.209	36.86
273.425	-2.05
273.64	-4.1
273.856	2.05
274.072	4.1
274.287	-34.82
274.503	28.67
274.719	-10.24
274.934	14.34
275.15	-16.38
275.366	38.91
275.581	75.77
275.797	53.25
276.012	-10.24
276.228	-6.14
276.444	53.25
276.659	57.34
276.875	-10.24
277.09	2.05
277.306	-12.29
277.521	0
277.737	-53.25
277.952	-40.96
278.168	-32.77
278.383	94.21
278.599	-26.62
278.814	49.15
279.03	-51.2
279.245	98.3
279.461	18.43
279.676	47.1
279.892	-20.48
280.107	-32.77
280.322	10.24
280.538	-14.34
280.753	28.67
280.969	40.96
281.184	90.11
281.399	18.43
281.615	8.19
281.83	-30.72
282.045	26.62
282.26	43.01
282.476	30.72
282.691	69.63
282.906	-71.68
283.122	-4.1
283.337	-6.14
283.552	75.77
283.767	24.58
283.983	45.06
284.198	-43.01
284.413	51.2
284.628	16.38
284.843	96.25
285.058	-4.1
285.274	8.19
285.489	-4.1
285.704	-28.67
285.919	-4.1
286.134	26.62
286.349	-10.24
286.564	-6.14
286.779	59.39
286.995	2.05
287.21	-43.01
287.425	49.15
287.64	2.05
287.855	69.63
288.07	55.3
288.285	67.58
288.5	24.58
288.715	59.39
288.93	-12.29
289.145	20.48
289.36	10.24
289.575	18.43
289.79	2.05
290.004	-12.29
290.219	14.34
290.434	10.24
290.649	-2.05
290.864	-6.14
291.079	45.06
291.294	63.49
291.509	43.01
291.724	-2.05
291.938	16.38
292.153	51.2
292.368	6.14
292.583	90.11
292.798	53.25
293.012	-47.1
293.227	-20.48
293.442	45.06
293.657	81.92
293.871	10.24
294.086	-59.39
294.301	59.39
294.516	63.49
294.73	94.21
294.945	49.15
295.16	-26.62
295.374	18.43
295.589	55.3
295.804	-32.77
296.018	124.93
296.233	63.49
296.447	2.05
296.662	-18.43
296.877	34.82
297.091	34.82
297.306	24.58
297.52	22.53
297.735	-36.86
297.949	-63.49
298.164	-4.1
298.378	-53.25
298.593	4.1
298.807	20.48
299.022	59.39
299.236	94.21
299.451	51.2
299.665	-28.67
299.88	-12.29
300.094	-4.1
300.309	-6.14
300.523	12.29
300.737	100.35
300.952	-88.06
301.166	20.48
301.381	-47.1
301.595	0
301.809	6.14
302.024	-2.05
302.238	6.14
302.452	69.63
302.667	-36.86
302.881	14.34
303.095	61.44
303.309	22.53
303.524	6.14
303.738	-2.05
303.952	-59.39
304.166	-20.48
304.381	-10.24
304.595	12.29
304.809	0
305.023	32.77
305.237	-47.1
305.452	86.01
305.666	14.34
305.88	36.86
306.094	16.38
306.308	-12.29
306.522	63.49
306.736	26.62
306.95	-30.72
307.164	71.68
307.379	4.1
307.593	-16.38
307.807	-4.1
308.021	61.44
308.235	-51.2
308.449	6.14
308.663	36.86
308.877	98.3
309.091	30.72
309.305	43.01
309.519	-12.29
309.733	-22.53
309.947	-43.01
310.161	40.96
310.374	24.58
310.588	20.48
310.802	14.34
311.016	28.67
311.23	38.91
311.444	22.53
311.658	-53.25
311.872	-45.06
312.085	63.49
312.299	-51.2
312.513	22.53
312.727	30.72
312.941	-26.62
313.154	-10.24
313.368	8.19
313.582	-16.38
313.796	71.68
314.009	-4.1
314.223	73.73
314.437	51.2
314.651	-24.58
314.864	36.86
315.078	49.15
315.292	18.43
315.505	8.19
315.719	22.53
315.933	51.2
316.146	28.67
316.36	-16.38
316.573	10.24
316.787	4.1
317.001	0
317.214	45.06
317.428	24.58
317.641	34.82
317.855	36.86
318.068	6.14
318.282	-6.14
318.495	-30.72
318.709	51.2
318.922	24.58
319.136	34.82
319.349	63.49
319.563	10.24
319.776	47.1
319.99	8.19
320.203	2.05
320.417	57.34
320.63	-8.19
320.843	90.11
321.057	-32.77
321.27	-2.05
321.483	98.3
321.697	8.19
321.91	-6.14
322.124	61.44
322.337	-10.24
322.55	61.44
322.763	61.44
322.977	26.62
323.19	34.82
323.403	61.44
323.617	28.67
323.83	69.63
324.043	-12.29
324.256	2.05
324.469	49.15
324.683	-4.1
324.896	73.73
325.109	45.06
325.322	24.58
325.535	-6.14
325.748	18.43
325.962	-4.1
326.175	32.77
326.388	51.2
326.601	22.53
326.814	30.72
327.027	14.34
327.24	49.15
327.453	-67.58
327.666	92.16
327.879	40.96
328.092	20.48
328.305	16.38
328.518	-22.53
328.731	-14.34
328.944	36.86
329.157	81.92
329.37	30.72
329.583	53.25
329.796	51.2
330.009	-73.73
330.222	61.44
330.435	14.34
330.648	75.77
330.861	-24.58
331.073	26.62
331.286	-67.58
331.499	45.06
331.712	-34.82
331.925	45.06
332.138	-20.48
332.35	45.06
332.563	-2.05
332.776	65.54
332.989	-53.25
333.202	-71.68
333.414	100.35
333.627	6.14
333.84	-57.34
334.053	59.39
334.265	22.53
334.478	18.43
334.691	116.73
334.903	30.72
335.116	-28.67
335.329	-45.06
335.541	32.77
335.754	34.82
335.966	10.24
336.179	-34.82
336.392	-10.24
336.604	22.53
336.817	20.48
337.029	22.53
337.242	14.34
337.454	10.24
337.667	6.14
337.88	69.63
338.092	-32.77
338.305	59.39
338.517	-71.68
338.729	38.91
338.942	69.63
339.154	-55.3
339.367	-6.14
339.579	-10.24
339.792	16.38
340.004	81.92
340.217	-8.19
340.429	71.68
340.641	-18.43
340.854	10.24
341.066	73.73
341.278	36.86
341.491	69.63
341.703	18.43
341.915	38.91
342.128	14.34
342.34	4.1
342.552	14.34
342.764	28.67
342.977	63.49
343.189	24.58
343.401	-20.48
343.613	-43.01
343.826	22.53
344.038	28.67
344.25	-26.62
344.462	30.72
344.674	47.1
344.886	-2.05
345.099	22.53
345.311	-8.19
345.523	26.62
345.735	34.82
345.947	86.01
346.159	-14.34
346.371	-6.14
346.583	4.1
346.795	61.44
347.007	6.14
347.219	2.05
347.431	-26.62
347.643	-36.86
347.855	10.24
348.067	75.77
348.279	0
348.491	-47.1
348.703	-20.48
348.915	34.82
349.127	8.19
349.339	126.97
349.551	-26.62
349.763	63.49
349.975	-34.82
350.187	-34.82
350.399	34.82
350.61	51.2
350.822	28.67
351.034	34.82
351.246	57.34
351.458	-20.48
351.669	-12.29
351.881	30.72
352.093	-4.1
352.305	12.29
352.517	73.73
352.728	73.73
352.94	43.01
353.152	77.82
353.363	14.34
353.575	34.82
353.787	53.25
353.999	0
354.21	4.1
354.422	-28.67
354.633	-38.91
354.845	55.3
355.057	38.91
355.268	16.38
355.48	-32.77
355.692	-2.05
355.903	40.96
356.115	-47.1
356.326	18.43
356.538	34.82
356.749	-2.05
356.961	45.06
357.172	-4.1
357.384	16.38
357.595	47.1
357.807	96.25
358.018	34.82
358.23	-28.67
358.441	24.58
358.653	88.06
358.864	-47.1
359.075	2.05
359.287	26.62
359.498	22.53
359.709	-6.14
359.921	34.82
360.132	6.14
360.344	2.05
360.555	14.34
360.766	-26.62
360.977	-22.53
361.189	22.53
361.4	51.2
361.611	38.91
361.823	2.05
362.034	100.35
362.245	32.77
362.456	28.67
362.667	12.29
362.879	32.77
363.09	22.53
363.301	24.58
363.512	-10.24
363.723	0
363.935	26.62
364.146	51.2
364.357	10.24
364.568	-30.72
364.779	-18.43
364.99	90.11
365.201	14.34
365.412	73.73
365.623	16.38
365.834	38.91
366.045	14.34
366.256	55.3
366.467	-2.05
366.678	-10.24
366.889	45.06
367.1	-34.82
367.311	36.86
367.522	43.01
367.733	-12.29
367.944	51.2
368.155	-4.1
368.366	71.68
368.577	53.25
368.788	24.58
368.999	10.24
369.209	34.82
369.42	24.58
369.631	6.14
369.842	-8.19
370.053	-2.05
370.264	-20.48
370.474	47.1
370.685	53.25
370.896	92.16
371.107	34.82
371.317	18.43
371.528	18.43
371.739	51.2
371.95	-40.96
372.16	4.1
372.371	-24.58
372.582	14.34
372.792	30.72
373.003	30.72
373.214	69.63
373.424	38.91
373.635	67.58
373.846	73.73
374.056	53.25
374.267	26.62
374.477	30.72
374.688	43.01
374.898	0
375.109	22.53
375.319	36.86
375.53	-20.48
375.74	63.49
375.951	86.01
376.161	-2.05
376.372	-4.1
376.582	47.1
376.793	69.63
377.003	57.34
377.214	49.15
377.424	79.87
377.635	34.82
377.845	-16.38
378.055	-6.14
378.266	-32.77
378.476	26.62
378.686	-16.38
378.897	141.31
379.107	86.01
379.317	36.86
379.528	6.14
379.738	104.45
379.948	4.1
380.158	92.16
380.369	67.58
380.579	16.38
380.789	65.54
380.999	4.1
381.21	-16.38
381.42	34.82
381.63	34.82
381.84	141.31
382.05	12.29
382.261	47.1
382.471	10.24
382.681	51.2
382.891	-10.24
383.101	98.3
383.311	-8.19
383.521	40.96
383.731	38.91
383.941	34.82
384.151	34.82
384.361	22.53
384.571	22.53
384.781	51.2
384.991	2.05
385.201	28.67
385.411	-6.14
385.621	43.01
385.831	28.67
386.041	-8.19
386.251	-10.24
386.461	92.16
386.671	-12.29
386.881	16.38
387.091	53.25
387.301	28.67
387.511	47.1
387.72	79.87
387.93	14.34
388.14	43.01
388.35	16.38
388.56	2.05
388.769	12.29
388.979	28.67
389.189	18.43
389.399	28.67
389.609	-57.34
389.818	112.64
390.028	-12.29
390.238	18.43
390.447	24.58
390.657	26.62
390.867	32.77
391.076	47.1
391.286	8.19
391.496	-18.43
391.705	34.82
391.915	43.01
392.125	90.11
392.334	0
392.544	-16.38
392.753	0
392.963	55.3
393.172	-20.48
393.382	96.25
393.591	10.24
393.801	8.19
394.01	65.54
394.22	40.96
394.429	100.35
394.639	57.34
394.848	94.21
395.058	-26.62
395.267	86.01
395.477	34.82
395.686	83.97
395.895	108.54
396.105	22.53
396.314	8.19
396.524	2.05
396.733	-18.43
396.942	65.54
397.152	43.01
397.361	12.29
397.57	6.14
397.78	36.86
397.989	65.54
398.198	106.49
398.407	45.06
398.617	69.63
398.826	145.41
399.035	36.86
399.244	96.25
399.453	26.62
399.663	47.1
399.872	79.87
400.081	38.91
400.29	10.24
400.499	49.15
400.708	90.11
400.917	30.72
401.127	22.53
401.336	12.29
401.545	88.06
401.754	79.87
401.963	79.87
402.172	51.2
402.381	24.58
402.59	36.86
402.799	47.1
403.008	100.35
403.217	131.07
403.426	63.49
403.635	90.11
403.844	38.91
404.053	20.48
404.262	69.63
404.471	114.69
404.68	36.86
404.888	20.48
405.097	38.91
405.306	36.86
405.515	86.01
405.724	110.59
405.933	71.68
406.142	65.54
406.35	75.77
406.559	51.2
406.768	40.96
406.977	110.59
407.185	83.97
407.394	69.63
407.603	88.06
407.812	231.42
408.02	161.79
408.229	67.58
408.438	108.54
408.646	139.26
408.855	83.97
409.064	100.35
409.272	110.59
409.481	135.17
409.69	108.54
409.898	92.16
410.107	92.16
410.315	108.54
410.524	110.59
410.733	131.07
410.941	129.02
411.15	163.84
411.358	131.07
411.567	194.56
411.775	159.74
411.984	176.13
412.192	143.36
412.401	122.88
412.609	221.18
412.818	135.17
413.026	194.56
413.234	172.03
413.443	198.65
413.651	157.69
413.86	210.94
414.068	151.55
414.276	194.56
414.485	266.24
414.693	249.85
414.901	215.04
415.11	256
415.318	219.13
415.526	258.04
415.734	274.43
415.943	196.61
416.151	229.37
416.359	165.89
416.567	313.34
416.776	337.91
416.984	278.52
417.192	389.11
417.4	311.29
417.608	282.62
417.817	325.63
418.025	344.06
418.233	264.19
418.441	397.31
418.649	446.46
418.857	370.68
419.065	446.46
419.273	403.45
419.481	432.12
419.689	450.55
419.897	550.9
420.105	444.41
420.313	479.22
420.521	544.76
420.729	587.77
420.937	565.24
421.145	528.38
421.353	557.05
421.561	550.9
421.769	657.4
421.977	647.16
422.185	616.44
422.393	753.65
422.601	704.5
422.809	772.08
423.017	698.36
423.224	804.85
423.432	804.85
423.64	847.86
423.848	817.14
424.056	868.34
424.263	919.54
424.471	944.11
424.679	907.25
424.887	978.93
425.094	940.02
425.302	1019.89
425.51	1034.22
425.718	1034.22
425.925	1107.95
426.133	1046.51
426.341	1124.33
426.548	1191.92
426.756	1318.89
426.964	1263.6
427.171	1263.6
427.379	1275.88
427.586	1298.41
427.794	1429.48
428.001	1437.67
428.209	1486.83
428.417	1454.06
428.624	1624.04
428.832	1667.05
429.039	1703.91
429.247	1611.75
429.454	1753.06
429.662	1828.84
429.869	1763.3
430.076	1959.91
430.284	1869.8
430.491	1875.94
430.699	2115.55
430.906	2095.07
431.114	2068.45
431.321	2150.37
431.528	2217.95
431.736	2361.31
431.943	2428.89
432.15	2385.88
432.358	2287.58
432.565	2559.96
432.772	2551.77
432.979	2488.28
433.187	2639.83
433.394	2592.73
433.601	2838.48
433.808	2875.35
434.016	2781.14
434.223	2920.4
434.43	3076.05
434.637	2940.88
434.844	3270.61
435.052	3280.85
435.259	3299.28
435.466	3352.52
435.673	3280.85
435.88	3428.3
436.087	3653.58
436.294	3688.39
436.501	3672.01
436.708	3700.68
436.915	3733.45
437.122	4022.21
437.329	4022.21
437.537	4106.18
437.743	4216.77
437.95	4192.19
438.157	4306.88
438.364	4456.38
438.571	4536.25
438.778	4468.67
438.985	4968.37
439.192	4829.11
439.399	4816.82
439.606	4974.52
439.813	5183.41
440.02	5429.17
440.227	5244.85
440.433	5306.29
440.64	5463.98
440.847	5459.88
441.054	5435.31
441.261	5750.7
441.467	5697.45
441.674	5932.97
441.881	6252.45
442.088	6188.96
442.294	6250.4
442.501	6258.59
442.708	6182.82
442.914	6664.09
443.121	6915.99
443.328	6590.36
443.534	7079.83
443.741	6903.7
443.948	6911.89
444.154	7397.26
444.361	7475.09
444.568	7430.03
444.774	7417.74
444.981	7542.67
445.187	7591.82
445.394	8105.86
445.6	7939.97
445.807	8810.36
446.013	8447.87
446.22	8425.34
446.426	8796.03
446.633	8914.81
446.839	9144.18
447.046	8818.55
447.252	9359.22
447.459	9295.73
447.665	9387.89
447.871	9588.59
448.078	10205.03
448.284	9695.08
448.491	9940.84
448.697	10475.36
448.903	10364.77
449.11	10387.3
449.316	10368.87
449.522	10553.18
449.728	11013.98
449.935	11181.91
450.141	10940.25
450.347	11192.15
450.553	11001.69
450.76	11163.48
450.966	11413.33
451.172	11308.88
451.378	11646.8
451.584	11413.33
451.791	11550.54
451.997	11409.23
452.203	11708.24
452.409	11573.07
452.615	11804.49
452.821	11165.53
453.027	10956.63
453.233	11771.72
453.44	11304.79
453.646	11470.67
453.852	11431.76
454.058	11632.46
454.264	11130.71
454.47	11597.65
454.676	11196.25
454.882	11698
455.088	10329.95
455.294	10891.1
455.5	10805.08
455.705	11024.22
455.911	10579.81
456.117	10585.95
456.323	10424.16
456.529	9922.41
456.735	10198.88
456.941	9817.96
457.147	9807.72
457.352	9430.9
457.558	9334.64
457.764	9359.22
457.97	9265.01
458.176	9066.36
458.381	8957.82
458.587	8509.31
458.793	8568.7
458.999	8099.72
459.204	8591.23
459.41	8406.91
459.616	7763.85
459.821	7929.73
460.027	8062.85
460.233	7708.55
460.438	7346.06
460.644	7417.74
460.85	7069.59
461.055	7036.82
461.261	6973.33
461.466	6416.29
461.672	6102.95
461.878	6807.45
462.083	6156.19
462.289	5955.49
462.494	5996.45
462.7	5701.54
462.905	5726.12
463.111	5842.85
463.316	5820.33
463.522	5754.79
463.727	5791.66
463.932	5861.29
464.138	5642.15
464.343	5644.2
464.549	5328.81
464.754	5722.02
464.959	5644.2
465.165	5562.28
465.37	5314.48
465.575	5193.65
465.781	5341.1
465.986	5543.85
466.191	5285.81
466.397	5207.98
466.602	4917.17
466.807	5173.17
467.012	5199.79
467.218	4999.09
467.423	5052.34
467.628	5072.82
467.833	5199.79
468.038	5070.77
468.244	4937.65
468.449	5062.58
468.654	4880.31
468.859	4917.17
469.064	4937.65
469.269	4782.01
469.474	4751.29
469.679	4921.27
469.885	4704.18
470.09	4843.45
470.295	4816.82
470.5	4548.54
