Data from USB4F104151__98__12-54-59-147.txt Node

Date: Fri Mar 14 12:54:59 EDT 2025
User: louis
Spectrometer: USB4F10415
Trigger mode: 4
Integration Time (sec): 1.000000E-2
Scans to average: 1
Electric dark correction enabled: true
Nonlinearity correction enabled: false
Boxcar width: 0
XAxis mode: Wavelengths
Number of Pixels in Spectrum: 3648
>>>>>Begin Spectral Data<<<<<
178.204	-42.15
178.424	-42.15
178.644	-42.15
178.864	-146.6
179.084	-48.3
179.304	13.14
179.524	11.09
179.744	-1.19
179.964	23.38
180.184	17.24
180.404	21.33
180.624	-23.72
180.844	-27.82
181.064	-11.43
181.283	-29.87
181.503	-42.15
181.723	50
181.943	2.9
182.163	-23.72
182.383	-48.3
182.602	56.15
182.822	0.85
183.042	-50.35
183.262	25.43
183.482	-9.39
183.701	25.43
183.921	0.85
184.141	-7.34
184.361	25.43
184.58	7
184.8	9.05
185.02	62.29
185.239	-33.96
185.459	35.67
185.679	58.2
185.898	-40.11
186.118	-19.63
186.338	-52.39
186.557	41.81
186.777	-27.82
186.997	13.14
187.216	37.72
187.436	23.38
187.655	-19.63
187.875	25.43
188.095	-31.91
188.314	23.38
188.534	7
188.753	-7.34
188.973	56.15
189.192	-15.53
189.412	-15.53
189.631	-42.15
189.851	-44.2
190.07	-7.34
190.29	-29.87
190.509	17.24
190.729	-3.24
190.948	7
191.168	54.1
191.387	-11.43
191.607	-46.25
191.826	-74.92
192.045	27.48
192.265	41.81
192.484	-46.25
192.704	21.33
192.923	-31.91
193.142	31.57
193.362	-23.72
193.581	4.95
193.8	-5.29
194.02	-36.01
194.239	-3.24
194.458	-11.43
194.678	0.85
194.897	7
195.116	-85.16
195.335	-9.39
195.555	-27.82
195.774	-7.34
195.993	-3.24
196.212	-19.63
196.432	-40.11
196.651	-27.82
196.87	-25.77
197.089	39.76
197.308	19.29
197.528	37.72
197.747	-54.44
197.966	-25.77
198.185	-7.34
198.404	15.19
198.623	4.95
198.842	4.95
199.062	45.91
199.281	7
199.5	29.52
199.719	33.62
199.938	9.05
200.157	13.14
200.376	-21.67
200.595	-15.53
200.814	-38.06
201.033	-25.77
201.252	21.33
201.471	4.95
201.69	-81.07
201.909	68.44
202.128	-72.87
202.347	-3.24
202.566	-19.63
202.785	25.43
203.004	-17.58
203.223	82.77
203.442	35.67
203.661	43.86
203.879	60.24
204.098	-33.96
204.317	-66.73
204.536	33.62
204.755	23.38
204.974	-17.58
205.193	-25.77
205.411	-13.48
205.63	-50.35
205.849	27.48
206.068	33.62
206.287	-33.96
206.505	-11.43
206.724	7
206.943	9.05
207.162	-99.5
207.381	-64.68
207.599	54.1
207.818	4.95
208.037	2.9
208.255	64.34
208.474	-11.43
208.693	-11.43
208.911	-46.25
209.13	-23.72
209.349	47.96
209.567	-42.15
209.786	39.76
210.005	-50.35
210.223	-17.58
210.442	-5.29
210.661	9.05
210.879	-50.35
211.098	-11.43
211.316	4.95
211.535	-3.24
211.753	-42.15
211.972	-5.29
212.191	-5.29
212.409	15.19
212.628	-31.91
212.846	4.95
213.065	-48.3
213.283	13.14
213.502	35.67
213.72	66.39
213.938	-74.92
214.157	-56.49
214.375	15.19
214.594	21.33
214.812	66.39
215.031	-23.72
215.249	-13.48
215.467	90.96
215.686	-21.67
215.904	47.96
216.122	9.05
216.341	0.85
216.559	29.52
216.778	4.95
216.996	-42.15
217.214	-15.53
217.432	-66.73
217.651	-33.96
217.869	-52.39
218.087	7
218.306	-60.59
218.524	50
218.742	-40.11
218.96	-17.58
219.179	-48.3
219.397	-23.72
219.615	-50.35
219.833	50
220.051	19.29
220.27	52.05
220.488	76.63
220.706	-54.44
220.924	0.85
221.142	-1.19
221.36	17.24
221.578	47.96
221.796	11.09
222.015	58.2
222.233	-42.15
222.451	-15.53
222.669	9.05
222.887	-70.83
223.105	-83.11
223.323	31.57
223.541	4.95
223.759	-1.19
223.977	-11.43
224.195	-33.96
224.413	-19.63
224.631	58.2
224.849	-17.58
225.067	58.2
225.285	11.09
225.503	17.24
225.721	37.72
225.939	35.67
226.157	4.95
226.375	17.24
226.592	11.09
226.81	9.05
227.028	-54.44
227.246	-17.58
227.464	21.33
227.682	-3.24
227.9	-19.63
228.117	29.52
228.335	-15.53
228.553	9.05
228.771	-23.72
228.989	-40.11
229.206	45.91
229.424	39.76
229.642	-19.63
229.86	50
230.077	-19.63
230.295	11.09
230.513	64.34
230.731	23.38
230.948	-29.87
231.166	2.9
231.384	39.76
231.601	-25.77
231.819	23.38
232.037	-9.39
232.254	-5.29
232.472	-1.19
232.689	0.85
232.907	23.38
233.125	29.52
233.342	-38.06
233.56	-42.15
233.777	17.24
233.995	-11.43
234.213	-23.72
234.43	-19.63
234.648	41.81
234.865	-29.87
235.083	11.09
235.3	-27.82
235.518	-60.59
235.735	-7.34
235.953	-1.19
236.17	37.72
236.388	-44.2
236.605	-19.63
236.822	4.95
237.04	35.67
237.257	-1.19
237.475	-13.48
237.692	-19.63
237.909	-72.87
238.127	-42.15
238.344	-48.3
238.562	-52.39
238.779	-44.2
238.996	72.53
239.214	11.09
239.431	64.34
239.648	-27.82
239.865	9.05
240.083	-50.35
240.3	21.33
240.517	-27.82
240.735	72.53
240.952	-3.24
241.169	-3.24
241.386	-52.39
241.603	-1.19
241.821	-58.54
242.038	-9.39
242.255	56.15
242.472	-36.01
242.689	-23.72
242.907	-42.15
243.124	-5.29
243.341	11.09
243.558	-68.78
243.775	-52.39
243.992	39.76
244.209	-5.29
244.426	9.05
244.643	0.85
244.86	-85.16
245.078	35.67
245.295	13.14
245.512	-48.3
245.729	15.19
245.946	17.24
246.163	-52.39
246.38	-1.19
246.597	-93.35
246.814	15.19
247.031	-9.39
247.248	-7.34
247.464	-50.35
247.681	11.09
247.898	-40.11
248.115	-13.48
248.332	-70.83
248.549	2.9
248.766	62.29
248.983	-31.91
249.2	-9.39
249.417	13.14
249.633	-19.63
249.85	9.05
250.067	-1.19
250.284	62.29
250.501	-17.58
250.717	45.91
250.934	-9.39
251.151	23.38
251.368	-42.15
251.585	15.19
251.801	-38.06
252.018	39.76
252.235	4.95
252.451	19.29
252.668	17.24
252.885	4.95
253.102	39.76
253.318	-1.19
253.535	-40.11
253.752	-25.77
253.968	-62.63
254.185	-7.34
254.401	-56.49
254.618	0.85
254.835	-79.02
255.051	-33.96
255.268	-46.25
255.484	-7.34
255.701	7
255.917	-44.2
256.134	21.33
256.351	-33.96
256.567	-87.21
256.784	27.48
257	-62.63
257.217	-23.72
257.433	-38.06
257.65	15.19
257.866	-17.58
258.082	-11.43
258.299	-17.58
258.515	50
258.732	-5.29
258.948	-19.63
259.165	-40.11
259.381	-21.67
259.597	66.39
259.814	15.19
260.03	31.57
260.246	-7.34
260.463	-19.63
260.679	45.91
260.895	41.81
261.112	-52.39
261.328	-19.63
261.544	-21.67
261.761	33.62
261.977	-9.39
262.193	-23.72
262.409	-9.39
262.626	-40.11
262.842	35.67
263.058	-81.07
263.274	-42.15
263.49	-9.39
263.707	-25.77
263.923	11.09
264.139	23.38
264.355	-3.24
264.571	15.19
264.787	-46.25
265.004	33.62
265.22	2.9
265.436	-17.58
265.652	-19.63
265.868	-60.59
266.084	31.57
266.3	82.77
266.516	21.33
266.732	-44.2
266.948	39.76
267.164	23.38
267.38	-21.67
267.596	-11.43
267.812	-72.87
268.028	15.19
268.244	-3.24
268.46	27.48
268.676	-23.72
268.892	-33.96
269.108	-36.01
269.324	-27.82
269.54	-68.78
269.756	62.29
269.972	-33.96
270.188	-1.19
270.403	-76.97
270.619	39.76
270.835	19.29
271.051	15.19
271.267	-17.58
271.483	13.14
271.698	-50.35
271.914	-9.39
272.13	-68.78
272.346	37.72
272.562	9.05
272.777	17.24
272.993	-3.24
273.209	-17.58
273.425	21.33
273.64	-9.39
273.856	-36.01
274.072	50
274.287	-7.34
274.503	39.76
274.719	-3.24
274.934	60.24
275.15	-113.83
275.366	-56.49
275.581	-13.48
275.797	33.62
276.012	-3.24
276.228	-64.68
276.444	11.09
276.659	25.43
276.875	-11.43
277.09	4.95
277.306	-31.91
277.521	15.19
277.737	-38.06
277.952	-36.01
278.168	-21.67
278.383	-23.72
278.599	-27.82
278.814	-40.11
279.03	-31.91
279.245	-1.19
279.461	-13.48
279.676	64.34
279.892	-5.29
280.107	-11.43
280.322	-52.39
280.538	13.14
280.753	27.48
280.969	19.29
281.184	2.9
281.399	27.48
281.615	35.67
281.83	-99.5
282.045	37.72
282.26	-15.53
282.476	4.95
282.691	9.05
282.906	-42.15
283.122	-31.91
283.337	-79.02
283.552	-21.67
283.767	-40.11
283.983	-48.3
284.198	-38.06
284.413	19.29
284.628	29.52
284.843	50
285.058	15.19
285.274	-33.96
285.489	-33.96
285.704	-1.19
285.919	-40.11
286.134	21.33
286.349	-44.2
286.564	11.09
286.779	37.72
286.995	-31.91
287.21	31.57
287.425	78.68
287.64	25.43
287.855	19.29
288.07	-7.34
288.285	33.62
288.5	7
288.715	-9.39
288.93	-21.67
289.145	-58.54
289.36	-81.07
289.575	31.57
289.79	21.33
290.004	7
290.219	88.92
290.434	-5.29
290.649	-25.77
290.864	31.57
291.079	31.57
291.294	-23.72
291.509	45.91
291.724	-19.63
291.938	17.24
292.153	-9.39
292.368	-31.91
292.583	0.85
292.798	-21.67
293.012	35.67
293.227	-68.78
293.442	-13.48
293.657	-19.63
293.871	21.33
294.086	-17.58
294.301	-58.54
294.516	11.09
294.73	23.38
294.945	-44.2
295.16	15.19
295.374	-25.77
295.589	-70.83
295.804	-15.53
296.018	-38.06
296.233	-19.63
296.447	25.43
296.662	-40.11
296.877	17.24
297.091	-7.34
297.306	25.43
297.52	-60.59
297.735	13.14
297.949	35.67
298.164	68.44
298.378	-44.2
298.593	-50.35
298.807	7
299.022	4.95
299.236	-40.11
299.451	45.91
299.665	2.9
299.88	21.33
300.094	-7.34
300.309	-33.96
300.523	-13.48
300.737	25.43
300.952	9.05
301.166	15.19
301.381	-5.29
301.595	4.95
301.809	9.05
302.024	76.63
302.238	-48.3
302.452	-31.91
302.667	-15.53
302.881	68.44
303.095	37.72
303.309	-5.29
303.524	47.96
303.738	43.86
303.952	17.24
304.166	0.85
304.381	17.24
304.595	54.1
304.809	-17.58
305.023	-9.39
305.237	-109.74
305.452	-7.34
305.666	54.1
305.88	-50.35
306.094	31.57
306.308	-13.48
306.522	2.9
306.736	-60.59
306.95	0.85
307.164	-13.48
307.379	-1.19
307.593	21.33
307.807	-48.3
308.021	15.19
308.235	-19.63
308.449	-11.43
308.663	-1.19
308.877	-11.43
309.091	-19.63
309.305	-13.48
309.519	-3.24
309.733	21.33
309.947	-25.77
310.161	-17.58
310.374	62.29
310.588	-21.67
310.802	-58.54
311.016	31.57
311.23	-42.15
311.444	39.76
311.658	-42.15
311.872	-17.58
312.085	13.14
312.299	23.38
312.513	9.05
312.727	64.34
312.941	-19.63
313.154	-66.73
313.368	-50.35
313.582	4.95
313.796	23.38
314.009	54.1
314.223	-58.54
314.437	-29.87
314.651	-17.58
314.864	-19.63
315.078	62.29
315.292	58.2
315.505	-31.91
315.719	54.1
315.933	70.48
316.146	4.95
316.36	-62.63
316.573	-48.3
316.787	-62.63
317.001	54.1
317.214	-64.68
317.428	31.57
317.641	-85.16
317.855	-74.92
318.068	-31.91
318.282	78.68
318.495	23.38
318.709	-52.39
318.922	-11.43
319.136	0.85
319.349	23.38
319.563	-33.96
319.776	-70.83
319.99	-9.39
320.203	-7.34
320.417	-3.24
320.63	-3.24
320.843	70.48
321.057	35.67
321.27	35.67
321.483	27.48
321.697	-7.34
321.91	13.14
322.124	-15.53
322.337	-21.67
322.55	-50.35
322.763	27.48
322.977	-81.07
323.19	-31.91
323.403	-105.64
323.617	-44.2
323.83	-40.11
324.043	-33.96
324.256	-13.48
324.469	-50.35
324.683	33.62
324.896	17.24
325.109	37.72
325.322	31.57
325.535	62.29
325.748	4.95
325.962	-50.35
326.175	-1.19
326.388	-29.87
326.601	29.52
326.814	0.85
327.027	-7.34
327.24	25.43
327.453	41.81
327.666	21.33
327.879	-13.48
328.092	50
328.305	-23.72
328.518	-13.48
328.731	50
328.944	-1.19
329.157	-27.82
329.37	-56.49
329.583	21.33
329.796	50
330.009	-29.87
330.222	-3.24
330.435	2.9
330.648	4.95
330.861	17.24
331.073	-17.58
331.286	-31.91
331.499	-15.53
331.712	-60.59
331.925	-25.77
332.138	-1.19
332.35	15.19
332.563	-76.97
332.776	-21.67
332.989	-29.87
333.202	70.48
333.414	-33.96
333.627	19.29
333.84	25.43
334.053	41.81
334.265	0.85
334.478	-48.3
334.691	-23.72
334.903	-25.77
335.116	-23.72
335.329	-25.77
335.541	-15.53
335.754	-1.19
335.966	35.67
336.179	-1.19
336.392	-7.34
336.604	-48.3
336.817	-25.77
337.029	25.43
337.242	-44.2
337.454	56.15
337.667	-5.29
337.88	52.05
338.092	-27.82
338.305	-38.06
338.517	11.09
338.729	58.2
338.942	-17.58
339.154	2.9
339.367	-83.11
339.579	-9.39
339.792	-15.53
340.004	13.14
340.217	19.29
340.429	47.96
340.641	25.43
340.854	56.15
341.066	-25.77
341.278	-44.2
341.491	31.57
341.703	-7.34
341.915	-27.82
342.128	35.67
342.34	-29.87
342.552	9.05
342.764	19.29
342.977	-25.77
343.189	-58.54
343.401	4.95
343.613	-19.63
343.826	-42.15
344.038	-27.82
344.25	9.05
344.462	-27.82
344.674	23.38
344.886	-72.87
345.099	-48.3
345.311	9.05
345.523	0.85
345.735	-11.43
345.947	11.09
346.159	-7.34
346.371	-15.53
346.583	13.14
346.795	13.14
347.007	-3.24
347.219	29.52
347.431	21.33
347.643	29.52
347.855	15.19
348.067	19.29
348.279	27.48
348.491	7
348.703	-1.19
348.915	13.14
349.127	-48.3
349.339	-46.25
349.551	-48.3
349.763	45.91
349.975	-3.24
350.187	19.29
350.399	29.52
350.61	-17.58
350.822	4.95
351.034	-17.58
351.246	-17.58
351.458	-46.25
351.669	-46.25
351.881	-91.31
352.093	2.9
352.305	-42.15
352.517	-44.2
352.728	21.33
352.94	-27.82
353.152	0.85
353.363	-3.24
353.575	17.24
353.787	-9.39
353.999	33.62
354.21	62.29
354.422	-38.06
354.633	-23.72
354.845	45.91
355.057	-11.43
355.268	9.05
355.48	-62.63
355.692	-29.87
355.903	-33.96
356.115	-38.06
356.326	-33.96
356.538	39.76
356.749	58.2
356.961	62.29
357.172	-52.39
357.384	9.05
357.595	-1.19
357.807	-54.44
358.018	-62.63
358.23	60.24
358.441	35.67
358.653	80.72
358.864	-15.53
359.075	45.91
359.287	31.57
359.498	-27.82
359.709	13.14
359.921	-23.72
360.132	-56.49
360.344	-23.72
360.555	-111.78
360.766	-5.29
360.977	15.19
361.189	0.85
361.4	-68.78
361.611	21.33
361.823	50
362.034	31.57
362.245	-60.59
362.456	45.91
362.667	-9.39
362.879	64.34
363.09	-9.39
363.301	41.81
363.512	72.53
363.723	-27.82
363.935	-9.39
364.146	11.09
364.357	45.91
364.568	-23.72
364.779	37.72
364.99	-7.34
365.201	-29.87
365.412	-5.29
365.623	-48.3
365.834	52.05
366.045	9.05
366.256	39.76
366.467	-48.3
366.678	-15.53
366.889	-13.48
367.1	-66.73
367.311	-21.67
367.522	-11.43
367.733	54.1
367.944	-46.25
368.155	11.09
368.366	56.15
368.577	-44.2
368.788	-1.19
368.999	17.24
369.209	29.52
369.42	-7.34
369.631	54.1
369.842	-97.45
370.053	-36.01
370.264	-33.96
370.474	54.1
370.685	9.05
370.896	15.19
371.107	-31.91
371.317	56.15
371.528	33.62
371.739	-9.39
371.95	-44.2
372.16	47.96
372.371	-48.3
372.582	-60.59
372.792	9.05
373.003	13.14
373.214	-7.34
373.424	-13.48
373.635	-54.44
373.846	117.59
374.056	-17.58
374.267	-40.11
374.477	84.82
374.688	-44.2
374.898	-21.67
375.109	-33.96
375.319	11.09
375.53	-7.34
375.74	-27.82
375.951	-56.49
376.161	21.33
376.372	-11.43
376.582	25.43
376.793	-60.59
377.003	-21.67
377.214	31.57
377.424	-27.82
377.635	-36.01
377.845	29.52
378.055	95.06
378.266	29.52
378.476	72.53
378.686	-44.2
378.897	23.38
379.107	-85.16
379.317	-15.53
379.528	21.33
379.738	-52.39
379.948	-42.15
380.158	4.95
380.369	-29.87
380.579	54.1
380.789	-62.63
380.999	37.72
381.21	9.05
381.42	4.95
381.63	-15.53
381.84	-87.21
382.05	45.91
382.261	13.14
382.471	82.77
382.681	-85.16
382.891	-19.63
383.101	35.67
383.311	-31.91
383.521	-21.67
383.731	-27.82
383.941	-5.29
384.151	-23.72
384.361	-27.82
384.571	23.38
384.781	-31.91
384.991	23.38
385.201	25.43
385.411	4.95
385.621	-48.3
385.831	2.9
386.041	29.52
386.251	9.05
386.461	21.33
386.671	7
386.881	58.2
387.091	80.72
387.301	23.38
387.511	-5.29
387.72	-11.43
387.93	54.1
388.14	-23.72
388.35	-70.83
388.56	-17.58
388.769	-25.77
388.979	72.53
389.189	-5.29
389.399	86.87
389.609	27.48
389.818	64.34
390.028	-19.63
390.238	62.29
390.447	-17.58
390.657	39.76
390.867	-1.19
391.076	39.76
391.286	-50.35
391.496	-50.35
391.705	-25.77
391.915	21.33
392.125	-5.29
392.334	50
392.544	4.95
392.753	-50.35
392.963	27.48
393.172	-42.15
393.382	-19.63
393.591	45.91
393.801	23.38
394.01	2.9
394.22	35.67
394.429	19.29
394.639	-15.53
394.848	-40.11
395.058	-7.34
395.267	39.76
395.477	13.14
395.686	13.14
395.895	50
396.105	62.29
396.314	29.52
396.524	11.09
396.733	-89.26
396.942	7
397.152	4.95
397.361	-1.19
397.57	41.81
397.78	-68.78
397.989	50
398.198	41.81
398.407	31.57
398.617	39.76
398.826	-19.63
399.035	0.85
399.244	54.1
399.453	15.19
399.663	21.33
399.872	-5.29
400.081	60.24
400.29	33.62
400.499	7
400.708	17.24
400.917	-13.48
401.127	11.09
401.336	45.91
401.545	64.34
401.754	25.43
401.963	-79.02
402.172	-7.34
402.381	13.14
402.59	93.01
402.799	-1.19
403.008	-21.67
403.217	37.72
403.426	17.24
403.635	-11.43
403.844	31.57
404.053	29.52
404.262	37.72
404.471	27.48
404.68	-3.24
404.888	-11.43
405.097	-11.43
405.306	95.06
405.515	-36.01
405.724	60.24
405.933	-27.82
406.142	-7.34
406.35	29.52
406.559	-11.43
406.768	39.76
406.977	45.91
407.185	39.76
407.394	78.68
407.603	29.52
407.812	127.83
408.02	72.53
408.229	93.01
408.438	43.86
408.646	103.25
408.855	72.53
409.064	45.91
409.272	19.29
409.481	54.1
409.69	76.63
409.898	80.72
410.107	64.34
410.315	99.16
410.524	19.29
410.733	60.24
410.941	50
411.15	82.77
411.358	136.02
411.567	168.79
411.775	103.25
411.984	113.49
412.192	129.88
412.401	176.98
412.609	121.68
412.818	189.27
413.026	170.83
413.234	172.88
413.443	215.89
413.651	176.98
413.86	127.83
414.068	215.89
414.276	136.02
414.485	215.89
414.693	228.18
414.901	127.83
415.11	191.31
415.318	262.99
415.526	267.09
415.734	170.83
415.943	246.61
416.151	295.76
416.359	224.08
416.567	285.52
416.776	191.31
416.984	346.96
417.192	306
417.4	303.95
417.608	254.8
417.817	291.66
418.025	330.58
418.233	385.87
418.441	340.82
418.649	381.78
418.857	426.83
419.065	402.26
419.273	369.49
419.481	443.21
419.689	414.54
419.897	412.5
420.105	437.07
420.313	541.52
420.521	504.65
420.729	531.28
420.937	490.32
421.145	480.08
421.353	518.99
421.561	557.9
421.769	631.63
421.977	592.72
422.185	615.24
422.393	607.05
422.601	613.2
422.809	680.78
423.017	713.55
423.224	752.46
423.432	717.64
423.64	711.5
423.848	815.94
424.056	840.52
424.263	920.39
424.471	848.71
424.679	813.9
424.887	852.81
425.094	959.3
425.302	959.3
425.51	1028.93
425.718	1024.84
425.925	1016.65
426.133	1035.08
426.341	1162.05
426.548	1254.21
426.756	1276.74
426.964	1186.63
427.171	1241.92
427.379	1219.39
427.586	1319.75
427.794	1385.28
428.001	1581.89
428.209	1512.25
428.417	1581.89
428.624	1512.25
428.832	1514.3
429.039	1551.17
429.247	1561.41
429.454	1647.42
429.662	1835.83
429.869	1817.4
430.076	1899.32
430.284	1823.55
430.491	1821.5
430.699	2048.82
430.906	2054.97
431.114	1948.47
431.321	2112.31
431.528	2149.17
431.736	2245.43
431.943	2339.63
432.15	2421.55
432.358	2368.31
432.565	2429.74
432.772	2405.17
432.979	2624.3
433.187	2605.87
433.394	2589.49
433.601	2814.76
433.808	2814.76
434.016	2865.96
434.223	2978.6
434.43	3109.67
434.637	2999.08
434.844	3185.44
435.052	3248.93
435.259	3201.83
435.466	3382.05
435.673	3316.51
435.88	3568.41
436.087	3636
436.294	3617.57
436.501	3640.09
436.708	3668.77
436.915	3793.69
437.122	4014.87
437.329	3861.27
437.537	4150.04
437.743	4213.53
437.95	4152.09
438.157	4315.92
438.364	4596.5
438.571	4432.66
438.778	4512.53
438.985	4887.31
439.192	4754.19
439.399	4975.37
439.606	4840.2
439.813	5124.87
440.02	5370.63
440.227	5243.65
440.433	5337.86
440.64	5401.35
440.847	5352.2
441.054	5407.49
441.261	5804.8
441.467	5858.04
441.674	5950.2
441.881	5995.26
442.088	6003.45
442.294	6036.22
442.501	6255.35
442.708	6243.06
442.914	6546.16
443.121	6736.62
443.328	6542.07
443.534	7158.5
443.741	6937.32
443.948	6873.84
444.154	7293.67
444.361	7293.67
444.568	7219.94
444.774	7385.83
444.981	7363.3
445.187	7871.2
445.394	7875.29
445.6	8022.75
445.807	8708.82
446.013	8368.85
446.22	8358.61
446.426	8979.15
446.633	9046.73
446.839	9335.49
447.046	8704.72
447.252	9306.82
447.459	9380.55
447.665	9345.73
447.871	9761.47
448.078	10115.77
448.284	9726.66
448.491	9921.21
448.697	10519.22
448.903	10439.35
449.11	10412.73
449.316	10224.31
449.522	10627.76
449.728	10842.8
449.935	11111.08
450.141	10850.99
450.347	11233.96
450.553	10752.69
450.76	10963.63
450.966	11350.7
451.172	11315.88
451.378	11559.59
451.584	11451.05
451.791	11657.89
451.997	11596.45
452.203	11805.35
452.409	11698.85
452.615	11694.75
452.821	11307.69
453.027	11209.39
453.233	11791.01
453.44	11233.96
453.646	11414.18
453.852	11467.43
454.058	11684.52
454.264	11336.36
454.47	11692.71
454.676	11260.59
454.882	11739.81
455.088	10447.54
455.294	10625.72
455.5	10943.15
455.705	10986.16
455.911	10656.43
456.117	10394.29
456.323	10154.68
456.529	9784
456.735	10083
456.941	9939.65
457.147	9810.62
457.352	9372.36
457.558	9261.77
457.764	9317.06
457.97	9077.45
458.176	9099.98
458.381	8895.18
458.587	8346.33
458.793	8510.16
458.999	8155.86
459.204	8694.48
459.41	8352.47
459.616	7672.54
459.821	7881.44
460.027	7873.25
460.233	7645.92
460.438	7379.68
460.644	7346.92
460.85	7123.69
461.055	6951.66
461.261	6802.16
461.466	6267.64
461.672	6042.36
461.878	6339.32
462.083	6130.42
462.289	6284.02
462.494	5978.87
462.7	5602.05
462.905	5626.62
463.111	5714.69
463.316	5876.48
463.522	5618.43
463.727	5591.81
463.932	5792.51
464.138	5600
464.343	5552.9
464.549	5393.16
464.754	5686.01
464.959	5683.97
465.165	5554.94
465.37	5374.72
465.575	5190.41
465.781	5536.51
465.986	5505.79
466.191	5339.91
466.397	5169.93
466.602	4895.5
466.807	5065.48
467.012	5126.92
467.218	5071.62
467.423	5004.04
467.628	5030.66
467.833	5221.13
468.038	5083.91
468.244	4940.55
