Data from USB4F104151__43__12-53-49-935.txt Node

Date: Fri Mar 14 12:53:49 EDT 2025
User: louis
Spectrometer: USB4F10415
Trigger mode: 4
Integration Time (sec): 1.000000E-2
Scans to average: 1
Electric dark correction enabled: true
Nonlinearity correction enabled: false
Boxcar width: 0
XAxis mode: Wavelengths
Number of Pixels in Spectrum: 3648
>>>>>Begin Spectral Data<<<<<
178.204	-22.02
178.424	-22.02
178.644	-22.02
178.864	45.57
179.084	-93.69
179.304	6.66
179.524	64
179.744	14.85
179.964	-5.63
180.184	33.28
180.404	2.56
180.624	23.04
180.844	-26.11
181.064	-30.21
181.283	-44.54
181.503	-24.06
181.723	-13.82
181.943	-15.87
182.163	4.61
182.383	-32.26
182.602	84.48
182.822	-67.07
183.042	37.38
183.262	-9.73
183.482	-5.63
183.701	68.09
183.921	49.66
184.141	43.52
184.361	-73.21
184.58	-38.4
184.8	-13.82
185.02	29.18
185.239	-30.21
185.459	39.42
185.679	16.9
185.898	-34.3
186.118	23.04
186.338	-75.26
186.557	23.04
186.777	31.23
186.997	23.04
187.216	39.42
187.436	8.7
187.655	45.57
187.875	8.7
188.095	-30.21
188.314	-5.63
188.534	27.14
188.753	45.57
188.973	10.75
189.192	55.81
189.412	16.9
189.631	-46.59
189.851	0.51
190.07	27.14
190.29	-34.3
190.509	-5.63
190.729	-79.36
190.948	-3.58
191.168	55.81
191.387	2.56
191.607	-9.73
191.826	66.05
192.045	-24.06
192.265	33.28
192.484	12.8
192.704	39.42
192.923	-30.21
193.142	-13.82
193.362	-15.87
193.581	37.38
193.8	-11.78
194.02	88.57
194.239	-13.82
194.458	-13.82
194.678	16.9
194.897	-60.93
195.116	12.8
195.335	-62.98
195.555	4.61
195.774	59.9
195.993	39.42
196.212	80.38
196.432	-15.87
196.651	12.8
196.87	-30.21
197.089	78.33
197.308	-22.02
197.528	-34.3
197.747	-22.02
197.966	57.86
198.185	55.81
198.404	-42.5
198.623	-9.73
198.842	20.99
199.062	37.38
199.281	51.71
199.5	-1.54
199.719	39.42
199.938	-62.98
200.157	66.05
200.376	-5.63
200.595	-32.26
200.814	-15.87
201.033	12.8
201.252	18.94
201.471	-13.82
201.69	6.66
201.909	51.71
202.128	55.81
202.347	121.34
202.566	41.47
202.785	111.1
203.004	-52.74
203.223	-34.3
203.442	33.28
203.661	94.72
203.879	-36.35
204.098	70.14
204.317	-9.73
204.536	45.57
204.755	41.47
204.974	2.56
205.193	-26.11
205.411	18.94
205.63	29.18
205.849	-9.73
206.068	-19.97
206.287	68.09
206.505	23.04
206.724	27.14
206.943	-3.58
207.162	61.95
207.381	-11.78
207.599	47.62
207.818	0.51
208.037	57.86
208.255	53.76
208.474	-7.68
208.693	8.7
208.911	20.99
209.13	-13.82
209.349	23.04
209.567	-22.02
209.786	43.52
210.005	6.66
210.223	-30.21
210.442	-103.93
210.661	25.09
210.879	-36.35
211.098	53.76
211.316	-46.59
211.535	-7.68
211.753	-15.87
211.972	-54.78
212.191	-32.26
212.409	29.18
212.628	33.28
212.846	23.04
213.065	47.62
213.283	10.75
213.502	-17.92
213.72	-17.92
213.938	47.62
214.157	51.71
214.375	45.57
214.594	39.42
214.812	-11.78
215.031	16.9
215.249	-95.74
215.467	20.99
215.686	25.09
215.904	72.19
216.122	39.42
216.341	51.71
216.559	12.8
216.778	31.23
216.996	64
217.214	16.9
217.432	31.23
217.651	0.51
217.869	29.18
218.087	-22.02
218.306	72.19
218.524	18.94
218.742	27.14
218.96	-13.82
219.179	12.8
219.397	55.81
219.615	25.09
219.833	10.75
220.051	-40.45
220.27	10.75
220.488	55.81
220.706	-69.12
220.924	-54.78
221.142	4.61
221.36	-11.78
221.578	29.18
221.796	-15.87
222.015	68.09
222.233	104.96
222.451	-71.17
222.669	-81.41
222.887	0.51
223.105	-17.92
223.323	35.33
223.541	-3.58
223.759	76.29
223.977	23.04
224.195	-17.92
224.413	-3.58
224.631	23.04
224.849	-15.87
225.067	4.61
225.285	-36.35
225.503	4.61
225.721	51.71
225.939	41.47
226.157	37.38
226.375	-36.35
226.592	31.23
226.81	31.23
227.028	92.67
227.246	43.52
227.464	104.96
227.682	0.51
227.9	27.14
228.117	-1.54
228.335	31.23
228.553	49.66
228.771	-3.58
228.989	-22.02
229.206	-7.68
229.424	76.29
229.642	27.14
229.86	51.71
230.077	78.33
230.295	72.19
230.513	35.33
230.731	51.71
230.948	-11.78
231.166	14.85
231.384	47.62
231.601	-22.02
231.819	-44.54
232.037	55.81
232.254	76.29
232.472	12.8
232.689	-19.97
232.907	-75.26
233.125	25.09
233.342	-26.11
233.56	29.18
233.777	-40.45
233.995	-32.26
234.213	-11.78
234.43	-71.17
234.648	0.51
234.865	51.71
235.083	10.75
235.3	27.14
235.518	35.33
235.735	-11.78
235.953	68.09
236.17	33.28
236.388	35.33
236.605	37.38
236.822	-11.78
237.04	72.19
237.257	57.86
237.475	31.23
237.692	70.14
237.909	80.38
238.127	-46.59
238.344	35.33
238.562	64
238.779	-13.82
238.996	12.8
239.214	-30.21
239.431	10.75
239.648	-52.74
239.865	8.7
240.083	4.61
240.3	16.9
240.517	-3.58
240.735	-26.11
240.952	-11.78
241.169	53.76
241.386	72.19
241.603	12.8
241.821	29.18
242.038	35.33
242.255	6.66
242.472	-13.82
242.689	33.28
242.907	35.33
243.124	14.85
243.341	37.38
243.558	4.61
243.775	14.85
243.992	64
244.209	14.85
244.426	94.72
244.643	-9.73
244.86	33.28
245.078	16.9
245.295	-7.68
245.512	-13.82
245.729	2.56
245.946	35.33
246.163	-42.5
246.38	33.28
246.597	4.61
246.814	-13.82
247.031	-19.97
247.248	-9.73
247.464	-26.11
247.681	39.42
247.898	14.85
248.115	12.8
248.332	39.42
248.549	29.18
248.766	6.66
248.983	-3.58
249.2	23.04
249.417	35.33
249.633	53.76
249.85	6.66
250.067	-40.45
250.284	-5.63
250.501	29.18
250.717	51.71
250.934	-22.02
251.151	61.95
251.368	-67.07
251.585	-5.63
251.801	90.62
252.018	51.71
252.235	55.81
252.451	-3.58
252.668	31.23
252.885	-19.97
253.102	6.66
253.318	51.71
253.535	59.9
253.752	6.66
253.968	2.56
254.185	-30.21
254.401	-1.54
254.618	135.68
254.835	45.57
255.051	23.04
255.268	8.7
255.484	8.7
255.701	25.09
255.917	47.62
256.134	-52.74
256.351	-28.16
256.567	-24.06
256.784	2.56
257	-38.4
257.217	18.94
257.433	6.66
257.65	49.66
257.866	35.33
258.082	-24.06
258.299	-5.63
258.515	-42.5
258.732	47.62
258.948	45.57
259.165	20.99
259.381	29.18
259.597	-11.78
259.814	18.94
260.03	20.99
260.246	37.38
260.463	51.71
260.679	-44.54
260.895	51.71
261.112	-17.92
261.328	-17.92
261.544	14.85
261.761	20.99
261.977	70.14
262.193	-15.87
262.409	45.57
262.626	31.23
262.842	-28.16
263.058	-15.87
263.274	86.53
263.49	-36.35
263.707	80.38
263.923	-15.87
264.139	-15.87
264.355	-22.02
264.571	59.9
264.787	-5.63
265.004	12.8
265.22	-44.54
265.436	-19.97
265.652	-15.87
265.868	-5.63
266.084	31.23
266.3	20.99
266.516	-17.92
266.732	23.04
266.948	-15.87
267.164	-19.97
267.38	20.99
267.596	59.9
267.812	29.18
268.028	14.85
268.244	29.18
268.46	27.14
268.676	31.23
268.892	20.99
269.108	12.8
269.324	-22.02
269.54	0.51
269.756	2.56
269.972	-9.73
270.188	-28.16
270.403	4.61
270.619	-17.92
270.835	4.61
271.051	-15.87
271.267	35.33
271.483	20.99
271.698	-108.03
271.914	18.94
272.13	51.71
272.346	-32.26
272.562	59.9
272.777	-1.54
272.993	4.61
273.209	-9.73
273.425	2.56
273.64	37.38
273.856	59.9
274.072	14.85
274.287	53.76
274.503	51.71
274.719	64
274.934	66.05
275.15	-5.63
275.366	33.28
275.581	0.51
275.797	20.99
276.012	53.76
276.228	-15.87
276.444	57.86
276.659	33.28
276.875	-3.58
277.09	-7.68
277.306	59.9
277.521	14.85
277.737	47.62
277.952	-24.06
278.168	0.51
278.383	-69.12
278.599	39.42
278.814	10.75
279.03	43.52
279.245	41.47
279.461	-17.92
279.676	-3.58
279.892	31.23
280.107	10.75
280.322	37.38
280.538	4.61
280.753	25.09
280.969	61.95
281.184	-50.69
281.399	-3.58
281.615	-9.73
281.83	12.8
282.045	6.66
282.26	45.57
282.476	53.76
282.691	45.57
282.906	25.09
283.122	74.24
283.337	2.56
283.552	23.04
283.767	51.71
283.983	27.14
284.198	23.04
284.413	35.33
284.628	-28.16
284.843	-11.78
285.058	6.66
285.274	6.66
285.489	-30.21
285.704	2.56
285.919	70.14
286.134	64
286.349	57.86
286.564	16.9
286.779	-38.4
286.995	23.04
287.21	-44.54
287.425	43.52
287.64	12.8
287.855	76.29
288.07	-7.68
288.285	35.33
288.5	29.18
288.715	-62.98
288.93	-36.35
289.145	37.38
289.36	-9.73
289.575	10.75
289.79	78.33
290.004	4.61
290.219	55.81
290.434	45.57
290.649	-9.73
290.864	43.52
291.079	64
291.294	4.61
291.509	20.99
291.724	84.48
291.938	43.52
292.153	23.04
292.368	14.85
292.583	76.29
292.798	51.71
293.012	61.95
293.227	35.33
293.442	12.8
293.657	-22.02
293.871	84.48
294.086	70.14
294.301	37.38
294.516	8.7
294.73	14.85
294.945	51.71
295.16	61.95
295.374	49.66
295.589	-34.3
295.804	107.01
296.018	39.42
296.233	66.05
296.447	18.94
296.662	90.62
296.877	-3.58
297.091	45.57
297.306	-44.54
297.52	4.61
297.735	-5.63
297.949	-22.02
298.164	35.33
298.378	12.8
298.593	45.57
298.807	14.85
299.022	12.8
299.236	29.18
299.451	39.42
299.665	27.14
299.88	23.04
300.094	0.51
300.309	4.61
300.523	-19.97
300.737	2.56
300.952	-60.93
301.166	57.86
301.381	51.71
301.595	51.71
301.809	43.52
302.024	-13.82
302.238	-52.74
302.452	61.95
302.667	86.53
302.881	31.23
303.095	41.47
303.309	27.14
303.524	12.8
303.738	47.62
303.952	33.28
304.166	2.56
304.381	14.85
304.595	-32.26
304.809	-17.92
305.023	35.33
305.237	29.18
305.452	4.61
305.666	25.09
305.88	12.8
306.094	10.75
306.308	-13.82
306.522	76.29
306.736	49.66
306.95	-19.97
307.164	37.38
307.379	20.99
307.593	6.66
307.807	27.14
308.021	6.66
308.235	4.61
308.449	18.94
308.663	33.28
308.877	-50.69
309.091	39.42
309.305	37.38
309.519	-60.93
309.733	29.18
309.947	20.99
310.161	49.66
310.374	51.71
310.588	64
310.802	-1.54
311.016	25.09
311.23	61.95
311.444	-5.63
311.658	16.9
311.872	94.72
312.085	78.33
312.299	0.51
312.513	-60.93
312.727	94.72
312.941	45.57
313.154	100.86
313.368	-15.87
313.582	33.28
313.796	102.91
314.009	0.51
314.223	4.61
314.437	12.8
314.651	47.62
314.864	12.8
315.078	-11.78
315.292	47.62
315.505	61.95
315.719	10.75
315.933	10.75
316.146	0.51
316.36	-17.92
316.573	18.94
316.787	55.81
317.001	57.86
317.214	14.85
317.428	39.42
317.641	51.71
317.855	64
318.068	-17.92
318.282	29.18
318.495	74.24
318.709	-17.92
318.922	47.62
319.136	10.75
319.349	59.9
319.563	127.49
319.776	20.99
319.99	45.57
320.203	51.71
320.417	2.56
320.63	-11.78
320.843	82.43
321.057	76.29
321.27	-46.59
321.483	66.05
321.697	31.23
321.91	41.47
322.124	33.28
322.337	-24.06
322.55	-24.06
322.763	2.56
322.977	37.38
323.19	-46.59
323.403	51.71
323.617	92.67
323.83	20.99
324.043	78.33
324.256	59.9
324.469	150.01
324.683	-5.63
324.896	61.95
325.109	8.7
325.322	-15.87
325.535	68.09
325.748	2.56
325.962	0.51
326.175	12.8
326.388	47.62
326.601	25.09
326.814	4.61
327.027	-11.78
327.24	104.96
327.453	33.28
327.666	37.38
327.879	109.05
328.092	90.62
328.305	92.67
328.518	-7.68
328.731	-97.79
328.944	-36.35
329.157	41.47
329.37	20.99
329.583	49.66
329.796	117.25
330.009	-30.21
330.222	-17.92
330.435	-36.35
330.648	16.9
330.861	-17.92
331.073	51.71
331.286	80.38
331.499	70.14
331.712	2.56
331.925	53.76
332.138	-46.59
332.35	45.57
332.563	-7.68
332.776	100.86
332.989	-5.63
333.202	12.8
333.414	18.94
333.627	-38.4
333.84	20.99
334.053	2.56
334.265	-5.63
334.478	51.71
334.691	23.04
334.903	16.9
335.116	27.14
335.329	72.19
335.541	12.8
335.754	4.61
335.966	2.56
336.179	49.66
336.392	-17.92
336.604	-24.06
336.817	49.66
337.029	70.14
337.242	-1.54
337.454	51.71
337.667	35.33
337.88	12.8
338.092	18.94
338.305	18.94
338.517	78.33
338.729	18.94
338.942	-15.87
339.154	53.76
339.367	35.33
339.579	-17.92
339.792	-11.78
340.004	45.57
340.217	27.14
340.429	133.63
340.641	41.47
340.854	18.94
341.066	68.09
341.278	76.29
341.491	53.76
341.703	2.56
341.915	6.66
342.128	-19.97
342.34	78.33
342.552	70.14
342.764	8.7
342.977	92.67
343.189	27.14
343.401	-24.06
343.613	-52.74
343.826	49.66
344.038	-15.87
344.25	41.47
344.462	53.76
344.674	18.94
344.886	-17.92
345.099	43.52
345.311	-58.88
345.523	100.86
345.735	-46.59
345.947	-1.54
346.159	-19.97
346.371	10.75
346.583	88.57
346.795	59.9
347.007	-13.82
347.219	37.38
347.431	43.52
347.643	61.95
347.855	59.9
348.067	68.09
348.279	57.86
348.491	68.09
348.703	2.56
348.915	37.38
349.127	37.38
349.339	25.09
349.551	45.57
349.763	49.66
349.975	33.28
350.187	49.66
350.399	49.66
350.61	-19.97
350.822	-17.92
351.034	-22.02
351.246	37.38
351.458	49.66
351.669	43.52
351.881	27.14
352.093	12.8
352.305	135.68
352.517	-48.64
352.728	92.67
352.94	8.7
353.152	47.62
353.363	53.76
353.575	20.99
353.787	117.25
353.999	55.81
354.21	72.19
354.422	-7.68
354.633	39.42
354.845	6.66
355.057	35.33
355.268	66.05
355.48	64
355.692	70.14
355.903	10.75
356.115	18.94
356.326	29.18
356.538	-32.26
356.749	12.8
356.961	2.56
357.172	10.75
357.384	41.47
357.595	23.04
357.807	57.86
358.018	18.94
358.23	25.09
358.441	23.04
358.653	88.57
358.864	68.09
359.075	-28.16
359.287	16.9
359.498	78.33
359.709	33.28
359.921	72.19
360.132	2.56
360.344	10.75
360.555	-3.58
360.766	-46.59
360.977	8.7
361.189	37.38
361.4	53.76
361.611	12.8
361.823	-3.58
362.034	10.75
362.245	25.09
362.456	35.33
362.667	-42.5
362.879	70.14
363.09	8.7
363.301	64
363.512	-5.63
363.723	-30.21
363.935	25.09
364.146	27.14
364.357	25.09
364.568	109.05
364.779	119.29
364.99	70.14
365.201	37.38
365.412	57.86
365.623	4.61
365.834	82.43
366.045	-46.59
366.256	14.85
366.467	8.7
366.678	129.53
366.889	0.51
367.1	53.76
367.311	57.86
367.522	23.04
367.733	80.38
367.944	10.75
368.155	37.38
368.366	14.85
368.577	-50.69
368.788	51.71
368.999	55.81
369.209	78.33
369.42	31.23
369.631	115.2
369.842	4.61
370.053	35.33
370.264	14.85
370.474	37.38
370.685	0.51
370.896	72.19
371.107	20.99
371.317	43.52
371.528	6.66
371.739	14.85
371.95	-5.63
372.16	102.91
372.371	51.71
372.582	31.23
372.792	33.28
373.003	78.33
373.214	94.72
373.424	76.29
373.635	33.28
373.846	12.8
374.056	82.43
374.267	94.72
374.477	-9.73
374.688	51.71
374.898	18.94
375.109	-9.73
375.319	10.75
375.53	70.14
375.74	37.38
375.951	-30.21
376.161	-7.68
376.372	20.99
376.582	33.28
376.793	25.09
377.003	39.42
377.214	70.14
377.424	-15.87
377.635	125.44
377.845	-3.58
378.055	29.18
378.266	4.61
378.476	10.75
378.686	57.86
378.897	-1.54
379.107	43.52
379.317	39.42
379.528	27.14
379.738	43.52
379.948	39.42
380.158	35.33
380.369	-13.82
380.579	51.71
380.789	6.66
380.999	86.53
381.21	84.48
381.42	96.77
381.63	-15.87
381.84	53.76
382.05	-19.97
382.261	39.42
382.471	6.66
382.681	53.76
382.891	12.8
383.101	55.81
383.311	35.33
383.521	25.09
383.731	23.04
383.941	35.33
384.151	98.81
384.361	45.57
384.571	18.94
384.781	125.44
384.991	10.75
385.201	12.8
385.411	74.24
385.621	45.57
385.831	74.24
386.041	78.33
386.251	25.09
386.461	92.67
386.671	-7.68
386.881	37.38
387.091	66.05
387.301	47.62
387.511	37.38
387.72	18.94
387.93	76.29
388.14	41.47
388.35	53.76
388.56	94.72
388.769	43.52
388.979	37.38
389.189	18.94
389.399	104.96
389.609	0.51
389.818	43.52
390.028	-11.78
390.238	59.9
390.447	-1.54
390.657	37.38
390.867	37.38
391.076	88.57
391.286	49.66
391.496	23.04
391.705	49.66
391.915	59.9
392.125	55.81
392.334	-11.78
392.544	78.33
392.753	76.29
392.963	25.09
393.172	37.38
393.382	-34.3
393.591	16.9
393.801	35.33
394.01	8.7
394.22	47.62
394.429	-9.73
394.639	4.61
394.848	68.09
395.058	78.33
395.267	45.57
395.477	39.42
395.686	-38.4
395.895	-3.58
396.105	109.05
396.314	72.19
396.524	78.33
396.733	66.05
396.942	53.76
397.152	72.19
397.361	107.01
397.57	78.33
397.78	74.24
397.989	76.29
398.198	80.38
398.407	33.28
398.617	14.85
398.826	111.1
399.035	43.52
399.244	94.72
399.453	90.62
399.663	129.53
399.872	16.9
400.081	59.9
400.29	64
400.499	88.57
400.708	145.92
400.917	-15.87
401.127	113.15
401.336	64
401.545	51.71
401.754	53.76
401.963	88.57
402.172	90.62
402.381	68.09
402.59	18.94
402.799	51.71
403.008	64
403.217	84.48
403.426	41.47
403.635	66.05
403.844	61.95
404.053	117.25
404.262	135.68
404.471	125.44
404.68	61.95
404.888	90.62
405.097	96.77
405.306	145.92
405.515	55.81
405.724	150.01
405.933	113.15
406.142	201.21
406.35	113.15
406.559	111.1
406.768	115.2
406.977	186.88
407.185	92.67
407.394	154.11
407.603	100.86
407.812	168.45
408.02	129.53
408.229	174.59
408.438	117.25
408.646	199.16
408.855	137.73
409.064	211.45
409.272	111.1
409.481	168.45
409.69	254.46
409.898	186.88
410.107	123.39
410.315	332.28
410.524	250.36
410.733	221.69
410.941	184.83
411.15	203.26
411.358	215.55
411.567	209.4
411.775	252.41
411.984	264.7
412.192	242.17
412.401	328.19
412.609	342.52
412.818	317.95
413.026	272.89
413.234	360.95
413.443	272.89
413.651	348.67
413.86	363
414.068	500.22
414.276	403.96
414.485	403.96
414.693	381.43
414.901	444.92
415.11	446.97
415.318	449.02
415.526	514.55
415.734	514.55
415.943	537.08
416.151	571.9
416.359	586.23
416.567	641.53
416.776	590.33
416.984	621.05
417.192	604.66
417.4	629.24
417.608	676.34
417.817	709.11
418.025	750.07
418.233	770.55
418.441	754.16
418.649	844.28
418.857	823.8
419.065	840.18
419.273	840.18
419.481	899.57
419.689	965.11
419.897	942.58
420.105	1018.35
420.313	1040.88
420.521	1096.18
420.729	1034.74
420.937	1090.03
421.145	1206.77
421.353	1194.48
421.561	1327.6
421.769	1255.92
421.977	1321.45
422.185	1331.69
422.393	1421.8
422.601	1485.29
422.809	1462.76
423.017	1599.98
423.224	1626.6
423.432	1597.93
423.64	1667.56
423.848	1860.07
424.056	1815.01
424.263	1829.35
424.471	1872.36
424.679	1815.01
424.887	1870.31
425.094	2046.43
425.302	2093.54
425.51	2165.21
425.718	2249.18
425.925	2255.33
426.133	2378.2
426.341	2380.25
426.548	2574.81
426.756	2591.19
426.964	2718.17
427.171	2841.04
427.379	2691.54
427.586	2877.91
427.794	2961.87
428.001	3123.66
428.209	3209.68
428.417	3195.34
428.624	3307.98
428.832	3432.91
429.039	3441.1
429.247	3338.7
429.454	3705.29
429.662	4100.55
429.869	3684.81
430.076	4028.87
430.284	3856.84
430.491	3934.66
430.699	4264.38
430.906	4356.54
431.114	4272.57
431.321	4516.28
431.528	4665.78
431.736	4753.85
431.943	5073.33
432.15	5015.99
432.358	4950.45
432.565	5269.94
432.772	5179.82
432.979	5511.6
433.187	5689.77
433.394	5642.67
433.601	6093.22
433.808	6181.28
434.016	6117.79
434.223	6365.6
434.43	6605.21
434.637	6676.89
434.844	6928.79
435.052	7172.5
435.259	7078.29
435.466	7076.24
435.673	6945.17
435.88	7608.72
436.087	8059.27
436.294	7913.86
436.501	7731.59
436.708	7950.73
436.915	8202.63
437.122	8475.01
437.329	8661.37
437.537	8849.78
437.743	9066.87
437.95	8956.28
438.157	9599.34
438.364	9673.07
438.571	9679.21
438.778	9673.07
438.985	10721.63
439.192	9927.02
439.399	10369.38
439.606	10279.27
439.813	10824.03
440.02	11538.77
440.227	11262.29
440.433	11221.33
440.64	11520.34
440.847	11727.18
441.054	11880.78
441.261	12794.17
441.467	12661.05
441.674	12642.62
441.881	13205.81
442.088	13345.08
442.294	13171
442.501	13275.45
442.708	13619.5
442.914	14414.12
443.121	14971.16
443.328	14641.44
443.534	15632.66
443.741	15395.09
443.948	14674.21
444.154	16052.49
444.361	15888.65
444.568	15964.43
444.774	15999.24
444.981	16234.76
445.187	16597.25
445.394	17244.41
445.6	17043.71
445.807	18538.73
446.013	17938.67
446.22	18319.59
446.426	19015.9
446.633	19210.46
446.839	19837.14
447.046	18995.42
447.252	20216.01
447.459	20492.49
447.665	20109.52
447.871	21248.19
448.078	21999.79
448.284	20887.75
448.491	21727.41
448.697	22188.21
448.903	22706.34
449.11	22730.92
449.316	22497.45
449.522	22925.47
449.728	23414.94
449.935	23695.51
450.141	23607.45
450.347	24422.54
450.553	23724.18
450.76	23941.27
450.966	24557.71
451.172	24268.94
451.378	24703.11
451.584	24723.59
451.791	24961.16
451.997	24639.62
452.203	25616.51
452.409	25270.4
452.615	25376.89
452.821	24479.88
453.027	24135.82
453.233	25839.73
453.44	24496.27
453.646	24682.63
453.852	25108.61
454.058	25555.07
454.264	24365.2
454.47	25184.38
454.676	24524.94
454.882	25239.68
455.088	23160.99
455.294	23449.75
455.5	23806.1
455.705	24144.02
455.911	23185.57
456.117	22632.61
456.323	22354.09
456.529	21317.82
456.735	22137.01
456.941	21459.13
457.147	21665.97
457.352	20621.51
457.558	20175.05
457.764	20261.07
457.97	20332.75
458.176	19792.08
458.381	19937.49
458.587	18725.09
458.793	18788.58
458.999	17563.89
459.204	18852.06
459.41	18432.23
459.616	17271.03
459.821	17340.66
460.027	17062.14
460.233	16898.3
460.438	16406.79
460.644	16298.25
460.85	15298.84
461.055	15120.67
461.261	15327.51
461.466	14272.81
461.672	13656.37
461.878	14563.62
462.083	13658.42
462.289	13574.45
462.494	13379.89
462.7	12759.36
462.905	12562.75
463.111	12972.35
463.316	13080.89
463.522	12751.17
463.727	12917.05
463.932	12775.74
464.138	12527.94
464.343	12579.14
464.549	12396.87
464.754	12585.28
464.959	12396.87
465.165	12579.14
465.37	12024.14
465.575	11524.43
465.781	12208.45
465.986	12214.6
466.191	11596.11
466.397	11567.44
466.602	10920.28
466.807	11491.66
467.012	11549.01
467.218	11385.17
467.423	11172.18
467.628	11389.27
467.833	11788.62
468.038	11166.04
468.244	10996.06
468.449	11559.25
