Data from USB4F104151__33__12-53-40-006.txt Node

Date: Fri Mar 14 12:53:40 EDT 2025
User: louis
Spectrometer: USB4F10415
Trigger mode: 4
Integration Time (sec): 1.000000E-2
Scans to average: 1
Electric dark correction enabled: true
Nonlinearity correction enabled: false
Boxcar width: 0
XAxis mode: Wavelengths
Number of Pixels in Spectrum: 3648
>>>>>Begin Spectral Data<<<<<
178.204	-35.84
178.424	-35.84
178.644	-35.84
178.864	-41.98
179.084	-41.98
179.304	-33.79
179.524	72.7
179.744	-1.02
179.964	29.7
180.184	9.22
180.404	-9.22
180.624	58.37
180.844	-60.42
181.064	5.12
181.283	-13.31
181.503	-44.03
181.723	-13.31
181.943	19.46
182.163	-15.36
182.383	-11.26
182.602	72.7
182.822	-1.02
183.042	-23.55
183.262	56.32
183.482	46.08
183.701	39.94
183.921	-1.02
184.141	5.12
184.361	54.27
184.58	107.52
184.8	-1.02
185.02	-33.79
185.239	76.8
185.459	48.13
185.679	54.27
185.898	54.27
186.118	89.09
186.338	27.65
186.557	64.51
186.777	-3.07
186.997	37.89
187.216	9.22
187.436	97.28
187.655	48.13
187.875	29.7
188.095	48.13
188.314	128
188.534	84.99
188.753	74.75
188.973	-46.08
189.192	46.08
189.412	56.32
189.631	7.17
189.851	15.36
190.07	66.56
190.29	33.79
190.509	-19.46
190.729	23.55
190.948	41.98
191.168	60.42
191.387	35.84
191.607	17.41
191.826	-27.65
192.045	70.65
192.265	48.13
192.484	-21.5
192.704	31.74
192.923	-21.5
193.142	7.17
193.362	58.37
193.581	48.13
193.8	48.13
194.02	9.22
194.239	48.13
194.458	23.55
194.678	27.65
194.897	-7.17
195.116	46.08
195.335	11.26
195.555	58.37
195.774	39.94
195.993	-15.36
196.212	-11.26
196.432	95.23
196.651	27.65
196.87	56.32
197.089	17.41
197.308	56.32
197.528	21.5
197.747	15.36
197.966	37.89
198.185	29.7
198.404	50.18
198.623	27.65
198.842	66.56
199.062	-1.02
199.281	105.47
199.5	35.84
199.719	11.26
199.938	15.36
200.157	31.74
200.376	56.32
200.595	64.51
200.814	27.65
201.033	31.74
201.252	70.65
201.471	11.26
201.69	62.46
201.909	64.51
202.128	37.89
202.347	58.37
202.566	-11.26
202.785	-37.89
203.004	15.36
203.223	66.56
203.442	46.08
203.661	39.94
203.879	25.6
204.098	91.13
204.317	-33.79
204.536	66.56
204.755	-5.12
204.974	-1.02
205.193	-1.02
205.411	91.13
205.63	17.41
205.849	60.42
206.068	44.03
206.287	56.32
206.505	66.56
206.724	23.55
206.943	-39.94
207.162	3.07
207.381	44.03
207.599	-13.31
207.818	64.51
208.037	39.94
208.255	68.61
208.474	31.74
208.693	54.27
208.911	44.03
209.13	23.55
209.349	64.51
209.567	39.94
209.786	58.37
210.005	-1.02
210.223	89.09
210.442	9.22
210.661	27.65
210.879	-5.12
211.098	31.74
211.316	33.79
211.535	-5.12
211.753	17.41
211.972	89.09
212.191	74.75
212.409	97.28
212.628	-11.26
212.846	37.89
213.065	13.31
213.283	11.26
213.502	15.36
213.72	44.03
213.938	13.31
214.157	64.51
214.375	23.55
214.594	-21.5
214.812	35.84
215.031	72.7
215.249	-3.07
215.467	-54.27
215.686	48.13
215.904	-13.31
216.122	29.7
216.341	44.03
216.559	31.74
216.778	27.65
216.996	68.61
217.214	74.75
217.432	-11.26
217.651	68.61
217.869	-7.17
218.087	33.79
218.306	-23.55
218.524	-54.27
218.742	1.02
218.96	25.6
219.179	-29.7
219.397	109.57
219.615	41.98
219.833	58.37
220.051	68.61
220.27	25.6
220.488	7.17
220.706	-11.26
220.924	48.13
221.142	54.27
221.36	17.41
221.578	72.7
221.796	41.98
222.015	-35.84
222.233	46.08
222.451	39.94
222.669	-7.17
222.887	89.09
223.105	46.08
223.323	44.03
223.541	-15.36
223.759	74.75
223.977	-48.13
224.195	3.07
224.413	31.74
224.631	-9.22
224.849	89.09
225.067	-23.55
225.285	48.13
225.503	48.13
225.721	-17.41
225.939	17.41
226.157	15.36
226.375	-21.5
226.592	52.22
226.81	39.94
227.028	31.74
227.246	37.89
227.464	41.98
227.682	48.13
227.9	37.89
228.117	13.31
228.335	3.07
228.553	-17.41
228.771	54.27
228.989	-9.22
229.206	89.09
229.424	91.13
229.642	-3.07
229.86	48.13
230.077	76.8
230.295	7.17
230.513	13.31
230.731	33.79
230.948	50.18
231.166	44.03
231.384	-15.36
231.601	-21.5
231.819	62.46
232.037	37.89
232.254	-3.07
232.472	-11.26
232.689	84.99
232.907	3.07
233.125	19.46
233.342	58.37
233.56	37.89
233.777	48.13
233.995	9.22
234.213	33.79
234.43	31.74
234.648	48.13
234.865	33.79
235.083	87.04
235.3	78.85
235.518	66.56
235.735	46.08
235.953	50.18
236.17	82.94
236.388	23.55
236.605	7.17
236.822	33.79
237.04	80.89
237.257	33.79
237.475	11.26
237.692	17.41
237.909	33.79
238.127	58.37
238.344	25.6
238.562	44.03
238.779	17.41
238.996	101.37
239.214	56.32
239.431	21.5
239.648	-15.36
239.865	56.32
240.083	29.7
240.3	62.46
240.517	-39.94
240.735	-15.36
240.952	39.94
241.169	-19.46
241.386	33.79
241.603	27.65
241.821	21.5
242.038	-7.17
242.255	23.55
242.472	-1.02
242.689	-21.5
242.907	56.32
243.124	70.65
243.341	23.55
243.558	25.6
243.775	-25.6
243.992	33.79
244.209	9.22
244.426	58.37
244.643	23.55
244.86	39.94
245.078	56.32
245.295	103.42
245.512	93.18
245.729	-1.02
245.946	37.89
246.163	9.22
246.38	-7.17
246.597	48.13
246.814	17.41
247.031	17.41
247.248	41.98
247.464	50.18
247.681	80.89
247.898	44.03
248.115	3.07
248.332	13.31
248.549	15.36
248.766	62.46
248.983	64.51
249.2	9.22
249.417	87.04
249.633	52.22
249.85	-13.31
250.067	44.03
250.284	41.98
250.501	29.7
250.717	46.08
250.934	-9.22
251.151	7.17
251.368	-35.84
251.585	64.51
251.801	54.27
252.018	27.65
252.235	15.36
252.451	27.65
252.668	1.02
252.885	58.37
253.102	31.74
253.318	-7.17
253.535	-31.74
253.752	25.6
253.968	48.13
254.185	-19.46
254.401	101.37
254.618	72.7
254.835	9.22
255.051	80.89
255.268	58.37
255.484	33.79
255.701	19.46
255.917	-25.6
256.134	13.31
256.351	11.26
256.567	37.89
256.784	72.7
257	56.32
257.217	48.13
257.433	76.8
257.65	37.89
257.866	-19.46
258.082	46.08
258.299	1.02
258.515	-15.36
258.732	78.85
258.948	19.46
259.165	-66.56
259.381	37.89
259.597	41.98
259.814	56.32
260.03	101.37
260.246	29.7
260.463	1.02
260.679	23.55
260.895	3.07
261.112	50.18
261.328	50.18
261.544	-15.36
261.761	60.42
261.977	56.32
262.193	39.94
262.409	31.74
262.626	50.18
262.842	13.31
263.058	27.65
263.274	33.79
263.49	68.61
263.707	60.42
263.923	123.9
264.139	52.22
264.355	17.41
264.571	39.94
264.787	37.89
265.004	-25.6
265.22	7.17
265.436	82.94
265.652	1.02
265.868	58.37
266.084	3.07
266.3	56.32
266.516	58.37
266.732	33.79
266.948	-50.18
267.164	89.09
267.38	-27.65
267.596	70.65
267.812	150.53
268.028	82.94
268.244	58.37
268.46	58.37
268.676	31.74
268.892	58.37
269.108	21.5
269.324	-33.79
269.54	31.74
269.756	-41.98
269.972	-3.07
270.188	25.6
270.403	97.28
270.619	48.13
270.835	56.32
271.051	64.51
271.267	41.98
271.483	21.5
271.698	82.94
271.914	31.74
272.13	93.18
272.346	21.5
272.562	46.08
272.777	52.22
272.993	89.09
273.209	60.42
273.425	19.46
273.64	13.31
273.856	17.41
274.072	19.46
274.287	82.94
274.503	-19.46
274.719	31.74
274.934	91.13
275.15	-37.89
275.366	13.31
275.581	-23.55
275.797	60.42
276.012	11.26
276.228	70.65
276.444	15.36
276.659	-9.22
276.875	-31.74
277.09	89.09
277.306	-17.41
277.521	39.94
277.737	130.05
277.952	66.56
278.168	48.13
278.383	82.94
278.599	5.12
278.814	48.13
279.03	68.61
279.245	50.18
279.461	74.75
279.676	-31.74
279.892	52.22
280.107	-21.5
280.322	23.55
280.538	52.22
280.753	31.74
280.969	44.03
281.184	76.8
281.399	52.22
281.615	37.89
281.83	50.18
282.045	54.27
282.26	21.5
282.476	9.22
282.691	82.94
282.906	-11.26
283.122	46.08
283.337	27.65
283.552	-27.65
283.767	60.42
283.983	68.61
284.198	15.36
284.413	93.18
284.628	46.08
284.843	72.7
285.058	37.89
285.274	25.6
285.489	19.46
285.704	66.56
285.919	101.37
286.134	46.08
286.349	-5.12
286.564	72.7
286.779	23.55
286.995	5.12
287.21	-19.46
287.425	52.22
287.64	-1.02
287.855	60.42
288.07	11.26
288.285	52.22
288.5	-29.7
288.715	97.28
288.93	19.46
289.145	-31.74
289.36	66.56
289.575	109.57
289.79	48.13
290.004	48.13
290.219	9.22
290.434	44.03
290.649	58.37
290.864	50.18
291.079	101.37
291.294	41.98
291.509	39.94
291.724	103.42
291.938	27.65
292.153	13.31
292.368	60.42
292.583	33.79
292.798	52.22
293.012	9.22
293.227	37.89
293.442	15.36
293.657	64.51
293.871	39.94
294.086	46.08
294.301	-1.02
294.516	46.08
294.73	101.37
294.945	-54.27
295.16	7.17
295.374	-7.17
295.589	21.5
295.804	23.55
296.018	41.98
296.233	82.94
296.447	-21.5
296.662	54.27
296.877	46.08
297.091	39.94
297.306	123.9
297.52	82.94
297.735	105.47
297.949	46.08
298.164	39.94
298.378	48.13
298.593	41.98
298.807	23.55
299.022	144.38
299.236	7.17
299.451	-13.31
299.665	-1.02
299.88	52.22
300.094	46.08
300.309	56.32
300.523	44.03
300.737	-1.02
300.952	52.22
301.166	19.46
301.381	23.55
301.595	7.17
301.809	17.41
302.024	41.98
302.238	25.6
302.452	121.85
302.667	27.65
302.881	70.65
303.095	13.31
303.309	50.18
303.524	64.51
303.738	123.9
303.952	82.94
304.166	64.51
304.381	27.65
304.595	44.03
304.809	74.75
305.023	78.85
305.237	11.26
305.452	11.26
305.666	58.37
305.88	78.85
306.094	56.32
306.308	44.03
306.522	-41.98
306.736	48.13
306.95	-9.22
307.164	-7.17
307.379	31.74
307.593	70.65
307.807	-3.07
308.021	-1.02
308.235	84.99
308.449	-23.55
308.663	50.18
308.877	68.61
309.091	-23.55
309.305	15.36
309.519	93.18
309.733	52.22
309.947	-5.12
310.161	60.42
310.374	76.8
310.588	48.13
310.802	52.22
311.016	62.46
311.23	5.12
311.444	91.13
311.658	121.85
311.872	58.37
312.085	56.32
312.299	52.22
312.513	23.55
312.727	132.09
312.941	33.79
313.154	56.32
313.368	76.8
313.582	82.94
313.796	68.61
314.009	105.47
314.223	72.7
314.437	7.17
314.651	60.42
314.864	97.28
315.078	56.32
315.292	82.94
315.505	23.55
315.719	76.8
315.933	56.32
316.146	58.37
316.36	29.7
316.573	7.17
316.787	60.42
317.001	5.12
317.214	7.17
317.428	39.94
317.641	64.51
317.855	25.6
318.068	17.41
318.282	-33.79
318.495	54.27
318.709	29.7
318.922	15.36
319.136	62.46
319.349	15.36
319.563	29.7
319.776	11.26
319.99	52.22
320.203	-1.02
320.417	56.32
320.63	52.22
320.843	9.22
321.057	58.37
321.27	-7.17
321.483	52.22
321.697	82.94
321.91	-33.79
322.124	1.02
322.337	-25.6
322.55	64.51
322.763	35.84
322.977	68.61
323.19	-33.79
323.403	84.99
323.617	11.26
323.83	23.55
324.043	80.89
324.256	107.52
324.469	13.31
324.683	3.07
324.896	27.65
325.109	78.85
325.322	5.12
325.535	89.09
325.748	44.03
325.962	80.89
326.175	39.94
326.388	-15.36
326.601	46.08
326.814	19.46
327.027	1.02
327.24	119.81
327.453	52.22
327.666	50.18
327.879	11.26
328.092	72.7
328.305	39.94
328.518	13.31
328.731	62.46
328.944	3.07
329.157	7.17
329.37	48.13
329.583	62.46
329.796	44.03
330.009	95.23
330.222	97.28
330.435	37.89
330.648	58.37
330.861	103.42
331.073	91.13
331.286	-1.02
331.499	58.37
331.712	37.89
331.925	33.79
332.138	9.22
332.35	70.65
332.563	-29.7
332.776	93.18
332.989	17.41
333.202	23.55
333.414	62.46
333.627	52.22
333.84	76.8
334.053	48.13
334.265	39.94
334.478	5.12
334.691	37.89
334.903	7.17
335.116	19.46
335.329	74.75
335.541	9.22
335.754	27.65
335.966	-5.12
336.179	9.22
336.392	64.51
336.604	66.56
336.817	107.52
337.029	58.37
337.242	50.18
337.454	-7.17
337.667	105.47
337.88	13.31
338.092	31.74
338.305	62.46
338.517	19.46
338.729	60.42
338.942	82.94
339.154	56.32
339.367	-17.41
339.579	11.26
339.792	48.13
340.004	56.32
340.217	31.74
340.429	62.46
340.641	-3.07
340.854	25.6
341.066	-11.26
341.278	52.22
341.491	117.76
341.703	50.18
341.915	31.74
342.128	46.08
342.34	74.75
342.552	66.56
342.764	33.79
342.977	72.7
343.189	39.94
343.401	113.66
343.613	54.27
343.826	72.7
344.038	50.18
344.25	-3.07
344.462	35.84
344.674	48.13
344.886	-15.36
345.099	84.99
345.311	-33.79
345.523	115.71
345.735	13.31
345.947	19.46
346.159	13.31
346.371	35.84
346.583	64.51
346.795	23.55
347.007	97.28
347.219	101.37
347.431	-19.46
347.643	23.55
347.855	68.61
348.067	64.51
348.279	123.9
348.491	44.03
348.703	25.6
348.915	46.08
349.127	56.32
349.339	56.32
349.551	39.94
349.763	136.19
349.975	31.74
350.187	97.28
350.399	62.46
350.61	68.61
350.822	44.03
351.034	70.65
351.246	46.08
351.458	48.13
351.669	41.98
351.881	-15.36
352.093	11.26
352.305	64.51
352.517	23.55
352.728	31.74
352.94	58.37
353.152	101.37
353.363	-80.89
353.575	56.32
353.787	48.13
353.999	19.46
354.21	48.13
354.422	-13.31
354.633	74.75
354.845	7.17
355.057	29.7
355.268	-5.12
355.48	1.02
355.692	27.65
355.903	37.89
356.115	93.18
356.326	3.07
356.538	3.07
356.749	123.9
356.961	74.75
357.172	74.75
357.384	39.94
357.595	66.56
357.807	80.89
358.018	44.03
358.23	62.46
358.441	-7.17
358.653	58.37
358.864	111.61
359.075	1.02
359.287	52.22
359.498	41.98
359.709	66.56
359.921	15.36
360.132	-17.41
360.344	-29.7
360.555	11.26
360.766	1.02
360.977	48.13
361.189	5.12
361.4	-25.6
361.611	48.13
361.823	21.5
362.034	84.99
362.245	56.32
362.456	35.84
362.667	54.27
362.879	35.84
363.09	44.03
363.301	72.7
363.512	62.46
363.723	66.56
363.935	31.74
364.146	105.47
364.357	29.7
364.568	33.79
364.779	11.26
364.99	31.74
365.201	89.09
365.412	91.13
365.623	48.13
365.834	-33.79
366.045	62.46
366.256	109.57
366.467	60.42
366.678	39.94
366.889	15.36
367.1	87.04
367.311	23.55
367.522	54.27
367.733	89.09
367.944	19.46
368.155	46.08
368.366	58.37
368.577	84.99
368.788	72.7
368.999	17.41
369.209	54.27
369.42	107.52
369.631	50.18
369.842	27.65
370.053	89.09
370.264	107.52
370.474	91.13
370.685	13.31
370.896	39.94
371.107	-13.31
371.317	41.98
371.528	93.18
371.739	60.42
371.95	-3.07
372.16	68.61
372.371	15.36
372.582	70.65
372.792	37.89
373.003	44.03
373.214	91.13
373.424	74.75
373.635	91.13
373.846	66.56
374.056	62.46
374.267	39.94
374.477	74.75
374.688	62.46
374.898	82.94
375.109	46.08
375.319	91.13
375.53	84.99
375.74	41.98
375.951	64.51
376.161	-13.31
376.372	27.65
376.582	37.89
376.793	58.37
377.003	27.65
377.214	-3.07
377.424	25.6
377.635	76.8
377.845	60.42
378.055	48.13
378.266	29.7
378.476	1.02
378.686	93.18
378.897	19.46
379.107	91.13
379.317	107.52
379.528	15.36
379.738	7.17
379.948	25.6
380.158	78.85
380.369	66.56
380.579	48.13
380.789	91.13
380.999	33.79
381.21	46.08
381.42	132.09
381.63	70.65
381.84	87.04
382.05	46.08
382.261	50.18
382.471	-1.02
382.681	48.13
382.891	64.51
383.101	-9.22
383.311	-19.46
383.521	58.37
383.731	50.18
383.941	15.36
384.151	35.84
384.361	70.65
384.571	99.33
384.781	84.99
384.991	39.94
385.201	99.33
385.411	41.98
385.621	50.18
385.831	60.42
386.041	44.03
386.251	9.22
386.461	87.04
386.671	52.22
386.881	87.04
387.091	-46.08
387.301	66.56
387.511	121.85
387.72	146.43
387.93	60.42
388.14	54.27
388.35	93.18
388.56	60.42
388.769	37.89
388.979	68.61
389.189	-60.42
389.399	50.18
389.609	70.65
389.818	39.94
390.028	19.46
390.238	35.84
390.447	-5.12
390.657	87.04
390.867	-19.46
391.076	37.89
391.286	33.79
391.496	101.37
391.705	68.61
391.915	50.18
392.125	11.26
392.334	21.5
392.544	50.18
392.753	44.03
392.963	44.03
393.172	136.19
393.382	119.81
393.591	48.13
393.801	58.37
394.01	33.79
394.22	-68.61
394.429	84.99
394.639	72.7
394.848	148.48
395.058	41.98
395.267	46.08
395.477	27.65
395.686	80.89
395.895	107.52
396.105	91.13
396.314	91.13
396.524	113.66
396.733	78.85
396.942	101.37
397.152	52.22
397.361	76.8
397.57	-3.07
397.78	64.51
397.989	58.37
398.198	64.51
398.407	76.8
398.617	74.75
398.826	11.26
399.035	105.47
399.244	48.13
399.453	121.85
399.663	31.74
399.872	58.37
400.081	15.36
400.29	66.56
400.499	33.79
400.708	150.53
400.917	76.8
401.127	95.23
401.336	68.61
401.545	15.36
401.754	91.13
401.963	125.95
402.172	66.56
402.381	99.33
402.59	31.74
402.799	142.33
403.008	76.8
403.217	66.56
403.426	146.43
403.635	113.66
403.844	60.42
404.053	123.9
404.262	39.94
404.471	41.98
404.68	72.7
404.888	142.33
405.097	117.76
405.306	84.99
405.515	125.95
405.724	113.66
405.933	140.29
406.142	89.09
406.35	140.29
406.559	58.37
406.768	105.47
406.977	99.33
407.185	125.95
407.394	109.57
407.603	105.47
407.812	138.24
408.02	187.39
408.229	179.2
408.438	111.61
408.646	44.03
408.855	99.33
409.064	179.2
409.272	166.91
409.481	193.53
409.69	103.42
409.898	160.77
410.107	189.44
410.315	187.39
410.524	117.76
410.733	226.3
410.941	242.68
411.15	224.25
411.358	201.72
411.567	240.64
411.775	240.64
411.984	250.88
412.192	261.12
412.401	222.2
412.609	263.16
412.818	277.5
413.026	314.36
413.234	195.58
413.443	367.61
413.651	310.27
413.86	318.46
414.068	334.84
414.276	320.51
414.485	304.12
414.693	304.12
414.901	377.85
415.11	334.84
415.318	373.75
415.526	406.52
415.734	394.23
415.943	447.48
416.151	463.86
416.359	416.76
416.567	470.01
416.776	517.11
416.984	490.49
417.192	486.39
417.4	441.34
417.608	539.64
417.817	478.2
418.025	531.45
418.233	553.98
418.441	519.16
418.649	594.93
418.857	599.03
419.065	695.29
419.273	586.74
419.481	717.81
419.689	693.24
419.897	793.59
420.105	756.72
420.313	824.31
420.521	703.48
420.729	783.35
420.937	791.54
421.145	859.12
421.353	900.08
421.561	998.38
421.769	1086.45
421.977	949.23
422.185	1020.91
422.393	1133.55
422.601	1020.91
422.809	1201.13
423.017	1111.02
423.224	1098.74
423.432	1217.52
423.64	1293.29
423.848	1321.96
424.056	1260.52
424.263	1379.31
424.471	1473.51
424.679	1453.03
424.887	1498.09
425.094	1502.19
425.302	1537
425.51	1580.01
425.718	1623.02
425.925	1653.73
426.133	1672.17
426.341	1819.62
426.548	1848.29
426.756	1881.06
426.964	1907.68
427.171	1981.41
427.379	2016.23
427.586	2184.16
427.794	2210.78
428.001	2218.97
428.209	2315.23
428.417	2296.8
428.624	2483.16
428.832	2450.39
429.039	2505.69
429.247	2528.22
429.454	2737.11
429.662	2841.56
429.869	2741.21
430.076	2900.95
430.284	2808.79
430.491	2862.04
430.699	3175.38
430.906	3179.47
431.114	3238.86
431.321	3236.81
431.528	3363.79
431.736	3414.99
431.943	3625.93
432.15	3670.98
432.358	3531.72
432.565	3828.68
432.772	3904.45
432.979	4107.2
433.187	4176.83
433.394	4254.66
433.601	4524.99
433.808	4436.92
434.016	4461.5
434.223	4549.56
434.43	4875.19
434.637	4649.91
434.844	5061.55
435.052	5145.52
435.259	5249.97
435.466	5272.5
435.673	5223.34
435.88	5368.75
436.087	5872.55
436.294	5776.3
436.501	5716.9
436.708	5796.78
436.915	6011.81
437.122	6165.41
437.329	6300.58
437.537	6384.54
437.743	6511.52
437.95	6433.69
438.157	6826.9
438.364	7308.18
438.571	7058.32
438.778	7193.49
438.985	7846.79
439.192	7459.73
439.399	7670.67
439.606	7474.06
439.813	7959.43
440.02	8330.11
440.227	8102.79
440.433	8227.71
440.64	8516.48
440.847	8422.27
441.054	8534.91
441.261	9204.6
441.467	8993.65
441.674	9165.68
441.881	9546.61
442.088	9710.44
442.294	9487.22
442.501	9737.07
442.708	10089.32
442.914	10437.47
443.121	10914.65
443.328	10638.17
443.534	11201.37
443.741	10986.33
443.948	11010.9
444.154	11776.84
444.361	11623.25
444.568	11531.09
444.774	11666.25
444.981	12084.04
445.187	12133.19
445.394	12534.59
445.6	12444.48
445.807	13824.81
446.013	12888.89
446.22	13456.18
446.426	13923.12
446.633	14056.23
446.839	14424.87
447.046	13925.16
447.252	14699.3
447.459	14641.95
447.665	14670.62
447.871	15319.83
448.078	16005.9
448.284	15411.99
448.491	15522.58
448.697	16253.7
448.903	16775.94
449.11	16540.42
449.316	16294.66
449.522	16626.43
449.728	16980.73
449.935	17392.37
450.141	17193.72
450.347	17672.95
450.553	16964.35
450.76	17242.87
450.966	17953.52
451.172	17859.31
451.378	18299.62
451.584	17875.7
451.791	18213.61
451.997	18078.44
452.203	18502.37
452.409	18369.26
452.615	18365.16
452.821	17711.86
453.027	17572.6
453.233	18508.52
453.44	17787.63
453.646	18139.88
453.852	18070.25
454.058	18520.81
454.264	18277.1
454.47	18287.34
454.676	18088.68
454.882	18426.6
455.088	16829.18
455.294	16874.24
455.5	17269.5
455.705	17558.26
455.911	17056.51
456.117	16466.69
456.323	16356.1
456.529	15352.6
456.735	16222.98
456.941	15659.79
457.147	15266.58
457.352	14895.9
457.558	14654.24
457.764	14871.33
457.97	14727.97
458.176	14254.89
458.381	14023.47
458.587	13474.61
458.793	13658.93
458.999	12944.19
459.204	13792.05
459.41	13337.4
459.616	12467.01
459.821	12540.74
460.027	12499.78
460.233	12467.01
460.438	11598.67
460.644	11993.93
460.85	11176.79
461.055	11236.18
461.261	11205.46
461.466	10154.85
461.672	9905
461.878	10644.32
462.083	9778.03
462.289	9642.86
462.494	9821.03
462.7	9190.26
462.905	9145.2
463.111	9325.43
463.316	9350
463.522	9157.49
463.727	9288.56
463.932	9372.53
464.138	9143.16
464.343	9151.35
464.549	8870.78
464.754	9132.92
464.959	9155.44
465.165	9210.74
465.37	8782.71
465.575	8369.02
465.781	8921.98
465.986	8846.2
466.191	8528.77
466.397	8364.93
466.602	8207.23
466.807	8436.61
467.012	8360.83
467.218	8303.49
467.423	8162.18
467.628	8272.77
467.833	8653.69
468.038	8352.64
468.244	8119.17
468.449	8203.14
468.654	8262.53
468.859	8235.91
469.064	7930.76
469.269	7660.43
469.474	7740.3
