Data from USB4F104151__77__12-54-42-838.txt Node

Date: Fri Mar 14 12:54:42 EDT 2025
User: louis
Spectrometer: USB4F10415
Trigger mode: 4
Integration Time (sec): 1.000000E-2
Scans to average: 1
Electric dark correction enabled: true
Nonlinearity correction enabled: false
Boxcar width: 0
XAxis mode: Wavelengths
Number of Pixels in Spectrum: 3648
>>>>>Begin Spectral Data<<<<<
178.204	6.31
178.424	6.31
178.644	6.31
178.864	6.31
179.084	41.13
179.304	-18.26
179.524	0.17
179.744	28.84
179.964	-38.74
180.184	-26.45
180.404	22.7
180.624	-57.17
180.844	49.32
181.064	0.17
181.283	-8.02
181.503	-26.45
181.723	73.9
181.943	-10.07
182.163	82.09
182.383	-12.12
182.602	43.18
182.822	49.32
183.042	92.33
183.262	18.6
183.482	12.46
183.701	63.66
183.921	8.36
184.141	-16.21
184.361	-12.12
184.58	8.36
184.8	2.22
185.02	30.89
185.239	16.55
185.459	-8.02
185.679	57.51
185.898	63.66
186.118	67.75
186.338	-18.26
186.557	0.17
186.777	4.27
186.997	32.94
187.216	-1.88
187.436	6.31
187.655	20.65
187.875	55.47
188.095	39.08
188.314	30.89
188.534	34.99
188.753	-18.26
188.973	2.22
189.192	80.04
189.412	55.47
189.631	-26.45
189.851	32.94
190.07	-8.02
190.29	22.7
190.509	30.89
190.729	39.08
190.948	34.99
191.168	26.79
191.387	123.05
191.607	53.42
191.826	6.31
192.045	41.13
192.265	59.56
192.484	14.51
192.704	-18.26
192.923	-14.17
193.142	-40.79
193.362	59.56
193.581	4.27
193.8	84.14
194.02	43.18
194.239	-40.79
194.458	14.51
194.678	8.36
194.897	39.08
195.116	47.27
195.335	4.27
195.555	0.17
195.774	84.14
195.993	-14.17
196.212	-46.93
196.432	51.37
196.651	-48.98
196.87	2.22
197.089	-30.55
197.308	-16.21
197.528	39.08
197.747	-26.45
197.966	18.6
198.185	43.18
198.404	-12.12
198.623	92.33
198.842	30.89
199.062	22.7
199.281	16.55
199.5	0.17
199.719	71.85
199.938	43.18
200.157	18.6
200.376	32.94
200.595	-1.88
200.814	28.84
201.033	45.23
201.252	14.51
201.471	18.6
201.69	10.41
201.909	16.55
202.128	26.79
202.347	6.31
202.566	0.17
202.785	14.51
203.004	-20.31
203.223	34.99
203.442	71.85
203.661	6.31
203.879	32.94
204.098	45.23
204.317	57.51
204.536	34.99
204.755	24.75
204.974	14.51
205.193	75.95
205.411	51.37
205.63	59.56
205.849	51.37
206.068	10.41
206.287	18.6
206.505	22.7
206.724	47.27
206.943	-26.45
207.162	-10.07
207.381	43.18
207.599	55.47
207.818	8.36
208.037	2.22
208.255	-30.55
208.474	49.32
208.693	8.36
208.911	63.66
209.13	14.51
209.349	28.84
209.567	-16.21
209.786	161.96
210.005	47.27
210.223	34.99
210.442	2.22
210.661	55.47
210.879	-22.36
211.098	-30.55
211.316	12.46
211.535	73.9
211.753	14.51
211.972	80.04
212.191	39.08
212.409	14.51
212.628	49.32
212.846	-12.12
213.065	-5.97
213.283	63.66
213.502	69.8
213.72	-8.02
213.938	-24.4
214.157	-10.07
214.375	59.56
214.594	80.04
214.812	82.09
215.031	30.89
215.249	2.22
215.467	0.17
215.686	-75.6
215.904	-24.4
216.122	-20.31
216.341	26.79
216.559	2.22
216.778	73.9
216.996	26.79
217.214	0.17
217.432	-81.75
217.651	-24.4
217.869	8.36
218.087	12.46
218.306	24.75
218.524	77.99
218.742	-10.07
218.96	84.14
219.179	-14.17
219.397	47.27
219.615	39.08
219.833	41.13
220.051	57.51
220.27	53.42
220.488	8.36
220.706	49.32
220.924	43.18
221.142	34.99
221.36	-14.17
221.578	32.94
221.796	8.36
222.015	88.23
222.233	-28.5
222.451	51.37
222.669	-10.07
222.887	65.71
223.105	30.89
223.323	-12.12
223.541	-36.69
223.759	32.94
223.977	39.08
224.195	28.84
224.413	30.89
224.631	61.61
224.849	63.66
225.067	-10.07
225.285	24.75
225.503	61.61
225.721	75.95
225.939	-65.36
226.157	-46.93
226.375	45.23
226.592	12.46
226.81	24.75
227.028	-10.07
227.246	71.85
227.464	14.51
227.682	41.13
227.9	-22.36
228.117	39.08
228.335	55.47
228.553	-26.45
228.771	75.95
228.989	92.33
229.206	41.13
229.424	18.6
229.642	-22.36
229.86	-3.93
230.077	14.51
230.295	73.9
230.513	88.23
230.731	16.55
230.948	63.66
231.166	-14.17
231.384	-38.74
231.601	71.85
231.819	28.84
232.037	41.13
232.254	-94.04
232.472	-10.07
232.689	32.94
232.907	16.55
233.125	67.75
233.342	0.17
233.56	90.28
233.777	41.13
233.995	53.42
234.213	24.75
234.43	-44.88
234.648	34.99
234.865	-24.4
235.083	39.08
235.3	10.41
235.518	57.51
235.735	22.7
235.953	32.94
236.17	-26.45
236.388	32.94
236.605	-3.93
236.822	24.75
237.04	59.56
237.257	55.47
237.475	8.36
237.692	-28.5
237.909	-8.02
238.127	-14.17
238.344	34.99
238.562	6.31
238.779	2.22
238.996	-40.79
239.214	22.7
239.431	55.47
239.648	-36.69
239.865	73.9
240.083	-1.88
240.3	-8.02
240.517	-44.88
240.735	39.08
240.952	49.32
241.169	24.75
241.386	8.36
241.603	59.56
241.821	75.95
242.038	43.18
242.255	0.17
242.472	47.27
242.689	106.67
242.907	6.31
243.124	71.85
243.341	28.84
243.558	39.08
243.775	104.62
243.992	-1.88
244.209	28.84
244.426	92.33
244.643	20.65
244.86	121
245.078	32.94
245.295	30.89
245.512	67.75
245.729	8.36
245.946	43.18
246.163	41.13
246.38	47.27
246.597	49.32
246.814	28.84
247.031	34.99
247.248	57.51
247.464	10.41
247.681	61.61
247.898	16.55
248.115	-51.03
248.332	10.41
248.549	80.04
248.766	63.66
248.983	0.17
249.2	-12.12
249.417	16.55
249.633	-34.64
249.85	80.04
250.067	-10.07
250.284	37.03
250.501	26.79
250.717	-16.21
250.934	26.79
251.151	129.19
251.368	20.65
251.585	-5.97
251.801	-38.74
252.018	-32.6
252.235	47.27
252.451	-34.64
252.668	10.41
252.885	39.08
253.102	6.31
253.318	-1.88
253.535	67.75
253.752	14.51
253.968	30.89
254.185	-14.17
254.401	39.08
254.618	8.36
254.835	65.71
255.051	67.75
255.268	22.7
255.484	2.22
255.701	39.08
255.917	10.41
256.134	26.79
256.351	2.22
256.567	43.18
256.784	-1.88
257	-3.93
257.217	-18.26
257.433	2.22
257.65	41.13
257.866	73.9
258.082	8.36
258.299	-12.12
258.515	112.81
258.732	-1.88
258.948	65.71
259.165	4.27
259.381	2.22
259.597	-40.79
259.814	6.31
260.03	8.36
260.246	10.41
260.463	53.42
260.679	43.18
260.895	47.27
261.112	10.41
261.328	65.71
261.544	-22.36
261.761	98.47
261.977	41.13
262.193	-89.94
262.409	-22.36
262.626	80.04
262.842	47.27
263.058	55.47
263.274	110.76
263.49	-18.26
263.707	55.47
263.923	37.03
264.139	32.94
264.355	10.41
264.571	65.71
264.787	82.09
265.004	6.31
265.22	55.47
265.436	59.56
265.652	51.37
265.868	-16.21
266.084	6.31
266.3	45.23
266.516	-8.02
266.732	-1.88
266.948	-1.88
267.164	-40.79
267.38	18.6
267.596	108.71
267.812	51.37
268.028	67.75
268.244	57.51
268.46	63.66
268.676	49.32
268.892	67.75
269.108	69.8
269.324	22.7
269.54	-53.08
269.756	90.28
269.972	-12.12
270.188	-5.97
270.403	4.27
270.619	22.7
270.835	77.99
271.051	51.37
271.267	61.61
271.483	-26.45
271.698	-3.93
271.914	47.27
272.13	-61.27
272.346	0.17
272.562	6.31
272.777	24.75
272.993	-48.98
273.209	-5.97
273.425	-18.26
273.64	10.41
273.856	24.75
274.072	-53.08
274.287	69.8
274.503	-14.17
274.719	-1.88
274.934	16.55
275.15	88.23
275.366	-10.07
275.581	12.46
275.797	-18.26
276.012	41.13
276.228	10.41
276.444	20.65
276.659	151.72
276.875	-26.45
277.09	92.33
277.306	82.09
277.521	-34.64
277.737	-8.02
277.952	104.62
278.168	30.89
278.383	65.71
278.599	96.43
278.814	67.75
279.03	18.6
279.245	55.47
279.461	69.8
279.676	34.99
279.892	0.17
280.107	51.37
280.322	-65.36
280.538	-26.45
280.753	41.13
280.969	32.94
281.184	-67.41
281.399	65.71
281.615	57.51
281.83	28.84
282.045	67.75
282.26	41.13
282.476	80.04
282.691	-20.31
282.906	24.75
283.122	80.04
283.337	24.75
283.552	34.99
283.767	61.61
283.983	-10.07
284.198	2.22
284.413	73.9
284.628	59.56
284.843	18.6
285.058	37.03
285.274	37.03
285.489	37.03
285.704	69.8
285.919	59.56
286.134	-51.03
286.349	12.46
286.564	55.47
286.779	137.38
286.995	14.51
287.21	-18.26
287.425	26.79
287.64	57.51
287.855	67.75
288.07	18.6
288.285	20.65
288.5	-77.65
288.715	20.65
288.93	-61.27
289.145	61.61
289.36	10.41
289.575	82.09
289.79	45.23
290.004	-20.31
290.219	32.94
290.434	-12.12
290.649	16.55
290.864	55.47
291.079	34.99
291.294	75.95
291.509	16.55
291.724	30.89
291.938	-42.84
292.153	34.99
292.368	32.94
292.583	-3.93
292.798	-20.31
293.012	51.37
293.227	-12.12
293.442	34.99
293.657	80.04
293.871	-10.07
294.086	6.31
294.301	106.67
294.516	30.89
294.73	28.84
294.945	28.84
295.16	-30.55
295.374	84.14
295.589	108.71
295.804	80.04
296.018	-32.6
296.233	82.09
296.447	18.6
296.662	14.51
296.877	43.18
297.091	41.13
297.306	39.08
297.52	53.42
297.735	24.75
297.949	-10.07
298.164	24.75
298.378	6.31
298.593	57.51
298.807	-20.31
299.022	84.14
299.236	53.42
299.451	6.31
299.665	45.23
299.88	6.31
300.094	-5.97
300.309	63.66
300.523	-24.4
300.737	86.19
300.952	41.13
301.166	67.75
301.381	24.75
301.595	32.94
301.809	-14.17
302.024	65.71
302.238	47.27
302.452	63.66
302.667	-26.45
302.881	51.37
303.095	-26.45
303.309	41.13
303.524	51.37
303.738	39.08
303.952	71.85
304.166	71.85
304.381	0.17
304.595	-16.21
304.809	-26.45
305.023	45.23
305.237	28.84
305.452	28.84
305.666	53.42
305.88	49.32
306.094	-26.45
306.308	41.13
306.522	69.8
306.736	-1.88
306.95	-12.12
307.164	24.75
307.379	4.27
307.593	43.18
307.807	4.27
308.021	32.94
308.235	71.85
308.449	57.51
308.663	59.56
308.877	57.51
309.091	41.13
309.305	26.79
309.519	-22.36
309.733	104.62
309.947	41.13
310.161	98.47
310.374	59.56
310.588	49.32
310.802	16.55
311.016	102.57
311.23	45.23
311.444	155.82
311.658	32.94
311.872	67.75
312.085	16.55
312.299	61.61
312.513	69.8
312.727	-20.31
312.941	55.47
313.154	4.27
313.368	22.7
313.582	45.23
313.796	63.66
314.009	30.89
314.223	112.81
314.437	57.51
314.651	47.27
314.864	-28.5
315.078	49.32
315.292	20.65
315.505	37.03
315.719	34.99
315.933	-8.02
316.146	8.36
316.36	6.31
316.573	-20.31
316.787	24.75
317.001	-8.02
317.214	139.43
317.428	116.9
317.641	67.75
317.855	43.18
318.068	47.27
318.282	-1.88
318.495	51.37
318.709	45.23
318.922	24.75
319.136	-10.07
319.349	-77.65
319.563	20.65
319.776	-34.64
319.99	55.47
320.203	-26.45
320.417	28.84
320.63	61.61
320.843	37.03
321.057	45.23
321.27	43.18
321.483	37.03
321.697	61.61
321.91	84.14
322.124	104.62
322.337	-16.21
322.55	71.85
322.763	24.75
322.977	-30.55
323.19	8.36
323.403	0.17
323.617	2.22
323.83	32.94
324.043	28.84
324.256	75.95
324.469	-12.12
324.683	22.7
324.896	75.95
325.109	37.03
325.322	-22.36
325.535	32.94
325.748	-26.45
325.962	-14.17
326.175	34.99
326.388	14.51
326.601	22.7
326.814	0.17
327.027	30.89
327.24	2.22
327.453	37.03
327.666	88.23
327.879	16.55
328.092	28.84
328.305	8.36
328.518	24.75
328.731	24.75
328.944	80.04
329.157	-14.17
329.37	41.13
329.583	108.71
329.796	34.99
330.009	67.75
330.222	114.86
330.435	24.75
330.648	14.51
330.861	-5.97
331.073	59.56
331.286	-10.07
331.499	53.42
331.712	67.75
331.925	80.04
332.138	2.22
332.35	34.99
332.563	32.94
332.776	75.95
332.989	47.27
333.202	110.76
333.414	30.89
333.627	-24.4
333.84	-30.55
334.053	59.56
334.265	32.94
334.478	18.6
334.691	71.85
334.903	92.33
335.116	47.27
335.329	59.56
335.541	10.41
335.754	75.95
335.966	37.03
336.179	14.51
336.392	26.79
336.604	102.57
336.817	45.23
337.029	94.38
337.242	-1.88
337.454	24.75
337.667	16.55
337.88	-5.97
338.092	61.61
338.305	18.6
338.517	2.22
338.729	28.84
338.942	55.47
339.154	8.36
339.367	26.79
339.579	73.9
339.792	108.71
340.004	-30.55
340.217	47.27
340.429	-34.64
340.641	4.27
340.854	59.56
341.066	-5.97
341.278	-28.5
341.491	26.79
341.703	41.13
341.915	10.41
342.128	6.31
342.34	-32.6
342.552	-5.97
342.764	-32.6
342.977	10.41
343.189	92.33
343.401	28.84
343.613	24.75
343.826	2.22
344.038	55.47
344.25	34.99
344.462	34.99
344.674	47.27
344.886	-14.17
345.099	12.46
345.311	41.13
345.523	49.32
345.735	-16.21
345.947	61.61
346.159	69.8
346.371	71.85
346.583	75.95
346.795	34.99
347.007	24.75
347.219	57.51
347.431	32.94
347.643	14.51
347.855	86.19
348.067	55.47
348.279	43.18
348.491	47.27
348.703	59.56
348.915	49.32
349.127	30.89
349.339	30.89
349.551	6.31
349.763	-67.41
349.975	-65.36
350.187	8.36
350.399	67.75
350.61	47.27
350.822	75.95
351.034	65.71
351.246	30.89
351.458	-16.21
351.669	22.7
351.881	0.17
352.093	37.03
352.305	2.22
352.517	53.42
352.728	100.52
352.94	26.79
353.152	61.61
353.363	22.7
353.575	-24.4
353.787	63.66
353.999	-10.07
354.21	12.46
354.422	10.41
354.633	61.61
354.845	84.14
355.057	47.27
355.268	102.57
355.48	90.28
355.692	-14.17
355.903	41.13
356.115	-30.55
356.326	100.52
356.538	108.71
356.749	61.61
356.961	65.71
357.172	77.99
357.384	55.47
357.595	14.51
357.807	55.47
358.018	16.55
358.23	65.71
358.441	30.89
358.653	32.94
358.864	14.51
359.075	98.47
359.287	47.27
359.498	10.41
359.709	14.51
359.921	39.08
360.132	10.41
360.344	80.04
360.555	26.79
360.766	20.65
360.977	18.6
361.189	106.67
361.4	6.31
361.611	77.99
361.823	37.03
362.034	14.51
362.245	-67.41
362.456	18.6
362.667	71.85
362.879	-3.93
363.09	30.89
363.301	-1.88
363.512	55.47
363.723	77.99
363.935	98.47
364.146	45.23
364.357	-14.17
364.568	-57.17
364.779	-18.26
364.99	45.23
365.201	39.08
365.412	55.47
365.623	-16.21
365.834	-46.93
366.045	-1.88
366.256	37.03
366.467	24.75
366.678	57.51
366.889	65.71
367.1	-24.4
367.311	108.71
367.522	73.9
367.733	-3.93
367.944	86.19
368.155	39.08
368.366	67.75
368.577	39.08
368.788	71.85
368.999	-32.6
369.209	14.51
369.42	2.22
369.631	-22.36
369.842	96.43
370.053	-22.36
370.264	55.47
370.474	121
370.685	39.08
370.896	84.14
371.107	37.03
371.317	20.65
371.528	0.17
371.739	39.08
371.95	0.17
372.16	98.47
372.371	28.84
372.582	-26.45
372.792	63.66
373.003	82.09
373.214	-3.93
373.424	0.17
373.635	14.51
373.846	61.61
374.056	16.55
374.267	104.62
374.477	20.65
374.688	22.7
374.898	26.79
375.109	28.84
375.319	24.75
375.53	84.14
375.74	-5.97
375.951	6.31
376.161	14.51
376.372	18.6
376.582	39.08
376.793	34.99
377.003	51.37
377.214	63.66
377.424	30.89
377.635	55.47
377.845	63.66
378.055	63.66
378.266	12.46
378.476	55.47
378.686	8.36
378.897	118.95
379.107	47.27
379.317	104.62
379.528	26.79
379.738	82.09
379.948	-20.31
380.158	80.04
380.369	39.08
380.579	75.95
380.789	71.85
380.999	116.9
381.21	26.79
381.42	90.28
381.63	30.89
381.84	16.55
382.05	73.9
382.261	30.89
382.471	75.95
382.681	18.6
382.891	65.71
383.101	53.42
383.311	57.51
383.521	-32.6
383.731	51.37
383.941	-5.97
384.151	20.65
384.361	2.22
384.571	98.47
384.781	6.31
384.991	135.34
385.201	34.99
385.411	55.47
385.621	30.89
385.831	80.04
386.041	100.52
386.251	8.36
386.461	92.33
386.671	51.37
386.881	55.47
387.091	-30.55
387.301	8.36
387.511	55.47
387.72	53.42
387.93	10.41
388.14	86.19
388.35	55.47
388.56	30.89
388.769	41.13
388.979	59.56
389.189	-18.26
389.399	86.19
389.609	55.47
389.818	63.66
390.028	73.9
390.238	0.17
390.447	61.61
390.657	71.85
390.867	-22.36
391.076	32.94
391.286	51.37
391.496	92.33
391.705	57.51
391.915	22.7
392.125	28.84
392.334	88.23
392.544	102.57
392.753	63.66
392.963	-1.88
393.172	57.51
393.382	10.41
393.591	100.52
393.801	-1.88
394.01	110.76
394.22	65.71
394.429	77.99
394.639	-24.4
394.848	100.52
395.058	94.38
395.267	88.23
395.477	55.47
395.686	94.38
395.895	-18.26
396.105	32.94
396.314	12.46
396.524	84.14
396.733	59.56
396.942	86.19
397.152	51.37
397.361	34.99
397.57	47.27
397.78	18.6
397.989	32.94
398.198	94.38
398.407	55.47
398.617	80.04
398.826	53.42
399.035	63.66
399.244	45.23
399.453	63.66
399.663	51.37
399.872	104.62
400.081	84.14
400.29	55.47
400.499	45.23
400.708	92.33
400.917	-75.6
401.127	82.09
401.336	63.66
401.545	184.49
401.754	-1.88
401.963	26.79
402.172	84.14
402.381	30.89
402.59	41.13
402.799	73.9
403.008	65.71
403.217	4.27
403.426	82.09
403.635	84.14
403.844	26.79
404.053	24.75
404.262	94.38
404.471	98.47
404.68	53.42
404.888	104.62
405.097	61.61
405.306	123.05
405.515	106.67
405.724	147.62
405.933	137.38
406.142	121
406.35	153.77
406.559	170.15
406.768	102.57
406.977	104.62
407.185	104.62
407.394	92.33
407.603	106.67
407.812	194.73
408.02	153.77
408.229	155.82
408.438	170.15
408.646	170.15
408.855	149.67
409.064	207.02
409.272	118.95
409.481	155.82
409.69	153.77
409.898	137.38
410.107	178.34
410.315	123.05
410.524	182.44
410.733	114.86
410.941	207.02
411.15	235.69
411.358	229.54
411.567	317.61
411.775	202.92
411.984	211.11
412.192	174.25
412.401	256.17
412.609	297.13
412.818	266.41
413.026	280.74
413.234	209.06
413.443	309.41
413.651	293.03
413.86	272.55
414.068	366.76
414.276	333.99
414.485	309.41
414.693	319.65
414.901	344.23
415.11	415.91
415.318	319.65
415.526	389.28
415.734	448.68
415.943	442.53
416.151	465.06
416.359	450.72
416.567	444.58
416.776	534.69
416.984	501.92
417.192	532.64
417.4	538.79
417.608	499.88
417.817	583.84
418.025	553.12
418.233	641.18
418.441	653.47
418.649	598.18
418.857	663.71
419.065	708.77
419.273	696.48
419.481	807.07
419.689	719.01
419.897	774.3
420.105	778.4
420.313	860.32
420.521	858.27
420.729	954.52
420.937	983.2
421.145	966.81
421.353	960.67
421.561	1042.59
421.769	1011.87
421.977	1046.68
422.185	1056.92
422.393	1065.11
422.601	1261.72
422.809	1226.9
423.017	1265.82
423.224	1284.25
423.432	1290.39
423.64	1439.89
423.848	1499.28
424.056	1433.75
424.263	1568.91
424.471	1562.77
424.679	1573.01
424.887	1718.42
425.094	1638.55
425.302	1683.6
425.51	1724.56
425.718	1765.52
425.925	1847.44
426.133	1917.07
426.341	2037.9
426.548	2095.24
426.756	2132.11
426.964	2144.39
427.171	2132.11
427.379	2394.25
427.586	2359.43
427.794	2429.06
428.001	2666.63
428.209	2726.02
428.417	2578.56
428.624	2738.3
428.832	2799.74
429.039	2748.54
429.247	2764.93
429.454	3008.64
429.662	3199.1
429.869	3164.28
430.076	3233.91
430.284	3061.88
430.491	3301.5
430.699	3467.38
430.906	3582.07
431.114	3565.68
431.321	3653.75
431.528	3907.7
431.736	3909.74
431.943	4040.81
432.15	4016.24
432.358	4079.72
432.565	4216.94
432.772	4204.65
432.979	4522.09
433.187	4552.81
433.394	4630.63
433.601	5091.42
433.808	4997.21
434.016	4923.49
434.223	5046.37
434.43	5570.65
434.637	5300.31
434.844	5697.62
435.052	5763.15
435.259	5673.04
435.466	5679.19
435.673	5507.16
435.88	6109.26
436.087	6342.73
436.294	6400.07
436.501	6381.64
436.708	6322.25
436.915	6766.66
437.122	7014.46
437.329	6645.83
437.537	7116.86
437.743	7284.8
437.95	7161.92
438.157	7755.83
438.364	7702.58
438.571	7665.72
438.778	7874.61
438.985	8620.07
439.192	8157.23
439.399	8618.02
439.606	8251.44
439.813	8800.29
440.02	9396.25
440.227	9248.8
440.433	8994.85
440.64	9234.46
440.847	9000.99
441.054	9316.38
441.261	10082.32
441.467	10127.38
441.674	10250.25
441.881	10682.38
442.088	10772.49
442.294	10532.87
442.501	10944.52
442.708	11016.19
442.914	11450.36
443.121	11950.07
443.328	11732.98
443.534	12466.16
443.741	12183.54
443.948	11921.4
444.154	12865.51
444.361	12947.43
444.568	12838.89
444.774	12773.35
444.981	13146.08
445.187	13428.7
445.394	13998.04
445.6	13774.81
445.807	15038.41
446.013	14542.8
446.22	14741.45
446.426	15525.82
446.633	15296.45
446.839	16181.17
447.046	15495.1
447.252	16238.51
447.459	16345.01
447.665	16261.04
447.871	17039.27
448.078	17745.82
448.284	16791.47
448.491	17303.46
448.697	18237.33
448.903	18444.18
449.11	18466.7
449.316	18032.54
449.522	18235.28
449.728	19068.81
449.935	19234.69
450.141	19292.04
450.347	19711.87
450.553	18814.86
450.76	19109.77
450.966	19707.77
451.172	19525.5
451.378	20215.67
451.584	19644.29
451.791	20469.62
451.997	20137.85
452.203	20524.91
452.409	20553.59
452.615	20350.84
452.821	19505.03
453.027	19343.24
453.233	20631.41
453.44	19675.01
453.646	19928.95
453.852	19933.05
454.058	20420.47
454.264	19738.49
454.47	20273.01
454.676	19783.55
454.882	20520.82
455.088	18503.57
455.294	18999.18
455.5	19201.93
455.705	19521.41
455.911	18845.58
456.117	18225.04
456.323	17803.16
456.529	17199.01
456.735	17956.76
456.941	17436.58
457.147	17149.86
457.352	16357.3
457.558	16445.36
457.764	16609.2
457.97	16086.97
458.176	15775.67
458.381	15787.96
458.587	14956.49
458.793	14972.87
458.999	14280.66
459.204	15032.26
459.41	14698.44
459.616	13785.05
459.821	13993.94
460.027	13541.34
460.233	13445.09
460.438	12804.07
460.644	12748.78
460.85	12402.67
461.055	12040.18
461.261	12222.45
461.466	11212.8
461.672	10821.64
461.878	11536.38
462.083	11061.25
462.289	10606.6
462.494	10555.4
462.7	10266.64
462.905	9865.24
463.111	10188.82
463.316	10110.99
463.522	9863.19
463.727	9959.44
463.932	10074.13
464.138	9975.83
464.343	9861.14
464.549	9596.95
464.754	10000.4
464.959	9973.78
465.165	9922.58
465.37	9506.84
465.575	9125.92
465.781	9476.12
465.986	9742.36
466.191	9375.77
466.397	9119.78
466.602	8910.88
466.807	8794.15
467.012	8957.99
467.218	8943.65
467.423	8992.8
467.628	8990.75
467.833	9287.71
468.038	8888.36
468.244	8656.93
468.449	8974.37
468.654	8736.81
