Data from USB4F104151__69__12-54-14-202.txt Node

Date: Fri Mar 14 12:54:14 EDT 2025
User: louis
Spectrometer: USB4F10415
Trigger mode: 4
Integration Time (sec): 1.000000E-2
Scans to average: 1
Electric dark correction enabled: true
Nonlinearity correction enabled: false
Boxcar width: 0
XAxis mode: Wavelengths
Number of Pixels in Spectrum: 3648
>>>>>Begin Spectral Data<<<<<
178.204	-54.1
178.424	-54.1
178.644	-54.1
178.864	-47.96
179.084	-7
179.304	17.58
179.524	5.29
179.744	-33.62
179.964	31.91
180.184	-17.24
180.404	-27.48
180.624	-2.9
180.844	-11.09
181.064	27.82
181.283	70.83
181.503	-56.15
181.723	-4.95
181.943	-76.63
182.163	1.19
182.383	15.53
182.602	29.87
182.822	48.3
183.042	17.58
183.262	7.34
183.482	3.24
183.701	-0.85
183.921	27.82
184.141	42.15
184.361	44.2
184.58	-9.05
184.8	5.29
185.02	-39.76
185.239	7.34
185.459	56.49
185.679	13.48
185.898	13.48
186.118	-4.95
186.338	-13.14
186.557	33.96
186.777	42.15
186.997	46.25
187.216	3.24
187.436	13.48
187.655	40.11
187.875	58.54
188.095	79.02
188.314	7.34
188.534	-41.81
188.753	-9.05
188.973	5.29
189.192	38.06
189.412	-2.9
189.631	44.2
189.851	87.21
190.07	-52.05
190.29	27.82
190.509	-19.29
190.729	56.49
190.948	46.25
191.168	25.77
191.387	97.45
191.607	21.67
191.826	79.02
192.045	-25.43
192.265	-21.33
192.484	3.24
192.704	50.35
192.923	1.19
193.142	15.53
193.362	44.2
193.581	9.39
193.8	-15.19
194.02	181.42
194.239	-62.29
194.458	132.26
194.678	-4.95
194.897	58.54
195.116	7.34
195.335	40.11
195.555	54.44
195.774	23.72
195.993	52.39
196.212	11.43
196.432	-37.72
196.651	31.91
196.87	15.53
197.089	58.54
197.308	60.59
197.528	40.11
197.747	19.63
197.966	42.15
198.185	50.35
198.404	3.24
198.623	-7
198.842	44.2
199.062	-17.24
199.281	52.39
199.5	5.29
199.719	-2.9
199.938	5.29
200.157	83.11
200.376	60.59
200.595	109.74
200.814	19.63
201.033	56.49
201.252	-27.48
201.471	68.78
201.69	64.68
201.909	76.97
202.128	46.25
202.347	124.07
202.566	52.39
202.785	-13.14
203.004	-23.38
203.223	17.58
203.442	13.48
203.661	44.2
203.879	5.29
204.098	46.25
204.317	3.24
204.536	85.16
204.755	19.63
204.974	23.72
205.193	-33.62
205.411	50.35
205.63	42.15
205.849	-25.43
206.068	-45.91
206.287	-50
206.505	-45.91
206.724	-11.09
206.943	-19.29
207.162	74.92
207.381	23.72
207.599	15.53
207.818	11.43
208.037	-33.62
208.255	52.39
208.474	42.15
208.693	21.67
208.911	72.87
209.13	87.21
209.349	-17.24
209.567	25.77
209.786	79.02
210.005	-15.19
210.223	25.77
210.442	-43.86
210.661	-23.38
210.879	-39.76
211.098	31.91
211.316	-0.85
211.535	44.2
211.753	31.91
211.972	-2.9
212.191	40.11
212.409	17.58
212.628	-0.85
212.846	58.54
213.065	-9.05
213.283	60.59
213.502	-25.43
213.72	19.63
213.938	-17.24
214.157	27.82
214.375	-37.72
214.594	66.73
214.812	72.87
215.031	-7
215.249	-19.29
215.467	62.63
215.686	50.35
215.904	83.11
216.122	-9.05
216.341	40.11
216.559	48.3
216.778	19.63
216.996	11.43
217.214	60.59
217.432	19.63
217.651	27.82
217.869	-2.9
218.087	31.91
218.306	-7
218.524	33.96
218.742	21.67
218.96	29.87
219.179	42.15
219.397	31.91
219.615	50.35
219.833	15.53
220.051	5.29
220.27	25.77
220.488	21.67
220.706	-0.85
220.924	-17.24
221.142	44.2
221.36	97.45
221.578	-35.67
221.796	-66.39
222.015	68.78
222.233	-23.38
222.451	-35.67
222.669	-56.15
222.887	42.15
223.105	-21.33
223.323	38.06
223.541	25.77
223.759	66.73
223.977	-2.9
224.195	19.63
224.413	17.58
224.631	56.49
224.849	-27.48
225.067	58.54
225.285	-13.14
225.503	93.35
225.721	9.39
225.939	-39.76
226.157	13.48
226.375	23.72
226.592	-4.95
226.81	7.34
227.028	107.69
227.246	15.53
227.464	36.01
227.682	46.25
227.9	36.01
228.117	48.3
228.335	-47.96
228.553	79.02
228.771	-19.29
228.989	7.34
229.206	-4.95
229.424	33.96
229.642	42.15
229.86	7.34
230.077	11.43
230.295	85.16
230.513	11.43
230.731	3.24
230.948	95.4
231.166	91.31
231.384	38.06
231.601	87.21
231.819	50.35
232.037	42.15
232.254	-33.62
232.472	-2.9
232.689	-39.76
232.907	68.78
233.125	25.77
233.342	-4.95
233.56	13.48
233.777	-9.05
233.995	21.67
234.213	50.35
234.43	13.48
234.648	5.29
234.865	54.44
235.083	54.44
235.3	-23.38
235.518	79.02
235.735	9.39
235.953	46.25
236.17	-43.86
236.388	52.39
236.605	85.16
236.822	103.59
237.04	56.49
237.257	52.39
237.475	13.48
237.692	52.39
237.909	17.58
238.127	29.87
238.344	60.59
238.562	27.82
238.779	33.96
238.996	42.15
239.214	29.87
239.431	33.96
239.648	64.68
239.865	-31.57
240.083	31.91
240.3	48.3
240.517	1.19
240.735	68.78
240.952	31.91
241.169	33.96
241.386	17.58
241.603	-11.09
241.821	-7
242.038	113.83
242.255	38.06
242.472	17.58
242.689	9.39
242.907	1.19
243.124	-13.14
243.341	13.48
243.558	48.3
243.775	29.87
243.992	36.01
244.209	62.63
244.426	-0.85
244.643	56.49
244.86	42.15
245.078	21.67
245.295	68.78
245.512	42.15
245.729	68.78
245.946	5.29
246.163	60.59
246.38	58.54
246.597	-0.85
246.814	-2.9
247.031	3.24
247.248	-31.57
247.464	27.82
247.681	33.96
247.898	50.35
248.115	31.91
248.332	54.44
248.549	52.39
248.766	87.21
248.983	124.07
249.2	122.02
249.417	-11.09
249.633	83.11
249.85	-39.76
250.067	44.2
250.284	23.72
250.501	1.19
250.717	-15.19
250.934	19.63
251.151	42.15
251.368	17.58
251.585	44.2
251.801	-19.29
252.018	23.72
252.235	-31.57
252.451	7.34
252.668	-45.91
252.885	21.67
253.102	93.35
253.318	-56.15
253.535	31.91
253.752	50.35
253.968	38.06
254.185	1.19
254.401	52.39
254.618	138.41
254.835	9.39
255.051	-4.95
255.268	89.26
255.484	-7
255.701	-7
255.917	27.82
256.134	91.31
256.351	17.58
256.567	-27.48
256.784	25.77
257	-21.33
257.217	48.3
257.433	50.35
257.65	60.59
257.866	87.21
258.082	5.29
258.299	-7
258.515	-17.24
258.732	7.34
258.948	74.92
259.165	-31.57
259.381	-4.95
259.597	25.77
259.814	44.2
260.03	-17.24
260.246	38.06
260.463	21.67
260.679	25.77
260.895	11.43
261.112	48.3
261.328	-9.05
261.544	64.68
261.761	44.2
261.977	60.59
262.193	33.96
262.409	31.91
262.626	15.53
262.842	-11.09
263.058	-11.09
263.274	-19.29
263.49	46.25
263.707	31.91
263.923	-23.38
264.139	42.15
264.355	21.67
264.571	36.01
264.787	23.72
265.004	1.19
265.22	25.77
265.436	74.92
265.652	58.54
265.868	83.11
266.084	-25.43
266.3	42.15
266.516	-4.95
266.732	19.63
266.948	81.07
267.164	66.73
267.38	25.77
267.596	21.67
267.812	62.63
268.028	101.55
268.244	27.82
268.46	38.06
268.676	46.25
268.892	9.39
269.108	19.63
269.324	9.39
269.54	-19.29
269.756	27.82
269.972	50.35
270.188	74.92
270.403	60.59
270.619	40.11
270.835	117.93
271.051	17.58
271.267	107.69
271.483	-37.72
271.698	-13.14
271.914	101.55
272.13	38.06
272.346	-0.85
272.562	64.68
272.777	66.73
272.993	33.96
273.209	85.16
273.425	87.21
273.64	23.72
273.856	42.15
274.072	52.39
274.287	23.72
274.503	66.73
274.719	31.91
274.934	1.19
275.15	74.92
275.366	36.01
275.581	-4.95
275.797	62.63
276.012	13.48
276.228	50.35
276.444	27.82
276.659	50.35
276.875	27.82
277.09	85.16
277.306	-7
277.521	60.59
277.737	13.48
277.952	50.35
278.168	91.31
278.383	-11.09
278.599	52.39
278.814	33.96
279.03	25.77
279.245	54.44
279.461	40.11
279.676	56.49
279.892	11.43
280.107	21.67
280.322	64.68
280.538	93.35
280.753	-35.67
280.969	33.96
281.184	-4.95
281.399	17.58
281.615	-13.14
281.83	50.35
282.045	25.77
282.26	21.67
282.476	33.96
282.691	29.87
282.906	74.92
283.122	44.2
283.337	27.82
283.552	-7
283.767	36.01
283.983	85.16
284.198	-11.09
284.413	60.59
284.628	85.16
284.843	31.91
285.058	42.15
285.274	56.49
285.489	21.67
285.704	83.11
285.919	-31.57
286.134	105.64
286.349	1.19
286.564	13.48
286.779	-0.85
286.995	31.91
287.21	-27.48
287.425	54.44
287.64	99.5
287.855	17.58
288.07	-4.95
288.285	50.35
288.5	72.87
288.715	33.96
288.93	-27.48
289.145	31.91
289.36	19.63
289.575	1.19
289.79	83.11
290.004	15.53
290.219	-23.38
290.434	-7
290.649	7.34
290.864	46.25
291.079	-33.62
291.294	74.92
291.509	17.58
291.724	66.73
291.938	-4.95
292.153	50.35
292.368	15.53
292.583	29.87
292.798	60.59
293.012	5.29
293.227	23.72
293.442	44.2
293.657	25.77
293.871	89.26
294.086	36.01
294.301	38.06
294.516	17.58
294.73	54.44
294.945	36.01
295.16	33.96
295.374	-11.09
295.589	9.39
295.804	36.01
296.018	27.82
296.233	-25.43
296.447	46.25
296.662	70.83
296.877	17.58
297.091	36.01
297.306	-21.33
297.52	19.63
297.735	103.59
297.949	42.15
298.164	66.73
298.378	42.15
298.593	93.35
298.807	23.72
299.022	-9.05
299.236	29.87
299.451	7.34
299.665	48.3
299.88	23.72
300.094	21.67
300.309	-17.24
300.523	-7
300.737	52.39
300.952	50.35
301.166	38.06
301.381	-7
301.595	44.2
301.809	-21.33
302.024	58.54
302.238	17.58
302.452	15.53
302.667	-33.62
302.881	74.92
303.095	70.83
303.309	-39.76
303.524	17.58
303.738	48.3
303.952	13.48
304.166	5.29
304.381	48.3
304.595	19.63
304.809	-17.24
305.023	44.2
305.237	-43.86
305.452	99.5
305.666	52.39
305.88	58.54
306.094	-54.1
306.308	79.02
306.522	11.43
306.736	-21.33
306.95	48.3
307.164	91.31
307.379	38.06
307.593	19.63
307.807	29.87
308.021	-23.38
308.235	81.07
308.449	-41.81
308.663	21.67
308.877	54.44
309.091	-50
309.305	29.87
309.519	-21.33
309.733	13.48
309.947	13.48
310.161	40.11
310.374	62.63
310.588	11.43
310.802	44.2
311.016	115.88
311.23	99.5
311.444	68.78
311.658	36.01
311.872	-15.19
312.085	70.83
312.299	83.11
312.513	-41.81
312.727	15.53
312.941	-11.09
313.154	5.29
313.368	-4.95
313.582	58.54
313.796	-23.38
314.009	48.3
314.223	33.96
314.437	91.31
314.651	31.91
314.864	33.96
315.078	-19.29
315.292	48.3
315.505	54.44
315.719	25.77
315.933	-4.95
316.146	44.2
316.36	36.01
316.573	42.15
316.787	9.39
317.001	-4.95
317.214	158.89
317.428	50.35
317.641	50.35
317.855	21.67
318.068	-37.72
318.282	29.87
318.495	-33.62
318.709	48.3
318.922	38.06
319.136	124.07
319.349	-0.85
319.563	117.93
319.776	23.72
319.99	-0.85
320.203	7.34
320.417	25.77
320.63	3.24
320.843	107.69
321.057	-56.15
321.27	95.4
321.483	11.43
321.697	66.73
321.91	60.59
322.124	27.82
322.337	38.06
322.55	25.77
322.763	72.87
322.977	-39.76
323.19	19.63
323.403	3.24
323.617	60.59
323.83	93.35
324.043	15.53
324.256	-23.38
324.469	70.83
324.683	13.48
324.896	-2.9
325.109	25.77
325.322	-0.85
325.535	91.31
325.748	52.39
325.962	83.11
326.175	5.29
326.388	83.11
326.601	-11.09
326.814	54.44
327.027	-23.38
327.24	5.29
327.453	17.58
327.666	23.72
327.879	58.54
328.092	36.01
328.305	72.87
328.518	-13.14
328.731	62.63
328.944	17.58
329.157	38.06
329.37	66.73
329.583	99.5
329.796	11.43
330.009	54.44
330.222	36.01
330.435	81.07
330.648	13.48
330.861	-9.05
331.073	46.25
331.286	27.82
331.499	9.39
331.712	23.72
331.925	44.2
332.138	21.67
332.35	72.87
332.563	50.35
332.776	-2.9
332.989	15.53
333.202	44.2
333.414	31.91
333.627	-15.19
333.84	95.4
334.053	33.96
334.265	3.24
334.478	29.87
334.691	40.11
334.903	-39.76
335.116	97.45
335.329	101.55
335.541	-27.48
335.754	95.4
335.966	52.39
336.179	13.48
336.392	-9.05
336.604	15.53
336.817	21.67
337.029	181.42
337.242	33.96
337.454	44.2
337.667	31.91
337.88	66.73
338.092	72.87
338.305	44.2
338.517	36.01
338.729	-2.9
338.942	54.44
339.154	130.22
339.367	29.87
339.579	70.83
339.792	-29.52
340.004	31.91
340.217	5.29
340.429	40.11
340.641	95.4
340.854	81.07
341.066	-21.33
341.278	52.39
341.491	17.58
341.703	50.35
341.915	122.02
342.128	27.82
342.34	-4.95
342.552	27.82
342.764	-29.52
342.977	66.73
343.189	38.06
343.401	56.49
343.613	-29.52
343.826	-21.33
344.038	40.11
344.25	76.97
344.462	33.96
344.674	17.58
344.886	33.96
345.099	-31.57
345.311	40.11
345.523	29.87
345.735	-31.57
345.947	56.49
346.159	44.2
346.371	62.63
346.583	7.34
346.795	70.83
347.007	33.96
347.219	99.5
347.431	29.87
347.643	107.69
347.855	36.01
348.067	11.43
348.279	3.24
348.491	46.25
348.703	83.11
348.915	29.87
349.127	38.06
349.339	44.2
349.551	-9.05
349.763	-43.86
349.975	36.01
350.187	70.83
350.399	144.55
350.61	79.02
350.822	33.96
351.034	60.59
351.246	11.43
351.458	17.58
351.669	58.54
351.881	-2.9
352.093	83.11
352.305	62.63
352.517	85.16
352.728	17.58
352.94	13.48
353.152	27.82
353.363	3.24
353.575	56.49
353.787	50.35
353.999	58.54
354.21	76.97
354.422	70.83
354.633	3.24
354.845	70.83
355.057	-2.9
355.268	52.39
355.48	-2.9
355.692	9.39
355.903	9.39
356.115	29.87
356.326	1.19
356.538	64.68
356.749	42.15
356.961	36.01
357.172	113.83
357.384	89.26
357.595	-7
357.807	13.48
358.018	-2.9
358.23	68.78
358.441	81.07
358.653	83.11
358.864	58.54
359.075	5.29
359.287	9.39
359.498	-21.33
359.709	58.54
359.921	117.93
360.132	50.35
360.344	58.54
360.555	9.39
360.766	44.2
360.977	5.29
361.189	64.68
361.4	54.44
361.611	5.29
361.823	52.39
362.034	87.21
362.245	40.11
362.456	52.39
362.667	56.49
362.879	68.78
363.09	19.63
363.301	52.39
363.512	-17.24
363.723	-7
363.935	33.96
364.146	97.45
364.357	31.91
364.568	66.73
364.779	31.91
364.99	50.35
365.201	40.11
365.412	72.87
365.623	91.31
365.834	99.5
366.045	-60.24
366.256	58.54
366.467	33.96
366.678	132.26
366.889	38.06
367.1	17.58
367.311	5.29
367.522	97.45
367.733	40.11
367.944	76.97
368.155	-0.85
368.366	-13.14
368.577	79.02
368.788	74.92
368.999	-27.48
369.209	70.83
369.42	74.92
369.631	50.35
369.842	60.59
370.053	70.83
370.264	5.29
370.474	79.02
370.685	36.01
370.896	11.43
371.107	19.63
371.317	48.3
371.528	76.97
371.739	15.53
371.95	42.15
372.16	52.39
372.371	-21.33
372.582	23.72
372.792	25.77
373.003	66.73
373.214	13.48
373.424	46.25
373.635	-4.95
373.846	58.54
374.056	85.16
374.267	5.29
374.477	48.3
374.688	19.63
374.898	-21.33
375.109	17.58
375.319	19.63
375.53	70.83
375.74	23.72
375.951	25.77
376.161	17.58
376.372	48.3
376.582	76.97
376.793	9.39
377.003	-43.86
377.214	58.54
377.424	-7
377.635	50.35
377.845	21.67
378.055	42.15
378.266	17.58
378.476	58.54
378.686	66.73
378.897	58.54
379.107	50.35
379.317	-25.43
379.528	101.55
379.738	36.01
379.948	93.35
380.158	21.67
380.369	99.5
380.579	58.54
380.789	42.15
380.999	21.67
381.21	72.87
381.42	50.35
381.63	-21.33
381.84	13.48
382.05	25.77
382.261	23.72
382.471	50.35
382.681	46.25
382.891	62.63
383.101	52.39
383.311	89.26
383.521	50.35
383.731	58.54
383.941	42.15
384.151	76.97
384.361	36.01
384.571	50.35
384.781	23.72
384.991	-25.43
385.201	50.35
385.411	103.59
385.621	52.39
385.831	44.2
386.041	48.3
386.251	5.29
386.461	17.58
386.671	29.87
386.881	64.68
387.091	33.96
387.301	3.24
387.511	97.45
387.72	68.78
387.93	54.44
388.14	40.11
388.35	58.54
388.56	50.35
388.769	11.43
388.979	48.3
389.189	97.45
389.399	81.07
389.609	91.31
389.818	60.59
390.028	54.44
390.238	58.54
390.447	29.87
390.657	44.2
390.867	-0.85
391.076	36.01
391.286	60.59
391.496	58.54
391.705	25.77
391.915	87.21
392.125	56.49
392.334	70.83
392.544	54.44
392.753	70.83
392.963	68.78
393.172	101.55
393.382	36.01
393.591	48.3
393.801	15.53
394.01	74.92
394.22	44.2
394.429	111.78
394.639	-27.48
394.848	62.63
395.058	44.2
395.267	81.07
395.477	-15.19
395.686	128.17
395.895	50.35
396.105	95.4
396.314	17.58
396.524	130.22
396.733	42.15
396.942	91.31
397.152	52.39
397.361	93.35
397.57	36.01
397.78	68.78
397.989	156.84
398.198	87.21
398.407	140.46
398.617	44.2
398.826	11.43
399.035	58.54
399.244	52.39
399.453	89.26
399.663	64.68
399.872	72.87
400.081	58.54
400.29	25.77
400.499	36.01
400.708	87.21
400.917	148.65
401.127	87.21
401.336	33.96
401.545	46.25
401.754	76.97
401.963	25.77
402.172	74.92
402.381	107.69
402.59	79.02
402.799	140.46
403.008	107.69
403.217	111.78
403.426	31.91
403.635	165.03
403.844	109.74
404.053	144.55
404.262	126.12
404.471	60.59
404.68	122.02
404.888	42.15
405.097	74.92
405.306	74.92
405.515	99.5
405.724	158.89
405.933	128.17
406.142	115.88
406.35	109.74
406.559	111.78
406.768	119.98
406.977	70.83
407.185	76.97
407.394	93.35
407.603	93.35
407.812	122.02
408.02	165.03
408.229	95.4
408.438	76.97
408.646	93.35
408.855	167.08
409.064	158.89
409.272	214.18
409.481	105.64
409.69	101.55
409.898	117.93
410.107	79.02
410.315	167.08
410.524	244.9
410.733	224.42
410.941	101.55
411.15	173.22
411.358	216.23
411.567	169.13
411.775	242.85
411.984	228.52
412.192	187.56
412.401	275.62
412.609	345.25
412.818	263.33
413.026	246.95
413.234	267.43
413.443	236.71
413.651	287.91
413.86	287.91
414.068	330.92
414.276	402.6
414.485	320.68
414.693	343.21
414.901	412.84
415.11	289.96
415.318	343.21
415.526	359.59
415.734	396.45
415.943	371.88
416.151	388.26
416.359	386.21
416.567	335.01
416.776	439.46
416.984	572.58
417.192	500.9
417.4	582.82
417.608	515.23
417.817	572.58
418.025	591.01
418.233	572.58
418.441	502.95
418.649	533.67
418.857	591.01
419.065	660.64
419.273	648.35
419.481	619.68
419.689	648.35
419.897	720.03
420.105	730.27
420.313	752.8
420.521	867.49
420.729	775.33
420.937	885.92
421.145	916.64
421.353	867.49
421.561	980.12
421.769	1019.04
421.977	986.27
422.185	1051.8
422.393	1158.3
422.601	1121.43
422.809	1010.84
423.017	1205.4
423.224	1100.95
423.432	1201.3
423.64	1258.65
423.848	1414.29
424.056	1324.18
424.263	1467.54
424.471	1434.77
424.679	1447.06
424.887	1395.86
425.094	1451.16
425.302	1569.94
425.51	1623.19
425.718	1631.38
425.925	1647.76
426.133	1660.05
426.341	1801.36
426.548	1987.72
426.756	1836.17
426.964	1928.33
427.171	2057.36
427.379	2075.79
427.586	2157.71
427.794	2278.54
428.001	2299.02
428.209	2456.71
428.417	2378.89
428.624	2579.59
428.832	2512
429.039	2595.97
429.247	2411.65
429.454	2706.56
429.662	2817.15
429.869	2835.58
430.076	3019.9
430.284	2798.72
430.491	2942.08
430.699	3132.54
430.906	3150.97
431.114	3007.61
431.321	3306.62
431.528	3421.3
431.736	3628.15
431.943	3902.58
432.15	3718.26
432.358	3660.91
432.565	3851.38
432.772	3970.16
432.979	4174.95
433.187	4308.07
433.394	4109.42
433.601	4635.75
433.808	4377.7
434.016	4537.45
434.223	4600.93
434.43	4949.09
434.637	4953.18
434.844	5252.19
435.052	5207.13
435.259	5174.36
435.466	5323.87
435.673	5260.38
435.88	5592.15
436.087	5717.08
436.294	5960.78
436.501	5842
436.708	5964.88
436.915	6095.95
437.122	6196.3
437.329	6284.36
437.537	6503.5
437.743	6630.47
437.95	6663.24
438.157	6931.52
438.364	7253.05
438.571	7144.51
438.778	7240.76
438.985	7808.05
439.192	7482.42
439.399	7820.34
439.606	7758.9
439.813	7822.39
440.02	8543.27
440.227	8313.9
440.433	8293.42
440.64	8653.86
440.847	8346.67
441.054	8686.63
441.261	9442.33
441.467	9270.3
441.674	9538.59
441.881	9772.05
442.088	9765.91
442.294	9714.71
442.501	9915.41
442.708	10120.21
442.914	10501.13
443.121	10918.92
443.328	10605.58
443.534	11508.73
443.741	11027.46
443.948	10949.64
444.154	11607.03
444.361	11600.89
444.568	11742.2
444.774	11650.04
444.981	11942.9
445.187	12522.48
445.394	12575.72
445.6	12545
445.807	13751.26
446.013	13138.91
446.22	13388.77
446.426	14048.21
446.633	14160.85
446.839	14515.15
447.046	13919.19
447.252	14818.25
447.459	14674.89
447.665	14988.23
447.871	15537.09
448.078	15969.21
448.284	15504.32
448.491	15590.33
448.697	16434.1
448.903	16743.34
449.11	16765.87
449.316	16425.9
449.522	16726.96
449.728	17038.25
449.935	17302.43
450.141	17251.24
450.347	17486.75
450.553	17259.43
450.76	17083.3
450.966	18090.9
451.172	17890.2
451.378	18355.09
451.584	17925.02
451.791	18113.43
451.997	18232.21
452.203	18604.94
452.409	18549.65
452.615	18328.47
452.821	17769.37
453.027	17755.04
453.233	18572.18
453.44	17984.41
453.646	18082.71
453.852	18219.92
454.058	18092.95
454.264	17785.76
454.47	18387.86
454.676	18000.79
454.882	18695.05
455.088	17120.17
455.294	17052.58
455.5	17517.47
455.705	17777.56
455.911	17071.01
456.117	16538.54
456.323	16366.51
456.529	15750.07
456.735	16206.77
456.941	15885.24
457.147	15545.28
457.352	15184.83
457.558	15010.76
457.764	14902.22
457.97	14566.35
458.176	14330.83
458.381	14605.26
458.587	13790.17
458.793	13755.35
458.999	13065.19
459.204	13874.13
459.41	13564.89
459.616	12747.75
459.821	12831.72
460.027	12714.98
460.233	12356.59
460.438	11879.41
460.644	12082.16
460.85	11357.18
461.055	11379.71
461.261	11308.03
461.466	10519.56
461.672	10206.22
461.878	10933.25
462.083	10214.41
462.289	9935.89
462.494	9821.2
462.7	9452.57
462.905	9180.19
463.111	9526.3
463.316	9454.62
463.522	9499.67
463.727	9421.85
463.932	9425.95
464.138	9434.14
464.343	9356.32
464.549	9059.36
464.754	9419.8
464.959	9270.3
465.165	9534.49
465.37	8860.71
465.575	8584.23
465.781	8965.15
465.986	9124.9
466.191	8774.69
466.397	8670.25
466.602	8096.82
466.807	8475.69
467.012	8522.79
467.218	8526.89
467.423	8455.21
467.628	8395.82
467.833	8662.05
468.038	8338.48
468.244	8451.11
468.449	8692.77
468.654	8356.91
468.859	8256.56
469.064	8178.73
469.269	7851.06
469.474	7806
469.679	8035.38
469.885	7851.06
