Data from USB4F104151__37__12-53-44-355.txt Node

Date: Fri Mar 14 12:53:44 EDT 2025
User: louis
Spectrometer: USB4F10415
Trigger mode: 4
Integration Time (sec): 1.000000E-2
Scans to average: 1
Electric dark correction enabled: true
Nonlinearity correction enabled: false
Boxcar width: 0
XAxis mode: Wavelengths
Number of Pixels in Spectrum: 3648
>>>>>Begin Spectral Data<<<<<
178.204	-24.23
178.424	-24.23
178.644	-24.23
178.864	-44.71
179.084	-44.71
179.304	-26.28
179.524	6.49
179.744	12.63
179.964	76.12
180.184	29.01
180.404	8.53
180.624	8.53
180.844	-7.85
181.064	-79.53
181.283	53.59
181.503	-59.05
181.723	-22.19
181.943	18.77
182.163	53.59
182.383	47.44
182.602	16.73
182.822	22.87
183.042	12.63
183.262	6.49
183.482	22.87
183.701	45.4
183.921	10.58
184.141	-13.99
184.361	26.96
184.58	-36.52
184.8	63.83
185.02	-44.71
185.239	37.2
185.459	-7.85
185.679	18.77
185.898	26.96
186.118	12.63
186.338	61.78
186.557	-38.57
186.777	26.96
186.997	45.4
187.216	47.44
187.436	69.97
187.655	22.87
187.875	-22.19
188.095	65.88
188.314	39.25
188.534	67.92
188.753	-16.04
188.973	31.06
189.192	94.55
189.412	35.16
189.631	14.68
189.851	80.21
190.07	57.68
190.29	37.2
190.509	10.58
190.729	4.44
190.948	82.26
191.168	102.74
191.387	72.02
191.607	67.92
191.826	45.4
192.045	-44.71
192.265	35.16
192.484	-46.76
192.704	-5.8
192.923	22.87
193.142	6.49
193.362	0.34
193.581	53.59
193.8	35.16
194.02	-81.58
194.239	47.44
194.458	0.34
194.678	-26.28
194.897	-65.19
195.116	59.73
195.335	74.07
195.555	29.01
195.774	2.39
195.993	65.88
196.212	24.92
196.432	16.73
196.651	67.92
196.87	-28.33
197.089	47.44
197.308	41.3
197.528	-28.33
197.747	6.49
197.966	14.68
198.185	20.82
198.404	0.34
198.623	2.39
198.842	8.53
199.062	86.36
199.281	-20.14
199.5	49.49
199.719	55.64
199.938	67.92
200.157	26.96
200.376	0.34
200.595	94.55
200.814	45.4
201.033	41.3
201.252	39.25
201.471	53.59
201.69	80.21
201.909	14.68
202.128	80.21
202.347	-22.19
202.566	-11.95
202.785	-32.43
203.004	0.34
203.223	96.6
203.442	-57
203.661	86.36
203.879	16.73
204.098	31.06
204.317	69.97
204.536	12.63
204.755	-7.85
204.974	35.16
205.193	-73.39
205.411	20.82
205.63	26.96
205.849	45.4
206.068	-24.23
206.287	31.06
206.505	12.63
206.724	2.39
206.943	-65.19
207.162	16.73
207.381	96.6
207.599	-34.47
207.818	-3.75
208.037	29.01
208.255	-22.19
208.474	12.63
208.693	6.49
208.911	76.12
209.13	-5.8
209.349	-11.95
209.567	-44.71
209.786	-11.95
210.005	18.77
210.223	47.44
210.442	8.53
210.661	29.01
210.879	4.44
211.098	41.3
211.316	-11.95
211.535	10.58
211.753	24.92
211.972	49.49
212.191	106.84
212.409	41.3
212.628	41.3
212.846	61.78
213.065	-46.76
213.283	78.16
213.502	26.96
213.72	-34.47
213.938	24.92
214.157	41.3
214.375	-13.99
214.594	4.44
214.812	76.12
215.031	12.63
215.249	55.64
215.467	72.02
215.686	72.02
215.904	51.54
216.122	29.01
216.341	20.82
216.559	24.92
216.778	20.82
216.996	-7.85
217.214	12.63
217.432	55.64
217.651	29.01
217.869	41.3
218.087	37.2
218.306	49.49
218.524	26.96
218.742	20.82
218.96	-3.75
219.179	-16.04
219.397	67.92
219.615	-26.28
219.833	-3.75
220.051	-18.09
220.27	-44.71
220.488	59.73
220.706	106.84
220.924	-9.9
221.142	53.59
221.36	55.64
221.578	-9.9
221.796	29.01
222.015	33.11
222.233	2.39
222.451	80.21
222.669	-26.28
222.887	-26.28
223.105	39.25
223.323	8.53
223.541	84.31
223.759	14.68
223.977	-22.19
224.195	35.16
224.413	29.01
224.631	35.16
224.849	119.12
225.067	22.87
225.285	22.87
225.503	59.73
225.721	20.82
225.939	16.73
226.157	45.4
226.375	59.73
226.592	6.49
226.81	29.01
227.028	-54.95
227.246	35.16
227.464	72.02
227.682	-7.85
227.9	-36.52
228.117	55.64
228.335	24.92
228.553	6.49
228.771	67.92
228.989	2.39
229.206	80.21
229.424	110.93
229.642	33.11
229.86	10.58
230.077	33.11
230.295	57.68
230.513	31.06
230.731	2.39
230.948	0.34
231.166	65.88
231.384	55.64
231.601	-38.57
231.819	-7.85
232.037	10.58
232.254	67.92
232.472	26.96
232.689	8.53
232.907	0.34
233.125	49.49
233.342	-1.71
233.56	4.44
233.777	63.83
233.995	43.35
234.213	37.2
234.43	2.39
234.648	45.4
234.865	35.16
235.083	-11.95
235.3	29.01
235.518	90.45
235.735	96.6
235.953	37.2
236.17	41.3
236.388	4.44
236.605	33.11
236.822	6.49
237.04	-28.33
237.257	51.54
237.475	8.53
237.692	10.58
237.909	53.59
238.127	2.39
238.344	4.44
238.562	18.77
238.779	2.39
238.996	0.34
239.214	39.25
239.431	47.44
239.648	-3.75
239.865	-24.23
240.083	-1.71
240.3	63.83
240.517	-7.85
240.735	178.51
240.952	24.92
241.169	-40.62
241.386	92.5
241.603	-42.67
241.821	16.73
242.038	6.49
242.255	-3.75
242.472	31.06
242.689	33.11
242.907	47.44
243.124	-30.38
243.341	84.31
243.558	12.63
243.775	18.77
243.992	12.63
244.209	-1.71
244.426	53.59
244.643	-20.14
244.86	80.21
245.078	67.92
245.295	69.97
245.512	76.12
245.729	8.53
245.946	0.34
246.163	-7.85
246.38	39.25
246.597	-11.95
246.814	51.54
247.031	20.82
247.248	72.02
247.464	18.77
247.681	119.12
247.898	14.68
248.115	-32.43
248.332	-20.14
248.549	-1.71
248.766	45.4
248.983	43.35
249.2	18.77
249.417	39.25
249.633	69.97
249.85	45.4
250.067	53.59
250.284	53.59
250.501	18.77
250.717	53.59
250.934	-9.9
251.151	29.01
251.368	76.12
251.585	51.54
251.801	-7.85
252.018	-9.9
252.235	51.54
252.451	26.96
252.668	29.01
252.885	104.79
253.102	-30.38
253.318	41.3
253.535	41.3
253.752	-22.19
253.968	-11.95
254.185	-16.04
254.401	-11.95
254.618	14.68
254.835	12.63
255.051	84.31
255.268	-16.04
255.484	51.54
255.701	-9.9
255.917	59.73
256.134	37.2
256.351	4.44
256.567	49.49
256.784	0.34
257	-11.95
257.217	61.78
257.433	6.49
257.65	37.2
257.866	6.49
258.082	-5.8
258.299	-48.81
258.515	51.54
258.732	8.53
258.948	18.77
259.165	84.31
259.381	24.92
259.597	67.92
259.814	69.97
260.03	53.59
260.246	-1.71
260.463	29.01
260.679	41.3
260.895	-20.14
261.112	41.3
261.328	108.88
261.544	24.92
261.761	55.64
261.977	74.07
262.193	41.3
262.409	20.82
262.626	-13.99
262.842	63.83
263.058	-63.15
263.274	39.25
263.49	24.92
263.707	-1.71
263.923	37.2
264.139	-22.19
264.355	26.96
264.571	39.25
264.787	55.64
265.004	18.77
265.22	12.63
265.436	4.44
265.652	78.16
265.868	-3.75
266.084	37.2
266.3	-13.99
266.516	74.07
266.732	110.93
266.948	-40.62
267.164	59.73
267.38	14.68
267.596	59.73
267.812	-9.9
268.028	51.54
268.244	39.25
268.46	-30.38
268.676	-34.47
268.892	-1.71
269.108	39.25
269.324	39.25
269.54	4.44
269.756	-7.85
269.972	-11.95
270.188	24.92
270.403	47.44
270.619	59.73
270.835	59.73
271.051	31.06
271.267	26.96
271.483	45.4
271.698	57.68
271.914	31.06
272.13	65.88
272.346	67.92
272.562	61.78
272.777	4.44
272.993	26.96
273.209	49.49
273.425	84.31
273.64	22.87
273.856	12.63
274.072	12.63
274.287	-7.85
274.503	33.11
274.719	4.44
274.934	-11.95
275.15	-22.19
275.366	43.35
275.581	41.3
275.797	67.92
276.012	4.44
276.228	-9.9
276.444	39.25
276.659	37.2
276.875	12.63
277.09	57.68
277.306	55.64
277.521	41.3
277.737	31.06
277.952	22.87
278.168	26.96
278.383	-13.99
278.599	14.68
278.814	51.54
279.03	-7.85
279.245	26.96
279.461	59.73
279.676	10.58
279.892	37.2
280.107	20.82
280.322	24.92
280.538	14.68
280.753	35.16
280.969	45.4
281.184	45.4
281.399	69.97
281.615	45.4
281.83	78.16
282.045	12.63
282.26	106.84
282.476	39.25
282.691	94.55
282.906	0.34
283.122	18.77
283.337	-65.19
283.552	72.02
283.767	4.44
283.983	76.12
284.198	18.77
284.413	39.25
284.628	22.87
284.843	26.96
285.058	43.35
285.274	45.4
285.489	78.16
285.704	-18.09
285.919	33.11
286.134	24.92
286.349	45.4
286.564	39.25
286.779	86.36
286.995	-1.71
287.21	-24.23
287.425	8.53
287.64	78.16
287.855	2.39
288.07	-30.38
288.285	-9.9
288.5	51.54
288.715	80.21
288.93	18.77
289.145	-24.23
289.36	26.96
289.575	49.49
289.79	6.49
290.004	20.82
290.219	106.84
290.434	-16.04
290.649	2.39
290.864	104.79
291.079	29.01
291.294	84.31
291.509	43.35
291.724	63.83
291.938	4.44
292.153	78.16
292.368	43.35
292.583	29.01
292.798	8.53
293.012	10.58
293.227	18.77
293.442	35.16
293.657	4.44
293.871	76.12
294.086	43.35
294.301	78.16
294.516	86.36
294.73	43.35
294.945	59.73
295.16	33.11
295.374	37.2
295.589	-5.8
295.804	14.68
296.018	24.92
296.233	43.35
296.447	10.58
296.662	43.35
296.877	10.58
297.091	-5.8
297.306	41.3
297.52	8.53
297.735	-13.99
297.949	20.82
298.164	51.54
298.378	-1.71
298.593	65.88
298.807	14.68
299.022	76.12
299.236	-18.09
299.451	35.16
299.665	76.12
299.88	2.39
300.094	-18.09
300.309	10.58
300.523	24.92
300.737	65.88
300.952	49.49
301.166	39.25
301.381	-18.09
301.595	123.22
301.809	39.25
302.024	35.16
302.238	16.73
302.452	49.49
302.667	-54.95
302.881	47.44
303.095	-1.71
303.309	-16.04
303.524	26.96
303.738	29.01
303.952	90.45
304.166	78.16
304.381	20.82
304.595	20.82
304.809	-54.95
305.023	-50.86
305.237	6.49
305.452	-18.09
305.666	-22.19
305.88	59.73
306.094	69.97
306.308	63.83
306.522	-22.19
306.736	22.87
306.95	22.87
307.164	45.4
307.379	33.11
307.593	10.58
307.807	-20.14
308.021	45.4
308.235	35.16
308.449	22.87
308.663	45.4
308.877	43.35
309.091	49.49
309.305	35.16
309.519	-7.85
309.733	67.92
309.947	51.54
310.161	49.49
310.374	78.16
310.588	16.73
310.802	-1.71
311.016	0.34
311.23	4.44
311.444	37.2
311.658	16.73
311.872	26.96
312.085	45.4
312.299	55.64
312.513	76.12
312.727	43.35
312.941	-69.29
313.154	43.35
313.368	-11.95
313.582	53.59
313.796	59.73
314.009	45.4
314.223	45.4
314.437	51.54
314.651	67.92
314.864	59.73
315.078	-18.09
315.292	53.59
315.505	8.53
315.719	90.45
315.933	12.63
316.146	18.77
316.36	-7.85
316.573	61.78
316.787	76.12
317.001	51.54
317.214	29.01
317.428	45.4
317.641	67.92
317.855	29.01
318.068	4.44
318.282	-38.57
318.495	14.68
318.709	10.58
318.922	47.44
319.136	-11.95
319.349	37.2
319.563	39.25
319.776	43.35
319.99	29.01
320.203	59.73
320.417	57.68
320.63	86.36
320.843	74.07
321.057	45.4
321.27	-13.99
321.483	57.68
321.697	37.2
321.91	53.59
322.124	59.73
322.337	80.21
322.55	98.64
322.763	12.63
322.977	-1.71
323.19	4.44
323.403	39.25
323.617	51.54
323.83	53.59
324.043	39.25
324.256	41.3
324.469	18.77
324.683	51.54
324.896	26.96
325.109	-18.09
325.322	57.68
325.535	61.78
325.748	12.63
325.962	55.64
326.175	22.87
326.388	65.88
326.601	51.54
326.814	-24.23
327.027	-42.67
327.24	174.42
327.453	67.92
327.666	41.3
327.879	65.88
328.092	63.83
328.305	43.35
328.518	72.02
328.731	6.49
328.944	131.41
329.157	2.39
329.37	61.78
329.583	49.49
329.796	137.56
330.009	-1.71
330.222	-5.8
330.435	0.34
330.648	-44.71
330.861	20.82
331.073	84.31
331.286	90.45
331.499	41.3
331.712	18.77
331.925	53.59
332.138	31.06
332.35	6.49
332.563	-20.14
332.776	45.4
332.989	-63.15
333.202	51.54
333.414	2.39
333.627	82.26
333.84	31.06
334.053	-69.29
334.265	76.12
334.478	41.3
334.691	53.59
334.903	47.44
335.116	92.5
335.329	-1.71
335.541	164.18
335.754	43.35
335.966	18.77
336.179	129.36
336.392	84.31
336.604	16.73
336.817	22.87
337.029	-1.71
337.242	57.68
337.454	45.4
337.667	29.01
337.88	24.92
338.092	-1.71
338.305	35.16
338.517	-42.67
338.729	69.97
338.942	12.63
339.154	2.39
339.367	-11.95
339.579	108.88
339.792	-5.8
340.004	10.58
340.217	45.4
340.429	18.77
340.641	2.39
340.854	18.77
341.066	24.92
341.278	72.02
341.491	47.44
341.703	47.44
341.915	-52.91
342.128	-5.8
342.34	-28.33
342.552	84.31
342.764	10.58
342.977	-18.09
343.189	16.73
343.401	51.54
343.613	16.73
343.826	74.07
344.038	18.77
344.25	0.34
344.462	51.54
344.674	0.34
344.886	41.3
345.099	72.02
345.311	-5.8
345.523	22.87
345.735	39.25
345.947	100.69
346.159	41.3
346.371	78.16
346.583	26.96
346.795	57.68
347.007	2.39
347.219	53.59
347.431	123.22
347.643	47.44
347.855	8.53
348.067	63.83
348.279	-5.8
348.491	29.01
348.703	37.2
348.915	35.16
349.127	51.54
349.339	14.68
349.551	104.79
349.763	33.11
349.975	22.87
350.187	-32.43
350.399	43.35
350.61	-5.8
350.822	67.92
351.034	35.16
351.246	4.44
351.458	49.49
351.669	59.73
351.881	53.59
352.093	47.44
352.305	78.16
352.517	59.73
352.728	-42.67
352.94	57.68
353.152	43.35
353.363	-7.85
353.575	100.69
353.787	86.36
353.999	76.12
354.21	45.4
354.422	61.78
354.633	-3.75
354.845	41.3
355.057	39.25
355.268	0.34
355.48	-16.04
355.692	8.53
355.903	39.25
356.115	49.49
356.326	10.58
356.538	-3.75
356.749	24.92
356.961	55.64
357.172	18.77
357.384	57.68
357.595	86.36
357.807	80.21
358.018	29.01
358.23	119.12
358.441	35.16
358.653	41.3
358.864	63.83
359.075	69.97
359.287	39.25
359.498	100.69
359.709	53.59
359.921	12.63
360.132	39.25
360.344	78.16
360.555	45.4
360.766	86.36
360.977	-11.95
361.189	47.44
361.4	35.16
361.611	104.79
361.823	78.16
362.034	59.73
362.245	6.49
362.456	88.4
362.667	47.44
362.879	108.88
363.09	16.73
363.301	129.36
363.512	37.2
363.723	37.2
363.935	78.16
364.146	65.88
364.357	139.6
364.568	45.4
364.779	-22.19
364.99	69.97
365.201	43.35
365.412	119.12
365.623	29.01
365.834	-48.81
366.045	-7.85
366.256	-30.38
366.467	51.54
366.678	49.49
366.889	8.53
367.1	43.35
367.311	33.11
367.522	-11.95
367.733	57.68
367.944	72.02
368.155	45.4
368.366	37.2
368.577	76.12
368.788	102.74
368.999	37.2
369.209	43.35
369.42	55.64
369.631	127.32
369.842	2.39
370.053	29.01
370.264	33.11
370.474	69.97
370.685	61.78
370.896	2.39
371.107	80.21
371.317	47.44
371.528	94.55
371.739	26.96
371.95	33.11
372.16	43.35
372.371	108.88
372.582	26.96
372.792	2.39
373.003	53.59
373.214	53.59
373.424	100.69
373.635	65.88
373.846	29.01
374.056	8.53
374.267	98.64
374.477	29.01
374.688	65.88
374.898	80.21
375.109	82.26
375.319	121.17
375.53	67.92
375.74	115.03
375.951	86.36
376.161	14.68
376.372	74.07
376.582	-1.71
376.793	-32.43
377.003	16.73
377.214	6.49
377.424	22.87
377.635	51.54
377.845	43.35
378.055	182.61
378.266	-18.09
378.476	18.77
378.686	24.92
378.897	18.77
379.107	59.73
379.317	33.11
379.528	108.88
379.738	94.55
379.948	-24.23
380.158	26.96
380.369	-9.9
380.579	106.84
380.789	-1.71
380.999	61.78
381.21	55.64
381.42	63.83
381.63	67.92
381.84	26.96
382.05	88.4
382.261	84.31
382.471	82.26
382.681	31.06
382.891	92.5
383.101	18.77
383.311	104.79
383.521	-9.9
383.731	115.03
383.941	59.73
384.151	43.35
384.361	20.82
384.571	94.55
384.781	45.4
384.991	61.78
385.201	33.11
385.411	39.25
385.621	29.01
385.831	59.73
386.041	18.77
386.251	-1.71
386.461	59.73
386.671	24.92
386.881	24.92
387.091	37.2
387.301	39.25
387.511	-3.75
387.72	37.2
387.93	26.96
388.14	94.55
388.35	86.36
388.56	80.21
388.769	53.59
388.979	76.12
389.189	18.77
389.399	33.11
389.609	88.4
389.818	-1.71
390.028	41.3
390.238	110.93
390.447	86.36
390.657	78.16
390.867	6.49
391.076	16.73
391.286	39.25
391.496	-7.85
391.705	16.73
391.915	94.55
392.125	121.17
392.334	80.21
392.544	84.31
392.753	104.79
392.963	49.49
393.172	86.36
393.382	8.53
393.591	37.2
393.801	8.53
394.01	39.25
394.22	67.92
394.429	33.11
394.639	-1.71
394.848	43.35
395.058	115.03
395.267	-30.38
395.477	94.55
395.686	57.68
395.895	108.88
396.105	43.35
396.314	100.69
396.524	26.96
396.733	37.2
396.942	67.92
397.152	59.73
397.361	108.88
397.57	125.27
397.78	31.06
397.989	26.96
398.198	133.46
398.407	96.6
398.617	76.12
398.826	51.54
399.035	133.46
399.244	51.54
399.453	67.92
399.663	61.78
399.872	63.83
400.081	41.3
400.29	37.2
400.499	35.16
400.708	108.88
400.917	31.06
401.127	92.5
401.336	39.25
401.545	135.51
401.754	49.49
401.963	18.77
402.172	112.98
402.381	92.5
402.59	49.49
402.799	100.69
403.008	92.5
403.217	76.12
403.426	86.36
403.635	90.45
403.844	78.16
404.053	22.87
404.262	72.02
404.471	106.84
404.68	63.83
404.888	43.35
405.097	57.68
405.306	63.83
405.515	102.74
405.724	20.82
405.933	141.65
406.142	155.99
406.35	139.6
406.559	63.83
406.768	51.54
406.977	106.84
407.185	110.93
407.394	174.42
407.603	88.4
407.812	137.56
408.02	61.78
408.229	104.79
408.438	143.7
408.646	170.32
408.855	211.28
409.064	141.65
409.272	215.38
409.481	133.46
409.69	102.74
409.898	164.18
410.107	149.84
410.315	184.66
410.524	168.27
410.733	201.04
410.941	196.95
411.15	178.51
411.358	264.53
411.567	168.27
411.775	203.09
411.984	192.85
412.192	160.08
412.401	309.58
412.609	272.72
412.818	268.63
413.026	282.96
413.234	260.43
413.443	217.43
413.651	262.48
413.86	297.3
414.068	289.1
414.276	246.1
414.485	438.61
414.693	356.69
414.901	315.73
415.11	483.66
415.318	342.35
415.526	354.64
415.734	405.84
415.943	463.18
416.151	487.76
416.359	420.17
416.567	428.37
416.776	387.41
416.984	543.05
417.192	584.01
417.4	534.86
417.608	489.81
417.817	526.67
418.025	627.02
418.233	610.64
418.441	569.68
418.649	622.92
418.857	551.24
419.065	684.36
419.273	678.22
419.481	684.36
419.689	827.72
419.897	878.92
420.105	829.77
420.313	817.48
420.521	782.67
420.729	815.43
420.937	860.49
421.145	862.54
421.353	913.74
421.561	942.41
421.769	952.65
421.977	1077.57
422.185	1091.91
422.393	1063.24
422.601	1118.53
422.809	1182.02
423.017	1249.6
423.224	1313.09
423.432	1218.88
423.64	1253.7
423.848	1388.86
424.056	1378.62
424.263	1501.5
424.471	1548.61
424.679	1431.87
424.887	1665.34
425.094	1491.26
425.302	1706.3
425.51	1642.81
425.718	1718.59
425.925	1734.97
426.133	1773.88
426.341	1933.62
426.548	1947.96
426.756	2007.35
426.964	2009.4
427.171	2142.52
427.379	2169.14
427.586	2203.96
427.794	2269.49
428.001	2382.13
428.209	2498.86
428.417	2548.01
428.624	2636.08
428.832	2558.25
429.039	2687.28
429.247	2593.07
429.454	2930.98
429.662	3121.45
429.869	2943.27
430.076	3123.49
430.284	2900.27
430.491	3127.59
430.699	3381.54
430.906	3266.85
431.114	3309.86
431.321	3545.38
431.528	3494.18
431.736	3662.11
431.943	3899.67
432.15	3823.9
432.358	3862.81
432.565	4067.61
432.772	4043.03
432.979	4155.67
433.187	4292.88
433.394	4303.12
433.601	4620.56
433.808	4630.8
434.016	4667.66
434.223	4763.92
434.43	4999.43
434.637	4958.47
434.844	5327.11
435.052	5497.09
435.259	5318.92
435.466	5468.42
435.673	5562.62
435.88	5773.57
436.087	5972.22
436.294	6105.34
436.501	5802.24
436.708	6070.52
436.915	6222.07
437.122	6629.62
437.329	6539.51
437.537	6881.52
437.743	6934.76
437.95	6801.65
438.157	7225.58
438.364	7432.42
438.571	7264.49
438.778	7366.88
438.985	8018.14
439.192	7612.64
439.399	8155.35
439.606	7796.96
439.813	8333.53
440.02	8777.94
440.227	8673.49
440.433	8589.52
440.64	8734.93
440.847	8915.15
441.054	9029.84
441.261	9750.72
441.467	9433.29
441.674	9945.28
441.881	9971.9
442.088	10283.19
442.294	10076.35
442.501	10334.39
442.708	10508.47
442.914	10903.73
443.121	11319.46
443.328	11118.76
443.534	11665.57
443.741	11413.67
443.948	11327.66
444.154	12413.08
444.361	12075.17
444.568	12157.08
444.774	12181.66
444.981	12257.43
445.187	12853.39
445.394	13324.43
445.6	12998.8
445.807	14278.78
446.013	13975.68
446.22	14051.45
446.426	14508.15
446.633	14858.35
446.839	15282.28
447.046	14649.46
447.252	15427.69
447.459	15315.05
447.665	15356.01
447.871	15911.01
448.078	16640.09
448.284	15898.72
448.491	16470.11
448.697	17023.06
448.903	17051.73
449.11	17281.1
449.316	17037.39
449.522	17352.78
449.728	17817.67
449.935	17897.54
450.141	18024.51
450.347	18597.95
450.553	17975.36
450.76	18083.91
450.966	18673.72
451.172	18483.26
451.378	19392.56
451.584	18645.05
451.791	19075.12
451.997	19202.1
452.203	19146.8
452.409	19445.8
452.615	19206.19
452.821	18604.09
453.027	18360.38
453.233	19396.65
453.44	18634.81
453.646	18729.02
453.852	19105.84
454.058	19181.62
454.264	18778.17
454.47	18806.84
454.676	18614.33
454.882	19132.47
455.088	17606.73
455.294	17754.18
455.5	18333.76
455.705	18157.63
455.911	17631.3
456.117	17084.5
456.323	16859.22
456.529	15911.01
456.735	16777.3
456.941	16396.38
457.147	16099.42
457.352	15659.11
457.558	15374.44
457.764	15382.63
457.97	14913.65
458.176	14522.49
458.381	14772.34
458.587	14153.85
458.793	14098.56
458.999	13553.8
459.204	14151.81
459.41	14059.65
459.616	12980.37
459.821	13230.22
460.027	12992.66
460.233	12671.12
460.438	12249.24
460.644	12157.08
460.85	11653.28
461.055	11505.83
461.261	11274.41
461.466	10502.33
461.672	10322.1
461.878	11057.32
462.083	10348.73
462.289	10193.08
462.494	10193.08
462.7	9537.73
462.905	9453.77
463.111	9547.97
463.316	9613.51
463.522	9515.2
463.727	9416.9
463.932	9396.42
464.138	9468.1
464.343	9334.98
464.549	9056.46
464.754	9480.39
464.959	9152.71
465.165	9447.62
465.37	8831.18
465.575	8741.07
465.781	9269.45
465.986	9238.73
466.191	8786.13
466.397	8718.54
466.602	8265.94
466.807	8544.47
467.012	8523.99
467.218	8638.67
467.423	8472.79
467.628	8319.19
467.833	8825.04
468.038	8349.91
468.244	8300.76
468.449	8599.76
468.654	8341.72
468.859	8212.7
469.064	8270.04
469.269	8126.68
469.474	8042.71
469.679	7891.16
