Data from USB4F104151__100__12-54-59-767.txt Node

Date: Fri Mar 14 12:54:59 EDT 2025
User: louis
Spectrometer: USB4F10415
Trigger mode: 4
Integration Time (sec): 1.000000E-2
Scans to average: 1
Electric dark correction enabled: true
Nonlinearity correction enabled: false
Boxcar width: 0
XAxis mode: Wavelengths
Number of Pixels in Spectrum: 3648
>>>>>Begin Spectral Data<<<<<
178.204	-78.33
178.424	-78.33
178.644	-78.33
178.864	-31.23
179.084	-41.47
179.304	-4.61
179.524	-35.33
179.744	17.92
179.964	44.54
180.184	-18.94
180.404	-8.7
180.624	-43.52
180.844	83.45
181.064	-29.18
181.283	-8.7
181.503	-10.75
181.723	13.82
181.943	-8.7
182.163	13.82
182.383	15.87
182.602	-39.42
182.822	3.58
183.042	-37.38
183.262	-10.75
183.482	36.35
183.701	-20.99
183.921	28.16
184.141	-27.14
184.361	-6.66
184.58	-45.57
184.8	65.02
185.02	58.88
185.239	-27.14
185.459	15.87
185.679	-27.14
185.898	-47.62
186.118	-0.51
186.338	3.58
186.557	24.06
186.777	-6.66
186.997	48.64
187.216	-2.56
187.436	-18.94
187.655	-49.66
187.875	-29.18
188.095	-29.18
188.314	71.17
188.534	32.26
188.753	9.73
188.973	-10.75
189.192	13.82
189.412	42.5
189.631	83.45
189.851	-8.7
190.07	75.26
190.29	-33.28
190.509	1.54
190.729	-2.56
190.948	-0.51
191.168	-0.51
191.387	9.73
191.607	28.16
191.826	-4.61
192.045	77.31
192.265	46.59
192.484	24.06
192.704	-33.28
192.923	-76.29
193.142	9.73
193.362	7.68
193.581	87.55
193.8	58.88
194.02	81.41
194.239	17.92
194.458	52.74
194.678	1.54
194.897	-31.23
195.116	24.06
195.335	-29.18
195.555	-29.18
195.774	-29.18
195.993	32.26
196.212	-55.81
196.432	-78.33
196.651	-6.66
196.87	44.54
197.089	-33.28
197.308	-16.9
197.528	1.54
197.747	-6.66
197.966	32.26
198.185	-20.99
198.404	-23.04
198.623	-20.99
198.842	5.63
199.062	-45.57
199.281	-27.14
199.5	-29.18
199.719	5.63
199.938	19.97
200.157	9.73
200.376	-16.9
200.595	30.21
200.814	5.63
201.033	-29.18
201.252	28.16
201.471	24.06
201.69	46.59
201.909	-6.66
202.128	-16.9
202.347	97.79
202.566	-8.7
202.785	52.74
203.004	-31.23
203.223	-29.18
203.442	24.06
203.661	42.5
203.879	-12.8
204.098	26.11
204.317	-4.61
204.536	32.26
204.755	-41.47
204.974	1.54
205.193	62.98
205.411	-8.7
205.63	69.12
205.849	-31.23
206.068	-2.56
206.287	-33.28
206.505	67.07
206.724	-66.05
206.943	-25.09
207.162	-20.99
207.381	-0.51
207.599	81.41
207.818	1.54
208.037	-10.75
208.255	-6.66
208.474	-29.18
208.693	-0.51
208.911	-20.99
209.13	-18.94
209.349	77.31
209.567	-12.8
209.786	-14.85
210.005	95.74
210.223	-33.28
210.442	-41.47
210.661	-10.75
210.879	-43.52
211.098	-18.94
211.316	-20.99
211.535	-82.43
211.753	50.69
211.972	15.87
212.191	13.82
212.409	-4.61
212.628	13.82
212.846	1.54
213.065	-12.8
213.283	-39.42
213.502	17.92
213.72	5.63
213.938	17.92
214.157	15.87
214.375	15.87
214.594	-12.8
214.812	-2.56
215.031	62.98
215.249	-18.94
215.467	-92.67
215.686	-8.7
215.904	-23.04
216.122	-27.14
216.341	-51.71
216.559	-41.47
216.778	28.16
216.996	-0.51
217.214	3.58
217.432	3.58
217.651	44.54
217.869	-47.62
218.087	-12.8
218.306	9.73
218.524	17.92
218.742	-51.71
218.96	52.74
219.179	36.35
219.397	11.78
219.615	-18.94
219.833	-61.95
220.051	30.21
220.27	-39.42
220.488	-18.94
220.706	54.78
220.924	5.63
221.142	34.3
221.36	15.87
221.578	19.97
221.796	-33.28
222.015	-10.75
222.233	-18.94
222.451	-10.75
222.669	-14.85
222.887	-8.7
223.105	-10.75
223.323	-6.66
223.541	7.68
223.759	30.21
223.977	15.87
224.195	-31.23
224.413	56.83
224.631	9.73
224.849	3.58
225.067	32.26
225.285	67.07
225.503	15.87
225.721	13.82
225.939	28.16
226.157	50.69
226.375	13.82
226.592	-4.61
226.81	-6.66
227.028	30.21
227.246	89.6
227.464	-59.9
227.682	-0.51
227.9	-6.66
228.117	17.92
228.335	-35.33
228.553	26.11
228.771	-16.9
228.989	17.92
229.206	-18.94
229.424	-33.28
229.642	26.11
229.86	26.11
230.077	-57.86
230.295	40.45
230.513	7.68
230.731	13.82
230.948	48.64
231.166	60.93
231.384	44.54
231.601	-31.23
231.819	1.54
232.037	15.87
232.254	-16.9
232.472	-0.51
232.689	-59.9
232.907	9.73
233.125	-39.42
233.342	-2.56
233.56	28.16
233.777	42.5
233.995	-0.51
234.213	42.5
234.43	1.54
234.648	24.06
234.865	-4.61
235.083	24.06
235.3	-64
235.518	28.16
235.735	54.78
235.953	58.88
236.17	15.87
236.388	3.58
236.605	-35.33
236.822	36.35
237.04	36.35
237.257	-35.33
237.475	-68.09
237.692	-8.7
237.909	-10.75
238.127	15.87
238.344	13.82
238.562	-25.09
238.779	-43.52
238.996	-31.23
239.214	-2.56
239.431	36.35
239.648	-31.23
239.865	32.26
240.083	13.82
240.3	32.26
240.517	75.26
240.735	-20.99
240.952	34.3
241.169	9.73
241.386	24.06
241.603	73.21
241.821	-20.99
242.038	48.64
242.255	-53.76
242.472	7.68
242.689	89.6
242.907	-35.33
243.124	1.54
243.341	3.58
243.558	38.4
243.775	116.22
243.992	-14.85
244.209	-6.66
244.426	-8.7
244.643	22.02
244.86	3.58
245.078	110.08
245.295	30.21
245.512	52.74
245.729	5.63
245.946	-23.04
246.163	-72.19
246.38	-2.56
246.597	24.06
246.814	69.12
247.031	54.78
247.248	-8.7
247.464	50.69
247.681	-4.61
247.898	36.35
248.115	13.82
248.332	-20.99
248.549	83.45
248.766	3.58
248.983	52.74
249.2	75.26
249.417	30.21
249.633	42.5
249.85	3.58
250.067	-61.95
250.284	3.58
250.501	-18.94
250.717	24.06
250.934	13.82
251.151	7.68
251.368	7.68
251.585	32.26
251.801	30.21
252.018	-61.95
252.235	28.16
252.451	40.45
252.668	-12.8
252.885	-2.56
253.102	13.82
253.318	17.92
253.535	-4.61
253.752	28.16
253.968	-25.09
254.185	19.97
254.401	-39.42
254.618	-59.9
254.835	26.11
255.051	50.69
255.268	-12.8
255.484	24.06
255.701	28.16
255.917	-35.33
256.134	-43.52
256.351	-12.8
256.567	-66.05
256.784	15.87
257	24.06
257.217	34.3
257.433	-14.85
257.65	19.97
257.866	36.35
258.082	-20.99
258.299	3.58
258.515	22.02
258.732	5.63
258.948	-6.66
259.165	1.54
259.381	24.06
259.597	22.02
259.814	-2.56
260.03	-0.51
260.246	15.87
260.463	-47.62
260.679	5.63
260.895	34.3
261.112	-35.33
261.328	17.92
261.544	-25.09
261.761	65.02
261.977	3.58
262.193	19.97
262.409	7.68
262.626	50.69
262.842	-37.38
263.058	-20.99
263.274	-18.94
263.49	38.4
263.707	-66.05
263.923	11.78
264.139	-55.81
264.355	44.54
264.571	36.35
264.787	-4.61
265.004	65.02
265.22	-12.8
265.436	9.73
265.652	42.5
265.868	7.68
266.084	65.02
266.3	54.78
266.516	-55.81
266.732	54.78
266.948	26.11
267.164	-4.61
267.38	19.97
267.596	73.21
267.812	50.69
268.028	-14.85
268.244	-47.62
268.46	-72.19
268.676	62.98
268.892	26.11
269.108	-35.33
269.324	-35.33
269.54	52.74
269.756	17.92
269.972	-49.66
270.188	-0.51
270.403	-8.7
270.619	-16.9
270.835	30.21
271.051	-47.62
271.267	-25.09
271.483	91.65
271.698	28.16
271.914	46.59
272.13	-18.94
272.346	-33.28
272.562	26.11
272.777	-53.76
272.993	-29.18
273.209	-20.99
273.425	-31.23
273.64	40.45
273.856	32.26
274.072	-39.42
274.287	-4.61
274.503	-2.56
274.719	24.06
274.934	-14.85
275.15	-37.38
275.366	-16.9
275.581	24.06
275.797	7.68
276.012	42.5
276.228	-74.24
276.444	32.26
276.659	26.11
276.875	-25.09
277.09	15.87
277.306	-12.8
277.521	-12.8
277.737	65.02
277.952	-6.66
278.168	9.73
278.383	-12.8
278.599	85.5
278.814	-8.7
279.03	-49.66
279.245	-33.28
279.461	69.12
279.676	19.97
279.892	38.4
280.107	3.58
280.322	1.54
280.538	36.35
280.753	-70.14
280.969	15.87
281.184	22.02
281.399	38.4
281.615	-18.94
281.83	-16.9
282.045	-8.7
282.26	32.26
282.476	-51.71
282.691	7.68
282.906	24.06
283.122	11.78
283.337	5.63
283.552	46.59
283.767	-8.7
283.983	46.59
284.198	22.02
284.413	32.26
284.628	-41.47
284.843	42.5
285.058	-43.52
285.274	-10.75
285.489	38.4
285.704	60.93
285.919	-8.7
286.134	54.78
286.349	7.68
286.564	22.02
286.779	26.11
286.995	-2.56
287.21	-8.7
287.425	28.16
287.64	-12.8
287.855	3.58
288.07	28.16
288.285	34.3
288.5	-10.75
288.715	-33.28
288.93	11.78
289.145	-45.57
289.36	9.73
289.575	-16.9
289.79	9.73
290.004	42.5
290.219	7.68
290.434	36.35
290.649	19.97
290.864	-43.52
291.079	-41.47
291.294	71.17
291.509	-35.33
291.724	26.11
291.938	5.63
292.153	-14.85
292.368	5.63
292.583	30.21
292.798	3.58
293.012	62.98
293.227	73.21
293.442	40.45
293.657	-10.75
293.871	9.73
294.086	30.21
294.301	-4.61
294.516	-2.56
294.73	-12.8
294.945	-8.7
295.16	7.68
295.374	7.68
295.589	-8.7
295.804	32.26
296.018	-64
296.233	-2.56
296.447	40.45
296.662	-90.62
296.877	32.26
297.091	36.35
297.306	-41.47
297.52	1.54
297.735	46.59
297.949	-29.18
298.164	-12.8
298.378	-41.47
298.593	-16.9
298.807	24.06
299.022	-68.09
299.236	-23.04
299.451	28.16
299.665	-43.52
299.88	38.4
300.094	-18.94
300.309	26.11
300.523	54.78
300.737	32.26
300.952	-45.57
301.166	44.54
301.381	-18.94
301.595	-0.51
301.809	36.35
302.024	11.78
302.238	-49.66
302.452	34.3
302.667	-10.75
302.881	28.16
303.095	7.68
303.309	71.17
303.524	-41.47
303.738	-25.09
303.952	-16.9
304.166	-64
304.381	-64
304.595	65.02
304.809	46.59
305.023	22.02
305.237	-16.9
305.452	-41.47
305.666	3.58
305.88	38.4
306.094	-41.47
306.308	3.58
306.522	44.54
306.736	40.45
306.95	-31.23
307.164	56.83
307.379	67.07
307.593	77.31
307.807	24.06
308.021	13.82
308.235	-43.52
308.449	-0.51
308.663	40.45
308.877	112.13
309.091	15.87
309.305	-0.51
309.519	71.17
309.733	-27.14
309.947	9.73
310.161	-12.8
310.374	3.58
310.588	44.54
310.802	22.02
311.016	26.11
311.23	17.92
311.444	-25.09
311.658	62.98
311.872	58.88
312.085	7.68
312.299	32.26
312.513	26.11
312.727	56.83
312.941	-70.14
313.154	58.88
313.368	-39.42
313.582	3.58
313.796	-27.14
314.009	44.54
314.223	22.02
314.437	3.58
314.651	15.87
314.864	-74.24
315.078	1.54
315.292	-16.9
315.505	9.73
315.719	-16.9
315.933	34.3
316.146	17.92
316.36	15.87
316.573	112.13
316.787	42.5
317.001	19.97
317.214	-0.51
317.428	42.5
317.641	-82.43
317.855	9.73
318.068	-66.05
318.282	-8.7
318.495	26.11
318.709	81.41
318.922	30.21
319.136	-45.57
319.349	71.17
319.563	-12.8
319.776	32.26
319.99	-64
320.203	19.97
320.417	-4.61
320.63	-4.61
320.843	60.93
321.057	-18.94
321.27	-27.14
321.483	5.63
321.697	50.69
321.91	3.58
322.124	-20.99
322.337	-14.85
322.55	-45.57
322.763	34.3
322.977	-72.19
323.19	-4.61
323.403	-6.66
323.617	54.78
323.83	-12.8
324.043	-61.95
324.256	17.92
324.469	17.92
324.683	-66.05
324.896	-43.52
325.109	-6.66
325.322	-88.57
325.535	32.26
325.748	-20.99
325.962	-0.51
326.175	-35.33
326.388	56.83
326.601	11.78
326.814	99.84
327.027	-47.62
327.24	56.83
327.453	44.54
327.666	-53.76
327.879	34.3
328.092	-2.56
328.305	9.73
328.518	-10.75
328.731	-18.94
328.944	-41.47
329.157	28.16
329.37	48.64
329.583	24.06
329.796	42.5
330.009	3.58
330.222	9.73
330.435	75.26
330.648	-14.85
330.861	71.17
331.073	38.4
331.286	56.83
331.499	30.21
331.712	15.87
331.925	87.55
332.138	54.78
332.35	24.06
332.563	-43.52
332.776	19.97
332.989	26.11
333.202	-16.9
333.414	22.02
333.627	54.78
333.84	-4.61
334.053	-0.51
334.265	24.06
334.478	24.06
334.691	9.73
334.903	-41.47
335.116	-20.99
335.329	3.58
335.541	-10.75
335.754	1.54
335.966	-0.51
336.179	65.02
336.392	17.92
336.604	-16.9
336.817	24.06
337.029	62.98
337.242	-49.66
337.454	-33.28
337.667	-0.51
337.88	-45.57
338.092	-41.47
338.305	26.11
338.517	-31.23
338.729	13.82
338.942	-4.61
339.154	36.35
339.367	9.73
339.579	17.92
339.792	3.58
340.004	15.87
340.217	15.87
340.429	-51.71
340.641	-20.99
340.854	-20.99
341.066	26.11
341.278	-6.66
341.491	50.69
341.703	-6.66
341.915	-25.09
342.128	7.68
342.34	-27.14
342.552	19.97
342.764	-33.28
342.977	-31.23
343.189	-10.75
343.401	65.02
343.613	-43.52
343.826	32.26
344.038	-0.51
344.25	11.78
344.462	7.68
344.674	7.68
344.886	36.35
345.099	13.82
345.311	22.02
345.523	50.69
345.735	-12.8
345.947	11.78
346.159	24.06
346.371	-10.75
346.583	-2.56
346.795	54.78
347.007	-29.18
347.219	34.3
347.431	-16.9
347.643	69.12
347.855	52.74
348.067	62.98
348.279	-18.94
348.491	9.73
348.703	13.82
348.915	30.21
349.127	19.97
349.339	7.68
349.551	-18.94
349.763	97.79
349.975	54.78
350.187	44.54
350.399	-10.75
350.61	22.02
350.822	38.4
351.034	-27.14
351.246	-8.7
351.458	40.45
351.669	-4.61
351.881	19.97
352.093	67.07
352.305	5.63
352.517	-18.94
352.728	24.06
352.94	-2.56
353.152	38.4
353.363	-37.38
353.575	30.21
353.787	34.3
353.999	-55.81
354.21	13.82
354.422	-41.47
354.633	-35.33
354.845	19.97
355.057	58.88
355.268	103.93
355.48	5.63
355.692	-35.33
355.903	-35.33
356.115	-113.15
356.326	-35.33
356.538	19.97
356.749	-12.8
356.961	81.41
357.172	36.35
357.384	-6.66
357.595	13.82
357.807	-4.61
358.018	-45.57
358.23	99.84
358.441	34.3
358.653	19.97
358.864	19.97
359.075	40.45
359.287	28.16
359.498	46.59
359.709	73.21
359.921	34.3
360.132	19.97
360.344	79.36
360.555	30.21
360.766	17.92
360.977	5.63
361.189	52.74
361.4	-6.66
361.611	87.55
361.823	7.68
362.034	-6.66
362.245	-25.09
362.456	5.63
362.667	5.63
362.879	7.68
363.09	-14.85
363.301	22.02
363.512	-23.04
363.723	24.06
363.935	32.26
364.146	-12.8
364.357	15.87
364.568	-29.18
364.779	34.3
364.99	32.26
365.201	-31.23
365.412	42.5
365.623	-127.49
365.834	36.35
366.045	24.06
366.256	58.88
366.467	54.78
366.678	-31.23
366.889	30.21
367.1	58.88
367.311	36.35
367.522	-29.18
367.733	40.45
367.944	-47.62
368.155	40.45
368.366	-55.81
368.577	-55.81
368.788	38.4
368.999	-47.62
369.209	19.97
369.42	34.3
369.631	-14.85
369.842	17.92
370.053	56.83
370.264	54.78
370.474	36.35
370.685	52.74
370.896	-4.61
371.107	-31.23
371.317	28.16
371.528	30.21
371.739	7.68
371.95	-74.24
372.16	40.45
372.371	24.06
372.582	-72.19
372.792	-84.48
373.003	9.73
373.214	-8.7
373.424	5.63
373.635	32.26
373.846	46.59
374.056	11.78
374.267	60.93
374.477	40.45
374.688	-12.8
374.898	108.03
375.109	-8.7
375.319	13.82
375.53	-14.85
375.74	-2.56
375.951	-10.75
376.161	9.73
376.372	65.02
376.582	42.5
376.793	38.4
377.003	-29.18
377.214	44.54
377.424	15.87
377.635	-14.85
377.845	67.07
378.055	22.02
378.266	32.26
378.476	99.84
378.686	13.82
378.897	-104.96
379.107	11.78
379.317	85.5
379.528	-20.99
379.738	13.82
379.948	34.3
380.158	26.11
380.369	85.5
380.579	114.17
380.789	-6.66
380.999	50.69
381.21	22.02
381.42	36.35
381.63	-8.7
381.84	48.64
382.05	28.16
382.261	5.63
382.471	-10.75
382.681	79.36
382.891	7.68
383.101	-25.09
383.311	-8.7
383.521	26.11
383.731	-64
383.941	9.73
384.151	15.87
384.361	46.59
384.571	11.78
384.781	-2.56
384.991	-0.51
385.201	85.5
385.411	17.92
385.621	26.11
385.831	-16.9
386.041	-8.7
386.251	1.54
386.461	40.45
386.671	-6.66
386.881	-43.52
387.091	17.92
387.301	73.21
387.511	-2.56
387.72	40.45
387.93	5.63
388.14	26.11
388.35	-16.9
388.56	9.73
388.769	34.3
388.979	-0.51
389.189	-8.7
389.399	28.16
389.609	-27.14
389.818	42.5
390.028	97.79
390.238	120.32
390.447	62.98
390.657	9.73
390.867	-31.23
391.076	9.73
391.286	-53.76
391.496	1.54
391.705	17.92
391.915	26.11
392.125	11.78
392.334	89.6
392.544	83.45
392.753	56.83
392.963	-0.51
393.172	65.02
393.382	-12.8
393.591	-12.8
393.801	46.59
394.01	17.92
394.22	-27.14
394.429	40.45
394.639	54.78
394.848	77.31
395.058	79.36
395.267	-0.51
395.477	11.78
395.686	48.64
395.895	32.26
396.105	30.21
396.314	19.97
396.524	52.74
396.733	-0.51
396.942	81.41
397.152	-14.85
397.361	26.11
397.57	-6.66
397.78	58.88
397.989	34.3
398.198	114.17
398.407	-33.28
398.617	58.88
398.826	40.45
399.035	46.59
399.244	5.63
399.453	128.51
399.663	112.13
399.872	9.73
400.081	36.35
400.29	28.16
400.499	54.78
400.708	30.21
400.917	22.02
401.127	28.16
401.336	15.87
401.545	34.3
401.754	19.97
401.963	65.02
402.172	-2.56
402.381	7.68
402.59	46.59
402.799	44.54
403.008	-20.99
403.217	-16.9
403.426	118.27
403.635	40.45
403.844	9.73
404.053	19.97
404.262	58.88
404.471	69.12
404.68	48.64
404.888	62.98
405.097	-0.51
405.306	65.02
405.515	32.26
405.724	50.69
405.933	3.58
406.142	67.07
406.35	5.63
406.559	36.35
406.768	34.3
406.977	89.6
407.185	89.6
407.394	101.89
407.603	69.12
407.812	112.13
408.02	132.61
408.229	26.11
408.438	79.36
408.646	67.07
408.855	99.84
409.064	75.26
409.272	54.78
409.481	105.98
409.69	65.02
409.898	157.18
410.107	75.26
410.315	142.85
410.524	73.21
410.733	85.5
410.941	122.37
411.15	124.41
411.358	122.37
411.567	114.17
411.775	198.14
411.984	163.33
412.192	105.98
412.401	93.69
412.609	187.9
412.818	105.98
413.026	134.65
413.234	128.51
413.443	140.8
413.651	132.61
413.86	185.85
414.068	130.56
414.276	155.13
414.485	165.37
414.693	204.28
414.901	163.33
415.11	148.99
415.318	196.09
415.526	198.14
415.734	255.48
415.943	288.25
416.151	302.59
416.359	235
416.567	347.64
416.776	337.4
416.984	269.82
417.192	306.68
417.4	247.29
417.608	282.11
417.817	323.07
418.025	327.16
418.233	308.73
418.441	261.63
418.649	425.47
418.857	433.66
419.065	425.47
419.273	376.31
419.481	456.19
419.689	441.85
419.897	454.14
420.105	474.62
420.313	468.47
420.521	462.33
420.729	515.58
420.937	552.44
421.145	568.82
421.353	523.77
421.561	636.41
421.769	679.41
421.977	611.83
422.185	679.41
422.393	730.61
422.601	753.14
422.809	632.31
423.017	761.33
423.224	753.14
423.432	681.46
423.64	734.71
423.848	828.92
424.056	765.43
424.263	902.64
424.471	886.26
424.679	945.65
424.887	933.36
425.094	914.93
425.302	988.66
425.51	1074.67
425.718	1089.01
425.925	1070.58
426.133	1115.63
426.341	1117.68
426.548	1269.23
426.756	1199.6
426.964	1269.23
427.171	1359.34
427.379	1369.58
427.586	1426.92
427.794	1474.03
428.001	1418.73
428.209	1547.75
428.417	1598.95
428.624	1629.67
428.832	1625.58
429.039	1557.99
429.247	1578.47
429.454	1785.32
429.662	1820.13
429.869	1826.28
430.076	1879.52
430.284	1852.9
430.491	1857
430.699	2020.83
430.906	2112.99
431.114	1977.83
431.321	2076.13
431.528	2110.94
431.736	2211.29
431.943	2436.57
432.15	2387.42
432.358	2266.59
432.565	2412
432.772	2432.47
432.979	2616.79
433.187	2655.7
433.394	2645.46
433.601	2827.73
433.808	2934.23
434.016	2926.04
434.223	2887.12
434.43	3216.85
434.637	2964.95
434.844	3356.11
435.052	3366.35
435.259	3333.58
435.466	3423.69
435.673	3329.49
435.88	3597.77
436.087	3665.35
436.294	3773.89
436.501	3638.73
436.708	3757.51
436.915	3925.44
437.122	4054.47
437.329	3894.72
437.537	4193.73
437.743	4285.89
437.95	4050.37
438.157	4269.5
438.364	4560.31
438.571	4545.98
438.778	4601.27
438.985	4976.05
439.192	4709.82
439.399	4900.28
439.606	4877.75
439.813	5135.79
440.02	5363.12
440.227	5275.06
440.433	5211.57
440.64	5520.81
440.847	5344.69
441.054	5676.46
441.261	5840.29
441.467	5891.49
441.674	6018.47
441.881	6249.89
442.088	6296.99
442.294	6188.45
442.501	6407.58
442.708	6458.78
442.914	6677.91
443.121	6946.2
443.328	6811.03
443.534	7171.47
443.741	7058.84
443.948	7083.41
444.154	7415.18
444.361	7316.88
444.568	7443.85
444.774	7320.98
444.981	7468.43
445.187	7695.75
445.394	8048.01
445.6	8015.24
445.807	8799.61
446.013	8355.2
446.22	8631.68
446.426	8768.89
446.633	9059.7
446.839	9293.17
447.046	8836.47
447.252	9592.17
447.459	9414
447.665	9446.77
447.871	9868.65
448.078	10360.16
448.284	9772.39
448.491	10106.21
448.697	10206.56
448.903	10448.22
449.11	10706.27
449.316	10380.64
449.522	10511.71
449.728	10964.31
449.935	11140.44
450.141	11148.63
450.347	11353.43
450.553	10833.24
450.76	11072.86
450.966	11447.63
451.172	11375.95
451.378	11523.41
451.584	11410.77
451.791	11746.64
451.997	11664.72
452.203	11803.98
452.409	12051.78
452.615	11875.66
452.821	11402.58
453.027	11173.21
453.233	11789.64
453.44	11361.62
453.646	11453.78
453.852	11621.71
454.058	11760.97
454.264	11445.59
454.47	11572.56
454.676	11345.23
454.882	11681.1
455.088	10642.78
455.294	10843.48
455.5	11058.52
455.705	11015.51
455.911	10665.31
456.117	10409.31
456.323	10325.35
456.529	9911.66
456.735	10331.49
456.941	10059.11
457.147	9839.98
457.352	9407.86
457.558	9407.86
457.764	9438.58
457.97	9225.59
458.176	9108.85
458.381	8861.05
458.587	8740.22
458.793	8502.65
458.999	8074.63
459.204	8887.67
459.41	8412.54
459.616	7961.99
459.821	7863.69
460.027	7972.23
460.233	7554.44
460.438	7509.39
460.644	7509.39
460.85	7087.51
461.055	7021.97
461.261	7081.36
461.466	6399.39
461.672	6296.99
461.878	6577.56
462.083	6258.08
462.289	6196.64
462.494	6041
462.7	5799.34
462.905	5520.81
463.111	6071.72
463.316	5903.78
463.522	5762.47
463.727	5813.67
463.932	5629.35
464.138	5729.7
464.343	5709.22
464.549	5627.31
464.754	5660.07
464.959	5514.67
465.165	5766.57
465.37	5500.33
465.575	5230
465.781	5447.08
465.986	5584.3
466.191	5520.81
466.397	5094.83
466.602	5014.96
466.807	5293.49
467.012	5164.47
467.218	5154.23
467.423	5094.83
467.628	5111.22
467.833	5373.36
468.038	5053.87
468.244	4875.7
468.449	5270.96
468.654	5045.68
468.859	5037.49
469.064	4955.57
469.269	4744.63
469.474	4861.37
469.679	4836.79
