Data from USB4F104151__47__12-53-54-794.txt Node

Date: Fri Mar 14 12:53:54 EDT 2025
User: louis
Spectrometer: USB4F10415
Trigger mode: 4
Integration Time (sec): 1.000000E-2
Scans to average: 1
Electric dark correction enabled: true
Nonlinearity correction enabled: false
Boxcar width: 0
XAxis mode: Wavelengths
Number of Pixels in Spectrum: 3648
>>>>>Begin Spectral Data<<<<<
178.204	-190.12
178.424	-190.12
178.644	-190.12
178.864	0.34
179.084	26.96
179.304	-32.43
179.524	18.77
179.744	0.34
179.964	-1.71
180.184	88.4
180.404	-38.57
180.624	6.49
180.844	24.92
181.064	-50.86
181.283	-52.91
181.503	-26.28
181.723	63.83
181.943	-48.81
182.163	74.07
182.383	4.44
182.602	43.35
182.822	-1.71
183.042	6.49
183.262	-40.62
183.482	-26.28
183.701	35.16
183.921	-5.8
184.141	16.73
184.361	-22.19
184.58	-20.14
184.8	29.01
185.02	-52.91
185.239	51.54
185.459	4.44
185.679	43.35
185.898	35.16
186.118	72.02
186.338	39.25
186.557	4.44
186.777	0.34
186.997	-48.81
187.216	-16.04
187.436	26.96
187.655	65.88
187.875	65.88
188.095	-22.19
188.314	74.07
188.534	12.63
188.753	37.2
188.973	29.01
189.192	80.21
189.412	-22.19
189.631	47.44
189.851	-28.33
190.07	51.54
190.29	-5.8
190.509	57.68
190.729	-30.38
190.948	-13.99
191.168	39.25
191.387	76.12
191.607	-1.71
191.826	20.82
192.045	-42.67
192.265	6.49
192.484	26.96
192.704	-26.28
192.923	-52.91
193.142	47.44
193.362	16.73
193.581	33.11
193.8	24.92
194.02	76.12
194.239	33.11
194.458	-11.95
194.678	22.87
194.897	-7.85
195.116	0.34
195.335	2.39
195.555	-26.28
195.774	-34.47
195.993	57.68
196.212	-18.09
196.432	6.49
196.651	43.35
196.87	-24.23
197.089	51.54
197.308	49.49
197.528	49.49
197.747	-106.15
197.966	16.73
198.185	41.3
198.404	18.77
198.623	14.68
198.842	-40.62
199.062	49.49
199.281	22.87
199.5	-32.43
199.719	16.73
199.938	74.07
200.157	14.68
200.376	-9.9
200.595	14.68
200.814	-22.19
201.033	-50.86
201.252	-3.75
201.471	8.53
201.69	24.92
201.909	-32.43
202.128	-38.57
202.347	0.34
202.566	45.4
202.785	-11.95
203.004	-32.43
203.223	14.68
203.442	37.2
203.661	8.53
203.879	-16.04
204.098	33.11
204.317	-5.8
204.536	29.01
204.755	-1.71
204.974	29.01
205.193	20.82
205.411	59.73
205.63	-5.8
205.849	20.82
206.068	22.87
206.287	-50.86
206.505	14.68
206.724	18.77
206.943	26.96
207.162	10.58
207.381	-1.71
207.599	-40.62
207.818	22.87
208.037	31.06
208.255	24.92
208.474	49.49
208.693	31.06
208.911	20.82
209.13	29.01
209.349	35.16
209.567	-7.85
209.786	63.83
210.005	49.49
210.223	-9.9
210.442	92.5
210.661	0.34
210.879	26.96
211.098	-73.39
211.316	51.54
211.535	67.92
211.753	22.87
211.972	-73.39
212.191	16.73
212.409	69.97
212.628	20.82
212.846	-24.23
213.065	45.4
213.283	33.11
213.502	4.44
213.72	-11.95
213.938	-20.14
214.157	14.68
214.375	24.92
214.594	51.54
214.812	12.63
215.031	47.44
215.249	4.44
215.467	26.96
215.686	-18.09
215.904	61.78
216.122	-36.52
216.341	33.11
216.559	41.3
216.778	84.31
216.996	59.73
217.214	69.97
217.432	6.49
217.651	-22.19
217.869	-28.33
218.087	41.3
218.306	18.77
218.524	10.58
218.742	22.87
218.96	-28.33
219.179	-22.19
219.397	92.5
219.615	-32.43
219.833	49.49
220.051	59.73
220.27	-3.75
220.488	14.68
220.706	-9.9
220.924	-24.23
221.142	20.82
221.36	20.82
221.578	65.88
221.796	29.01
222.015	22.87
222.233	4.44
222.451	-73.39
222.669	12.63
222.887	43.35
223.105	-5.8
223.323	-1.71
223.541	37.2
223.759	-36.52
223.977	-67.24
224.195	6.49
224.413	26.96
224.631	45.4
224.849	16.73
225.067	33.11
225.285	4.44
225.503	16.73
225.721	0.34
225.939	20.82
226.157	-5.8
226.375	63.83
226.592	-7.85
226.81	72.02
227.028	0.34
227.246	31.06
227.464	-18.09
227.682	-69.29
227.9	29.01
228.117	-16.04
228.335	26.96
228.553	10.58
228.771	24.92
228.989	33.11
229.206	57.68
229.424	-3.75
229.642	74.07
229.86	-46.76
230.077	47.44
230.295	67.92
230.513	55.64
230.731	-13.99
230.948	-50.86
231.166	29.01
231.384	35.16
231.601	47.44
231.819	-7.85
232.037	31.06
232.254	65.88
232.472	2.39
232.689	43.35
232.907	16.73
233.125	-3.75
233.342	41.3
233.56	24.92
233.777	8.53
233.995	-77.48
234.213	-42.67
234.43	-1.71
234.648	22.87
234.865	35.16
235.083	-36.52
235.3	29.01
235.518	35.16
235.735	61.78
235.953	82.26
236.17	22.87
236.388	20.82
236.605	-46.76
236.822	-28.33
237.04	-3.75
237.257	22.87
237.475	-26.28
237.692	-13.99
237.909	39.25
238.127	-20.14
238.344	-5.8
238.562	22.87
238.779	10.58
238.996	-52.91
239.214	12.63
239.431	18.77
239.648	-9.9
239.865	31.06
240.083	57.68
240.3	-46.76
240.517	45.4
240.735	16.73
240.952	0.34
241.169	61.78
241.386	-1.71
241.603	-11.95
241.821	-26.28
242.038	37.2
242.255	-32.43
242.472	8.53
242.689	37.2
242.907	24.92
243.124	-13.99
243.341	51.54
243.558	22.87
243.775	-83.63
243.992	-22.19
244.209	74.07
244.426	49.49
244.643	8.53
244.86	-18.09
245.078	33.11
245.295	-18.09
245.512	31.06
245.729	12.63
245.946	-26.28
246.163	16.73
246.38	86.36
246.597	6.49
246.814	-18.09
247.031	20.82
247.248	41.3
247.464	43.35
247.681	16.73
247.898	-46.76
248.115	49.49
248.332	-9.9
248.549	47.44
248.766	-7.85
248.983	39.25
249.2	-38.57
249.417	39.25
249.633	-38.57
249.85	88.4
250.067	6.49
250.284	-44.71
250.501	-30.38
250.717	10.58
250.934	-22.19
251.151	35.16
251.368	-73.39
251.585	45.4
251.801	-13.99
252.018	20.82
252.235	-22.19
252.451	-61.1
252.668	53.59
252.885	-9.9
253.102	-63.15
253.318	41.3
253.535	-24.23
253.752	33.11
253.968	31.06
254.185	-30.38
254.401	29.01
254.618	55.64
254.835	-24.23
255.051	37.2
255.268	63.83
255.484	20.82
255.701	26.96
255.917	-28.33
256.134	12.63
256.351	-9.9
256.567	-44.71
256.784	22.87
257	-13.99
257.217	31.06
257.433	-67.24
257.65	76.12
257.866	-16.04
258.082	-48.81
258.299	-1.71
258.515	-28.33
258.732	22.87
258.948	18.77
259.165	10.58
259.381	2.39
259.597	-18.09
259.814	74.07
260.03	53.59
260.246	-11.95
260.463	-28.33
260.679	65.88
260.895	14.68
261.112	-16.04
261.328	-1.71
261.544	78.16
261.761	57.68
261.977	29.01
262.193	18.77
262.409	43.35
262.626	-5.8
262.842	41.3
263.058	16.73
263.274	0.34
263.49	16.73
263.707	-22.19
263.923	26.96
264.139	24.92
264.355	18.77
264.571	-5.8
264.787	0.34
265.004	61.78
265.22	41.3
265.436	78.16
265.652	6.49
265.868	14.68
266.084	29.01
266.3	-5.8
266.516	24.92
266.732	-3.75
266.948	31.06
267.164	92.5
267.38	-18.09
267.596	37.2
267.812	6.49
268.028	59.73
268.244	-26.28
268.46	-3.75
268.676	6.49
268.892	45.4
269.108	4.44
269.324	-24.23
269.54	35.16
269.756	84.31
269.972	-24.23
270.188	35.16
270.403	26.96
270.619	41.3
270.835	-22.19
271.051	-1.71
271.267	-13.99
271.483	82.26
271.698	-5.8
271.914	-9.9
272.13	45.4
272.346	12.63
272.562	-26.28
272.777	-9.9
272.993	18.77
273.209	31.06
273.425	49.49
273.64	-44.71
273.856	47.44
274.072	-1.71
274.287	-16.04
274.503	-16.04
274.719	-20.14
274.934	-3.75
275.15	43.35
275.366	-61.1
275.581	-3.75
275.797	49.49
276.012	4.44
276.228	6.49
276.444	-65.19
276.659	-16.04
276.875	16.73
277.09	55.64
277.306	6.49
277.521	-46.76
277.737	33.11
277.952	35.16
278.168	24.92
278.383	35.16
278.599	-13.99
278.814	4.44
279.03	-13.99
279.245	61.78
279.461	20.82
279.676	53.59
279.892	6.49
280.107	-34.47
280.322	53.59
280.538	74.07
280.753	-48.81
280.969	31.06
281.184	14.68
281.399	67.92
281.615	-5.8
281.83	16.73
282.045	-28.33
282.26	8.53
282.476	-5.8
282.691	14.68
282.906	20.82
283.122	47.44
283.337	94.55
283.552	-32.43
283.767	-36.52
283.983	-1.71
284.198	4.44
284.413	20.82
284.628	39.25
284.843	12.63
285.058	59.73
285.274	20.82
285.489	-1.71
285.704	4.44
285.919	24.92
286.134	18.77
286.349	-32.43
286.564	-26.28
286.779	39.25
286.995	61.78
287.21	4.44
287.425	-1.71
287.64	-30.38
287.855	-3.75
288.07	-3.75
288.285	-16.04
288.5	12.63
288.715	88.4
288.93	-42.67
289.145	-7.85
289.36	74.07
289.575	69.97
289.79	6.49
290.004	43.35
290.219	20.82
290.434	-22.19
290.649	-42.67
290.864	-46.76
291.079	-16.04
291.294	43.35
291.509	31.06
291.724	-1.71
291.938	-34.47
292.153	47.44
292.368	-54.95
292.583	22.87
292.798	18.77
293.012	74.07
293.227	-9.9
293.442	39.25
293.657	16.73
293.871	47.44
294.086	14.68
294.301	31.06
294.516	37.2
294.73	41.3
294.945	90.45
295.16	96.6
295.374	20.82
295.589	29.01
295.804	-18.09
296.018	-36.52
296.233	14.68
296.447	49.49
296.662	-95.91
296.877	-7.85
297.091	-34.47
297.306	10.58
297.52	49.49
297.735	-18.09
297.949	55.64
298.164	39.25
298.378	22.87
298.593	37.2
298.807	-30.38
299.022	-9.9
299.236	-1.71
299.451	6.49
299.665	-32.43
299.88	33.11
300.094	-30.38
300.309	41.3
300.523	55.64
300.737	-9.9
300.952	20.82
301.166	45.4
301.381	39.25
301.595	80.21
301.809	-20.14
302.024	-11.95
302.238	45.4
302.452	8.53
302.667	22.87
302.881	41.3
303.095	72.02
303.309	-22.19
303.524	35.16
303.738	65.88
303.952	-40.62
304.166	-1.71
304.381	-18.09
304.595	-24.23
304.809	6.49
305.023	-46.76
305.237	-16.04
305.452	35.16
305.666	-52.91
305.88	12.63
306.094	-34.47
306.308	14.68
306.522	20.82
306.736	31.06
306.95	33.11
307.164	-20.14
307.379	26.96
307.593	-9.9
307.807	-52.91
308.021	24.92
308.235	0.34
308.449	-36.52
308.663	14.68
308.877	61.78
309.091	-11.95
309.305	0.34
309.519	47.44
309.733	-7.85
309.947	-9.9
310.161	24.92
310.374	-7.85
310.588	37.2
310.802	31.06
311.016	-5.8
311.23	-65.19
311.444	22.87
311.658	-26.28
311.872	-7.85
312.085	65.88
312.299	-22.19
312.513	49.49
312.727	41.3
312.941	-13.99
313.154	22.87
313.368	-9.9
313.582	53.59
313.796	2.39
314.009	-3.75
314.223	104.79
314.437	-5.8
314.651	-1.71
314.864	82.26
315.078	-20.14
315.292	-22.19
315.505	26.96
315.719	-36.52
315.933	-67.24
316.146	80.21
316.36	49.49
316.573	65.88
316.787	49.49
317.001	61.78
317.214	-22.19
317.428	59.73
317.641	-40.62
317.855	-11.95
318.068	53.59
318.282	53.59
318.495	12.63
318.709	33.11
318.922	4.44
319.136	10.58
319.349	22.87
319.563	-13.99
319.776	31.06
319.99	22.87
320.203	-11.95
320.417	14.68
320.63	-36.52
320.843	41.3
321.057	12.63
321.27	18.77
321.483	-3.75
321.697	121.17
321.91	-32.43
322.124	10.58
322.337	31.06
322.55	20.82
322.763	53.59
322.977	47.44
323.19	33.11
323.403	65.88
323.617	35.16
323.83	-13.99
324.043	6.49
324.256	72.02
324.469	-79.53
324.683	67.92
324.896	67.92
325.109	61.78
325.322	-104.11
325.535	16.73
325.748	45.4
325.962	-7.85
326.175	121.17
326.388	-1.71
326.601	-20.14
326.814	43.35
327.027	22.87
327.24	-3.75
327.453	-28.33
327.666	88.4
327.879	55.64
328.092	45.4
328.305	-59.05
328.518	45.4
328.731	-7.85
328.944	-52.91
329.157	16.73
329.37	-34.47
329.583	4.44
329.796	26.96
330.009	0.34
330.222	43.35
330.435	-79.53
330.648	20.82
330.861	59.73
331.073	4.44
331.286	59.73
331.499	-24.23
331.712	51.54
331.925	-18.09
332.138	59.73
332.35	-3.75
332.563	4.44
332.776	-42.67
332.989	51.54
333.202	31.06
333.414	49.49
333.627	53.59
333.84	39.25
334.053	24.92
334.265	-11.95
334.478	24.92
334.691	-71.34
334.903	6.49
335.116	-36.52
335.329	24.92
335.541	51.54
335.754	57.68
335.966	14.68
336.179	14.68
336.392	-26.28
336.604	2.39
336.817	-30.38
337.029	80.21
337.242	12.63
337.454	31.06
337.667	72.02
337.88	4.44
338.092	22.87
338.305	4.44
338.517	16.73
338.729	26.96
338.942	-22.19
339.154	16.73
339.367	-59.05
339.579	82.26
339.792	-40.62
340.004	22.87
340.217	37.2
340.429	-32.43
340.641	-28.33
340.854	31.06
341.066	-24.23
341.278	-18.09
341.491	0.34
341.703	10.58
341.915	12.63
342.128	33.11
342.34	-26.28
342.552	49.49
342.764	59.73
342.977	-30.38
343.189	16.73
343.401	-16.04
343.613	33.11
343.826	-16.04
344.038	-1.71
344.25	57.68
344.462	10.58
344.674	65.88
344.886	8.53
345.099	88.4
345.311	20.82
345.523	-38.57
345.735	14.68
345.947	4.44
346.159	69.97
346.371	8.53
346.583	-16.04
346.795	8.53
347.007	10.58
347.219	26.96
347.431	22.87
347.643	49.49
347.855	2.39
348.067	31.06
348.279	80.21
348.491	-34.47
348.703	-24.23
348.915	-5.8
349.127	-13.99
349.339	0.34
349.551	-16.04
349.763	-67.24
349.975	33.11
350.187	22.87
350.399	14.68
350.61	47.44
350.822	59.73
351.034	80.21
351.246	-20.14
351.458	8.53
351.669	84.31
351.881	14.68
352.093	45.4
352.305	-24.23
352.517	33.11
352.728	-13.99
352.94	26.96
353.152	10.58
353.363	-48.81
353.575	20.82
353.787	33.11
353.999	55.64
354.21	14.68
354.422	-52.91
354.633	39.25
354.845	57.68
355.057	0.34
355.268	-7.85
355.48	18.77
355.692	-1.71
355.903	-79.53
356.115	4.44
356.326	18.77
356.538	-5.8
356.749	72.02
356.961	78.16
357.172	84.31
357.384	29.01
357.595	-30.38
357.807	14.68
358.018	-1.71
358.23	-1.71
358.441	-18.09
358.653	94.55
358.864	22.87
359.075	90.45
359.287	4.44
359.498	16.73
359.709	45.4
359.921	-22.19
360.132	-20.14
360.344	41.3
360.555	-34.47
360.766	94.55
360.977	24.92
361.189	-20.14
361.4	-13.99
361.611	-28.33
361.823	35.16
362.034	22.87
362.245	-42.67
362.456	72.02
362.667	20.82
362.879	24.92
363.09	41.3
363.301	53.59
363.512	-11.95
363.723	22.87
363.935	-3.75
364.146	4.44
364.357	16.73
364.568	-1.71
364.779	-54.95
364.99	-22.19
365.201	-9.9
365.412	-16.04
365.623	-24.23
365.834	4.44
366.045	14.68
366.256	41.3
366.467	0.34
366.678	53.59
366.889	-26.28
367.1	-26.28
367.311	57.68
367.522	37.2
367.733	43.35
367.944	65.88
368.155	-71.34
368.366	-1.71
368.577	39.25
368.788	0.34
368.999	-63.15
369.209	31.06
369.42	-28.33
369.631	78.16
369.842	55.64
370.053	51.54
370.264	14.68
370.474	-16.04
370.685	-1.71
370.896	18.77
371.107	-13.99
371.317	24.92
371.528	10.58
371.739	8.53
371.95	31.06
372.16	-7.85
372.371	-24.23
372.582	96.6
372.792	6.49
373.003	-7.85
373.214	92.5
373.424	76.12
373.635	-38.57
373.846	-20.14
374.056	43.35
374.267	55.64
374.477	37.2
374.688	0.34
374.898	39.25
375.109	35.16
375.319	-20.14
375.53	29.01
375.74	-57
375.951	41.3
376.161	10.58
376.372	4.44
376.582	78.16
376.793	-5.8
377.003	-7.85
377.214	37.2
377.424	-5.8
377.635	31.06
377.845	31.06
378.055	-24.23
378.266	-3.75
378.476	72.02
378.686	16.73
378.897	0.34
379.107	-34.47
379.317	-36.52
379.528	26.96
379.738	55.64
379.948	33.11
380.158	-18.09
380.369	80.21
380.579	69.97
380.789	0.34
380.999	26.96
381.21	14.68
381.42	-3.75
381.63	45.4
381.84	-7.85
382.05	22.87
382.261	45.4
382.471	55.64
382.681	24.92
382.891	-13.99
383.101	84.31
383.311	0.34
383.521	59.73
383.731	26.96
383.941	33.11
384.151	-3.75
384.361	-11.95
384.571	-24.23
384.781	22.87
384.991	10.58
385.201	6.49
385.411	-1.71
385.621	39.25
385.831	4.44
386.041	31.06
386.251	53.59
386.461	35.16
386.671	-24.23
386.881	8.53
387.091	49.49
387.301	31.06
387.511	-3.75
387.72	-7.85
387.93	-9.9
388.14	-44.71
388.35	63.83
388.56	80.21
388.769	29.01
388.979	35.16
389.189	-30.38
389.399	84.31
389.609	-42.67
389.818	-11.95
390.028	22.87
390.238	-1.71
390.447	2.39
390.657	37.2
390.867	16.73
391.076	20.82
391.286	12.63
391.496	59.73
391.705	-11.95
391.915	59.73
392.125	-87.72
392.334	41.3
392.544	39.25
392.753	-9.9
392.963	51.54
393.172	-38.57
393.382	53.59
393.591	41.3
393.801	-3.75
394.01	57.68
394.22	41.3
394.429	65.88
394.639	-13.99
394.848	43.35
395.058	90.45
395.267	26.96
395.477	59.73
395.686	20.82
395.895	57.68
396.105	65.88
396.314	67.92
396.524	8.53
396.733	39.25
396.942	-20.14
397.152	-11.95
397.361	12.63
397.57	2.39
397.78	10.58
397.989	0.34
398.198	49.49
398.407	4.44
398.617	6.49
398.826	45.4
399.035	-7.85
399.244	94.55
399.453	33.11
399.663	31.06
399.872	20.82
400.081	35.16
400.29	35.16
400.499	-11.95
400.708	-1.71
400.917	-36.52
401.127	45.4
401.336	49.49
401.545	29.01
401.754	53.59
401.963	12.63
402.172	24.92
402.381	45.4
402.59	-7.85
402.799	63.83
403.008	47.44
403.217	4.44
403.426	47.44
403.635	76.12
403.844	10.58
404.053	59.73
404.262	16.73
404.471	-26.28
404.68	35.16
404.888	39.25
405.097	76.12
405.306	26.96
405.515	96.6
405.724	82.26
405.933	-5.8
406.142	67.92
406.35	67.92
406.559	90.45
406.768	39.25
406.977	51.54
407.185	29.01
407.394	86.36
407.603	110.93
407.812	55.64
408.02	41.3
408.229	82.26
408.438	125.27
408.646	-3.75
408.855	10.58
409.064	69.97
409.272	76.12
409.481	90.45
409.69	6.49
409.898	90.45
410.107	49.49
410.315	-3.75
410.524	98.64
410.733	123.22
410.941	8.53
411.15	88.4
411.358	16.73
411.567	137.56
411.775	82.26
411.984	86.36
412.192	104.79
412.401	33.11
412.609	131.41
412.818	88.4
413.026	45.4
413.234	112.98
413.443	147.8
413.651	133.46
413.86	117.08
414.068	106.84
414.276	100.69
414.485	121.17
414.693	72.02
414.901	170.32
415.11	96.6
415.318	63.83
415.526	123.22
415.734	198.99
415.943	155.99
416.151	176.47
416.359	178.51
416.567	139.6
416.776	123.22
416.984	158.03
417.192	211.28
417.4	166.23
417.608	176.47
417.817	223.57
418.025	237.91
418.233	239.95
418.441	209.23
418.649	203.09
418.857	239.95
419.065	258.39
419.273	108.88
419.481	219.47
419.689	325.97
419.897	305.49
420.105	225.62
420.313	315.73
420.521	223.57
420.729	332.11
420.937	278.87
421.145	360.78
421.353	373.07
421.561	336.21
421.769	352.59
421.977	362.83
422.185	362.83
422.393	399.7
422.601	454.99
422.809	395.6
423.017	379.22
423.224	416.08
423.432	473.42
423.64	465.23
423.848	477.52
424.056	461.13
424.263	590.16
424.471	543.05
424.679	567.63
424.887	604.49
425.094	579.92
425.302	647.5
425.51	655.69
425.718	598.35
425.925	575.82
426.133	667.98
426.341	700.75
426.548	629.07
426.756	696.65
426.964	598.35
427.171	706.89
427.379	727.37
427.586	821.58
427.794	854.34
428.001	844.1
428.209	874.82
428.417	911.69
428.624	944.45
428.832	926.02
429.039	868.68
429.247	864.58
429.454	1069.38
429.662	1136.96
429.869	1030.47
430.076	1048.9
430.284	1122.63
430.491	1093.96
430.699	1136.96
430.906	1177.92
431.114	1210.69
431.321	1190.21
431.528	1288.51
431.736	1239.36
431.943	1390.91
432.15	1311.04
432.358	1392.96
432.565	1481.02
432.772	1419.58
432.979	1548.61
433.187	1460.54
433.394	1554.75
433.601	1747.26
433.808	1704.25
434.016	1702.2
434.223	1663.29
434.43	1804.6
434.637	1777.98
434.844	1849.66
435.052	1870.14
435.259	1927.48
435.466	1935.67
435.673	1995.06
435.88	2029.88
436.087	2148.66
436.294	2214.2
436.501	2185.52
436.708	2181.43
436.915	2222.39
437.122	2337.07
437.329	2277.68
437.537	2316.59
437.743	2464.05
437.95	2314.55
438.157	2615.6
438.364	2720.04
438.571	2541.87
438.778	2588.97
438.985	2859.31
439.192	2806.06
439.399	2881.83
439.606	2799.91
439.813	2992.42
440.02	3129.64
440.227	3105.06
440.433	3060.01
440.64	3160.36
440.847	3053.86
441.054	3248.42
441.261	3500.32
441.467	3387.68
441.674	3524.9
441.881	3500.32
442.088	3627.29
442.294	3551.52
442.501	3569.95
442.708	3725.6
442.914	3819.8
443.121	4030.74
443.328	3932.44
443.534	4172.05
443.741	3987.74
443.948	4090.13
444.154	4415.76
444.361	4335.89
444.568	4192.53
444.774	4337.94
444.981	4346.13
445.187	4626.7
445.394	4733.2
445.6	4518.16
445.807	5097.74
446.013	4966.67
446.22	4878.6
446.426	5085.45
446.633	5245.19
446.839	5245.19
447.046	5064.97
447.252	5370.12
447.459	5423.36
447.665	5345.54
447.871	5634.3
448.078	5914.88
448.284	5771.52
448.491	5748.99
448.697	5890.3
448.903	6254.84
449.11	6138.1
449.316	6045.95
449.522	6189.3
449.728	6336.76
449.935	6336.76
450.141	6342.9
450.347	6461.68
450.553	6347
450.76	6269.17
450.966	6652.14
451.172	6637.81
451.378	6779.12
451.584	6486.26
451.791	6809.84
451.997	6725.87
452.203	6727.92
452.409	7010.54
452.615	6830.32
452.821	6699.25
453.027	6555.89
453.233	6842.6
453.44	6689.01
453.646	6648.05
453.852	6809.84
454.058	6897.9
454.264	6723.82
454.47	6838.51
454.676	6680.82
454.882	7014.63
455.088	6203.64
455.294	6480.11
455.5	6633.71
455.705	6512.88
455.911	6428.92
456.117	6115.58
456.323	6252.79
456.529	5890.3
456.735	6041.85
456.941	5724.41
457.147	5910.78
457.352	5732.61
457.558	5497.09
457.764	5603.58
457.97	5470.47
458.176	5406.98
458.381	5409.03
458.587	5026.06
458.793	4970.76
458.999	4868.36
459.204	5325.06
459.41	5267.72
459.616	4815.12
459.821	4751.63
460.027	4774.16
460.233	4704.53
460.438	4487.44
460.644	4440.34
460.85	4290.84
461.055	4307.22
461.261	4210.97
461.466	3954.97
461.672	3903.77
461.878	4067.61
462.083	3615.01
462.289	3901.72
462.494	3760.41
462.7	3651.87
462.905	3430.69
463.111	3655.97
463.316	3621.15
463.522	3578.14
463.727	3621.15
463.932	3543.33
464.138	3596.57
464.343	3574.05
464.549	3533.09
464.754	3688.73
464.959	3621.15
465.165	3584.29
465.37	3340.58
465.575	3305.76
465.781	3539.23
465.986	3496.22
466.191	3395.87
466.397	3328.29
466.602	3092.77
466.807	3414.31
467.012	3375.39
467.218	3236.13
467.423	3234.08
467.628	3227.94
467.833	3371.3
468.038	3170.6
468.244	3211.56
468.449	3338.53
468.654	3223.84
468.859	3137.83
469.064	3148.07
469.269	3060.01
469.474	2953.51
469.679	3021.1
469.885	2976.04
470.09	3053.86
470.295	3062.05
470.5	3031.34
470.705	2978.09
