Data from USB4F104151__94__12-54-55-327.txt Node

Date: Fri Mar 14 12:54:55 EDT 2025
User: louis
Spectrometer: USB4F10415
Trigger mode: 4
Integration Time (sec): 1.000000E-2
Scans to average: 1
Electric dark correction enabled: true
Nonlinearity correction enabled: false
Boxcar width: 0
XAxis mode: Wavelengths
Number of Pixels in Spectrum: 3648
>>>>>Begin Spectral Data<<<<<
178.204	-64.85
178.424	-64.85
178.644	-64.85
178.864	-83.28
179.084	-64.85
179.304	-60.76
179.524	-30.04
179.744	51.88
179.964	37.55
180.184	10.92
180.404	15.02
180.624	-25.94
180.844	6.83
181.064	12.97
181.283	-13.65
181.503	2.73
181.723	-7.51
181.943	-11.61
182.163	0.68
182.383	31.4
182.602	-15.7
182.822	-32.08
183.042	23.21
183.262	-13.65
183.482	70.31
183.701	-30.04
183.921	-54.61
184.141	-64.85
184.361	2.73
184.58	-21.84
184.8	41.64
185.02	-50.52
185.239	76.46
185.459	43.69
185.679	31.4
185.898	-54.61
186.118	-44.37
186.338	-5.46
186.557	2.73
186.777	-5.46
186.997	-68.95
187.216	-3.41
187.436	-19.8
187.655	39.59
187.875	15.02
188.095	41.64
188.314	39.59
188.534	47.79
188.753	58.03
188.973	58.03
189.192	-7.51
189.412	-75.09
189.631	-11.61
189.851	10.92
190.07	43.69
190.29	-7.51
190.509	37.55
190.729	35.5
190.948	12.97
191.168	62.12
191.387	10.92
191.607	-21.84
191.826	43.69
192.045	19.11
192.265	-34.13
192.484	-27.99
192.704	21.16
192.923	-42.32
193.142	-30.04
193.362	0.68
193.581	-62.8
193.8	-7.51
194.02	51.88
194.239	12.97
194.458	-3.41
194.678	10.92
194.897	31.4
195.116	-19.8
195.335	-1.37
195.555	29.35
195.774	-46.42
195.993	6.83
196.212	60.07
196.432	-5.46
196.651	6.83
196.87	8.87
197.089	-60.76
197.308	-11.61
197.528	15.02
197.747	-13.65
197.966	35.5
198.185	-7.51
198.404	55.98
198.623	10.92
198.842	10.92
199.062	21.16
199.281	47.79
199.5	2.73
199.719	-9.56
199.938	27.31
200.157	27.31
200.376	53.93
200.595	10.92
200.814	0.68
201.033	-38.23
201.252	-19.8
201.471	27.31
201.69	29.35
201.909	8.87
202.128	12.97
202.347	-7.51
202.566	45.74
202.785	0.68
203.004	41.64
203.223	25.26
203.442	-60.76
203.661	-15.7
203.879	51.88
204.098	39.59
204.317	-48.47
204.536	-13.65
204.755	43.69
204.974	41.64
205.193	-34.13
205.411	21.16
205.63	53.93
205.849	-40.28
206.068	-30.04
206.287	53.93
206.505	41.64
206.724	-36.18
206.943	-15.7
207.162	17.07
207.381	-30.04
207.599	21.16
207.818	-25.94
208.037	-3.41
208.255	-44.37
208.474	15.02
208.693	21.16
208.911	23.21
209.13	-7.51
209.349	23.21
209.567	-34.13
209.786	-52.56
210.005	15.02
210.223	-17.75
210.442	21.16
210.661	25.26
210.879	-15.7
211.098	19.11
211.316	31.4
211.535	70.31
211.753	-36.18
211.972	47.79
212.191	-36.18
212.409	-25.94
212.628	21.16
212.846	-13.65
213.065	23.21
213.283	10.92
213.502	-50.52
213.72	6.83
213.938	-36.18
214.157	-7.51
214.375	-11.61
214.594	39.59
214.812	-5.46
215.031	-21.84
215.249	21.16
215.467	19.11
215.686	-13.65
215.904	4.78
216.122	-27.99
216.341	29.35
216.559	-32.08
216.778	-5.46
216.996	-13.65
217.214	-23.89
217.432	-32.08
217.651	10.92
217.869	-60.76
218.087	-48.47
218.306	-1.37
218.524	15.02
218.742	-19.8
218.96	33.45
219.179	2.73
219.397	27.31
219.615	6.83
219.833	21.16
220.051	-89.43
220.27	10.92
220.488	-40.28
220.706	-32.08
220.924	-15.7
221.142	25.26
221.36	-40.28
221.578	39.59
221.796	0.68
222.015	-13.65
222.233	21.16
222.451	12.97
222.669	-58.71
222.887	41.64
223.105	4.78
223.323	23.21
223.541	-21.84
223.759	2.73
223.977	-42.32
224.195	-5.46
224.413	2.73
224.631	49.83
224.849	4.78
225.067	4.78
225.285	43.69
225.503	35.5
225.721	0.68
225.939	-56.66
226.157	8.87
226.375	-11.61
226.592	-15.7
226.81	45.74
227.028	-3.41
227.246	35.5
227.464	-13.65
227.682	10.92
227.9	66.22
228.117	90.79
228.335	6.83
228.553	39.59
228.771	-54.61
228.989	27.31
229.206	17.07
229.424	74.41
229.642	31.4
229.86	-21.84
230.077	-25.94
230.295	37.55
230.513	41.64
230.731	55.98
230.948	51.88
231.166	41.64
231.384	-25.94
231.601	-19.8
231.819	49.83
232.037	-15.7
232.254	37.55
232.472	-1.37
232.689	8.87
232.907	-17.75
233.125	29.35
233.342	6.83
233.56	25.26
233.777	12.97
233.995	92.84
234.213	31.4
234.43	-15.7
234.648	55.98
234.865	-46.42
235.083	-42.32
235.3	-15.7
235.518	27.31
235.735	66.22
235.953	58.03
236.17	-3.41
236.388	0.68
236.605	17.07
236.822	66.22
237.04	51.88
237.257	35.5
237.475	17.07
237.692	-11.61
237.909	17.07
238.127	27.31
238.344	66.22
238.562	-11.61
238.779	-38.23
238.996	29.35
239.214	-48.47
239.431	-27.99
239.648	19.11
239.865	19.11
240.083	41.64
240.3	27.31
240.517	8.87
240.735	72.36
240.952	8.87
241.169	-9.56
241.386	-32.08
241.603	-46.42
241.821	-1.37
242.038	-36.18
242.255	-56.66
242.472	-64.85
242.689	47.79
242.907	-13.65
243.124	-13.65
243.341	-85.33
243.558	10.92
243.775	78.51
243.992	-5.46
244.209	-34.13
244.426	10.92
244.643	2.73
244.86	4.78
245.078	17.07
245.295	-40.28
245.512	6.83
245.729	-17.75
245.946	21.16
246.163	10.92
246.38	8.87
246.597	-42.32
246.814	39.59
247.031	-38.23
247.248	49.83
247.464	27.31
247.681	25.26
247.898	-7.51
248.115	66.22
248.332	-34.13
248.549	41.64
248.766	33.45
248.983	35.5
249.2	2.73
249.417	-3.41
249.633	49.83
249.85	-36.18
250.067	19.11
250.284	-21.84
250.501	-73.04
250.717	37.55
250.934	29.35
251.151	-7.51
251.368	-19.8
251.585	53.93
251.801	-34.13
252.018	45.74
252.235	43.69
252.451	-17.75
252.668	-40.28
252.885	49.83
253.102	-30.04
253.318	0.68
253.535	-7.51
253.752	2.73
253.968	-5.46
254.185	0.68
254.401	-13.65
254.618	72.36
254.835	-30.04
255.051	62.12
255.268	2.73
255.484	82.6
255.701	107.18
255.917	10.92
256.134	10.92
256.351	55.98
256.567	41.64
256.784	-21.84
257	-79.19
257.217	-19.8
257.433	47.79
257.65	74.41
257.866	58.03
258.082	-40.28
258.299	-77.14
258.515	23.21
258.732	29.35
258.948	2.73
259.165	-13.65
259.381	25.26
259.597	-17.75
259.814	-23.89
260.03	-13.65
260.246	-40.28
260.463	-44.37
260.679	-1.37
260.895	19.11
261.112	41.64
261.328	-11.61
261.544	-5.46
261.761	-19.8
261.977	-56.66
262.193	19.11
262.409	-9.56
262.626	4.78
262.842	31.4
263.058	12.97
263.274	6.83
263.49	-30.04
263.707	58.03
263.923	-75.09
264.139	-44.37
264.355	-25.94
264.571	58.03
264.787	47.79
265.004	23.21
265.22	6.83
265.436	21.16
265.652	33.45
265.868	21.16
266.084	-19.8
266.3	-5.46
266.516	15.02
266.732	15.02
266.948	4.78
267.164	39.59
267.38	6.83
267.596	-62.8
267.812	-54.61
268.028	47.79
268.244	-1.37
268.46	-21.84
268.676	17.07
268.892	21.16
269.108	-44.37
269.324	27.31
269.54	15.02
269.756	-42.32
269.972	43.69
270.188	-38.23
270.403	-7.51
270.619	23.21
270.835	115.37
271.051	-3.41
271.267	-19.8
271.483	82.6
271.698	-19.8
271.914	-3.41
272.13	49.83
272.346	-19.8
272.562	19.11
272.777	17.07
272.993	37.55
273.209	19.11
273.425	17.07
273.64	33.45
273.856	33.45
274.072	41.64
274.287	-83.28
274.503	25.26
274.719	-23.89
274.934	51.88
275.15	2.73
275.366	8.87
275.581	-1.37
275.797	43.69
276.012	6.83
276.228	-11.61
276.444	51.88
276.659	-5.46
276.875	-27.99
277.09	19.11
277.306	2.73
277.521	-79.19
277.737	6.83
277.952	0.68
278.168	-7.51
278.383	-5.46
278.599	15.02
278.814	31.4
279.03	55.98
279.245	25.26
279.461	25.26
279.676	-97.62
279.892	-25.94
280.107	27.31
280.322	-15.7
280.538	-9.56
280.753	21.16
280.969	129.7
281.184	-7.51
281.399	-1.37
281.615	45.74
281.83	0.68
282.045	-25.94
282.26	45.74
282.476	-32.08
282.691	-89.43
282.906	8.87
283.122	-7.51
283.337	-3.41
283.552	-32.08
283.767	-5.46
283.983	-25.94
284.198	-32.08
284.413	55.98
284.628	55.98
284.843	51.88
285.058	25.26
285.274	-42.32
285.489	35.5
285.704	19.11
285.919	-46.42
286.134	21.16
286.349	-5.46
286.564	25.26
286.779	0.68
286.995	-1.37
287.21	23.21
287.425	-23.89
287.64	33.45
287.855	-40.28
288.07	27.31
288.285	2.73
288.5	15.02
288.715	-3.41
288.93	8.87
289.145	10.92
289.36	-42.32
289.575	-1.37
289.79	6.83
290.004	4.78
290.219	-30.04
290.434	29.35
290.649	35.5
290.864	-7.51
291.079	2.73
291.294	53.93
291.509	-15.7
291.724	-7.51
291.938	41.64
292.153	-7.51
292.368	-40.28
292.583	43.69
292.798	-9.56
293.012	27.31
293.227	35.5
293.442	-19.8
293.657	-25.94
293.871	37.55
294.086	84.65
294.301	15.02
294.516	31.4
294.73	-30.04
294.945	-38.23
295.16	62.12
295.374	74.41
295.589	-5.46
295.804	-21.84
296.018	10.92
296.233	2.73
296.447	-5.46
296.662	-64.85
296.877	15.02
297.091	82.6
297.306	21.16
297.52	15.02
297.735	17.07
297.949	-54.61
298.164	31.4
298.378	12.97
298.593	4.78
298.807	-23.89
299.022	17.07
299.236	23.21
299.451	23.21
299.665	-36.18
299.88	-5.46
300.094	-9.56
300.309	25.26
300.523	10.92
300.737	-5.46
300.952	27.31
301.166	47.79
301.381	-7.51
301.595	2.73
301.809	-19.8
302.024	27.31
302.238	-30.04
302.452	74.41
302.667	-1.37
302.881	84.65
303.095	78.51
303.309	-81.24
303.524	25.26
303.738	2.73
303.952	-42.32
304.166	-11.61
304.381	-7.51
304.595	-17.75
304.809	27.31
305.023	8.87
305.237	33.45
305.452	47.79
305.666	-7.51
305.88	25.26
306.094	41.64
306.308	-7.51
306.522	60.07
306.736	43.69
306.95	17.07
307.164	-56.66
307.379	-1.37
307.593	4.78
307.807	4.78
308.021	41.64
308.235	-25.94
308.449	8.87
308.663	-13.65
308.877	21.16
309.091	49.83
309.305	53.93
309.519	17.07
309.733	-23.89
309.947	25.26
310.161	-21.84
310.374	66.22
310.588	25.26
310.802	-5.46
311.016	-42.32
311.23	47.79
311.444	-13.65
311.658	-42.32
311.872	47.79
312.085	-5.46
312.299	41.64
312.513	-17.75
312.727	19.11
312.941	-52.56
313.154	-36.18
313.368	-21.84
313.582	0.68
313.796	45.74
314.009	29.35
314.223	53.93
314.437	10.92
314.651	25.26
314.864	25.26
315.078	-23.89
315.292	6.83
315.505	45.74
315.719	39.59
315.933	-1.37
316.146	33.45
316.36	15.02
316.573	-15.7
316.787	45.74
317.001	4.78
317.214	-15.7
317.428	45.74
317.641	-54.61
317.855	4.78
318.068	-5.46
318.282	17.07
318.495	-13.65
318.709	33.45
318.922	-15.7
319.136	-19.8
319.349	23.21
319.563	-9.56
319.776	-15.7
319.99	-1.37
320.203	-5.46
320.417	-7.51
320.63	23.21
320.843	33.45
321.057	60.07
321.27	62.12
321.483	-32.08
321.697	25.26
321.91	-42.32
322.124	33.45
322.337	-25.94
322.55	80.55
322.763	21.16
322.977	-7.51
323.19	23.21
323.403	-32.08
323.617	15.02
323.83	10.92
324.043	60.07
324.256	31.4
324.469	33.45
324.683	-15.7
324.896	-15.7
325.109	103.08
325.322	21.16
325.535	29.35
325.748	-3.41
325.962	33.45
326.175	12.97
326.388	2.73
326.601	-46.42
326.814	23.21
327.027	19.11
327.24	23.21
327.453	-5.46
327.666	-21.84
327.879	19.11
328.092	19.11
328.305	-17.75
328.518	-9.56
328.731	41.64
328.944	10.92
329.157	15.02
329.37	-21.84
329.583	6.83
329.796	-17.75
330.009	23.21
330.222	-38.23
330.435	2.73
330.648	37.55
330.861	41.64
331.073	33.45
331.286	-7.51
331.499	10.92
331.712	-5.46
331.925	-36.18
332.138	-32.08
332.35	37.55
332.563	-34.13
332.776	-23.89
332.989	86.7
333.202	23.21
333.414	29.35
333.627	31.4
333.84	35.5
334.053	53.93
334.265	6.83
334.478	86.7
334.691	70.31
334.903	17.07
335.116	84.65
335.329	15.02
335.541	0.68
335.754	-7.51
335.966	8.87
336.179	29.35
336.392	-32.08
336.604	27.31
336.817	17.07
337.029	19.11
337.242	21.16
337.454	53.93
337.667	27.31
337.88	17.07
338.092	29.35
338.305	-19.8
338.517	4.78
338.729	-15.7
338.942	19.11
339.154	-48.47
339.367	6.83
339.579	72.36
339.792	-9.56
340.004	35.5
340.217	12.97
340.429	-38.23
340.641	-9.56
340.854	8.87
341.066	-81.24
341.278	37.55
341.491	-11.61
341.703	-48.47
341.915	4.78
342.128	47.79
342.34	-9.56
342.552	-11.61
342.764	6.83
342.977	21.16
343.189	66.22
343.401	-3.41
343.613	-73.04
343.826	-32.08
344.038	8.87
344.25	-11.61
344.462	4.78
344.674	-15.7
344.886	-3.41
345.099	23.21
345.311	8.87
345.523	-5.46
345.735	-30.04
345.947	62.12
346.159	29.35
346.371	41.64
346.583	-40.28
346.795	49.83
347.007	23.21
347.219	-15.7
347.431	2.73
347.643	15.02
347.855	-7.51
348.067	-34.13
348.279	29.35
348.491	-5.46
348.703	27.31
348.915	80.55
349.127	27.31
349.339	-23.89
349.551	31.4
349.763	70.31
349.975	17.07
350.187	-3.41
350.399	-1.37
350.61	68.27
350.822	43.69
351.034	29.35
351.246	21.16
351.458	8.87
351.669	-27.99
351.881	33.45
352.093	6.83
352.305	-15.7
352.517	19.11
352.728	37.55
352.94	-13.65
353.152	8.87
353.363	-13.65
353.575	10.92
353.787	76.46
353.999	-32.08
354.21	49.83
354.422	37.55
354.633	58.03
354.845	10.92
355.057	-50.52
355.268	49.83
355.48	53.93
355.692	49.83
355.903	49.83
356.115	-7.51
356.326	-19.8
356.538	2.73
356.749	8.87
356.961	-21.84
357.172	2.73
357.384	47.79
357.595	-21.84
357.807	6.83
358.018	58.03
358.23	-36.18
358.441	41.64
358.653	90.79
358.864	-52.56
359.075	17.07
359.287	29.35
359.498	66.22
359.709	70.31
359.921	37.55
360.132	27.31
360.344	-25.94
360.555	8.87
360.766	43.69
360.977	-9.56
361.189	2.73
361.4	-1.37
361.611	8.87
361.823	17.07
362.034	-15.7
362.245	4.78
362.456	45.74
362.667	-75.09
362.879	51.88
363.09	-21.84
363.301	4.78
363.512	47.79
363.723	68.27
363.935	-46.42
364.146	25.26
364.357	-11.61
364.568	-30.04
364.779	49.83
364.99	-25.94
365.201	-3.41
365.412	53.93
365.623	-21.84
365.834	53.93
366.045	8.87
366.256	74.41
366.467	33.45
366.678	-1.37
366.889	51.88
367.1	41.64
367.311	-27.99
367.522	-34.13
367.733	8.87
367.944	15.02
368.155	-34.13
368.366	25.26
368.577	43.69
368.788	25.26
368.999	-15.7
369.209	60.07
369.42	6.83
369.631	66.22
369.842	-32.08
370.053	17.07
370.264	0.68
370.474	-19.8
370.685	0.68
370.896	-21.84
371.107	25.26
371.317	37.55
371.528	-32.08
371.739	43.69
371.95	15.02
372.16	0.68
372.371	6.83
372.582	-13.65
372.792	-19.8
373.003	-15.7
373.214	12.97
373.424	45.74
373.635	-17.75
373.846	29.35
374.056	-64.85
374.267	-19.8
374.477	27.31
374.688	17.07
374.898	-15.7
375.109	-40.28
375.319	72.36
375.53	-13.65
375.74	6.83
375.951	37.55
376.161	12.97
376.372	-7.51
376.582	-56.66
376.793	2.73
377.003	27.31
377.214	-17.75
377.424	33.45
377.635	19.11
377.845	-32.08
378.055	-7.51
378.266	86.7
378.476	17.07
378.686	2.73
378.897	2.73
379.107	74.41
379.317	0.68
379.528	23.21
379.738	51.88
379.948	-21.84
380.158	17.07
380.369	6.83
380.579	-1.37
380.789	23.21
380.999	64.17
381.21	-13.65
381.42	15.02
381.63	35.5
381.84	12.97
382.05	15.02
382.261	37.55
382.471	-7.51
382.681	31.4
382.891	-9.56
383.101	2.73
383.311	0.68
383.521	39.59
383.731	-38.23
383.941	55.98
384.151	-9.56
384.361	-11.61
384.571	21.16
384.781	49.83
384.991	27.31
385.201	37.55
385.411	17.07
385.621	23.21
385.831	21.16
386.041	2.73
386.251	29.35
386.461	70.31
386.671	4.78
386.881	41.64
387.091	-9.56
387.301	84.65
387.511	-32.08
387.72	-3.41
387.93	2.73
388.14	76.46
388.35	0.68
388.56	-25.94
388.769	31.4
388.979	10.92
389.189	17.07
389.399	-17.75
389.609	51.88
389.818	60.07
390.028	-27.99
390.238	43.69
390.447	45.74
390.657	45.74
390.867	2.73
391.076	15.02
391.286	8.87
391.496	47.79
391.705	-40.28
391.915	0.68
392.125	25.26
392.334	35.5
392.544	-40.28
392.753	49.83
392.963	-25.94
393.172	-23.89
393.382	-13.65
393.591	35.5
393.801	23.21
394.01	-48.47
394.22	103.08
394.429	43.69
394.639	41.64
394.848	60.07
395.058	19.11
395.267	19.11
395.477	12.97
395.686	0.68
395.895	43.69
396.105	60.07
396.314	-19.8
396.524	70.31
396.733	-13.65
396.942	23.21
397.152	68.27
397.361	51.88
397.57	49.83
397.78	58.03
397.989	17.07
398.198	15.02
398.407	-34.13
398.617	6.83
398.826	-5.46
399.035	70.31
399.244	70.31
399.453	66.22
399.663	64.17
399.872	31.4
400.081	19.11
400.29	-3.41
400.499	12.97
400.708	60.07
400.917	35.5
401.127	-5.46
401.336	-60.76
401.545	33.45
401.754	62.12
401.963	43.69
402.172	27.31
402.381	37.55
402.59	74.41
402.799	43.69
403.008	-7.51
403.217	21.16
403.426	6.83
403.635	29.35
403.844	94.89
404.053	94.89
404.262	41.64
404.471	94.89
404.68	47.79
404.888	74.41
405.097	39.59
405.306	45.74
405.515	58.03
405.724	19.11
405.933	-23.89
406.142	66.22
406.35	49.83
406.559	-5.46
406.768	66.22
406.977	-25.94
407.185	51.88
407.394	74.41
407.603	49.83
407.812	33.45
408.02	98.99
408.229	72.36
408.438	101.03
408.646	49.83
408.855	109.23
409.064	146.09
409.272	98.99
409.481	105.13
409.69	103.08
409.898	90.79
410.107	66.22
410.315	129.7
410.524	45.74
410.733	141.99
410.941	49.83
411.15	115.37
411.358	174.76
411.567	92.84
411.775	121.51
411.984	86.7
412.192	90.79
412.401	189.1
412.609	176.81
412.818	121.51
413.026	117.42
413.234	144.04
413.443	176.81
413.651	113.32
413.86	185
414.068	160.42
414.276	187.05
414.485	127.66
414.693	180.9
414.901	232.1
415.11	178.86
415.318	242.34
415.526	225.96
415.734	197.29
415.943	299.69
416.151	295.59
416.359	307.88
416.567	223.91
416.776	234.15
416.984	303.78
417.192	250.53
417.4	289.45
417.608	305.83
417.817	322.21
418.025	281.25
418.233	336.55
418.441	328.36
418.649	471.72
418.857	406.18
419.065	428.71
419.273	418.47
419.481	443.04
419.689	445.09
419.897	410.28
420.105	455.33
420.313	484
420.521	527.01
420.729	461.48
420.937	496.29
421.145	567.97
421.353	582.31
421.561	518.82
421.769	553.63
421.977	696.99
422.185	633.51
422.393	608.93
422.601	752.29
422.809	629.41
423.017	766.62
423.224	699.04
423.432	815.77
423.64	756.38
423.848	846.49
424.056	836.25
424.263	805.53
424.471	901.79
424.679	926.36
424.887	981.66
425.094	942.75
425.302	967.32
425.51	993.95
425.718	1036.95
425.925	1110.68
426.133	1067.67
426.341	1030.81
426.548	1223.32
426.756	1211.03
426.964	1223.32
427.171	1196.7
427.379	1284.76
427.586	1352.34
427.794	1383.06
428.001	1450.64
428.209	1391.25
428.417	1415.83
428.624	1630.87
428.832	1589.91
429.039	1467.03
429.247	1583.76
429.454	1704.59
429.662	1850
429.869	1780.37
430.076	1753.74
430.284	1708.69
430.491	1845.9
430.699	1872.53
430.906	1989.26
431.114	2007.69
431.321	2122.38
431.528	2105.99
431.736	2235.02
431.943	2337.41
432.15	2435.72
432.358	2300.55
432.565	2339.46
432.772	2450.05
432.979	2534.02
433.187	2685.57
433.394	2652.8
433.601	2740.86
433.808	2802.3
434.016	2718.34
434.223	2884.22
434.43	3052.16
434.637	3074.68
434.844	3252.86
435.052	3316.34
435.259	3283.58
435.466	3113.6
435.673	3320.44
435.88	3451.51
436.087	3594.87
436.294	3590.77
436.501	3502.71
436.708	3562.1
436.915	3848.82
437.122	3852.91
437.329	3951.21
437.537	4098.67
437.743	4125.29
437.95	4088.43
438.157	4299.37
438.364	4389.48
438.571	4414.06
438.778	4407.91
438.985	4964.96
439.192	4672.1
439.399	4737.63
439.606	4713.06
439.813	4942.43
440.02	5257.82
440.227	5235.29
440.433	5180
440.64	5360.22
440.847	5249.63
441.054	5411.42
441.261	5714.52
441.467	5708.37
441.674	5952.08
441.881	5954.13
442.088	5913.17
442.294	5974.61
442.501	6154.83
442.708	6494.79
442.914	6367.82
443.121	6842.95
443.328	6646.34
443.534	6890.05
443.741	6994.5
443.948	6701.64
444.154	7213.63
444.361	7424.57
444.568	7490.1
444.774	7412.28
444.981	7305.79
445.187	7574.07
445.394	7834.16
445.6	7764.53
445.807	8485.42
446.013	8151.6
446.22	8342.06
446.426	8622.63
446.633	8839.72
446.839	9038.37
447.046	8704.55
447.252	9286.17
447.459	9036.32
447.665	9196.06
447.871	9521.69
448.078	9980.43
448.284	9490.97
448.491	9603.61
448.697	10123.79
448.903	10246.67
449.11	10304.01
449.316	10144.27
449.522	10322.45
449.728	10746.37
449.935	10832.39
450.141	10635.78
450.347	10955.27
450.553	10537.48
450.76	10871.3
450.966	11092.48
451.172	11033.09
451.378	11260.41
451.584	10940.93
451.791	11352.57
451.997	11524.6
452.203	11307.52
452.409	11700.73
452.615	11440.64
452.821	10990.08
453.027	10844.68
453.233	11741.69
453.44	11104.77
453.646	11063.81
453.852	11264.51
454.058	11373.05
454.264	11049.47
454.47	11305.47
454.676	10922.5
454.882	11371.01
455.088	10441.23
455.294	10650.12
455.5	10631.69
455.705	10740.23
455.911	10381.84
456.117	10080.78
456.323	10162.7
456.529	9519.64
456.735	9781.78
456.941	9769.49
457.147	9515.55
457.352	9155.1
457.558	9130.53
457.764	9200.16
457.97	8923.68
458.176	8675.88
458.381	8835.62
458.587	8194.61
458.793	8346.16
458.999	8092.21
459.204	8309.29
459.41	8198.7
459.616	7746.1
459.821	7735.86
460.027	7703.09
460.233	7612.98
460.438	7230.01
460.644	7260.73
460.85	6918.72
461.055	6804.03
461.261	6758.98
461.466	6242.89
461.672	6115.92
461.878	6480.46
462.083	6144.59
462.289	5913.17
462.494	5837.39
462.7	5515.86
462.905	5366.36
463.111	5720.66
463.316	5796.43
463.522	5712.47
463.727	5532.25
463.932	5673.56
464.138	5509.72
464.343	5710.42
464.549	5364.31
464.754	5755.47
464.959	5399.13
465.165	5448.28
465.37	5304.92
465.575	5206.62
465.781	5292.63
465.986	5331.55
466.191	5106.27
466.397	5055.07
466.602	4788.83
466.807	5036.64
467.012	5022.3
467.218	4940.38
467.423	4872.8
467.628	4909.66
467.833	5077.6
468.038	4883.04
468.244	4878.94
468.449	4995.68
468.654	4862.56
468.859	4729.44
469.064	4799.07
469.269	4610.66
469.474	4754.02
