Data from USB4F104151__35__12-53-40-486.txt Node

Date: Fri Mar 14 12:53:40 EDT 2025
User: louis
Spectrometer: USB4F10415
Trigger mode: 4
Integration Time (sec): 1.000000E-2
Scans to average: 1
Electric dark correction enabled: true
Nonlinearity correction enabled: false
Boxcar width: 0
XAxis mode: Wavelengths
Number of Pixels in Spectrum: 3648
>>>>>Begin Spectral Data<<<<<
178.204	28.33
178.424	28.33
178.644	28.33
178.864	-55.64
179.084	-12.63
179.304	-49.49
179.524	9.9
179.744	-4.44
179.964	1.71
180.184	30.38
180.404	-22.87
180.624	-10.58
180.844	-24.92
181.064	20.14
181.283	13.99
181.503	22.19
181.723	13.99
181.943	28.33
182.163	-2.39
182.383	46.76
182.602	44.71
182.822	-12.63
183.042	59.05
183.262	-53.59
183.482	-39.25
183.701	7.85
183.921	36.52
184.141	77.48
184.361	67.24
184.58	30.38
184.8	3.75
185.02	77.48
185.239	20.14
185.459	50.86
185.679	5.8
185.898	32.43
186.118	-18.77
186.338	13.99
186.557	40.62
186.777	30.38
186.997	87.72
187.216	46.76
187.436	52.91
187.655	13.99
187.875	63.15
188.095	-20.82
188.314	-6.49
188.534	59.05
188.753	77.48
188.973	73.39
189.192	-37.2
189.412	13.99
189.631	-39.25
189.851	-8.53
190.07	67.24
190.29	3.75
190.509	50.86
190.729	46.76
190.948	30.38
191.168	34.47
191.387	87.72
191.607	28.33
191.826	-20.82
192.045	-63.83
192.265	16.04
192.484	24.23
192.704	1.71
192.923	-4.44
193.142	-31.06
193.362	32.43
193.581	65.19
193.8	-39.25
194.02	16.04
194.239	18.09
194.458	20.14
194.678	-6.49
194.897	-53.59
195.116	28.33
195.335	57
195.555	-2.39
195.774	-0.34
195.993	40.62
196.212	26.28
196.432	-35.16
196.651	22.19
196.87	-24.92
197.089	-16.73
197.308	52.91
197.528	-29.01
197.747	18.09
197.966	52.91
198.185	-35.16
198.404	-10.58
198.623	-8.53
198.842	61.1
199.062	30.38
199.281	-39.25
199.5	-20.82
199.719	-18.77
199.938	5.8
200.157	57
200.376	18.09
200.595	61.1
200.814	-57.68
201.033	28.33
201.252	59.05
201.471	-6.49
201.69	3.75
201.909	32.43
202.128	34.47
202.347	36.52
202.566	42.67
202.785	89.77
203.004	-20.82
203.223	46.76
203.442	30.38
203.661	-35.16
203.879	3.75
204.098	57
204.317	-61.78
204.536	-2.39
204.755	40.62
204.974	36.52
205.193	-31.06
205.411	67.24
205.63	30.38
205.849	-14.68
206.068	83.63
206.287	52.91
206.505	20.14
206.724	26.28
206.943	-14.68
207.162	-6.49
207.381	-74.07
207.599	46.76
207.818	-57.68
208.037	16.04
208.255	-57.68
208.474	108.2
208.693	67.24
208.911	34.47
209.13	36.52
209.349	57
209.567	5.8
209.786	11.95
210.005	22.19
210.223	114.34
210.442	26.28
210.661	22.19
210.879	61.1
211.098	7.85
211.316	-41.3
211.535	-8.53
211.753	48.81
211.972	11.95
212.191	3.75
212.409	50.86
212.628	-2.39
212.846	71.34
213.065	3.75
213.283	93.87
213.502	-6.49
213.72	26.28
213.938	-10.58
214.157	13.99
214.375	40.62
214.594	1.71
214.812	42.67
215.031	-29.01
215.249	11.95
215.467	20.14
215.686	42.67
215.904	34.47
216.122	-6.49
216.341	83.63
216.559	91.82
216.778	75.43
216.996	-41.3
217.214	5.8
217.432	18.09
217.651	20.14
217.869	16.04
218.087	30.38
218.306	28.33
218.524	-20.82
218.742	24.23
218.96	-10.58
219.179	-12.63
219.397	44.71
219.615	89.77
219.833	34.47
220.051	-45.4
220.27	-8.53
220.488	30.38
220.706	28.33
220.924	9.9
221.142	59.05
221.36	-26.96
221.578	28.33
221.796	20.14
222.015	75.43
222.233	83.63
222.451	-6.49
222.669	36.52
222.887	42.67
223.105	-12.63
223.323	30.38
223.541	18.09
223.759	-57.68
223.977	22.19
224.195	44.71
224.413	50.86
224.631	-20.82
224.849	13.99
225.067	85.67
225.285	1.71
225.503	-24.92
225.721	1.71
225.939	-51.54
226.157	46.76
226.375	-16.73
226.592	-22.87
226.81	65.19
227.028	26.28
227.246	32.43
227.464	-4.44
227.682	59.05
227.9	63.15
228.117	32.43
228.335	-8.53
228.553	-10.58
228.771	7.85
228.989	81.58
229.206	120.49
229.424	-31.06
229.642	50.86
229.86	54.95
230.077	52.91
230.295	30.38
230.513	9.9
230.731	100.01
230.948	36.52
231.166	44.71
231.384	-6.49
231.601	7.85
231.819	-16.73
232.037	-35.16
232.254	-65.88
232.472	42.67
232.689	38.57
232.907	44.71
233.125	30.38
233.342	18.09
233.56	48.81
233.777	26.28
233.995	-12.63
234.213	38.57
234.43	34.47
234.648	13.99
234.865	-22.87
235.083	89.77
235.3	13.99
235.518	-49.49
235.735	34.47
235.953	40.62
236.17	42.67
236.388	42.67
236.605	42.67
236.822	91.82
237.04	79.53
237.257	-53.59
237.475	-16.73
237.692	-0.34
237.909	102.06
238.127	20.14
238.344	28.33
238.562	-45.4
238.779	-4.44
238.996	69.29
239.214	1.71
239.431	36.52
239.648	26.28
239.865	28.33
240.083	-6.49
240.3	-35.16
240.517	-6.49
240.735	-2.39
240.952	-33.11
241.169	13.99
241.386	22.19
241.603	18.09
241.821	-29.01
242.038	20.14
242.255	40.62
242.472	18.09
242.689	-4.44
242.907	-12.63
243.124	-57.68
243.341	24.23
243.558	9.9
243.775	24.23
243.992	83.63
244.209	59.05
244.426	-0.34
244.643	5.8
244.86	26.28
245.078	95.91
245.295	28.33
245.512	-0.34
245.729	-12.63
245.946	-20.82
246.163	13.99
246.38	69.29
246.597	13.99
246.814	34.47
247.031	18.09
247.248	46.76
247.464	-33.11
247.681	13.99
247.898	46.76
248.115	100.01
248.332	22.19
248.549	26.28
248.766	20.14
248.983	50.86
249.2	59.05
249.417	61.1
249.633	3.75
249.85	40.62
250.067	34.47
250.284	20.14
250.501	-10.58
250.717	-10.58
250.934	57
251.151	81.58
251.368	-22.87
251.585	54.95
251.801	-37.2
252.018	42.67
252.235	-6.49
252.451	26.28
252.668	3.75
252.885	36.52
253.102	13.99
253.318	13.99
253.535	3.75
253.752	-14.68
253.968	48.81
254.185	-16.73
254.401	61.1
254.618	-12.63
254.835	-10.58
255.051	-10.58
255.268	-16.73
255.484	-18.77
255.701	-18.77
255.917	52.91
256.134	38.57
256.351	48.81
256.567	13.99
256.784	-31.06
257	30.38
257.217	52.91
257.433	1.71
257.65	-31.06
257.866	16.04
258.082	-0.34
258.299	36.52
258.515	11.95
258.732	-49.49
258.948	-0.34
259.165	18.09
259.381	79.53
259.597	26.28
259.814	28.33
260.03	-29.01
260.246	59.05
260.463	63.15
260.679	22.19
260.895	83.63
261.112	40.62
261.328	3.75
261.544	24.23
261.761	87.72
261.977	73.39
262.193	9.9
262.409	46.76
262.626	54.95
262.842	-55.64
263.058	-86.36
263.274	79.53
263.49	26.28
263.707	-12.63
263.923	-16.73
264.139	-6.49
264.355	91.82
264.571	114.34
264.787	34.47
265.004	46.76
265.22	-26.96
265.436	11.95
265.652	-41.3
265.868	26.28
266.084	-2.39
266.3	36.52
266.516	18.09
266.732	69.29
266.948	20.14
267.164	-29.01
267.38	30.38
267.596	-12.63
267.812	54.95
268.028	110.25
268.244	-2.39
268.46	54.95
268.676	-29.01
268.892	59.05
269.108	50.86
269.324	67.24
269.54	-10.58
269.756	71.34
269.972	-41.3
270.188	79.53
270.403	9.9
270.619	44.71
270.835	34.47
271.051	50.86
271.267	16.04
271.483	7.85
271.698	34.47
271.914	26.28
272.13	-10.58
272.346	63.15
272.562	36.52
272.777	11.95
272.993	38.57
273.209	30.38
273.425	5.8
273.64	28.33
273.856	28.33
274.072	91.82
274.287	-22.87
274.503	24.23
274.719	9.9
274.934	50.86
275.15	-6.49
275.366	-18.77
275.581	32.43
275.797	32.43
276.012	3.75
276.228	36.52
276.444	-39.25
276.659	-65.88
276.875	52.91
277.09	42.67
277.306	16.04
277.521	18.09
277.737	-37.2
277.952	11.95
278.168	-12.63
278.383	46.76
278.599	13.99
278.814	7.85
279.03	-0.34
279.245	65.19
279.461	73.39
279.676	69.29
279.892	-6.49
280.107	40.62
280.322	40.62
280.538	102.06
280.753	-12.63
280.969	-29.01
281.184	-47.44
281.399	69.29
281.615	20.14
281.83	34.47
282.045	-41.3
282.26	40.62
282.476	30.38
282.691	-0.34
282.906	48.81
283.122	-39.25
283.337	26.28
283.552	48.81
283.767	13.99
283.983	-0.34
284.198	40.62
284.413	24.23
284.628	9.9
284.843	18.09
285.058	65.19
285.274	3.75
285.489	-12.63
285.704	-20.82
285.919	-22.87
286.134	57
286.349	54.95
286.564	-6.49
286.779	20.14
286.995	24.23
287.21	20.14
287.425	20.14
287.64	18.09
287.855	34.47
288.07	28.33
288.285	57
288.5	28.33
288.715	7.85
288.93	18.09
289.145	16.04
289.36	11.95
289.575	-29.01
289.79	20.14
290.004	30.38
290.219	59.05
290.434	50.86
290.649	52.91
290.864	54.95
291.079	79.53
291.294	120.49
291.509	36.52
291.724	67.24
291.938	26.28
292.153	13.99
292.368	71.34
292.583	40.62
292.798	28.33
293.012	22.19
293.227	-74.07
293.442	34.47
293.657	-20.82
293.871	69.29
294.086	-20.82
294.301	61.1
294.516	-63.83
294.73	30.38
294.945	1.71
295.16	-0.34
295.374	34.47
295.589	24.23
295.804	-24.92
296.018	-16.73
296.233	-33.11
296.447	75.43
296.662	95.91
296.877	54.95
297.091	-0.34
297.306	30.38
297.52	26.28
297.735	95.91
297.949	73.39
298.164	3.75
298.378	-10.58
298.593	81.58
298.807	22.19
299.022	9.9
299.236	52.91
299.451	52.91
299.665	91.82
299.88	32.43
300.094	71.34
300.309	-2.39
300.523	-4.44
300.737	18.09
300.952	44.71
301.166	30.38
301.381	36.52
301.595	32.43
301.809	13.99
302.024	42.67
302.238	-41.3
302.452	32.43
302.667	32.43
302.881	34.47
303.095	73.39
303.309	54.95
303.524	-67.92
303.738	-8.53
303.952	54.95
304.166	69.29
304.381	-29.01
304.595	67.24
304.809	54.95
305.023	5.8
305.237	71.34
305.452	20.14
305.666	-31.06
305.88	32.43
306.094	13.99
306.308	91.82
306.522	-0.34
306.736	36.52
306.95	87.72
307.164	32.43
307.379	20.14
307.593	13.99
307.807	63.15
308.021	63.15
308.235	67.24
308.449	36.52
308.663	-22.87
308.877	126.63
309.091	57
309.305	67.24
309.519	16.04
309.733	65.19
309.947	11.95
310.161	-51.54
310.374	38.57
310.588	16.04
310.802	-72.02
311.016	30.38
311.23	5.8
311.444	18.09
311.658	13.99
311.872	26.28
312.085	59.05
312.299	71.34
312.513	-4.44
312.727	32.43
312.941	-8.53
313.154	52.91
313.368	7.85
313.582	-12.63
313.796	50.86
314.009	1.71
314.223	-14.68
314.437	5.8
314.651	73.39
314.864	30.38
315.078	50.86
315.292	3.75
315.505	44.71
315.719	-0.34
315.933	-0.34
316.146	67.24
316.36	36.52
316.573	-20.82
316.787	26.28
317.001	16.04
317.214	-16.73
317.428	-29.01
317.641	-2.39
317.855	52.91
318.068	-33.11
318.282	-35.16
318.495	50.86
318.709	42.67
318.922	48.81
319.136	20.14
319.349	-0.34
319.563	67.24
319.776	24.23
319.99	-59.73
320.203	-31.06
320.417	46.76
320.63	-39.25
320.843	91.82
321.057	32.43
321.27	61.1
321.483	59.05
321.697	-49.49
321.91	-8.53
322.124	22.19
322.337	50.86
322.55	13.99
322.763	9.9
322.977	93.87
323.19	36.52
323.403	30.38
323.617	42.67
323.83	67.24
324.043	-88.4
324.256	30.38
324.469	50.86
324.683	85.67
324.896	32.43
325.109	71.34
325.322	-37.2
325.535	36.52
325.748	-39.25
325.962	42.67
326.175	-6.49
326.388	22.19
326.601	20.14
326.814	-20.82
327.027	46.76
327.24	89.77
327.453	-10.58
327.666	22.19
327.879	57
328.092	24.23
328.305	42.67
328.518	3.75
328.731	-33.11
328.944	20.14
329.157	-33.11
329.37	18.09
329.583	-12.63
329.796	52.91
330.009	22.19
330.222	91.82
330.435	75.43
330.648	20.14
330.861	18.09
331.073	3.75
331.286	-31.06
331.499	71.34
331.712	-53.59
331.925	52.91
332.138	-16.73
332.35	57
332.563	7.85
332.776	-20.82
332.989	65.19
333.202	83.63
333.414	16.04
333.627	28.33
333.84	13.99
334.053	65.19
334.265	16.04
334.478	7.85
334.691	28.33
334.903	61.1
335.116	24.23
335.329	-8.53
335.541	16.04
335.754	112.3
335.966	73.39
336.179	34.47
336.392	20.14
336.604	-37.2
336.817	16.04
337.029	42.67
337.242	22.19
337.454	81.58
337.667	22.19
337.88	32.43
338.092	20.14
338.305	-14.68
338.517	-29.01
338.729	95.91
338.942	126.63
339.154	26.28
339.367	-63.83
339.579	48.81
339.792	36.52
340.004	59.05
340.217	32.43
340.429	-12.63
340.641	18.09
340.854	38.57
341.066	42.67
341.278	59.05
341.491	1.71
341.703	-6.49
341.915	95.91
342.128	28.33
342.34	-33.11
342.552	91.82
342.764	54.95
342.977	34.47
343.189	20.14
343.401	38.57
343.613	-8.53
343.826	57
344.038	48.81
344.25	116.39
344.462	87.72
344.674	59.05
344.886	-45.4
345.099	65.19
345.311	-4.44
345.523	67.24
345.735	-18.77
345.947	32.43
346.159	40.62
346.371	-69.97
346.583	28.33
346.795	52.91
347.007	28.33
347.219	46.76
347.431	54.95
347.643	145.06
347.855	34.47
348.067	79.53
348.279	5.8
348.491	52.91
348.703	1.71
348.915	36.52
349.127	-65.88
349.339	-10.58
349.551	30.38
349.763	36.52
349.975	59.05
350.187	63.15
350.399	69.29
350.61	79.53
350.822	-53.59
351.034	38.57
351.246	30.38
351.458	38.57
351.669	-8.53
351.881	65.19
352.093	-2.39
352.305	79.53
352.517	22.19
352.728	100.01
352.94	36.52
353.152	-18.77
353.363	-16.73
353.575	42.67
353.787	42.67
353.999	9.9
354.21	77.48
354.422	16.04
354.633	-4.44
354.845	11.95
355.057	48.81
355.268	124.58
355.48	-12.63
355.692	13.99
355.903	61.1
356.115	52.91
356.326	-0.34
356.538	44.71
356.749	34.47
356.961	48.81
357.172	36.52
357.384	-2.39
357.595	87.72
357.807	-0.34
358.018	-0.34
358.23	22.19
358.441	59.05
358.653	-41.3
358.864	26.28
359.075	-10.58
359.287	81.58
359.498	87.72
359.709	18.09
359.921	81.58
360.132	-53.59
360.344	75.43
360.555	-47.44
360.766	77.48
360.977	-49.49
361.189	1.71
361.4	1.71
361.611	48.81
361.823	81.58
362.034	-22.87
362.245	26.28
362.456	52.91
362.667	5.8
362.879	36.52
363.09	16.04
363.301	-4.44
363.512	22.19
363.723	52.91
363.935	67.24
364.146	36.52
364.357	5.8
364.568	65.19
364.779	20.14
364.99	97.96
365.201	75.43
365.412	65.19
365.623	30.38
365.834	54.95
366.045	-29.01
366.256	7.85
366.467	-45.4
366.678	59.05
366.889	1.71
367.1	40.62
367.311	-10.58
367.522	77.48
367.733	61.1
367.944	50.86
368.155	-26.96
368.366	67.24
368.577	50.86
368.788	50.86
368.999	-16.73
369.209	30.38
369.42	7.85
369.631	52.91
369.842	7.85
370.053	42.67
370.264	13.99
370.474	-31.06
370.685	-55.64
370.896	42.67
371.107	50.86
371.317	18.09
371.528	46.76
371.739	40.62
371.95	30.38
372.16	69.29
372.371	3.75
372.582	20.14
372.792	61.1
373.003	-29.01
373.214	16.04
373.424	-6.49
373.635	9.9
373.846	106.15
374.056	22.19
374.267	52.91
374.477	24.23
374.688	59.05
374.898	-4.44
375.109	40.62
375.319	65.19
375.53	16.04
375.74	81.58
375.951	61.1
376.161	46.76
376.372	40.62
376.582	42.67
376.793	44.71
377.003	-18.77
377.214	-39.25
377.424	-22.87
377.635	59.05
377.845	48.81
378.055	42.67
378.266	-53.59
378.476	42.67
378.686	-0.34
378.897	54.95
379.107	-0.34
379.317	108.2
379.528	24.23
379.738	-12.63
379.948	13.99
380.158	-24.92
380.369	5.8
380.579	102.06
380.789	34.47
380.999	57
381.21	79.53
381.42	73.39
381.63	106.15
381.84	79.53
382.05	3.75
382.261	11.95
382.471	40.62
382.681	71.34
382.891	73.39
383.101	-6.49
383.311	13.99
383.521	61.1
383.731	54.95
383.941	3.75
384.151	-18.77
384.361	-33.11
384.571	38.57
384.781	52.91
384.991	85.67
385.201	65.19
385.411	61.1
385.621	36.52
385.831	22.19
386.041	44.71
386.251	50.86
386.461	40.62
386.671	16.04
386.881	7.85
387.091	50.86
387.301	67.24
387.511	50.86
387.72	16.04
387.93	61.1
388.14	67.24
388.35	-12.63
388.56	7.85
388.769	91.82
388.979	13.99
389.189	75.43
389.399	75.43
389.609	52.91
389.818	40.62
390.028	9.9
390.238	77.48
390.447	28.33
390.657	100.01
390.867	54.95
391.076	61.1
391.286	18.09
391.496	1.71
391.705	67.24
391.915	44.71
392.125	73.39
392.334	38.57
392.544	57
392.753	50.86
392.963	-29.01
393.172	40.62
393.382	42.67
393.591	52.91
393.801	24.23
394.01	171.69
394.22	20.14
394.429	73.39
394.639	-14.68
394.848	52.91
395.058	102.06
395.267	26.28
395.477	65.19
395.686	97.96
395.895	91.82
396.105	30.38
396.314	38.57
396.524	54.95
396.733	1.71
396.942	32.43
397.152	89.77
397.361	11.95
397.57	52.91
397.78	134.82
397.989	52.91
398.198	132.78
398.407	-6.49
398.617	36.52
398.826	93.87
399.035	69.29
399.244	61.1
399.453	65.19
399.663	63.15
399.872	151.21
400.081	52.91
400.29	1.71
400.499	44.71
400.708	87.72
400.917	100.01
401.127	-0.34
401.336	11.95
401.545	75.43
401.754	1.71
401.963	100.01
402.172	102.06
402.381	22.19
402.59	20.14
402.799	81.58
403.008	59.05
403.217	63.15
403.426	102.06
403.635	44.71
403.844	42.67
404.053	110.25
404.262	83.63
404.471	124.58
404.68	36.52
404.888	157.35
405.097	116.39
405.306	32.43
405.515	100.01
405.724	114.34
405.933	89.77
406.142	75.43
406.35	126.63
406.559	128.68
406.768	77.48
406.977	128.68
407.185	28.33
407.394	149.16
407.603	138.92
407.812	126.63
408.02	118.44
408.229	147.11
408.438	89.77
408.646	171.69
408.855	134.82
409.064	97.96
409.272	159.4
409.481	130.73
409.69	186.02
409.898	165.54
410.107	138.92
410.315	204.46
410.524	140.97
410.733	165.54
410.941	145.06
411.15	194.22
411.358	181.93
411.567	300.71
411.775	214.7
411.984	192.17
412.192	165.54
412.401	132.78
412.609	194.22
412.818	241.32
413.026	169.64
413.234	298.66
413.443	249.51
413.651	341.67
413.86	196.26
414.068	310.95
414.276	284.33
414.485	353.96
414.693	343.72
414.901	380.58
415.11	304.81
415.318	310.95
415.526	386.72
415.734	358.05
415.943	474.79
416.151	378.53
416.359	415.4
416.567	480.93
416.776	413.35
416.984	566.95
417.192	474.79
417.4	493.22
417.608	429.73
417.817	564.9
418.025	525.99
418.233	550.56
418.441	523.94
418.649	614.05
418.857	595.62
419.065	612
419.273	644.77
419.481	671.39
419.689	657.06
419.897	687.78
420.105	667.3
420.313	755.36
420.521	822.94
420.729	798.37
420.937	865.95
421.145	872.09
421.353	892.57
421.561	925.34
421.769	935.58
421.977	1074.84
422.185	935.58
422.393	1121.95
422.601	1160.86
422.809	1027.74
423.017	1109.66
423.224	1228.44
423.432	1136.28
423.64	1248.92
423.848	1298.07
424.056	1314.45
424.263	1386.13
424.471	1429.14
424.679	1367.7
424.887	1496.72
425.094	1492.63
425.302	1552.02
425.51	1701.52
425.718	1676.95
425.925	1541.78
426.133	1676.95
426.341	1795.73
426.548	1824.4
426.756	1859.21
426.964	1879.69
427.171	1992.33
427.379	2086.54
427.586	2057.87
427.794	2154.12
428.001	2270.86
428.209	2422.41
428.417	2346.63
428.624	2594.44
428.832	2510.47
429.039	2461.32
429.247	2397.83
429.454	2801.28
429.662	2901.63
429.869	2721.41
430.076	2985.6
430.284	2844.29
430.491	2963.07
430.699	3147.39
430.906	3071.61
431.114	3165.82
431.321	3266.17
431.528	3270.26
431.736	3636.85
431.943	3597.94
432.15	3647.09
432.358	3649.14
432.565	3798.64
432.772	3868.27
432.979	3991.15
433.187	4093.55
433.394	4179.56
433.601	4427.37
433.808	4441.7
434.016	4374.12
434.223	4695.65
434.43	4898.4
434.637	4752.99
434.844	5082.72
435.052	5164.64
435.259	5092.96
435.466	5299.8
435.673	5236.31
435.88	5596.76
436.087	5803.6
436.294	5967.44
436.501	5723.73
436.708	5922.38
436.915	5944.91
437.122	6327.88
437.329	6331.98
437.537	6340.17
437.743	6534.73
437.95	6585.93
438.157	6764.1
438.364	7044.67
438.571	6852.16
438.778	7075.39
438.985	7706.17
439.192	7482.94
439.399	7712.31
439.606	7568.95
439.813	7824.95
440.02	8437.29
440.227	8384.04
440.433	8031.79
440.64	8531.5
440.847	8345.13
441.054	8703.53
441.261	8992.29
441.467	9164.32
441.674	9367.07
441.881	9817.62
442.088	9461.27
442.294	9768.47
442.501	9889.3
442.708	10176.02
442.914	10266.13
443.121	10845.7
443.328	10581.51
443.534	11169.28
443.741	11107.84
443.948	10937.86
444.154	11517.43
444.361	11496.96
444.568	11685.37
444.774	11820.53
444.981	11838.97
445.187	12101.11
445.394	12670.44
445.6	12428.78
445.807	13987.29
446.013	13008.36
446.22	13180.39
446.426	13946.33
446.633	13938.13
446.839	14618.06
447.046	13766.1
447.252	14499.28
447.459	14788.04
447.665	14781.9
447.871	15424.96
448.078	16356.79
448.284	15029.7
448.491	15773.11
448.697	16496.05
448.903	16692.65
449.11	16586.16
449.316	16281.01
449.522	16952.74
449.728	17026.47
449.935	17065.38
450.141	17202.6
450.347	17622.43
450.553	17016.23
450.76	17343.91
450.966	17905.05
451.172	17884.57
451.378	18222.48
451.584	17692.06
451.791	18386.32
451.997	18015.64
452.203	18496.91
452.409	18398.61
452.615	18552.21
452.821	17868.19
453.027	17589.66
453.233	18521.49
453.44	17796.51
453.646	18040.22
453.852	18236.82
454.058	18146.71
454.264	17524.13
454.47	18333.07
454.676	17929.63
454.882	18222.48
455.088	16774.57
455.294	16729.52
455.5	17427.87
455.705	17546.65
455.911	16852.39
456.117	16448.94
456.323	16172.47
456.529	15517.12
456.735	16029.11
456.941	15818.17
457.147	15412.67
457.352	15001.03
457.558	14710.22
457.764	14853.58
457.97	14400.97
458.176	14132.69
458.381	14251.47
458.587	13522.4
458.793	13403.61
458.999	12887.53
459.204	13829.59
459.41	13413.85
459.616	12449.26
459.821	12774.89
460.027	12572.14
460.233	12107.25
460.438	11685.37
460.644	11808.25
460.85	11263.49
461.055	10876.42
461.261	11267.58
461.466	10159.63
461.672	9891.35
461.878	10722.82
462.083	9975.31
462.289	9711.13
462.494	9764.37
462.7	9217.57
462.905	8883.75
463.111	9256.48
463.316	9416.22
463.522	9178.65
463.727	9266.72
463.932	9205.28
464.138	9184.8
464.343	9133.6
464.549	8996.39
464.754	9111.07
464.959	8980
465.165	9137.7
465.37	8482.35
465.575	8263.21
465.781	8861.22
465.986	8873.51
466.191	8613.42
466.397	8304.17
466.602	8015.41
466.807	8076.85
467.012	8302.12
467.218	8470.06
467.423	8103.47
467.628	8351.28
467.833	8435.24
468.038	8269.36
468.244	8093.23
468.449	8341.04
468.654	7931.44
468.859	8123.95
