Data from USB4F104151__19__12-53-22-827.txt Node

Date: Fri Mar 14 12:53:22 EDT 2025
User: louis
Spectrometer: USB4F10415
Trigger mode: 4
Integration Time (sec): 1.000000E-2
Scans to average: 1
Electric dark correction enabled: true
Nonlinearity correction enabled: false
Boxcar width: 0
XAxis mode: Wavelengths
Number of Pixels in Spectrum: 3648
>>>>>Begin Spectral Data<<<<<
178.204	8.87
178.424	8.87
178.644	8.87
178.864	-11.61
179.084	-44.37
179.304	29.35
179.524	-1.37
179.744	-25.94
179.964	-1.37
180.184	53.93
180.404	-40.28
180.624	0.68
180.844	-25.94
181.064	-40.28
181.283	55.98
181.503	2.73
181.723	-7.51
181.943	39.59
182.163	43.69
182.383	41.64
182.602	-34.13
182.822	12.97
183.042	29.35
183.262	2.73
183.482	-58.71
183.701	-32.08
183.921	-9.56
184.141	-3.41
184.361	2.73
184.58	23.21
184.8	10.92
185.02	6.83
185.239	15.02
185.459	-1.37
185.679	-11.61
185.898	-17.75
186.118	-5.46
186.338	-1.37
186.557	76.46
186.777	-25.94
186.997	15.02
187.216	45.74
187.436	27.31
187.655	-25.94
187.875	78.51
188.095	-3.41
188.314	31.4
188.534	21.16
188.753	31.4
188.973	43.69
189.192	29.35
189.412	45.74
189.631	0.68
189.851	35.5
190.07	-7.51
190.29	15.02
190.509	17.07
190.729	-23.89
190.948	-36.18
191.168	78.51
191.387	2.73
191.607	-1.37
191.826	62.12
192.045	-23.89
192.265	-9.56
192.484	-7.51
192.704	-75.09
192.923	-1.37
193.142	2.73
193.362	17.07
193.581	90.79
193.8	-11.61
194.02	19.11
194.239	-9.56
194.458	41.64
194.678	-77.14
194.897	-7.51
195.116	8.87
195.335	53.93
195.555	-25.94
195.774	68.27
195.993	43.69
196.212	2.73
196.432	0.68
196.651	27.31
196.87	113.32
197.089	12.97
197.308	-25.94
197.528	74.41
197.747	-11.61
197.966	21.16
198.185	45.74
198.404	55.98
198.623	45.74
198.842	64.17
199.062	51.88
199.281	15.02
199.5	37.55
199.719	123.56
199.938	-46.42
200.157	25.26
200.376	43.69
200.595	82.6
200.814	25.26
201.033	-13.65
201.252	23.21
201.471	62.12
201.69	-19.8
201.909	6.83
202.128	-27.99
202.347	10.92
202.566	-17.75
202.785	-9.56
203.004	-30.04
203.223	4.78
203.442	39.59
203.661	0.68
203.879	-5.46
204.098	-1.37
204.317	-9.56
204.536	105.13
204.755	51.88
204.974	27.31
205.193	25.26
205.411	35.5
205.63	-5.46
205.849	53.93
206.068	-3.41
206.287	21.16
206.505	-7.51
206.724	4.78
206.943	19.11
207.162	80.55
207.381	33.45
207.599	33.45
207.818	-64.85
208.037	17.07
208.255	-11.61
208.474	25.26
208.693	-17.75
208.911	51.88
209.13	41.64
209.349	-9.56
209.567	19.11
209.786	-34.13
210.005	10.92
210.223	17.07
210.442	-50.52
210.661	68.27
210.879	27.31
211.098	0.68
211.316	35.5
211.535	-9.56
211.753	10.92
211.972	-19.8
212.191	-75.09
212.409	-5.46
212.628	6.83
212.846	27.31
213.065	29.35
213.283	8.87
213.502	66.22
213.72	107.18
213.938	-3.41
214.157	-9.56
214.375	17.07
214.594	-13.65
214.812	39.59
215.031	-27.99
215.249	-27.99
215.467	4.78
215.686	-7.51
215.904	115.37
216.122	-15.7
216.341	12.97
216.559	23.21
216.778	-11.61
216.996	62.12
217.214	113.32
217.432	47.79
217.651	-52.56
217.869	8.87
218.087	58.03
218.306	64.17
218.524	12.97
218.742	43.69
218.96	-23.89
219.179	31.4
219.397	-46.42
219.615	23.21
219.833	-23.89
220.051	19.11
220.27	25.26
220.488	66.22
220.706	78.51
220.924	10.92
221.142	72.36
221.36	-5.46
221.578	8.87
221.796	62.12
222.015	-5.46
222.233	45.74
222.451	17.07
222.669	-50.52
222.887	-36.18
223.105	15.02
223.323	23.21
223.541	115.37
223.759	25.26
223.977	-13.65
224.195	21.16
224.413	-71
224.631	37.55
224.849	72.36
225.067	101.03
225.285	17.07
225.503	19.11
225.721	10.92
225.939	49.83
226.157	-85.33
226.375	45.74
226.592	-5.46
226.81	15.02
227.028	10.92
227.246	80.55
227.464	23.21
227.682	107.18
227.9	-9.56
228.117	0.68
228.335	49.83
228.553	66.22
228.771	58.03
228.989	82.6
229.206	-9.56
229.424	76.46
229.642	29.35
229.86	66.22
230.077	29.35
230.295	123.56
230.513	12.97
230.731	-23.89
230.948	29.35
231.166	53.93
231.384	0.68
231.601	53.93
231.819	37.55
232.037	6.83
232.254	29.35
232.472	51.88
232.689	15.02
232.907	-21.84
233.125	33.45
233.342	72.36
233.56	15.02
233.777	31.4
233.995	25.26
234.213	49.83
234.43	-48.47
234.648	39.59
234.865	55.98
235.083	17.07
235.3	-36.18
235.518	51.88
235.735	23.21
235.953	-15.7
236.17	43.69
236.388	-11.61
236.605	0.68
236.822	6.83
237.04	96.94
237.257	41.64
237.475	-42.32
237.692	-52.56
237.909	29.35
238.127	2.73
238.344	33.45
238.562	41.64
238.779	15.02
238.996	60.07
239.214	12.97
239.431	12.97
239.648	-7.51
239.865	84.65
240.083	-21.84
240.3	-1.37
240.517	-50.52
240.735	21.16
240.952	27.31
241.169	-13.65
241.386	31.4
241.603	29.35
241.821	33.45
242.038	-3.41
242.255	-17.75
242.472	-30.04
242.689	-30.04
242.907	10.92
243.124	-5.46
243.341	19.11
243.558	35.5
243.775	4.78
243.992	43.69
244.209	-30.04
244.426	-11.61
244.643	-15.7
244.86	17.07
245.078	51.88
245.295	-32.08
245.512	12.97
245.729	12.97
245.946	49.83
246.163	25.26
246.38	33.45
246.597	80.55
246.814	2.73
247.031	47.79
247.248	-23.89
247.464	-19.8
247.681	17.07
247.898	35.5
248.115	23.21
248.332	8.87
248.549	23.21
248.766	2.73
248.983	27.31
249.2	-27.99
249.417	19.11
249.633	23.21
249.85	53.93
250.067	10.92
250.284	-21.84
250.501	0.68
250.717	45.74
250.934	-9.56
251.151	76.46
251.368	17.07
251.585	58.03
251.801	21.16
252.018	8.87
252.235	6.83
252.451	25.26
252.668	37.55
252.885	47.79
253.102	-46.42
253.318	-34.13
253.535	-1.37
253.752	45.74
253.968	-17.75
254.185	-17.75
254.401	15.02
254.618	-7.51
254.835	-23.89
255.051	25.26
255.268	76.46
255.484	70.31
255.701	92.84
255.917	53.93
256.134	10.92
256.351	43.69
256.567	25.26
256.784	-27.99
257	-15.7
257.217	8.87
257.433	-3.41
257.65	60.07
257.866	19.11
258.082	31.4
258.299	4.78
258.515	-21.84
258.732	8.87
258.948	15.02
259.165	12.97
259.381	-23.89
259.597	29.35
259.814	43.69
260.03	-1.37
260.246	39.59
260.463	-17.75
260.679	15.02
260.895	43.69
261.112	-15.7
261.328	4.78
261.544	43.69
261.761	25.26
261.977	60.07
262.193	0.68
262.409	8.87
262.626	17.07
262.842	-17.75
263.058	37.55
263.274	4.78
263.49	74.41
263.707	70.31
263.923	25.26
264.139	17.07
264.355	-1.37
264.571	70.31
264.787	-32.08
265.004	58.03
265.22	-79.19
265.436	-7.51
265.652	4.78
265.868	49.83
266.084	-46.42
266.3	25.26
266.516	41.64
266.732	33.45
266.948	-15.7
267.164	51.88
267.38	60.07
267.596	-38.23
267.812	29.35
268.028	2.73
268.244	4.78
268.46	19.11
268.676	37.55
268.892	29.35
269.108	49.83
269.324	15.02
269.54	64.17
269.756	6.83
269.972	55.98
270.188	66.22
270.403	-1.37
270.619	72.36
270.835	-13.65
271.051	-11.61
271.267	29.35
271.483	33.45
271.698	-1.37
271.914	70.31
272.13	37.55
272.346	12.97
272.562	43.69
272.777	-3.41
272.993	4.78
273.209	43.69
273.425	25.26
273.64	-40.28
273.856	-9.56
274.072	41.64
274.287	8.87
274.503	19.11
274.719	29.35
274.934	21.16
275.15	82.6
275.366	25.26
275.581	-13.65
275.797	105.13
276.012	25.26
276.228	12.97
276.444	27.31
276.659	15.02
276.875	43.69
277.09	-44.37
277.306	37.55
277.521	29.35
277.737	-15.7
277.952	-25.94
278.168	-3.41
278.383	6.83
278.599	35.5
278.814	17.07
279.03	-11.61
279.245	64.17
279.461	31.4
279.676	-23.89
279.892	47.79
280.107	62.12
280.322	-52.56
280.538	39.59
280.753	-46.42
280.969	109.23
281.184	-27.99
281.399	27.31
281.615	29.35
281.83	25.26
282.045	0.68
282.26	0.68
282.476	27.31
282.691	31.4
282.906	-38.23
283.122	-5.46
283.337	-17.75
283.552	-1.37
283.767	-9.56
283.983	53.93
284.198	35.5
284.413	15.02
284.628	8.87
284.843	19.11
285.058	25.26
285.274	-9.56
285.489	21.16
285.704	8.87
285.919	-60.76
286.134	-17.75
286.349	72.36
286.564	25.26
286.779	21.16
286.995	37.55
287.21	37.55
287.425	39.59
287.64	-1.37
287.855	21.16
288.07	53.93
288.285	47.79
288.5	43.69
288.715	47.79
288.93	-1.37
289.145	27.31
289.36	33.45
289.575	47.79
289.79	-13.65
290.004	-32.08
290.219	55.98
290.434	-21.84
290.649	39.59
290.864	33.45
291.079	31.4
291.294	29.35
291.509	31.4
291.724	21.16
291.938	-25.94
292.153	55.98
292.368	4.78
292.583	-25.94
292.798	-34.13
293.012	0.68
293.227	133.8
293.442	-48.47
293.657	-17.75
293.871	58.03
294.086	15.02
294.301	82.6
294.516	55.98
294.73	66.22
294.945	8.87
295.16	33.45
295.374	-32.08
295.589	35.5
295.804	47.79
296.018	39.59
296.233	-34.13
296.447	-3.41
296.662	0.68
296.877	55.98
297.091	-1.37
297.306	64.17
297.52	31.4
297.735	15.02
297.949	-15.7
298.164	2.73
298.378	-5.46
298.593	35.5
298.807	31.4
299.022	68.27
299.236	58.03
299.451	64.17
299.665	19.11
299.88	47.79
300.094	51.88
300.309	37.55
300.523	55.98
300.737	-52.56
300.952	-3.41
301.166	39.59
301.381	-23.89
301.595	-25.94
301.809	-42.32
302.024	29.35
302.238	17.07
302.452	64.17
302.667	27.31
302.881	64.17
303.095	2.73
303.309	53.93
303.524	6.83
303.738	60.07
303.952	23.21
304.166	-13.65
304.381	51.88
304.595	17.07
304.809	-5.46
305.023	19.11
305.237	-46.42
305.452	23.21
305.666	45.74
305.88	23.21
306.094	23.21
306.308	-13.65
306.522	109.23
306.736	-3.41
306.95	47.79
307.164	6.83
307.379	-5.46
307.593	51.88
307.807	66.22
308.021	-71
308.235	15.02
308.449	2.73
308.663	-5.46
308.877	43.69
309.091	72.36
309.305	21.16
309.519	-21.84
309.733	66.22
309.947	2.73
310.161	90.79
310.374	8.87
310.588	55.98
310.802	12.97
311.016	39.59
311.23	51.88
311.444	55.98
311.658	-7.51
311.872	105.13
312.085	-13.65
312.299	76.46
312.513	-44.37
312.727	49.83
312.941	-36.18
313.154	47.79
313.368	8.87
313.582	123.56
313.796	-27.99
314.009	-48.47
314.223	53.93
314.437	47.79
314.651	-48.47
314.864	-21.84
315.078	-25.94
315.292	76.46
315.505	39.59
315.719	-7.51
315.933	47.79
316.146	17.07
316.36	39.59
316.573	82.6
316.787	-7.51
317.001	74.41
317.214	-58.71
317.428	58.03
317.641	6.83
317.855	10.92
318.068	51.88
318.282	41.64
318.495	45.74
318.709	41.64
318.922	29.35
319.136	0.68
319.349	35.5
319.563	55.98
319.776	10.92
319.99	29.35
320.203	25.26
320.417	72.36
320.63	-17.75
320.843	10.92
321.057	45.74
321.27	55.98
321.483	-25.94
321.697	15.02
321.91	-38.23
322.124	43.69
322.337	-30.04
322.55	19.11
322.763	15.02
322.977	49.83
323.19	-38.23
323.403	4.78
323.617	37.55
323.83	88.75
324.043	49.83
324.256	-9.56
324.469	-25.94
324.683	62.12
324.896	64.17
325.109	31.4
325.322	-44.37
325.535	-19.8
325.748	39.59
325.962	-19.8
326.175	39.59
326.388	12.97
326.601	37.55
326.814	41.64
327.027	33.45
327.24	47.79
327.453	21.16
327.666	82.6
327.879	-11.61
328.092	17.07
328.305	51.88
328.518	-34.13
328.731	27.31
328.944	8.87
329.157	25.26
329.37	88.75
329.583	23.21
329.796	58.03
330.009	27.31
330.222	-5.46
330.435	43.69
330.648	74.41
330.861	35.5
331.073	6.83
331.286	88.75
331.499	31.4
331.712	4.78
331.925	31.4
332.138	82.6
332.35	53.93
332.563	58.03
332.776	137.9
332.989	10.92
333.202	55.98
333.414	31.4
333.627	19.11
333.84	17.07
334.053	53.93
334.265	47.79
334.478	35.5
334.691	43.69
334.903	4.78
335.116	-7.51
335.329	-42.32
335.541	35.5
335.754	33.45
335.966	25.26
336.179	25.26
336.392	-3.41
336.604	-13.65
336.817	72.36
337.029	66.22
337.242	17.07
337.454	45.74
337.667	-7.51
337.88	25.26
338.092	45.74
338.305	21.16
338.517	12.97
338.729	47.79
338.942	88.75
339.154	4.78
339.367	47.79
339.579	58.03
339.792	21.16
340.004	-21.84
340.217	-40.28
340.429	68.27
340.641	23.21
340.854	68.27
341.066	4.78
341.278	90.79
341.491	-34.13
341.703	21.16
341.915	76.46
342.128	58.03
342.34	55.98
342.552	-9.56
342.764	-5.46
342.977	-34.13
343.189	31.4
343.401	58.03
343.613	88.75
343.826	84.65
344.038	27.31
344.25	45.74
344.462	-15.7
344.674	31.4
344.886	-7.51
345.099	-32.08
345.311	-11.61
345.523	82.6
345.735	6.83
345.947	23.21
346.159	66.22
346.371	66.22
346.583	12.97
346.795	41.64
347.007	-7.51
347.219	64.17
347.431	35.5
347.643	-25.94
347.855	37.55
348.067	-3.41
348.279	8.87
348.491	37.55
348.703	8.87
348.915	47.79
349.127	35.5
349.339	4.78
349.551	55.98
349.763	0.68
349.975	96.94
350.187	47.79
350.399	82.6
350.61	6.83
350.822	41.64
351.034	31.4
351.246	0.68
351.458	-73.04
351.669	70.31
351.881	25.26
352.093	-11.61
352.305	68.27
352.517	74.41
352.728	96.94
352.94	76.46
353.152	-7.51
353.363	-23.89
353.575	-17.75
353.787	0.68
353.999	58.03
354.21	33.45
354.422	74.41
354.633	17.07
354.845	39.59
355.057	21.16
355.268	-34.13
355.48	107.18
355.692	76.46
355.903	31.4
356.115	-9.56
356.326	66.22
356.538	-27.99
356.749	21.16
356.961	82.6
357.172	37.55
357.384	-13.65
357.595	62.12
357.807	84.65
358.018	12.97
358.23	23.21
358.441	25.26
358.653	49.83
358.864	49.83
359.075	4.78
359.287	15.02
359.498	19.11
359.709	88.75
359.921	64.17
360.132	-46.42
360.344	35.5
360.555	82.6
360.766	64.17
360.977	35.5
361.189	80.55
361.4	-40.28
361.611	39.59
361.823	0.68
362.034	-50.52
362.245	68.27
362.456	33.45
362.667	4.78
362.879	21.16
363.09	49.83
363.301	25.26
363.512	78.51
363.723	78.51
363.935	27.31
364.146	-9.56
364.357	72.36
364.568	-21.84
364.779	-40.28
364.99	31.4
365.201	21.16
365.412	58.03
365.623	-1.37
365.834	27.31
366.045	58.03
366.256	55.98
366.467	2.73
366.678	55.98
366.889	51.88
367.1	-3.41
367.311	27.31
367.522	86.7
367.733	21.16
367.944	35.5
368.155	21.16
368.366	55.98
368.577	62.12
368.788	60.07
368.999	6.83
369.209	-30.04
369.42	27.31
369.631	25.26
369.842	35.5
370.053	47.79
370.264	92.84
370.474	-21.84
370.685	82.6
370.896	78.51
371.107	78.51
371.317	62.12
371.528	84.65
371.739	-7.51
371.95	125.61
372.16	43.69
372.371	19.11
372.582	35.5
372.792	51.88
373.003	55.98
373.214	-7.51
373.424	60.07
373.635	25.26
373.846	6.83
374.056	68.27
374.267	0.68
374.477	80.55
374.688	-13.65
374.898	78.51
375.109	47.79
375.319	17.07
375.53	10.92
375.74	25.26
375.951	150.18
376.161	19.11
376.372	19.11
376.582	8.87
376.793	68.27
377.003	-17.75
377.214	74.41
377.424	35.5
377.635	-11.61
377.845	-11.61
378.055	23.21
378.266	-17.75
378.476	-11.61
378.686	8.87
378.897	49.83
379.107	33.45
379.317	55.98
379.528	-19.8
379.738	64.17
379.948	70.31
380.158	60.07
380.369	60.07
380.579	19.11
380.789	98.99
380.999	2.73
381.21	19.11
381.42	72.36
381.63	64.17
381.84	-58.71
382.05	21.16
382.261	47.79
382.471	6.83
382.681	45.74
382.891	25.26
383.101	53.93
383.311	-15.7
383.521	58.03
383.731	78.51
383.941	23.21
384.151	103.08
384.361	0.68
384.571	53.93
384.781	29.35
384.991	12.97
385.201	115.37
385.411	55.98
385.621	33.45
385.831	121.51
386.041	98.99
386.251	15.02
386.461	33.45
386.671	-9.56
386.881	113.32
387.091	-34.13
387.301	105.13
387.511	31.4
387.72	8.87
387.93	-54.61
388.14	35.5
388.35	41.64
388.56	111.27
388.769	98.99
388.979	-17.75
389.189	62.12
389.399	39.59
389.609	-11.61
389.818	53.93
390.028	39.59
390.238	33.45
390.447	-17.75
390.657	-7.51
390.867	47.79
391.076	88.75
391.286	72.36
391.496	80.55
391.705	19.11
391.915	-23.89
392.125	35.5
392.334	45.74
392.544	64.17
392.753	29.35
392.963	-30.04
393.172	2.73
393.382	12.97
393.591	37.55
393.801	33.45
394.01	35.5
394.22	6.83
394.429	66.22
394.639	37.55
394.848	41.64
395.058	55.98
395.267	62.12
395.477	45.74
395.686	47.79
395.895	35.5
396.105	33.45
396.314	82.6
396.524	35.5
396.733	25.26
396.942	58.03
397.152	21.16
397.361	94.89
397.57	78.51
397.78	4.78
397.989	76.46
398.198	-3.41
398.407	62.12
398.617	55.98
398.826	21.16
399.035	41.64
399.244	96.94
399.453	111.27
399.663	-1.37
399.872	115.37
400.081	8.87
400.29	115.37
400.499	-11.61
400.708	-46.42
400.917	43.69
401.127	55.98
401.336	4.78
401.545	74.41
401.754	76.46
401.963	53.93
402.172	21.16
402.381	35.5
402.59	94.89
402.799	103.08
403.008	60.07
403.217	41.64
403.426	41.64
403.635	31.4
403.844	101.03
404.053	-23.89
404.262	64.17
404.471	64.17
404.68	47.79
404.888	70.31
405.097	35.5
405.306	8.87
405.515	80.55
405.724	82.6
405.933	137.9
406.142	64.17
406.35	70.31
406.559	66.22
406.768	51.88
406.977	115.37
407.185	55.98
407.394	146.09
407.603	129.7
407.812	74.41
408.02	172.71
408.229	144.04
408.438	123.56
408.646	88.75
408.855	119.46
409.064	121.51
409.272	10.92
409.481	107.18
409.69	154.28
409.898	113.32
410.107	174.76
410.315	154.28
410.524	158.38
410.733	189.1
410.941	119.46
411.15	133.8
411.358	152.23
411.567	170.66
411.775	189.1
411.984	127.66
412.192	154.28
412.401	164.52
412.609	221.86
412.818	156.33
413.026	168.62
413.234	215.72
413.443	162.47
413.651	252.58
413.86	195.24
414.068	301.73
414.276	236.2
414.485	273.06
414.693	191.14
414.901	215.72
415.11	283.3
415.318	293.54
415.526	228.01
415.734	299.69
415.943	277.16
416.151	389.8
416.359	268.97
416.567	371.37
416.776	375.46
416.984	402.08
417.192	414.37
417.4	441
417.608	371.37
417.817	441
418.025	389.8
418.233	451.24
418.441	531.11
418.649	449.19
418.857	529.06
419.065	479.91
419.273	549.54
419.481	484
419.689	541.35
419.897	561.83
420.105	535.2
420.313	559.78
420.521	627.36
420.729	653.98
420.937	694.94
421.145	678.56
421.353	701.09
421.561	823.97
421.769	832.16
421.977	774.81
422.185	717.47
422.393	805.53
422.601	928.41
422.809	932.51
423.017	942.75
423.224	1012.38
423.432	1032.86
423.64	969.37
423.848	1098.39
424.056	996
424.263	1051.29
424.471	1055.39
424.679	1102.49
424.887	1180.31
425.094	1188.5
425.302	1282.71
425.51	1266.33
425.718	1309.33
425.925	1297.05
426.133	1417.88
426.341	1346.2
426.548	1538.71
426.756	1483.41
426.964	1573.52
427.171	1569.43
427.379	1692.3
427.586	1712.78
427.794	1720.98
428.001	1784.46
428.209	1837.71
428.417	1893.01
428.624	2118.28
428.832	2003.6
429.039	2026.12
429.247	2036.36
429.454	2253.45
429.662	2284.17
429.869	2214.54
430.076	2288.26
430.284	2171.53
430.491	2394.76
430.699	2521.73
430.906	2472.58
431.114	2544.26
431.321	2607.75
431.528	2617.99
431.736	2835.07
431.943	2820.74
432.15	2873.98
432.358	2933.37
432.565	3207.8
432.772	3164.79
432.979	3302.01
433.187	3093.12
433.394	3267.19
433.601	3537.52
433.808	3449.46
434.016	3545.72
434.223	3545.72
434.43	4018.8
434.637	3801.71
434.844	4039.28
435.052	4162.16
435.259	4110.96
435.466	4143.72
435.673	4160.11
435.88	4403.82
436.087	4608.61
436.294	4661.86
436.501	4504.17
436.708	4565.6
436.915	4702.82
437.122	5003.87
437.329	4844.13
437.537	5030.49
437.743	5134.94
437.95	5184.09
438.157	5380.7
438.364	5671.51
438.571	5571.16
438.778	5745.23
438.985	6013.52
439.192	5829.2
439.399	6175.31
439.606	6013.52
439.813	6269.51
440.02	6707.78
440.227	6634.05
440.433	6464.07
440.64	6693.44
440.847	6550.09
441.054	7062.08
441.261	7332.41
441.467	7365.18
441.674	7402.04
441.881	7641.65
442.088	7592.5
442.294	7676.47
442.501	7850.55
442.708	7998
442.914	8254
443.121	8665.64
443.328	8397.35
443.534	8952.35
443.741	8671.78
443.948	8616.49
444.154	9310.75
444.361	9353.76
444.568	9423.39
444.774	9345.56
444.981	9329.18
445.187	9685.53
445.394	10002.96
445.6	9880.08
445.807	10910.21
446.013	10107.41
446.22	10691.08
446.426	11258.37
446.633	11375.1
446.839	11268.61
447.046	10877.44
447.252	11753.98
447.459	11508.22
447.665	11639.29
447.871	12122.61
448.078	12640.75
448.284	12241.39
448.491	12546.54
448.697	12673.51
448.903	13179.36
449.11	13248.99
449.316	12728.81
449.522	13048.29
449.728	13572.57
449.935	13742.55
450.141	13689.31
450.347	14070.23
450.553	13541.85
450.76	13599.2
450.966	14227.92
451.172	13980.12
451.378	14293.46
451.584	14219.73
451.791	14494.16
451.997	14645.71
452.203	14809.54
452.409	14764.49
452.615	14657.99
452.821	13904.34
453.027	14025.17
453.233	14846.41
453.44	13922.77
453.646	14115.28
453.852	14320.08
454.058	14557.64
454.264	13836.76
454.47	14449.1
454.676	14014.93
454.882	14709.19
455.088	13226.46
455.294	13660.63
455.5	13599.2
455.705	13818.33
455.911	13277.66
456.117	13107.68
456.323	12929.51
456.529	12278.26
456.735	12667.37
456.941	12401.13
457.147	12114.42
457.352	11733.5
457.558	11903.48
457.764	11633.15
457.97	11651.58
458.176	11100.67
458.381	11418.11
458.587	10689.03
458.793	10773
458.999	10140.18
459.204	10928.64
459.41	10682.89
459.616	9724.44
459.821	9910.8
460.027	10029.59
460.233	9568.79
460.438	9202.21
460.644	9519.64
460.85	8987.17
461.055	8880.68
461.261	8788.52
461.466	8200.75
461.672	7963.19
461.878	8436.27
462.083	7873.07
462.289	7735.86
462.494	7643.7
462.7	7467.58
462.905	7262.78
463.111	7486.01
463.316	7514.68
463.522	7504.44
463.727	7506.49
463.932	7352.89
464.138	7262.78
464.343	7311.93
464.549	7086.65
464.754	7244.35
464.959	7326.27
465.165	7293.5
465.37	6949.44
465.575	6834.75
465.781	7017.02
465.986	7260.73
466.191	6818.37
466.397	6777.41
466.602	6421.06
466.807	6638.15
467.012	6582.85
467.218	6658.63
467.423	6515.27
467.628	6617.67
467.833	7043.65
468.038	6638.15
468.244	6521.42
468.449	6765.12
468.654	6363.72
468.859	6572.61
469.064	6333
469.269	6187.6
469.474	6281.8
469.679	6234.7
469.885	6267.47
