Data from USB4F104151__97__12-54-56-227.txt Node

Date: Fri Mar 14 12:54:56 EDT 2025
User: louis
Spectrometer: USB4F10415
Trigger mode: 4
Integration Time (sec): 1.000000E-2
Scans to average: 1
Electric dark correction enabled: true
Nonlinearity correction enabled: false
Boxcar width: 0
XAxis mode: Wavelengths
Number of Pixels in Spectrum: 3648
>>>>>Begin Spectral Data<<<<<
178.204	-36.52
178.424	-36.52
178.644	-36.52
178.864	-52.91
179.084	-44.71
179.304	-7.85
179.524	43.35
179.744	2.39
179.964	18.77
180.184	-52.91
180.404	20.82
180.624	20.82
180.844	-13.99
181.064	-5.8
181.283	-30.38
181.503	12.63
181.723	-7.85
181.943	-54.95
182.163	69.97
182.383	-16.04
182.602	2.39
182.822	-9.9
183.042	31.06
183.262	31.06
183.482	16.73
183.701	-52.91
183.921	-7.85
184.141	-83.63
184.361	29.01
184.58	29.01
184.8	39.25
185.02	-26.28
185.239	-30.38
185.459	-3.75
185.679	-42.67
185.898	-30.38
186.118	-18.09
186.338	-30.38
186.557	61.78
186.777	-50.86
186.997	0.34
187.216	31.06
187.436	-13.99
187.655	-34.47
187.875	33.11
188.095	-28.33
188.314	26.96
188.534	31.06
188.753	41.3
188.973	-11.95
189.192	67.92
189.412	-11.95
189.631	-28.33
189.851	43.35
190.07	26.96
190.29	10.58
190.509	2.39
190.729	-1.71
190.948	4.44
191.168	-28.33
191.387	8.53
191.607	-20.14
191.826	37.2
192.045	-28.33
192.265	33.11
192.484	43.35
192.704	-69.29
192.923	24.92
193.142	47.44
193.362	80.21
193.581	-1.71
193.8	-22.19
194.02	-7.85
194.239	8.53
194.458	-28.33
194.678	45.4
194.897	-30.38
195.116	35.16
195.335	-20.14
195.555	-7.85
195.774	29.01
195.993	6.49
196.212	20.82
196.432	-18.09
196.651	26.96
196.87	12.63
197.089	59.73
197.308	43.35
197.528	-9.9
197.747	-48.81
197.966	-1.71
198.185	55.64
198.404	-18.09
198.623	76.12
198.842	-63.15
199.062	18.77
199.281	22.87
199.5	29.01
199.719	-11.95
199.938	72.02
200.157	59.73
200.376	-42.67
200.595	-16.04
200.814	37.2
201.033	-83.63
201.252	51.54
201.471	-11.95
201.69	-22.19
201.909	-50.86
202.128	14.68
202.347	-54.95
202.566	8.53
202.785	55.64
203.004	-34.47
203.223	-36.52
203.442	-5.8
203.661	12.63
203.879	-9.9
204.098	-18.09
204.317	-9.9
204.536	4.44
204.755	-34.47
204.974	69.97
205.193	20.82
205.411	-9.9
205.63	12.63
205.849	2.39
206.068	-13.99
206.287	-46.76
206.505	-34.47
206.724	-16.04
206.943	-79.53
207.162	26.96
207.381	-71.34
207.599	-13.99
207.818	4.44
208.037	55.64
208.255	-38.57
208.474	37.2
208.693	31.06
208.911	20.82
209.13	-26.28
209.349	12.63
209.567	-18.09
209.786	2.39
210.005	-22.19
210.223	-7.85
210.442	4.44
210.661	-42.67
210.879	-30.38
211.098	-7.85
211.316	22.87
211.535	35.16
211.753	-30.38
211.972	67.92
212.191	-69.29
212.409	-16.04
212.628	33.11
212.846	-26.28
213.065	-13.99
213.283	8.53
213.502	26.96
213.72	51.54
213.938	-16.04
214.157	2.39
214.375	-50.86
214.594	-5.8
214.812	-28.33
215.031	51.54
215.249	-5.8
215.467	10.58
215.686	10.58
215.904	35.16
216.122	12.63
216.341	45.4
216.559	4.44
216.778	-7.85
216.996	72.02
217.214	8.53
217.432	59.73
217.651	-40.62
217.869	-9.9
218.087	-22.19
218.306	-22.19
218.524	4.44
218.742	-42.67
218.96	26.96
219.179	59.73
219.397	49.49
219.615	57.68
219.833	59.73
220.051	16.73
220.27	-3.75
220.488	-28.33
220.706	-3.75
220.924	-52.91
221.142	-16.04
221.36	22.87
221.578	-44.71
221.796	12.63
222.015	-42.67
222.233	-26.28
222.451	18.77
222.669	-22.19
222.887	10.58
223.105	-42.67
223.323	18.77
223.541	0.34
223.759	8.53
223.977	-54.95
224.195	-16.04
224.413	47.44
224.631	6.49
224.849	0.34
225.067	-18.09
225.285	-54.95
225.503	-28.33
225.721	22.87
225.939	12.63
226.157	16.73
226.375	53.59
226.592	-1.71
226.81	-63.15
227.028	12.63
227.246	47.44
227.464	6.49
227.682	26.96
227.9	-63.15
228.117	-30.38
228.335	14.68
228.553	2.39
228.771	14.68
228.989	-44.71
229.206	2.39
229.424	31.06
229.642	29.01
229.86	-32.43
230.077	20.82
230.295	-26.28
230.513	29.01
230.731	24.92
230.948	-46.76
231.166	20.82
231.384	-65.19
231.601	-30.38
231.819	-38.57
232.037	-48.81
232.254	39.25
232.472	-46.76
232.689	-11.95
232.907	10.58
233.125	-44.71
233.342	39.25
233.56	63.83
233.777	78.16
233.995	22.87
234.213	-32.43
234.43	-3.75
234.648	20.82
234.865	-13.99
235.083	-50.86
235.3	-46.76
235.518	-7.85
235.735	-7.85
235.953	-28.33
236.17	76.12
236.388	31.06
236.605	0.34
236.822	35.16
237.04	-48.81
237.257	12.63
237.475	-1.71
237.692	49.49
237.909	18.77
238.127	37.2
238.344	-24.23
238.562	22.87
238.779	-5.8
238.996	-42.67
239.214	-5.8
239.431	67.92
239.648	-73.39
239.865	35.16
240.083	-18.09
240.3	31.06
240.517	-48.81
240.735	-28.33
240.952	18.77
241.169	-7.85
241.386	-3.75
241.603	-32.43
241.821	-32.43
242.038	-3.75
242.255	-34.47
242.472	31.06
242.689	-13.99
242.907	-38.57
243.124	-85.67
243.341	-18.09
243.558	-24.23
243.775	-1.71
243.992	-61.1
244.209	6.49
244.426	-59.05
244.643	-38.57
244.86	-52.91
245.078	22.87
245.295	0.34
245.512	4.44
245.729	-5.8
245.946	-13.99
246.163	-44.71
246.38	6.49
246.597	0.34
246.814	-30.38
247.031	18.77
247.248	29.01
247.464	10.58
247.681	29.01
247.898	-20.14
248.115	59.73
248.332	-5.8
248.549	-22.19
248.766	22.87
248.983	35.16
249.2	24.92
249.417	-5.8
249.633	18.77
249.85	31.06
250.067	49.49
250.284	-42.67
250.501	-24.23
250.717	16.73
250.934	53.59
251.151	20.82
251.368	-28.33
251.585	24.92
251.801	-5.8
252.018	-48.81
252.235	26.96
252.451	29.01
252.668	6.49
252.885	-36.52
253.102	12.63
253.318	-5.8
253.535	-83.63
253.752	-81.58
253.968	-5.8
254.185	-18.09
254.401	-34.47
254.618	-38.57
254.835	72.02
255.051	-38.57
255.268	-13.99
255.484	-54.95
255.701	-77.48
255.917	-38.57
256.134	20.82
256.351	-26.28
256.567	-93.87
256.784	-65.19
257	-5.8
257.217	29.01
257.433	-16.04
257.65	-13.99
257.866	43.35
258.082	-22.19
258.299	-22.19
258.515	4.44
258.732	14.68
258.948	2.39
259.165	31.06
259.381	33.11
259.597	2.39
259.814	-77.48
260.03	49.49
260.246	-11.95
260.463	-97.96
260.679	4.44
260.895	10.58
261.112	10.58
261.328	14.68
261.544	24.92
261.761	-32.43
261.977	10.58
262.193	37.2
262.409	-5.8
262.626	-50.86
262.842	14.68
263.058	-9.9
263.274	16.73
263.49	47.44
263.707	-20.14
263.923	-3.75
264.139	-22.19
264.355	-40.62
264.571	-20.14
264.787	45.4
265.004	-93.87
265.22	-48.81
265.436	41.3
265.652	-11.95
265.868	-3.75
266.084	-46.76
266.3	-26.28
266.516	-26.28
266.732	31.06
266.948	31.06
267.164	-9.9
267.38	-52.91
267.596	16.73
267.812	-40.62
268.028	-3.75
268.244	39.25
268.46	-7.85
268.676	39.25
268.892	14.68
269.108	39.25
269.324	33.11
269.54	-7.85
269.756	12.63
269.972	43.35
270.188	49.49
270.403	16.73
270.619	16.73
270.835	-5.8
271.051	-5.8
271.267	-52.91
271.483	104.79
271.698	-1.71
271.914	14.68
272.13	22.87
272.346	10.58
272.562	26.96
272.777	47.44
272.993	-24.23
273.209	-5.8
273.425	-13.99
273.64	-38.57
273.856	51.54
274.072	22.87
274.287	31.06
274.503	35.16
274.719	-24.23
274.934	-24.23
275.15	-22.19
275.366	-28.33
275.581	18.77
275.797	-1.71
276.012	20.82
276.228	67.92
276.444	37.2
276.659	37.2
276.875	2.39
277.09	-32.43
277.306	-26.28
277.521	-30.38
277.737	24.92
277.952	-3.75
278.168	8.53
278.383	-71.34
278.599	-54.95
278.814	-7.85
279.03	-7.85
279.245	14.68
279.461	35.16
279.676	10.58
279.892	-67.24
280.107	-20.14
280.322	-36.52
280.538	-22.19
280.753	20.82
280.969	-30.38
281.184	-24.23
281.399	16.73
281.615	-30.38
281.83	35.16
282.045	-110.25
282.26	-42.67
282.476	20.82
282.691	16.73
282.906	-30.38
283.122	86.36
283.337	-95.91
283.552	78.16
283.767	-1.71
283.983	-28.33
284.198	53.59
284.413	-9.9
284.628	-65.19
284.843	-5.8
285.058	49.49
285.274	-26.28
285.489	-26.28
285.704	31.06
285.919	61.78
286.134	-20.14
286.349	2.39
286.564	-20.14
286.779	4.44
286.995	-44.71
287.21	-32.43
287.425	31.06
287.64	20.82
287.855	67.92
288.07	14.68
288.285	8.53
288.5	18.77
288.715	-22.19
288.93	29.01
289.145	10.58
289.36	-16.04
289.575	12.63
289.79	-22.19
290.004	35.16
290.219	-7.85
290.434	26.96
290.649	-20.14
290.864	-1.71
291.079	-22.19
291.294	18.77
291.509	51.54
291.724	-16.04
291.938	-73.39
292.153	78.16
292.368	-32.43
292.583	-38.57
292.798	-44.71
293.012	53.59
293.227	-65.19
293.442	29.01
293.657	-22.19
293.871	20.82
294.086	20.82
294.301	26.96
294.516	-13.99
294.73	-30.38
294.945	-38.57
295.16	-20.14
295.374	-20.14
295.589	39.25
295.804	6.49
296.018	-42.67
296.233	18.77
296.447	-26.28
296.662	33.11
296.877	-20.14
297.091	24.92
297.306	-11.95
297.52	-13.99
297.735	-59.05
297.949	74.07
298.164	-22.19
298.378	-63.15
298.593	-63.15
298.807	-11.95
299.022	-38.57
299.236	33.11
299.451	39.25
299.665	-3.75
299.88	57.68
300.094	-110.25
300.309	16.73
300.523	37.2
300.737	45.4
300.952	-67.24
301.166	-34.47
301.381	26.96
301.595	-3.75
301.809	-16.04
302.024	18.77
302.238	-32.43
302.452	41.3
302.667	14.68
302.881	-9.9
303.095	-30.38
303.309	-3.75
303.524	18.77
303.738	-5.8
303.952	43.35
304.166	33.11
304.381	-44.71
304.595	86.36
304.809	-52.91
305.023	-18.09
305.237	-65.19
305.452	10.58
305.666	18.77
305.88	-11.95
306.094	49.49
306.308	-46.76
306.522	-20.14
306.736	-54.95
306.95	-16.04
307.164	45.4
307.379	2.39
307.593	12.63
307.807	26.96
308.021	-9.9
308.235	-24.23
308.449	41.3
308.663	82.26
308.877	-24.23
309.091	10.58
309.305	-13.99
309.519	-52.91
309.733	-13.99
309.947	-5.8
310.161	45.4
310.374	-34.47
310.588	12.63
310.802	22.87
311.016	14.68
311.23	31.06
311.444	-38.57
311.658	-16.04
311.872	-7.85
312.085	78.16
312.299	51.54
312.513	14.68
312.727	55.64
312.941	14.68
313.154	-7.85
313.368	-42.67
313.582	35.16
313.796	-20.14
314.009	0.34
314.223	18.77
314.437	14.68
314.651	-44.71
314.864	26.96
315.078	-18.09
315.292	-3.75
315.505	-42.67
315.719	10.58
315.933	35.16
316.146	57.68
316.36	20.82
316.573	-13.99
316.787	37.2
317.001	-3.75
317.214	-65.19
317.428	33.11
317.641	0.34
317.855	-13.99
318.068	24.92
318.282	6.49
318.495	-30.38
318.709	22.87
318.922	-54.95
319.136	43.35
319.349	-52.91
319.563	-3.75
319.776	2.39
319.99	41.3
320.203	41.3
320.417	14.68
320.63	2.39
320.843	-46.76
321.057	-46.76
321.27	-5.8
321.483	33.11
321.697	47.44
321.91	-16.04
322.124	-13.99
322.337	-65.19
322.55	39.25
322.763	47.44
322.977	-5.8
323.19	4.44
323.403	-52.91
323.617	18.77
323.83	-1.71
324.043	6.49
324.256	-13.99
324.469	-48.81
324.683	-81.58
324.896	-30.38
325.109	6.49
325.322	-57
325.535	20.82
325.748	20.82
325.962	4.44
326.175	0.34
326.388	49.49
326.601	-61.1
326.814	65.88
327.027	-46.76
327.24	6.49
327.453	-5.8
327.666	-48.81
327.879	16.73
328.092	59.73
328.305	22.87
328.518	33.11
328.731	-52.91
328.944	55.64
329.157	20.82
329.37	37.2
329.583	-1.71
329.796	94.55
330.009	-63.15
330.222	-7.85
330.435	2.39
330.648	18.77
330.861	-34.47
331.073	-11.95
331.286	-11.95
331.499	-46.76
331.712	-67.24
331.925	-52.91
332.138	-40.62
332.35	-36.52
332.563	6.49
332.776	37.2
332.989	-59.05
333.202	8.53
333.414	-11.95
333.627	22.87
333.84	-50.86
334.053	41.3
334.265	0.34
334.478	12.63
334.691	-46.76
334.903	22.87
335.116	-7.85
335.329	-38.57
335.541	-5.8
335.754	-75.43
335.966	20.82
336.179	18.77
336.392	6.49
336.604	4.44
336.817	12.63
337.029	-5.8
337.242	-13.99
337.454	41.3
337.667	10.58
337.88	76.12
338.092	-69.29
338.305	-9.9
338.517	20.82
338.729	0.34
338.942	-40.62
339.154	26.96
339.367	-13.99
339.579	-13.99
339.792	-30.38
340.004	-36.52
340.217	-42.67
340.429	24.92
340.641	-5.8
340.854	-22.19
341.066	-11.95
341.278	53.59
341.491	-11.95
341.703	16.73
341.915	45.4
342.128	10.58
342.34	24.92
342.552	47.44
342.764	35.16
342.977	-46.76
343.189	29.01
343.401	10.58
343.613	45.4
343.826	2.39
344.038	41.3
344.25	16.73
344.462	6.49
344.674	22.87
344.886	-46.76
345.099	10.58
345.311	24.92
345.523	-1.71
345.735	-44.71
345.947	4.44
346.159	2.39
346.371	22.87
346.583	-22.19
346.795	20.82
347.007	-24.23
347.219	-18.09
347.431	57.68
347.643	51.54
347.855	18.77
348.067	2.39
348.279	-83.63
348.491	14.68
348.703	-3.75
348.915	-3.75
349.127	12.63
349.339	10.58
349.551	51.54
349.763	-24.23
349.975	-63.15
350.187	-26.28
350.399	4.44
350.61	-28.33
350.822	4.44
351.034	16.73
351.246	-18.09
351.458	-7.85
351.669	4.44
351.881	69.97
352.093	-42.67
352.305	-22.19
352.517	2.39
352.728	-13.99
352.94	61.78
353.152	98.64
353.363	2.39
353.575	2.39
353.787	-26.28
353.999	-13.99
354.21	-24.23
354.422	-44.71
354.633	22.87
354.845	-67.24
355.057	29.01
355.268	6.49
355.48	8.53
355.692	-20.14
355.903	-7.85
356.115	-16.04
356.326	22.87
356.538	-89.77
356.749	8.53
356.961	-44.71
357.172	-38.57
357.384	24.92
357.595	-48.81
357.807	-63.15
358.018	-46.76
358.23	-3.75
358.441	35.16
358.653	12.63
358.864	-52.91
359.075	-13.99
359.287	26.96
359.498	-16.04
359.709	-3.75
359.921	-24.23
360.132	65.88
360.344	16.73
360.555	-36.52
360.766	20.82
360.977	-89.77
361.189	-5.8
361.4	-69.29
361.611	22.87
361.823	47.44
362.034	-9.9
362.245	-11.95
362.456	53.59
362.667	-36.52
362.879	-26.28
363.09	-34.47
363.301	90.45
363.512	37.2
363.723	-1.71
363.935	-44.71
364.146	-59.05
364.357	-20.14
364.568	-18.09
364.779	39.25
364.99	41.3
365.201	8.53
365.412	-57
365.623	-3.75
365.834	82.26
366.045	33.11
366.256	61.78
366.467	35.16
366.678	31.06
366.889	-30.38
367.1	-3.75
367.311	35.16
367.522	69.97
367.733	22.87
367.944	37.2
368.155	-83.63
368.366	-28.33
368.577	-52.91
368.788	67.92
368.999	31.06
369.209	6.49
369.42	18.77
369.631	-34.47
369.842	16.73
370.053	-28.33
370.264	-20.14
370.474	-5.8
370.685	14.68
370.896	-5.8
371.107	-11.95
371.317	69.97
371.528	-20.14
371.739	59.73
371.95	-3.75
372.16	10.58
372.371	26.96
372.582	18.77
372.792	12.63
373.003	-30.38
373.214	18.77
373.424	0.34
373.635	-79.53
373.846	0.34
374.056	-11.95
374.267	4.44
374.477	-18.09
374.688	86.36
374.898	-11.95
375.109	35.16
375.319	-79.53
375.53	24.92
375.74	14.68
375.951	-28.33
376.161	-28.33
376.372	63.83
376.582	20.82
376.793	20.82
377.003	10.58
377.214	-67.24
377.424	-7.85
377.635	-20.14
377.845	8.53
378.055	16.73
378.266	59.73
378.476	16.73
378.686	4.44
378.897	-3.75
379.107	115.03
379.317	-1.71
379.528	-83.63
379.738	-40.62
379.948	-36.52
380.158	14.68
380.369	10.58
380.579	-11.95
380.789	22.87
380.999	43.35
381.21	39.25
381.42	24.92
381.63	-3.75
381.84	37.2
382.05	-46.76
382.261	22.87
382.471	20.82
382.681	37.2
382.891	41.3
383.101	-40.62
383.311	0.34
383.521	-13.99
383.731	-7.85
383.941	-48.81
384.151	-71.34
384.361	29.01
384.571	-13.99
384.781	-40.62
384.991	-20.14
385.201	16.73
385.411	10.58
385.621	20.82
385.831	-32.43
386.041	41.3
386.251	49.49
386.461	104.79
386.671	22.87
386.881	-7.85
387.091	55.64
387.301	-32.43
387.511	74.07
387.72	-18.09
387.93	-46.76
388.14	-63.15
388.35	-26.28
388.56	4.44
388.769	-11.95
388.979	20.82
389.189	14.68
389.399	0.34
389.609	29.01
389.818	26.96
390.028	-20.14
390.238	-11.95
390.447	94.55
390.657	35.16
390.867	43.35
391.076	-20.14
391.286	6.49
391.496	108.88
391.705	-34.47
391.915	-42.67
392.125	49.49
392.334	45.4
392.544	26.96
392.753	-63.15
392.963	-34.47
393.172	-40.62
393.382	-24.23
393.591	55.64
393.801	35.16
394.01	-11.95
394.22	0.34
394.429	74.07
394.639	8.53
394.848	69.97
395.058	6.49
395.267	65.88
395.477	10.58
395.686	35.16
395.895	94.55
396.105	67.92
396.314	-1.71
396.524	80.21
396.733	-20.14
396.942	14.68
397.152	6.49
397.361	-3.75
397.57	24.92
397.78	10.58
397.989	-5.8
398.198	-11.95
398.407	88.4
398.617	-5.8
398.826	20.82
399.035	-1.71
399.244	-22.19
399.453	39.25
399.663	-48.81
399.872	22.87
400.081	0.34
400.29	53.59
400.499	67.92
400.708	45.4
400.917	-30.38
401.127	-26.28
401.336	69.97
401.545	108.88
401.754	-67.24
401.963	2.39
402.172	-26.28
402.381	10.58
402.59	37.2
402.799	49.49
403.008	-42.67
403.217	57.68
403.426	-5.8
403.635	63.83
403.844	-9.9
404.053	-40.62
404.262	55.64
404.471	61.78
404.68	12.63
404.888	76.12
405.097	14.68
405.306	63.83
405.515	102.74
405.724	18.77
405.933	86.36
406.142	80.21
406.35	47.44
406.559	-40.62
406.768	65.88
406.977	72.02
407.185	29.01
407.394	43.35
407.603	-40.62
407.812	47.44
408.02	94.55
408.229	45.4
408.438	67.92
408.646	84.31
408.855	69.97
409.064	88.4
409.272	86.36
409.481	92.5
409.69	63.83
409.898	26.96
410.107	86.36
410.315	18.77
410.524	65.88
410.733	88.4
410.941	12.63
411.15	145.75
411.358	153.94
411.567	153.94
411.775	201.04
411.984	94.55
412.192	51.54
412.401	78.16
412.609	96.6
412.818	149.84
413.026	178.51
413.234	141.65
413.443	84.31
413.651	160.08
413.86	162.13
414.068	295.25
414.276	160.08
414.485	160.08
414.693	135.51
414.901	215.38
415.11	196.95
415.318	184.66
415.526	235.86
415.734	258.39
415.943	174.42
416.151	250.19
416.359	207.19
416.567	258.39
416.776	264.53
416.984	264.53
417.192	207.19
417.4	305.49
417.608	289.1
417.817	305.49
418.025	313.68
418.233	348.5
418.441	379.22
418.649	356.69
418.857	346.45
419.065	282.96
419.273	375.12
419.481	356.69
419.689	368.98
419.897	502.09
420.105	436.56
420.313	446.8
420.521	508.24
420.729	487.76
420.937	493.9
421.145	454.99
421.353	487.76
421.561	563.53
421.769	569.68
421.977	545.1
422.185	522.57
422.393	608.59
422.601	614.73
422.809	661.84
423.017	616.78
423.224	706.89
423.432	682.31
423.64	821.58
423.848	764.23
424.056	729.42
424.263	811.34
424.471	872.78
424.679	903.5
424.887	860.49
425.094	821.58
425.302	934.22
425.51	983.37
425.718	981.32
425.925	993.61
426.133	969.03
426.341	1112.39
426.548	1190.21
426.756	1118.53
426.964	1165.64
427.171	1284.42
427.379	1274.18
427.586	1292.61
427.794	1222.98
428.001	1315.14
428.209	1454.4
428.417	1462.59
428.624	1440.06
428.832	1544.51
429.039	1446.21
429.247	1452.35
429.454	1628.48
429.662	1796.41
429.869	1599.8
430.076	1780.03
430.284	1800.51
430.491	1790.27
430.699	1874.23
430.906	1866.04
431.114	1835.32
431.321	2027.83
431.528	2015.54
431.736	2132.28
431.943	2251.06
432.15	2126.13
432.358	2197.81
432.565	2195.76
432.772	2402.61
432.979	2427.18
433.187	2418.99
433.394	2410.8
433.601	2591.02
433.808	2687.28
434.016	2656.56
434.223	2646.32
434.43	2937.13
434.637	2894.12
434.844	3135.78
435.052	3135.78
435.259	3082.53
435.466	3219.75
435.673	3123.49
435.88	3340.58
436.087	3404.07
436.294	3483.94
436.501	3424.55
436.708	3451.17
436.915	3574.05
437.122	3655.97
437.329	3760.41
437.537	3926.3
437.743	3926.3
437.95	3909.91
438.157	4100.37
438.364	4346.13
438.571	4196.63
438.778	4225.3
438.985	4682
439.192	4391.19
439.399	4569.36
439.606	4428.05
439.813	4692.24
440.02	5062.92
440.227	4970.76
440.433	4802.83
440.64	5032.2
440.847	5087.5
441.054	5062.92
441.261	5515.52
441.467	5474.56
441.674	5406.98
441.881	5667.07
442.088	5603.58
442.294	5687.55
442.501	5888.25
442.708	6009.08
442.914	6066.42
443.121	6512.88
443.328	6103.29
443.534	6766.83
443.741	6576.37
443.948	6437.11
444.154	6783.21
444.361	6973.67
444.568	6883.56
444.774	6873.32
444.981	7002.35
445.187	7164.14
445.394	7471.33
445.6	7438.56
445.807	8126.68
446.013	7735.52
446.22	7893.21
446.426	8192.22
446.633	8286.42
446.839	8753.36
447.046	8237.27
447.252	8796.37
447.459	8749.26
447.665	8755.41
447.871	9189.58
448.078	9545.92
448.284	9058.51
448.491	9320.65
448.697	9588.93
448.903	9654.47
449.11	9830.59
449.316	9646.27
449.522	9961.66
449.728	10229.95
449.935	10281.14
450.141	10275
450.347	10416.31
450.553	10143.93
450.76	10305.72
450.966	10619.06
451.172	10647.73
451.378	10879.15
451.584	10465.46
451.791	10913.97
451.997	10952.88
452.203	10948.78
452.409	11002.03
452.615	10793.14
452.821	10397.88
453.027	10305.72
453.233	11174.06
453.44	10709.17
453.646	10606.77
453.852	10918.06
454.058	10928.3
454.264	10432.69
454.47	10686.64
454.676	10383.54
454.882	10811.57
455.088	9875.65
455.294	10051.77
455.5	10145.98
455.705	10201.27
455.911	9840.83
456.117	9855.17
456.323	9517.25
456.529	9121.99
456.735	9375.94
456.941	9281.74
457.147	8949.96
457.352	8956.11
457.558	8820.94
457.764	8663.25
457.97	8575.19
458.176	8331.48
458.381	8145.11
458.587	7831.77
458.793	8022.23
458.999	7319.78
459.204	8050.91
459.41	7862.49
459.616	7418.08
459.821	7352.55
460.027	7446.76
460.233	7065.83
460.438	6775.02
460.644	6850.8
460.85	6516.98
461.055	6402.29
461.261	6404.34
461.466	6007.03
461.672	5732.61
461.878	6240.5
462.083	5830.91
462.289	5482.75
462.494	5681.41
462.7	5263.62
462.905	5490.95
463.111	5460.23
463.316	5333.25
463.522	5294.34
463.727	5269.76
463.932	5234.95
464.138	5316.87
464.343	5394.69
464.549	5146.89
464.754	5296.39
464.959	5249.29
465.165	5132.55
465.37	4901.13
465.575	4897.03
465.781	5183.75
465.986	4940.04
466.191	5091.59
466.397	4794.64
466.602	4686.09
466.807	4725.01
467.012	4761.87
467.218	4725.01
467.423	4565.26
467.628	4669.71
467.833	4915.47
468.038	4638.99
