Data from USB4F104151__73__12-54-39-659.txt Node

Date: Fri Mar 14 12:54:39 EDT 2025
User: louis
Spectrometer: USB4F10415
Trigger mode: 4
Integration Time (sec): 1.000000E-2
Scans to average: 1
Electric dark correction enabled: true
Nonlinearity correction enabled: false
Boxcar width: 0
XAxis mode: Wavelengths
Number of Pixels in Spectrum: 3648
>>>>>Begin Spectral Data<<<<<
178.204	-56.83
178.424	-56.83
178.644	-56.83
178.864	-30.21
179.084	-17.92
179.304	27.14
179.524	-11.78
179.744	-1.54
179.964	-40.45
180.184	2.56
180.404	10.75
180.624	-77.31
180.844	-13.82
181.064	25.09
181.283	43.52
181.503	6.66
181.723	29.18
181.943	-36.35
182.163	45.57
182.383	-40.45
182.602	23.04
182.822	53.76
183.042	8.7
183.262	45.57
183.482	-15.87
183.701	-3.58
183.921	0.51
184.141	-77.31
184.361	45.57
184.58	2.56
184.8	-11.78
185.02	23.04
185.239	23.04
185.459	-30.21
185.679	-65.02
185.898	-5.63
186.118	49.66
186.338	49.66
186.557	12.8
186.777	4.61
186.997	14.85
187.216	-17.92
187.436	39.42
187.655	76.29
187.875	57.86
188.095	37.38
188.314	18.94
188.534	45.57
188.753	6.66
188.973	-19.97
189.192	33.28
189.412	-3.58
189.631	18.94
189.851	41.47
190.07	53.76
190.29	-5.63
190.509	-28.16
190.729	-67.07
190.948	10.75
191.168	29.18
191.387	6.66
191.607	-54.78
191.826	-3.58
192.045	2.56
192.265	12.8
192.484	-42.5
192.704	14.85
192.923	-11.78
193.142	27.14
193.362	31.23
193.581	129.53
193.8	12.8
194.02	6.66
194.239	-7.68
194.458	10.75
194.678	53.76
194.897	37.38
195.116	-1.54
195.335	61.95
195.555	47.62
195.774	10.75
195.993	16.9
196.212	29.18
196.432	53.76
196.651	6.66
196.87	-22.02
197.089	33.28
197.308	-9.73
197.528	14.85
197.747	82.43
197.966	-5.63
198.185	25.09
198.404	41.47
198.623	-36.35
198.842	16.9
199.062	49.66
199.281	-11.78
199.5	-32.26
199.719	27.14
199.938	-62.98
200.157	66.05
200.376	-44.54
200.595	14.85
200.814	-26.11
201.033	12.8
201.252	94.72
201.471	-40.45
201.69	14.85
201.909	18.94
202.128	4.61
202.347	-52.74
202.566	-38.4
202.785	47.62
203.004	-28.16
203.223	66.05
203.442	41.47
203.661	-77.31
203.879	16.9
204.098	-1.54
204.317	-28.16
204.536	-5.63
204.755	-19.97
204.974	51.71
205.193	-7.68
205.411	64
205.63	-36.35
205.849	-19.97
206.068	10.75
206.287	84.48
206.505	12.8
206.724	2.56
206.943	51.71
207.162	18.94
207.381	25.09
207.599	49.66
207.818	-30.21
208.037	-19.97
208.255	-5.63
208.474	-1.54
208.693	-9.73
208.911	23.04
209.13	16.9
209.349	53.76
209.567	96.77
209.786	45.57
210.005	-1.54
210.223	-5.63
210.442	8.7
210.661	2.56
210.879	61.95
211.098	2.56
211.316	-17.92
211.535	80.38
211.753	8.7
211.972	55.81
212.191	-79.36
212.409	23.04
212.628	59.9
212.846	59.9
213.065	8.7
213.283	55.81
213.502	10.75
213.72	33.28
213.938	-9.73
214.157	-22.02
214.375	53.76
214.594	70.14
214.812	57.86
215.031	64
215.249	-30.21
215.467	76.29
215.686	82.43
215.904	20.99
216.122	33.28
216.341	74.24
216.559	-28.16
216.778	35.33
216.996	4.61
217.214	29.18
217.432	16.9
217.651	6.66
217.869	57.86
218.087	123.39
218.306	12.8
218.524	86.53
218.742	25.09
218.96	53.76
219.179	-1.54
219.397	0.51
219.615	-34.3
219.833	4.61
220.051	-3.58
220.27	29.18
220.488	45.57
220.706	-5.63
220.924	-44.54
221.142	0.51
221.36	-9.73
221.578	23.04
221.796	-46.59
222.015	41.47
222.233	-62.98
222.451	4.61
222.669	72.19
222.887	8.7
223.105	-99.84
223.323	76.29
223.541	-22.02
223.759	35.33
223.977	14.85
224.195	53.76
224.413	4.61
224.631	35.33
224.849	-7.68
225.067	49.66
225.285	-11.78
225.503	29.18
225.721	8.7
225.939	86.53
226.157	51.71
226.375	37.38
226.592	43.52
226.81	-22.02
227.028	55.81
227.246	-1.54
227.464	102.91
227.682	39.42
227.9	37.38
228.117	55.81
228.335	39.42
228.553	78.33
228.771	37.38
228.989	74.24
229.206	111.1
229.424	94.72
229.642	82.43
229.86	35.33
230.077	41.47
230.295	0.51
230.513	82.43
230.731	94.72
230.948	-19.97
231.166	78.33
231.384	0.51
231.601	14.85
231.819	86.53
232.037	59.9
232.254	31.23
232.472	35.33
232.689	66.05
232.907	25.09
233.125	12.8
233.342	31.23
233.56	20.99
233.777	41.47
233.995	33.28
234.213	-7.68
234.43	-1.54
234.648	-28.16
234.865	-103.93
235.083	82.43
235.3	6.66
235.518	18.94
235.735	-5.63
235.953	6.66
236.17	41.47
236.388	61.95
236.605	43.52
236.822	80.38
237.04	-1.54
237.257	43.52
237.475	-3.58
237.692	-22.02
237.909	-40.45
238.127	14.85
238.344	37.38
238.562	37.38
238.779	-24.06
238.996	84.48
239.214	-19.97
239.431	47.62
239.648	-44.54
239.865	35.33
240.083	35.33
240.3	-32.26
240.517	35.33
240.735	59.9
240.952	-42.5
241.169	45.57
241.386	-11.78
241.603	82.43
241.821	20.99
242.038	25.09
242.255	-56.83
242.472	18.94
242.689	10.75
242.907	59.9
243.124	47.62
243.341	-24.06
243.558	-32.26
243.775	20.99
243.992	-15.87
244.209	55.81
244.426	53.76
244.643	-36.35
244.86	82.43
245.078	16.9
245.295	-15.87
245.512	51.71
245.729	18.94
245.946	51.71
246.163	-69.12
246.38	20.99
246.597	57.86
246.814	8.7
247.031	6.66
247.248	39.42
247.464	-58.88
247.681	10.75
247.898	45.57
248.115	55.81
248.332	80.38
248.549	33.28
248.766	86.53
248.983	82.43
249.2	-22.02
249.417	14.85
249.633	-28.16
249.85	37.38
250.067	-9.73
250.284	-7.68
250.501	12.8
250.717	16.9
250.934	10.75
251.151	74.24
251.368	-9.73
251.585	16.9
251.801	14.85
252.018	-48.64
252.235	18.94
252.451	59.9
252.668	45.57
252.885	98.81
253.102	-5.63
253.318	49.66
253.535	35.33
253.752	20.99
253.968	90.62
254.185	4.61
254.401	23.04
254.618	6.66
254.835	16.9
255.051	109.05
255.268	25.09
255.484	4.61
255.701	-3.58
255.917	18.94
256.134	-3.58
256.351	-52.74
256.567	98.81
256.784	20.99
257	-85.5
257.217	57.86
257.433	-11.78
257.65	39.42
257.866	41.47
258.082	43.52
258.299	4.61
258.515	0.51
258.732	-22.02
258.948	98.81
259.165	23.04
259.381	14.85
259.597	0.51
259.814	37.38
260.03	59.9
260.246	0.51
260.463	-11.78
260.679	33.28
260.895	-3.58
261.112	-13.82
261.328	-1.54
261.544	33.28
261.761	66.05
261.977	64
262.193	8.7
262.409	29.18
262.626	2.56
262.842	55.81
263.058	61.95
263.274	18.94
263.49	-71.17
263.707	55.81
263.923	12.8
264.139	84.48
264.355	-9.73
264.571	86.53
264.787	41.47
265.004	78.33
265.22	-40.45
265.436	25.09
265.652	20.99
265.868	86.53
266.084	12.8
266.3	74.24
266.516	45.57
266.732	6.66
266.948	43.52
267.164	20.99
267.38	27.14
267.596	-7.68
267.812	27.14
268.028	47.62
268.244	29.18
268.46	16.9
268.676	25.09
268.892	78.33
269.108	43.52
269.324	39.42
269.54	-60.93
269.756	49.66
269.972	20.99
270.188	-22.02
270.403	39.42
270.619	20.99
270.835	6.66
271.051	72.19
271.267	6.66
271.483	104.96
271.698	16.9
271.914	88.57
272.13	-1.54
272.346	31.23
272.562	31.23
272.777	41.47
272.993	-7.68
273.209	98.81
273.425	4.61
273.64	49.66
273.856	-5.63
274.072	4.61
274.287	6.66
274.503	20.99
274.719	20.99
274.934	80.38
275.15	-5.63
275.366	-9.73
275.581	41.47
275.797	23.04
276.012	-24.06
276.228	12.8
276.444	55.81
276.659	39.42
276.875	-1.54
277.09	45.57
277.306	-15.87
277.521	64
277.737	37.38
277.952	33.28
278.168	23.04
278.383	94.72
278.599	37.38
278.814	68.09
279.03	-30.21
279.245	47.62
279.461	45.57
279.676	41.47
279.892	12.8
280.107	-5.63
280.322	-26.11
280.538	-36.35
280.753	-11.78
280.969	68.09
281.184	70.14
281.399	45.57
281.615	18.94
281.83	31.23
282.045	10.75
282.26	14.85
282.476	47.62
282.691	143.87
282.906	-26.11
283.122	45.57
283.337	102.91
283.552	57.86
283.767	39.42
283.983	23.04
284.198	-11.78
284.413	88.57
284.628	2.56
284.843	4.61
285.058	61.95
285.274	27.14
285.489	-44.54
285.704	59.9
285.919	-15.87
286.134	39.42
286.349	25.09
286.564	35.33
286.779	12.8
286.995	-17.92
287.21	0.51
287.425	-19.97
287.64	64
287.855	66.05
288.07	-22.02
288.285	4.61
288.5	-48.64
288.715	119.29
288.93	86.53
289.145	23.04
289.36	25.09
289.575	109.05
289.79	16.9
290.004	-28.16
290.219	35.33
290.434	33.28
290.649	29.18
290.864	-42.5
291.079	6.66
291.294	47.62
291.509	-13.82
291.724	12.8
291.938	-81.41
292.153	-36.35
292.368	57.86
292.583	6.66
292.798	27.14
293.012	25.09
293.227	20.99
293.442	-34.3
293.657	20.99
293.871	68.09
294.086	-22.02
294.301	-3.58
294.516	94.72
294.73	-7.68
294.945	4.61
295.16	-28.16
295.374	113.15
295.589	98.81
295.804	33.28
296.018	55.81
296.233	18.94
296.447	0.51
296.662	-50.69
296.877	8.7
297.091	57.86
297.306	6.66
297.52	41.47
297.735	82.43
297.949	25.09
298.164	68.09
298.378	61.95
298.593	27.14
298.807	51.71
299.022	111.1
299.236	37.38
299.451	-3.58
299.665	61.95
299.88	-28.16
300.094	-3.58
300.309	23.04
300.523	29.18
300.737	39.42
300.952	39.42
301.166	64
301.381	10.75
301.595	14.85
301.809	14.85
302.024	-24.06
302.238	-1.54
302.452	20.99
302.667	18.94
302.881	12.8
303.095	37.38
303.309	39.42
303.524	18.94
303.738	-15.87
303.952	98.81
304.166	-5.63
304.381	49.66
304.595	12.8
304.809	-5.63
305.023	-11.78
305.237	-13.82
305.452	72.19
305.666	-42.5
305.88	4.61
306.094	35.33
306.308	37.38
306.522	27.14
306.736	66.05
306.95	45.57
307.164	4.61
307.379	14.85
307.593	45.57
307.807	33.28
308.021	49.66
308.235	-73.21
308.449	2.56
308.663	41.47
308.877	113.15
309.091	-42.5
309.305	115.2
309.519	4.61
309.733	100.86
309.947	47.62
310.161	18.94
310.374	-7.68
310.588	-11.78
310.802	-9.73
311.016	47.62
311.23	31.23
311.444	18.94
311.658	-5.63
311.872	47.62
312.085	0.51
312.299	10.75
312.513	68.09
312.727	129.53
312.941	14.85
313.154	53.76
313.368	-11.78
313.582	61.95
313.796	0.51
314.009	49.66
314.223	10.75
314.437	37.38
314.651	-9.73
314.864	33.28
315.078	-22.02
315.292	-9.73
315.505	84.48
315.719	51.71
315.933	-3.58
316.146	8.7
316.36	-36.35
316.573	-3.58
316.787	8.7
317.001	53.76
317.214	61.95
317.428	27.14
317.641	25.09
317.855	47.62
318.068	18.94
318.282	72.19
318.495	-3.58
318.709	-19.97
318.922	51.71
319.136	59.9
319.349	37.38
319.563	39.42
319.776	33.28
319.99	78.33
320.203	57.86
320.417	72.19
320.63	49.66
320.843	55.81
321.057	-1.54
321.27	23.04
321.483	96.77
321.697	51.71
321.91	43.52
322.124	23.04
322.337	70.14
322.55	4.61
322.763	76.29
322.977	33.28
323.19	53.76
323.403	61.95
323.617	14.85
323.83	90.62
324.043	-24.06
324.256	4.61
324.469	20.99
324.683	61.95
324.896	78.33
325.109	84.48
325.322	20.99
325.535	43.52
325.748	10.75
325.962	35.33
326.175	53.76
326.388	37.38
326.601	35.33
326.814	39.42
327.027	88.57
327.24	49.66
327.453	-50.69
327.666	16.9
327.879	23.04
328.092	66.05
328.305	70.14
328.518	53.76
328.731	61.95
328.944	53.76
329.157	-19.97
329.37	20.99
329.583	-1.54
329.796	4.61
330.009	57.86
330.222	74.24
330.435	-79.36
330.648	33.28
330.861	102.91
331.073	53.76
331.286	2.56
331.499	39.42
331.712	29.18
331.925	78.33
332.138	-13.82
332.35	31.23
332.563	-22.02
332.776	29.18
332.989	27.14
333.202	47.62
333.414	-34.3
333.627	66.05
333.84	20.99
334.053	18.94
334.265	-9.73
334.478	90.62
334.691	23.04
334.903	74.24
335.116	41.47
335.329	23.04
335.541	51.71
335.754	14.85
335.966	18.94
336.179	66.05
336.392	20.99
336.604	78.33
336.817	45.57
337.029	-17.92
337.242	39.42
337.454	27.14
337.667	51.71
337.88	20.99
338.092	-52.74
338.305	16.9
338.517	8.7
338.729	84.48
338.942	39.42
339.154	49.66
339.367	4.61
339.579	0.51
339.792	39.42
340.004	14.85
340.217	18.94
340.429	0.51
340.641	12.8
340.854	16.9
341.066	72.19
341.278	39.42
341.491	29.18
341.703	49.66
341.915	-11.78
342.128	31.23
342.34	94.72
342.552	37.38
342.764	23.04
342.977	41.47
343.189	-15.87
343.401	29.18
343.613	4.61
343.826	70.14
344.038	-67.07
344.25	23.04
344.462	-22.02
344.674	16.9
344.886	33.28
345.099	49.66
345.311	12.8
345.523	29.18
345.735	-48.64
345.947	14.85
346.159	82.43
346.371	31.23
346.583	64
346.795	70.14
347.007	0.51
347.219	-36.35
347.431	64
347.643	2.56
347.855	66.05
348.067	39.42
348.279	14.85
348.491	14.85
348.703	-11.78
348.915	23.04
349.127	14.85
349.339	43.52
349.551	107.01
349.763	47.62
349.975	59.9
350.187	78.33
350.399	51.71
350.61	64
350.822	33.28
351.034	35.33
351.246	76.29
351.458	18.94
351.669	10.75
351.881	27.14
352.093	-13.82
352.305	27.14
352.517	88.57
352.728	41.47
352.94	37.38
353.152	-11.78
353.363	-26.11
353.575	90.62
353.787	43.52
353.999	-30.21
354.21	-17.92
354.422	12.8
354.633	16.9
354.845	53.76
355.057	-19.97
355.268	-9.73
355.48	-48.64
355.692	-22.02
355.903	88.57
356.115	68.09
356.326	45.57
356.538	49.66
356.749	41.47
356.961	-34.3
357.172	37.38
357.384	-62.98
357.595	59.9
357.807	-11.78
358.018	35.33
358.23	20.99
358.441	88.57
358.653	25.09
358.864	33.28
359.075	-9.73
359.287	6.66
359.498	14.85
359.709	-19.97
359.921	80.38
360.132	27.14
360.344	55.81
360.555	37.38
360.766	14.85
360.977	55.81
361.189	33.28
361.4	4.61
361.611	61.95
361.823	37.38
362.034	31.23
362.245	57.86
362.456	0.51
362.667	4.61
362.879	16.9
363.09	-7.68
363.301	25.09
363.512	6.66
363.723	23.04
363.935	-11.78
364.146	61.95
364.357	-77.31
364.568	23.04
364.779	10.75
364.99	16.9
365.201	-40.45
365.412	35.33
365.623	-22.02
365.834	29.18
366.045	18.94
366.256	61.95
366.467	41.47
366.678	14.85
366.889	29.18
367.1	12.8
367.311	31.23
367.522	33.28
367.733	29.18
367.944	88.57
368.155	107.01
368.366	-3.58
368.577	-32.26
368.788	47.62
368.999	-56.83
369.209	47.62
369.42	51.71
369.631	33.28
369.842	2.56
370.053	6.66
370.264	-44.54
370.474	33.28
370.685	14.85
370.896	-3.58
371.107	2.56
371.317	8.7
371.528	31.23
371.739	41.47
371.95	39.42
372.16	12.8
372.371	-3.58
372.582	14.85
372.792	-13.82
373.003	53.76
373.214	-36.35
373.424	64
373.635	6.66
373.846	45.57
374.056	82.43
374.267	-9.73
374.477	-22.02
374.688	-50.69
374.898	37.38
375.109	41.47
375.319	41.47
375.53	78.33
375.74	20.99
375.951	2.56
376.161	8.7
376.372	8.7
376.582	55.81
376.793	47.62
377.003	59.9
377.214	-48.64
377.424	14.85
377.635	51.71
377.845	14.85
378.055	31.23
378.266	70.14
378.476	29.18
378.686	86.53
378.897	-7.68
379.107	20.99
379.317	66.05
379.528	-15.87
379.738	74.24
379.948	25.09
380.158	47.62
380.369	27.14
380.579	49.66
380.789	23.04
380.999	27.14
381.21	-13.82
381.42	6.66
381.63	-7.68
381.84	-13.82
382.05	72.19
382.261	68.09
382.471	41.47
382.681	39.42
382.891	20.99
383.101	72.19
383.311	51.71
383.521	4.61
383.731	45.57
383.941	94.72
384.151	82.43
384.361	27.14
384.571	57.86
384.781	49.66
384.991	49.66
385.201	66.05
385.411	29.18
385.621	98.81
385.831	55.81
386.041	18.94
386.251	-24.06
386.461	55.81
386.671	-1.54
386.881	66.05
387.091	-36.35
387.301	72.19
387.511	-17.92
387.72	53.76
387.93	-30.21
388.14	-19.97
388.35	-19.97
388.56	96.77
388.769	66.05
388.979	12.8
389.189	43.52
389.399	10.75
389.609	12.8
389.818	53.76
390.028	-15.87
390.238	53.76
390.447	20.99
390.657	61.95
390.867	-7.68
391.076	41.47
391.286	-32.26
391.496	64
391.705	14.85
391.915	123.39
392.125	131.58
392.334	12.8
392.544	-15.87
392.753	80.38
392.963	102.91
393.172	92.67
393.382	31.23
393.591	72.19
393.801	-7.68
394.01	98.81
394.22	39.42
394.429	64
394.639	-32.26
394.848	6.66
395.058	33.28
395.267	84.48
395.477	47.62
395.686	53.76
395.895	-5.63
396.105	35.33
396.314	51.71
396.524	-26.11
396.733	74.24
396.942	78.33
397.152	72.19
397.361	29.18
397.57	31.23
397.78	27.14
397.989	-3.58
398.198	82.43
398.407	10.75
398.617	64
398.826	59.9
399.035	43.52
399.244	41.47
399.453	121.34
399.663	61.95
399.872	80.38
400.081	37.38
400.29	64
400.499	51.71
400.708	102.91
400.917	25.09
401.127	33.28
401.336	61.95
401.545	109.05
401.754	66.05
401.963	98.81
402.172	96.77
402.381	-19.97
402.59	125.44
402.799	57.86
403.008	70.14
403.217	35.33
403.426	29.18
403.635	29.18
403.844	49.66
404.053	61.95
404.262	96.77
404.471	12.8
404.68	123.39
404.888	39.42
405.097	16.9
405.306	98.81
405.515	115.2
405.724	41.47
405.933	80.38
406.142	49.66
406.35	107.01
406.559	127.49
406.768	129.53
406.977	78.33
407.185	33.28
407.394	37.38
407.603	98.81
407.812	70.14
408.02	88.57
408.229	104.96
408.438	76.29
408.646	92.67
408.855	123.39
409.064	166.4
409.272	166.4
409.481	174.59
409.69	96.77
409.898	113.15
410.107	96.77
410.315	100.86
410.524	176.64
410.733	131.58
410.941	147.97
411.15	172.54
411.358	123.39
411.567	203.26
411.775	264.7
411.984	164.35
412.192	242.17
412.401	260.6
412.609	170.49
412.818	197.12
413.026	246.27
413.234	211.45
413.443	283.13
413.651	285.18
413.86	233.98
414.068	293.37
414.276	289.28
414.485	225.79
414.693	350.71
414.901	340.47
415.11	231.93
415.318	315.9
415.526	289.28
415.734	340.47
415.943	311.8
416.151	406.01
416.359	375.29
416.567	440.83
416.776	358.91
416.984	442.87
417.192	395.77
417.4	453.11
417.608	467.45
417.817	444.92
418.025	526.84
418.233	561.66
418.441	543.22
418.649	559.61
418.857	514.55
419.065	655.86
419.273	514.55
419.481	545.27
419.689	676.34
419.897	676.34
420.105	684.53
420.313	657.91
420.521	735.73
420.729	676.34
420.937	782.84
421.145	733.68
421.353	762.36
421.561	881.14
421.769	895.47
421.977	836.08
422.185	924.15
422.393	1032.69
422.601	1059.31
422.809	1020.4
423.017	1028.59
423.224	1092.08
423.432	1145.33
423.64	1047.02
423.848	1208.81
424.056	1135.09
424.263	1243.63
424.471	1270.25
424.679	1348.08
424.887	1421.8
425.094	1374.7
425.302	1407.47
425.51	1473
425.718	1620.46
425.925	1589.74
426.133	1569.26
426.341	1638.89
426.548	1741.29
426.756	1698.28
426.964	1806.82
427.171	1888.74
427.379	2025.95
427.586	1927.65
427.794	1989.09
428.001	1987.04
428.209	2247.13
428.417	2095.58
428.624	2302.43
428.832	2331.1
429.039	2367.96
429.247	2298.33
429.454	2585.05
429.662	2519.51
429.869	2435.55
430.076	2701.78
430.284	2537.95
430.491	2714.07
430.699	2933.2
430.906	2877.91
431.114	2800.09
431.321	2951.63
431.528	3068.37
431.736	3305.93
431.943	3457.48
432.15	3305.93
432.358	3369.42
432.565	3686.86
432.772	3477.96
432.979	3750.34
433.187	3770.82
433.394	3918.28
433.601	4037.06
433.808	3924.42
434.016	4116.93
434.223	4231.62
434.43	4504
434.637	4370.88
434.844	4827.57
435.052	4805.05
435.259	4815.29
435.466	4770.23
435.673	4846.01
435.88	5147.06
436.087	5374.38
436.294	5409.2
436.501	5239.22
436.708	5249.46
436.915	5429.68
437.122	5790.12
437.329	5691.82
437.537	5990.82
437.743	5937.57
437.95	6064.55
438.157	6212
438.364	6328.74
438.571	6562.2
438.778	6513.05
438.985	7055.76
439.192	6738.33
439.399	7002.52
439.606	6951.32
439.813	7383.44
440.02	7532.94
440.227	7594.38
440.433	7545.23
440.64	7721.35
440.847	7987.59
441.054	7987.59
441.261	8558.97
441.467	8262.02
441.674	8497.53
441.881	8731
442.088	8761.72
442.294	8540.54
442.501	8958.33
442.708	9234.8
442.914	9554.29
443.121	9961.83
443.328	9609.58
443.534	10324.32
443.741	10154.34
443.948	9914.73
444.154	10731.87
444.361	10766.68
444.568	10643.81
444.774	10637.66
444.981	11000.15
445.187	11127.13
445.394	11528.53
445.6	11589.97
445.807	12441.92
446.013	11942.22
446.22	12198.21
446.426	12767.55
446.633	12910.91
446.839	13234.49
447.046	12710.21
447.252	13418.8
447.459	13488.43
447.665	13484.34
447.871	14082.35
448.078	14647.58
448.284	14018.86
448.491	14420.26
448.697	14905.63
448.903	15333.65
449.11	15425.81
449.316	14731.55
449.522	15245.59
449.728	15593.75
449.935	15745.3
450.141	15773.97
450.347	16156.94
450.553	15733.01
450.76	15761.68
450.966	16414.98
451.172	16152.84
451.378	16918.78
451.584	16341.25
451.791	16779.52
451.997	16752.9
452.203	17154.3
452.409	16961.79
452.615	16998.65
452.821	16187.66
453.027	16234.76
453.233	16879.87
453.44	16369.93
453.646	16255.24
453.852	16621.83
454.058	16787.71
454.264	16126.22
454.47	16611.59
454.676	16052.49
454.882	16720.13
455.088	15552.79
455.294	15663.38
455.5	15931.66
455.705	16064.78
455.911	15292.69
456.117	15055.13
456.323	14829.85
456.529	14035.24
456.735	14725.41
456.941	14387.49
457.147	13783.34
457.352	13666.61
457.558	13515.06
457.764	13588.78
457.97	13060.41
458.176	12890.43
458.381	13003.07
458.587	12312.9
458.793	12337.48
458.999	11641.17
459.204	12345.67
459.41	12130.63
459.616	11305.3
459.821	11344.21
460.027	11477.33
460.233	11118.93
460.438	10434.91
460.644	10811.74
460.85	10150.25
461.055	10127.72
461.261	10029.41
461.466	9326.96
461.672	9044.34
461.878	9652.59
462.083	8964.47
462.289	8855.93
462.494	8864.12
462.7	8341.89
462.905	8247.68
463.111	8313.22
463.316	8440.19
463.522	8212.87
463.727	8407.42
463.932	8270.21
464.138	8169.86
464.343	8313.22
464.549	7924.1
464.754	8276.35
464.959	8085.89
465.165	8036.74
465.37	7881.1
465.575	7698.83
465.781	7856.52
465.986	7901.58
466.191	7735.69
466.397	7393.68
466.602	7109.01
466.807	7299.47
467.012	7395.73
467.218	7479.69
467.423	7260.56
467.628	7338.38
467.833	7664.01
468.038	7287.18
468.244	7149.97
468.449	7422.35
468.654	7137.68
468.859	7123.35
469.064	6949.27
469.269	6631.83
469.474	6885.78
469.679	7172.5
469.885	6855.06
470.09	7014.8
