Data from USB4F104151__0__12-53-01-172.txt Node

Date: Fri Mar 14 12:53:01 EDT 2025
User: louis
Spectrometer: USB4F10415
Trigger mode: 4
Integration Time (sec): 1.000000E-2
Scans to average: 1
Electric dark correction enabled: true
Nonlinearity correction enabled: false
Boxcar width: 0
XAxis mode: Wavelengths
Number of Pixels in Spectrum: 3648
>>>>>Begin Spectral Data<<<<<
178.204	-48.64
178.424	-48.64
178.644	-48.64
178.864	-52.74
179.084	25.09
179.304	61.95
179.524	-24.06
179.744	-24.06
179.964	-11.78
180.184	10.75
180.404	0.51
180.624	6.66
180.844	-3.58
181.064	-7.68
181.283	-7.68
181.503	-3.58
181.723	2.56
181.943	-17.92
182.163	84.48
182.383	8.7
182.602	88.57
182.822	-1.54
183.042	33.28
183.262	25.09
183.482	-44.54
183.701	-38.4
183.921	-42.5
184.141	4.61
184.361	66.05
184.58	35.33
184.8	-19.97
185.02	-34.3
185.239	70.14
185.459	-13.82
185.679	127.49
185.898	53.76
186.118	68.09
186.338	59.9
186.557	51.71
186.777	-28.16
186.997	4.61
187.216	76.29
187.436	45.57
187.655	-17.92
187.875	117.25
188.095	-17.92
188.314	51.71
188.534	35.33
188.753	-19.97
188.973	-40.45
189.192	66.05
189.412	70.14
189.631	-22.02
189.851	12.8
190.07	72.19
190.29	47.62
190.509	33.28
190.729	59.9
190.948	49.66
191.168	59.9
191.387	59.9
191.607	-11.78
191.826	27.14
192.045	2.56
192.265	61.95
192.484	12.8
192.704	6.66
192.923	-26.11
193.142	-5.63
193.362	2.56
193.581	23.04
193.8	33.28
194.02	70.14
194.239	45.57
194.458	-28.16
194.678	-34.3
194.897	76.29
195.116	-56.83
195.335	51.71
195.555	57.86
195.774	66.05
195.993	72.19
196.212	4.61
196.432	18.94
196.651	-13.82
196.87	-40.45
197.089	41.47
197.308	23.04
197.528	-5.63
197.747	-42.5
197.966	31.23
198.185	53.76
198.404	27.14
198.623	10.75
198.842	-73.21
199.062	14.85
199.281	43.52
199.5	41.47
199.719	41.47
199.938	-15.87
200.157	4.61
200.376	10.75
200.595	8.7
200.814	-38.4
201.033	76.29
201.252	64
201.471	16.9
201.69	51.71
201.909	70.14
202.128	-5.63
202.347	-5.63
202.566	55.81
202.785	84.48
203.004	-9.73
203.223	-15.87
203.442	49.66
203.661	18.94
203.879	10.75
204.098	35.33
204.317	25.09
204.536	37.38
204.755	41.47
204.974	51.71
205.193	66.05
205.411	29.18
205.63	0.51
205.849	37.38
206.068	25.09
206.287	18.94
206.505	43.52
206.724	16.9
206.943	29.18
207.162	16.9
207.381	84.48
207.599	-48.64
207.818	43.52
208.037	-36.35
208.255	43.52
208.474	43.52
208.693	90.62
208.911	-28.16
209.13	4.61
209.349	64
209.567	57.86
209.786	-11.78
210.005	-71.17
210.223	45.57
210.442	-13.82
210.661	107.01
210.879	-5.63
211.098	76.29
211.316	33.28
211.535	74.24
211.753	-15.87
211.972	45.57
212.191	35.33
212.409	-34.3
212.628	57.86
212.846	6.66
213.065	-54.78
213.283	10.75
213.502	66.05
213.72	10.75
213.938	-9.73
214.157	35.33
214.375	-3.58
214.594	-46.59
214.812	55.81
215.031	43.52
215.249	8.7
215.467	41.47
215.686	6.66
215.904	76.29
216.122	57.86
216.341	51.71
216.559	74.24
216.778	27.14
216.996	6.66
217.214	43.52
217.432	14.85
217.651	8.7
217.869	37.38
218.087	-32.26
218.306	6.66
218.524	84.48
218.742	0.51
218.96	33.28
219.179	45.57
219.397	43.52
219.615	27.14
219.833	76.29
220.051	8.7
220.27	57.86
220.488	66.05
220.706	80.38
220.924	10.75
221.142	35.33
221.36	8.7
221.578	61.95
221.796	-5.63
222.015	-22.02
222.233	31.23
222.451	78.33
222.669	29.18
222.887	98.81
223.105	33.28
223.323	57.86
223.541	-34.3
223.759	35.33
223.977	49.66
224.195	-11.78
224.413	8.7
224.631	-5.63
224.849	37.38
225.067	33.28
225.285	4.61
225.503	33.28
225.721	23.04
225.939	47.62
226.157	-42.5
226.375	8.7
226.592	20.99
226.81	0.51
227.028	45.57
227.246	-38.4
227.464	4.61
227.682	45.57
227.9	-11.78
228.117	20.99
228.335	23.04
228.553	-34.3
228.771	20.99
228.989	96.77
229.206	33.28
229.424	-13.82
229.642	55.81
229.86	41.47
230.077	-7.68
230.295	104.96
230.513	23.04
230.731	88.57
230.948	45.57
231.166	-3.58
231.384	29.18
231.601	66.05
231.819	2.56
232.037	8.7
232.254	49.66
232.472	20.99
232.689	29.18
232.907	16.9
233.125	82.43
233.342	16.9
233.56	37.38
233.777	47.62
233.995	74.24
234.213	49.66
234.43	-58.88
234.648	14.85
234.865	43.52
235.083	66.05
235.3	29.18
235.518	43.52
235.735	49.66
235.953	10.75
236.17	47.62
236.388	57.86
236.605	25.09
236.822	64
237.04	4.61
237.257	10.75
237.475	43.52
237.692	37.38
237.909	20.99
238.127	-26.11
238.344	88.57
238.562	-32.26
238.779	47.62
238.996	25.09
239.214	-24.06
239.431	33.28
239.648	16.9
239.865	127.49
240.083	64
240.3	27.14
240.517	43.52
240.735	-13.82
240.952	-62.98
241.169	18.94
241.386	14.85
241.603	49.66
241.821	12.8
242.038	43.52
242.255	51.71
242.472	76.29
242.689	-1.54
242.907	0.51
243.124	16.9
243.341	-11.78
243.558	-34.3
243.775	-5.63
243.992	70.14
244.209	86.53
244.426	35.33
244.643	-3.58
244.86	111.1
245.078	113.15
245.295	39.42
245.512	68.09
245.729	8.7
245.946	107.01
246.163	100.86
246.38	45.57
246.597	-7.68
246.814	-15.87
247.031	-26.11
247.248	8.7
247.464	16.9
247.681	-17.92
247.898	59.9
248.115	59.9
248.332	-91.65
248.549	84.48
248.766	2.56
248.983	49.66
249.2	80.38
249.417	20.99
249.633	80.38
249.85	64
250.067	-3.58
250.284	47.62
250.501	53.76
250.717	-1.54
250.934	-19.97
251.151	57.86
251.368	31.23
251.585	39.42
251.801	29.18
252.018	0.51
252.235	74.24
252.451	49.66
252.668	25.09
252.885	53.76
253.102	64
253.318	27.14
253.535	16.9
253.752	18.94
253.968	37.38
254.185	10.75
254.401	25.09
254.618	82.43
254.835	8.7
255.051	61.95
255.268	23.04
255.484	53.76
255.701	23.04
255.917	57.86
256.134	94.72
256.351	-17.92
256.567	-44.54
256.784	109.05
257	-26.11
257.217	23.04
257.433	-42.5
257.65	96.77
257.866	64
258.082	33.28
258.299	59.9
258.515	14.85
258.732	98.81
258.948	6.66
259.165	23.04
259.381	-48.64
259.597	51.71
259.814	-32.26
260.03	78.33
260.246	51.71
260.463	27.14
260.679	-7.68
260.895	84.48
261.112	86.53
261.328	-9.73
261.544	39.42
261.761	80.38
261.977	66.05
262.193	41.47
262.409	18.94
262.626	53.76
262.842	-5.63
263.058	39.42
263.274	-9.73
263.49	111.1
263.707	70.14
263.923	72.19
264.139	8.7
264.355	0.51
264.571	57.86
264.787	49.66
265.004	10.75
265.22	43.52
265.436	57.86
265.652	39.42
265.868	-13.82
266.084	18.94
266.3	49.66
266.516	33.28
266.732	45.57
266.948	37.38
267.164	51.71
267.38	18.94
267.596	41.47
267.812	35.33
268.028	18.94
268.244	-5.63
268.46	14.85
268.676	8.7
268.892	-32.26
269.108	-5.63
269.324	49.66
269.54	-30.21
269.756	55.81
269.972	-5.63
270.188	31.23
270.403	49.66
270.619	68.09
270.835	39.42
271.051	14.85
271.267	27.14
271.483	45.57
271.698	16.9
271.914	59.9
272.13	55.81
272.346	-42.5
272.562	16.9
272.777	-7.68
272.993	39.42
273.209	-15.87
273.425	-30.21
273.64	70.14
273.856	20.99
274.072	-5.63
274.287	20.99
274.503	64
274.719	66.05
274.934	57.86
275.15	6.66
275.366	61.95
275.581	6.66
275.797	-19.97
276.012	27.14
276.228	25.09
276.444	25.09
276.659	70.14
276.875	-11.78
277.09	27.14
277.306	-15.87
277.521	53.76
277.737	-13.82
277.952	23.04
278.168	16.9
278.383	47.62
278.599	37.38
278.814	-13.82
279.03	25.09
279.245	72.19
279.461	37.38
279.676	96.77
279.892	6.66
280.107	-26.11
280.322	-5.63
280.538	70.14
280.753	-40.45
280.969	20.99
281.184	55.81
281.399	57.86
281.615	23.04
281.83	-77.31
282.045	29.18
282.26	51.71
282.476	53.76
282.691	61.95
282.906	41.47
283.122	57.86
283.337	-1.54
283.552	-11.78
283.767	18.94
283.983	45.57
284.198	43.52
284.413	76.29
284.628	74.24
284.843	20.99
285.058	76.29
285.274	16.9
285.489	39.42
285.704	33.28
285.919	33.28
286.134	16.9
286.349	8.7
286.564	2.56
286.779	102.91
286.995	41.47
287.21	80.38
287.425	57.86
287.64	51.71
287.855	-7.68
288.07	-24.06
288.285	53.76
288.5	37.38
288.715	18.94
288.93	59.9
289.145	-11.78
289.36	35.33
289.575	31.23
289.79	16.9
290.004	0.51
290.219	-1.54
290.434	72.19
290.649	33.28
290.864	29.18
291.079	61.95
291.294	39.42
291.509	0.51
291.724	49.66
291.938	8.7
292.153	70.14
292.368	23.04
292.583	20.99
292.798	6.66
293.012	25.09
293.227	6.66
293.442	31.23
293.657	51.71
293.871	20.99
294.086	68.09
294.301	2.56
294.516	53.76
294.73	29.18
294.945	-9.73
295.16	59.9
295.374	100.86
295.589	49.66
295.804	82.43
296.018	10.75
296.233	41.47
296.447	31.23
296.662	49.66
296.877	23.04
297.091	-32.26
297.306	82.43
297.52	43.52
297.735	49.66
297.949	25.09
298.164	74.24
298.378	-5.63
298.593	-19.97
298.807	43.52
299.022	12.8
299.236	29.18
299.451	25.09
299.665	80.38
299.88	8.7
300.094	6.66
300.309	37.38
300.523	2.56
300.737	35.33
300.952	70.14
301.166	-5.63
301.381	57.86
301.595	4.61
301.809	49.66
302.024	49.66
302.238	16.9
302.452	45.57
302.667	72.19
302.881	-65.02
303.095	57.86
303.309	49.66
303.524	-34.3
303.738	43.52
303.952	29.18
304.166	57.86
304.381	43.52
304.595	61.95
304.809	-17.92
305.023	80.38
305.237	78.33
305.452	39.42
305.666	66.05
305.88	61.95
306.094	59.9
306.308	35.33
306.522	-5.63
306.736	51.71
306.95	-22.02
307.164	18.94
307.379	37.38
307.593	64
307.807	16.9
308.021	-13.82
308.235	74.24
308.449	16.9
308.663	-3.58
308.877	57.86
309.091	-5.63
309.305	-15.87
309.519	-1.54
309.733	20.99
309.947	-52.74
310.161	70.14
310.374	45.57
310.588	59.9
310.802	47.62
311.016	-81.41
311.23	45.57
311.444	86.53
311.658	-5.63
311.872	72.19
312.085	8.7
312.299	43.52
312.513	55.81
312.727	8.7
312.941	25.09
313.154	66.05
313.368	66.05
313.582	61.95
313.796	-11.78
314.009	47.62
314.223	113.15
314.437	-22.02
314.651	33.28
314.864	35.33
315.078	-3.58
315.292	137.73
315.505	59.9
315.719	6.66
315.933	41.47
316.146	18.94
316.36	59.9
316.573	25.09
316.787	78.33
317.001	61.95
317.214	66.05
317.428	12.8
317.641	96.77
317.855	61.95
318.068	43.52
318.282	-7.68
318.495	119.29
318.709	0.51
318.922	41.47
319.136	29.18
319.349	33.28
319.563	82.43
319.776	57.86
319.99	-22.02
320.203	109.05
320.417	61.95
320.63	-7.68
320.843	-40.45
321.057	39.42
321.27	25.09
321.483	121.34
321.697	29.18
321.91	33.28
322.124	57.86
322.337	2.56
322.55	51.71
322.763	25.09
322.977	23.04
323.19	8.7
323.403	20.99
323.617	23.04
323.83	57.86
324.043	64
324.256	82.43
324.469	41.47
324.683	35.33
324.896	12.8
325.109	57.86
325.322	51.71
325.535	-5.63
325.748	29.18
325.962	-9.73
326.175	10.75
326.388	107.01
326.601	94.72
326.814	29.18
327.027	84.48
327.24	59.9
327.453	25.09
327.666	64
327.879	-15.87
328.092	35.33
328.305	57.86
328.518	70.14
328.731	6.66
328.944	-9.73
329.157	39.42
329.37	16.9
329.583	27.14
329.796	33.28
330.009	10.75
330.222	45.57
330.435	111.1
330.648	31.23
330.861	74.24
331.073	100.86
331.286	31.23
331.499	66.05
331.712	35.33
331.925	45.57
332.138	100.86
332.35	35.33
332.563	-9.73
332.776	94.72
332.989	61.95
333.202	43.52
333.414	55.81
333.627	29.18
333.84	88.57
334.053	68.09
334.265	29.18
334.478	82.43
334.691	23.04
334.903	-7.68
335.116	-52.74
335.329	51.71
335.541	12.8
335.754	29.18
335.966	-15.87
336.179	20.99
336.392	80.38
336.604	84.48
336.817	33.28
337.029	-15.87
337.242	78.33
337.454	100.86
337.667	49.66
337.88	72.19
338.092	0.51
338.305	37.38
338.517	96.77
338.729	102.91
338.942	104.96
339.154	70.14
339.367	-13.82
339.579	0.51
339.792	49.66
340.004	12.8
340.217	82.43
340.429	27.14
340.641	68.09
340.854	74.24
341.066	57.86
341.278	20.99
341.491	55.81
341.703	57.86
341.915	143.87
342.128	-11.78
342.34	-40.45
342.552	37.38
342.764	20.99
342.977	51.71
343.189	96.77
343.401	45.57
343.613	-89.6
343.826	-24.06
344.038	8.7
344.25	51.71
344.462	66.05
344.674	107.01
344.886	18.94
345.099	20.99
345.311	86.53
345.523	55.81
345.735	-42.5
345.947	25.09
346.159	6.66
346.371	31.23
346.583	74.24
346.795	55.81
347.007	20.99
347.219	78.33
347.431	84.48
347.643	68.09
347.855	72.19
348.067	66.05
348.279	10.75
348.491	-40.45
348.703	51.71
348.915	4.61
349.127	-5.63
349.339	-13.82
349.551	82.43
349.763	92.67
349.975	107.01
350.187	74.24
350.399	14.85
350.61	49.66
350.822	25.09
351.034	-9.73
351.246	-22.02
351.458	-1.54
351.669	-24.06
351.881	64
352.093	109.05
352.305	94.72
352.517	0.51
352.728	41.47
352.94	57.86
353.152	39.42
353.363	43.52
353.575	66.05
353.787	78.33
353.999	88.57
354.21	45.57
354.422	6.66
354.633	78.33
354.845	51.71
355.057	59.9
355.268	-1.54
355.48	86.53
355.692	39.42
355.903	-7.68
356.115	76.29
356.326	49.66
356.538	76.29
356.749	59.9
356.961	23.04
357.172	0.51
357.384	90.62
357.595	45.57
357.807	31.23
358.018	12.8
358.23	18.94
358.441	90.62
358.653	20.99
358.864	20.99
359.075	-30.21
359.287	115.2
359.498	111.1
359.709	51.71
359.921	-13.82
360.132	43.52
360.344	16.9
360.555	16.9
360.766	18.94
360.977	98.81
361.189	14.85
361.4	41.47
361.611	-60.93
361.823	96.77
362.034	59.9
362.245	49.66
362.456	33.28
362.667	-19.97
362.879	76.29
363.09	27.14
363.301	55.81
363.512	18.94
363.723	12.8
363.935	41.47
364.146	41.47
364.357	47.62
364.568	84.48
364.779	-1.54
364.99	16.9
365.201	0.51
365.412	147.97
365.623	2.56
365.834	82.43
366.045	2.56
366.256	90.62
366.467	-24.06
366.678	121.34
366.889	41.47
367.1	49.66
367.311	31.23
367.522	47.62
367.733	59.9
367.944	-22.02
368.155	59.9
368.366	12.8
368.577	10.75
368.788	-22.02
368.999	39.42
369.209	-5.63
369.42	86.53
369.631	31.23
369.842	68.09
370.053	86.53
370.264	35.33
370.474	35.33
370.685	12.8
370.896	90.62
371.107	29.18
371.317	74.24
371.528	76.29
371.739	8.7
371.95	25.09
372.16	66.05
372.371	25.09
372.582	4.61
372.792	104.96
373.003	133.63
373.214	-36.35
373.424	-19.97
373.635	6.66
373.846	61.95
374.056	35.33
374.267	74.24
374.477	82.43
374.688	31.23
374.898	94.72
375.109	0.51
375.319	59.9
375.53	133.63
375.74	61.95
375.951	31.23
376.161	96.77
376.372	72.19
376.582	37.38
376.793	-7.68
377.003	23.04
377.214	64
377.424	66.05
377.635	102.91
377.845	80.38
378.055	10.75
378.266	86.53
378.476	8.7
378.686	74.24
378.897	18.94
379.107	94.72
379.317	18.94
379.528	57.86
379.738	-7.68
379.948	39.42
380.158	96.77
380.369	37.38
380.579	39.42
380.789	57.86
380.999	90.62
381.21	35.33
381.42	35.33
381.63	61.95
381.84	80.38
382.05	100.86
382.261	53.76
382.471	-17.92
382.681	47.62
382.891	156.16
383.101	-15.87
383.311	51.71
383.521	53.76
383.731	45.57
383.941	59.9
384.151	-3.58
384.361	-15.87
384.571	61.95
384.781	27.14
384.991	137.73
385.201	64
385.411	16.9
385.621	76.29
385.831	88.57
386.041	82.43
386.251	53.76
386.461	139.77
386.671	92.67
386.881	29.18
387.091	47.62
387.301	76.29
387.511	47.62
387.72	-38.4
387.93	57.86
388.14	2.56
388.35	41.47
388.56	37.38
388.769	29.18
388.979	70.14
389.189	49.66
389.399	64
389.609	43.52
389.818	55.81
390.028	35.33
390.238	68.09
390.447	59.9
390.657	-15.87
390.867	78.33
391.076	109.05
391.286	6.66
391.496	45.57
391.705	119.29
391.915	25.09
392.125	109.05
392.334	64
392.544	64
392.753	57.86
392.963	29.18
393.172	78.33
393.382	107.01
393.591	98.81
393.801	72.19
394.01	111.1
394.22	27.14
394.429	29.18
394.639	45.57
394.848	0.51
395.058	74.24
395.267	102.91
395.477	20.99
395.686	98.81
395.895	74.24
396.105	129.53
396.314	84.48
396.524	41.47
396.733	107.01
396.942	135.68
397.152	43.52
397.361	119.29
397.57	98.81
397.78	20.99
397.989	76.29
398.198	102.91
398.407	113.15
398.617	115.2
398.826	23.04
399.035	45.57
399.244	102.91
399.453	53.76
399.663	88.57
399.872	117.25
400.081	88.57
400.29	76.29
400.499	59.9
400.708	123.39
400.917	100.86
401.127	68.09
401.336	70.14
401.545	125.44
401.754	61.95
401.963	92.67
402.172	47.62
402.381	25.09
402.59	70.14
402.799	111.1
403.008	139.77
403.217	88.57
403.426	164.35
403.635	78.33
403.844	92.67
404.053	100.86
404.262	168.45
404.471	172.54
404.68	170.49
404.888	107.01
405.097	147.97
405.306	109.05
405.515	96.77
405.724	121.34
405.933	141.82
406.142	98.81
406.35	96.77
406.559	102.91
406.768	152.06
406.977	174.59
407.185	100.86
407.394	197.12
407.603	121.34
407.812	166.4
408.02	154.11
408.229	227.84
408.438	174.59
408.646	233.98
408.855	152.06
409.064	199.16
409.272	150.01
409.481	274.94
409.69	313.85
409.898	178.69
410.107	213.5
410.315	256.51
410.524	281.08
410.733	246.27
410.941	190.97
411.15	299.52
411.358	291.32
411.567	336.38
411.775	326.14
411.984	311.8
412.192	363
412.401	305.66
412.609	332.28
412.818	315.9
413.026	334.33
413.234	360.95
413.443	354.81
413.651	403.96
413.86	356.86
414.068	459.26
414.276	444.92
414.485	432.63
414.693	395.77
414.901	479.74
415.11	518.65
415.318	492.02
415.526	565.75
415.734	514.55
415.943	553.46
416.151	514.55
416.359	616.95
416.567	668.15
416.776	582.14
416.984	684.53
417.192	565.75
417.4	616.95
417.608	645.62
417.817	690.68
418.025	745.97
418.233	801.27
418.441	737.78
418.649	815.6
418.857	862.71
419.065	946.67
419.273	928.24
419.481	913.91
419.689	922.1
419.897	1014.26
420.105	1065.46
420.313	1075.7
420.521	993.78
420.729	1106.42
420.937	1079.79
421.145	1161.71
421.353	1251.82
421.561	1284.59
421.769	1321.45
421.977	1376.75
422.185	1386.99
422.393	1456.62
422.601	1597.93
422.809	1591.78
423.017	1436.14
423.224	1692.13
423.432	1751.53
423.64	1747.43
423.848	1794.53
424.056	1749.48
424.263	1886.69
424.471	1894.88
424.679	2023.91
424.887	2116.06
425.094	2083.3
425.302	2210.27
425.51	2202.08
425.718	2353.63
425.925	2447.83
426.133	2474.46
426.341	2599.38
426.548	2703.83
426.756	2525.66
426.964	2736.6
427.171	2841.04
427.379	2892.24
427.586	2976.21
427.794	3049.94
428.001	3172.82
428.209	3387.85
428.417	3254.73
428.624	3559.88
428.832	3541.45
429.039	3568.07
429.247	3473.87
429.454	3699.14
429.662	4182.46
429.869	3774.92
430.076	4161.98
430.284	4057.54
430.491	4174.27
430.699	4426.17
430.906	4372.93
431.114	4493.76
431.321	4653.5
431.528	4815.29
431.736	5089.71
431.943	5265.84
432.15	5130.67
432.358	5200.3
432.565	5489.07
432.772	5589.42
432.979	5847.46
433.187	5913
433.394	5826.98
433.601	6326.69
433.808	6320.54
434.016	6173.09
434.223	6554.01
434.43	7002.52
434.637	6863.26
434.844	7393.68
435.052	7410.06
435.259	7182.74
435.466	7561.61
435.673	7326.1
435.88	7928.2
436.087	8094.08
436.294	8292.74
436.501	8018.31
436.708	8272.26
436.915	8591.74
437.122	8978.81
437.329	8950.14
437.537	9195.89
437.743	9460.08
437.95	8991.09
438.157	9929.06
438.364	10119.53
438.571	9990.5
438.778	10086.76
438.985	10967.38
439.192	10520.93
439.399	11037.02
439.606	10594.65
439.813	11477.33
440.02	11929.93
440.227	11915.59
440.433	11721.04
440.64	11960.65
440.847	11938.12
441.054	12570.94
441.261	13279.54
441.467	12974.39
441.674	12947.77
441.881	13685.04
442.088	13951.28
442.294	13623.6
442.501	13947.18
442.708	14199.08
442.914	14690.59
443.121	15552.79
443.328	15184.15
443.534	15847.69
443.741	15726.86
443.948	15528.21
444.154	16744.7
444.361	16300.3
444.568	16584.96
444.774	16701.7
444.981	16824.58
445.187	17291.51
445.394	18088.17
445.6	17785.07
445.807	19589.33
446.013	18768.1
446.22	19306.71
446.426	19796.18
446.633	20086.99
446.839	20469.96
447.046	19712.21
447.252	20779.2
447.459	21033.15
447.665	20736.2
447.871	21954.74
448.078	22861.99
448.284	21885.11
448.491	22315.18
448.697	23072.93
448.903	23584.92
449.11	23550.1
449.316	23083.17
449.522	23505.05
449.728	24234.13
449.935	24395.92
450.141	24750.21
450.347	25135.23
450.553	24289.42
450.76	24520.84
450.966	25372.8
451.172	24995.97
451.378	25749.62
451.584	25411.71
451.791	25716.86
451.997	25702.52
452.203	26488.94
452.409	25929.84
452.615	26048.63
452.821	24897.67
453.027	25055.36
453.233	26327.15
453.44	25239.68
453.646	25313.41
453.852	25438.33
454.058	26032.24
454.264	25084.03
454.47	25671.8
454.676	25104.51
454.882	25917.56
455.088	23941.27
455.294	24135.82
455.5	24748.17
455.705	24840.32
455.911	23756.95
456.117	23578.78
456.323	22771.88
456.529	21864.63
456.735	22904.99
456.941	22171.82
457.147	21981.36
457.352	21164.22
457.558	21139.65
457.764	20916.42
457.97	20545.73
458.176	20076.75
458.381	20142.28
458.587	19063.01
458.793	19175.64
458.999	18385.13
459.204	19603.67
459.41	19136.73
459.616	17676.53
459.821	17721.59
460.027	17529.08
460.233	17580.28
460.438	16423.17
460.644	16642.31
460.85	16040.2
461.055	15829.26
461.261	15968.52
461.466	14747.93
461.672	13949.23
461.878	15327.51
462.083	14350.63
462.289	14018.86
462.494	13857.07
462.7	13052.22
462.905	12689.73
463.111	13261.11
463.316	13631.79
463.522	13121.85
463.727	13189.43
463.932	13291.83
464.138	12978.49
464.343	12853.56
464.549	12624.19
464.754	12931.39
464.959	13146.42
465.165	12896.57
465.37	12200.26
465.575	11950.41
465.781	12560.7
465.986	12620.1
466.191	12331.33
466.397	11624.78
466.602	11198.81
466.807	11790.67
467.012	11856.2
467.218	11880.78
467.423	11618.64
467.628	11637.07
467.833	12175.69
468.038	11653.45
468.244	11362.64
468.449	11831.63
468.654	11387.22
468.859	11481.42
469.064	11424.08
469.269	10942.81
