Data from USB4F104151__102__12-55-00-326.txt Node

Date: Fri Mar 14 12:55:00 EDT 2025
User: louis
Spectrometer: USB4F10415
Trigger mode: 4
Integration Time (sec): 1.000000E-2
Scans to average: 1
Electric dark correction enabled: true
Nonlinearity correction enabled: false
Boxcar width: 0
XAxis mode: Wavelengths
Number of Pixels in Spectrum: 3648
>>>>>Begin Spectral Data<<<<<
178.204	-40.96
178.424	-40.96
178.644	-40.96
178.864	-90.11
179.084	-110.59
179.304	-49.15
179.524	-16.38
179.744	10.24
179.964	-2.05
180.184	-4.1
180.404	-8.19
180.624	71.68
180.844	12.29
181.064	16.38
181.283	40.96
181.503	-32.77
181.723	-38.91
181.943	2.05
182.163	-14.34
182.383	-43.01
182.602	-6.14
182.822	51.2
183.042	-16.38
183.262	-16.38
183.482	-6.14
183.701	-55.3
183.921	53.25
184.141	26.62
184.361	-2.05
184.58	51.2
184.8	-38.91
185.02	-77.82
185.239	-2.05
185.459	40.96
185.679	2.05
185.898	14.34
186.118	-32.77
186.338	12.29
186.557	-47.1
186.777	2.05
186.997	32.77
187.216	-4.1
187.436	57.34
187.655	73.73
187.875	4.1
188.095	-14.34
188.314	-49.15
188.534	-0
188.753	-8.19
188.973	20.48
189.192	59.39
189.412	2.05
189.631	10.24
189.851	24.58
190.07	8.19
190.29	-0
190.509	16.38
190.729	-12.29
190.948	4.1
191.168	-2.05
191.387	-12.29
191.607	-88.06
191.826	-57.34
192.045	-2.05
192.265	-24.58
192.484	65.53
192.704	-32.77
192.923	-14.34
193.142	22.53
193.362	-28.67
193.581	43.01
193.8	22.53
194.02	-28.67
194.239	-53.25
194.458	-16.38
194.678	53.25
194.897	-61.44
195.116	18.43
195.335	47.1
195.555	-14.34
195.774	6.14
195.993	22.53
196.212	12.29
196.432	26.62
196.651	-36.86
196.87	-57.34
197.089	-55.3
197.308	-24.58
197.528	32.77
197.747	-96.25
197.966	-16.38
198.185	-38.91
198.404	63.49
198.623	40.96
198.842	-73.73
199.062	-24.58
199.281	-24.58
199.5	4.1
199.719	-8.19
199.938	24.58
200.157	34.82
200.376	59.39
200.595	30.72
200.814	-6.14
201.033	-8.19
201.252	49.15
201.471	-77.82
201.69	18.43
201.909	-16.38
202.128	-16.38
202.347	-32.77
202.566	-16.38
202.785	-8.19
203.004	79.87
203.223	45.06
203.442	-0
203.661	20.48
203.879	-55.3
204.098	-0
204.317	-30.72
204.536	-10.24
204.755	-57.34
204.974	45.06
205.193	-0
205.411	-12.29
205.63	28.67
205.849	38.91
206.068	-32.77
206.287	-38.91
206.505	16.38
206.724	-49.15
206.943	90.11
207.162	4.1
207.381	18.43
207.599	30.72
207.818	6.14
208.037	28.67
208.255	8.19
208.474	30.72
208.693	-36.86
208.911	-28.67
209.13	2.05
209.349	-6.14
209.567	22.53
209.786	-14.34
210.005	57.34
210.223	57.34
210.442	-12.29
210.661	-32.77
210.879	4.1
211.098	67.58
211.316	32.77
211.535	57.34
211.753	14.34
211.972	57.34
212.191	-47.1
212.409	-61.44
212.628	-28.67
212.846	14.34
213.065	22.53
213.283	-47.1
213.502	2.05
213.72	-57.34
213.938	-81.92
214.157	4.1
214.375	16.38
214.594	-0
214.812	-8.19
215.031	2.05
215.249	-49.15
215.467	67.58
215.686	-63.49
215.904	-18.43
216.122	-40.96
216.341	20.48
216.559	-16.38
216.778	-0
216.996	43.01
217.214	-18.43
217.432	14.34
217.651	2.05
217.869	-8.19
218.087	16.38
218.306	32.77
218.524	81.92
218.742	-45.06
218.96	51.2
219.179	6.14
219.397	10.24
219.615	32.77
219.833	10.24
220.051	36.86
220.27	32.77
220.488	71.68
220.706	-0
220.924	-88.06
221.142	-18.43
221.36	-6.14
221.578	45.06
221.796	47.1
222.015	-45.06
222.233	-8.19
222.451	-12.29
222.669	-4.1
222.887	-10.24
223.105	-32.77
223.323	-22.53
223.541	-30.72
223.759	8.19
223.977	28.67
224.195	49.15
224.413	12.29
224.631	-4.1
224.849	-45.06
225.067	-2.05
225.285	-28.67
225.503	-45.06
225.721	14.34
225.939	-22.53
226.157	-16.38
226.375	16.38
226.592	59.39
226.81	40.96
227.028	-0
227.246	-4.1
227.464	-81.92
227.682	8.19
227.9	-2.05
228.117	67.58
228.335	-28.67
228.553	-47.1
228.771	-22.53
228.989	12.29
229.206	45.06
229.424	-10.24
229.642	-32.77
229.86	-10.24
230.077	-32.77
230.295	12.29
230.513	38.91
230.731	12.29
230.948	30.72
231.166	10.24
231.384	-24.58
231.601	10.24
231.819	-67.58
232.037	-30.72
232.254	49.15
232.472	-45.06
232.689	-8.19
232.907	-6.14
233.125	-53.25
233.342	-69.63
233.56	-12.29
233.777	-14.34
233.995	16.38
234.213	-2.05
234.43	-57.34
234.648	73.73
234.865	28.67
235.083	-30.72
235.3	-12.29
235.518	24.58
235.735	-22.53
235.953	-43.01
236.17	40.96
236.388	65.53
236.605	4.1
236.822	81.92
237.04	-8.19
237.257	36.86
237.475	-49.15
237.692	-43.01
237.909	2.05
238.127	-4.1
238.344	20.48
238.562	10.24
238.779	-47.1
238.996	24.58
239.214	-18.43
239.431	-47.1
239.648	57.34
239.865	71.68
240.083	-2.05
240.3	12.29
240.517	-32.77
240.735	12.29
240.952	-59.39
241.169	-4.1
241.386	-34.82
241.603	-0
241.821	57.34
242.038	45.06
242.255	-47.1
242.472	-10.24
242.689	-40.96
242.907	12.29
243.124	30.72
243.341	8.19
243.558	45.06
243.775	12.29
243.992	-24.58
244.209	-6.14
244.426	-18.43
244.643	61.44
244.86	-14.34
245.078	49.15
245.295	-8.19
245.512	-55.3
245.729	-22.53
245.946	6.14
246.163	43.01
246.38	-22.53
246.597	-14.34
246.814	-49.15
247.031	-32.77
247.248	10.24
247.464	16.38
247.681	16.38
247.898	-8.19
248.115	10.24
248.332	-40.96
248.549	77.82
248.766	73.73
248.983	-24.58
249.2	-2.05
249.417	59.39
249.633	16.38
249.85	10.24
250.067	-6.14
250.284	-30.72
250.501	-6.14
250.717	-12.29
250.934	-69.63
251.151	22.53
251.368	-20.48
251.585	69.63
251.801	45.06
252.018	-51.2
252.235	83.97
252.451	-20.48
252.668	-16.38
252.885	-73.73
253.102	-8.19
253.318	92.16
253.535	10.24
253.752	-32.77
253.968	-30.72
254.185	-53.25
254.401	6.14
254.618	-57.34
254.835	-8.19
255.051	-14.34
255.268	67.58
255.484	26.62
255.701	-4.1
255.917	-32.77
256.134	-40.96
256.351	-8.19
256.567	-81.92
256.784	-12.29
257	2.05
257.217	-30.72
257.433	24.58
257.65	-28.67
257.866	2.05
258.082	-14.34
258.299	-6.14
258.515	8.19
258.732	2.05
258.948	8.19
259.165	24.58
259.381	32.77
259.597	-24.58
259.814	53.25
260.03	-2.05
260.246	24.58
260.463	-14.34
260.679	28.67
260.895	55.3
261.112	-10.24
261.328	-0
261.544	-79.87
261.761	-20.48
261.977	61.44
262.193	-6.14
262.409	-0
262.626	8.19
262.842	-57.34
263.058	40.96
263.274	-8.19
263.49	65.53
263.707	38.91
263.923	36.86
264.139	-20.48
264.355	-61.44
264.571	-2.05
264.787	-32.77
265.004	-2.05
265.22	-18.43
265.436	-20.48
265.652	12.29
265.868	-34.82
266.084	-24.58
266.3	4.1
266.516	-30.72
266.732	8.19
266.948	-69.63
267.164	32.77
267.38	-40.96
267.596	-86.01
267.812	30.72
268.028	-65.54
268.244	-2.05
268.46	-6.14
268.676	20.48
268.892	-14.34
269.108	8.19
269.324	-16.38
269.54	-36.86
269.756	-18.43
269.972	-10.24
270.188	26.62
270.403	-0
270.619	2.05
270.835	-10.24
271.051	14.34
271.267	-2.05
271.483	8.19
271.698	-18.43
271.914	8.19
272.13	12.29
272.346	2.05
272.562	18.43
272.777	-24.58
272.993	-77.82
273.209	-6.14
273.425	24.58
273.64	-26.62
273.856	34.82
274.072	-26.62
274.287	-0
274.503	57.34
274.719	-55.3
274.934	-32.77
275.15	-24.58
275.366	-51.2
275.581	-4.1
275.797	-4.1
276.012	14.34
276.228	-6.14
276.444	61.44
276.659	20.48
276.875	18.43
277.09	4.1
277.306	30.72
277.521	59.39
277.737	4.1
277.952	2.05
278.168	45.06
278.383	-57.34
278.599	32.77
278.814	32.77
279.03	2.05
279.245	-36.86
279.461	-6.14
279.676	-16.38
279.892	14.34
280.107	4.1
280.322	32.77
280.538	-38.91
280.753	-22.53
280.969	18.43
281.184	26.62
281.399	47.1
281.615	-38.91
281.83	32.77
282.045	-45.06
282.26	45.06
282.476	40.96
282.691	40.96
282.906	-90.11
283.122	2.05
283.337	-16.38
283.552	10.24
283.767	20.48
283.983	22.53
284.198	-26.62
284.413	45.06
284.628	-38.91
284.843	-20.48
285.058	-22.53
285.274	-65.54
285.489	-32.77
285.704	-22.53
285.919	2.05
286.134	22.53
286.349	-2.05
286.564	24.58
286.779	-34.82
286.995	49.15
287.21	-0
287.425	-34.82
287.64	32.77
287.855	57.34
288.07	-30.72
288.285	12.29
288.5	26.62
288.715	-0
288.93	-14.34
289.145	-26.62
289.36	-0
289.575	40.96
289.79	4.1
290.004	26.62
290.219	4.1
290.434	2.05
290.649	-4.1
290.864	-45.06
291.079	-79.87
291.294	10.24
291.509	20.48
291.724	26.62
291.938	-40.96
292.153	-0
292.368	-22.53
292.583	73.73
292.798	10.24
293.012	45.06
293.227	-2.05
293.442	-28.67
293.657	-4.1
293.871	-4.1
294.086	4.1
294.301	-18.43
294.516	-20.48
294.73	63.49
294.945	-86.01
295.16	28.67
295.374	14.34
295.589	-8.19
295.804	-4.1
296.018	30.72
296.233	14.34
296.447	28.67
296.662	-14.34
296.877	16.38
297.091	-16.38
297.306	10.24
297.52	28.67
297.735	-38.91
297.949	28.67
298.164	-16.38
298.378	-61.44
298.593	-16.38
298.807	-18.43
299.022	24.58
299.236	8.19
299.451	-8.19
299.665	-26.62
299.88	-22.53
300.094	-28.67
300.309	18.43
300.523	-30.72
300.737	49.15
300.952	-2.05
301.166	-24.58
301.381	-32.77
301.595	18.43
301.809	-57.34
302.024	-63.49
302.238	-63.49
302.452	-40.96
302.667	2.05
302.881	-30.72
303.095	69.63
303.309	18.43
303.524	-30.72
303.738	-8.19
303.952	-12.29
304.166	67.58
304.381	-36.86
304.595	32.77
304.809	10.24
305.023	-20.48
305.237	-32.77
305.452	28.67
305.666	96.25
305.88	-49.15
306.094	-0
306.308	-22.53
306.522	14.34
306.736	28.67
306.95	40.96
307.164	47.1
307.379	16.38
307.593	-61.44
307.807	-2.05
308.021	67.58
308.235	-24.58
308.449	-59.39
308.663	38.91
308.877	73.73
309.091	-26.62
309.305	51.2
309.519	-38.91
309.733	32.77
309.947	2.05
310.161	18.43
310.374	-2.05
310.588	-32.77
310.802	-22.53
311.016	8.19
311.23	65.53
311.444	6.14
311.658	-47.1
311.872	4.1
312.085	30.72
312.299	20.48
312.513	4.1
312.727	-45.06
312.941	-116.73
313.154	-10.24
313.368	-22.53
313.582	12.29
313.796	-10.24
314.009	-63.49
314.223	-53.25
314.437	36.86
314.651	-43.01
314.864	6.14
315.078	-20.48
315.292	-30.72
315.505	36.86
315.719	12.29
315.933	32.77
316.146	53.25
316.36	-34.82
316.573	24.58
316.787	59.39
317.001	18.43
317.214	-8.19
317.428	-38.91
317.641	47.1
317.855	14.34
318.068	-18.43
318.282	57.34
318.495	2.05
318.709	28.67
318.922	24.58
319.136	-65.54
319.349	43.01
319.563	43.01
319.776	16.38
319.99	53.25
320.203	-4.1
320.417	30.72
320.63	10.24
320.843	2.05
321.057	-34.82
321.27	2.05
321.483	-10.24
321.697	32.77
321.91	-12.29
322.124	18.43
322.337	-4.1
322.55	10.24
322.763	-51.2
322.977	4.1
323.19	16.38
323.403	12.29
323.617	-12.29
323.83	32.77
324.043	-18.43
324.256	-10.24
324.469	36.86
324.683	30.72
324.896	8.19
325.109	-71.68
325.322	-26.62
325.535	-8.19
325.748	20.48
325.962	16.38
326.175	-43.01
326.388	90.11
326.601	-26.62
326.814	-10.24
327.027	-4.1
327.24	-32.77
327.453	24.58
327.666	28.67
327.879	-22.53
328.092	32.77
328.305	-36.86
328.518	-0
328.731	-28.67
328.944	26.62
329.157	40.96
329.37	-53.25
329.583	24.58
329.796	61.44
330.009	-86.01
330.222	-16.38
330.435	18.43
330.648	-69.63
330.861	-59.39
331.073	28.67
331.286	55.3
331.499	-2.05
331.712	-28.67
331.925	-36.86
332.138	-8.19
332.35	16.38
332.563	32.77
332.776	26.62
332.989	-86.01
333.202	-0
333.414	-36.86
333.627	-6.14
333.84	-45.06
334.053	28.67
334.265	-30.72
334.478	-10.24
334.691	45.06
334.903	20.48
335.116	-94.21
335.329	57.34
335.541	-14.34
335.754	-18.43
335.966	8.19
336.179	40.96
336.392	-34.82
336.604	51.2
336.817	-0
337.029	-8.19
337.242	-14.34
337.454	18.43
337.667	57.34
337.88	51.2
338.092	4.1
338.305	16.38
338.517	-2.05
338.729	2.05
338.942	81.92
339.154	-4.1
339.367	-32.77
339.579	-6.14
339.792	-14.34
340.004	-26.62
340.217	71.68
340.429	-61.44
340.641	-24.58
340.854	-12.29
341.066	-2.05
341.278	16.38
341.491	22.53
341.703	-18.43
341.915	-28.67
342.128	-6.14
342.34	8.19
342.552	47.1
342.764	-0
342.977	34.82
343.189	-45.06
343.401	-24.58
343.613	71.68
343.826	-61.44
344.038	28.67
344.25	57.34
344.462	-28.67
344.674	57.34
344.886	-63.49
345.099	-14.34
345.311	-53.25
345.523	24.58
345.735	49.15
345.947	92.16
346.159	-26.62
346.371	-2.05
346.583	-6.14
346.795	20.48
347.007	45.06
347.219	2.05
347.431	12.29
347.643	40.96
347.855	47.1
348.067	-6.14
348.279	22.53
348.491	49.15
348.703	36.86
348.915	-16.38
349.127	-65.54
349.339	-38.91
349.551	32.77
349.763	-2.05
349.975	12.29
350.187	18.43
350.399	67.58
350.61	18.43
350.822	-34.82
351.034	16.38
351.246	8.19
351.458	10.24
351.669	-2.05
351.881	8.19
352.093	-24.58
352.305	-2.05
352.517	100.35
352.728	59.39
352.94	55.3
353.152	57.34
353.363	-10.24
353.575	-2.05
353.787	79.87
353.999	-6.14
354.21	-10.24
354.422	-24.58
354.633	-32.77
354.845	-43.01
355.057	8.19
355.268	-16.38
355.48	-55.3
355.692	8.19
355.903	8.19
356.115	10.24
356.326	-20.48
356.538	-10.24
356.749	-32.77
356.961	2.05
357.172	-53.25
357.384	28.67
357.595	-10.24
357.807	34.82
358.018	69.63
358.23	90.11
358.441	-16.38
358.653	-38.91
358.864	-28.67
359.075	-0
359.287	-67.58
359.498	40.96
359.709	20.48
359.921	22.53
360.132	4.1
360.344	-6.14
360.555	20.48
360.766	43.01
360.977	16.38
361.189	77.82
361.4	-8.19
361.611	36.86
361.823	51.2
362.034	34.82
362.245	14.34
362.456	-61.44
362.667	47.1
362.879	-32.77
363.09	-38.91
363.301	18.43
363.512	-14.34
363.723	-73.73
363.935	40.96
364.146	16.38
364.357	-24.58
364.568	55.3
364.779	-2.05
364.99	18.43
365.201	26.62
365.412	75.77
365.623	43.01
365.834	-6.14
366.045	-34.82
366.256	-2.05
366.467	-12.29
366.678	4.1
366.889	34.82
367.1	40.96
367.311	-57.34
367.522	-10.24
367.733	34.82
367.944	-36.86
368.155	8.19
368.366	2.05
368.577	-2.05
368.788	12.29
368.999	-10.24
369.209	47.1
369.42	47.1
369.631	24.58
369.842	10.24
370.053	-8.19
370.264	14.34
370.474	79.87
370.685	12.29
370.896	18.43
371.107	98.3
371.317	32.77
371.528	38.91
371.739	55.3
371.95	-28.67
372.16	8.19
372.371	22.53
372.582	16.38
372.792	22.53
373.003	10.24
373.214	-38.91
373.424	-32.77
373.635	30.72
373.846	18.43
374.056	34.82
374.267	-16.38
374.477	-71.68
374.688	-0
374.898	12.29
375.109	26.62
375.319	16.38
375.53	34.82
375.74	63.49
375.951	69.63
376.161	2.05
376.372	-0
376.582	-4.1
376.793	36.86
377.003	30.72
377.214	24.58
377.424	65.53
377.635	-8.19
377.845	38.91
378.055	-16.38
378.266	63.49
378.476	18.43
378.686	-14.34
378.897	12.29
379.107	4.1
379.317	10.24
379.528	-22.53
379.738	-28.67
379.948	32.77
380.158	67.58
380.369	36.86
380.579	38.91
380.789	-28.67
380.999	-16.38
381.21	67.58
381.42	67.58
381.63	2.05
381.84	40.96
382.05	22.53
382.261	-6.14
382.471	-6.14
382.681	24.58
382.891	-55.3
383.101	67.58
383.311	16.38
383.521	-81.92
383.731	45.06
383.941	43.01
384.151	-40.96
384.361	12.29
384.571	4.1
384.781	59.39
384.991	32.77
385.201	-8.19
385.411	16.38
385.621	-8.19
385.831	22.53
386.041	-22.53
386.251	-18.43
386.461	12.29
386.671	-40.96
386.881	-71.68
387.091	-6.14
387.301	-0
387.511	-36.86
387.72	-71.68
387.93	-30.72
388.14	-49.15
388.35	-2.05
388.56	-30.72
388.769	26.62
388.979	18.43
389.189	-32.77
389.399	10.24
389.609	-36.86
389.818	26.62
390.028	51.2
390.238	98.3
390.447	51.2
390.657	26.62
390.867	51.2
391.076	12.29
391.286	-28.67
391.496	92.16
391.705	-67.58
391.915	71.68
392.125	20.48
392.334	20.48
392.544	34.82
392.753	49.15
392.963	4.1
393.172	51.2
393.382	14.34
393.591	-16.38
393.801	10.24
394.01	26.62
394.22	-69.63
394.429	71.68
394.639	-0
394.848	116.73
395.058	14.34
395.267	47.1
395.477	6.14
395.686	-6.14
395.895	30.72
396.105	51.2
396.314	26.62
396.524	45.06
396.733	-22.53
396.942	-14.34
397.152	-18.43
397.361	26.62
397.57	43.01
397.78	-2.05
397.989	118.78
398.198	38.91
398.407	12.29
398.617	43.01
398.826	4.1
399.035	-14.34
399.244	43.01
399.453	45.06
399.663	-55.3
399.872	12.29
400.081	28.67
400.29	36.86
400.499	-16.38
400.708	40.96
400.917	59.39
401.127	-10.24
401.336	-6.14
401.545	24.58
401.754	61.44
401.963	26.62
402.172	32.77
402.381	-30.72
402.59	12.29
402.799	45.06
403.008	-6.14
403.217	45.06
403.426	-6.14
403.635	12.29
403.844	-51.2
404.053	24.58
404.262	-12.29
404.471	47.1
404.68	-34.82
404.888	108.54
405.097	112.64
405.306	43.01
405.515	83.97
405.724	43.01
405.933	86.01
406.142	79.87
406.35	65.53
406.559	26.62
406.768	8.19
406.977	96.25
407.185	65.53
407.394	34.82
407.603	2.05
407.812	81.92
408.02	51.2
408.229	73.73
408.438	75.77
408.646	-24.58
408.855	49.15
409.064	53.25
409.272	122.88
409.481	114.69
409.69	75.77
409.898	161.79
410.107	90.11
410.315	98.3
410.524	49.15
410.733	141.31
410.941	145.41
411.15	34.82
411.358	126.97
411.567	151.55
411.775	77.82
411.984	139.26
412.192	145.41
412.401	77.82
412.609	100.35
412.818	120.83
413.026	55.3
413.234	108.54
413.443	126.97
413.651	149.5
413.86	194.56
414.068	133.12
414.276	223.23
414.485	239.61
414.693	169.98
414.901	157.69
415.11	219.13
415.318	215.04
415.526	239.61
415.734	274.43
415.943	161.79
416.151	247.8
416.359	245.76
416.567	294.91
416.776	247.8
416.984	385.02
417.192	301.05
417.4	290.81
417.608	247.8
417.817	245.76
418.025	292.86
418.233	346.11
418.441	382.97
418.649	337.91
418.857	421.88
419.065	407.55
419.273	428.03
419.481	348.15
419.689	411.64
419.897	434.17
420.105	460.79
420.313	448.51
420.521	509.94
420.729	491.51
420.937	532.47
421.145	524.28
421.353	610.29
421.561	546.81
421.769	585.72
421.977	641.01
422.185	587.77
422.393	696.31
422.601	690.17
422.809	778.23
423.017	665.59
423.224	790.52
423.432	802.8
423.64	784.37
423.848	858.1
424.056	784.37
424.263	823.28
424.471	925.68
424.679	909.3
424.887	942.07
425.094	927.73
425.302	944.11
425.51	985.07
425.718	1103.86
425.925	1058.8
426.133	1103.86
426.341	1118.19
426.548	1234.93
426.756	1167.34
426.964	1282.03
427.171	1204.21
427.379	1226.73
427.586	1386.47
427.794	1427.43
428.001	1345.52
428.209	1460.2
428.417	1515.5
428.624	1558.5
428.832	1626.09
429.039	1607.66
429.247	1621.99
429.454	1800.16
429.662	1871.84
429.869	1689.57
430.076	1968.1
430.284	1855.46
430.491	1837.03
430.699	1873.89
430.906	1992.67
431.114	2088.93
431.321	2150.37
431.528	2240.48
431.736	2250.72
431.943	2426.84
432.15	2346.97
432.358	2471.9
432.565	2533.34
432.772	2543.58
432.979	2570.2
433.187	2666.46
433.394	2643.93
433.601	3055.57
433.808	2883.54
434.016	2865.11
434.223	3051.47
434.43	3225.55
434.637	3094.48
434.844	3330
435.052	3280.85
435.259	3262.41
435.466	3317.71
435.673	3301.33
435.88	3614.66
436.087	3817.41
436.294	3784.65
436.501	3698.63
436.708	3690.44
436.915	3893.19
437.122	3989.44
437.329	3977.16
437.537	4136.9
437.743	4233.15
437.95	4214.72
438.157	4364.22
438.364	4501.44
438.571	4464.57
438.778	4589.5
438.985	5044.15
439.192	4681.66
439.399	4894.65
439.606	4845.49
439.813	4976.56
440.02	5365.68
440.227	5476.27
440.433	5386.16
440.64	5611.43
440.847	5318.57
441.054	5560.24
441.261	6080.42
441.467	5832.61
441.674	5922.73
441.881	6191.01
442.088	6307.74
442.294	5984.16
442.501	6113.19
442.708	6393.76
442.914	6657.95
443.121	7077.78
443.328	6848.41
443.534	7270.29
443.741	7112.6
443.948	6809.5
444.154	7511.95
444.361	7368.59
444.568	7456.65
444.774	7456.65
444.981	7649.16
445.187	7937.93
445.394	8132.48
445.6	8216.45
445.807	8654.72
446.013	8259.46
446.22	8626.04
446.426	9017.21
446.633	9029.49
446.839	9254.77
447.046	8841.08
447.252	9334.64
447.459	9504.62
447.665	9199.48
447.871	9645.93
448.078	10297.19
448.284	9754.48
448.491	10086.25
448.697	10428.26
448.903	10610.53
449.11	10538.85
449.316	10383.2
449.522	10674.01
449.728	10868.57
449.935	11388.75
450.141	11286.36
450.347	11231.06
450.553	10895.19
450.76	11206.49
450.966	11532.11
451.172	11523.92
451.378	11689.81
451.584	11419.47
451.791	11775.82
451.997	11628.37
452.203	11982.67
452.409	11833.16
452.615	11722.57
452.821	11335.51
453.027	11274.07
453.233	11822.92
453.44	11548.5
453.646	11573.07
453.852	11519.82
454.058	12021.58
454.264	11419.47
454.47	11673.42
454.676	11480.91
454.882	11626.32
455.088	10815.32
455.294	10917.72
455.5	10895.19
455.705	11124.57
455.911	10786.65
456.117	10461.02
456.323	10575.71
456.529	9877.35
456.735	10157.92
456.941	9977.7
457.147	9809.77
457.352	9346.93
457.558	9484.14
457.764	9531.25
457.97	9336.69
458.176	8959.86
458.381	9234.29
458.587	8529.79
458.793	8621.95
458.999	8171.4
459.204	8734.59
459.41	8320.9
459.616	7849.86
459.821	7993.22
460.027	7866.25
460.233	7647.12
460.438	7538.57
460.644	7423.89
460.85	7212.95
461.055	7098.26
461.261	7024.53
461.466	6621.08
461.672	6344.61
461.878	6756.25
462.083	6324.13
462.289	6221.73
462.494	5939.11
462.7	5791.66
462.905	5693.35
463.111	5828.52
463.316	5861.29
463.522	5740.46
463.727	5676.97
463.932	5810.09
464.138	5728.17
464.343	5685.16
464.549	5523.37
464.754	5779.37
464.959	5726.12
465.165	5687.21
465.37	5437.36
465.575	5367.73
465.781	5547.95
465.986	5451.69
466.191	5316.53
466.397	5087.15
466.602	4958.13
466.807	5236.66
467.012	5076.91
467.218	5017.52
467.423	5146.55
467.628	5232.56
467.833	5474.22
468.038	5156.79
468.244	5121.97
468.449	5089.2
468.654	5011.38
468.859	4951.99
469.064	4892.6
