Data from USB4F104151__72__12-54-39-287.txt Node

Date: Fri Mar 14 12:54:39 EDT 2025
User: louis
Spectrometer: USB4F10415
Trigger mode: 4
Integration Time (sec): 1.000000E-2
Scans to average: 1
Electric dark correction enabled: true
Nonlinearity correction enabled: false
Boxcar width: 0
XAxis mode: Wavelengths
Number of Pixels in Spectrum: 3648
>>>>>Begin Spectral Data<<<<<
178.204	-59.56
178.424	-59.56
178.644	-59.56
178.864	-106.67
179.084	-8.36
179.304	46.93
179.524	22.36
179.744	-0.17
179.964	5.97
180.184	48.98
180.404	-26.79
180.624	-39.08
180.844	20.31
181.064	-61.61
181.283	32.6
181.503	-30.89
181.723	-18.6
181.943	8.02
182.163	36.69
182.383	-30.89
182.602	20.31
182.822	38.74
183.042	30.55
183.262	-20.65
183.482	-112.81
183.701	24.4
183.921	-4.27
184.141	-69.8
184.361	10.07
184.58	30.55
184.8	-37.03
185.02	-34.99
185.239	63.32
185.459	12.12
185.679	-12.46
185.898	24.4
186.118	-16.55
186.338	10.07
186.557	42.84
186.777	-39.08
186.997	36.69
187.216	-39.08
187.436	3.93
187.655	-6.31
187.875	-6.31
188.095	-12.46
188.314	55.12
188.534	20.31
188.753	20.31
188.973	24.4
189.192	5.97
189.412	-53.42
189.631	24.4
189.851	10.07
190.07	3.93
190.29	18.26
190.509	-20.65
190.729	-45.23
190.948	51.03
191.168	-20.65
191.387	-77.99
191.607	1.88
191.826	-20.65
192.045	18.26
192.265	34.64
192.484	3.93
192.704	-59.56
192.923	-2.22
193.142	-24.75
193.362	-41.13
193.581	40.79
193.8	28.5
194.02	-6.31
194.239	-28.84
194.458	32.6
194.678	63.32
194.897	-26.79
195.116	69.46
195.335	-0.17
195.555	61.27
195.774	-18.6
195.993	14.17
196.212	26.45
196.432	-37.03
196.651	51.03
196.87	-71.85
197.089	32.6
197.308	-20.65
197.528	24.4
197.747	-80.04
197.966	-4.27
198.185	38.74
198.404	65.36
198.623	-12.46
198.842	16.21
199.062	71.51
199.281	8.02
199.5	-49.32
199.719	20.31
199.938	32.6
200.157	57.17
200.376	51.03
200.595	-8.36
200.814	32.6
201.033	-16.55
201.252	3.93
201.471	114.52
201.69	42.84
201.909	20.31
202.128	-41.13
202.347	38.74
202.566	-6.31
202.785	48.98
203.004	10.07
203.223	-28.84
203.442	42.84
203.661	10.07
203.879	28.5
204.098	69.46
204.317	32.6
204.536	-26.79
204.755	-4.27
204.974	-32.94
205.193	-2.22
205.411	26.45
205.63	-34.99
205.849	28.5
206.068	-10.41
206.287	67.41
206.505	-16.55
206.724	51.03
206.943	10.07
207.162	44.88
207.381	57.17
207.599	22.36
207.818	46.93
208.037	16.21
208.255	-20.65
208.474	-86.19
208.693	-2.22
208.911	20.31
209.13	-16.55
209.349	57.17
209.567	-28.84
209.786	-59.56
210.005	5.97
210.223	3.93
210.442	14.17
210.661	-14.51
210.879	18.26
211.098	20.31
211.316	73.56
211.535	20.31
211.753	10.07
211.972	12.12
212.191	-4.27
212.409	42.84
212.628	-8.36
212.846	-0.17
213.065	-8.36
213.283	26.45
213.502	-26.79
213.72	28.5
213.938	16.21
214.157	-0.17
214.375	-4.27
214.594	36.69
214.812	-4.27
215.031	42.84
215.249	3.93
215.467	-20.65
215.686	-14.51
215.904	-24.75
216.122	24.4
216.341	34.64
216.559	53.08
216.778	48.98
216.996	-73.9
217.214	16.21
217.432	26.45
217.651	8.02
217.869	26.45
218.087	-14.51
218.306	32.6
218.524	16.21
218.742	1.88
218.96	8.02
219.179	12.12
219.397	22.36
219.615	71.51
219.833	18.26
220.051	-30.89
220.27	12.12
220.488	3.93
220.706	85.84
220.924	-32.94
221.142	-69.8
221.36	48.98
221.578	3.93
221.796	100.18
222.015	14.17
222.233	-41.13
222.451	-22.7
222.669	-22.7
222.887	10.07
223.105	46.93
223.323	34.64
223.541	24.4
223.759	89.94
223.977	-30.89
224.195	-6.31
224.413	-0.17
224.631	59.22
224.849	-0.17
225.067	-0.17
225.285	-69.8
225.503	-57.51
225.721	40.79
225.939	18.26
226.157	3.93
226.375	96.08
226.592	-6.31
226.81	120.66
227.028	36.69
227.246	65.36
227.464	59.22
227.682	8.02
227.9	40.79
228.117	-16.55
228.335	-65.71
228.553	48.98
228.771	16.21
228.989	55.12
229.206	26.45
229.424	-2.22
229.642	-2.22
229.86	-20.65
230.077	-2.22
230.295	10.07
230.513	46.93
230.731	-20.65
230.948	-8.36
231.166	34.64
231.384	-4.27
231.601	-43.18
231.819	110.42
232.037	-10.41
232.254	-2.22
232.472	32.6
232.689	-22.7
232.907	85.84
233.125	-32.94
233.342	-12.46
233.56	5.97
233.777	-55.47
233.995	-8.36
234.213	36.69
234.43	-22.7
234.648	-65.71
234.865	-2.22
235.083	10.07
235.3	-0.17
235.518	8.02
235.735	3.93
235.953	-32.94
236.17	-2.22
236.388	-22.7
236.605	-28.84
236.822	18.26
237.04	36.69
237.257	-59.56
237.475	-37.03
237.692	-61.61
237.909	22.36
238.127	36.69
238.344	-8.36
238.562	-22.7
238.779	-10.41
238.996	-0.17
239.214	-22.7
239.431	10.07
239.648	-28.84
239.865	32.6
240.083	-8.36
240.3	24.4
240.517	-30.89
240.735	-30.89
240.952	20.31
241.169	3.93
241.386	-20.65
241.603	14.17
241.821	24.4
242.038	1.88
242.255	-14.51
242.472	-4.27
242.689	71.51
242.907	-71.85
243.124	38.74
243.341	-12.46
243.558	-53.42
243.775	8.02
243.992	-43.18
244.209	-20.65
244.426	-14.51
244.643	-45.23
244.86	5.97
245.078	44.88
245.295	-45.23
245.512	-0.17
245.729	26.45
245.946	63.32
246.163	-22.7
246.38	83.8
246.597	-53.42
246.814	34.64
247.031	-2.22
247.248	28.5
247.464	26.45
247.681	1.88
247.898	-55.47
248.115	8.02
248.332	3.93
248.549	-34.99
248.766	14.17
248.983	3.93
249.2	69.46
249.417	67.41
249.633	20.31
249.85	61.27
250.067	20.31
250.284	38.74
250.501	-8.36
250.717	63.32
250.934	3.93
251.151	110.42
251.368	-39.08
251.585	-73.9
251.801	14.17
252.018	1.88
252.235	24.4
252.451	3.93
252.668	10.07
252.885	-37.03
253.102	34.64
253.318	30.55
253.535	18.26
253.752	85.84
253.968	-8.36
254.185	-14.51
254.401	22.36
254.618	57.17
254.835	46.93
255.051	73.56
255.268	-51.37
255.484	-39.08
255.701	42.84
255.917	-0.17
256.134	20.31
256.351	5.97
256.567	38.74
256.784	10.07
257	-67.75
257.217	46.93
257.433	20.31
257.65	48.98
257.866	-28.84
258.082	26.45
258.299	16.21
258.515	-16.55
258.732	-28.84
258.948	-43.18
259.165	5.97
259.381	28.5
259.597	-41.13
259.814	71.51
260.03	8.02
260.246	14.17
260.463	-88.23
260.679	-53.42
260.895	48.98
261.112	34.64
261.328	-57.51
261.544	16.21
261.761	-6.31
261.977	34.64
262.193	32.6
262.409	38.74
262.626	-20.65
262.842	91.99
263.058	-34.99
263.274	38.74
263.49	-6.31
263.707	-0.17
263.923	59.22
264.139	-37.03
264.355	-24.75
264.571	-0.17
264.787	24.4
265.004	8.02
265.22	-49.32
265.436	18.26
265.652	38.74
265.868	24.4
266.084	-39.08
266.3	110.42
266.516	-57.51
266.732	3.93
266.948	-20.65
267.164	3.93
267.38	-12.46
267.596	-22.7
267.812	-26.79
268.028	30.55
268.244	36.69
268.46	10.07
268.676	-0.17
268.892	112.47
269.108	-67.75
269.324	-0.17
269.54	-26.79
269.756	12.12
269.972	-4.27
270.188	22.36
270.403	32.6
270.619	-6.31
270.835	-24.75
271.051	-10.41
271.267	48.98
271.483	-14.51
271.698	48.98
271.914	22.36
272.13	36.69
272.346	12.12
272.562	-6.31
272.777	36.69
272.993	-14.51
273.209	28.5
273.425	-51.37
273.64	32.6
273.856	5.97
274.072	-16.55
274.287	18.26
274.503	22.36
274.719	55.12
274.934	-39.08
275.15	32.6
275.366	8.02
275.581	-55.47
275.797	-26.79
276.012	53.08
276.228	-45.23
276.444	71.51
276.659	75.6
276.875	1.88
277.09	28.5
277.306	24.4
277.521	8.02
277.737	32.6
277.952	69.46
278.168	-24.75
278.383	10.07
278.599	-4.27
278.814	32.6
279.03	-12.46
279.245	18.26
279.461	-26.79
279.676	59.22
279.892	22.36
280.107	-2.22
280.322	-16.55
280.538	-22.7
280.753	46.93
280.969	38.74
281.184	-28.84
281.399	16.21
281.615	-16.55
281.83	5.97
282.045	63.32
282.26	-32.94
282.476	-24.75
282.691	-4.27
282.906	-39.08
283.122	-22.7
283.337	42.84
283.552	16.21
283.767	32.6
283.983	53.08
284.198	46.93
284.413	57.17
284.628	-28.84
284.843	-12.46
285.058	48.98
285.274	40.79
285.489	-8.36
285.704	-28.84
285.919	22.36
286.134	26.45
286.349	-59.56
286.564	-6.31
286.779	3.93
286.995	38.74
287.21	18.26
287.425	-26.79
287.64	36.69
287.855	16.21
288.07	44.88
288.285	67.41
288.5	-18.6
288.715	63.32
288.93	-41.13
289.145	14.17
289.36	32.6
289.575	-20.65
289.79	14.17
290.004	-16.55
290.219	3.93
290.434	38.74
290.649	42.84
290.864	100.18
291.079	16.21
291.294	-14.51
291.509	5.97
291.724	20.31
291.938	75.6
292.153	-6.31
292.368	26.45
292.583	32.6
292.798	71.51
293.012	-12.46
293.227	-47.27
293.442	1.88
293.657	65.36
293.871	108.37
294.086	-2.22
294.301	3.93
294.516	-2.22
294.73	-49.32
294.945	16.21
295.16	57.17
295.374	-24.75
295.589	106.32
295.804	38.74
296.018	36.69
296.233	73.56
296.447	-37.03
296.662	-43.18
296.877	3.93
297.091	73.56
297.306	42.84
297.52	-47.27
297.735	65.36
297.949	26.45
298.164	10.07
298.378	98.13
298.593	-51.37
298.807	-2.22
299.022	-10.41
299.236	32.6
299.451	16.21
299.665	-26.79
299.88	32.6
300.094	51.03
300.309	-30.89
300.523	24.4
300.737	-18.6
300.952	40.79
301.166	48.98
301.381	-0.17
301.595	-0.17
301.809	16.21
302.024	-4.27
302.238	14.17
302.452	67.41
302.667	12.12
302.881	12.12
303.095	-8.36
303.309	5.97
303.524	-32.94
303.738	85.84
303.952	-61.61
304.166	-12.46
304.381	8.02
304.595	32.6
304.809	-0.17
305.023	34.64
305.237	-39.08
305.452	32.6
305.666	-16.55
305.88	34.64
306.094	-71.85
306.308	-6.31
306.522	1.88
306.736	-51.37
306.95	28.5
307.164	42.84
307.379	-16.55
307.593	10.07
307.807	81.75
308.021	16.21
308.235	-2.22
308.449	32.6
308.663	67.41
308.877	48.98
309.091	42.84
309.305	26.45
309.519	20.31
309.733	71.51
309.947	-41.13
310.161	3.93
310.374	-28.84
310.588	3.93
310.802	30.55
311.016	40.79
311.23	-6.31
311.444	-8.36
311.658	-16.55
311.872	30.55
312.085	-22.7
312.299	-37.03
312.513	30.55
312.727	-12.46
312.941	-34.99
313.154	24.4
313.368	85.84
313.582	20.31
313.796	-32.94
314.009	73.56
314.223	-47.27
314.437	3.93
314.651	-39.08
314.864	-61.61
315.078	14.17
315.292	34.64
315.505	-4.27
315.719	-2.22
315.933	14.17
316.146	-22.7
316.36	-8.36
316.573	59.22
316.787	10.07
317.001	1.88
317.214	1.88
317.428	36.69
317.641	5.97
317.855	51.03
318.068	12.12
318.282	-24.75
318.495	-0.17
318.709	3.93
318.922	-24.75
319.136	73.56
319.349	48.98
319.563	-73.9
319.776	44.88
319.99	-12.46
320.203	28.5
320.417	-26.79
320.63	-12.46
320.843	10.07
321.057	59.22
321.27	20.31
321.483	53.08
321.697	69.46
321.91	55.12
322.124	-14.51
322.337	-12.46
322.55	-16.55
322.763	-2.22
322.977	120.66
323.19	61.27
323.403	-69.8
323.617	32.6
323.83	20.31
324.043	16.21
324.256	-20.65
324.469	1.88
324.683	48.98
324.896	18.26
325.109	36.69
325.322	-47.27
325.535	-16.55
325.748	-32.94
325.962	16.21
326.175	8.02
326.388	1.88
326.601	-43.18
326.814	-39.08
327.027	-63.66
327.24	85.84
327.453	-55.47
327.666	-32.94
327.879	26.45
328.092	1.88
328.305	-59.56
328.518	59.22
328.731	10.07
328.944	24.4
329.157	-73.9
329.37	38.74
329.583	40.79
329.796	83.8
330.009	63.32
330.222	10.07
330.435	-59.56
330.648	1.88
330.861	-18.6
331.073	8.02
331.286	10.07
331.499	40.79
331.712	-37.03
331.925	48.98
332.138	-34.99
332.35	-6.31
332.563	24.4
332.776	48.98
332.989	-10.41
333.202	12.12
333.414	5.97
333.627	67.41
333.84	106.32
334.053	-30.89
334.265	30.55
334.478	26.45
334.691	40.79
334.903	24.4
335.116	-32.94
335.329	40.79
335.541	5.97
335.754	-0.17
335.966	-30.89
336.179	18.26
336.392	-34.99
336.604	59.22
336.817	24.4
337.029	-57.51
337.242	-90.28
337.454	40.79
337.667	3.93
337.88	73.56
338.092	22.36
338.305	14.17
338.517	75.6
338.729	28.5
338.942	28.5
339.154	5.97
339.367	10.07
339.579	61.27
339.792	14.17
340.004	48.98
340.217	22.36
340.429	32.6
340.641	-8.36
340.854	34.64
341.066	14.17
341.278	-12.46
341.491	114.52
341.703	-28.84
341.915	-14.51
342.128	-14.51
342.34	81.75
342.552	-41.13
342.764	-39.08
342.977	10.07
343.189	3.93
343.401	67.41
343.613	10.07
343.826	5.97
344.038	26.45
344.25	75.6
344.462	1.88
344.674	30.55
344.886	34.64
345.099	89.94
345.311	14.17
345.523	71.51
345.735	24.4
345.947	75.6
346.159	-24.75
346.371	1.88
346.583	65.36
346.795	53.08
347.007	65.36
347.219	36.69
347.431	-41.13
347.643	-2.22
347.855	-41.13
348.067	1.88
348.279	16.21
348.491	5.97
348.703	30.55
348.915	-34.99
349.127	79.7
349.339	-39.08
349.551	12.12
349.763	30.55
349.975	44.88
350.187	1.88
350.399	10.07
350.61	-37.03
350.822	14.17
351.034	77.65
351.246	24.4
351.458	-0.17
351.669	12.12
351.881	26.45
352.093	18.26
352.305	10.07
352.517	28.5
352.728	34.64
352.94	-22.7
353.152	-30.89
353.363	-63.66
353.575	-30.89
353.787	53.08
353.999	1.88
354.21	5.97
354.422	24.4
354.633	-18.6
354.845	-0.17
355.057	-16.55
355.268	16.21
355.48	28.5
355.692	40.79
355.903	-20.65
356.115	34.64
356.326	-24.75
356.538	87.89
356.749	-10.41
356.961	42.84
357.172	-18.6
357.384	-10.41
357.595	42.84
357.807	81.75
358.018	28.5
358.23	18.26
358.441	14.17
358.653	38.74
358.864	32.6
359.075	5.97
359.287	30.55
359.498	-30.89
359.709	30.55
359.921	12.12
360.132	53.08
360.344	5.97
360.555	46.93
360.766	51.03
360.977	3.93
361.189	18.26
361.4	22.36
361.611	67.41
361.823	-12.46
362.034	46.93
362.245	22.36
362.456	40.79
362.667	-39.08
362.879	-26.79
363.09	-20.65
363.301	34.64
363.512	22.36
363.723	5.97
363.935	-12.46
364.146	59.22
364.357	-14.51
364.568	-51.37
364.779	-24.75
364.99	18.26
365.201	8.02
365.412	57.17
365.623	40.79
365.834	5.97
366.045	89.94
366.256	8.02
366.467	20.31
366.678	24.4
366.889	28.5
367.1	1.88
367.311	14.17
367.522	8.02
367.733	40.79
367.944	-39.08
368.155	-39.08
368.366	46.93
368.577	14.17
368.788	-18.6
368.999	-63.66
369.209	42.84
369.42	16.21
369.631	94.04
369.842	10.07
370.053	1.88
370.264	32.6
370.474	44.88
370.685	32.6
370.896	1.88
371.107	69.46
371.317	-28.84
371.528	-53.42
371.739	1.88
371.95	-20.65
372.16	10.07
372.371	-8.36
372.582	63.32
372.792	-30.89
373.003	28.5
373.214	-22.7
373.424	12.12
373.635	18.26
373.846	87.89
374.056	75.6
374.267	-16.55
374.477	24.4
374.688	1.88
374.898	8.02
375.109	16.21
375.319	46.93
375.53	75.6
375.74	5.97
375.951	8.02
376.161	26.45
376.372	55.12
376.582	26.45
376.793	10.07
377.003	38.74
377.214	59.22
377.424	-28.84
377.635	57.17
377.845	48.98
378.055	5.97
378.266	-0.17
378.476	-41.13
378.686	63.32
378.897	10.07
379.107	61.27
379.317	40.79
379.528	32.6
379.738	42.84
379.948	-16.55
380.158	40.79
380.369	5.97
380.579	-28.84
380.789	48.98
380.999	40.79
381.21	-8.36
381.42	-10.41
381.63	-0.17
381.84	-43.18
382.05	36.69
382.261	18.26
382.471	69.46
382.681	-0.17
382.891	-47.27
383.101	8.02
383.311	5.97
383.521	-37.03
383.731	14.17
383.941	-32.94
384.151	-26.79
384.361	-18.6
384.571	18.26
384.781	36.69
384.991	40.79
385.201	38.74
385.411	-16.55
385.621	5.97
385.831	1.88
386.041	87.89
386.251	94.04
386.461	16.21
386.671	40.79
386.881	102.23
387.091	-0.17
387.301	-22.7
387.511	-10.41
387.72	59.22
387.93	65.36
388.14	-2.22
388.35	51.03
388.56	30.55
388.769	12.12
388.979	34.64
389.189	-10.41
389.399	28.5
389.609	16.21
389.818	-22.7
390.028	34.64
390.238	57.17
390.447	-12.46
390.657	34.64
390.867	24.4
391.076	55.12
391.286	8.02
391.496	34.64
391.705	-30.89
391.915	40.79
392.125	10.07
392.334	40.79
392.544	1.88
392.753	75.6
392.963	30.55
393.172	28.5
393.382	-20.65
393.591	71.51
393.801	34.64
394.01	46.93
394.22	65.36
394.429	53.08
394.639	61.27
394.848	81.75
395.058	53.08
395.267	16.21
395.477	22.36
395.686	42.84
395.895	-2.22
396.105	34.64
396.314	46.93
396.524	75.6
396.733	16.21
396.942	57.17
397.152	36.69
397.361	-6.31
397.57	26.45
397.78	63.32
397.989	53.08
398.198	5.97
398.407	12.12
398.617	40.79
398.826	34.64
399.035	42.84
399.244	-6.31
399.453	18.26
399.663	-24.75
399.872	48.98
400.081	-10.41
400.29	44.88
400.499	34.64
400.708	57.17
400.917	26.45
401.127	108.37
401.336	-53.42
401.545	40.79
401.754	46.93
401.963	20.31
402.172	53.08
402.381	-8.36
402.59	1.88
402.799	42.84
403.008	46.93
403.217	71.51
403.426	-16.55
403.635	81.75
403.844	98.13
404.053	51.03
404.262	137.04
404.471	53.08
404.68	53.08
404.888	-0.17
405.097	34.64
405.306	79.7
405.515	-37.03
405.724	73.56
405.933	36.69
406.142	73.56
406.35	3.93
406.559	91.99
406.768	77.65
406.977	91.99
407.185	22.36
407.394	124.76
407.603	116.56
407.812	79.7
408.02	120.66
408.229	81.75
408.438	69.46
408.646	63.32
408.855	145.24
409.064	122.71
409.272	87.89
409.481	137.04
409.69	126.8
409.898	108.37
410.107	128.85
410.315	165.71
410.524	114.52
410.733	81.75
410.941	163.67
411.15	112.47
411.358	173.91
411.567	200.53
411.775	196.43
411.984	143.19
412.192	282.45
412.401	153.43
412.609	196.43
412.818	241.49
413.026	229.2
413.234	249.68
413.443	169.81
413.651	243.54
413.86	218.96
414.068	272.21
414.276	261.97
414.485	184.15
414.693	325.46
414.901	268.11
415.11	343.89
415.318	270.16
415.526	284.5
415.734	382.8
415.943	341.84
416.151	413.52
416.359	319.31
416.567	352.08
416.776	409.42
416.984	491.34
417.192	444.24
417.4	397.14
417.608	501.58
417.817	505.68
418.025	325.46
418.233	522.06
418.441	466.77
418.649	581.45
418.857	550.73
419.065	517.97
419.273	530.25
419.481	683.85
419.689	646.99
419.897	657.23
420.105	698.19
420.313	724.81
420.521	712.52
420.729	784.2
420.937	784.2
421.145	827.21
421.353	821.06
421.561	970.57
421.769	909.13
421.977	868.17
422.185	888.65
422.393	993.09
422.601	1093.44
422.809	1052.49
423.017	1015.62
423.224	1099.59
423.432	1187.65
423.64	1189.7
423.848	1261.38
424.056	1122.12
424.263	1275.71
424.471	1283.91
424.679	1244.99
424.887	1306.43
425.094	1371.97
425.302	1500.99
425.51	1470.27
425.718	1527.61
425.925	1560.38
426.133	1724.22
426.341	1648.44
426.548	1720.12
426.756	1718.08
426.964	1828.67
427.171	1961.78
427.379	2008.89
427.586	2049.85
427.794	2162.48
428.001	2023.22
428.209	2268.98
428.417	2254.64
428.624	2305.84
428.832	2279.22
429.039	2305.84
429.247	2244.4
429.454	2473.78
429.662	2670.38
429.869	2553.65
430.076	2623.28
430.284	2737.96
430.491	2723.63
430.699	2975.53
430.906	3022.63
431.114	2858.79
431.321	3041.06
431.528	3170.08
431.736	3370.79
431.943	3464.99
432.15	3323.68
432.358	3374.88
432.565	3686.17
432.772	3561.25
432.979	3948.31
433.187	3972.89
433.394	3909.4
433.601	4089.62
433.808	4228.88
434.016	4001.56
434.223	4230.93
434.43	4499.22
434.637	4572.94
434.844	4665.1
435.052	4988.68
435.259	4759.31
435.466	4939.53
435.673	4843.28
435.88	5144.33
436.087	5408.51
436.294	5420.8
436.501	5478.15
436.708	5347.08
436.915	5576.45
437.122	5771.01
437.329	5658.37
437.537	6104.82
437.743	6170.36
437.95	5951.23
438.157	6409.97
438.364	6565.62
438.571	6612.72
438.778	6725.36
438.985	7229.16
439.192	7124.71
439.399	7036.65
439.606	6919.92
439.813	7438.05
440.02	7941.85
440.227	7823.07
440.433	7636.7
440.64	8150.74
440.847	7841.5
441.054	8132.31
441.261	8531.67
441.467	8625.87
441.674	8713.94
441.881	8937.16
442.088	9064.14
442.294	9090.76
442.501	9160.39
442.708	9504.45
442.914	9649.86
443.121	10106.56
443.328	9768.64
443.534	10510
443.741	10413.75
443.948	10370.74
444.154	10921.65
444.361	11032.24
444.568	10874.54
444.774	10970.8
444.981	11038.38
445.187	11468.45
445.394	11673.25
445.6	11724.45
445.807	12918.42
446.013	12433.05
446.22	12578.45
446.426	13168.27
446.633	13172.36
446.839	13645.45
447.046	13074.06
447.252	13993.6
447.459	13840
447.665	13813.38
447.871	14667.38
448.078	15144.56
448.284	14210.68
448.491	14810.74
448.697	15236.72
448.903	15578.73
449.11	16014.94
449.316	15394.41
449.522	15883.87
449.728	16277.08
449.935	16293.47
450.141	16287.32
450.347	16447.07
450.553	16006.75
450.76	16264.8
450.966	16645.72
451.172	16660.06
451.378	17120.85
451.584	16770.65
451.791	17196.62
451.997	17172.05
452.203	17276.49
452.409	17276.49
452.615	17270.35
452.821	16866.9
453.027	16762.45
453.233	17628.74
453.44	16766.55
453.646	16922.2
453.852	17174.1
454.058	17305.17
454.264	16631.38
454.47	17290.83
454.676	16475.74
454.882	17239.63
455.088	15984.23
455.294	16019.04
455.5	16109.15
455.705	16012.9
455.911	15722.09
456.117	15384.17
456.323	15650.41
456.529	14511.74
456.735	15001.2
456.941	14702.2
457.147	14294.65
457.352	13930.11
457.558	13649.54
457.764	13723.27
457.97	13555.33
458.176	13227.66
458.381	13067.92
458.587	12621.46
458.793	12682.9
458.999	11775.65
459.204	12840.59
459.41	12523.16
459.616	11525.8
459.821	11759.27
460.027	11722.4
460.233	11433.64
460.438	10938.03
460.644	11040.43
460.85	10604.21
461.055	10227.39
461.261	10387.13
461.466	9418.44
461.672	9156.3
461.878	9868.99
462.083	9217.74
462.289	9074.38
462.494	8963.79
462.7	8392.41
462.905	8357.59
463.111	8496.85
463.316	8572.63
463.522	8629.97
463.727	8505.04
463.932	8294.1
464.138	8492.76
464.343	8578.77
464.549	8189.66
464.754	8419.03
464.959	8314.58
465.165	8249.05
465.37	7798.49
465.575	7861.98
465.781	8103.64
465.986	8001.24
466.191	7888.6
466.397	7587.55
466.602	7309.03
466.807	7603.94
467.012	7612.13
467.218	7528.16
467.423	7528.16
467.628	7409.38
467.833	7913.18
468.038	7530.21
468.244	7431.91
468.449	7675.62
468.654	7139.05
