Data from USB4F104151__7__12-53-08-829.txt Node

Date: Fri Mar 14 12:53:08 EDT 2025
User: louis
Spectrometer: USB4F10415
Trigger mode: 4
Integration Time (sec): 1.000000E-2
Scans to average: 1
Electric dark correction enabled: true
Nonlinearity correction enabled: false
Boxcar width: 0
XAxis mode: Wavelengths
Number of Pixels in Spectrum: 3648
>>>>>Begin Spectral Data<<<<<
178.204	-68.61
178.424	-68.61
178.644	-68.61
178.864	-91.13
179.084	-29.7
179.304	19.46
179.524	7.17
179.744	-5.12
179.964	35.84
180.184	-37.89
180.404	50.18
180.624	64.51
180.844	-39.94
181.064	-27.65
181.283	-3.07
181.503	-52.22
181.723	-11.26
181.943	-5.12
182.163	5.12
182.383	-54.27
182.602	66.56
182.822	54.27
183.042	-21.5
183.262	27.65
183.482	41.98
183.701	9.22
183.921	-54.27
184.141	-39.94
184.361	7.17
184.58	29.7
184.8	31.74
185.02	1.02
185.239	46.08
185.459	5.12
185.679	19.46
185.898	64.51
186.118	44.03
186.338	31.74
186.557	50.18
186.777	17.41
186.997	-44.03
187.216	3.07
187.436	-17.41
187.655	-25.6
187.875	25.6
188.095	13.31
188.314	48.13
188.534	-29.7
188.753	5.12
188.973	-17.41
189.192	3.07
189.412	27.65
189.631	-7.17
189.851	78.85
190.07	5.12
190.29	41.98
190.509	52.22
190.729	15.36
190.948	-19.46
191.168	89.09
191.387	21.5
191.607	13.31
191.826	62.46
192.045	7.17
192.265	58.37
192.484	33.79
192.704	33.79
192.923	-5.12
193.142	91.13
193.362	-5.12
193.581	15.36
193.8	50.18
194.02	13.31
194.239	-15.36
194.458	-23.55
194.678	95.23
194.897	-1.02
195.116	3.07
195.335	33.79
195.555	9.22
195.774	56.32
195.993	17.41
196.212	25.6
196.432	33.79
196.651	5.12
196.87	33.79
197.089	11.26
197.308	-1.02
197.528	-7.17
197.747	1.02
197.966	29.7
198.185	60.42
198.404	41.98
198.623	62.46
198.842	23.55
199.062	11.26
199.281	48.13
199.5	-17.41
199.719	3.07
199.938	-15.36
200.157	-13.31
200.376	66.56
200.595	41.98
200.814	52.22
201.033	-9.22
201.252	25.6
201.471	74.75
201.69	-13.31
201.909	46.08
202.128	78.85
202.347	27.65
202.566	-13.31
202.785	25.6
203.004	44.03
203.223	29.7
203.442	13.31
203.661	19.46
203.879	37.89
204.098	46.08
204.317	54.27
204.536	17.41
204.755	99.33
204.974	-39.94
205.193	-15.36
205.411	15.36
205.63	64.51
205.849	56.32
206.068	23.55
206.287	87.04
206.505	82.94
206.724	23.55
206.943	74.75
207.162	21.5
207.381	-3.07
207.599	54.27
207.818	37.89
208.037	-17.41
208.255	70.65
208.474	21.5
208.693	-23.55
208.911	7.17
209.13	66.56
209.349	1.02
209.567	9.22
209.786	1.02
210.005	17.41
210.223	-19.46
210.442	-56.32
210.661	-27.65
210.879	-5.12
211.098	60.42
211.316	78.85
211.535	-29.7
211.753	-13.31
211.972	9.22
212.191	-66.56
212.409	23.55
212.628	11.26
212.846	87.04
213.065	13.31
213.283	74.75
213.502	31.74
213.72	-21.5
213.938	-21.5
214.157	52.22
214.375	62.46
214.594	21.5
214.812	5.12
215.031	-39.94
215.249	60.42
215.467	66.56
215.686	35.84
215.904	29.7
216.122	15.36
216.341	-19.46
216.559	37.89
216.778	15.36
216.996	41.98
217.214	7.17
217.432	54.27
217.651	-3.07
217.869	52.22
218.087	-23.55
218.306	76.8
218.524	21.5
218.742	13.31
218.96	95.23
219.179	44.03
219.397	23.55
219.615	21.5
219.833	74.75
220.051	-3.07
220.27	27.65
220.488	54.27
220.706	44.03
220.924	72.7
221.142	62.46
221.36	-13.31
221.578	23.55
221.796	-13.31
222.015	-31.74
222.233	-17.41
222.451	58.37
222.669	39.94
222.887	-56.32
223.105	62.46
223.323	76.8
223.541	99.33
223.759	27.65
223.977	19.46
224.195	7.17
224.413	97.28
224.631	-25.6
224.849	-5.12
225.067	5.12
225.285	48.13
225.503	-29.7
225.721	-31.74
225.939	-5.12
226.157	-27.65
226.375	91.13
226.592	54.27
226.81	56.32
227.028	13.31
227.246	70.65
227.464	15.36
227.682	60.42
227.9	13.31
228.117	11.26
228.335	11.26
228.553	-17.41
228.771	21.5
228.989	56.32
229.206	50.18
229.424	35.84
229.642	-3.07
229.86	19.46
230.077	11.26
230.295	5.12
230.513	39.94
230.731	19.46
230.948	15.36
231.166	82.94
231.384	15.36
231.601	-9.22
231.819	60.42
232.037	31.74
232.254	39.94
232.472	62.46
232.689	25.6
232.907	41.98
233.125	-5.12
233.342	29.7
233.56	64.51
233.777	68.61
233.995	-27.65
234.213	78.85
234.43	-27.65
234.648	62.46
234.865	93.18
235.083	23.55
235.3	-1.02
235.518	68.61
235.735	-1.02
235.953	56.32
236.17	9.22
236.388	23.55
236.605	21.5
236.822	76.8
237.04	11.26
237.257	29.7
237.475	-15.36
237.692	84.99
237.909	7.17
238.127	-44.03
238.344	33.79
238.562	29.7
238.779	50.18
238.996	13.31
239.214	39.94
239.431	-48.13
239.648	15.36
239.865	99.33
240.083	-39.94
240.3	48.13
240.517	-1.02
240.735	-39.94
240.952	13.31
241.169	44.03
241.386	23.55
241.603	68.61
241.821	-25.6
242.038	54.27
242.255	68.61
242.472	1.02
242.689	23.55
242.907	-19.46
243.124	48.13
243.341	-9.22
243.558	-50.18
243.775	64.51
243.992	15.36
244.209	3.07
244.426	68.61
244.643	21.5
244.86	-15.36
245.078	76.8
245.295	48.13
245.512	44.03
245.729	-125.95
245.946	72.7
246.163	62.46
246.38	60.42
246.597	-7.17
246.814	-19.46
247.031	7.17
247.248	15.36
247.464	15.36
247.681	-60.42
247.898	35.84
248.115	87.04
248.332	-56.32
248.549	101.37
248.766	-7.17
248.983	21.5
249.2	17.41
249.417	-13.31
249.633	-3.07
249.85	54.27
250.067	7.17
250.284	33.79
250.501	72.7
250.717	35.84
250.934	-25.6
251.151	74.75
251.368	72.7
251.585	52.22
251.801	-15.36
252.018	44.03
252.235	21.5
252.451	-15.36
252.668	-31.74
252.885	89.09
253.102	25.6
253.318	64.51
253.535	9.22
253.752	19.46
253.968	113.66
254.185	-9.22
254.401	50.18
254.618	29.7
254.835	39.94
255.051	3.07
255.268	60.42
255.484	29.7
255.701	1.02
255.917	46.08
256.134	-54.27
256.351	-27.65
256.567	33.79
256.784	13.31
257	35.84
257.217	23.55
257.433	5.12
257.65	19.46
257.866	21.5
258.082	62.46
258.299	25.6
258.515	62.46
258.732	21.5
258.948	-82.94
259.165	87.04
259.381	11.26
259.597	25.6
259.814	21.5
260.03	60.42
260.246	33.79
260.463	44.03
260.679	19.46
260.895	29.7
261.112	1.02
261.328	23.55
261.544	33.79
261.761	52.22
261.977	46.08
262.193	-27.65
262.409	-11.26
262.626	48.13
262.842	-1.02
263.058	-15.36
263.274	29.7
263.49	27.65
263.707	21.5
263.923	25.6
264.139	64.51
264.355	17.41
264.571	84.99
264.787	33.79
265.004	11.26
265.22	-13.31
265.436	-11.26
265.652	-7.17
265.868	-3.07
266.084	56.32
266.3	54.27
266.516	21.5
266.732	68.61
266.948	9.22
267.164	117.76
267.38	78.85
267.596	99.33
267.812	-1.02
268.028	13.31
268.244	97.28
268.46	56.32
268.676	-17.41
268.892	-23.55
269.108	33.79
269.324	-3.07
269.54	66.56
269.756	70.65
269.972	15.36
270.188	-46.08
270.403	-1.02
270.619	44.03
270.835	29.7
271.051	54.27
271.267	13.31
271.483	58.37
271.698	-1.02
271.914	33.79
272.13	52.22
272.346	-15.36
272.562	62.46
272.777	52.22
272.993	9.22
273.209	56.32
273.425	46.08
273.64	87.04
273.856	31.74
274.072	48.13
274.287	33.79
274.503	33.79
274.719	-17.41
274.934	-7.17
275.15	41.98
275.366	74.75
275.581	27.65
275.797	1.02
276.012	29.7
276.228	46.08
276.444	-17.41
276.659	109.57
276.875	70.65
277.09	91.13
277.306	5.12
277.521	41.98
277.737	19.46
277.952	37.89
278.168	11.26
278.383	-41.98
278.599	46.08
278.814	46.08
279.03	52.22
279.245	41.98
279.461	-35.84
279.676	-19.46
279.892	-76.8
280.107	111.61
280.322	19.46
280.538	19.46
280.753	80.89
280.969	48.13
281.184	29.7
281.399	50.18
281.615	35.84
281.83	78.85
282.045	-19.46
282.26	50.18
282.476	39.94
282.691	19.46
282.906	-1.02
283.122	-1.02
283.337	31.74
283.552	123.9
283.767	1.02
283.983	9.22
284.198	27.65
284.413	5.12
284.628	9.22
284.843	48.13
285.058	31.74
285.274	37.89
285.489	48.13
285.704	113.66
285.919	46.08
286.134	-41.98
286.349	54.27
286.564	89.09
286.779	72.7
286.995	31.74
287.21	48.13
287.425	27.65
287.64	35.84
287.855	21.5
288.07	60.42
288.285	48.13
288.5	21.5
288.715	29.7
288.93	3.07
289.145	52.22
289.36	44.03
289.575	-1.02
289.79	5.12
290.004	60.42
290.219	5.12
290.434	62.46
290.649	33.79
290.864	21.5
291.079	-52.22
291.294	35.84
291.509	72.7
291.724	39.94
291.938	-3.07
292.153	29.7
292.368	-1.02
292.583	50.18
292.798	99.33
293.012	91.13
293.227	54.27
293.442	-27.65
293.657	15.36
293.871	41.98
294.086	58.37
294.301	58.37
294.516	23.55
294.73	-44.03
294.945	-70.65
295.16	21.5
295.374	21.5
295.589	66.56
295.804	9.22
296.018	35.84
296.233	19.46
296.447	74.75
296.662	7.17
296.877	21.5
297.091	62.46
297.306	7.17
297.52	25.6
297.735	35.84
297.949	9.22
298.164	66.56
298.378	17.41
298.593	23.55
298.807	11.26
299.022	-13.31
299.236	82.94
299.451	-1.02
299.665	-39.94
299.88	64.51
300.094	27.65
300.309	41.98
300.523	-1.02
300.737	58.37
300.952	1.02
301.166	74.75
301.381	3.07
301.595	56.32
301.809	58.37
302.024	41.98
302.238	11.26
302.452	44.03
302.667	17.41
302.881	-50.18
303.095	29.7
303.309	13.31
303.524	5.12
303.738	46.08
303.952	41.98
304.166	44.03
304.381	-44.03
304.595	62.46
304.809	-54.27
305.023	19.46
305.237	-11.26
305.452	107.52
305.666	21.5
305.88	23.55
306.094	-39.94
306.308	23.55
306.522	103.42
306.736	46.08
306.95	-9.22
307.164	27.65
307.379	-21.5
307.593	48.13
307.807	9.22
308.021	87.04
308.235	9.22
308.449	21.5
308.663	41.98
308.877	-1.02
309.091	37.89
309.305	23.55
309.519	-21.5
309.733	82.94
309.947	23.55
310.161	29.7
310.374	80.89
310.588	48.13
310.802	44.03
311.016	52.22
311.23	95.23
311.444	54.27
311.658	60.42
311.872	-17.41
312.085	17.41
312.299	72.7
312.513	48.13
312.727	33.79
312.941	-29.7
313.154	76.8
313.368	33.79
313.582	-13.31
313.796	-25.6
314.009	41.98
314.223	3.07
314.437	29.7
314.651	27.65
314.864	54.27
315.078	37.89
315.292	23.55
315.505	25.6
315.719	7.17
315.933	13.31
316.146	44.03
316.36	7.17
316.573	52.22
316.787	82.94
317.001	17.41
317.214	1.02
317.428	115.71
317.641	74.75
317.855	3.07
318.068	58.37
318.282	64.51
318.495	-41.98
318.709	11.26
318.922	-21.5
319.136	-52.22
319.349	56.32
319.563	-1.02
319.776	7.17
319.99	13.31
320.203	97.28
320.417	17.41
320.63	56.32
320.843	31.74
321.057	29.7
321.27	101.37
321.483	-54.27
321.697	154.62
321.91	29.7
322.124	48.13
322.337	52.22
322.55	52.22
322.763	-9.22
322.977	39.94
323.19	-52.22
323.403	54.27
323.617	11.26
323.83	54.27
324.043	68.61
324.256	19.46
324.469	-19.46
324.683	27.65
324.896	-48.13
325.109	37.89
325.322	-3.07
325.535	41.98
325.748	72.7
325.962	23.55
326.175	-9.22
326.388	80.89
326.601	13.31
326.814	37.89
327.027	15.36
327.24	-1.02
327.453	48.13
327.666	54.27
327.879	33.79
328.092	13.31
328.305	74.75
328.518	58.37
328.731	64.51
328.944	33.79
329.157	19.46
329.37	29.7
329.583	52.22
329.796	-23.55
330.009	-60.42
330.222	97.28
330.435	5.12
330.648	66.56
330.861	7.17
331.073	37.89
331.286	21.5
331.499	15.36
331.712	-5.12
331.925	50.18
332.138	-23.55
332.35	80.89
332.563	3.07
332.776	25.6
332.989	-46.08
333.202	44.03
333.414	15.36
333.627	-3.07
333.84	68.61
334.053	33.79
334.265	17.41
334.478	3.07
334.691	31.74
334.903	37.89
335.116	19.46
335.329	58.37
335.541	27.65
335.754	50.18
335.966	41.98
336.179	48.13
336.392	64.51
336.604	9.22
336.817	56.32
337.029	23.55
337.242	5.12
337.454	89.09
337.667	25.6
337.88	64.51
338.092	-3.07
338.305	76.8
338.517	21.5
338.729	68.61
338.942	54.27
339.154	27.65
339.367	5.12
339.579	119.81
339.792	-48.13
340.004	27.65
340.217	-35.84
340.429	66.56
340.641	70.65
340.854	89.09
341.066	3.07
341.278	64.51
341.491	62.46
341.703	64.51
341.915	35.84
342.128	99.33
342.34	72.7
342.552	39.94
342.764	52.22
342.977	-9.22
343.189	19.46
343.401	70.65
343.613	111.61
343.826	37.89
344.038	70.65
344.25	-9.22
344.462	35.84
344.674	58.37
344.886	17.41
345.099	82.94
345.311	27.65
345.523	35.84
345.735	7.17
345.947	-13.31
346.159	-35.84
346.371	44.03
346.583	11.26
346.795	56.32
347.007	52.22
347.219	41.98
347.431	66.56
347.643	91.13
347.855	48.13
348.067	105.47
348.279	5.12
348.491	76.8
348.703	9.22
348.915	76.8
349.127	48.13
349.339	54.27
349.551	31.74
349.763	52.22
349.975	56.32
350.187	82.94
350.399	99.33
350.61	50.18
350.822	-23.55
351.034	39.94
351.246	21.5
351.458	39.94
351.669	54.27
351.881	11.26
352.093	62.46
352.305	97.28
352.517	15.36
352.728	37.89
352.94	50.18
353.152	78.85
353.363	66.56
353.575	74.75
353.787	41.98
353.999	-5.12
354.21	41.98
354.422	48.13
354.633	54.27
354.845	-13.31
355.057	3.07
355.268	31.74
355.48	39.94
355.692	41.98
355.903	44.03
356.115	21.5
356.326	35.84
356.538	29.7
356.749	74.75
356.961	74.75
357.172	82.94
357.384	78.85
357.595	27.65
357.807	87.04
358.018	76.8
358.23	50.18
358.441	78.85
358.653	37.89
358.864	-5.12
359.075	66.56
359.287	-1.02
359.498	62.46
359.709	62.46
359.921	66.56
360.132	66.56
360.344	62.46
360.555	66.56
360.766	103.42
360.977	7.17
361.189	21.5
361.4	-7.17
361.611	54.27
361.823	27.65
362.034	1.02
362.245	-7.17
362.456	84.99
362.667	50.18
362.879	74.75
363.09	54.27
363.301	39.94
363.512	46.08
363.723	48.13
363.935	89.09
364.146	35.84
364.357	82.94
364.568	21.5
364.779	107.52
364.99	70.65
365.201	-5.12
365.412	-13.31
365.623	-27.65
365.834	1.02
366.045	5.12
366.256	91.13
366.467	64.51
366.678	74.75
366.889	56.32
367.1	33.79
367.311	11.26
367.522	41.98
367.733	33.79
367.944	-27.65
368.155	-64.51
368.366	37.89
368.577	76.8
368.788	56.32
368.999	105.47
369.209	27.65
369.42	62.46
369.631	183.29
369.842	23.55
370.053	95.23
370.264	68.61
370.474	9.22
370.685	35.84
370.896	60.42
371.107	5.12
371.317	25.6
371.528	52.22
371.739	54.27
371.95	58.37
372.16	80.89
372.371	-3.07
372.582	1.02
372.792	11.26
373.003	41.98
373.214	-25.6
373.424	87.04
373.635	105.47
373.846	82.94
374.056	74.75
374.267	37.89
374.477	52.22
374.688	72.7
374.898	19.46
375.109	19.46
375.319	66.56
375.53	87.04
375.74	-13.31
375.951	1.02
376.161	27.65
376.372	54.27
376.582	56.32
376.793	62.46
377.003	15.36
377.214	46.08
377.424	25.6
377.635	93.18
377.845	37.89
378.055	5.12
378.266	-1.02
378.476	52.22
378.686	107.52
378.897	17.41
379.107	66.56
379.317	50.18
379.528	46.08
379.738	84.99
379.948	-50.18
380.158	25.6
380.369	44.03
380.579	64.51
380.789	37.89
380.999	95.23
381.21	19.46
381.42	-17.41
381.63	89.09
381.84	-35.84
382.05	50.18
382.261	128
382.471	50.18
382.681	46.08
382.891	23.55
383.101	7.17
383.311	35.84
383.521	25.6
383.731	33.79
383.941	66.56
384.151	125.95
384.361	37.89
384.571	-11.26
384.781	31.74
384.991	27.65
385.201	44.03
385.411	80.89
385.621	82.94
385.831	-48.13
386.041	66.56
386.251	72.7
386.461	82.94
386.671	17.41
386.881	60.42
387.091	82.94
387.301	31.74
387.511	56.32
387.72	3.07
387.93	33.79
388.14	72.7
388.35	23.55
388.56	70.65
388.769	50.18
388.979	5.12
389.189	44.03
389.399	78.85
389.609	27.65
389.818	31.74
390.028	52.22
390.238	74.75
390.447	41.98
390.657	31.74
390.867	37.89
391.076	62.46
391.286	39.94
391.496	5.12
391.705	13.31
391.915	44.03
392.125	89.09
392.334	50.18
392.544	-21.5
392.753	68.61
392.963	46.08
393.172	74.75
393.382	41.98
393.591	25.6
393.801	70.65
394.01	29.7
394.22	70.65
394.429	27.65
394.639	84.99
394.848	72.7
395.058	87.04
395.267	95.23
395.477	68.61
395.686	111.61
395.895	78.85
396.105	111.61
396.314	23.55
396.524	158.72
396.733	87.04
396.942	91.13
397.152	46.08
397.361	91.13
397.57	113.66
397.78	91.13
397.989	62.46
398.198	115.71
398.407	134.14
398.617	82.94
398.826	121.85
399.035	128
399.244	109.57
399.453	111.61
399.663	72.7
399.872	115.71
400.081	64.51
400.29	54.27
400.499	134.14
400.708	46.08
400.917	130.05
401.127	103.42
401.336	78.85
401.545	125.95
401.754	54.27
401.963	111.61
402.172	89.09
402.381	91.13
402.59	68.61
402.799	84.99
403.008	66.56
403.217	7.17
403.426	111.61
403.635	158.72
403.844	95.23
404.053	80.89
404.262	97.28
404.471	144.38
404.68	130.05
404.888	46.08
405.097	111.61
405.306	87.04
405.515	148.48
405.724	128
405.933	154.62
406.142	179.2
406.35	66.56
406.559	105.47
406.768	103.42
406.977	152.57
407.185	173.05
407.394	187.39
407.603	119.81
407.812	152.57
408.02	156.67
408.229	181.25
408.438	152.57
408.646	181.25
408.855	140.29
409.064	173.05
409.272	148.48
409.481	209.92
409.69	97.28
409.898	123.9
410.107	271.36
410.315	209.92
410.524	236.54
410.733	250.88
410.941	328.7
411.15	246.78
411.358	248.83
411.567	314.36
411.775	312.32
411.984	230.4
412.192	297.98
412.401	334.84
412.609	336.89
412.818	402.43
413.026	345.08
413.234	365.56
413.443	371.71
413.651	375.8
413.86	412.67
414.068	404.47
414.276	414.71
414.485	383.99
414.693	482.3
414.901	486.39
415.11	449.53
415.318	496.63
415.526	482.3
415.734	553.98
415.943	551.93
416.151	611.32
416.359	564.22
416.567	639.99
416.776	660.47
416.984	685.05
417.192	664.57
417.4	635.89
417.608	758.77
417.817	750.58
418.025	791.54
418.233	762.87
418.441	809.97
418.649	818.16
418.857	961.52
419.065	951.28
419.273	893.94
419.481	881.65
419.689	977.91
419.897	1059.82
420.105	1053.68
420.313	1035.25
420.521	1133.55
420.729	1031.15
420.937	1201.13
421.145	1276.91
421.353	1278.96
421.561	1401.83
421.769	1393.64
421.977	1389.55
422.185	1364.97
422.393	1530.86
422.601	1606.63
422.809	1571.82
423.017	1725.41
423.224	1741.8
423.432	1799.14
423.64	1829.86
423.848	1934.31
424.056	1866.72
424.263	1913.83
424.471	1960.93
424.679	2048.99
424.887	2182.11
425.094	2053.09
425.302	2196.45
425.51	2192.35
425.718	2411.48
425.925	2352.09
426.133	2409.44
426.341	2567.13
426.548	2757.59
426.756	2733.01
426.964	2874.32
427.171	2853.84
427.379	2997.2
427.586	3081.17
427.794	3115.98
428.001	3300.3
428.209	3488.71
428.417	3306.45
428.624	3584.97
428.832	3640.26
429.039	3668.94
429.247	3597.26
429.454	3865.54
429.662	4268.99
429.869	3922.88
430.076	4228.03
430.284	4146.11
430.491	4346.81
430.699	4363.2
430.906	4504.51
431.114	4869.05
431.321	4762.55
431.528	4903.86
431.736	5133.23
431.943	5313.45
432.15	5161.91
432.358	5276.59
432.565	5759.91
432.772	5653.42
432.979	5704.62
433.187	5993.38
433.394	6005.67
433.601	6607.77
433.808	6452.13
434.016	6525.85
434.223	6728.6
434.43	7345.04
434.637	7062.42
434.844	7400.34
435.052	7662.48
435.259	7492.49
435.466	7476.11
435.673	7541.64
435.88	8049.54
436.087	8500.09
436.294	8450.94
436.501	8334.21
436.708	8323.97
436.915	8913.78
437.122	9149.3
437.329	9067.38
437.537	9493.36
437.743	9519.98
437.95	9448.3
438.157	10130.28
438.364	10349.41
438.571	10236.77
438.778	10496.86
438.985	11305.81
439.192	10937.18
439.399	11111.25
439.606	11148.12
439.813	11615.05
440.02	12444.48
440.227	12211.01
440.433	12014.41
440.64	12381
440.847	12460.87
441.054	12550.98
441.261	13407.03
441.467	13257.53
441.674	13529.91
441.881	14330.66
442.088	14052.14
442.294	14086.95
442.501	14234.41
442.708	14459.68
442.914	15332.12
443.121	16048.91
443.328	15428.37
443.534	16536.32
443.741	15964.94
443.948	15786.77
444.154	17081.08
444.361	17044.22
444.568	17113.85
444.774	16947.97
444.981	17134.33
445.187	17531.64
445.394	18643.68
445.6	18471.65
445.807	20071.12
446.013	19090.14
446.22	19643.09
446.426	20177.61
446.633	20441.8
446.839	21363.39
447.046	20341.45
447.252	21586.61
447.459	21426.87
447.665	21488.31
447.871	22370.99
448.078	22973.09
448.284	22244.01
448.491	22645.41
448.697	23698.07
448.903	24384.14
449.11	24242.83
449.316	23863.96
449.522	24543.88
449.728	25025.15
449.935	25139.84
450.141	25109.12
450.347	25631.35
450.553	24859.27
450.76	25455.23
450.966	25959.03
451.172	25858.68
451.378	26561.13
451.584	25961.08
451.791	26636.91
451.997	26876.52
452.203	27191.91
452.409	27183.71
452.615	26923.62
452.821	25936.5
453.027	25690.74
453.233	26980.96
453.44	26219.12
453.646	26208.88
453.852	26305.13
454.058	26659.43
454.264	25864.82
454.47	26665.58
454.676	25856.63
454.882	26886.76
455.088	24560.27
455.294	24953.48
455.5	25406.08
455.705	25420.41
455.911	24613.51
456.117	24117.9
456.323	23765.65
456.529	22315.69
456.735	23556.76
456.941	22713
457.147	22424.23
457.352	21940.91
457.558	21549.75
457.764	21531.32
457.97	21197.5
458.176	20732.61
458.381	20974.27
458.587	19798.74
458.793	19708.63
458.999	19059.42
459.204	20095.69
459.41	19684.05
459.616	18232.04
459.821	18420.45
460.027	18121.45
460.233	17781.49
460.438	16745.22
460.644	17300.22
460.85	16372.49
461.055	16116.49
461.261	15977.23
461.466	15074.07
461.672	14486.31
461.878	15694.61
462.083	14545.7
462.289	14170.92
462.494	14054.19
462.7	13603.63
462.905	13368.12
463.111	13632.3
463.316	13771.57
463.522	13775.66
463.727	13355.83
463.932	13597.49
464.138	13323.06
464.343	13456.18
464.549	12942.14
464.754	13376.31
464.959	13411.12
465.165	13550.39
465.37	12702.53
465.575	12411.71
465.781	12956.47
465.986	12852.03
466.191	12381
466.397	12260.16
466.602	11600.72
466.807	11826
467.012	12299.08
467.218	11989.83
467.423	11873.1
467.628	11819.85
467.833	12444.48
468.038	12047.18
468.244	11674.45
468.449	12098.38
468.654	11557.71
468.859	11594.58
469.064	11637.58
