Data from USB4F104151__55__12-54-01-033.txt Node

Date: Fri Mar 14 12:54:01 EDT 2025
User: louis
Spectrometer: USB4F10415
Trigger mode: 4
Integration Time (sec): 1.000000E-2
Scans to average: 1
Electric dark correction enabled: true
Nonlinearity correction enabled: false
Boxcar width: 0
XAxis mode: Wavelengths
Number of Pixels in Spectrum: 3648
>>>>>Begin Spectral Data<<<<<
178.204	-78.68
178.424	-78.68
178.644	-78.68
178.864	54.44
179.084	-4.95
179.304	-23.38
179.524	-29.52
179.744	36.01
179.964	7.34
180.184	23.72
180.404	7.34
180.624	3.24
180.844	-45.91
181.064	-58.2
181.283	-41.81
181.503	54.44
181.723	66.73
181.943	-0.85
182.163	68.78
182.383	-27.48
182.602	101.55
182.822	42.15
183.042	46.25
183.262	11.43
183.482	-50
183.701	50.35
183.921	52.39
184.141	-7
184.361	17.58
184.58	17.58
184.8	72.87
185.02	29.87
185.239	31.91
185.459	89.26
185.679	23.72
185.898	-9.05
186.118	-2.9
186.338	1.19
186.557	-13.14
186.777	-9.05
186.997	15.53
187.216	3.24
187.436	1.19
187.655	33.96
187.875	72.87
188.095	60.59
188.314	40.11
188.534	-0.85
188.753	1.19
188.973	66.73
189.192	103.59
189.412	95.4
189.631	33.96
189.851	33.96
190.07	-37.72
190.29	52.39
190.509	50.35
190.729	56.49
190.948	56.49
191.168	42.15
191.387	60.59
191.607	-21.33
191.826	33.96
192.045	83.11
192.265	42.15
192.484	27.82
192.704	27.82
192.923	-11.09
193.142	50.35
193.362	56.49
193.581	27.82
193.8	17.58
194.02	-25.43
194.239	58.54
194.458	1.19
194.678	44.2
194.897	64.68
195.116	11.43
195.335	21.67
195.555	111.78
195.774	56.49
195.993	42.15
196.212	21.67
196.432	-21.33
196.651	27.82
196.87	72.87
197.089	38.06
197.308	-33.62
197.528	52.39
197.747	-45.91
197.966	21.67
198.185	72.87
198.404	-31.57
198.623	74.92
198.842	70.83
199.062	15.53
199.281	-0.85
199.5	-37.72
199.719	62.63
199.938	72.87
200.157	36.01
200.376	-25.43
200.595	66.73
200.814	7.34
201.033	36.01
201.252	42.15
201.471	5.29
201.69	7.34
201.909	81.07
202.128	7.34
202.347	79.02
202.566	72.87
202.785	23.72
203.004	23.72
203.223	40.11
203.442	3.24
203.661	38.06
203.879	27.82
204.098	15.53
204.317	-25.43
204.536	-23.38
204.755	-19.29
204.974	5.29
205.193	-29.52
205.411	72.87
205.63	-2.9
205.849	42.15
206.068	9.39
206.287	29.87
206.505	31.91
206.724	1.19
206.943	21.67
207.162	21.67
207.381	68.78
207.599	9.39
207.818	23.72
208.037	21.67
208.255	33.96
208.474	-15.19
208.693	-2.9
208.911	9.39
209.13	40.11
209.349	76.97
209.567	31.91
209.786	72.87
210.005	-9.05
210.223	-0.85
210.442	50.35
210.661	48.3
210.879	93.35
211.098	52.39
211.316	40.11
211.535	21.67
211.753	44.2
211.972	60.59
212.191	81.07
212.409	91.31
212.628	89.26
212.846	50.35
213.065	91.31
213.283	58.54
213.502	56.49
213.72	52.39
213.938	-15.19
214.157	-7
214.375	38.06
214.594	42.15
214.812	46.25
215.031	74.92
215.249	44.2
215.467	40.11
215.686	79.02
215.904	132.26
216.122	74.92
216.341	-45.91
216.559	-2.9
216.778	60.59
216.996	15.53
217.214	23.72
217.432	81.07
217.651	33.96
217.869	85.16
218.087	36.01
218.306	-15.19
218.524	-21.33
218.742	113.83
218.96	-11.09
219.179	42.15
219.397	23.72
219.615	-2.9
219.833	-47.96
220.051	-27.48
220.27	-27.48
220.488	23.72
220.706	23.72
220.924	40.11
221.142	1.19
221.36	70.83
221.578	83.11
221.796	5.29
222.015	25.77
222.233	-11.09
222.451	66.73
222.669	1.19
222.887	29.87
223.105	79.02
223.323	-50
223.541	-15.19
223.759	-9.05
223.977	21.67
224.195	7.34
224.413	109.74
224.631	44.2
224.849	64.68
225.067	21.67
225.285	17.58
225.503	36.01
225.721	5.29
225.939	15.53
226.157	38.06
226.375	103.59
226.592	81.07
226.81	23.72
227.028	-4.95
227.246	91.31
227.464	50.35
227.682	-0.85
227.9	36.01
228.117	-47.96
228.335	99.5
228.553	50.35
228.771	-7
228.989	56.49
229.206	99.5
229.424	-15.19
229.642	36.01
229.86	-7
230.077	130.22
230.295	58.54
230.513	38.06
230.731	99.5
230.948	64.68
231.166	101.55
231.384	23.72
231.601	-9.05
231.819	79.02
232.037	95.4
232.254	93.35
232.472	13.48
232.689	-43.86
232.907	46.25
233.125	-29.52
233.342	64.68
233.56	-11.09
233.777	89.26
233.995	17.58
234.213	64.68
234.43	7.34
234.648	76.97
234.865	40.11
235.083	44.2
235.3	-27.48
235.518	46.25
235.735	-35.67
235.953	91.31
236.17	1.19
236.388	29.87
236.605	-15.19
236.822	60.59
237.04	15.53
237.257	13.48
237.475	7.34
237.692	99.5
237.909	11.43
238.127	9.39
238.344	-115.54
238.562	50.35
238.779	15.53
238.996	40.11
239.214	31.91
239.431	93.35
239.648	-21.33
239.865	54.44
240.083	52.39
240.3	44.2
240.517	23.72
240.735	40.11
240.952	70.83
241.169	83.11
241.386	11.43
241.603	-33.62
241.821	33.96
242.038	66.73
242.255	3.24
242.472	58.54
242.689	74.92
242.907	87.21
243.124	62.63
243.341	-4.95
243.558	23.72
243.775	23.72
243.992	76.97
244.209	95.4
244.426	105.64
244.643	50.35
244.86	9.39
245.078	27.82
245.295	50.35
245.512	107.69
245.729	-9.05
245.946	66.73
246.163	58.54
246.38	-17.24
246.597	68.78
246.814	64.68
247.031	11.43
247.248	79.02
247.464	-41.81
247.681	29.87
247.898	21.67
248.115	33.96
248.332	7.34
248.549	68.78
248.766	23.72
248.983	58.54
249.2	58.54
249.417	62.63
249.633	9.39
249.85	19.63
250.067	-21.33
250.284	29.87
250.501	31.91
250.717	46.25
250.934	36.01
251.151	9.39
251.368	29.87
251.585	68.78
251.801	5.29
252.018	11.43
252.235	-13.14
252.451	36.01
252.668	-15.19
252.885	83.11
253.102	79.02
253.318	79.02
253.535	56.49
253.752	58.54
253.968	-17.24
254.185	89.26
254.401	62.63
254.618	-0.85
254.835	17.58
255.051	66.73
255.268	42.15
255.484	48.3
255.701	85.16
255.917	105.64
256.134	17.58
256.351	105.64
256.567	9.39
256.784	44.2
257	-2.9
257.217	1.19
257.433	42.15
257.65	-19.29
257.866	56.49
258.082	33.96
258.299	66.73
258.515	21.67
258.732	40.11
258.948	58.54
259.165	38.06
259.381	50.35
259.597	72.87
259.814	31.91
260.03	1.19
260.246	23.72
260.463	13.48
260.679	31.91
260.895	64.68
261.112	17.58
261.328	23.72
261.544	70.83
261.761	66.73
261.977	66.73
262.193	38.06
262.409	52.39
262.626	48.3
262.842	-0.85
263.058	-25.43
263.274	23.72
263.49	74.92
263.707	81.07
263.923	40.11
264.139	-31.57
264.355	19.63
264.571	81.07
264.787	68.78
265.004	54.44
265.22	33.96
265.436	11.43
265.652	52.39
265.868	48.3
266.084	62.63
266.3	33.96
266.516	-2.9
266.732	74.92
266.948	89.26
267.164	52.39
267.38	64.68
267.596	42.15
267.812	-4.95
268.028	52.39
268.244	7.34
268.46	81.07
268.676	23.72
268.892	97.45
269.108	36.01
269.324	40.11
269.54	31.91
269.756	17.58
269.972	31.91
270.188	-7
270.403	7.34
270.619	101.55
270.835	56.49
271.051	-7
271.267	105.64
271.483	29.87
271.698	52.39
271.914	56.49
272.13	5.29
272.346	101.55
272.562	23.72
272.777	66.73
272.993	87.21
273.209	50.35
273.425	5.29
273.64	3.24
273.856	58.54
274.072	76.97
274.287	66.73
274.503	19.63
274.719	36.01
274.934	87.21
275.15	-15.19
275.366	93.35
275.581	54.44
275.797	103.59
276.012	9.39
276.228	1.19
276.444	-37.72
276.659	21.67
276.875	72.87
277.09	40.11
277.306	56.49
277.521	58.54
277.737	40.11
277.952	31.91
278.168	9.39
278.383	56.49
278.599	48.3
278.814	99.5
279.03	17.58
279.245	105.64
279.461	38.06
279.676	33.96
279.892	-7
280.107	60.59
280.322	76.97
280.538	13.48
280.753	33.96
280.969	64.68
281.184	60.59
281.399	-0.85
281.615	62.63
281.83	9.39
282.045	70.83
282.26	-7
282.476	-0.85
282.691	48.3
282.906	93.35
283.122	-19.29
283.337	40.11
283.552	109.74
283.767	27.82
283.983	56.49
284.198	-33.62
284.413	62.63
284.628	17.58
284.843	3.24
285.058	60.59
285.274	-0.85
285.489	38.06
285.704	58.54
285.919	105.64
286.134	95.4
286.349	50.35
286.564	89.26
286.779	97.45
286.995	48.3
287.21	27.82
287.425	62.63
287.64	56.49
287.855	83.11
288.07	46.25
288.285	25.77
288.5	148.65
288.715	40.11
288.93	74.92
289.145	60.59
289.36	44.2
289.575	46.25
289.79	68.78
290.004	38.06
290.219	87.21
290.434	58.54
290.649	1.19
290.864	50.35
291.079	-21.33
291.294	89.26
291.509	60.59
291.724	27.82
291.938	38.06
292.153	25.77
292.368	23.72
292.583	81.07
292.798	-0.85
293.012	-17.24
293.227	46.25
293.442	17.58
293.657	7.34
293.871	52.39
294.086	40.11
294.301	-27.48
294.516	40.11
294.73	42.15
294.945	-39.76
295.16	87.21
295.374	79.02
295.589	113.83
295.804	-39.76
296.018	105.64
296.233	9.39
296.447	42.15
296.662	-17.24
296.877	-7
297.091	17.58
297.306	64.68
297.52	5.29
297.735	33.96
297.949	56.49
298.164	48.3
298.378	40.11
298.593	56.49
298.807	-9.05
299.022	124.07
299.236	23.72
299.451	58.54
299.665	50.35
299.88	72.87
300.094	44.2
300.309	15.53
300.523	56.49
300.737	48.3
300.952	11.43
301.166	74.92
301.381	79.02
301.595	79.02
301.809	17.58
302.024	109.74
302.238	-4.95
302.452	62.63
302.667	66.73
302.881	97.45
303.095	79.02
303.309	74.92
303.524	-21.33
303.738	99.5
303.952	-2.9
304.166	19.63
304.381	-17.24
304.595	81.07
304.809	29.87
305.023	54.44
305.237	23.72
305.452	87.21
305.666	42.15
305.88	107.69
306.094	93.35
306.308	50.35
306.522	17.58
306.736	42.15
306.95	81.07
307.164	40.11
307.379	3.24
307.593	-41.81
307.807	101.55
308.021	68.78
308.235	76.97
308.449	7.34
308.663	11.43
308.877	134.31
309.091	89.26
309.305	60.59
309.519	60.59
309.733	-25.43
309.947	136.36
310.161	31.91
310.374	44.2
310.588	99.5
310.802	60.59
311.016	64.68
311.23	46.25
311.444	52.39
311.658	85.16
311.872	101.55
312.085	60.59
312.299	44.2
312.513	68.78
312.727	31.91
312.941	52.39
313.154	83.11
313.368	64.68
313.582	62.63
313.796	46.25
314.009	42.15
314.223	33.96
314.437	70.83
314.651	64.68
314.864	85.16
315.078	27.82
315.292	70.83
315.505	15.53
315.719	91.31
315.933	50.35
316.146	44.2
316.36	27.82
316.573	85.16
316.787	105.64
317.001	130.22
317.214	31.91
317.428	58.54
317.641	46.25
317.855	97.45
318.068	85.16
318.282	68.78
318.495	44.2
318.709	9.39
318.922	109.74
319.136	83.11
319.349	27.82
319.563	15.53
319.776	87.21
319.99	36.01
320.203	72.87
320.417	48.3
320.63	9.39
320.843	89.26
321.057	64.68
321.27	62.63
321.483	64.68
321.697	27.82
321.91	91.31
322.124	17.58
322.337	66.73
322.55	126.12
322.763	68.78
322.977	5.29
323.19	52.39
323.403	64.68
323.617	52.39
323.83	48.3
324.043	60.59
324.256	42.15
324.469	25.77
324.683	72.87
324.896	64.68
325.109	-9.05
325.322	7.34
325.535	60.59
325.748	-27.48
325.962	62.63
326.175	83.11
326.388	40.11
326.601	54.44
326.814	48.3
327.027	33.96
327.24	83.11
327.453	13.48
327.666	31.91
327.879	91.31
328.092	87.21
328.305	81.07
328.518	33.96
328.731	33.96
328.944	101.55
329.157	60.59
329.37	103.59
329.583	144.55
329.796	74.92
330.009	3.24
330.222	64.68
330.435	33.96
330.648	103.59
330.861	56.49
331.073	72.87
331.286	38.06
331.499	169.13
331.712	-41.81
331.925	58.54
332.138	95.4
332.35	48.3
332.563	72.87
332.776	62.63
332.989	9.39
333.202	56.49
333.414	93.35
333.627	105.64
333.84	36.01
334.053	85.16
334.265	33.96
334.478	38.06
334.691	109.74
334.903	91.31
335.116	52.39
335.329	99.5
335.541	13.48
335.754	56.49
335.966	27.82
336.179	5.29
336.392	122.02
336.604	-0.85
336.817	7.34
337.029	42.15
337.242	46.25
337.454	99.5
337.667	40.11
337.88	50.35
338.092	5.29
338.305	3.24
338.517	68.78
338.729	54.44
338.942	-2.9
339.154	99.5
339.367	-54.1
339.579	17.58
339.792	52.39
340.004	-17.24
340.217	64.68
340.429	83.11
340.641	68.78
340.854	62.63
341.066	117.93
341.278	62.63
341.491	87.21
341.703	-2.9
341.915	46.25
342.128	72.87
342.34	79.02
342.552	23.72
342.764	38.06
342.977	-0.85
343.189	70.83
343.401	89.26
343.613	107.69
343.826	76.97
344.038	56.49
344.25	68.78
344.462	25.77
344.674	27.82
344.886	40.11
345.099	52.39
345.311	79.02
345.523	40.11
345.735	74.92
345.947	29.87
346.159	72.87
346.371	23.72
346.583	85.16
346.795	87.21
347.007	50.35
347.219	99.5
347.431	93.35
347.643	58.54
347.855	15.53
348.067	66.73
348.279	31.91
348.491	89.26
348.703	58.54
348.915	95.4
349.127	113.83
349.339	58.54
349.551	13.48
349.763	111.78
349.975	31.91
350.187	83.11
350.399	19.63
350.61	3.24
350.822	85.16
351.034	56.49
351.246	91.31
351.458	15.53
351.669	83.11
351.881	99.5
352.093	68.78
352.305	126.12
352.517	36.01
352.728	113.83
352.94	126.12
353.152	99.5
353.363	83.11
353.575	27.82
353.787	1.19
353.999	29.87
354.21	60.59
354.422	115.88
354.633	17.58
354.845	103.59
355.057	9.39
355.268	66.73
355.48	60.59
355.692	44.2
355.903	83.11
356.115	23.72
356.326	21.67
356.538	50.35
356.749	97.45
356.961	85.16
357.172	111.78
357.384	68.78
357.595	21.67
357.807	52.39
358.018	91.31
358.23	25.77
358.441	64.68
358.653	87.21
358.864	-13.14
359.075	36.01
359.287	29.87
359.498	44.2
359.709	117.93
359.921	113.83
360.132	89.26
360.344	72.87
360.555	23.72
360.766	46.25
360.977	107.69
361.189	52.39
361.4	85.16
361.611	3.24
361.823	40.11
362.034	27.82
362.245	-7
362.456	79.02
362.667	-45.91
362.879	60.59
363.09	44.2
363.301	124.07
363.512	31.91
363.723	48.3
363.935	54.44
364.146	152.74
364.357	1.19
364.568	1.19
364.779	36.01
364.99	150.7
365.201	48.3
365.412	115.88
365.623	58.54
365.834	27.82
366.045	48.3
366.256	74.92
366.467	68.78
366.678	74.92
366.889	38.06
367.1	46.25
367.311	21.67
367.522	126.12
367.733	-9.05
367.944	33.96
368.155	91.31
368.366	74.92
368.577	85.16
368.788	15.53
368.999	58.54
369.209	126.12
369.42	79.02
369.631	81.07
369.842	76.97
370.053	105.64
370.264	81.07
370.474	105.64
370.685	66.73
370.896	11.43
371.107	56.49
371.317	91.31
371.528	38.06
371.739	21.67
371.95	56.49
372.16	150.7
372.371	60.59
372.582	146.6
372.792	79.02
373.003	101.55
373.214	89.26
373.424	64.68
373.635	124.07
373.846	64.68
374.056	60.59
374.267	-7
374.477	60.59
374.688	-7
374.898	79.02
375.109	38.06
375.319	29.87
375.53	117.93
375.74	-4.95
375.951	134.31
376.161	36.01
376.372	72.87
376.582	15.53
376.793	40.11
377.003	19.63
377.214	40.11
377.424	46.25
377.635	83.11
377.845	83.11
378.055	87.21
378.266	11.43
378.476	48.3
378.686	72.87
378.897	103.59
379.107	25.77
379.317	109.74
379.528	25.77
379.738	79.02
379.948	23.72
380.158	44.2
380.369	48.3
380.579	91.31
380.789	-31.57
380.999	72.87
381.21	87.21
381.42	64.68
381.63	48.3
381.84	115.88
382.05	79.02
382.261	15.53
382.471	33.96
382.681	54.44
382.891	66.73
383.101	72.87
383.311	11.43
383.521	29.87
383.731	99.5
383.941	27.82
384.151	89.26
384.361	66.73
384.571	81.07
384.781	128.17
384.991	99.5
385.201	128.17
385.411	89.26
385.621	79.02
385.831	72.87
386.041	91.31
386.251	93.35
386.461	42.15
386.671	101.55
386.881	76.97
387.091	-4.95
387.301	95.4
387.511	95.4
387.72	72.87
387.93	119.98
388.14	58.54
388.35	91.31
388.56	36.01
388.769	44.2
388.979	70.83
389.189	17.58
389.399	115.88
389.609	93.35
389.818	29.87
390.028	52.39
390.238	95.4
390.447	42.15
390.657	115.88
390.867	-0.85
391.076	97.45
391.286	79.02
391.496	56.49
391.705	101.55
391.915	11.43
392.125	-2.9
392.334	148.65
392.544	70.83
392.753	113.83
392.963	85.16
393.172	62.63
393.382	146.6
393.591	173.22
393.801	72.87
394.01	83.11
394.22	87.21
394.429	68.78
394.639	27.82
394.848	72.87
395.058	19.63
395.267	42.15
395.477	58.54
395.686	124.07
395.895	122.02
396.105	42.15
396.314	89.26
396.524	115.88
396.733	70.83
396.942	179.37
397.152	128.17
397.361	64.68
397.57	126.12
397.78	85.16
397.989	113.83
398.198	76.97
398.407	62.63
398.617	175.27
398.826	56.49
399.035	140.46
399.244	162.98
399.453	130.22
399.663	111.78
399.872	150.7
400.081	109.74
400.29	189.61
400.499	146.6
400.708	79.02
400.917	93.35
401.127	124.07
401.336	91.31
401.545	42.15
401.754	177.32
401.963	74.92
402.172	134.31
402.381	74.92
402.59	83.11
402.799	89.26
403.008	72.87
403.217	68.78
403.426	140.46
403.635	144.55
403.844	132.26
404.053	64.68
404.262	101.55
404.471	132.26
404.68	99.5
404.888	187.56
405.097	134.31
405.306	132.26
405.515	146.6
405.724	111.78
405.933	249
406.142	160.94
406.35	142.5
406.559	156.84
406.768	177.32
406.977	58.54
407.185	158.89
407.394	142.5
407.603	126.12
407.812	162.98
408.02	130.22
408.229	185.51
408.438	175.27
408.646	216.23
408.855	128.17
409.064	281.77
409.272	193.7
409.481	140.46
409.69	230.57
409.898	277.67
410.107	261.29
410.315	242.85
410.524	191.66
410.733	287.91
410.941	273.57
411.15	337.06
411.358	259.24
411.567	328.87
411.775	314.53
411.984	298.15
412.192	308.39
412.401	384.16
412.609	406.69
412.818	375.97
413.026	355.49
413.234	337.06
413.443	488.61
413.651	412.84
413.86	423.08
414.068	468.13
414.276	490.66
414.485	468.13
414.693	445.6
414.901	466.08
415.11	484.52
415.318	574.63
415.526	537.76
415.734	556.19
415.943	578.72
416.151	607.39
416.359	613.54
416.567	654.5
416.776	689.31
416.984	736.42
417.192	795.81
417.4	662.69
417.608	709.79
417.817	851.1
418.025	740.51
418.233	836.77
418.441	814.24
418.649	918.68
418.857	980.12
419.065	924.83
419.273	986.27
419.481	933.02
419.689	1039.51
419.897	1107.1
420.105	1176.73
420.313	1121.43
420.521	1154.2
420.729	1217.69
420.937	1215.64
421.145	1275.03
421.353	1313.94
421.561	1457.3
421.769	1467.54
421.977	1533.08
422.185	1465.49
422.393	1608.85
422.601	1735.82
422.809	1696.91
423.017	1715.34
423.224	1793.17
423.432	1787.02
423.64	1875.09
423.848	2092.17
424.056	1991.82
424.263	2086.03
424.471	2153.61
424.679	2143.37
424.887	2231.43
425.094	2296.97
425.302	2274.44
425.51	2323.59
425.718	2532.48
425.925	2407.56
426.133	2501.76
426.341	2667.65
426.548	2886.78
426.756	2800.77
426.964	3021.95
427.171	3087.48
427.379	3056.76
427.586	3259.51
427.794	3458.17
428.001	3447.93
428.209	3703.92
428.417	3470.45
428.624	3726.45
428.832	3818.61
429.039	3785.84
429.247	3779.7
429.454	4289.64
429.662	4338.79
429.869	4172.91
430.076	4539.49
430.284	4185.19
430.491	4600.93
430.699	4734.05
430.906	4744.29
431.114	4873.31
431.321	5000.29
431.528	5166.17
431.736	5508.18
431.943	5653.59
432.15	5581.91
432.358	5373.02
432.565	5934.16
432.772	5825.62
432.979	6052.94
433.187	6243.4
433.394	6278.22
433.601	6820.93
433.808	6814.79
434.016	6712.39
434.223	6915.14
434.43	7375.93
434.637	7373.88
434.844	7787.57
435.052	7945.27
435.259	7816.24
435.466	8066.1
435.673	7838.77
435.88	8338.48
436.087	8838.18
436.294	8864.8
436.501	8641.57
436.708	8825.89
436.915	9094.18
437.122	9448.47
437.329	9477.15
437.537	9784.34
437.743	9946.13
437.95	9980.95
438.157	10361.87
438.364	10619.91
438.571	10660.87
438.778	10959.88
438.985	11924.47
439.192	11492.35
439.399	11709.43
439.606	11404.28
439.813	12196.85
440.02	12801
440.227	12667.88
440.433	12418.03
440.64	12901.35
440.847	12653.55
441.054	13061.09
441.261	13882.33
441.467	13835.22
441.674	14025.68
441.881	14502.86
442.088	14691.27
442.294	14474.19
442.501	14736.33
442.708	15195.07
442.914	15723.45
443.121	16233.39
443.328	15971.25
443.534	16917.42
443.741	16624.56
443.948	16554.93
444.154	17636.25
444.361	17558.43
444.568	17578.91
444.774	17595.29
444.981	17626.01
445.187	18391.95
445.394	19088.26
445.6	18887.56
445.807	20708.21
446.013	19932.03
446.22	19954.55
446.426	21017.45
446.633	20933.48
446.839	21767.01
447.046	20917.1
447.252	22098.78
447.459	22303.57
447.665	22018.91
447.871	23227.21
448.078	24247.1
448.284	23067.47
448.491	23356.23
448.697	24687.41
448.903	25035.56
449.11	25054
449.316	24562.48
449.522	25109.29
449.728	26016.54
449.935	25867.04
450.141	25713.44
450.347	26424.09
450.553	25912.1
450.76	26149.66
450.966	26759.95
451.172	26651.41
451.378	27415.3
451.584	26899.22
451.791	27546.37
451.997	27427.59
452.203	28164.86
452.409	28171
452.615	27529.99
452.821	26733.33
453.027	26239.77
453.233	27656.96
453.44	26788.63
453.646	27071.25
453.852	27491.08
454.058	27609.86
454.264	27087.63
454.47	27425.54
454.676	26682.13
454.882	27644.68
455.088	25228.07
455.294	25516.84
455.5	25955.1
455.705	26315.55
455.911	25490.21
456.117	24951.6
456.323	24564.53
456.529	23276.36
456.735	24597.3
456.941	23679.81
457.147	23098.19
457.352	22524.75
457.558	22297.43
457.764	22442.84
457.97	21883.74
458.176	21603.17
458.381	21676.9
458.587	20706.16
458.793	20585.33
458.999	19563.39
459.204	20831.08
459.41	20413.3
459.616	18731.92
459.821	19264.39
460.027	18889.61
460.233	18707.34
460.438	17544.09
460.644	17728.41
460.85	16950.18
461.055	16915.37
461.261	16898.98
461.466	15512.51
461.672	15385.54
461.878	16083.89
462.083	15328.19
462.289	14900.17
462.494	14642.12
462.7	14164.95
462.905	13566.94
463.111	14197.71
463.316	14044.12
463.522	13949.91
463.727	13958.1
463.932	13929.43
464.138	13855.7
464.343	13898.71
464.549	13403.1
464.754	13988.82
464.959	13835.22
465.165	13884.37
465.37	13163.49
465.575	12729.32
465.781	13360.09
465.986	13560.8
466.191	13007.84
466.397	12868.58
466.602	12000.24
466.807	12706.79
467.012	12520.43
467.218	12444.65
467.423	12274.67
467.628	12266.48
467.833	12970.98
468.038	12506.09
468.244	12141.55
468.449	12692.46
468.654	12172.27
