Data from USB4F104151__84__12-54-48-278.txt Node

Date: Fri Mar 14 12:54:48 EDT 2025
User: louis
Spectrometer: USB4F10415
Trigger mode: 4
Integration Time (sec): 1.000000E-2
Scans to average: 1
Electric dark correction enabled: true
Nonlinearity correction enabled: false
Boxcar width: 0
XAxis mode: Wavelengths
Number of Pixels in Spectrum: 3648
>>>>>Begin Spectral Data<<<<<
178.204	-75.77
178.424	-75.77
178.644	-75.77
178.864	-47.1
179.084	-26.62
179.304	40.96
179.524	-38.91
179.744	8.19
179.964	-92.16
180.184	-28.67
180.404	55.3
180.624	-28.67
180.844	-32.77
181.064	10.24
181.283	2.05
181.503	47.1
181.723	57.34
181.943	40.96
182.163	0
182.383	-53.25
182.602	-30.72
182.822	10.24
183.042	67.58
183.262	-4.1
183.482	20.48
183.701	-2.05
183.921	-18.43
184.141	-12.29
184.361	-6.14
184.58	-32.77
184.8	-12.29
185.02	4.1
185.239	-26.62
185.459	28.67
185.679	8.19
185.898	30.72
186.118	-16.38
186.338	-63.49
186.557	59.39
186.777	12.29
186.997	-16.38
187.216	-43.01
187.436	-53.25
187.655	53.25
187.875	10.24
188.095	-18.43
188.314	18.43
188.534	8.19
188.753	-28.67
188.973	-20.48
189.192	22.53
189.412	22.53
189.631	40.96
189.851	-69.63
190.07	63.49
190.29	-4.1
190.509	24.58
190.729	10.24
190.948	-30.72
191.168	-40.96
191.387	-16.38
191.607	-6.14
191.826	-77.82
192.045	63.49
192.265	34.82
192.484	-38.91
192.704	-24.58
192.923	32.77
193.142	75.77
193.362	28.67
193.581	-18.43
193.8	20.48
194.02	94.21
194.239	-57.34
194.458	-30.72
194.678	8.19
194.897	-40.96
195.116	-47.1
195.335	-16.38
195.555	-59.39
195.774	51.2
195.993	30.72
196.212	10.24
196.432	30.72
196.651	-67.58
196.87	-36.86
197.089	-14.34
197.308	8.19
197.528	34.82
197.747	-22.53
197.966	-14.34
198.185	49.15
198.404	-20.48
198.623	8.19
198.842	-4.1
199.062	36.86
199.281	10.24
199.5	43.01
199.719	-6.14
199.938	4.1
200.157	61.44
200.376	-16.38
200.595	24.58
200.814	12.29
201.033	-22.53
201.252	30.72
201.471	22.53
201.69	-4.1
201.909	6.14
202.128	24.58
202.347	-8.19
202.566	0
202.785	20.48
203.004	-10.24
203.223	45.06
203.442	65.54
203.661	10.24
203.879	-40.96
204.098	59.39
204.317	-24.58
204.536	79.87
204.755	40.96
204.974	22.53
205.193	26.62
205.411	4.1
205.63	32.77
205.849	8.19
206.068	-49.15
206.287	-12.29
206.505	-8.19
206.724	8.19
206.943	6.14
207.162	-14.34
207.381	-43.01
207.599	4.1
207.818	63.49
208.037	8.19
208.255	28.67
208.474	81.92
208.693	-22.53
208.911	-16.38
209.13	-10.24
209.349	83.97
209.567	32.77
209.786	55.3
210.005	45.06
210.223	12.29
210.442	-16.38
210.661	20.48
210.879	-10.24
211.098	22.53
211.316	-24.58
211.535	34.82
211.753	-63.49
211.972	-59.39
212.191	-51.2
212.409	4.1
212.628	26.62
212.846	51.2
213.065	-2.05
213.283	8.19
213.502	-2.05
213.72	-24.58
213.938	-6.14
214.157	34.82
214.375	10.24
214.594	6.14
214.812	-24.58
215.031	-22.53
215.249	-67.58
215.467	51.2
215.686	32.77
215.904	-12.29
216.122	28.67
216.341	-16.38
216.559	0
216.778	-4.1
216.996	-32.77
217.214	63.49
217.432	4.1
217.651	8.19
217.869	-88.06
218.087	45.06
218.306	-24.58
218.524	-92.16
218.742	-24.58
218.96	20.48
219.179	14.34
219.397	43.01
219.615	36.86
219.833	-61.44
220.051	6.14
220.27	26.62
220.488	-79.87
220.706	57.34
220.924	38.91
221.142	63.49
221.36	28.67
221.578	51.2
221.796	47.1
222.015	-28.67
222.233	30.72
222.451	30.72
222.669	28.67
222.887	18.43
223.105	-57.34
223.323	-36.86
223.541	-94.21
223.759	6.14
223.977	-63.49
224.195	-28.67
224.413	2.05
224.631	32.77
224.849	12.29
225.067	106.49
225.285	36.86
225.503	-2.05
225.721	-4.1
225.939	8.19
226.157	53.25
226.375	69.63
226.592	30.72
226.81	-28.67
227.028	-83.97
227.246	-4.1
227.464	36.86
227.682	81.92
227.9	32.77
228.117	28.67
228.335	30.72
228.553	-38.91
228.771	2.05
228.989	-10.24
229.206	4.1
229.424	-47.1
229.642	-14.34
229.86	-49.15
230.077	12.29
230.295	-16.38
230.513	24.58
230.731	-28.67
230.948	2.05
231.166	-4.1
231.384	-30.72
231.601	-24.58
231.819	-10.24
232.037	59.39
232.254	-61.44
232.472	-51.2
232.689	67.58
232.907	-2.05
233.125	-10.24
233.342	4.1
233.56	-8.19
233.777	22.53
233.995	47.1
234.213	30.72
234.43	79.87
234.648	0
234.865	-6.14
235.083	-16.38
235.3	57.34
235.518	63.49
235.735	12.29
235.953	-24.58
236.17	-2.05
236.388	10.24
236.605	73.73
236.822	-26.62
237.04	-26.62
237.257	-24.58
237.475	-57.34
237.692	-61.44
237.909	-59.39
238.127	36.86
238.344	79.87
238.562	-26.62
238.779	36.86
238.996	30.72
239.214	-6.14
239.431	0
239.648	22.53
239.865	-38.91
240.083	-6.14
240.3	77.82
240.517	-63.49
240.735	10.24
240.952	88.06
241.169	-32.77
241.386	-63.49
241.603	-59.39
241.821	-40.96
242.038	-69.63
242.255	36.86
242.472	-4.1
242.689	-18.43
242.907	32.77
243.124	24.58
243.341	-2.05
243.558	65.54
243.775	-55.3
243.992	-6.14
244.209	38.91
244.426	61.44
244.643	12.29
244.86	22.53
245.078	53.25
245.295	-36.86
245.512	16.38
245.729	-30.72
245.946	-10.24
246.163	-36.86
246.38	86.01
246.597	10.24
246.814	24.58
247.031	-49.15
247.248	-32.77
247.464	-40.96
247.681	73.73
247.898	45.06
248.115	67.58
248.332	-26.62
248.549	28.67
248.766	2.05
248.983	12.29
249.2	-10.24
249.417	32.77
249.633	-65.53
249.85	135.17
250.067	36.86
250.284	-24.58
250.501	10.24
250.717	-14.34
250.934	2.05
251.151	32.77
251.368	-47.1
251.585	-47.1
251.801	-12.29
252.018	-10.24
252.235	38.91
252.451	10.24
252.668	10.24
252.885	61.44
253.102	26.62
253.318	-4.1
253.535	-59.39
253.752	-43.01
253.968	-16.38
254.185	-34.82
254.401	67.58
254.618	67.58
254.835	-22.53
255.051	22.53
255.268	36.86
255.484	45.06
255.701	20.48
255.917	-24.58
256.134	10.24
256.351	57.34
256.567	-57.34
256.784	28.67
257	18.43
257.217	22.53
257.433	20.48
257.65	4.1
257.866	20.48
258.082	30.72
258.299	16.38
258.515	-34.82
258.732	40.96
258.948	32.77
259.165	36.86
259.381	-30.72
259.597	-22.53
259.814	61.44
260.03	-47.1
260.246	-4.1
260.463	12.29
260.679	43.01
260.895	-4.1
261.112	-8.19
261.328	36.86
261.544	8.19
261.761	-8.19
261.977	-8.19
262.193	-38.91
262.409	-8.19
262.626	2.05
262.842	-20.48
263.058	2.05
263.274	61.44
263.49	2.05
263.707	-6.14
263.923	8.19
264.139	-61.44
264.355	12.29
264.571	36.86
264.787	-10.24
265.004	-24.58
265.22	-28.67
265.436	-10.24
265.652	18.43
265.868	38.91
266.084	-47.1
266.3	40.96
266.516	100.35
266.732	-16.38
266.948	59.39
267.164	59.39
267.38	55.3
267.596	-43.01
267.812	6.14
268.028	45.06
268.244	-34.82
268.46	36.86
268.676	-86.01
268.892	-43.01
269.108	77.82
269.324	26.62
269.54	-12.29
269.756	-61.44
269.972	10.24
270.188	55.3
270.403	-40.96
270.619	22.53
270.835	0
271.051	-8.19
271.267	14.34
271.483	6.14
271.698	-8.19
271.914	26.62
272.13	-36.86
272.346	-49.15
272.562	71.68
272.777	92.16
272.993	-22.53
273.209	0
273.425	-6.14
273.64	4.1
273.856	65.54
274.072	2.05
274.287	77.82
274.503	106.49
274.719	59.39
274.934	-12.29
275.15	-14.34
275.366	-6.14
275.581	-8.19
275.797	36.86
276.012	45.06
276.228	16.38
276.444	30.72
276.659	71.68
276.875	-65.53
277.09	57.34
277.306	-6.14
277.521	18.43
277.737	47.1
277.952	4.1
278.168	71.68
278.383	55.3
278.599	-45.06
278.814	16.38
279.03	8.19
279.245	45.06
279.461	20.48
279.676	55.3
279.892	-18.43
280.107	51.2
280.322	-32.77
280.538	20.48
280.753	-26.62
280.969	69.63
281.184	51.2
281.399	24.58
281.615	-43.01
281.83	10.24
282.045	28.67
282.26	-2.05
282.476	-4.1
282.691	10.24
282.906	-8.19
283.122	-59.39
283.337	49.15
283.552	2.05
283.767	-20.48
283.983	-22.53
284.198	12.29
284.413	43.01
284.628	-30.72
284.843	86.01
285.058	12.29
285.274	0
285.489	-2.05
285.704	-38.91
285.919	0
286.134	-75.77
286.349	-8.19
286.564	-2.05
286.779	30.72
286.995	-20.48
287.21	0
287.425	36.86
287.64	55.3
287.855	75.77
288.07	-96.25
288.285	14.34
288.5	6.14
288.715	-26.62
288.93	14.34
289.145	12.29
289.36	71.68
289.575	28.67
289.79	24.58
290.004	-32.77
290.219	4.1
290.434	4.1
290.649	59.39
290.864	2.05
291.079	14.34
291.294	45.06
291.509	-30.72
291.724	24.58
291.938	-2.05
292.153	96.25
292.368	-40.96
292.583	-12.29
292.798	20.48
293.012	-24.58
293.227	-10.24
293.442	77.82
293.657	8.19
293.871	6.14
294.086	-14.34
294.301	-24.58
294.516	-16.38
294.73	65.54
294.945	38.91
295.16	-53.25
295.374	40.96
295.589	-2.05
295.804	20.48
296.018	-18.43
296.233	2.05
296.447	-8.19
296.662	-40.96
296.877	-47.1
297.091	-22.53
297.306	4.1
297.52	51.2
297.735	79.87
297.949	32.77
298.164	-18.43
298.378	-12.29
298.593	-4.1
298.807	57.34
299.022	81.92
299.236	20.48
299.451	61.44
299.665	12.29
299.88	69.63
300.094	34.82
300.309	26.62
300.523	10.24
300.737	30.72
300.952	53.25
301.166	-24.58
301.381	-2.05
301.595	18.43
301.809	20.48
302.024	-49.15
302.238	32.77
302.452	8.19
302.667	-79.87
302.881	14.34
303.095	24.58
303.309	-12.29
303.524	24.58
303.738	-6.14
303.952	-4.1
304.166	-24.58
304.381	-57.34
304.595	38.91
304.809	18.43
305.023	4.1
305.237	47.1
305.452	61.44
305.666	20.48
305.88	16.38
306.094	-2.05
306.308	51.2
306.522	-22.53
306.736	38.91
306.95	-2.05
307.164	63.49
307.379	47.1
307.593	26.62
307.807	-24.58
308.021	32.77
308.235	-40.96
308.449	38.91
308.663	6.14
308.877	0
309.091	-10.24
309.305	-12.29
309.519	-59.39
309.733	-59.39
309.947	-20.48
310.161	-10.24
310.374	-47.1
310.588	61.44
310.802	-49.15
311.016	-38.91
311.23	26.62
311.444	12.29
311.658	-4.1
311.872	28.67
312.085	6.14
312.299	36.86
312.513	4.1
312.727	73.73
312.941	32.77
313.154	-18.43
313.368	47.1
313.582	65.54
313.796	2.05
314.009	-36.86
314.223	-18.43
314.437	28.67
314.651	-53.25
314.864	53.25
315.078	-55.3
315.292	10.24
315.505	8.19
315.719	4.1
315.933	-10.24
316.146	-18.43
316.36	-10.24
316.573	-20.48
316.787	2.05
317.001	-18.43
317.214	32.77
317.428	0
317.641	-38.91
317.855	-45.06
318.068	34.82
318.282	-2.05
318.495	4.1
318.709	-36.86
318.922	-16.38
319.136	94.21
319.349	-12.29
319.563	20.48
319.776	-55.3
319.99	-40.96
320.203	67.58
320.417	22.53
320.63	63.49
320.843	131.07
321.057	10.24
321.27	34.82
321.483	20.48
321.697	12.29
321.91	6.14
322.124	12.29
322.337	36.86
322.55	-28.67
322.763	79.87
322.977	-30.72
323.19	40.96
323.403	-47.1
323.617	26.62
323.83	-53.25
324.043	-30.72
324.256	4.1
324.469	28.67
324.683	0
324.896	4.1
325.109	28.67
325.322	-18.43
325.535	-47.1
325.748	-16.38
325.962	32.77
326.175	-36.86
326.388	100.35
326.601	10.24
326.814	47.1
327.027	-24.58
327.24	22.53
327.453	-10.24
327.666	14.34
327.879	-10.24
328.092	-34.82
328.305	10.24
328.518	73.73
328.731	28.67
328.944	22.53
329.157	-4.1
329.37	8.19
329.583	-67.58
329.796	36.86
330.009	18.43
330.222	32.77
330.435	8.19
330.648	6.14
330.861	-2.05
331.073	32.77
331.286	86.01
331.499	34.82
331.712	4.1
331.925	10.24
332.138	40.96
332.35	10.24
332.563	57.34
332.776	28.67
332.989	30.72
333.202	55.3
333.414	28.67
333.627	36.86
333.84	28.67
334.053	55.3
334.265	24.58
334.478	-18.43
334.691	-51.2
334.903	-32.77
335.116	-38.91
335.329	53.25
335.541	14.34
335.754	30.72
335.966	79.87
336.179	24.58
336.392	-2.05
336.604	32.77
336.817	-6.14
337.029	77.82
337.242	-24.58
337.454	-4.1
337.667	-10.24
337.88	-16.38
338.092	-18.43
338.305	12.29
338.517	4.1
338.729	4.1
338.942	-16.38
339.154	36.86
339.367	-8.19
339.579	59.39
339.792	40.96
340.004	71.68
340.217	8.19
340.429	6.14
340.641	-22.53
340.854	20.48
341.066	14.34
341.278	36.86
341.491	112.64
341.703	61.44
341.915	12.29
342.128	10.24
342.34	-49.15
342.552	55.3
342.764	18.43
342.977	14.34
343.189	77.82
343.401	-12.29
343.613	-45.06
343.826	18.43
344.038	-20.48
344.25	32.77
344.462	-63.49
344.674	16.38
344.886	-30.72
345.099	-43.01
345.311	-2.05
345.523	14.34
345.735	-16.38
345.947	12.29
346.159	57.34
346.371	2.05
346.583	28.67
346.795	12.29
347.007	22.53
347.219	38.91
347.431	26.62
347.643	45.06
347.855	22.53
348.067	69.63
348.279	51.2
348.491	-30.72
348.703	-4.1
348.915	-45.06
349.127	28.67
349.339	55.3
349.551	-51.2
349.763	4.1
349.975	47.1
350.187	40.96
350.399	88.06
350.61	73.73
350.822	69.63
351.034	81.92
351.246	-30.72
351.458	-20.48
351.669	22.53
351.881	24.58
352.093	32.77
352.305	26.62
352.517	34.82
352.728	63.49
352.94	4.1
353.152	6.14
353.363	24.58
353.575	-6.14
353.787	-10.24
353.999	-2.05
354.21	-28.67
354.422	10.24
354.633	-53.25
354.845	73.73
355.057	-61.44
355.268	-10.24
355.48	94.21
355.692	-24.58
355.903	10.24
356.115	-45.06
356.326	12.29
356.538	-20.48
356.749	26.62
356.961	47.1
357.172	-38.91
357.384	36.86
357.595	16.38
357.807	40.96
358.018	73.73
358.23	-30.72
358.441	43.01
358.653	32.77
358.864	-14.34
359.075	-14.34
359.287	18.43
359.498	75.77
359.709	-22.53
359.921	71.68
360.132	6.14
360.344	4.1
360.555	2.05
360.766	61.44
360.977	-12.29
361.189	-2.05
361.4	-30.72
361.611	67.58
361.823	2.05
362.034	-24.58
362.245	6.14
362.456	12.29
362.667	10.24
362.879	10.24
363.09	28.67
363.301	81.92
363.512	18.43
363.723	77.82
363.935	51.2
364.146	24.58
364.357	34.82
364.568	26.62
364.779	-18.43
364.99	61.44
365.201	8.19
365.412	-36.86
365.623	10.24
365.834	-24.58
366.045	-12.29
366.256	45.06
366.467	0
366.678	-28.67
366.889	24.58
367.1	-24.58
367.311	0
367.522	4.1
367.733	-14.34
367.944	28.67
368.155	-51.2
368.366	49.15
368.577	2.05
368.788	26.62
368.999	28.67
369.209	-28.67
369.42	45.06
369.631	2.05
369.842	18.43
370.053	-92.16
370.264	57.34
370.474	-2.05
370.685	-20.48
370.896	32.77
371.107	8.19
371.317	10.24
371.528	0
371.739	32.77
371.95	12.29
372.16	2.05
372.371	28.67
372.582	-34.82
372.792	-38.91
373.003	65.54
373.214	28.67
373.424	28.67
373.635	-8.19
373.846	34.82
374.056	57.34
374.267	-16.38
374.477	16.38
374.688	28.67
374.898	12.29
375.109	86.01
375.319	-51.2
375.53	28.67
375.74	30.72
375.951	0
376.161	-34.82
376.372	47.1
376.582	49.15
376.793	-10.24
377.003	-22.53
377.214	-18.43
377.424	-24.58
377.635	45.06
377.845	-18.43
378.055	73.73
378.266	6.14
378.476	-49.15
378.686	-28.67
378.897	86.01
379.107	-6.14
379.317	10.24
379.528	24.58
379.738	24.58
379.948	-28.67
380.158	-14.34
380.369	98.3
380.579	69.63
380.789	22.53
380.999	79.87
381.21	88.06
381.42	63.49
381.63	-16.38
381.84	71.68
382.05	0
382.261	49.15
382.471	47.1
382.681	57.34
382.891	47.1
383.101	-43.01
383.311	51.2
383.521	16.38
383.731	65.54
383.941	-6.14
384.151	10.24
384.361	8.19
384.571	22.53
384.781	-20.48
384.991	40.96
385.201	47.1
385.411	12.29
385.621	36.86
385.831	4.1
386.041	-75.77
386.251	53.25
386.461	36.86
386.671	2.05
386.881	24.58
387.091	47.1
387.301	53.25
387.511	26.62
387.72	34.82
387.93	-45.06
388.14	0
388.35	-30.72
388.56	79.87
388.769	16.38
388.979	45.06
389.189	22.53
389.399	61.44
389.609	55.3
389.818	63.49
390.028	2.05
390.238	94.21
390.447	32.77
390.657	57.34
390.867	-6.14
391.076	106.49
391.286	-30.72
391.496	-28.67
391.705	34.82
391.915	149.5
392.125	14.34
392.334	38.91
392.544	49.15
392.753	49.15
392.963	20.48
393.172	14.34
393.382	2.05
393.591	0
393.801	-26.62
394.01	-12.29
394.22	-36.86
394.429	51.2
394.639	-47.1
394.848	73.73
395.058	-14.34
395.267	20.48
395.477	63.49
395.686	40.96
395.895	59.39
396.105	36.86
396.314	83.97
396.524	69.63
396.733	57.34
396.942	-36.86
397.152	-30.72
397.361	92.16
397.57	59.39
397.78	22.53
397.989	51.2
398.198	2.05
398.407	88.06
398.617	4.1
398.826	-28.67
399.035	24.58
399.244	12.29
399.453	45.06
399.663	30.72
399.872	83.97
400.081	30.72
400.29	65.54
400.499	47.1
400.708	-26.62
400.917	24.58
401.127	14.34
401.336	92.16
401.545	90.11
401.754	30.72
401.963	53.25
402.172	-10.24
402.381	57.34
402.59	10.24
402.799	47.1
403.008	79.87
403.217	38.91
403.426	53.25
403.635	51.2
403.844	198.65
404.053	-2.05
404.262	63.49
404.471	67.58
404.68	6.14
404.888	102.4
405.097	163.84
405.306	88.06
405.515	51.2
405.724	-18.43
405.933	40.96
406.142	18.43
406.35	-6.14
406.559	32.77
406.768	59.39
406.977	30.72
407.185	51.2
407.394	88.06
407.603	32.77
407.812	94.21
408.02	104.45
408.229	51.2
408.438	155.65
408.646	104.45
408.855	135.17
409.064	145.41
409.272	65.54
409.481	163.84
409.69	79.87
409.898	104.45
410.107	126.97
410.315	182.27
410.524	161.79
410.733	149.5
410.941	184.32
411.15	161.79
411.358	71.68
411.567	192.51
411.775	104.45
411.984	249.85
412.192	200.7
412.401	217.08
412.609	186.37
412.818	120.83
413.026	143.36
413.234	262.14
413.443	266.24
413.651	225.28
413.86	282.62
414.068	305.15
414.276	307.2
414.485	188.41
414.693	296.96
414.901	276.48
415.11	204.8
415.318	329.72
415.526	346.11
415.734	270.33
415.943	346.11
416.151	337.91
416.359	368.63
416.567	331.77
416.776	372.73
416.984	380.92
417.192	423.93
417.4	421.88
417.608	423.93
417.817	462.84
418.025	419.83
418.233	487.42
418.441	503.8
418.649	530.42
418.857	522.23
419.065	602.1
419.273	600.05
419.481	659.45
419.689	589.82
419.897	608.25
420.105	688.12
420.313	700.41
420.521	663.54
420.729	667.64
420.937	743.41
421.145	718.84
421.353	796.66
421.561	790.52
421.769	784.37
421.977	839.67
422.185	864.24
422.393	1021.94
422.601	915.44
422.809	1019.89
423.017	956.4
423.224	964.59
423.432	1153.01
423.64	1126.38
423.848	1247.21
424.056	1140.72
424.263	1216.49
424.471	1298.41
424.679	1239.02
424.887	1329.13
425.094	1388.52
425.302	1380.33
425.51	1540.07
425.718	1527.78
425.925	1556.46
426.133	1601.51
426.341	1605.61
426.548	1808.36
426.756	1662.95
426.964	1728.49
427.171	1859.56
427.379	1964
427.586	1816.55
427.794	1953.76
428.001	2027.49
428.209	2215.9
428.417	2002.91
428.624	2318.3
428.832	2258.91
429.039	2250.72
429.247	2326.49
429.454	2447.32
429.662	2621.4
429.869	2459.61
430.076	2619.35
430.284	2600.92
430.491	2723.8
430.699	2826.2
430.906	2734.04
431.114	2865.11
431.321	3071.95
431.528	3182.54
431.736	3346.38
431.943	3377.1
432.15	3391.44
432.358	3217.36
432.565	3567.56
432.772	3465.16
432.979	3766.21
433.187	3698.63
433.394	3729.35
433.601	3934.15
433.808	4110.27
434.016	4034.5
434.223	4214.72
434.43	4526.01
434.637	4444.09
434.844	4401.08
435.052	5054.39
435.259	4700.09
435.466	4732.86
435.673	4657.08
435.88	4941.75
436.087	5248.94
436.294	5210.03
436.501	5218.22
436.708	5259.18
436.915	5369.77
437.122	5529.52
437.329	5631.91
437.537	5832.61
437.743	5984.16
437.95	5932.97
438.157	6215.59
438.364	6614.94
438.571	6461.34
438.778	6526.88
438.985	6924.18
439.192	6793.11
439.399	6868.89
439.606	6799.26
439.813	7053.2
440.02	7604.11
440.227	7460.75
440.433	7268.24
440.64	7739.27
440.847	7559.05
441.054	7706.51
441.261	8318.85
441.467	8132.48
441.674	8351.62
441.881	8634.24
442.088	8624
442.294	8599.42
442.501	8830.84
442.708	8777.59
442.914	9232.24
443.121	9817.96
443.328	9494.38
443.534	10180.45
443.741	9967.46
443.948	9697.13
444.154	10409.83
444.361	10395.49
444.568	10590.05
444.774	10411.87
444.981	10737.5
445.187	10983.26
445.394	11331.41
445.6	11298.64
445.807	12273.48
446.013	11941.71
446.22	12021.58
446.426	12676.93
446.633	12711.74
446.839	12973.88
447.046	12623.68
447.252	13184.82
447.459	13150.01
447.665	13338.42
447.871	13901.61
448.078	14409.51
448.284	13795.12
448.491	14362.4
448.697	14935.84
448.903	14808.86
449.11	15138.58
449.316	14757.66
449.522	15138.58
449.728	15513.36
449.935	15593.23
450.141	15570.71
450.347	16004.88
450.553	15451.92
450.76	15609.62
450.966	16367.37
451.172	16187.15
451.378	16502.53
451.584	16041.74
451.791	16314.12
451.997	16494.34
452.203	16695.04
452.409	16545.54
452.615	16781.06
452.821	15834.89
453.027	15947.53
453.233	16742.14
453.44	16111.37
453.646	15949.58
453.852	16508.68
454.058	16488.2
454.264	16205.58
454.47	16297.74
454.676	15939.34
454.882	16459.52
455.088	15159.06
455.294	15257.37
455.5	15607.57
455.705	15750.93
455.911	15195.93
456.117	14628.64
456.323	14702.37
456.529	13811.5
456.735	14569.25
456.941	14032.68
457.147	13965.1
457.352	13203.25
457.558	13221.69
457.764	13381.43
457.97	13145.91
458.176	12545.86
458.381	12812.09
458.587	12062.54
458.793	12250.95
458.999	11491.15
459.204	12363.59
459.41	11976.52
459.616	11429.71
459.821	11085.65
460.027	11073.37
460.233	10864.47
460.438	10418.02
460.644	10684.25
460.85	10098.53
461.055	9908.07
461.261	9760.62
461.466	9066.36
461.672	9113.46
461.878	9582.45
462.083	8798.07
462.289	8554.37
462.494	8671.1
462.7	8032.13
462.905	8122.24
463.111	8312.71
463.316	8384.38
463.522	8087.43
463.727	8032.13
463.932	8320.9
464.138	7806.86
464.343	8062.85
464.549	7868.3
464.754	8025.99
464.959	7972.74
465.165	7991.17
465.37	7647.12
465.575	7458.7
465.781	7649.16
465.986	7804.81
466.191	7425.93
466.397	7405.45
466.602	7002.01
466.807	7167.89
467.012	7505.81
467.218	7210.9
467.423	7178.13
467.628	7184.27
467.833	7497.61
468.038	7253.91
468.244	7106.45
468.449	7315.34
468.654	7018.39
468.859	6911.89
469.064	6903.7
469.269	6670.23
