Data from USB4F104151__51__12-53-59-334.txt Node

Date: Fri Mar 14 12:53:59 EDT 2025
User: louis
Spectrometer: USB4F10415
Trigger mode: 4
Integration Time (sec): 1.000000E-2
Scans to average: 1
Electric dark correction enabled: true
Nonlinearity correction enabled: false
Boxcar width: 0
XAxis mode: Wavelengths
Number of Pixels in Spectrum: 3648
>>>>>Begin Spectral Data<<<<<
178.204	-35.5
178.424	-35.5
178.644	-35.5
178.864	-45.74
179.084	-35.5
179.304	73.04
179.524	-23.21
179.744	75.09
179.964	-10.92
180.184	1.37
180.404	11.61
180.624	13.65
180.844	-35.5
181.064	-2.73
181.283	-55.98
181.503	-6.83
181.723	-39.59
181.943	19.8
182.163	64.85
182.383	-43.69
182.602	7.51
182.822	40.28
183.042	-10.92
183.262	-8.87
183.482	32.08
183.701	-53.93
183.921	-25.26
184.141	-2.73
184.361	95.57
184.58	-31.4
184.8	79.19
185.02	48.47
185.239	30.04
185.459	15.7
185.679	19.8
185.898	-78.51
186.118	60.76
186.338	-55.98
186.557	89.43
186.777	-12.97
186.997	-8.87
187.216	-45.74
187.436	32.08
187.655	30.04
187.875	17.75
188.095	19.8
188.314	-60.07
188.534	46.42
188.753	30.04
188.973	38.23
189.192	-55.98
189.412	54.61
189.631	-0.68
189.851	73.04
190.07	44.37
190.29	-74.41
190.509	21.85
190.729	-2.73
190.948	1.37
191.168	103.76
191.387	71
191.607	64.85
191.826	-15.02
192.045	38.23
192.265	34.13
192.484	50.52
192.704	34.13
192.923	-21.16
193.142	64.85
193.362	77.14
193.581	27.99
193.8	21.85
194.02	21.85
194.239	5.46
194.458	44.37
194.678	-37.55
194.897	5.46
195.116	5.46
195.335	-6.83
195.555	-8.87
195.774	60.76
195.993	-0.68
196.212	-80.55
196.432	34.13
196.651	25.94
196.87	-17.07
197.089	13.65
197.308	21.85
197.528	36.18
197.747	25.94
197.966	-58.03
198.185	-12.97
198.404	-19.11
198.623	7.51
198.842	-66.22
199.062	17.75
199.281	60.76
199.5	9.56
199.719	46.42
199.938	-17.07
200.157	50.52
200.376	-12.97
200.595	52.56
200.814	19.8
201.033	-6.83
201.252	-31.4
201.471	23.89
201.69	-6.83
201.909	54.61
202.128	-2.73
202.347	-15.02
202.566	13.65
202.785	-4.78
203.004	-43.69
203.223	30.04
203.442	-4.78
203.661	38.23
203.879	34.13
204.098	68.95
204.317	-12.97
204.536	-39.59
204.755	68.95
204.974	-2.73
205.193	38.23
205.411	99.67
205.63	19.8
205.849	7.51
206.068	38.23
206.287	38.23
206.505	-39.59
206.724	-4.78
206.943	89.43
207.162	1.37
207.381	15.7
207.599	111.96
207.818	9.56
208.037	32.08
208.255	3.41
208.474	7.51
208.693	-4.78
208.911	1.37
209.13	27.99
209.349	15.7
209.567	21.85
209.786	73.04
210.005	-12.97
210.223	38.23
210.442	30.04
210.661	19.8
210.879	-8.87
211.098	-19.11
211.316	42.32
211.535	-15.02
211.753	-2.73
211.972	48.47
212.191	-8.87
212.409	-6.83
212.628	-2.73
212.846	32.08
213.065	42.32
213.283	17.75
213.502	103.76
213.72	-4.78
213.938	-33.45
214.157	1.37
214.375	95.57
214.594	42.32
214.812	15.7
215.031	40.28
215.249	-43.69
215.467	58.71
215.686	-60.07
215.904	75.09
216.122	46.42
216.341	44.37
216.559	-10.92
216.778	7.51
216.996	-51.88
217.214	71
217.432	-0.68
217.651	13.65
217.869	-0.68
218.087	19.8
218.306	-23.21
218.524	114
218.742	19.8
218.96	23.89
219.179	-0.68
219.397	27.99
219.615	13.65
219.833	23.89
220.051	77.14
220.27	25.94
220.488	-15.02
220.706	13.65
220.924	64.85
221.142	34.13
221.36	-6.83
221.578	-2.73
221.796	5.46
222.015	-19.11
222.233	-45.74
222.451	36.18
222.669	-19.11
222.887	34.13
223.105	40.28
223.323	36.18
223.541	1.37
223.759	11.61
223.977	1.37
224.195	62.8
224.413	-58.03
224.631	64.85
224.849	21.85
225.067	-31.4
225.285	-21.16
225.503	-0.68
225.721	-25.26
225.939	36.18
226.157	-8.87
226.375	114
226.592	-35.5
226.81	-0.68
227.028	40.28
227.246	3.41
227.464	48.47
227.682	54.61
227.9	40.28
228.117	-0.68
228.335	42.32
228.553	81.24
228.771	-10.92
228.989	13.65
229.206	15.7
229.424	-2.73
229.642	38.23
229.86	34.13
230.077	40.28
230.295	13.65
230.513	32.08
230.731	11.61
230.948	159.06
231.166	17.75
231.384	13.65
231.601	62.8
231.819	56.66
232.037	-37.55
232.254	-23.21
232.472	36.18
232.689	50.52
232.907	1.37
233.125	-41.64
233.342	-21.16
233.56	56.66
233.777	64.85
233.995	11.61
234.213	1.37
234.43	54.61
234.648	-25.26
234.865	-6.83
235.083	15.7
235.3	25.94
235.518	79.19
235.735	81.24
235.953	71
236.17	27.99
236.388	-31.4
236.605	52.56
236.822	5.46
237.04	15.7
237.257	62.8
237.475	19.8
237.692	13.65
237.909	27.99
238.127	-60.07
238.344	-15.02
238.562	34.13
238.779	5.46
238.996	-23.21
239.214	68.95
239.431	-6.83
239.648	27.99
239.865	50.52
240.083	5.46
240.3	15.7
240.517	-31.4
240.735	-29.35
240.952	11.61
241.169	36.18
241.386	21.85
241.603	83.28
241.821	-37.55
242.038	85.33
242.255	54.61
242.472	7.51
242.689	-8.87
242.907	-33.45
243.124	64.85
243.341	-8.87
243.558	3.41
243.775	17.75
243.992	-23.21
244.209	38.23
244.426	42.32
244.643	21.85
244.86	15.7
245.078	5.46
245.295	111.96
245.512	56.66
245.729	-15.02
245.946	32.08
246.163	54.61
246.38	122.2
246.597	1.37
246.814	-15.02
247.031	11.61
247.248	-35.5
247.464	-4.78
247.681	7.51
247.898	64.85
248.115	34.13
248.332	-31.4
248.549	38.23
248.766	32.08
248.983	-29.35
249.2	-17.07
249.417	54.61
249.633	-21.16
249.85	54.61
250.067	15.7
250.284	34.13
250.501	68.95
250.717	52.56
250.934	-51.88
251.151	-6.83
251.368	-19.11
251.585	-33.45
251.801	21.85
252.018	23.89
252.235	46.42
252.451	3.41
252.668	-17.07
252.885	30.04
253.102	-19.11
253.318	50.52
253.535	-2.73
253.752	7.51
253.968	60.76
254.185	13.65
254.401	56.66
254.618	62.8
254.835	44.37
255.051	68.95
255.268	-2.73
255.484	-15.02
255.701	71
255.917	66.9
256.134	-15.02
256.351	9.56
256.567	27.99
256.784	40.28
257	-15.02
257.217	5.46
257.433	48.47
257.65	95.57
257.866	9.56
258.082	30.04
258.299	48.47
258.515	30.04
258.732	-8.87
258.948	-0.68
259.165	-15.02
259.381	-6.83
259.597	9.56
259.814	15.7
260.03	-15.02
260.246	34.13
260.463	-37.55
260.679	-35.5
260.895	73.04
261.112	-49.83
261.328	-25.26
261.544	7.51
261.761	-53.93
261.977	7.51
262.193	38.23
262.409	27.99
262.626	7.51
262.842	5.46
263.058	44.37
263.274	-2.73
263.49	85.33
263.707	75.09
263.923	11.61
264.139	21.85
264.355	23.89
264.571	64.85
264.787	5.46
265.004	40.28
265.22	46.42
265.436	-31.4
265.652	38.23
265.868	89.43
266.084	-31.4
266.3	-31.4
266.516	-8.87
266.732	89.43
266.948	21.85
267.164	15.7
267.38	56.66
267.596	38.23
267.812	5.46
268.028	60.76
268.244	40.28
268.46	46.42
268.676	11.61
268.892	7.51
269.108	-47.79
269.324	-0.68
269.54	58.71
269.756	56.66
269.972	-33.45
270.188	-0.68
270.403	77.14
270.619	9.56
270.835	32.08
271.051	52.56
271.267	9.56
271.483	-4.78
271.698	-0.68
271.914	1.37
272.13	64.85
272.346	5.46
272.562	-6.83
272.777	-4.78
272.993	-17.07
273.209	32.08
273.425	44.37
273.64	-4.78
273.856	79.19
274.072	1.37
274.287	-49.83
274.503	89.43
274.719	-19.11
274.934	75.09
275.15	-64.17
275.366	36.18
275.581	46.42
275.797	-2.73
276.012	19.8
276.228	-29.35
276.444	52.56
276.659	73.04
276.875	48.47
277.09	19.8
277.306	-2.73
277.521	-19.11
277.737	13.65
277.952	13.65
278.168	60.76
278.383	-66.22
278.599	71
278.814	89.43
279.03	23.89
279.245	-27.31
279.461	-35.5
279.676	5.46
279.892	32.08
280.107	54.61
280.322	11.61
280.538	21.85
280.753	-51.88
280.969	9.56
281.184	11.61
281.399	-27.31
281.615	17.75
281.83	77.14
282.045	-2.73
282.26	54.61
282.476	77.14
282.691	21.85
282.906	-2.73
283.122	66.9
283.337	48.47
283.552	54.61
283.767	54.61
283.983	48.47
284.198	-4.78
284.413	48.47
284.628	36.18
284.843	11.61
285.058	-0.68
285.274	62.8
285.489	42.32
285.704	15.7
285.919	-25.26
286.134	48.47
286.349	46.42
286.564	-0.68
286.779	40.28
286.995	48.47
287.21	7.51
287.425	56.66
287.64	34.13
287.855	9.56
288.07	-29.35
288.285	25.94
288.5	-19.11
288.715	21.85
288.93	54.61
289.145	38.23
289.36	107.86
289.575	71
289.79	58.71
290.004	-17.07
290.219	64.85
290.434	81.24
290.649	34.13
290.864	62.8
291.079	42.32
291.294	71
291.509	-2.73
291.724	-4.78
291.938	-8.87
292.153	68.95
292.368	19.8
292.583	75.09
292.798	75.09
293.012	36.18
293.227	17.75
293.442	42.32
293.657	42.32
293.871	87.38
294.086	34.13
294.301	-0.68
294.516	-2.73
294.73	17.75
294.945	30.04
295.16	-6.83
295.374	23.89
295.589	79.19
295.804	-51.88
296.018	9.56
296.233	46.42
296.447	42.32
296.662	54.61
296.877	32.08
297.091	44.37
297.306	71
297.52	17.75
297.735	99.67
297.949	50.52
298.164	32.08
298.378	21.85
298.593	54.61
298.807	5.46
299.022	7.51
299.236	15.7
299.451	36.18
299.665	64.85
299.88	54.61
300.094	64.85
300.309	-25.26
300.523	-17.07
300.737	17.75
300.952	-4.78
301.166	52.56
301.381	30.04
301.595	60.76
301.809	-19.11
302.024	-53.93
302.238	27.99
302.452	73.04
302.667	136.53
302.881	19.8
303.095	71
303.309	32.08
303.524	-0.68
303.738	17.75
303.952	109.91
304.166	19.8
304.381	62.8
304.595	68.95
304.809	79.19
305.023	68.95
305.237	-23.21
305.452	36.18
305.666	-29.35
305.88	79.19
306.094	9.56
306.308	46.42
306.522	17.75
306.736	93.52
306.95	68.95
307.164	-10.92
307.379	50.52
307.593	42.32
307.807	140.63
308.021	103.76
308.235	-19.11
308.449	58.71
308.663	1.37
308.877	52.56
309.091	-68.27
309.305	83.28
309.519	36.18
309.733	36.18
309.947	58.71
310.161	66.9
310.374	19.8
310.588	54.61
310.802	-47.79
311.016	42.32
311.23	-0.68
311.444	138.58
311.658	105.81
311.872	30.04
312.085	-29.35
312.299	64.85
312.513	83.28
312.727	-0.68
312.941	-72.36
313.154	11.61
313.368	15.7
313.582	46.42
313.796	64.85
314.009	25.94
314.223	-6.83
314.437	66.9
314.651	21.85
314.864	38.23
315.078	-15.02
315.292	40.28
315.505	64.85
315.719	81.24
315.933	56.66
316.146	21.85
316.36	-33.45
316.573	-17.07
316.787	21.85
317.001	56.66
317.214	-27.31
317.428	48.47
317.641	64.85
317.855	9.56
318.068	34.13
318.282	56.66
318.495	89.43
318.709	77.14
318.922	21.85
319.136	19.8
319.349	13.65
319.563	-6.83
319.776	54.61
319.99	34.13
320.203	34.13
320.417	17.75
320.63	87.38
320.843	60.76
321.057	-76.46
321.27	13.65
321.483	68.95
321.697	32.08
321.91	-27.31
322.124	85.33
322.337	36.18
322.55	32.08
322.763	23.89
322.977	1.37
323.19	32.08
323.403	36.18
323.617	15.7
323.83	-10.92
324.043	44.37
324.256	1.37
324.469	48.47
324.683	40.28
324.896	54.61
325.109	40.28
325.322	73.04
325.535	58.71
325.748	-19.11
325.962	32.08
326.175	38.23
326.388	-21.16
326.601	79.19
326.814	27.99
327.027	71
327.24	66.9
327.453	64.85
327.666	64.85
327.879	85.33
328.092	-0.68
328.305	-8.87
328.518	62.8
328.731	7.51
328.944	114
329.157	50.52
329.37	95.57
329.583	38.23
329.796	64.85
330.009	54.61
330.222	25.94
330.435	54.61
330.648	107.86
330.861	62.8
331.073	25.94
331.286	124.24
331.499	52.56
331.712	-8.87
331.925	34.13
332.138	126.29
332.35	-2.73
332.563	-4.78
332.776	85.33
332.989	3.41
333.202	9.56
333.414	40.28
333.627	17.75
333.84	19.8
334.053	52.56
334.265	7.51
334.478	38.23
334.691	54.61
334.903	56.66
335.116	-0.68
335.329	3.41
335.541	81.24
335.754	54.61
335.966	109.91
336.179	-2.73
336.392	-8.87
336.604	-17.07
336.817	66.9
337.029	1.37
337.242	118.1
337.454	-4.78
337.667	-6.83
337.88	75.09
338.092	56.66
338.305	32.08
338.517	46.42
338.729	3.41
338.942	19.8
339.154	58.71
339.367	-49.83
339.579	91.48
339.792	81.24
340.004	52.56
340.217	42.32
340.429	-0.68
340.641	-17.07
340.854	83.28
341.066	34.13
341.278	3.41
341.491	-15.02
341.703	32.08
341.915	36.18
342.128	7.51
342.34	71
342.552	36.18
342.764	-19.11
342.977	60.76
343.189	46.42
343.401	60.76
343.613	-15.02
343.826	30.04
344.038	-23.21
344.25	66.9
344.462	40.28
344.674	-10.92
344.886	56.66
345.099	62.8
345.311	23.89
345.523	62.8
345.735	25.94
345.947	40.28
346.159	62.8
346.371	64.85
346.583	23.89
346.795	25.94
347.007	13.65
347.219	77.14
347.431	25.94
347.643	64.85
347.855	27.99
348.067	73.04
348.279	48.47
348.491	66.9
348.703	-33.45
348.915	75.09
349.127	66.9
349.339	13.65
349.551	25.94
349.763	62.8
349.975	17.75
350.187	103.76
350.399	89.43
350.61	-15.02
350.822	-0.68
351.034	9.56
351.246	-2.73
351.458	120.15
351.669	-31.4
351.881	-0.68
352.093	46.42
352.305	85.33
352.517	46.42
352.728	95.57
352.94	60.76
353.152	-6.83
353.363	13.65
353.575	62.8
353.787	36.18
353.999	81.24
354.21	32.08
354.422	81.24
354.633	120.15
354.845	25.94
355.057	9.56
355.268	3.41
355.48	13.65
355.692	79.19
355.903	73.04
356.115	-21.16
356.326	-43.69
356.538	48.47
356.749	52.56
356.961	95.57
357.172	58.71
357.384	34.13
357.595	-35.5
357.807	21.85
358.018	42.32
358.23	50.52
358.441	30.04
358.653	-0.68
358.864	42.32
359.075	7.51
359.287	25.94
359.498	58.71
359.709	-0.68
359.921	71
360.132	21.85
360.344	79.19
360.555	66.9
360.766	27.99
360.977	87.38
361.189	25.94
361.4	25.94
361.611	101.72
361.823	66.9
362.034	36.18
362.245	32.08
362.456	-19.11
362.667	15.7
362.879	7.51
363.09	48.47
363.301	54.61
363.512	30.04
363.723	23.89
363.935	93.52
364.146	-70.31
364.357	56.66
364.568	30.04
364.779	-31.4
364.99	71
365.201	85.33
365.412	-27.31
365.623	-35.5
365.834	-55.98
366.045	101.72
366.256	126.29
366.467	34.13
366.678	-12.97
366.889	44.37
367.1	64.85
367.311	3.41
367.522	5.46
367.733	46.42
367.944	34.13
368.155	-37.55
368.366	32.08
368.577	109.91
368.788	79.19
368.999	36.18
369.209	3.41
369.42	48.47
369.631	15.7
369.842	21.85
370.053	89.43
370.264	7.51
370.474	11.61
370.685	-8.87
370.896	25.94
371.107	52.56
371.317	48.47
371.528	40.28
371.739	46.42
371.95	62.8
372.16	103.76
372.371	38.23
372.582	62.8
372.792	40.28
373.003	101.72
373.214	1.37
373.424	-45.74
373.635	-15.02
373.846	60.76
374.056	101.72
374.267	109.91
374.477	58.71
374.688	107.86
374.898	62.8
375.109	9.56
375.319	32.08
375.53	-4.78
375.74	54.61
375.951	73.04
376.161	44.37
376.372	40.28
376.582	23.89
376.793	-27.31
377.003	36.18
377.214	54.61
377.424	23.89
377.635	23.89
377.845	-23.21
378.055	89.43
378.266	-58.03
378.476	77.14
378.686	71
378.897	77.14
379.107	-10.92
379.317	42.32
379.528	25.94
379.738	111.96
379.948	7.51
380.158	75.09
380.369	32.08
380.579	64.85
380.789	60.76
380.999	13.65
381.21	30.04
381.42	97.62
381.63	-15.02
381.84	101.72
382.05	62.8
382.261	52.56
382.471	46.42
382.681	-8.87
382.891	77.14
383.101	42.32
383.311	54.61
383.521	89.43
383.731	25.94
383.941	52.56
384.151	68.95
384.361	40.28
384.571	46.42
384.781	142.68
384.991	83.28
385.201	99.67
385.411	64.85
385.621	68.95
385.831	40.28
386.041	13.65
386.251	19.8
386.461	71
386.671	25.94
386.881	50.52
387.091	13.65
387.301	75.09
387.511	50.52
387.72	107.86
387.93	11.61
388.14	38.23
388.35	52.56
388.56	40.28
388.769	89.43
388.979	50.52
389.189	52.56
389.399	23.89
389.609	34.13
389.818	30.04
390.028	42.32
390.238	68.95
390.447	44.37
390.657	87.38
390.867	11.61
391.076	-15.02
391.286	101.72
391.496	91.48
391.705	87.38
391.915	36.18
392.125	5.46
392.334	81.24
392.544	71
392.753	109.91
392.963	81.24
393.172	36.18
393.382	48.47
393.591	32.08
393.801	62.8
394.01	56.66
394.22	30.04
394.429	30.04
394.639	40.28
394.848	89.43
395.058	32.08
395.267	25.94
395.477	42.32
395.686	122.2
395.895	68.95
396.105	23.89
396.314	34.13
396.524	107.86
396.733	27.99
396.942	91.48
397.152	85.33
397.361	48.47
397.57	93.52
397.78	89.43
397.989	89.43
398.198	38.23
398.407	25.94
398.617	111.96
398.826	128.34
399.035	64.85
399.244	114
399.453	58.71
399.663	85.33
399.872	71
400.081	64.85
400.29	89.43
400.499	68.95
400.708	85.33
400.917	75.09
401.127	111.96
401.336	32.08
401.545	114
401.754	126.29
401.963	85.33
402.172	130.39
402.381	40.28
402.59	77.14
402.799	13.65
403.008	159.06
403.217	79.19
403.426	52.56
403.635	99.67
403.844	116.05
404.053	148.82
404.262	109.91
404.471	60.76
404.68	128.34
404.888	89.43
405.097	93.52
405.306	171.35
405.515	126.29
405.724	99.67
405.933	167.25
406.142	103.76
406.35	91.48
406.559	179.54
406.768	148.82
406.977	189.78
407.185	101.72
407.394	93.52
407.603	83.28
407.812	187.73
408.02	150.87
408.229	126.29
408.438	208.21
408.646	191.83
408.855	245.07
409.064	179.54
409.272	185.68
409.481	195.92
409.69	161.11
409.898	212.31
410.107	197.97
410.315	173.39
410.524	255.31
410.733	281.94
410.941	261.46
411.15	290.13
411.358	333.14
411.567	308.56
411.775	234.83
411.984	308.56
412.192	298.32
412.401	343.38
412.609	423.25
412.818	357.71
413.026	312.66
413.234	384.34
413.443	402.77
413.651	451.92
413.86	341.33
414.068	445.77
414.276	517.45
414.485	435.53
414.693	370
414.901	505.17
415.11	589.13
415.318	494.93
415.526	599.37
415.734	593.23
415.943	644.43
416.151	572.75
416.359	621.9
416.567	617.8
416.776	609.61
416.984	687.43
417.192	712.01
417.4	646.48
417.608	738.63
417.817	728.39
418.025	865.61
418.233	834.89
418.441	757.07
418.649	898.38
418.857	941.38
419.065	916.81
419.273	925
419.481	896.33
419.689	1092.93
419.897	1056.07
420.105	1164.61
420.313	1160.52
420.521	1131.84
420.729	1244.48
420.937	1262.91
421.145	1275.2
421.353	1269.06
421.561	1398.08
421.769	1426.75
421.977	1496.38
422.185	1449.28
422.393	1586.49
422.601	1613.12
422.809	1637.69
423.017	1705.28
423.224	1791.29
423.432	1686.84
423.64	1834.3
423.848	1873.21
424.056	1977.66
424.263	2030.9
424.471	2151.73
424.679	2166.07
424.887	2319.67
425.094	2368.82
425.302	2252.08
425.51	2487.6
425.718	2471.22
425.925	2387.25
426.133	2542.89
426.341	2712.88
426.548	2880.81
426.756	2788.65
426.964	2874.67
427.171	2950.44
427.379	3165.48
427.586	3220.77
427.794	3345.7
428.001	3470.62
428.209	3501.34
428.417	3421.47
428.624	3841.31
428.832	3886.36
429.039	3669.28
429.247	3794.2
429.454	3951.9
429.662	4318.48
429.869	4128.02
430.076	4457.75
430.284	4216.09
430.491	4523.28
430.699	4810
430.906	4822.28
431.114	4771.08
431.321	4904.2
431.528	5027.08
431.736	5295.36
431.943	5569.79
432.15	5571.84
432.358	5723.39
432.565	5905.66
432.772	5848.32
432.979	6243.57
433.187	6296.82
433.394	6290.68
433.601	6790.38
433.808	6802.67
434.016	6640.88
434.223	6980.84
434.43	7396.58
434.637	7171.3
434.844	7752.93
435.052	7904.48
435.259	7900.38
435.466	7894.24
435.673	7763.17
435.88	8410.32
436.087	9071.82
436.294	8801.49
436.501	8602.83
436.708	8830.16
436.915	8957.13
437.122	9616.58
437.329	9471.17
437.537	9788.61
437.743	9974.97
437.95	9882.81
438.157	10546.36
438.364	10904.75
438.571	10785.97
438.778	10601.65
438.985	11783.33
439.192	11435.17
439.399	11607.2
439.606	11416.74
439.813	12086.43
440.02	12686.48
440.227	12459.16
440.433	12666
440.64	12950.67
440.847	12647.57
441.054	12932.24
441.261	13888.64
441.467	13868.16
441.674	14046.33
441.881	14503.03
442.088	14595.19
442.294	14566.52
442.501	14820.47
442.708	15146.09
442.914	15733.86
443.121	16510.04
443.328	15963.23
443.534	17259.6
443.741	16567.38
443.948	16518.23
444.154	17736.77
444.361	17579.08
444.568	17505.35
444.774	17683.53
444.981	17595.46
445.187	18322.49
445.394	18949.17
445.6	18736.18
445.807	20720.67
446.013	19670.06
446.22	20120.61
446.426	21091.35
446.633	21290
446.839	21584.91
447.046	20857.88
447.252	22060.04
447.459	21976.07
447.665	21980.17
447.871	23131.12
448.078	23927.78
448.284	22850.55
448.491	23454.7
448.697	24818.65
448.903	24806.36
449.11	24810.46
449.316	24861.66
449.522	24994.78
449.728	25809.87
449.935	26043.34
450.141	25893.83
450.347	26459.07
450.553	25785.29
450.76	26176.45
450.966	26733.5
451.172	26682.3
451.378	27177.91
451.584	26756.03
451.791	27343.8
451.997	27351.99
452.203	27833.26
452.409	27802.54
452.615	27696.05
452.821	26948.54
453.027	26391.49
453.233	27964.33
453.44	26786.75
453.646	27132.86
453.852	27249.59
454.058	27823.02
454.264	26966.97
454.47	27358.13
454.676	26704.83
454.882	27820.97
455.088	25218
455.294	25816.01
455.5	26061.77
455.705	26301.38
455.911	25584.59
456.117	25218
456.323	24564.7
456.529	23546.86
456.735	24476.64
456.941	23667.69
457.147	23362.54
457.352	22473.73
457.558	22219.78
457.764	22488.06
457.97	21961.73
458.176	21996.55
458.381	21392.4
458.587	20333.6
458.793	20454.43
458.999	19500.08
459.204	20722.71
459.41	20102.18
459.616	18869.3
459.821	18986.04
460.027	18883.64
460.233	18635.83
460.438	17820.74
460.644	17679.43
460.85	16868.44
461.055	16931.92
461.261	16858.2
461.466	15291.5
461.672	15144.05
461.878	16014.43
462.083	15060.08
462.289	14675.06
462.494	14695.54
462.7	14187.64
462.905	13683.84
463.111	14148.73
463.316	14236.8
463.522	13917.31
463.727	13812.87
463.932	13845.63
464.138	13659.27
464.343	13802.63
464.549	13485.19
464.754	13718.66
464.959	13663.36
465.165	13710.47
465.37	13116.56
465.575	12823.7
465.781	13436.04
465.986	13270.15
466.191	13036.69
466.397	12614.8
466.602	12170.4
466.807	12459.16
467.012	12475.54
467.218	12358.81
467.423	12512.41
467.628	12463.26
467.833	12940.43
468.038	12457.11
468.244	12154.01
468.449	12790.93
468.654	12115.1
468.859	12047.52
469.064	11955.36
