Data from USB4F104151__30__12-53-37-086.txt Node

Date: Fri Mar 14 12:53:37 EDT 2025
User: louis
Spectrometer: USB4F10415
Trigger mode: 4
Integration Time (sec): 1.000000E-2
Scans to average: 1
Electric dark correction enabled: true
Nonlinearity correction enabled: false
Boxcar width: 0
XAxis mode: Wavelengths
Number of Pixels in Spectrum: 3648
>>>>>Begin Spectral Data<<<<<
178.204	-23.89
178.424	-23.89
178.644	-23.89
178.864	-17.75
179.084	8.87
179.304	-38.23
179.524	-25.94
179.744	-30.04
179.964	-42.32
180.184	53.93
180.404	2.73
180.624	55.98
180.844	68.27
181.064	27.31
181.283	-11.61
181.503	-1.37
181.723	-58.71
181.943	-79.19
182.163	-19.8
182.383	-44.37
182.602	60.07
182.822	47.79
183.042	31.4
183.262	10.92
183.482	29.35
183.701	64.17
183.921	27.31
184.141	33.45
184.361	6.83
184.58	64.17
184.8	-11.61
185.02	6.83
185.239	55.98
185.459	76.46
185.679	37.55
185.898	60.07
186.118	-13.65
186.338	35.5
186.557	31.4
186.777	37.55
186.997	0.68
187.216	12.97
187.436	53.93
187.655	-17.75
187.875	27.31
188.095	4.78
188.314	23.21
188.534	47.79
188.753	6.83
188.973	6.83
189.192	60.07
189.412	47.79
189.631	-9.56
189.851	-25.94
190.07	92.84
190.29	29.35
190.509	-19.8
190.729	-5.46
190.948	-7.51
191.168	-13.65
191.387	84.65
191.607	-56.66
191.826	55.98
192.045	-30.04
192.265	27.31
192.484	12.97
192.704	-9.56
192.923	49.83
193.142	53.93
193.362	33.45
193.581	101.03
193.8	25.26
194.02	103.08
194.239	29.35
194.458	86.7
194.678	49.83
194.897	37.55
195.116	29.35
195.335	39.59
195.555	47.79
195.774	47.79
195.993	29.35
196.212	-42.32
196.432	-1.37
196.651	-3.41
196.87	6.83
197.089	125.61
197.308	-25.94
197.528	-9.56
197.747	45.74
197.966	-58.71
198.185	60.07
198.404	19.11
198.623	23.21
198.842	-30.04
199.062	35.5
199.281	-17.75
199.5	70.31
199.719	55.98
199.938	-17.75
200.157	66.22
200.376	62.12
200.595	70.31
200.814	-25.94
201.033	82.6
201.252	-9.56
201.471	31.4
201.69	0.68
201.909	35.5
202.128	60.07
202.347	0.68
202.566	-21.85
202.785	21.16
203.004	-19.8
203.223	35.5
203.442	-13.65
203.661	19.11
203.879	4.78
204.098	39.59
204.317	-15.7
204.536	15.02
204.755	-15.7
204.974	31.4
205.193	17.07
205.411	-27.99
205.63	45.74
205.849	-5.46
206.068	66.22
206.287	21.16
206.505	-44.37
206.724	-64.85
206.943	33.45
207.162	55.98
207.381	-11.61
207.599	-5.46
207.818	8.87
208.037	45.74
208.255	-21.85
208.474	25.26
208.693	-44.37
208.911	49.83
209.13	-15.7
209.349	37.55
209.567	17.07
209.786	68.27
210.005	-25.94
210.223	23.21
210.442	62.12
210.661	76.46
210.879	82.6
211.098	78.51
211.316	78.51
211.535	53.93
211.753	-73.04
211.972	-17.75
212.191	37.55
212.409	62.12
212.628	84.65
212.846	17.07
213.065	19.11
213.283	21.16
213.502	74.41
213.72	51.88
213.938	35.5
214.157	10.92
214.375	47.79
214.594	39.59
214.812	70.31
215.031	17.07
215.249	2.73
215.467	31.4
215.686	-5.46
215.904	115.37
216.122	23.21
216.341	8.87
216.559	-17.75
216.778	27.31
216.996	64.17
217.214	45.74
217.432	4.78
217.651	-11.61
217.869	15.02
218.087	49.83
218.306	27.31
218.524	53.93
218.742	6.83
218.96	-17.75
219.179	105.13
219.397	70.31
219.615	78.51
219.833	37.55
220.051	31.4
220.27	27.31
220.488	-15.7
220.706	15.02
220.924	33.45
221.142	-21.85
221.36	-30.04
221.578	35.5
221.796	70.31
222.015	25.26
222.233	-5.46
222.451	4.78
222.669	-64.85
222.887	4.78
223.105	66.22
223.323	94.89
223.541	-11.61
223.759	31.4
223.977	-27.99
224.195	39.59
224.413	47.79
224.631	27.31
224.849	51.88
225.067	15.02
225.285	19.11
225.503	60.07
225.721	12.97
225.939	49.83
226.157	8.87
226.375	66.22
226.592	64.17
226.81	47.79
227.028	17.07
227.246	15.02
227.464	-19.8
227.682	74.41
227.9	-1.37
228.117	10.92
228.335	-9.56
228.553	12.97
228.771	8.87
228.989	6.83
229.206	84.65
229.424	29.35
229.642	2.73
229.86	49.83
230.077	10.92
230.295	39.59
230.513	10.92
230.731	62.12
230.948	39.59
231.166	103.08
231.384	-15.7
231.601	-9.56
231.819	70.31
232.037	31.4
232.254	64.17
232.472	-15.7
232.689	-25.94
232.907	115.37
233.125	51.88
233.342	17.07
233.56	-42.32
233.777	53.93
233.995	41.64
234.213	17.07
234.43	-44.37
234.648	70.31
234.865	12.97
235.083	43.69
235.3	-50.52
235.518	-9.56
235.735	78.51
235.953	62.12
236.17	-15.7
236.388	-109.91
236.605	62.12
236.822	12.97
237.04	33.45
237.257	-13.65
237.475	33.45
237.692	27.31
237.909	70.31
238.127	-9.56
238.344	-1.37
238.562	37.55
238.779	-1.37
238.996	62.12
239.214	-21.85
239.431	29.35
239.648	-23.89
239.865	78.51
240.083	37.55
240.3	80.55
240.517	76.46
240.735	45.74
240.952	8.87
241.169	72.36
241.386	23.21
241.603	43.69
241.821	-11.61
242.038	58.03
242.255	-15.7
242.472	23.21
242.689	21.16
242.907	-68.95
243.124	39.59
243.341	33.45
243.558	-11.61
243.775	-19.8
243.992	-60.76
244.209	92.84
244.426	31.4
244.643	53.93
244.86	41.64
245.078	76.46
245.295	25.26
245.512	-9.56
245.729	35.5
245.946	-54.61
246.163	-15.7
246.38	-36.18
246.597	10.92
246.814	-11.61
247.031	-11.61
247.248	62.12
247.464	82.6
247.681	37.55
247.898	41.64
248.115	101.03
248.332	-36.18
248.549	41.64
248.766	-7.51
248.983	37.55
249.2	29.35
249.417	-36.18
249.633	15.02
249.85	15.02
250.067	-1.37
250.284	10.92
250.501	25.26
250.717	-30.04
250.934	0.68
251.151	12.97
251.368	43.69
251.585	6.83
251.801	27.31
252.018	-32.08
252.235	72.36
252.451	25.26
252.668	60.07
252.885	15.02
253.102	17.07
253.318	94.89
253.535	-3.41
253.752	39.59
253.968	-44.37
254.185	-1.37
254.401	51.88
254.618	2.73
254.835	23.21
255.051	76.46
255.268	-25.94
255.484	-5.46
255.701	8.87
255.917	-7.51
256.134	2.73
256.351	-9.56
256.567	19.11
256.784	45.74
257	2.73
257.217	47.79
257.433	-36.18
257.65	-21.85
257.866	64.17
258.082	21.16
258.299	-9.56
258.515	43.69
258.732	-58.71
258.948	4.78
259.165	15.02
259.381	-19.8
259.597	19.11
259.814	45.74
260.03	45.74
260.246	35.5
260.463	39.59
260.679	25.26
260.895	51.88
261.112	45.74
261.328	8.87
261.544	-23.89
261.761	43.69
261.977	-30.04
262.193	23.21
262.409	17.07
262.626	-3.41
262.842	64.17
263.058	17.07
263.274	17.07
263.49	66.22
263.707	64.17
263.923	33.45
264.139	-83.28
264.355	12.97
264.571	-7.51
264.787	-7.51
265.004	49.83
265.22	92.84
265.436	58.03
265.652	-21.85
265.868	58.03
266.084	78.51
266.3	-23.89
266.516	4.78
266.732	-7.51
266.948	55.98
267.164	33.45
267.38	-5.46
267.596	-9.56
267.812	-9.56
268.028	113.32
268.244	-1.37
268.46	-15.7
268.676	17.07
268.892	31.4
269.108	58.03
269.324	80.55
269.54	-42.32
269.756	17.07
269.972	-32.08
270.188	-5.46
270.403	33.45
270.619	0.68
270.835	-23.89
271.051	-27.99
271.267	-32.08
271.483	23.21
271.698	80.55
271.914	37.55
272.13	127.66
272.346	17.07
272.562	17.07
272.777	-36.18
272.993	39.59
273.209	-36.18
273.425	-44.37
273.64	53.93
273.856	21.16
274.072	-30.04
274.287	62.12
274.503	70.31
274.719	-42.32
274.934	-42.32
275.15	53.93
275.366	31.4
275.581	2.73
275.797	64.17
276.012	8.87
276.228	37.55
276.444	49.83
276.659	121.51
276.875	72.36
277.09	53.93
277.306	-17.75
277.521	78.51
277.737	-3.41
277.952	33.45
278.168	49.83
278.383	35.5
278.599	49.83
278.814	66.22
279.03	-13.65
279.245	41.64
279.461	2.73
279.676	33.45
279.892	-11.61
280.107	53.93
280.322	12.97
280.538	45.74
280.753	23.21
280.969	25.26
281.184	-1.37
281.399	43.69
281.615	47.79
281.83	0.68
282.045	33.45
282.26	31.4
282.476	55.98
282.691	53.93
282.906	17.07
283.122	-38.23
283.337	103.08
283.552	-5.46
283.767	21.16
283.983	17.07
284.198	74.41
284.413	19.11
284.628	-7.51
284.843	80.55
285.058	-5.46
285.274	-19.8
285.489	-1.37
285.704	12.97
285.919	98.99
286.134	43.69
286.349	19.11
286.564	66.22
286.779	47.79
286.995	39.59
287.21	45.74
287.425	15.02
287.64	2.73
287.855	41.64
288.07	-13.65
288.285	103.08
288.5	12.97
288.715	96.94
288.93	25.26
289.145	64.17
289.36	27.31
289.575	-1.37
289.79	2.73
290.004	8.87
290.219	-9.56
290.434	21.16
290.649	17.07
290.864	-48.47
291.079	-36.18
291.294	33.45
291.509	49.83
291.724	-11.61
291.938	8.87
292.153	-27.99
292.368	45.74
292.583	53.93
292.798	-11.61
293.012	-5.46
293.227	39.59
293.442	10.92
293.657	25.26
293.871	-9.56
294.086	-9.56
294.301	88.75
294.516	39.59
294.73	-3.41
294.945	2.73
295.16	64.17
295.374	10.92
295.589	60.07
295.804	-9.56
296.018	-15.7
296.233	2.73
296.447	15.02
296.662	10.92
296.877	-15.7
297.091	0.68
297.306	72.36
297.52	33.45
297.735	55.98
297.949	62.12
298.164	31.4
298.378	0.68
298.593	62.12
298.807	27.31
299.022	37.55
299.236	47.79
299.451	51.88
299.665	62.12
299.88	4.78
300.094	58.03
300.309	-25.94
300.523	-1.37
300.737	4.78
300.952	92.84
301.166	29.35
301.381	-3.41
301.595	70.31
301.809	39.59
302.024	-17.75
302.238	27.31
302.452	70.31
302.667	4.78
302.881	45.74
303.095	45.74
303.309	51.88
303.524	49.83
303.738	35.5
303.952	45.74
304.166	55.98
304.381	-19.8
304.595	25.26
304.809	39.59
305.023	0.68
305.237	31.4
305.452	58.03
305.666	60.07
305.88	19.11
306.094	-27.99
306.308	43.69
306.522	53.93
306.736	68.27
306.95	49.83
307.164	21.16
307.379	10.92
307.593	10.92
307.807	72.36
308.021	49.83
308.235	86.7
308.449	-11.61
308.663	23.21
308.877	-3.41
309.091	-5.46
309.305	115.37
309.519	39.59
309.733	4.78
309.947	-15.7
310.161	23.21
310.374	27.31
310.588	45.74
310.802	64.17
311.016	70.31
311.23	33.45
311.444	23.21
311.658	6.83
311.872	45.74
312.085	31.4
312.299	58.03
312.513	49.83
312.727	-25.94
312.941	21.16
313.154	-42.32
313.368	62.12
313.582	43.69
313.796	76.46
314.009	-3.41
314.223	70.31
314.437	-19.8
314.651	35.5
314.864	41.64
315.078	15.02
315.292	92.84
315.505	-11.61
315.719	58.03
315.933	6.83
316.146	-21.85
316.36	47.79
316.573	23.21
316.787	72.36
317.001	72.36
317.214	27.31
317.428	-5.46
317.641	21.16
317.855	37.55
318.068	98.99
318.282	6.83
318.495	103.08
318.709	21.16
318.922	33.45
319.136	72.36
319.349	49.83
319.563	12.97
319.776	35.5
319.99	10.92
320.203	43.69
320.417	12.97
320.63	8.87
320.843	21.16
321.057	66.22
321.27	55.98
321.483	19.11
321.697	76.46
321.91	88.75
322.124	15.02
322.337	-9.56
322.55	62.12
322.763	27.31
322.977	55.98
323.19	-27.99
323.403	6.83
323.617	51.88
323.83	-3.41
324.043	45.74
324.256	6.83
324.469	17.07
324.683	33.45
324.896	25.26
325.109	53.93
325.322	76.46
325.535	-19.8
325.748	12.97
325.962	4.78
326.175	2.73
326.388	92.84
326.601	53.93
326.814	17.07
327.027	62.12
327.24	45.74
327.453	41.64
327.666	8.87
327.879	31.4
328.092	68.27
328.305	-30.04
328.518	6.83
328.731	-1.37
328.944	6.83
329.157	-36.18
329.37	17.07
329.583	92.84
329.796	-23.89
330.009	37.55
330.222	86.7
330.435	23.21
330.648	25.26
330.861	25.26
331.073	25.26
331.286	41.64
331.499	15.02
331.712	19.11
331.925	15.02
332.138	-21.85
332.35	-9.56
332.563	29.35
332.776	88.75
332.989	62.12
333.202	80.55
333.414	29.35
333.627	33.45
333.84	62.12
334.053	2.73
334.265	72.36
334.478	45.74
334.691	49.83
334.903	23.21
335.116	55.98
335.329	41.64
335.541	-5.46
335.754	-5.46
335.966	29.35
336.179	55.98
336.392	45.74
336.604	113.32
336.817	4.78
337.029	-21.85
337.242	15.02
337.454	47.79
337.667	43.69
337.88	82.6
338.092	45.74
338.305	80.55
338.517	-1.37
338.729	19.11
338.942	19.11
339.154	45.74
339.367	12.97
339.579	15.02
339.792	2.73
340.004	51.88
340.217	45.74
340.429	70.31
340.641	55.98
340.854	45.74
341.066	25.26
341.278	35.5
341.491	-3.41
341.703	45.74
341.915	8.87
342.128	51.88
342.34	-27.99
342.552	51.88
342.764	98.99
342.977	23.21
343.189	31.4
343.401	53.93
343.613	4.78
343.826	74.41
344.038	78.51
344.25	6.83
344.462	-66.9
344.674	51.88
344.886	-27.99
345.099	66.22
345.311	53.93
345.523	-38.23
345.735	6.83
345.947	17.07
346.159	12.97
346.371	17.07
346.583	8.87
346.795	15.02
347.007	29.35
347.219	117.42
347.431	6.83
347.643	55.98
347.855	43.69
348.067	66.22
348.279	41.64
348.491	31.4
348.703	31.4
348.915	6.83
349.127	-11.61
349.339	10.92
349.551	-19.8
349.763	31.4
349.975	39.59
350.187	25.26
350.399	49.83
350.61	33.45
350.822	-38.23
351.034	41.64
351.246	-15.7
351.458	27.31
351.669	10.92
351.881	17.07
352.093	-3.41
352.305	0.68
352.517	37.55
352.728	47.79
352.94	98.99
353.152	17.07
353.363	86.7
353.575	131.75
353.787	12.97
353.999	-46.42
354.21	-34.13
354.422	-19.8
354.633	-7.51
354.845	45.74
355.057	84.65
355.268	49.83
355.48	94.89
355.692	19.11
355.903	15.02
356.115	-5.46
356.326	33.45
356.538	101.03
356.749	41.64
356.961	72.36
357.172	53.93
357.384	-3.41
357.595	51.88
357.807	55.98
358.018	15.02
358.23	101.03
358.441	12.97
358.653	45.74
358.864	19.11
359.075	60.07
359.287	17.07
359.498	62.12
359.709	10.92
359.921	27.31
360.132	19.11
360.344	53.93
360.555	103.08
360.766	53.93
360.977	55.98
361.189	53.93
361.4	4.78
361.611	19.11
361.823	33.45
362.034	27.31
362.245	39.59
362.456	64.17
362.667	-34.13
362.879	8.87
363.09	-1.37
363.301	31.4
363.512	72.36
363.723	-99.67
363.935	66.22
364.146	4.78
364.357	-13.65
364.568	-17.75
364.779	-32.08
364.99	6.83
365.201	-23.89
365.412	74.41
365.623	49.83
365.834	6.83
366.045	4.78
366.256	31.4
366.467	23.21
366.678	47.79
366.889	23.21
367.1	62.12
367.311	109.22
367.522	-9.56
367.733	-9.56
367.944	64.17
368.155	-7.51
368.366	-11.61
368.577	-34.13
368.788	53.93
368.999	43.69
369.209	-9.56
369.42	23.21
369.631	60.07
369.842	8.87
370.053	49.83
370.264	47.79
370.474	92.84
370.685	68.27
370.896	12.97
371.107	62.12
371.317	33.45
371.528	-36.18
371.739	60.07
371.95	55.98
372.16	90.79
372.371	31.4
372.582	-13.65
372.792	53.93
373.003	35.5
373.214	72.36
373.424	94.89
373.635	-32.08
373.846	0.68
374.056	53.93
374.267	96.94
374.477	58.03
374.688	90.79
374.898	-52.56
375.109	43.69
375.319	125.61
375.53	107.18
375.74	6.83
375.951	53.93
376.161	39.59
376.372	-1.37
376.582	-36.18
376.793	60.07
377.003	29.35
377.214	33.45
377.424	72.36
377.635	-19.8
377.845	62.12
378.055	6.83
378.266	88.75
378.476	174.76
378.686	105.13
378.897	49.83
379.107	68.27
379.317	33.45
379.528	78.51
379.738	43.69
379.948	29.35
380.158	43.69
380.369	107.18
380.579	25.26
380.789	23.21
380.999	55.98
381.21	6.83
381.42	98.99
381.63	2.73
381.84	21.16
382.05	39.59
382.261	35.5
382.471	92.84
382.681	19.11
382.891	15.02
383.101	55.98
383.311	12.97
383.521	66.22
383.731	-27.99
383.941	4.78
384.151	29.35
384.361	84.65
384.571	35.5
384.781	8.87
384.991	66.22
385.201	43.69
385.411	17.07
385.621	92.84
385.831	62.12
386.041	64.17
386.251	133.8
386.461	80.55
386.671	-23.89
386.881	45.74
387.091	53.93
387.301	53.93
387.511	35.5
387.72	86.7
387.93	53.93
388.14	37.55
388.35	49.83
388.56	35.5
388.769	35.5
388.979	55.98
389.189	2.73
389.399	27.31
389.609	64.17
389.818	45.74
390.028	84.65
390.238	47.79
390.447	17.07
390.657	43.69
390.867	8.87
391.076	98.99
391.286	39.59
391.496	174.76
391.705	76.46
391.915	47.79
392.125	6.83
392.334	78.51
392.544	29.35
392.753	31.4
392.963	33.45
393.172	107.18
393.382	45.74
393.591	-9.56
393.801	103.08
394.01	70.31
394.22	19.11
394.429	4.78
394.639	47.79
394.848	-3.41
395.058	29.35
395.267	35.5
395.477	55.98
395.686	66.22
395.895	139.94
396.105	45.74
396.314	27.31
396.524	68.27
396.733	80.55
396.942	66.22
397.152	29.35
397.361	103.08
397.57	72.36
397.78	115.37
397.989	72.36
398.198	68.27
398.407	72.36
398.617	105.13
398.826	58.03
399.035	70.31
399.244	125.61
399.453	88.75
399.663	86.7
399.872	88.75
400.081	31.4
400.29	111.27
400.499	101.03
400.708	8.87
400.917	98.99
401.127	58.03
401.336	80.55
401.545	82.6
401.754	55.98
401.963	53.93
402.172	90.79
402.381	62.12
402.59	35.5
402.799	62.12
403.008	17.07
403.217	146.09
403.426	37.55
403.635	129.7
403.844	-3.41
404.053	115.37
404.262	74.41
404.471	98.99
404.68	98.99
404.888	105.13
405.097	156.33
405.306	131.75
405.515	117.42
405.724	27.31
405.933	96.94
406.142	101.03
406.35	66.22
406.559	123.56
406.768	129.7
406.977	139.94
407.185	141.99
407.394	133.8
407.603	45.74
407.812	72.36
408.02	148.14
408.229	137.9
408.438	164.52
408.646	162.47
408.855	111.27
409.064	119.46
409.272	156.33
409.481	164.52
409.69	199.34
409.898	207.53
410.107	268.97
410.315	228.01
410.524	158.38
410.733	234.15
410.941	199.34
411.15	266.92
411.358	318.12
411.567	252.58
411.775	215.72
411.984	307.88
412.192	277.16
412.401	201.38
412.609	191.14
412.818	277.16
413.026	244.39
413.234	305.83
413.443	297.64
413.651	258.73
413.86	354.98
414.068	359.08
414.276	402.08
414.485	363.17
414.693	365.22
414.901	430.76
415.11	418.47
415.318	350.89
415.526	492.2
415.734	547.49
415.943	436.9
416.151	504.48
416.359	434.85
416.567	510.63
416.776	527.01
416.984	557.73
417.192	520.87
417.4	565.92
417.608	610.98
417.817	672.42
418.025	621.22
418.233	670.37
418.441	610.98
418.649	656.03
418.857	692.9
419.065	758.43
419.273	733.86
419.481	701.09
419.689	793.25
419.897	805.53
420.105	873.12
420.313	826.01
420.521	934.56
420.729	993.95
420.937	944.8
421.145	979.61
421.353	940.7
421.561	1120.92
421.769	1071.77
421.977	1245.85
422.185	1133.21
422.393	1251.99
422.601	1303.19
422.809	1301.14
423.017	1295
423.224	1309.33
423.432	1407.64
423.64	1413.78
423.848	1473.17
424.056	1442.45
424.263	1610.39
424.471	1510.04
424.679	1577.62
424.887	1704.59
425.094	1772.18
425.302	1675.92
425.51	1809.04
425.718	2022.03
425.925	1880.72
426.133	2040.46
426.341	2112.14
426.548	2144.91
426.756	2134.67
426.964	2257.54
427.171	2450.05
427.379	2292.36
427.586	2429.57
427.794	2564.74
428.001	2587.27
428.209	2820.74
428.417	2697.86
428.624	2990.72
428.832	2835.07
429.039	3035.77
429.247	2851.46
429.454	3213.95
429.662	3271.29
429.869	3181.18
430.076	3363.45
430.284	3312.25
430.491	3480.18
430.699	3641.97
430.906	3652.21
431.114	3732.08
431.321	3807.86
431.528	3848.82
431.736	4108.91
431.943	4375.14
432.15	4231.79
432.358	4203.11
432.565	4463.21
432.772	4551.27
432.979	4721.25
433.187	4921.95
433.394	4723.3
433.601	5202.52
433.808	5233.24
434.016	5042.78
434.223	5292.63
434.43	5827.15
434.637	5534.29
434.844	5929.55
435.052	5997.14
435.259	6060.62
435.466	6085.2
435.673	5872.21
435.88	6242.89
436.087	6664.77
436.294	6920.77
436.501	6611.53
436.708	6591.05
436.915	6910.53
437.122	7389.75
437.329	7103.04
437.537	7395.9
437.743	7604.79
437.95	7531.06
438.157	7844.4
438.364	8092.21
438.571	8258.09
438.778	8313.39
438.985	9101.86
439.192	8663.59
439.399	8847.91
439.606	8516.14
439.813	9239.07
440.02	9953.81
440.227	9415.19
440.433	9427.48
440.64	9777.69
440.847	10088.98
441.054	10005.01
441.261	10574.35
441.467	10553.87
441.674	10789.38
441.881	11100.67
442.088	11313.66
442.294	10936.84
442.501	11416.06
442.708	11719.16
442.914	11923.96
443.121	12239.34
443.328	12261.87
443.534	13101.54
443.741	12800.49
443.948	12567.02
444.154	13433.31
444.361	13541.85
444.568	13695.45
444.774	13341.15
444.981	13513.18
445.187	14070.23
445.394	14643.66
445.6	14569.93
445.807	15792.57
446.013	15108.55
446.22	15557.05
446.426	16232.88
446.633	16175.54
446.839	16820.65
447.046	15997.37
447.252	16961.96
447.459	16906.66
447.665	17117.61
447.871	17891.74
448.078	18477.46
448.284	17682.84
448.491	17998.23
448.697	18735.5
448.903	19143.05
449.11	19401.09
449.316	18919.82
449.522	19472.77
449.728	19980.67
449.935	19757.44
450.141	19962.23
450.347	20461.94
450.553	20068.73
450.76	20062.58
450.966	20722.03
451.172	20193.65
451.378	21113.19
451.584	20744.56
451.791	20922.73
451.997	21148.01
452.203	21518.69
452.409	21479.78
452.615	21330.28
452.821	20623.73
453.027	20351.35
453.233	21463.4
453.44	20470.13
453.646	20830.57
453.852	20894.06
454.058	21248.36
454.264	20568.43
454.47	21377.38
454.676	20853.1
454.882	21021.03
455.088	19411.33
455.294	19943.8
455.5	20124.02
455.705	20218.23
455.911	19534.21
456.117	19073.42
456.323	18966.92
456.529	17889.69
456.735	18616.72
456.941	18092.44
457.147	18055.58
457.352	17375.65
457.558	17119.65
457.764	17269.16
457.97	16765.35
458.176	16710.06
458.381	16376.24
458.587	15591.87
458.793	15555.01
458.999	15165.89
459.204	16007.61
459.41	15622.59
459.616	14547.4
459.821	14467.53
460.027	14602.7
460.233	14234.07
460.438	13576.67
460.644	13672.92
460.85	13021.67
461.055	12845.54
461.261	13101.54
461.466	11921.91
461.672	11649.53
461.878	12526.06
462.083	11590.14
462.289	11274.75
462.494	11151.87
462.7	10867.2
462.905	10471.95
463.111	10727.94
463.316	10942.98
463.522	10701.32
463.727	10498.57
463.932	10662.41
464.138	10398.22
464.343	10701.32
464.549	10269.2
464.754	10578.44
464.959	10582.54
465.165	10373.64
465.37	10064.4
465.575	9656.86
465.781	10363.4
465.986	10330.64
466.191	9828.88
466.397	9753.11
466.602	9382.43
466.807	9550.36
467.012	9603.61
467.218	9624.09
467.423	9310.75
467.628	9656.86
467.833	10052.11
468.038	9433.63
468.244	9267.74
468.449	9701.91
468.654	9349.66
