Data from USB4F104151__14__12-53-13-489.txt Node

Date: Fri Mar 14 12:53:13 EDT 2025
User: louis
Spectrometer: USB4F10415
Trigger mode: 4
Integration Time (sec): 1.000000E-2
Scans to average: 1
Electric dark correction enabled: true
Nonlinearity correction enabled: false
Boxcar width: 0
XAxis mode: Wavelengths
Number of Pixels in Spectrum: 3648
>>>>>Begin Spectral Data<<<<<
178.204	-68.78
178.424	-68.78
178.644	-68.78
178.864	-46.25
179.084	-19.63
179.304	-38.06
179.524	-9.39
179.744	-5.29
179.964	31.57
180.184	-36.01
180.404	0.85
180.624	33.62
180.844	-11.43
181.064	11.09
181.283	35.67
181.503	-36.01
181.723	23.38
181.943	-62.63
182.163	7
182.383	0.85
182.602	84.82
182.822	19.29
183.042	15.19
183.262	-33.96
183.482	-44.2
183.701	-17.58
183.921	-31.91
184.141	47.96
184.361	-38.06
184.58	41.81
184.8	64.34
185.02	4.95
185.239	-9.39
185.459	-3.24
185.679	47.96
185.898	-23.72
186.118	101.2
186.338	11.09
186.557	-9.39
186.777	-54.44
186.997	7
187.216	-25.77
187.436	33.62
187.655	33.62
187.875	4.95
188.095	-56.49
188.314	-91.31
188.534	25.43
188.753	25.43
188.973	-25.77
189.192	37.72
189.412	-33.96
189.631	-15.53
189.851	29.52
190.07	15.19
190.29	39.76
190.509	-38.06
190.729	35.67
190.948	4.95
191.168	29.52
191.387	-3.24
191.607	13.14
191.826	-29.87
192.045	66.39
192.265	52.05
192.484	-5.29
192.704	15.19
192.923	-3.24
193.142	60.24
193.362	-25.77
193.581	45.91
193.8	58.2
194.02	93.01
194.239	-40.11
194.458	0.85
194.678	0.85
194.897	-64.68
195.116	43.86
195.335	37.72
195.555	68.44
195.774	-46.25
195.993	35.67
196.212	-25.77
196.432	29.52
196.651	-48.3
196.87	-9.39
197.089	19.29
197.308	-11.43
197.528	17.24
197.747	-29.87
197.966	105.3
198.185	23.38
198.404	27.48
198.623	56.15
198.842	-50.35
199.062	-13.48
199.281	29.52
199.5	-9.39
199.719	0.85
199.938	-5.29
200.157	70.48
200.376	0.85
200.595	52.05
200.814	25.43
201.033	15.19
201.252	-7.34
201.471	-1.19
201.69	7
201.909	-17.58
202.128	-56.49
202.347	43.86
202.566	33.62
202.785	7
203.004	13.14
203.223	56.15
203.442	15.19
203.661	43.86
203.879	-9.39
204.098	-50.35
204.317	27.48
204.536	35.67
204.755	27.48
204.974	-97.45
205.193	27.48
205.411	23.38
205.63	-23.72
205.849	35.67
206.068	23.38
206.287	72.53
206.505	27.48
206.724	-33.96
206.943	0.85
207.162	21.33
207.381	-44.2
207.599	27.48
207.818	62.29
208.037	90.96
208.255	-3.24
208.474	103.25
208.693	0.85
208.911	-1.19
209.13	27.48
209.349	27.48
209.567	64.34
209.786	31.57
210.005	-15.53
210.223	35.67
210.442	-48.3
210.661	97.11
210.879	47.96
211.098	68.44
211.316	-13.48
211.535	50
211.753	-87.21
211.972	43.86
212.191	-7.34
212.409	37.72
212.628	39.76
212.846	-76.97
213.065	39.76
213.283	39.76
213.502	-23.72
213.72	19.29
213.938	27.48
214.157	52.05
214.375	25.43
214.594	7
214.812	25.43
215.031	125.78
215.249	-60.59
215.467	41.81
215.686	0.85
215.904	39.76
216.122	29.52
216.341	76.63
216.559	4.95
216.778	-5.29
216.996	58.2
217.214	31.57
217.432	-1.19
217.651	11.09
217.869	25.43
218.087	47.96
218.306	-11.43
218.524	-1.19
218.742	39.76
218.96	-5.29
219.179	19.29
219.397	-29.87
219.615	13.14
219.833	2.9
220.051	-25.77
220.27	-1.19
220.488	-87.21
220.706	52.05
220.924	-7.34
221.142	-54.44
221.36	-17.58
221.578	-25.77
221.796	27.48
222.015	-27.82
222.233	-1.19
222.451	103.25
222.669	23.38
222.887	31.57
223.105	7
223.323	-29.87
223.541	-7.34
223.759	19.29
223.977	-1.19
224.195	29.52
224.413	31.57
224.631	47.96
224.849	37.72
225.067	82.77
225.285	45.91
225.503	23.38
225.721	-15.53
225.939	25.43
226.157	25.43
226.375	-52.39
226.592	-33.96
226.81	43.86
227.028	-19.63
227.246	4.95
227.464	2.9
227.682	43.86
227.9	-7.34
228.117	-21.67
228.335	-31.91
228.553	-1.19
228.771	39.76
228.989	97.11
229.206	23.38
229.424	-23.72
229.642	-1.19
229.86	66.39
230.077	37.72
230.295	58.2
230.513	-21.67
230.731	-56.49
230.948	47.96
231.166	2.9
231.384	23.38
231.601	58.2
231.819	-21.67
232.037	45.91
232.254	15.19
232.472	27.48
232.689	-9.39
232.907	50
233.125	47.96
233.342	23.38
233.56	-5.29
233.777	2.9
233.995	58.2
234.213	9.05
234.43	11.09
234.648	99.16
234.865	19.29
235.083	37.72
235.3	-36.01
235.518	-9.39
235.735	2.9
235.953	-29.87
236.17	-38.06
236.388	-1.19
236.605	7
236.822	2.9
237.04	-23.72
237.257	52.05
237.475	35.67
237.692	-81.07
237.909	88.92
238.127	-11.43
238.344	21.33
238.562	37.72
238.779	-21.67
238.996	17.24
239.214	-11.43
239.431	45.91
239.648	-66.73
239.865	11.09
240.083	-11.43
240.3	-1.19
240.517	-60.59
240.735	-9.39
240.952	7
241.169	37.72
241.386	31.57
241.603	7
241.821	60.24
242.038	15.19
242.255	-25.77
242.472	21.33
242.689	56.15
242.907	4.95
243.124	17.24
243.341	-21.67
243.558	-5.29
243.775	27.48
243.992	-25.77
244.209	74.58
244.426	88.92
244.643	45.91
244.86	0.85
245.078	31.57
245.295	-27.82
245.512	-9.39
245.729	-33.96
245.946	58.2
246.163	17.24
246.38	-9.39
246.597	15.19
246.814	39.76
247.031	2.9
247.248	-36.01
247.464	17.24
247.681	39.76
247.898	-3.24
248.115	31.57
248.332	-27.82
248.549	-17.58
248.766	25.43
248.983	41.81
249.2	-46.25
249.417	-33.96
249.633	68.44
249.85	7
250.067	-48.3
250.284	-48.3
250.501	7
250.717	27.48
250.934	4.95
251.151	-36.01
251.368	29.52
251.585	80.72
251.801	58.2
252.018	84.82
252.235	54.1
252.451	62.29
252.668	-27.82
252.885	25.43
253.102	15.19
253.318	21.33
253.535	31.57
253.752	-38.06
253.968	-38.06
254.185	50
254.401	-62.63
254.618	60.24
254.835	9.05
255.051	9.05
255.268	23.38
255.484	25.43
255.701	9.05
255.917	84.82
256.134	-42.15
256.351	13.14
256.567	4.95
256.784	-42.15
257	13.14
257.217	80.72
257.433	-21.67
257.65	-25.77
257.866	33.62
258.082	47.96
258.299	15.19
258.515	105.3
258.732	-19.63
258.948	11.09
259.165	21.33
259.381	9.05
259.597	47.96
259.814	60.24
260.03	-33.96
260.246	23.38
260.463	11.09
260.679	-17.58
260.895	2.9
261.112	21.33
261.328	0.85
261.544	4.95
261.761	31.57
261.977	-31.91
262.193	-36.01
262.409	-15.53
262.626	29.52
262.842	9.05
263.058	-36.01
263.274	2.9
263.49	64.34
263.707	56.15
263.923	66.39
264.139	-5.29
264.355	84.82
264.571	41.81
264.787	-17.58
265.004	25.43
265.22	2.9
265.436	21.33
265.652	15.19
265.868	74.58
266.084	-44.2
266.3	60.24
266.516	-5.29
266.732	-27.82
266.948	29.52
267.164	15.19
267.38	39.76
267.596	-7.34
267.812	66.39
268.028	39.76
268.244	-33.96
268.46	17.24
268.676	-72.87
268.892	33.62
269.108	52.05
269.324	72.53
269.54	25.43
269.756	68.44
269.972	29.52
270.188	-25.77
270.403	52.05
270.619	33.62
270.835	82.77
271.051	-36.01
271.267	-31.91
271.483	-42.15
271.698	31.57
271.914	41.81
272.13	-9.39
272.346	39.76
272.562	31.57
272.777	-15.53
272.993	35.67
273.209	41.81
273.425	-11.43
273.64	-33.96
273.856	35.67
274.072	-11.43
274.287	17.24
274.503	97.11
274.719	-1.19
274.934	52.05
275.15	76.63
275.366	43.86
275.581	9.05
275.797	17.24
276.012	21.33
276.228	-11.43
276.444	-17.58
276.659	84.82
276.875	60.24
277.09	31.57
277.306	56.15
277.521	39.76
277.737	-5.29
277.952	64.34
278.168	-13.48
278.383	45.91
278.599	103.25
278.814	7
279.03	-27.82
279.245	7
279.461	39.76
279.676	-7.34
279.892	-25.77
280.107	-7.34
280.322	-7.34
280.538	-27.82
280.753	-3.24
280.969	33.62
281.184	-5.29
281.399	-7.34
281.615	-7.34
281.83	-3.24
282.045	-44.2
282.26	-7.34
282.476	84.82
282.691	107.35
282.906	25.43
283.122	82.77
283.337	-15.53
283.552	47.96
283.767	50
283.983	60.24
284.198	-15.53
284.413	35.67
284.628	-21.67
284.843	-17.58
285.058	27.48
285.274	58.2
285.489	25.43
285.704	62.29
285.919	-3.24
286.134	58.2
286.349	78.68
286.564	9.05
286.779	29.52
286.995	0.85
287.21	-5.29
287.425	54.1
287.64	58.2
287.855	45.91
288.07	56.15
288.285	-38.06
288.5	31.57
288.715	-85.16
288.93	-13.48
289.145	-33.96
289.36	72.53
289.575	-36.01
289.79	-21.67
290.004	-1.19
290.219	50
290.434	31.57
290.649	35.67
290.864	-38.06
291.079	-13.48
291.294	37.72
291.509	101.2
291.724	15.19
291.938	-74.92
292.153	4.95
292.368	31.57
292.583	27.48
292.798	4.95
293.012	-52.39
293.227	29.52
293.442	9.05
293.657	37.72
293.871	58.2
294.086	62.29
294.301	7
294.516	-5.29
294.73	21.33
294.945	-27.82
295.16	68.44
295.374	4.95
295.589	-68.78
295.804	-33.96
296.018	84.82
296.233	0.85
296.447	-19.63
296.662	-7.34
296.877	-23.72
297.091	-70.83
297.306	54.1
297.52	0.85
297.735	-7.34
297.949	13.14
298.164	45.91
298.378	4.95
298.593	23.38
298.807	-36.01
299.022	-1.19
299.236	-42.15
299.451	54.1
299.665	70.48
299.88	109.4
300.094	50
300.309	-19.63
300.523	-46.25
300.737	58.2
300.952	-17.58
301.166	50
301.381	35.67
301.595	88.92
301.809	21.33
302.024	-36.01
302.238	13.14
302.452	88.92
302.667	19.29
302.881	82.77
303.095	-19.63
303.309	-9.39
303.524	21.33
303.738	64.34
303.952	-33.96
304.166	-40.11
304.381	62.29
304.595	17.24
304.809	-1.19
305.023	33.62
305.237	-58.54
305.452	19.29
305.666	-38.06
305.88	37.72
306.094	76.63
306.308	39.76
306.522	97.11
306.736	60.24
306.95	2.9
307.164	-7.34
307.379	9.05
307.593	-42.15
307.807	52.05
308.021	97.11
308.235	-40.11
308.449	2.9
308.663	-70.83
308.877	62.29
309.091	23.38
309.305	121.68
309.519	-36.01
309.733	50
309.947	-46.25
310.161	-7.34
310.374	-13.48
310.588	-3.24
310.802	-54.44
311.016	-15.53
311.23	-7.34
311.444	-15.53
311.658	0.85
311.872	52.05
312.085	13.14
312.299	-17.58
312.513	19.29
312.727	-31.91
312.941	-48.3
313.154	23.38
313.368	7
313.582	88.92
313.796	27.48
314.009	11.09
314.223	2.9
314.437	45.91
314.651	86.87
314.864	11.09
315.078	-21.67
315.292	-25.77
315.505	23.38
315.719	52.05
315.933	88.92
316.146	-1.19
316.36	11.09
316.573	15.19
316.787	58.2
317.001	66.39
317.214	52.05
317.428	-1.19
317.641	56.15
317.855	-25.77
318.068	-42.15
318.282	-5.29
318.495	11.09
318.709	47.96
318.922	39.76
319.136	70.48
319.349	17.24
319.563	25.43
319.776	-52.39
319.99	74.58
320.203	29.52
320.417	33.62
320.63	33.62
320.843	17.24
321.057	52.05
321.27	54.1
321.483	-25.77
321.697	25.43
321.91	54.1
322.124	50
322.337	21.33
322.55	37.72
322.763	95.06
322.977	80.72
323.19	15.19
323.403	27.48
323.617	54.1
323.83	-38.06
324.043	99.16
324.256	2.9
324.469	-46.25
324.683	-58.54
324.896	70.48
325.109	15.19
325.322	-17.58
325.535	17.24
325.748	-25.77
325.962	50
326.175	35.67
326.388	58.2
326.601	56.15
326.814	-21.67
327.027	9.05
327.24	62.29
327.453	29.52
327.666	-29.87
327.879	33.62
328.092	45.91
328.305	11.09
328.518	9.05
328.731	25.43
328.944	17.24
329.157	70.48
329.37	25.43
329.583	15.19
329.796	101.2
330.009	82.77
330.222	47.96
330.435	-9.39
330.648	-33.96
330.861	4.95
331.073	-17.58
331.286	-64.68
331.499	52.05
331.712	-23.72
331.925	15.19
332.138	35.67
332.35	21.33
332.563	31.57
332.776	41.81
332.989	-1.19
333.202	62.29
333.414	0.85
333.627	33.62
333.84	113.49
334.053	41.81
334.265	33.62
334.478	52.05
334.691	72.53
334.903	23.38
335.116	-7.34
335.329	-25.77
335.541	33.62
335.754	82.77
335.966	-7.34
336.179	84.82
336.392	33.62
336.604	80.72
336.817	17.24
337.029	95.06
337.242	25.43
337.454	2.9
337.667	13.14
337.88	41.81
338.092	13.14
338.305	41.81
338.517	7
338.729	56.15
338.942	29.52
339.154	19.29
339.367	0.85
339.579	23.38
339.792	25.43
340.004	74.58
340.217	66.39
340.429	107.35
340.641	4.95
340.854	2.9
341.066	-9.39
341.278	-13.48
341.491	43.86
341.703	7
341.915	60.24
342.128	19.29
342.34	-54.44
342.552	95.06
342.764	39.76
342.977	84.82
343.189	25.43
343.401	13.14
343.613	39.76
343.826	-27.82
344.038	13.14
344.25	50
344.462	0.85
344.674	86.87
344.886	11.09
345.099	37.72
345.311	-21.67
345.523	27.48
345.735	-5.29
345.947	35.67
346.159	23.38
346.371	15.19
346.583	-27.82
346.795	107.35
347.007	-21.67
347.219	97.11
347.431	52.05
347.643	0.85
347.855	45.91
348.067	11.09
348.279	56.15
348.491	56.15
348.703	-58.54
348.915	80.72
349.127	-68.78
349.339	43.86
349.551	-13.48
349.763	-7.34
349.975	-36.01
350.187	33.62
350.399	25.43
350.61	82.77
350.822	90.96
351.034	45.91
351.246	21.33
351.458	31.57
351.669	54.1
351.881	64.34
352.093	86.87
352.305	56.15
352.517	-13.48
352.728	15.19
352.94	66.39
353.152	25.43
353.363	-15.53
353.575	50
353.787	-3.24
353.999	88.92
354.21	52.05
354.422	-1.19
354.633	-15.53
354.845	47.96
355.057	84.82
355.268	66.39
355.48	64.34
355.692	31.57
355.903	0.85
356.115	88.92
356.326	0.85
356.538	56.15
356.749	7
356.961	9.05
357.172	19.29
357.384	90.96
357.595	2.9
357.807	-33.96
358.018	-40.11
358.23	41.81
358.441	35.67
358.653	45.91
358.864	0.85
359.075	47.96
359.287	-33.96
359.498	23.38
359.709	4.95
359.921	13.14
360.132	56.15
360.344	13.14
360.555	35.67
360.766	7
360.977	29.52
361.189	0.85
361.4	58.2
361.611	-3.24
361.823	33.62
362.034	52.05
362.245	17.24
362.456	-36.01
362.667	37.72
362.879	2.9
363.09	68.44
363.301	-31.91
363.512	4.95
363.723	70.48
363.935	19.29
364.146	-19.63
364.357	88.92
364.568	33.62
364.779	-27.82
364.99	19.29
365.201	25.43
365.412	80.72
365.623	-17.58
365.834	72.53
366.045	-9.39
366.256	17.24
366.467	31.57
366.678	64.34
366.889	60.24
367.1	-95.4
367.311	25.43
367.522	39.76
367.733	39.76
367.944	56.15
368.155	123.73
368.366	101.2
368.577	-23.72
368.788	66.39
368.999	50
369.209	35.67
369.42	93.01
369.631	125.78
369.842	-13.48
370.053	39.76
370.264	56.15
370.474	29.52
370.685	21.33
370.896	-23.72
371.107	35.67
371.317	-15.53
371.528	47.96
371.739	23.38
371.95	60.24
372.16	19.29
372.371	43.86
372.582	37.72
372.792	93.01
373.003	15.19
373.214	43.86
373.424	39.76
373.635	50
373.846	43.86
374.056	-9.39
374.267	19.29
374.477	15.19
374.688	52.05
374.898	0.85
375.109	39.76
375.319	68.44
375.53	31.57
375.74	95.06
375.951	74.58
376.161	56.15
376.372	72.53
376.582	52.05
376.793	29.52
377.003	19.29
377.214	97.11
377.424	-44.2
377.635	-25.77
377.845	7
378.055	60.24
378.266	0.85
378.476	43.86
378.686	7
378.897	31.57
379.107	56.15
379.317	150.36
379.528	23.38
379.738	70.48
379.948	47.96
380.158	62.29
380.369	-1.19
380.579	2.9
380.789	-9.39
380.999	50
381.21	17.24
381.42	74.58
381.63	7
381.84	-3.24
382.05	52.05
382.261	-31.91
382.471	72.53
382.681	-13.48
382.891	-1.19
383.101	15.19
383.311	-1.19
383.521	27.48
383.731	19.29
383.941	86.87
384.151	31.57
384.361	37.72
384.571	33.62
384.781	90.96
384.991	-3.24
385.201	101.2
385.411	80.72
385.621	62.29
385.831	47.96
386.041	82.77
386.251	-31.91
386.461	97.11
386.671	25.43
386.881	41.81
387.091	88.92
387.301	7
387.511	52.05
387.72	70.48
387.93	86.87
388.14	-9.39
388.35	0.85
388.56	58.2
388.769	76.63
388.979	43.86
389.189	27.48
389.399	50
389.609	33.62
389.818	76.63
390.028	56.15
390.238	15.19
390.447	35.67
390.657	17.24
390.867	11.09
391.076	-25.77
391.286	29.52
391.496	54.1
391.705	2.9
391.915	70.48
392.125	47.96
392.334	-42.15
392.544	66.39
392.753	74.58
392.963	43.86
393.172	17.24
393.382	60.24
393.591	113.49
393.801	35.67
394.01	109.4
394.22	58.2
394.429	97.11
394.639	27.48
394.848	23.38
395.058	35.67
395.267	74.58
395.477	39.76
395.686	25.43
395.895	25.43
396.105	43.86
396.314	13.14
396.524	-15.53
396.733	33.62
396.942	21.33
397.152	25.43
397.361	56.15
397.57	43.86
397.78	95.06
397.989	82.77
398.198	88.92
398.407	15.19
398.617	66.39
398.826	-5.29
399.035	-7.34
399.244	54.1
399.453	66.39
399.663	74.58
399.872	17.24
400.081	25.43
400.29	117.59
400.499	37.72
400.708	54.1
400.917	76.63
401.127	11.09
401.336	88.92
401.545	74.58
401.754	7
401.963	70.48
402.172	97.11
402.381	39.76
402.59	62.29
402.799	95.06
403.008	142.16
403.217	103.25
403.426	66.39
403.635	74.58
403.844	41.81
404.053	103.25
404.262	41.81
404.471	127.83
404.68	90.96
404.888	101.2
405.097	45.91
405.306	181.07
405.515	93.01
405.724	119.64
405.933	136.02
406.142	54.1
406.35	168.79
406.559	129.88
406.768	56.15
406.977	78.68
407.185	111.44
407.394	152.4
407.603	47.96
407.812	138.07
408.02	50
408.229	95.06
408.438	174.93
408.646	105.3
408.855	93.01
409.064	154.45
409.272	144.21
409.481	170.83
409.69	199.51
409.898	140.12
410.107	211.79
410.315	191.31
410.524	176.98
410.733	213.84
410.941	142.16
411.15	211.79
411.358	260.95
411.567	226.13
411.775	236.37
411.984	269.14
412.192	211.79
412.401	267.09
412.609	232.27
412.818	267.09
413.026	275.28
413.234	295.76
413.443	295.76
413.651	244.56
413.86	322.38
414.068	361.3
414.276	424.78
414.485	426.83
414.693	389.97
414.901	435.02
415.11	398.16
415.318	435.02
415.526	336.72
415.734	480.08
415.943	394.06
416.151	555.85
416.359	473.93
416.567	541.52
416.776	463.69
416.984	541.52
417.192	553.8
417.4	580.43
417.608	588.62
417.817	652.11
418.025	648.01
418.233	652.11
418.441	590.67
418.649	717.64
418.857	715.59
419.065	727.88
419.273	721.74
419.481	799.56
419.689	727.88
419.897	861
420.105	803.66
420.313	953.16
420.521	944.97
420.729	901.96
420.937	883.53
421.145	951.11
421.353	1035.08
421.561	1047.37
421.769	1178.44
421.977	1186.63
422.185	1121.09
422.393	1190.72
422.601	1256.26
422.809	1186.63
423.017	1219.39
423.224	1375.04
423.432	1450.82
423.64	1399.62
423.848	1483.58
424.056	1487.68
424.263	1481.53
424.471	1549.12
424.679	1657.66
424.887	1745.72
425.094	1755.96
425.302	1786.68
425.51	1776.44
425.718	1925.94
425.925	1880.89
426.133	2052.92
426.341	2075.45
426.548	2202.42
426.756	2188.08
426.964	2165.56
427.171	2353.97
427.379	2405.17
427.586	2489.14
427.794	2487.09
428.001	2757.42
428.209	2753.32
428.417	2741.04
428.624	3046.18
428.832	2870.06
429.039	2982.7
429.247	2814.76
429.454	3177.25
429.662	3232.55
429.869	3152.68
430.076	3369.76
430.284	3343.14
430.491	3343.14
430.699	3676.96
430.906	3595.04
431.114	3662.62
431.321	3842.84
431.528	3887.9
431.736	4055.83
431.943	4264.72
432.15	4260.63
432.358	4254.48
432.565	4473.62
432.772	4516.62
432.979	4805.39
433.187	4776.72
433.394	4821.77
433.601	5079.82
433.808	5079.82
434.016	5157.64
434.223	5366.53
434.43	5692.16
434.637	5634.82
434.844	5952.25
435.052	5985.02
435.259	5847.8
435.466	6087.42
435.673	6066.94
435.88	6433.52
436.087	6777.58
436.294	6644.46
436.501	6578.93
436.708	6734.57
436.915	7037.67
437.122	7252.71
437.329	7285.48
437.537	7707.36
437.743	7600.87
437.95	7658.21
438.157	7936.73
438.364	8039.13
438.571	8342.23
438.778	8454.87
438.985	9009.87
439.192	8860.37
439.399	8973
439.606	8927.95
439.813	9284.3
440.02	9822.91
440.227	9609.92
440.433	9566.92
440.64	9927.36
440.847	9863.87
441.054	9964.22
441.261	10746.55
441.467	10568.37
441.674	10764.98
441.881	11295.4
442.088	11115.18
442.294	11170.47
442.501	11416.23
442.708	11696.8
442.914	12059.29
443.121	12624.53
443.328	12151.45
443.534	13212.3
443.741	12864.15
443.948	12788.37
444.154	13613.7
444.361	13601.41
444.568	13523.59
444.774	13425.29
444.981	13920.9
445.187	14373.5
445.394	14758.52
445.6	14518.9
445.807	16157.28
446.013	15254.12
446.22	15606.38
446.426	16155.23
446.633	16278.11
446.839	16839.25
447.046	16255.58
447.252	17300.05
447.459	17173.07
447.665	17103.44
447.871	17990.21
448.078	18768.44
448.284	17668.68
448.491	18291.26
448.697	18795.06
448.903	19190.32
449.11	19378.73
449.316	19348.01
449.522	19518
449.728	19962.4
449.935	19839.53
450.141	19954.21
450.347	20986.39
450.553	20255.26
450.76	20312.61
450.966	20701.72
451.172	20419.1
451.378	21148.18
451.584	20783.64
451.791	21074.45
451.997	21199.38
452.203	21367.31
452.409	21520.91
452.615	21760.52
452.821	20648.47
453.027	20238.88
453.233	21545.48
453.44	20767.26
453.646	21271.06
453.852	21099.03
454.058	21649.93
454.264	20693.53
454.47	21123.6
454.676	20419.1
454.882	21361.17
455.088	19499.56
455.294	19780.14
455.5	20292.13
455.705	20519.45
455.911	19532.33
456.117	19282.48
456.323	19030.58
456.529	18049.6
456.735	18694.71
456.941	18268.73
457.147	18072.13
457.352	17650.25
457.558	17341
457.764	17386.06
457.97	17093.2
458.176	16566.87
458.381	16552.54
458.587	15661.67
458.793	16020.06
458.999	14828.15
459.204	16226.91
459.41	15768.16
459.616	14828.15
459.821	14527.1
460.027	14537.34
460.233	14164.61
460.438	13572.74
460.644	13746.82
460.85	13070.99
461.055	13142.67
461.261	12724.88
461.466	11911.84
461.672	11717.28
461.878	12612.24
462.083	11510.44
462.289	11512.49
462.494	11295.4
462.7	10830.51
462.905	10611.38
463.111	10873.52
463.316	11109.04
463.522	10701.49
463.727	10615.48
463.932	10681.01
464.138	10853.04
464.343	10678.96
464.549	10347.19
464.754	10623.67
464.959	10683.06
465.165	10410.68
465.37	10070.72
465.575	9798.34
465.781	10287.8
465.986	10209.98
466.191	9966.27
466.397	9775.81
466.602	9128.65
466.807	9763.52
467.012	9648.83
467.218	9607.87
467.423	9642.69
467.628	9478.85
467.833	10052.28
468.038	9708.23
468.244	9394.89
468.449	9796.29
468.654	9239.24
468.859	9304.78
469.064	9337.54
469.269	8831.69
469.474	8960.72
469.679	9206.47
