Data from USB4F104151__91__12-54-52-097.txt Node

Date: Fri Mar 14 12:54:52 EDT 2025
User: louis
Spectrometer: USB4F10415
Trigger mode: 4
Integration Time (sec): 1.000000E-2
Scans to average: 1
Electric dark correction enabled: true
Nonlinearity correction enabled: false
Boxcar width: 0
XAxis mode: Wavelengths
Number of Pixels in Spectrum: 3648
>>>>>Begin Spectral Data<<<<<
178.204	-8.02
178.424	-8.02
178.644	-8.02
178.864	20.65
179.084	-81.75
179.304	43.18
179.524	69.8
179.744	-65.36
179.964	22.7
180.184	-30.55
180.404	-12.12
180.624	34.99
180.844	-22.36
181.064	-12.12
181.283	-30.55
181.503	20.65
181.723	-18.26
181.943	6.31
182.163	10.41
182.383	18.6
182.602	20.65
182.822	69.8
183.042	10.41
183.262	110.76
183.482	39.08
183.701	61.61
183.921	26.79
184.141	22.7
184.361	53.42
184.58	16.55
184.8	30.89
185.02	49.32
185.239	75.95
185.459	-3.93
185.679	45.23
185.898	22.7
186.118	4.27
186.338	8.36
186.557	94.38
186.777	24.75
186.997	-20.31
187.216	24.75
187.436	84.14
187.655	57.51
187.875	-5.97
188.095	30.89
188.314	-1.88
188.534	73.9
188.753	-5.97
188.973	0.17
189.192	41.13
189.412	22.7
189.631	69.8
189.851	2.22
190.07	67.75
190.29	22.7
190.509	-5.97
190.729	6.31
190.948	80.04
191.168	75.95
191.387	24.75
191.607	49.32
191.826	57.51
192.045	24.75
192.265	43.18
192.484	28.84
192.704	12.46
192.923	39.08
193.142	-3.93
193.362	49.32
193.581	75.95
193.8	65.71
194.02	8.36
194.239	-5.97
194.458	-18.26
194.678	-112.47
194.897	67.75
195.116	39.08
195.335	51.37
195.555	12.46
195.774	45.23
195.993	-51.03
196.212	-26.45
196.432	-3.93
196.651	26.79
196.87	51.37
197.089	127.14
197.308	14.51
197.528	49.32
197.747	4.27
197.966	8.36
198.185	14.51
198.404	65.71
198.623	-57.17
198.842	98.47
199.062	26.79
199.281	37.03
199.5	0.17
199.719	55.47
199.938	49.32
200.157	41.13
200.376	-1.88
200.595	121
200.814	51.37
201.033	65.71
201.252	-30.55
201.471	-10.07
201.69	90.28
201.909	20.65
202.128	-8.02
202.347	-20.31
202.566	-8.02
202.785	-32.6
203.004	-12.12
203.223	30.89
203.442	39.08
203.661	45.23
203.879	-42.84
204.098	67.75
204.317	10.41
204.536	39.08
204.755	24.75
204.974	8.36
205.193	-1.88
205.411	51.37
205.63	-5.97
205.849	30.89
206.068	0.17
206.287	14.51
206.505	-48.98
206.724	37.03
206.943	8.36
207.162	2.22
207.381	24.75
207.599	26.79
207.818	61.61
208.037	37.03
208.255	45.23
208.474	65.71
208.693	22.7
208.911	39.08
209.13	39.08
209.349	77.99
209.567	8.36
209.786	12.46
210.005	2.22
210.223	67.75
210.442	20.65
210.661	16.55
210.879	20.65
211.098	86.19
211.316	32.94
211.535	61.61
211.753	-8.02
211.972	108.71
212.191	-32.6
212.409	55.47
212.628	20.65
212.846	41.13
213.065	14.51
213.283	32.94
213.502	-38.74
213.72	32.94
213.938	14.51
214.157	55.47
214.375	0.17
214.594	75.95
214.812	8.36
215.031	14.51
215.249	75.95
215.467	4.27
215.686	-3.93
215.904	82.09
216.122	-1.88
216.341	10.41
216.559	18.6
216.778	34.99
216.996	8.36
217.214	-12.12
217.432	26.79
217.651	26.79
217.869	32.94
218.087	2.22
218.306	18.6
218.524	-10.07
218.742	86.19
218.96	51.37
219.179	30.89
219.397	-20.31
219.615	57.51
219.833	51.37
220.051	-18.26
220.27	49.32
220.488	-100.18
220.706	-46.93
220.924	18.6
221.142	84.14
221.36	98.47
221.578	102.57
221.796	24.75
222.015	-34.64
222.233	-20.31
222.451	51.37
222.669	16.55
222.887	0.17
223.105	2.22
223.323	45.23
223.541	28.84
223.759	30.89
223.977	0.17
224.195	-8.02
224.413	75.95
224.631	59.56
224.849	-22.36
225.067	12.46
225.285	47.27
225.503	28.84
225.721	-53.08
225.939	28.84
226.157	-18.26
226.375	104.62
226.592	10.41
226.81	34.99
227.028	102.57
227.246	63.66
227.464	16.55
227.682	28.84
227.9	18.6
228.117	57.51
228.335	-22.36
228.553	77.99
228.771	2.22
228.989	-44.88
229.206	18.6
229.424	92.33
229.642	34.99
229.86	53.42
230.077	20.65
230.295	12.46
230.513	-5.97
230.731	18.6
230.948	20.65
231.166	51.37
231.384	32.94
231.601	12.46
231.819	53.42
232.037	34.99
232.254	18.6
232.472	26.79
232.689	2.22
232.907	69.8
233.125	-5.97
233.342	18.6
233.56	-1.88
233.777	6.31
233.995	39.08
234.213	8.36
234.43	-61.27
234.648	24.75
234.865	16.55
235.083	16.55
235.3	6.31
235.518	-10.07
235.735	2.22
235.953	22.7
236.17	30.89
236.388	59.56
236.605	-12.12
236.822	-5.97
237.04	51.37
237.257	123.05
237.475	41.13
237.692	32.94
237.909	16.55
238.127	24.75
238.344	4.27
238.562	63.66
238.779	-22.36
238.996	16.55
239.214	28.84
239.431	39.08
239.648	30.89
239.865	88.23
240.083	61.61
240.3	-5.97
240.517	34.99
240.735	65.71
240.952	84.14
241.169	41.13
241.386	-8.02
241.603	53.42
241.821	75.95
242.038	32.94
242.255	30.89
242.472	43.18
242.689	32.94
242.907	30.89
243.124	28.84
243.341	-38.74
243.558	26.79
243.775	41.13
243.992	14.51
244.209	47.27
244.426	55.47
244.643	71.85
244.86	24.75
245.078	55.47
245.295	82.09
245.512	14.51
245.729	63.66
245.946	80.04
246.163	-48.98
246.38	41.13
246.597	-14.17
246.814	80.04
247.031	-5.97
247.248	-5.97
247.464	0.17
247.681	26.79
247.898	-1.88
248.115	2.22
248.332	55.47
248.549	71.85
248.766	80.04
248.983	53.42
249.2	2.22
249.417	10.41
249.633	-10.07
249.85	55.47
250.067	20.65
250.284	118.95
250.501	-3.93
250.717	49.32
250.934	75.95
251.151	26.79
251.368	22.7
251.585	12.46
251.801	57.51
252.018	-30.55
252.235	41.13
252.451	26.79
252.668	65.71
252.885	-24.4
253.102	32.94
253.318	73.9
253.535	67.75
253.752	-14.17
253.968	8.36
254.185	34.99
254.401	63.66
254.618	-26.45
254.835	-42.84
255.051	39.08
255.268	45.23
255.484	30.89
255.701	-32.6
255.917	77.99
256.134	2.22
256.351	8.36
256.567	57.51
256.784	49.32
257	10.41
257.217	49.32
257.433	18.6
257.65	34.99
257.866	-16.21
258.082	90.28
258.299	-44.88
258.515	51.37
258.732	43.18
258.948	0.17
259.165	90.28
259.381	-22.36
259.597	-44.88
259.814	75.95
260.03	88.23
260.246	-26.45
260.463	94.38
260.679	80.04
260.895	4.27
261.112	-22.36
261.328	-44.88
261.544	8.36
261.761	45.23
261.977	39.08
262.193	22.7
262.409	-22.36
262.626	-36.69
262.842	8.36
263.058	90.28
263.274	8.36
263.49	86.19
263.707	57.51
263.923	73.9
264.139	51.37
264.355	53.42
264.571	69.8
264.787	16.55
265.004	16.55
265.22	-26.45
265.436	-12.12
265.652	20.65
265.868	61.61
266.084	28.84
266.3	47.27
266.516	24.75
266.732	-3.93
266.948	32.94
267.164	-28.5
267.38	20.65
267.596	18.6
267.812	32.94
268.028	90.28
268.244	26.79
268.46	108.71
268.676	26.79
268.892	-12.12
269.108	-28.5
269.324	53.42
269.54	65.71
269.756	47.27
269.972	18.6
270.188	34.99
270.403	32.94
270.619	6.31
270.835	-18.26
271.051	80.04
271.267	2.22
271.483	24.75
271.698	24.75
271.914	32.94
272.13	28.84
272.346	49.32
272.562	8.36
272.777	24.75
272.993	16.55
273.209	-40.79
273.425	75.95
273.64	4.27
273.856	77.99
274.072	49.32
274.287	28.84
274.503	-1.88
274.719	18.6
274.934	75.95
275.15	14.51
275.366	28.84
275.581	24.75
275.797	-28.5
276.012	22.7
276.228	45.23
276.444	-12.12
276.659	45.23
276.875	20.65
277.09	49.32
277.306	28.84
277.521	53.42
277.737	-22.36
277.952	32.94
278.168	-32.6
278.383	69.8
278.599	43.18
278.814	71.85
279.03	-10.07
279.245	22.7
279.461	14.51
279.676	55.47
279.892	16.55
280.107	14.51
280.322	57.51
280.538	43.18
280.753	41.13
280.969	26.79
281.184	-26.45
281.399	45.23
281.615	94.38
281.83	73.9
282.045	-51.03
282.26	10.41
282.476	73.9
282.691	80.04
282.906	-3.93
283.122	0.17
283.337	30.89
283.552	-28.5
283.767	30.89
283.983	77.99
284.198	-32.6
284.413	8.36
284.628	-10.07
284.843	41.13
285.058	61.61
285.274	20.65
285.489	37.03
285.704	51.37
285.919	41.13
286.134	24.75
286.349	14.51
286.564	67.75
286.779	57.51
286.995	-24.4
287.21	98.47
287.425	32.94
287.64	47.27
287.855	14.51
288.07	69.8
288.285	8.36
288.5	75.95
288.715	67.75
288.93	84.14
289.145	69.8
289.36	65.71
289.575	14.51
289.79	-24.4
290.004	32.94
290.219	73.9
290.434	96.43
290.649	4.27
290.864	10.41
291.079	34.99
291.294	14.51
291.509	-44.88
291.724	57.51
291.938	8.36
292.153	88.23
292.368	18.6
292.583	0.17
292.798	-12.12
293.012	16.55
293.227	-10.07
293.442	24.75
293.657	-8.02
293.871	100.52
294.086	102.57
294.301	55.47
294.516	-8.02
294.73	20.65
294.945	67.75
295.16	0.17
295.374	108.71
295.589	41.13
295.804	43.18
296.018	26.79
296.233	26.79
296.447	16.55
296.662	45.23
296.877	-24.4
297.091	20.65
297.306	51.37
297.52	39.08
297.735	12.46
297.949	26.79
298.164	-8.02
298.378	12.46
298.593	28.84
298.807	-59.22
299.022	47.27
299.236	121
299.451	55.47
299.665	-42.84
299.88	16.55
300.094	73.9
300.309	108.71
300.523	96.43
300.737	4.27
300.952	32.94
301.166	67.75
301.381	-55.12
301.595	59.56
301.809	26.79
302.024	41.13
302.238	55.47
302.452	55.47
302.667	-36.69
302.881	59.56
303.095	20.65
303.309	51.37
303.524	94.38
303.738	43.18
303.952	37.03
304.166	77.99
304.381	20.65
304.595	69.8
304.809	4.27
305.023	67.75
305.237	110.76
305.452	65.71
305.666	2.22
305.88	100.52
306.094	-1.88
306.308	55.47
306.522	32.94
306.736	96.43
306.95	37.03
307.164	8.36
307.379	49.32
307.593	26.79
307.807	82.09
308.021	49.32
308.235	14.51
308.449	100.52
308.663	53.42
308.877	92.33
309.091	2.22
309.305	114.86
309.519	20.65
309.733	-1.88
309.947	59.56
310.161	49.32
310.374	49.32
310.588	43.18
310.802	-26.45
311.016	20.65
311.23	80.04
311.444	32.94
311.658	28.84
311.872	88.23
312.085	90.28
312.299	63.66
312.513	-53.08
312.727	12.46
312.941	69.8
313.154	14.51
313.368	114.86
313.582	47.27
313.796	69.8
314.009	98.47
314.223	69.8
314.437	39.08
314.651	92.33
314.864	45.23
315.078	30.89
315.292	30.89
315.505	41.13
315.719	49.32
315.933	94.38
316.146	51.37
316.36	16.55
316.573	65.71
316.787	-38.74
317.001	30.89
317.214	12.46
317.428	-26.45
317.641	32.94
317.855	20.65
318.068	30.89
318.282	59.56
318.495	24.75
318.709	75.95
318.922	65.71
319.136	-3.93
319.349	10.41
319.563	0.17
319.776	41.13
319.99	14.51
320.203	-34.64
320.417	30.89
320.63	41.13
320.843	32.94
321.057	51.37
321.27	51.37
321.483	16.55
321.697	-8.02
321.91	-26.45
322.124	65.71
322.337	41.13
322.55	12.46
322.763	-71.51
322.977	-5.97
323.19	8.36
323.403	67.75
323.617	-8.02
323.83	77.99
324.043	28.84
324.256	61.61
324.469	37.03
324.683	-32.6
324.896	82.09
325.109	39.08
325.322	18.6
325.535	55.47
325.748	24.75
325.962	57.51
326.175	-5.97
326.388	73.9
326.601	92.33
326.814	30.89
327.027	18.6
327.24	20.65
327.453	-14.17
327.666	96.43
327.879	14.51
328.092	86.19
328.305	-8.02
328.518	47.27
328.731	123.05
328.944	32.94
329.157	-32.6
329.37	57.51
329.583	30.89
329.796	82.09
330.009	-34.64
330.222	30.89
330.435	55.47
330.648	84.14
330.861	-32.6
331.073	104.62
331.286	55.47
331.499	114.86
331.712	63.66
331.925	34.99
332.138	57.51
332.35	-8.02
332.563	88.23
332.776	28.84
332.989	41.13
333.202	10.41
333.414	6.31
333.627	51.37
333.84	12.46
334.053	39.08
334.265	8.36
334.478	16.55
334.691	28.84
334.903	28.84
335.116	14.51
335.329	10.41
335.541	-10.07
335.754	98.47
335.966	77.99
336.179	45.23
336.392	16.55
336.604	-16.21
336.817	28.84
337.029	55.47
337.242	16.55
337.454	57.51
337.667	49.32
337.88	65.71
338.092	59.56
338.305	57.51
338.517	-42.84
338.729	92.33
338.942	63.66
339.154	20.65
339.367	53.42
339.579	24.75
339.792	39.08
340.004	-14.17
340.217	-20.31
340.429	69.8
340.641	32.94
340.854	-28.5
341.066	34.99
341.278	84.14
341.491	51.37
341.703	102.57
341.915	2.22
342.128	34.99
342.34	67.75
342.552	110.76
342.764	51.37
342.977	55.47
343.189	51.37
343.401	-16.21
343.613	-16.21
343.826	20.65
344.038	49.32
344.25	49.32
344.462	-28.5
344.674	20.65
344.886	41.13
345.099	37.03
345.311	-20.31
345.523	86.19
345.735	-8.02
345.947	43.18
346.159	28.84
346.371	0.17
346.583	80.04
346.795	63.66
347.007	-32.6
347.219	51.37
347.431	65.71
347.643	0.17
347.855	57.51
348.067	14.51
348.279	4.27
348.491	49.32
348.703	16.55
348.915	24.75
349.127	55.47
349.339	26.79
349.551	51.37
349.763	61.61
349.975	51.37
350.187	18.6
350.399	82.09
350.61	-28.5
350.822	51.37
351.034	18.6
351.246	-5.97
351.458	8.36
351.669	-5.97
351.881	55.47
352.093	6.31
352.305	98.47
352.517	43.18
352.728	32.94
352.94	84.14
353.152	49.32
353.363	26.79
353.575	69.8
353.787	16.55
353.999	53.42
354.21	53.42
354.422	86.19
354.633	26.79
354.845	41.13
355.057	49.32
355.268	55.47
355.48	63.66
355.692	112.81
355.903	96.43
356.115	14.51
356.326	102.57
356.538	0.17
356.749	59.56
356.961	24.75
357.172	-30.55
357.384	94.38
357.595	16.55
357.807	57.51
358.018	37.03
358.23	2.22
358.441	10.41
358.653	8.36
358.864	32.94
359.075	-34.64
359.287	71.85
359.498	69.8
359.709	12.46
359.921	18.6
360.132	59.56
360.344	59.56
360.555	55.47
360.766	92.33
360.977	45.23
361.189	65.71
361.4	73.9
361.611	32.94
361.823	16.55
362.034	41.13
362.245	14.51
362.456	12.46
362.667	8.36
362.879	77.99
363.09	20.65
363.301	114.86
363.512	26.79
363.723	57.51
363.935	8.36
364.146	4.27
364.357	2.22
364.568	37.03
364.779	-1.88
364.99	59.56
365.201	10.41
365.412	-16.21
365.623	51.37
365.834	141.48
366.045	4.27
366.256	43.18
366.467	-5.97
366.678	59.56
366.889	2.22
367.1	61.61
367.311	82.09
367.522	59.56
367.733	43.18
367.944	59.56
368.155	75.95
368.366	90.28
368.577	45.23
368.788	34.99
368.999	53.42
369.209	86.19
369.42	0.17
369.631	80.04
369.842	16.55
370.053	12.46
370.264	-1.88
370.474	0.17
370.685	-5.97
370.896	20.65
371.107	4.27
371.317	65.71
371.528	43.18
371.739	45.23
371.95	53.42
372.16	8.36
372.371	61.61
372.582	14.51
372.792	84.14
373.003	32.94
373.214	57.51
373.424	51.37
373.635	-5.97
373.846	82.09
374.056	-16.21
374.267	45.23
374.477	24.75
374.688	-22.36
374.898	75.95
375.109	26.79
375.319	80.04
375.53	-3.93
375.74	71.85
375.951	104.62
376.161	22.7
376.372	18.6
376.582	2.22
376.793	32.94
377.003	53.42
377.214	-8.02
377.424	80.04
377.635	37.03
377.845	77.99
378.055	59.56
378.266	65.71
378.476	20.65
378.686	59.56
378.897	80.04
379.107	67.75
379.317	0.17
379.528	24.75
379.738	-1.88
379.948	39.08
380.158	14.51
380.369	55.47
380.579	51.37
380.789	-5.97
380.999	6.31
381.21	2.22
381.42	71.85
381.63	34.99
381.84	-8.02
382.05	0.17
382.261	98.47
382.471	32.94
382.681	59.56
382.891	63.66
383.101	-16.21
383.311	-24.4
383.521	34.99
383.731	55.47
383.941	67.75
384.151	10.41
384.361	16.55
384.571	55.47
384.781	41.13
384.991	43.18
385.201	118.95
385.411	69.8
385.621	32.94
385.831	24.75
386.041	10.41
386.251	20.65
386.461	37.03
386.671	-20.31
386.881	71.85
387.091	65.71
387.301	59.56
387.511	69.8
387.72	82.09
387.93	-1.88
388.14	30.89
388.35	41.13
388.56	32.94
388.769	22.7
388.979	34.99
389.189	26.79
389.399	16.55
389.609	59.56
389.818	47.27
390.028	-22.36
390.238	0.17
390.447	22.7
390.657	53.42
390.867	71.85
391.076	55.47
391.286	63.66
391.496	63.66
391.705	108.71
391.915	82.09
392.125	55.47
392.334	45.23
392.544	98.47
392.753	80.04
392.963	41.13
393.172	28.84
393.382	114.86
393.591	67.75
393.801	67.75
394.01	51.37
394.22	67.75
394.429	106.67
394.639	0.17
394.848	39.08
395.058	127.14
395.267	73.9
395.477	57.51
395.686	86.19
395.895	6.31
396.105	88.23
396.314	-16.21
396.524	137.38
396.733	67.75
396.942	118.95
397.152	77.99
397.361	121
397.57	26.79
397.78	-34.64
397.989	59.56
398.198	143.53
398.407	65.71
398.617	43.18
398.826	2.22
399.035	-5.97
399.244	53.42
399.453	59.56
399.663	10.41
399.872	112.81
400.081	65.71
400.29	59.56
400.499	102.57
400.708	114.86
400.917	26.79
401.127	123.05
401.336	112.81
401.545	-8.02
401.754	22.7
401.963	26.79
402.172	-55.12
402.381	106.67
402.59	80.04
402.799	112.81
403.008	59.56
403.217	47.27
403.426	108.71
403.635	26.79
403.844	-5.97
404.053	73.9
404.262	80.04
404.471	67.75
404.68	96.43
404.888	55.47
405.097	92.33
405.306	41.13
405.515	86.19
405.724	94.38
405.933	141.48
406.142	131.24
406.35	98.47
406.559	172.2
406.768	39.08
406.977	98.47
407.185	112.81
407.394	100.52
407.603	114.86
407.812	174.25
408.02	51.37
408.229	166.06
408.438	127.14
408.646	176.3
408.855	123.05
409.064	176.3
409.272	151.72
409.481	233.64
409.69	127.14
409.898	178.34
410.107	164.01
410.315	194.73
410.524	121
410.733	182.44
410.941	202.92
411.15	196.78
411.358	159.91
411.567	207.02
411.775	256.17
411.984	243.88
412.192	237.74
412.401	211.11
412.609	209.06
412.818	282.79
413.026	223.4
413.234	233.64
413.443	250.02
413.651	256.17
413.86	321.7
414.068	340.13
414.276	366.76
414.485	274.6
414.693	309.41
414.901	409.76
415.11	364.71
415.318	329.89
415.526	356.52
415.734	368.81
415.943	436.39
416.151	374.95
416.359	422.05
416.567	467.11
416.776	422.05
416.984	432.29
417.192	497.83
417.4	522.4
417.608	503.97
417.817	516.26
418.025	600.23
418.233	616.61
418.441	534.69
418.649	643.23
418.857	585.89
419.065	686.24
419.273	604.32
419.481	676
419.689	729.25
419.897	657.57
420.105	641.18
420.313	784.54
420.521	723.1
420.729	774.3
420.937	854.17
421.145	932
421.353	985.24
421.561	964.76
421.769	975
421.977	1028.25
422.185	1026.2
422.393	1061.02
422.601	1157.27
422.809	1161.37
423.017	1200.28
423.224	1239.19
423.432	1190.04
423.64	1241.24
423.848	1372.31
424.056	1300.63
424.263	1460.37
424.471	1474.71
424.679	1435.8
424.887	1573.01
425.094	1589.39
425.302	1634.45
425.51	1616.02
425.718	1767.57
425.925	1751.18
426.133	1763.47
426.341	1869.97
426.548	1994.89
426.756	1939.6
426.964	1974.41
427.171	2115.72
427.379	2152.59
427.586	2164.87
427.794	2259.08
428.001	2367.62
428.209	2408.58
428.417	2265.22
428.624	2611.33
428.832	2564.23
429.039	2568.32
429.247	2576.52
429.454	2801.79
429.662	2994.3
429.869	2670.72
430.076	3057.79
430.284	3000.44
430.491	3020.92
430.699	3195
430.906	3154.04
431.114	3340.41
431.321	3371.13
431.528	3526.77
431.736	3571.83
431.943	3760.24
432.15	3678.32
432.358	3879.02
432.565	4108.4
432.772	4016.24
432.979	4120.68
433.187	4233.32
433.394	4200.55
433.601	4558.95
433.808	4694.12
434.016	4573.28
434.223	4866.14
434.43	4986.97
434.637	4816.99
434.844	5298.27
435.052	5161.05
435.259	5390.42
435.466	5460.06
435.673	5339.23
435.88	5662.8
436.087	5953.62
436.294	5967.95
436.501	5826.64
436.708	5949.52
436.915	6150.22
437.122	6398.03
437.329	6332.49
437.537	6619.21
437.743	6781
437.95	6772.8
438.157	6914.11
438.364	7243.84
438.571	7305.28
438.778	7346.23
438.985	8124.46
439.192	7645.24
439.399	7907.38
439.606	7753.78
439.813	7987.25
440.02	8642.6
440.227	8505.38
440.433	8292.4
440.64	8712.23
440.847	8593.45
441.054	8798.24
441.261	9316.38
441.467	9424.92
441.674	9601.05
441.881	9889.81
442.088	9895.96
442.294	9709.59
442.501	9977.87
442.708	10424.33
442.914	10661.9
443.121	11040.77
443.328	10711.05
443.534	11583.48
443.741	11075.59
443.948	10932.23
444.154	11730.94
444.361	12066.8
444.568	11978.74
444.774	11943.92
444.981	12189.68
445.187	12230.64
445.394	12900.33
445.6	12851.17
445.807	14049.24
446.013	13633.5
446.22	13752.28
446.426	14211.03
446.633	14387.15
446.839	15052.74
447.046	14086.1
447.252	14964.68
447.459	15105.99
447.665	14995.4
447.871	15771.58
448.078	16662.44
448.284	15429.57
448.491	15943.61
448.697	16715.69
448.903	16846.76
449.11	17215.4
449.316	16863.15
449.522	16930.73
449.728	17514.4
449.935	17704.86
450.141	17559.45
450.347	18212.76
450.553	17579.93
450.76	17956.76
450.966	18313.11
451.172	18233.24
451.378	18567.06
451.584	18247.57
451.791	18804.62
451.997	18802.57
452.203	19109.77
452.409	19230.6
452.615	18812.81
452.821	18130.84
453.027	18001.82
453.233	19091.34
453.44	18286.48
453.646	18546.58
453.852	18507.66
454.058	18988.94
454.264	18030.49
454.47	18581.39
454.676	18038.68
454.882	18788.24
455.088	17590.17
455.294	17383.33
455.5	17735.58
455.705	17794.97
455.911	17221.54
456.117	16834.47
456.323	16678.83
456.529	15937.46
456.735	16641.96
456.941	16023.48
457.147	15943.61
457.352	15400.9
457.558	15212.48
457.764	15230.91
457.97	15030.21
458.176	14600.14
458.381	14532.56
458.587	13762.52
458.793	14075.86
458.999	13311.97
459.204	14041.04
459.41	13516.76
459.616	12687.34
459.821	12867.56
460.027	12759.02
460.233	12509.16
460.438	11882.49
460.644	11827.19
460.85	11630.59
461.055	11155.46
461.261	11364.35
461.466	10475.53
461.672	10088.46
461.878	11022.34
462.083	10237.97
462.289	9920.53
462.494	9721.88
462.7	9324.57
462.905	9201.69
463.111	9504.79
463.316	9682.97
463.522	9187.36
463.727	9441.31
463.932	9373.72
464.138	9191.45
464.343	9168.93
464.549	9150.5
464.754	9228.32
464.959	8900.64
465.165	9297.95
465.37	8802.34
465.575	8484.91
465.781	8910.88
465.986	8912.93
466.191	8679.46
466.397	8325.16
466.602	8026.16
466.807	8142.89
467.012	8351.79
467.218	8101.94
467.423	8349.74
467.628	8374.31
467.833	8630.31
468.038	8366.12
468.244	8167.47
468.449	8376.36
468.654	8163.37
468.859	8124.46
469.064	8194.09
469.269	7761.97
469.474	7792.69
469.679	7792.69
469.885	7821.36
