Data from USB4F104151__11__12-53-12-675.txt Node

Date: Fri Mar 14 12:53:12 EDT 2025
User: louis
Spectrometer: USB4F10415
Trigger mode: 4
Integration Time (sec): 1.000000E-2
Scans to average: 1
Electric dark correction enabled: true
Nonlinearity correction enabled: false
Boxcar width: 0
XAxis mode: Wavelengths
Number of Pixels in Spectrum: 3648
>>>>>Begin Spectral Data<<<<<
178.204	-0.51
178.424	-0.51
178.644	-0.51
178.864	-12.8
179.084	-96.77
179.304	52.74
179.524	-0.51
179.744	-51.71
179.964	24.06
180.184	58.88
180.404	-96.77
180.624	17.92
180.844	15.87
181.064	5.63
181.283	-23.04
181.503	24.06
181.723	-27.14
181.943	-49.66
182.163	-10.75
182.383	58.88
182.602	-57.86
182.822	-35.33
183.042	101.89
183.262	5.63
183.482	17.92
183.701	-33.28
183.921	-6.66
184.141	1.54
184.361	46.59
184.58	1.54
184.8	44.54
185.02	-0.51
185.239	69.12
185.459	30.21
185.679	75.26
185.898	-18.94
186.118	34.3
186.338	44.54
186.557	48.64
186.777	7.68
186.997	7.68
187.216	7.68
187.436	-6.66
187.655	69.12
187.875	40.45
188.095	36.35
188.314	58.88
188.534	58.88
188.753	-10.75
188.973	30.21
189.192	71.17
189.412	42.5
189.631	7.68
189.851	-10.75
190.07	5.63
190.29	46.59
190.509	58.88
190.729	67.07
190.948	9.73
191.168	1.54
191.387	-20.99
191.607	-33.28
191.826	-2.56
192.045	1.54
192.265	24.06
192.484	60.93
192.704	5.63
192.923	-25.09
193.142	13.82
193.362	56.83
193.581	58.88
193.8	-18.94
194.02	-6.66
194.239	-18.94
194.458	-8.7
194.678	-61.95
194.897	17.92
195.116	30.21
195.335	58.88
195.555	-18.94
195.774	34.3
195.993	13.82
196.212	32.26
196.432	36.35
196.651	24.06
196.87	58.88
197.089	-49.66
197.308	38.4
197.528	81.41
197.747	26.11
197.966	-16.9
198.185	-2.56
198.404	67.07
198.623	36.35
198.842	50.69
199.062	85.5
199.281	15.87
199.5	26.11
199.719	32.26
199.938	3.58
200.157	32.26
200.376	19.97
200.595	7.68
200.814	-2.56
201.033	-23.04
201.252	26.11
201.471	9.73
201.69	-68.09
201.909	28.16
202.128	-0.51
202.347	3.58
202.566	52.74
202.785	19.97
203.004	-8.7
203.223	67.07
203.442	65.02
203.661	-25.09
203.879	34.3
204.098	-61.95
204.317	11.78
204.536	58.88
204.755	-27.14
204.974	22.02
205.193	11.78
205.411	56.83
205.63	73.21
205.849	24.06
206.068	73.21
206.287	3.58
206.505	7.68
206.724	-37.38
206.943	28.16
207.162	-61.95
207.381	3.58
207.599	24.06
207.818	-53.76
208.037	44.54
208.255	-23.04
208.474	-12.8
208.693	44.54
208.911	-57.86
209.13	48.64
209.349	32.26
209.567	-0.51
209.786	26.11
210.005	5.63
210.223	75.26
210.442	-6.66
210.661	65.02
210.879	-4.61
211.098	9.73
211.316	-23.04
211.535	44.54
211.753	17.92
211.972	26.11
212.191	34.3
212.409	19.97
212.628	5.63
212.846	3.58
213.065	-10.75
213.283	89.6
213.502	1.54
213.72	-6.66
213.938	52.74
214.157	15.87
214.375	-0.51
214.594	7.68
214.812	26.11
215.031	15.87
215.249	-43.52
215.467	34.3
215.686	-45.57
215.904	71.17
216.122	28.16
216.341	75.26
216.559	11.78
216.778	34.3
216.996	34.3
217.214	15.87
217.432	-23.04
217.651	-14.85
217.869	54.78
218.087	24.06
218.306	-37.38
218.524	15.87
218.742	50.69
218.96	-51.71
219.179	60.93
219.397	24.06
219.615	15.87
219.833	17.92
220.051	-61.95
220.27	30.21
220.488	9.73
220.706	58.88
220.924	22.02
221.142	93.69
221.36	22.02
221.578	52.74
221.796	52.74
222.015	-0.51
222.233	-16.9
222.451	34.3
222.669	124.41
222.887	48.64
223.105	30.21
223.323	36.35
223.541	-4.61
223.759	32.26
223.977	69.12
224.195	38.4
224.413	52.74
224.631	56.83
224.849	15.87
225.067	58.88
225.285	-43.52
225.503	-51.71
225.721	13.82
225.939	-16.9
226.157	1.54
226.375	26.11
226.592	26.11
226.81	28.16
227.028	65.02
227.246	89.6
227.464	17.92
227.682	56.83
227.9	9.73
228.117	67.07
228.335	-0.51
228.553	7.68
228.771	67.07
228.989	-6.66
229.206	83.45
229.424	9.73
229.642	83.45
229.86	26.11
230.077	85.5
230.295	9.73
230.513	40.45
230.731	30.21
230.948	-29.18
231.166	15.87
231.384	-12.8
231.601	19.97
231.819	26.11
232.037	-2.56
232.254	1.54
232.472	54.78
232.689	5.63
232.907	11.78
233.125	99.84
233.342	79.36
233.56	1.54
233.777	26.11
233.995	40.45
234.213	28.16
234.43	-20.99
234.648	-12.8
234.865	65.02
235.083	32.26
235.3	-31.23
235.518	58.88
235.735	87.55
235.953	26.11
236.17	-16.9
236.388	73.21
236.605	-64
236.822	56.83
237.04	-8.7
237.257	1.54
237.475	56.83
237.692	67.07
237.909	-8.7
238.127	15.87
238.344	42.5
238.562	9.73
238.779	-33.28
238.996	-51.71
239.214	7.68
239.431	58.88
239.648	13.82
239.865	56.83
240.083	7.68
240.3	19.97
240.517	19.97
240.735	44.54
240.952	65.02
241.169	58.88
241.386	17.92
241.603	30.21
241.821	-25.09
242.038	-23.04
242.255	-39.42
242.472	93.69
242.689	-14.85
242.907	71.17
243.124	48.64
243.341	36.35
243.558	28.16
243.775	17.92
243.992	-6.66
244.209	-16.9
244.426	54.78
244.643	97.79
244.86	15.87
245.078	19.97
245.295	46.59
245.512	44.54
245.729	44.54
245.946	83.45
246.163	46.59
246.38	-59.9
246.597	-18.94
246.814	3.58
247.031	60.93
247.248	114.17
247.464	11.78
247.681	-35.33
247.898	28.16
248.115	-0.51
248.332	13.82
248.549	97.79
248.766	9.73
248.983	58.88
249.2	28.16
249.417	48.64
249.633	91.65
249.85	42.5
250.067	40.45
250.284	36.35
250.501	3.58
250.717	-37.38
250.934	24.06
251.151	19.97
251.368	24.06
251.585	26.11
251.801	32.26
252.018	9.73
252.235	1.54
252.451	48.64
252.668	17.92
252.885	56.83
253.102	5.63
253.318	11.78
253.535	-4.61
253.752	11.78
253.968	-25.09
254.185	-59.9
254.401	-14.85
254.618	24.06
254.835	42.5
255.051	34.3
255.268	9.73
255.484	83.45
255.701	42.5
255.917	73.21
256.134	69.12
256.351	15.87
256.567	-25.09
256.784	13.82
257	-72.19
257.217	112.13
257.433	50.69
257.65	-33.28
257.866	26.11
258.082	22.02
258.299	17.92
258.515	15.87
258.732	36.35
258.948	52.74
259.165	15.87
259.381	24.06
259.597	48.64
259.814	30.21
260.03	-16.9
260.246	112.13
260.463	71.17
260.679	75.26
260.895	1.54
261.112	46.59
261.328	-4.61
261.544	-25.09
261.761	95.74
261.977	24.06
262.193	19.97
262.409	26.11
262.626	26.11
262.842	-35.33
263.058	-47.62
263.274	60.93
263.49	54.78
263.707	95.74
263.923	-20.99
264.139	26.11
264.355	65.02
264.571	-14.85
264.787	13.82
265.004	-25.09
265.22	15.87
265.436	24.06
265.652	56.83
265.868	-14.85
266.084	30.21
266.3	11.78
266.516	46.59
266.732	46.59
266.948	26.11
267.164	52.74
267.38	69.12
267.596	56.83
267.812	11.78
268.028	75.26
268.244	3.58
268.46	-10.75
268.676	32.26
268.892	-4.61
269.108	-41.47
269.324	-23.04
269.54	7.68
269.756	30.21
269.972	19.97
270.188	5.63
270.403	13.82
270.619	38.4
270.835	77.31
271.051	-0.51
271.267	-88.57
271.483	46.59
271.698	62.98
271.914	-37.38
272.13	22.02
272.346	19.97
272.562	-10.75
272.777	65.02
272.993	32.26
273.209	79.36
273.425	22.02
273.64	34.3
273.856	73.21
274.072	-23.04
274.287	11.78
274.503	69.12
274.719	73.21
274.934	-27.14
275.15	-18.94
275.366	9.73
275.581	-18.94
275.797	17.92
276.012	38.4
276.228	44.54
276.444	-29.18
276.659	48.64
276.875	32.26
277.09	81.41
277.306	11.78
277.521	-23.04
277.737	38.4
277.952	-10.75
278.168	22.02
278.383	26.11
278.599	30.21
278.814	-0.51
279.03	-2.56
279.245	85.5
279.461	-25.09
279.676	5.63
279.892	48.64
280.107	-2.56
280.322	-18.94
280.538	26.11
280.753	89.6
280.969	-27.14
281.184	-10.75
281.399	40.45
281.615	-2.56
281.83	17.92
282.045	46.59
282.26	36.35
282.476	54.78
282.691	54.78
282.906	19.97
283.122	30.21
283.337	3.58
283.552	40.45
283.767	58.88
283.983	15.87
284.198	-68.09
284.413	42.5
284.628	-6.66
284.843	7.68
285.058	44.54
285.274	48.64
285.489	-29.18
285.704	79.36
285.919	67.07
286.134	19.97
286.349	65.02
286.564	38.4
286.779	13.82
286.995	24.06
287.21	32.26
287.425	126.46
287.64	-10.75
287.855	17.92
288.07	-27.14
288.285	7.68
288.5	-14.85
288.715	101.89
288.93	15.87
289.145	48.64
289.36	-43.52
289.575	-23.04
289.79	-10.75
290.004	60.93
290.219	62.98
290.434	28.16
290.649	79.36
290.864	62.98
291.079	67.07
291.294	62.98
291.509	15.87
291.724	19.97
291.938	38.4
292.153	-8.7
292.368	46.59
292.583	15.87
292.798	9.73
293.012	42.5
293.227	22.02
293.442	7.68
293.657	-14.85
293.871	52.74
294.086	44.54
294.301	95.74
294.516	-29.18
294.73	58.88
294.945	7.68
295.16	-70.14
295.374	58.88
295.589	3.58
295.804	34.3
296.018	36.35
296.233	26.11
296.447	32.26
296.662	40.45
296.877	-6.66
297.091	19.97
297.306	24.06
297.52	-23.04
297.735	32.26
297.949	42.5
298.164	40.45
298.378	-25.09
298.593	-6.66
298.807	-49.66
299.022	44.54
299.236	-16.9
299.451	-8.7
299.665	3.58
299.88	28.16
300.094	40.45
300.309	67.07
300.523	52.74
300.737	26.11
300.952	28.16
301.166	-6.66
301.381	-23.04
301.595	46.59
301.809	-16.9
302.024	19.97
302.238	40.45
302.452	-10.75
302.667	99.84
302.881	36.35
303.095	-12.8
303.309	50.69
303.524	15.87
303.738	28.16
303.952	13.82
304.166	15.87
304.381	3.58
304.595	44.54
304.809	-16.9
305.023	56.83
305.237	24.06
305.452	26.11
305.666	15.87
305.88	42.5
306.094	44.54
306.308	-18.94
306.522	-20.99
306.736	110.08
306.95	97.79
307.164	69.12
307.379	-27.14
307.593	85.5
307.807	48.64
308.021	93.69
308.235	32.26
308.449	-25.09
308.663	54.78
308.877	75.26
309.091	1.54
309.305	17.92
309.519	48.64
309.733	26.11
309.947	32.26
310.161	75.26
310.374	58.88
310.588	95.74
310.802	13.82
311.016	15.87
311.23	9.73
311.444	38.4
311.658	42.5
311.872	28.16
312.085	19.97
312.299	48.64
312.513	69.12
312.727	30.21
312.941	36.35
313.154	1.54
313.368	9.73
313.582	85.5
313.796	42.5
314.009	48.64
314.223	62.98
314.437	60.93
314.651	-82.43
314.864	-10.75
315.078	30.21
315.292	-18.94
315.505	-6.66
315.719	28.16
315.933	-16.9
316.146	46.59
316.36	1.54
316.573	11.78
316.787	73.21
317.001	34.3
317.214	-25.09
317.428	30.21
317.641	50.69
317.855	17.92
318.068	65.02
318.282	38.4
318.495	3.58
318.709	48.64
318.922	-6.66
319.136	73.21
319.349	40.45
319.563	-4.61
319.776	79.36
319.99	42.5
320.203	26.11
320.417	144.89
320.63	54.78
320.843	28.16
321.057	32.26
321.27	50.69
321.483	34.3
321.697	30.21
321.91	-8.7
322.124	32.26
322.337	-35.33
322.55	-31.23
322.763	-25.09
322.977	42.5
323.19	-10.75
323.403	1.54
323.617	19.97
323.83	28.16
324.043	73.21
324.256	44.54
324.469	22.02
324.683	34.3
324.896	-64
325.109	13.82
325.322	81.41
325.535	77.31
325.748	75.26
325.962	89.6
326.175	11.78
326.388	-35.33
326.601	50.69
326.814	83.45
327.027	38.4
327.24	52.74
327.453	83.45
327.666	75.26
327.879	83.45
328.092	48.64
328.305	-53.76
328.518	58.88
328.731	44.54
328.944	19.97
329.157	-20.99
329.37	13.82
329.583	95.74
329.796	-25.09
330.009	-39.42
330.222	-2.56
330.435	75.26
330.648	38.4
330.861	28.16
331.073	85.5
331.286	65.02
331.499	73.21
331.712	65.02
331.925	79.36
332.138	19.97
332.35	-2.56
332.563	22.02
332.776	112.13
332.989	26.11
333.202	67.07
333.414	-49.66
333.627	9.73
333.84	-8.7
334.053	36.35
334.265	65.02
334.478	15.87
334.691	81.41
334.903	-53.76
335.116	-2.56
335.329	36.35
335.541	9.73
335.754	65.02
335.966	75.26
336.179	-25.09
336.392	17.92
336.604	44.54
336.817	19.97
337.029	-51.71
337.242	5.63
337.454	-8.7
337.667	17.92
337.88	46.59
338.092	-4.61
338.305	22.02
338.517	60.93
338.729	62.98
338.942	13.82
339.154	54.78
339.367	56.83
339.579	9.73
339.792	15.87
340.004	22.02
340.217	26.11
340.429	85.5
340.641	38.4
340.854	-23.04
341.066	-18.94
341.278	67.07
341.491	34.3
341.703	-39.42
341.915	62.98
342.128	-39.42
342.34	-18.94
342.552	19.97
342.764	87.55
342.977	26.11
343.189	48.64
343.401	77.31
343.613	1.54
343.826	58.88
344.038	48.64
344.25	50.69
344.462	38.4
344.674	89.6
344.886	73.21
345.099	44.54
345.311	95.74
345.523	34.3
345.735	44.54
345.947	42.5
346.159	79.36
346.371	52.74
346.583	-27.14
346.795	56.83
347.007	40.45
347.219	46.59
347.431	38.4
347.643	62.98
347.855	48.64
348.067	50.69
348.279	42.5
348.491	97.79
348.703	112.13
348.915	42.5
349.127	69.12
349.339	-64
349.551	-12.8
349.763	73.21
349.975	44.54
350.187	28.16
350.399	79.36
350.61	65.02
350.822	48.64
351.034	17.92
351.246	40.45
351.458	83.45
351.669	-16.9
351.881	-4.61
352.093	30.21
352.305	34.3
352.517	81.41
352.728	13.82
352.94	-0.51
353.152	73.21
353.363	19.97
353.575	89.6
353.787	54.78
353.999	50.69
354.21	40.45
354.422	40.45
354.633	-18.94
354.845	56.83
355.057	11.78
355.268	15.87
355.48	-8.7
355.692	24.06
355.903	34.3
356.115	5.63
356.326	7.68
356.538	-74.24
356.749	42.5
356.961	17.92
357.172	101.89
357.384	48.64
357.595	58.88
357.807	17.92
358.018	46.59
358.23	71.17
358.441	-0.51
358.653	48.64
358.864	67.07
359.075	91.65
359.287	-23.04
359.498	120.32
359.709	97.79
359.921	136.7
360.132	-14.85
360.344	11.78
360.555	87.55
360.766	7.68
360.977	40.45
361.189	40.45
361.4	28.16
361.611	93.69
361.823	26.11
362.034	77.31
362.245	44.54
362.456	7.68
362.667	75.26
362.879	46.59
363.09	65.02
363.301	81.41
363.512	62.98
363.723	44.54
363.935	24.06
364.146	73.21
364.357	13.82
364.568	38.4
364.779	15.87
364.99	1.54
365.201	-8.7
365.412	60.93
365.623	34.3
365.834	-6.66
366.045	3.58
366.256	58.88
366.467	-43.52
366.678	69.12
366.889	46.59
367.1	28.16
367.311	-23.04
367.522	89.6
367.733	28.16
367.944	60.93
368.155	42.5
368.366	60.93
368.577	83.45
368.788	1.54
368.999	46.59
369.209	-16.9
369.42	52.74
369.631	44.54
369.842	-2.56
370.053	91.65
370.264	24.06
370.474	50.69
370.685	42.5
370.896	38.4
371.107	24.06
371.317	-2.56
371.528	40.45
371.739	83.45
371.95	50.69
372.16	40.45
372.371	44.54
372.582	7.68
372.792	54.78
373.003	34.3
373.214	62.98
373.424	-16.9
373.635	58.88
373.846	-23.04
374.056	28.16
374.267	9.73
374.477	34.3
374.688	17.92
374.898	-0.51
375.109	-18.94
375.319	30.21
375.53	58.88
375.74	-18.94
375.951	24.06
376.161	93.69
376.372	60.93
376.582	-14.85
376.793	-8.7
377.003	7.68
377.214	79.36
377.424	58.88
377.635	9.73
377.845	22.02
378.055	83.45
378.266	36.35
378.476	17.92
378.686	-4.61
378.897	67.07
379.107	22.02
379.317	30.21
379.528	5.63
379.738	58.88
379.948	40.45
380.158	118.27
380.369	26.11
380.579	85.5
380.789	-12.8
380.999	103.93
381.21	36.35
381.42	108.03
381.63	-16.9
381.84	13.82
382.05	34.3
382.261	93.69
382.471	-6.66
382.681	56.83
382.891	93.69
383.101	69.12
383.311	62.98
383.521	42.5
383.731	58.88
383.941	44.54
384.151	22.02
384.361	52.74
384.571	36.35
384.781	24.06
384.991	30.21
385.201	140.8
385.411	67.07
385.621	28.16
385.831	5.63
386.041	97.79
386.251	67.07
386.461	48.64
386.671	85.5
386.881	-6.66
387.091	40.45
387.301	30.21
387.511	130.56
387.72	50.69
387.93	36.35
388.14	-6.66
388.35	54.78
388.56	79.36
388.769	134.65
388.979	19.97
389.189	48.64
389.399	65.02
389.609	69.12
389.818	54.78
390.028	71.17
390.238	32.26
390.447	52.74
390.657	34.3
390.867	75.26
391.076	42.5
391.286	26.11
391.496	44.54
391.705	69.12
391.915	48.64
392.125	79.36
392.334	26.11
392.544	65.02
392.753	48.64
392.963	62.98
393.172	105.98
393.382	38.4
393.591	50.69
393.801	60.93
394.01	73.21
394.22	48.64
394.429	44.54
394.639	22.02
394.848	130.56
395.058	3.58
395.267	71.17
395.477	67.07
395.686	124.41
395.895	65.02
396.105	95.74
396.314	22.02
396.524	24.06
396.733	34.3
396.942	65.02
397.152	34.3
397.361	136.7
397.57	1.54
397.78	87.55
397.989	15.87
398.198	52.74
398.407	101.89
398.617	9.73
398.826	116.22
399.035	89.6
399.244	89.6
399.453	124.41
399.663	40.45
399.872	28.16
400.081	52.74
400.29	58.88
400.499	38.4
400.708	108.03
400.917	83.45
401.127	89.6
401.336	97.79
401.545	89.6
401.754	110.08
401.963	87.55
402.172	120.32
402.381	-12.8
402.59	5.63
402.799	30.21
403.008	103.93
403.217	62.98
403.426	126.46
403.635	73.21
403.844	19.97
404.053	151.04
404.262	136.7
404.471	118.27
404.68	130.56
404.888	77.31
405.097	58.88
405.306	124.41
405.515	81.41
405.724	146.94
405.933	200.19
406.142	124.41
406.35	165.37
406.559	112.13
406.768	99.84
406.977	118.27
407.185	126.46
407.394	185.85
407.603	151.04
407.812	132.61
408.02	144.89
408.229	77.31
408.438	105.98
408.646	130.56
408.855	181.76
409.064	194.05
409.272	153.09
409.481	116.22
409.69	140.8
409.898	148.99
410.107	161.28
410.315	243.2
410.524	175.61
410.733	138.75
410.941	181.76
411.15	265.72
411.358	220.67
411.567	210.43
411.775	142.85
411.984	280.06
412.192	294.4
412.401	312.83
412.609	292.35
412.818	280.06
413.026	284.16
413.234	288.25
413.443	247.29
413.651	300.54
413.86	290.3
414.068	304.64
414.276	364.03
414.485	458.23
414.693	333.31
414.901	413.18
415.11	417.27
415.318	519.67
415.526	445.95
415.734	443.9
415.943	466.42
416.151	491
416.359	501.24
416.567	431.61
416.776	486.9
416.984	554.49
417.192	525.82
417.4	566.78
417.608	519.67
417.817	574.97
418.025	568.82
418.233	699.89
418.441	671.22
418.649	730.61
418.857	720.37
419.065	790
419.273	730.61
419.481	804.34
419.689	744.95
419.897	859.63
420.105	833.01
420.313	878.07
420.521	951.79
420.729	978.42
420.937	931.31
421.145	1019.38
421.353	1039.86
421.561	1138.16
421.769	1097.2
421.977	1261.04
422.185	1142.25
422.393	1201.65
422.601	1304.04
422.809	1256.94
423.017	1154.54
423.224	1271.28
423.432	1484.27
423.64	1410.54
423.848	1445.35
424.056	1410.54
424.263	1664.49
424.471	1662.44
424.679	1652.2
424.887	1764.84
425.094	1658.34
425.302	1639.91
425.51	1811.94
425.718	1828.32
425.925	1850.85
426.133	1981.92
426.341	2088.42
426.548	2196.96
426.756	2182.62
426.964	2248.16
427.171	2444.76
427.379	2282.97
427.586	2452.95
427.794	2522.59
428.001	2532.83
428.209	2696.66
428.417	2672.09
428.624	2964.95
428.832	2891.22
429.039	2930.13
429.247	2893.27
429.454	3145.17
429.662	3331.53
429.869	3286.48
430.076	3438.03
430.284	3329.49
430.491	3458.51
430.699	3530.19
430.906	3718.6
431.114	3673.54
431.321	3810.76
431.528	3788.23
431.736	4193.73
431.943	4367.81
432.15	4316.61
432.358	4349.37
432.565	4603.32
432.772	4490.68
432.979	4711.86
433.187	4861.37
433.394	4988.34
433.601	5279.15
433.808	5178.8
434.016	5352.88
434.223	5399.98
434.43	5588.39
434.637	5455.28
434.844	5971.36
435.052	5885.35
435.259	5985.7
435.466	6202.79
435.673	6032.8
435.88	6372.77
436.087	6747.55
436.294	6761.88
436.501	6688.15
436.708	6696.35
436.915	6882.71
437.122	7097.75
437.329	7241.11
437.537	7548.3
437.743	7691.66
437.95	7759.24
438.157	8304
438.364	8226.18
438.571	8293.76
438.778	8480.13
438.985	9102.71
439.192	8729.98
439.399	9092.47
439.606	8926.58
439.813	9446.77
440.02	9930.09
440.227	9811.31
440.433	9823.59
440.64	9901.42
440.847	9784.68
441.054	10216.8
441.261	10802.52
441.467	10610.01
441.674	10841.43
441.881	11113.81
442.088	11394.39
442.294	11308.37
442.501	11498.83
442.708	11656.53
442.914	12205.38
443.121	12758.33
443.328	12205.38
443.534	13219.13
443.741	12961.08
443.948	12713.28
444.154	13516.08
444.361	13559.09
444.568	13638.96
444.774	13772.08
444.981	13663.54
445.187	14200.1
445.394	14859.55
445.6	14628.13
445.807	16123.15
446.013	15469.84
446.22	15676.69
446.426	16389.38
446.633	16571.65
446.839	16948.48
447.046	16524.55
447.252	17151.23
447.459	17224.95
447.665	16944.38
447.871	18095.34
448.078	18662.63
448.284	17806.58
448.491	18334.95
448.697	18889.95
448.903	19260.63
449.11	19393.75
449.316	19135.71
449.522	19303.64
449.728	19850.45
449.935	20284.62
450.141	20174.03
450.347	20491.46
450.553	19948.75
450.76	20274.38
450.966	21091.52
451.172	20573.38
451.378	21333.18
451.584	20798.66
451.791	21210.3
451.997	21144.77
452.203	21490.87
452.409	21759.16
452.615	21623.99
452.821	20692.16
453.027	20804.8
453.233	21634.23
453.44	20665.54
453.646	21068.99
453.852	21054.65
454.058	21460.15
454.264	20493.51
454.47	21204.16
454.676	20821.19
454.882	21748.92
455.088	19600.6
455.294	20106.45
455.5	20139.21
455.705	20653.25
455.911	19588.31
456.117	19236.06
456.323	19016.93
456.529	18011.37
456.735	18787.55
456.941	18459.88
457.147	17814.77
457.352	17356.02
457.558	17061.12
457.764	17126.65
457.97	16954.62
458.176	16493.83
458.381	16633.09
458.587	15863.05
458.793	15981.84
458.999	14947.61
459.204	16069.9
459.41	15602.96
459.616	14714.14
459.821	14763.29
460.027	14486.82
460.233	14310.69
460.438	13636.91
460.644	13854
460.85	13110.58
461.055	13090.1
461.261	13051.19
461.466	12016.97
461.672	11597.14
461.878	12381.51
462.083	11599.18
462.289	11369.81
462.494	11306.32
462.7	10775.9
462.905	10538.34
463.111	10931.55
463.316	10839.39
463.522	10583.39
463.727	10896.73
463.932	10634.59
464.138	10540.38
464.343	10798.43
464.549	10401.12
464.754	10855.77
464.959	10698.08
465.165	10763.61
465.37	10147.17
465.575	9964.9
465.781	10249.57
465.986	10468.7
466.191	9966.95
466.397	9803.11
466.602	9295.22
466.807	9608.56
467.012	9663.85
467.218	9637.23
467.423	9762.16
467.628	9526.64
467.833	9872.75
468.038	9645.42
468.244	9479.54
468.449	9725.29
468.654	9495.92
468.859	9489.78
469.064	9397.62
469.269	8928.63
469.474	9096.57
