Data from USB4F104151__5__12-53-04-929.txt Node

Date: Fri Mar 14 12:53:04 EDT 2025
User: louis
Spectrometer: USB4F10415
Trigger mode: 4
Integration Time (sec): 1.000000E-2
Scans to average: 1
Electric dark correction enabled: true
Nonlinearity correction enabled: false
Boxcar width: 0
XAxis mode: Wavelengths
Number of Pixels in Spectrum: 3648
>>>>>Begin Spectral Data<<<<<
178.204	-41.13
178.424	-41.13
178.644	-41.13
178.864	-22.7
179.084	-139.43
179.304	-6.31
179.524	-16.55
179.744	-30.89
179.964	40.79
180.184	42.84
180.404	22.36
180.624	85.84
180.844	-18.6
181.064	-57.51
181.283	-22.7
181.503	-43.18
181.723	3.93
181.943	-6.31
182.163	-12.46
182.383	-10.41
182.602	77.65
182.822	5.97
183.042	26.45
183.262	-41.13
183.482	3.93
183.701	-0.17
183.921	-16.55
184.141	-4.27
184.361	-16.55
184.58	24.4
184.8	30.55
185.02	34.64
185.239	-18.6
185.459	8.02
185.679	-4.27
185.898	-59.56
186.118	-41.13
186.338	-32.94
186.557	-69.8
186.777	-45.23
186.997	-65.71
187.216	-18.6
187.436	-37.03
187.655	5.97
187.875	-32.94
188.095	8.02
188.314	18.26
188.534	1.88
188.753	1.88
188.973	-45.23
189.192	20.31
189.412	67.41
189.631	-14.51
189.851	1.88
190.07	1.88
190.29	8.02
190.509	44.88
190.729	-45.23
190.948	12.12
191.168	57.17
191.387	46.93
191.607	-32.94
191.826	12.12
192.045	57.17
192.265	-28.84
192.484	-0.17
192.704	14.17
192.923	-67.75
193.142	69.46
193.362	8.02
193.581	-6.31
193.8	65.36
194.02	-0.17
194.239	59.22
194.458	16.21
194.678	-26.79
194.897	-14.51
195.116	-112.81
195.335	46.93
195.555	42.84
195.774	-4.27
195.993	-77.99
196.212	8.02
196.432	-8.36
196.651	-20.65
196.87	-28.84
197.089	40.79
197.308	24.4
197.528	-10.41
197.747	1.88
197.966	3.93
198.185	102.23
198.404	24.4
198.623	-24.75
198.842	-39.08
199.062	-49.32
199.281	10.07
199.5	20.31
199.719	-0.17
199.938	-0.17
200.157	-14.51
200.376	-26.79
200.595	14.17
200.814	44.88
201.033	20.31
201.252	-12.46
201.471	1.88
201.69	-8.36
201.909	-12.46
202.128	-30.89
202.347	-0.17
202.566	-34.99
202.785	44.88
203.004	1.88
203.223	42.84
203.442	30.55
203.661	-12.46
203.879	-63.66
204.098	36.69
204.317	12.12
204.536	-39.08
204.755	-88.23
204.974	-63.66
205.193	22.36
205.411	-53.42
205.63	10.07
205.849	14.17
206.068	28.5
206.287	75.6
206.505	1.88
206.724	10.07
206.943	-47.27
207.162	-16.55
207.381	-10.41
207.599	26.45
207.818	-10.41
208.037	-61.61
208.255	46.93
208.474	-6.31
208.693	-57.51
208.911	10.07
209.13	-12.46
209.349	12.12
209.567	-28.84
209.786	14.17
210.005	40.79
210.223	-14.51
210.442	-39.08
210.661	-2.22
210.879	-61.61
211.098	18.26
211.316	24.4
211.535	-24.75
211.753	-18.6
211.972	5.97
212.191	-8.36
212.409	-10.41
212.628	22.36
212.846	24.4
213.065	5.97
213.283	28.5
213.502	-22.7
213.72	71.51
213.938	-32.94
214.157	20.31
214.375	-10.41
214.594	-12.46
214.812	-39.08
215.031	55.12
215.249	34.64
215.467	79.7
215.686	34.64
215.904	30.55
216.122	28.5
216.341	-4.27
216.559	22.36
216.778	20.31
216.996	32.6
217.214	3.93
217.432	-51.37
217.651	-73.9
217.869	14.17
218.087	-43.18
218.306	-14.51
218.524	28.5
218.742	-0.17
218.96	12.12
219.179	-34.99
219.397	-4.27
219.615	40.79
219.833	-39.08
220.051	-30.89
220.27	-34.99
220.488	48.98
220.706	30.55
220.924	5.97
221.142	30.55
221.36	-59.56
221.578	-32.94
221.796	-6.31
222.015	18.26
222.233	42.84
222.451	-14.51
222.669	-34.99
222.887	36.69
223.105	42.84
223.323	-41.13
223.541	32.6
223.759	8.02
223.977	-4.27
224.195	48.98
224.413	20.31
224.631	-20.65
224.849	26.45
225.067	73.56
225.285	-20.65
225.503	22.36
225.721	-18.6
225.939	1.88
226.157	-34.99
226.375	59.22
226.592	18.26
226.81	-2.22
227.028	-22.7
227.246	-4.27
227.464	30.55
227.682	18.26
227.9	24.4
228.117	44.88
228.335	53.08
228.553	-4.27
228.771	28.5
228.989	20.31
229.206	-22.7
229.424	-55.47
229.642	-10.41
229.86	36.69
230.077	40.79
230.295	44.88
230.513	75.6
230.731	42.84
230.948	38.74
231.166	67.41
231.384	63.32
231.601	-55.47
231.819	36.69
232.037	-59.56
232.254	-28.84
232.472	-12.46
232.689	16.21
232.907	38.74
233.125	24.4
233.342	55.12
233.56	32.6
233.777	12.12
233.995	-4.27
234.213	34.64
234.43	3.93
234.648	30.55
234.865	-22.7
235.083	-12.46
235.3	77.65
235.518	-8.36
235.735	44.88
235.953	-4.27
236.17	-41.13
236.388	51.03
236.605	-39.08
236.822	28.5
237.04	-32.94
237.257	22.36
237.475	-22.7
237.692	16.21
237.909	24.4
238.127	53.08
238.344	61.27
238.562	-37.03
238.779	34.64
238.996	36.69
239.214	-26.79
239.431	28.5
239.648	-61.61
239.865	10.07
240.083	63.32
240.3	14.17
240.517	26.45
240.735	-47.27
240.952	36.69
241.169	53.08
241.386	-18.6
241.603	30.55
241.821	-28.84
242.038	1.88
242.255	65.36
242.472	-0.17
242.689	42.84
242.907	-6.31
243.124	32.6
243.341	-71.85
243.558	3.93
243.775	-96.43
243.992	18.26
244.209	55.12
244.426	83.8
244.643	18.26
244.86	51.03
245.078	-0.17
245.295	5.97
245.512	55.12
245.729	-28.84
245.946	-6.31
246.163	34.64
246.38	16.21
246.597	10.07
246.814	3.93
247.031	26.45
247.248	-6.31
247.464	8.02
247.681	-8.36
247.898	-20.65
248.115	5.97
248.332	-49.32
248.549	-24.75
248.766	-10.41
248.983	42.84
249.2	-63.66
249.417	-32.94
249.633	44.88
249.85	24.4
250.067	-18.6
250.284	-14.51
250.501	1.88
250.717	63.32
250.934	-8.36
251.151	-10.41
251.368	-30.89
251.585	3.93
251.801	-61.61
252.018	-18.6
252.235	67.41
252.451	12.12
252.668	-2.22
252.885	-37.03
253.102	30.55
253.318	-28.84
253.535	-51.37
253.752	10.07
253.968	-6.31
254.185	20.31
254.401	-43.18
254.618	-2.22
254.835	-80.04
255.051	-0.17
255.268	1.88
255.484	-2.22
255.701	-6.31
255.917	-45.23
256.134	-65.71
256.351	-37.03
256.567	-16.55
256.784	20.31
257	16.21
257.217	-32.94
257.433	30.55
257.65	20.31
257.866	-32.94
258.082	-12.46
258.299	-18.6
258.515	26.45
258.732	-34.99
258.948	-26.79
259.165	-47.27
259.381	40.79
259.597	-10.41
259.814	-24.75
260.03	18.26
260.246	18.26
260.463	3.93
260.679	-67.75
260.895	-6.31
261.112	20.31
261.328	-28.84
261.544	-12.46
261.761	-34.99
261.977	26.45
262.193	22.36
262.409	-12.46
262.626	-20.65
262.842	36.69
263.058	20.31
263.274	46.93
263.49	44.88
263.707	-24.75
263.923	42.84
264.139	-18.6
264.355	28.5
264.571	51.03
264.787	-20.65
265.004	-12.46
265.22	-4.27
265.436	-37.03
265.652	18.26
265.868	34.64
266.084	18.26
266.3	-22.7
266.516	-20.65
266.732	10.07
266.948	87.89
267.164	91.99
267.38	83.8
267.596	-39.08
267.812	42.84
268.028	12.12
268.244	8.02
268.46	-10.41
268.676	75.6
268.892	-53.42
269.108	-10.41
269.324	-39.08
269.54	-65.71
269.756	51.03
269.972	-34.99
270.188	10.07
270.403	44.88
270.619	-53.42
270.835	51.03
271.051	34.64
271.267	48.98
271.483	12.12
271.698	40.79
271.914	-6.31
272.13	28.5
272.346	-4.27
272.562	75.6
272.777	-10.41
272.993	34.64
273.209	-39.08
273.425	-43.18
273.64	-51.37
273.856	-6.31
274.072	30.55
274.287	34.64
274.503	-59.56
274.719	67.41
274.934	51.03
275.15	44.88
275.366	18.26
275.581	-63.66
275.797	-2.22
276.012	-41.13
276.228	75.6
276.444	30.55
276.659	-18.6
276.875	22.36
277.09	-45.23
277.306	1.88
277.521	8.02
277.737	63.32
277.952	-45.23
278.168	8.02
278.383	34.64
278.599	-26.79
278.814	126.8
279.03	53.08
279.245	-26.79
279.461	1.88
279.676	42.84
279.892	-18.6
280.107	-0.17
280.322	8.02
280.538	22.36
280.753	-10.41
280.969	75.6
281.184	-10.41
281.399	59.22
281.615	-69.8
281.83	32.6
282.045	-30.89
282.26	61.27
282.476	-0.17
282.691	-26.79
282.906	-30.89
283.122	-10.41
283.337	20.31
283.552	3.93
283.767	-22.7
283.983	-24.75
284.198	-61.61
284.413	20.31
284.628	-73.9
284.843	30.55
285.058	10.07
285.274	-30.89
285.489	-39.08
285.704	104.28
285.919	1.88
286.134	28.5
286.349	32.6
286.564	30.55
286.779	53.08
286.995	-26.79
287.21	-10.41
287.425	59.22
287.64	-26.79
287.855	8.02
288.07	51.03
288.285	20.31
288.5	-32.94
288.715	85.84
288.93	59.22
289.145	-57.51
289.36	42.84
289.575	-8.36
289.79	22.36
290.004	12.12
290.219	12.12
290.434	51.03
290.649	18.26
290.864	53.08
291.079	-37.03
291.294	53.08
291.509	36.69
291.724	10.07
291.938	30.55
292.153	-110.76
292.368	42.84
292.583	18.26
292.798	-24.75
293.012	-47.27
293.227	-8.36
293.442	44.88
293.657	14.17
293.871	-32.94
294.086	42.84
294.301	36.69
294.516	40.79
294.73	69.46
294.945	-20.65
295.16	10.07
295.374	1.88
295.589	28.5
295.804	30.55
296.018	-37.03
296.233	69.46
296.447	55.12
296.662	46.93
296.877	20.31
297.091	-49.32
297.306	-2.22
297.52	-10.41
297.735	-2.22
297.949	12.12
298.164	-28.84
298.378	-10.41
298.593	73.56
298.807	26.45
299.022	8.02
299.236	55.12
299.451	-14.51
299.665	53.08
299.88	36.69
300.094	-53.42
300.309	40.79
300.523	24.4
300.737	26.45
300.952	53.08
301.166	85.84
301.381	-4.27
301.595	-45.23
301.809	46.93
302.024	5.97
302.238	34.64
302.452	-28.84
302.667	14.17
302.881	-8.36
303.095	42.84
303.309	44.88
303.524	12.12
303.738	22.36
303.952	-6.31
304.166	20.31
304.381	-2.22
304.595	71.51
304.809	-28.84
305.023	1.88
305.237	-34.99
305.452	48.98
305.666	-10.41
305.88	34.64
306.094	24.4
306.308	-0.17
306.522	83.8
306.736	61.27
306.95	61.27
307.164	46.93
307.379	-0.17
307.593	26.45
307.807	-4.27
308.021	51.03
308.235	-20.65
308.449	79.7
308.663	42.84
308.877	106.32
309.091	-75.95
309.305	59.22
309.519	-57.51
309.733	-41.13
309.947	-10.41
310.161	-6.31
310.374	44.88
310.588	30.55
310.802	24.4
311.016	-28.84
311.23	-6.31
311.444	-32.94
311.658	36.69
311.872	51.03
312.085	-30.89
312.299	75.6
312.513	16.21
312.727	10.07
312.941	59.22
313.154	40.79
313.368	14.17
313.582	-43.18
313.796	44.88
314.009	40.79
314.223	30.55
314.437	22.36
314.651	3.93
314.864	36.69
315.078	12.12
315.292	-49.32
315.505	61.27
315.719	91.99
315.933	-94.38
316.146	16.21
316.36	-47.27
316.573	-24.75
316.787	-22.7
317.001	32.6
317.214	-12.46
317.428	-43.18
317.641	-10.41
317.855	20.31
318.068	8.02
318.282	-37.03
318.495	-18.6
318.709	10.07
318.922	1.88
319.136	28.5
319.349	10.07
319.563	24.4
319.776	38.74
319.99	34.64
320.203	-22.7
320.417	79.7
320.63	12.12
320.843	28.5
321.057	-41.13
321.27	12.12
321.483	63.32
321.697	16.21
321.91	18.26
322.124	42.84
322.337	28.5
322.55	40.79
322.763	61.27
322.977	-14.51
323.19	8.02
323.403	-6.31
323.617	24.4
323.83	36.69
324.043	-8.36
324.256	28.5
324.469	-6.31
324.683	102.23
324.896	26.45
325.109	51.03
325.322	36.69
325.535	106.32
325.748	14.17
325.962	-26.79
326.175	-51.37
326.388	24.4
326.601	-6.31
326.814	30.55
327.027	24.4
327.24	36.69
327.453	12.12
327.666	44.88
327.879	53.08
328.092	83.8
328.305	61.27
328.518	5.97
328.731	-63.66
328.944	69.46
329.157	20.31
329.37	38.74
329.583	79.7
329.796	-8.36
330.009	-80.04
330.222	-28.84
330.435	8.02
330.648	38.74
330.861	-34.99
331.073	26.45
331.286	-47.27
331.499	106.32
331.712	22.36
331.925	30.55
332.138	-4.27
332.35	46.93
332.563	8.02
332.776	26.45
332.989	-6.31
333.202	53.08
333.414	-28.84
333.627	32.6
333.84	-47.27
334.053	-4.27
334.265	24.4
334.478	12.12
334.691	-4.27
334.903	44.88
335.116	28.5
335.329	-0.17
335.541	1.88
335.754	-0.17
335.966	-39.08
336.179	5.97
336.392	-45.23
336.604	53.08
336.817	-4.27
337.029	20.31
337.242	-6.31
337.454	-8.36
337.667	69.46
337.88	36.69
338.092	26.45
338.305	-26.79
338.517	75.6
338.729	44.88
338.942	14.17
339.154	22.36
339.367	12.12
339.579	-28.84
339.792	-55.47
340.004	-0.17
340.217	26.45
340.429	26.45
340.641	10.07
340.854	36.69
341.066	-2.22
341.278	-30.89
341.491	16.21
341.703	30.55
341.915	3.93
342.128	20.31
342.34	-20.65
342.552	20.31
342.764	-16.55
342.977	-10.41
343.189	-2.22
343.401	69.46
343.613	-20.65
343.826	61.27
344.038	-2.22
344.25	67.41
344.462	26.45
344.674	5.97
344.886	36.69
345.099	1.88
345.311	67.41
345.523	53.08
345.735	57.17
345.947	-26.79
346.159	38.74
346.371	10.07
346.583	-28.84
346.795	63.32
347.007	24.4
347.219	83.8
347.431	-24.75
347.643	57.17
347.855	12.12
348.067	79.7
348.279	22.36
348.491	1.88
348.703	-20.65
348.915	32.6
349.127	14.17
349.339	14.17
349.551	-10.41
349.763	55.12
349.975	-53.42
350.187	14.17
350.399	1.88
350.61	-0.17
350.822	55.12
351.034	46.93
351.246	20.31
351.458	8.02
351.669	65.36
351.881	91.99
352.093	46.93
352.305	46.93
352.517	24.4
352.728	48.98
352.94	89.94
353.152	51.03
353.363	32.6
353.575	69.46
353.787	14.17
353.999	24.4
354.21	28.5
354.422	-26.79
354.633	-32.94
354.845	85.84
355.057	10.07
355.268	-47.27
355.48	3.93
355.692	-26.79
355.903	87.89
356.115	24.4
356.326	3.93
356.538	-6.31
356.749	28.5
356.961	-8.36
357.172	30.55
357.384	36.69
357.595	28.5
357.807	51.03
358.018	34.64
358.23	69.46
358.441	-20.65
358.653	53.08
358.864	67.41
359.075	55.12
359.287	5.97
359.498	69.46
359.709	44.88
359.921	20.31
360.132	-30.89
360.344	38.74
360.555	-49.32
360.766	-18.6
360.977	44.88
361.189	-37.03
361.4	-18.6
361.611	34.64
361.823	-32.94
362.034	28.5
362.245	34.64
362.456	10.07
362.667	1.88
362.879	26.45
363.09	1.88
363.301	-2.22
363.512	34.64
363.723	36.69
363.935	24.4
364.146	40.79
364.357	28.5
364.568	-12.46
364.779	-6.31
364.99	12.12
365.201	-34.99
365.412	57.17
365.623	1.88
365.834	44.88
366.045	20.31
366.256	-4.27
366.467	-6.31
366.678	-30.89
366.889	-30.89
367.1	-10.41
367.311	-26.79
367.522	14.17
367.733	28.5
367.944	22.36
368.155	-24.75
368.366	1.88
368.577	-26.79
368.788	12.12
368.999	67.41
369.209	59.22
369.42	16.21
369.631	77.65
369.842	61.27
370.053	-2.22
370.264	-30.89
370.474	14.17
370.685	-0.17
370.896	48.98
371.107	34.64
371.317	-2.22
371.528	18.26
371.739	30.55
371.95	42.84
372.16	26.45
372.371	-4.27
372.582	10.07
372.792	20.31
373.003	-22.7
373.214	-53.42
373.424	53.08
373.635	-18.6
373.846	28.5
374.056	-47.27
374.267	87.89
374.477	-30.89
374.688	-47.27
374.898	3.93
375.109	24.4
375.319	-30.89
375.53	-6.31
375.74	63.32
375.951	77.65
376.161	-8.36
376.372	85.84
376.582	24.4
376.793	8.02
377.003	48.98
377.214	-30.89
377.424	10.07
377.635	30.55
377.845	18.26
378.055	108.37
378.266	-8.36
378.476	48.98
378.686	16.21
378.897	8.02
379.107	61.27
379.317	-24.75
379.528	51.03
379.738	100.18
379.948	14.17
380.158	20.31
380.369	-26.79
380.579	18.26
380.789	18.26
380.999	3.93
381.21	-28.84
381.42	42.84
381.63	1.88
381.84	-6.31
382.05	65.36
382.261	48.98
382.471	46.93
382.681	-20.65
382.891	1.88
383.101	55.12
383.311	65.36
383.521	22.36
383.731	42.84
383.941	-6.31
384.151	34.64
384.361	12.12
384.571	36.69
384.781	73.56
384.991	53.08
385.201	32.6
385.411	10.07
385.621	10.07
385.831	34.64
386.041	38.74
386.251	-43.18
386.461	85.84
386.671	94.04
386.881	10.07
387.091	53.08
387.301	61.27
387.511	18.26
387.72	-2.22
387.93	-4.27
388.14	81.75
388.35	22.36
388.56	-12.46
388.769	71.51
388.979	102.23
389.189	30.55
389.399	30.55
389.609	38.74
389.818	63.32
390.028	18.26
390.238	-18.6
390.447	44.88
390.657	10.07
390.867	96.08
391.076	48.98
391.286	-4.27
391.496	53.08
391.705	-69.8
391.915	67.41
392.125	120.66
392.334	59.22
392.544	28.5
392.753	10.07
392.963	81.75
393.172	65.36
393.382	-4.27
393.591	75.6
393.801	-2.22
394.01	42.84
394.22	77.65
394.429	40.79
394.639	18.26
394.848	55.12
395.058	34.64
395.267	100.18
395.477	73.56
395.686	1.88
395.895	112.47
396.105	38.74
396.314	108.37
396.524	55.12
396.733	96.08
396.942	38.74
397.152	30.55
397.361	73.56
397.57	65.36
397.78	22.36
397.989	40.79
398.198	94.04
398.407	16.21
398.617	79.7
398.826	87.89
399.035	98.13
399.244	48.98
399.453	30.55
399.663	114.52
399.872	112.47
400.081	-2.22
400.29	55.12
400.499	73.56
400.708	114.52
400.917	30.55
401.127	53.08
401.336	110.42
401.545	24.4
401.754	53.08
401.963	94.04
402.172	77.65
402.381	42.84
402.59	-10.41
402.799	34.64
403.008	53.08
403.217	16.21
403.426	102.23
403.635	65.36
403.844	18.26
404.053	48.98
404.262	48.98
404.471	87.89
404.68	128.85
404.888	87.89
405.097	61.27
405.306	137.04
405.515	155.47
405.724	69.46
405.933	126.8
406.142	98.13
406.35	98.13
406.559	81.75
406.768	141.14
406.977	73.56
407.185	163.67
407.394	116.56
407.603	118.61
407.812	126.8
408.02	147.28
408.229	130.9
408.438	167.76
408.646	112.47
408.855	245.59
409.064	108.37
409.272	118.61
409.481	214.87
409.69	212.82
409.898	190.29
410.107	116.56
410.315	221.01
410.524	214.87
410.733	257.87
410.941	229.2
411.15	257.87
411.358	298.83
411.567	311.12
411.775	268.11
411.984	296.78
412.192	239.44
412.401	294.74
412.609	329.55
412.818	317.26
413.026	282.45
413.234	368.46
413.443	292.69
413.651	395.09
413.86	362.32
414.068	333.65
414.276	364.37
414.485	448.33
414.693	393.04
414.901	405.33
415.11	452.43
415.318	487.25
415.526	522.06
415.734	603.98
415.943	460.62
416.151	481.1
416.359	460.62
416.567	577.36
416.776	511.82
416.984	626.51
417.192	563.02
417.4	603.98
417.608	718.67
417.817	704.33
418.025	730.95
418.233	735.05
418.441	800.59
418.649	784.2
418.857	816.97
419.065	841.54
419.273	886.6
419.481	931.66
419.689	972.61
419.897	1025.86
420.105	1013.57
420.313	1079.11
420.521	1113.92
420.729	1183.56
420.937	1187.65
421.145	1171.27
421.353	1183.56
421.561	1271.62
421.769	1308.48
421.977	1394.5
422.185	1431.36
422.393	1503.04
422.601	1468.22
422.809	1507.13
423.017	1615.68
423.224	1603.39
423.432	1595.2
423.64	1779.51
423.848	1816.38
424.056	1836.86
424.263	1898.3
424.471	2074.42
424.679	2012.98
424.887	2090.81
425.094	2117.43
425.302	2275.12
425.51	2174.77
425.718	2369.33
425.925	2301.75
426.133	2510.64
426.341	2504.5
426.548	2668.33
426.756	2631.47
426.964	2641.71
427.171	2932.52
427.379	2852.65
427.586	2973.48
427.794	2979.62
428.001	3153.7
428.209	3254.05
428.417	3327.78
428.624	3532.58
428.832	3426.08
429.039	3493.66
429.247	3434.27
429.454	3938.07
429.662	4110.1
429.869	3854.11
430.076	4069.14
430.284	4187.93
430.491	4224.79
430.699	4407.06
430.906	4427.54
431.114	4574.99
431.321	4886.28
431.528	4716.3
431.736	5123.85
431.943	5209.86
432.15	5166.85
432.358	5390.08
432.565	5408.51
432.772	5584.64
432.979	5719.81
433.187	5807.87
433.394	5883.64
433.601	6313.72
433.808	6348.53
434.016	6434.55
434.223	6438.64
434.43	6950.64
434.637	6860.52
434.844	7468.77
435.052	7442.15
435.259	7487.2
435.466	7339.75
435.673	7380.71
435.88	7845.6
436.087	8312.53
436.294	8214.23
436.501	8163.03
436.708	8271.58
436.915	8457.94
437.122	8939.21
437.329	8849.1
437.537	9246.41
437.743	9293.51
437.95	9279.18
438.157	9899.71
438.364	9985.72
438.571	10004.16
438.778	10346.17
438.985	11171.5
439.192	10694.32
439.399	10956.46
439.606	10907.31
439.813	11337.38
440.02	12101.28
440.227	11984.54
440.433	11681.44
440.64	11939.49
440.847	12056.22
441.054	12494.49
441.261	12955.28
441.467	12994.19
441.674	13430.41
441.881	13700.74
442.088	13647.49
442.294	13588.1
442.501	13905.54
442.708	14388.86
442.914	14767.73
443.121	15687.27
443.328	15033.97
443.534	15945.31
443.741	15658.6
443.948	15531.62
444.154	16651.86
444.361	16281.18
444.568	16815.7
444.774	16725.59
444.981	16631.38
445.187	17765.96
445.394	17864.26
445.6	18042.43
445.807	19660.33
446.013	18572.86
446.22	19117.62
446.426	19787.3
446.633	20104.74
446.839	20469.28
447.046	19926.57
447.252	20991.51
447.459	21149.2
447.665	20946.45
447.871	21792.26
448.078	22912.5
448.284	21802.5
448.491	22226.43
448.697	23031.29
448.903	23680.49
449.11	23725.55
449.316	23309.81
449.522	23739.88
449.728	24278.5
449.935	24348.13
450.141	24665.56
450.347	25099.73
450.553	24315.36
450.76	24739.29
450.966	25552.34
451.172	25263.57
451.378	25916.87
451.584	25232.85
451.791	25933.26
451.997	25845.19
452.203	26217.93
452.409	26121.67
452.615	26205.64
452.821	25318.87
453.027	24698.33
453.233	26516.93
453.44	25515.47
453.646	25396.69
453.852	25742.8
454.058	25974.22
454.264	25058.77
454.47	25759.18
454.676	25114.07
454.882	26228.17
455.088	23913.96
455.294	23997.93
455.5	24831.45
455.705	24974.81
455.911	23983.59
456.117	23485.93
456.323	22865.4
456.529	21757.45
456.735	22756.86
456.941	22324.74
457.147	22124.04
457.352	21071.38
457.558	20995.6
457.764	21036.56
457.97	20635.16
458.176	20149.79
458.381	20125.22
458.587	19322.41
458.793	19252.78
458.999	18343.49
459.204	19394.09
459.41	19422.76
459.616	17745.48
459.821	17790.53
460.027	18026.05
460.233	17333.84
460.438	16584.28
460.644	17112.66
460.85	15881.83
461.055	15750.76
461.261	15863.4
461.466	14728.82
461.672	14188.16
461.878	15298.16
462.083	14282.36
462.289	13794.95
462.494	13788.8
462.7	13289.1
462.905	12891.79
463.111	13463.18
463.316	13254.28
463.522	13076.11
463.727	13127.31
463.932	13024.91
464.138	12793.49
464.343	13137.55
464.549	12746.39
464.754	13004.43
464.959	12918.42
465.165	12861.07
465.37	12351.13
465.575	12191.39
465.781	12643.99
465.986	12557.97
466.191	12074.65
466.397	12199.58
466.602	11386.54
466.807	11728.55
467.012	11931.3
467.218	11798.18
