Data from USB4F104151__46__13-05-22-684.txt Node

Date: Fri Mar 14 13:05:22 EDT 2025
User: louis
Spectrometer: USB4F10415
Trigger mode: 4
Integration Time (sec): 4.000000E-2
Scans to average: 1
Electric dark correction enabled: true
Nonlinearity correction enabled: false
Boxcar width: 0
XAxis mode: Wavelengths
Number of Pixels in Spectrum: 3648
>>>>>Begin Spectral Data<<<<<
178.204	-164.86
178.424	-164.86
178.644	-164.86
178.864	-191.49
179.084	-236.54
179.304	-54.27
179.524	-48.13
179.744	-19.46
179.964	46.08
180.184	-25.6
180.404	1.02
180.624	58.37
180.844	64.51
181.064	-5.12
181.283	-64.51
181.503	27.65
181.723	19.46
181.943	-11.26
182.163	91.13
182.383	-1.02
182.602	91.13
182.822	103.42
183.042	58.37
183.262	17.41
183.482	-1.02
183.701	33.79
183.921	60.42
184.141	31.74
184.361	50.18
184.58	17.41
184.8	33.79
185.02	54.27
185.239	152.57
185.459	44.03
185.679	13.31
185.898	-37.89
186.118	66.56
186.338	64.51
186.557	27.65
186.777	11.26
186.997	-37.89
187.216	29.7
187.436	134.14
187.655	105.47
187.875	50.18
188.095	27.65
188.314	72.7
188.534	95.23
188.753	44.03
188.973	62.46
189.192	142.33
189.412	66.56
189.631	62.46
189.851	21.5
190.07	138.24
190.29	54.27
190.509	72.7
190.729	52.22
190.948	50.18
191.168	214.01
191.387	60.42
191.607	1.02
191.826	97.28
192.045	64.51
192.265	82.94
192.484	64.51
192.704	-3.07
192.923	54.27
193.142	187.39
193.362	99.33
193.581	119.81
193.8	41.98
194.02	44.03
194.239	111.61
194.458	64.51
194.678	48.13
194.897	17.41
195.116	9.22
195.335	48.13
195.555	54.27
195.774	-7.17
195.993	89.09
196.212	21.5
196.432	58.37
196.651	58.37
196.87	21.5
197.089	191.49
197.308	31.74
197.528	21.5
197.747	19.46
197.966	25.6
198.185	179.2
198.404	9.22
198.623	76.8
198.842	48.13
199.062	54.27
199.281	58.37
199.5	66.56
199.719	72.7
199.938	62.46
200.157	74.75
200.376	33.79
200.595	140.29
200.814	89.09
201.033	44.03
201.252	130.05
201.471	50.18
201.69	89.09
201.909	27.65
202.128	105.47
202.347	109.57
202.566	-1.02
202.785	7.17
203.004	-15.36
203.223	181.25
203.442	33.79
203.661	31.74
203.879	62.46
204.098	60.42
204.317	66.56
204.536	89.09
204.755	82.94
204.974	31.74
205.193	48.13
205.411	142.33
205.63	50.18
205.849	58.37
206.068	7.17
206.287	11.26
206.505	56.32
206.724	9.22
206.943	46.08
207.162	3.07
207.381	80.89
207.599	37.89
207.818	72.7
208.037	44.03
208.255	29.7
208.474	56.32
208.693	46.08
208.911	-5.12
209.13	-1.02
209.349	52.22
209.567	89.09
209.786	93.18
210.005	113.66
210.223	54.27
210.442	41.98
210.661	95.23
210.879	29.7
211.098	46.08
211.316	101.37
211.535	64.51
211.753	5.12
211.972	58.37
212.191	-27.65
212.409	-41.98
212.628	-37.89
212.846	-27.65
213.065	62.46
213.283	68.61
213.502	-39.94
213.72	37.89
213.938	82.94
214.157	7.17
214.375	39.94
214.594	1.02
214.812	52.22
215.031	84.99
215.249	37.89
215.467	44.03
215.686	68.61
215.904	78.85
216.122	58.37
216.341	136.19
216.559	82.94
216.778	113.66
216.996	146.43
217.214	7.17
217.432	-9.22
217.651	-7.17
217.869	39.94
218.087	76.8
218.306	31.74
218.524	-27.65
218.742	-46.08
218.96	23.55
219.179	48.13
219.397	82.94
219.615	68.61
219.833	41.98
220.051	23.55
220.27	134.14
220.488	7.17
220.706	111.61
220.924	35.84
221.142	9.22
221.36	101.37
221.578	99.33
221.796	-23.55
222.015	109.57
222.233	87.04
222.451	52.22
222.669	-25.6
222.887	15.36
223.105	62.46
223.323	41.98
223.541	25.6
223.759	121.85
223.977	-31.74
224.195	82.94
224.413	56.32
224.631	62.46
224.849	-5.12
225.067	160.77
225.285	13.31
225.503	33.79
225.721	74.75
225.939	125.95
226.157	13.31
226.375	97.28
226.592	23.55
226.81	37.89
227.028	107.52
227.246	70.65
227.464	17.41
227.682	9.22
227.9	-1.02
228.117	33.79
228.335	19.46
228.553	7.17
228.771	5.12
228.989	64.51
229.206	64.51
229.424	48.13
229.642	11.26
229.86	-29.7
230.077	70.65
230.295	46.08
230.513	138.24
230.731	33.79
230.948	13.31
231.166	140.29
231.384	50.18
231.601	5.12
231.819	78.85
232.037	41.98
232.254	-17.41
232.472	39.94
232.689	39.94
232.907	99.33
233.125	-21.5
233.342	60.42
233.56	1.02
233.777	-21.5
233.995	27.65
234.213	107.52
234.43	97.28
234.648	-46.08
234.865	60.42
235.083	68.61
235.3	1.02
235.518	-5.12
235.735	125.95
235.953	101.37
236.17	-23.55
236.388	27.65
236.605	-21.5
236.822	123.9
237.04	64.51
237.257	97.28
237.475	1.02
237.692	89.09
237.909	89.09
238.127	35.84
238.344	23.55
238.562	72.7
238.779	13.31
238.996	19.46
239.214	-39.94
239.431	-1.02
239.648	33.79
239.865	80.89
240.083	101.37
240.3	33.79
240.517	35.84
240.735	52.22
240.952	74.75
241.169	89.09
241.386	27.65
241.603	31.74
241.821	3.07
242.038	56.32
242.255	95.23
242.472	-41.98
242.689	78.85
242.907	89.09
243.124	66.56
243.341	15.36
243.558	27.65
243.775	-23.55
243.992	-1.02
244.209	50.18
244.426	185.34
244.643	48.13
244.86	52.22
245.078	123.9
245.295	117.76
245.512	72.7
245.729	-15.36
245.946	60.42
246.163	41.98
246.38	84.99
246.597	56.32
246.814	64.51
247.031	64.51
247.248	-7.17
247.464	91.13
247.681	76.8
247.898	11.26
248.115	33.79
248.332	-5.12
248.549	84.99
248.766	132.09
248.983	1.02
249.2	11.26
249.417	103.42
249.633	80.89
249.85	33.79
250.067	78.85
250.284	25.6
250.501	101.37
250.717	99.33
250.934	13.31
251.151	-21.5
251.368	17.41
251.585	58.37
251.801	109.57
252.018	9.22
252.235	89.09
252.451	-13.31
252.668	33.79
252.885	125.95
253.102	60.42
253.318	82.94
253.535	76.8
253.752	3.07
253.968	-21.5
254.185	9.22
254.401	48.13
254.618	95.23
254.835	54.27
255.051	97.28
255.268	35.84
255.484	64.51
255.701	97.28
255.917	39.94
256.134	25.6
256.351	35.84
256.567	9.22
256.784	68.61
257	35.84
257.217	50.18
257.433	80.89
257.65	15.36
257.866	113.66
258.082	62.46
258.299	33.79
258.515	74.75
258.732	-19.46
258.948	-17.41
259.165	50.18
259.381	56.32
259.597	37.89
259.814	52.22
260.03	7.17
260.246	68.61
260.463	158.72
260.679	74.75
260.895	82.94
261.112	50.18
261.328	-21.5
261.544	-25.6
261.761	115.71
261.977	9.22
262.193	-23.55
262.409	9.22
262.626	35.84
262.842	109.57
263.058	25.6
263.274	113.66
263.49	68.61
263.707	107.52
263.923	-15.36
264.139	5.12
264.355	60.42
264.571	82.94
264.787	72.7
265.004	93.18
265.22	82.94
265.436	82.94
265.652	23.55
265.868	39.94
266.084	-41.98
266.3	5.12
266.516	-19.46
266.732	115.71
266.948	23.55
267.164	84.99
267.38	70.65
267.596	21.5
267.812	84.99
268.028	140.29
268.244	11.26
268.46	44.03
268.676	121.85
268.892	52.22
269.108	-74.75
269.324	41.98
269.54	-25.6
269.756	37.89
269.972	50.18
270.188	44.03
270.403	-17.41
270.619	44.03
270.835	50.18
271.051	99.33
271.267	-17.41
271.483	52.22
271.698	113.66
271.914	93.18
272.13	15.36
272.346	109.57
272.562	87.04
272.777	44.03
272.993	13.31
273.209	39.94
273.425	95.23
273.64	3.07
273.856	48.13
274.072	107.52
274.287	60.42
274.503	56.32
274.719	-74.75
274.934	54.27
275.15	-5.12
275.366	-17.41
275.581	31.74
275.797	76.8
276.012	99.33
276.228	-25.6
276.444	46.08
276.659	23.55
276.875	27.65
277.09	-68.61
277.306	76.8
277.521	31.74
277.737	58.37
277.952	66.56
278.168	72.7
278.383	113.66
278.599	58.37
278.814	72.7
279.03	29.7
279.245	95.23
279.461	33.79
279.676	107.52
279.892	33.79
280.107	39.94
280.322	-48.13
280.538	-9.22
280.753	-17.41
280.969	103.42
281.184	9.22
281.399	91.13
281.615	9.22
281.83	9.22
282.045	66.56
282.26	113.66
282.476	60.42
282.691	76.8
282.906	3.07
283.122	54.27
283.337	60.42
283.552	15.36
283.767	-3.07
283.983	19.46
284.198	1.02
284.413	68.61
284.628	-46.08
284.843	-7.17
285.058	50.18
285.274	56.32
285.489	1.02
285.704	39.94
285.919	56.32
286.134	56.32
286.349	50.18
286.564	44.03
286.779	70.65
286.995	27.65
287.21	17.41
287.425	97.28
287.64	46.08
287.855	23.55
288.07	-39.94
288.285	58.37
288.5	113.66
288.715	64.51
288.93	62.46
289.145	-15.36
289.36	25.6
289.575	15.36
289.79	68.61
290.004	-31.74
290.219	39.94
290.434	46.08
290.649	-35.84
290.864	-48.13
291.079	-25.6
291.294	31.74
291.509	52.22
291.724	93.18
291.938	-25.6
292.153	11.26
292.368	62.46
292.583	17.41
292.798	56.32
293.012	41.98
293.227	107.52
293.442	-29.7
293.657	125.95
293.871	101.37
294.086	89.09
294.301	203.77
294.516	44.03
294.73	58.37
294.945	7.17
295.16	101.37
295.374	164.86
295.589	62.46
295.804	64.51
296.018	64.51
296.233	113.66
296.447	58.37
296.662	5.12
296.877	74.75
297.091	113.66
297.306	80.89
297.52	-5.12
297.735	48.13
297.949	97.28
298.164	-17.41
298.378	74.75
298.593	50.18
298.807	54.27
299.022	19.46
299.236	121.85
299.451	-3.07
299.665	52.22
299.88	44.03
300.094	58.37
300.309	58.37
300.523	50.18
300.737	62.46
300.952	89.09
301.166	23.55
301.381	33.79
301.595	58.37
301.809	113.66
302.024	-9.22
302.238	-29.7
302.452	82.94
302.667	95.23
302.881	62.46
303.095	74.75
303.309	-27.65
303.524	7.17
303.738	21.5
303.952	11.26
304.166	44.03
304.381	-66.56
304.595	138.24
304.809	35.84
305.023	60.42
305.237	31.74
305.452	1.02
305.666	56.32
305.88	56.32
306.094	99.33
306.308	74.75
306.522	103.42
306.736	97.28
306.95	111.61
307.164	31.74
307.379	7.17
307.593	93.18
307.807	87.04
308.021	-1.02
308.235	80.89
308.449	-31.74
308.663	19.46
308.877	136.19
309.091	111.61
309.305	52.22
309.519	29.7
309.733	82.94
309.947	-70.65
310.161	128
310.374	95.23
310.588	113.66
310.802	-60.42
311.016	25.6
311.23	50.18
311.444	39.94
311.658	3.07
311.872	89.09
312.085	7.17
312.299	52.22
312.513	37.89
312.727	93.18
312.941	-48.13
313.154	109.57
313.368	72.7
313.582	54.27
313.796	23.55
314.009	15.36
314.223	107.52
314.437	39.94
314.651	84.99
314.864	41.98
315.078	13.31
315.292	31.74
315.505	78.85
315.719	134.14
315.933	64.51
316.146	39.94
316.36	-17.41
316.573	152.57
316.787	46.08
317.001	64.51
317.214	-21.5
317.428	35.84
317.641	82.94
317.855	50.18
318.068	-11.26
318.282	62.46
318.495	146.43
318.709	39.94
318.922	60.42
319.136	82.94
319.349	162.81
319.563	33.79
319.776	35.84
319.99	41.98
320.203	44.03
320.417	66.56
320.63	58.37
320.843	224.25
321.057	72.7
321.27	39.94
321.483	46.08
321.697	56.32
321.91	46.08
322.124	121.85
322.337	31.74
322.55	33.79
322.763	111.61
322.977	15.36
323.19	41.98
323.403	76.8
323.617	107.52
323.83	97.28
324.043	7.17
324.256	68.61
324.469	-54.27
324.683	23.55
324.896	39.94
325.109	80.89
325.322	-33.79
325.535	48.13
325.748	39.94
325.962	11.26
326.175	17.41
326.388	109.57
326.601	68.61
326.814	97.28
327.027	50.18
327.24	175.1
327.453	-89.09
327.666	17.41
327.879	82.94
328.092	111.61
328.305	105.47
328.518	76.8
328.731	48.13
328.944	82.94
329.157	97.28
329.37	-25.6
329.583	99.33
329.796	146.43
330.009	-7.17
330.222	50.18
330.435	52.22
330.648	33.79
330.861	-21.5
331.073	87.04
331.286	101.37
331.499	62.46
331.712	60.42
331.925	68.61
332.138	66.56
332.35	66.56
332.563	-17.41
332.776	123.9
332.989	21.5
333.202	97.28
333.414	58.37
333.627	64.51
333.84	39.94
334.053	74.75
334.265	93.18
334.478	7.17
334.691	46.08
334.903	101.37
335.116	48.13
335.329	68.61
335.541	15.36
335.754	91.13
335.966	44.03
336.179	31.74
336.392	87.04
336.604	80.89
336.817	29.7
337.029	80.89
337.242	80.89
337.454	113.66
337.667	56.32
337.88	105.47
338.092	97.28
338.305	62.46
338.517	48.13
338.729	54.27
338.942	150.53
339.154	-31.74
339.367	5.12
339.579	58.37
339.792	-9.22
340.004	27.65
340.217	-31.74
340.429	99.33
340.641	33.79
340.854	3.07
341.066	56.32
341.278	35.84
341.491	50.18
341.703	29.7
341.915	21.5
342.128	68.61
342.34	39.94
342.552	7.17
342.764	56.32
342.977	27.65
343.189	109.57
343.401	31.74
343.613	25.6
343.826	64.51
344.038	-89.09
344.25	62.46
344.462	39.94
344.674	-41.98
344.886	97.28
345.099	5.12
345.311	103.42
345.523	111.61
345.735	-15.36
345.947	64.51
346.159	121.85
346.371	93.18
346.583	117.76
346.795	154.62
347.007	58.37
347.219	82.94
347.431	39.94
347.643	97.28
347.855	15.36
348.067	87.04
348.279	7.17
348.491	72.7
348.703	33.79
348.915	89.09
349.127	21.5
349.339	-25.6
349.551	-11.26
349.763	109.57
349.975	44.03
350.187	72.7
350.399	134.14
350.61	72.7
350.822	111.61
351.034	31.74
351.246	-9.22
351.458	70.65
351.669	101.37
351.881	35.84
352.093	103.42
352.305	125.95
352.517	5.12
352.728	111.61
352.94	109.57
353.152	-41.98
353.363	54.27
353.575	113.66
353.787	181.25
353.999	44.03
354.21	132.09
354.422	95.23
354.633	48.13
354.845	66.56
355.057	11.26
355.268	48.13
355.48	115.71
355.692	-115.71
355.903	109.57
356.115	37.89
356.326	-21.5
356.538	107.52
356.749	154.62
356.961	56.32
357.172	48.13
357.384	29.7
357.595	101.37
357.807	3.07
358.018	-48.13
358.23	48.13
358.441	111.61
358.653	50.18
358.864	78.85
359.075	15.36
359.287	154.62
359.498	82.94
359.709	33.79
359.921	105.47
360.132	93.18
360.344	52.22
360.555	74.75
360.766	140.29
360.977	84.99
361.189	82.94
361.4	19.46
361.611	154.62
361.823	58.37
362.034	146.43
362.245	11.26
362.456	48.13
362.667	97.28
362.879	35.84
363.09	97.28
363.301	74.75
363.512	68.61
363.723	1.02
363.935	31.74
364.146	117.76
364.357	-21.5
364.568	15.36
364.779	80.89
364.99	136.19
365.201	13.31
365.412	123.9
365.623	7.17
365.834	105.47
366.045	33.79
366.256	89.09
366.467	130.05
366.678	13.31
366.889	48.13
367.1	68.61
367.311	58.37
367.522	62.46
367.733	87.04
367.944	78.85
368.155	29.7
368.366	74.75
368.577	29.7
368.788	56.32
368.999	80.89
369.209	113.66
369.42	134.14
369.631	171.01
369.842	-25.6
370.053	41.98
370.264	27.65
370.474	23.55
370.685	128
370.896	91.13
371.107	74.75
371.317	64.51
371.528	97.28
371.739	123.9
371.95	105.47
372.16	97.28
372.371	29.7
372.582	23.55
372.792	93.18
373.003	80.89
373.214	80.89
373.424	72.7
373.635	-48.13
373.846	66.56
374.056	25.6
374.267	58.37
374.477	82.94
374.688	91.13
374.898	132.09
375.109	54.27
375.319	99.33
375.53	74.75
375.74	27.65
375.951	1.02
376.161	21.5
376.372	97.28
376.582	78.85
376.793	156.67
377.003	27.65
377.214	89.09
377.424	74.75
377.635	25.6
377.845	58.37
378.055	93.18
378.266	23.55
378.476	64.51
378.686	107.52
378.897	109.57
379.107	56.32
379.317	52.22
379.528	48.13
379.738	64.51
379.948	64.51
380.158	64.51
380.369	-1.02
380.579	33.79
380.789	111.61
380.999	95.23
381.21	82.94
381.42	89.09
381.63	66.56
381.84	119.81
382.05	105.47
382.261	64.51
382.471	119.81
382.681	29.7
382.891	121.85
383.101	146.43
383.311	35.84
383.521	39.94
383.731	48.13
383.941	121.85
384.151	95.23
384.361	107.52
384.571	50.18
384.781	13.31
384.991	123.9
385.201	138.24
385.411	50.18
385.621	107.52
385.831	58.37
386.041	105.47
386.251	97.28
386.461	138.24
386.671	-13.31
386.881	60.42
387.091	89.09
387.301	123.9
387.511	123.9
387.72	121.85
387.93	89.09
388.14	-13.31
388.35	97.28
388.56	66.56
388.769	123.9
388.979	115.71
389.189	76.8
389.399	103.42
389.609	58.37
389.818	105.47
390.028	46.08
390.238	173.05
390.447	5.12
390.657	144.38
390.867	130.05
391.076	64.51
391.286	66.56
391.496	-9.22
391.705	64.51
391.915	109.57
392.125	19.46
392.334	48.13
392.544	84.99
392.753	74.75
392.963	3.07
393.172	80.89
393.382	-35.84
393.591	117.76
393.801	105.47
394.01	107.52
394.22	109.57
394.429	37.89
394.639	68.61
394.848	89.09
395.058	152.57
395.267	68.61
395.477	132.09
395.686	138.24
395.895	160.77
396.105	216.06
396.314	82.94
396.524	107.52
396.733	115.71
396.942	150.53
397.152	48.13
397.361	72.7
397.57	136.19
397.78	74.75
397.989	91.13
398.198	109.57
398.407	125.95
398.617	125.95
398.826	121.85
399.035	107.52
399.244	89.09
399.453	142.33
399.663	58.37
399.872	103.42
400.081	111.61
400.29	136.19
400.499	84.99
400.708	142.33
400.917	113.66
401.127	23.55
401.336	117.76
401.545	171.01
401.754	150.53
401.963	181.25
402.172	84.99
402.381	91.13
402.59	66.56
402.799	109.57
403.008	168.96
403.217	162.81
403.426	84.99
403.635	99.33
403.844	101.37
404.053	132.09
404.262	115.71
404.471	207.87
404.68	162.81
404.888	142.33
405.097	66.56
405.306	132.09
405.515	175.1
405.724	183.29
405.933	162.81
406.142	218.11
406.35	211.96
406.559	177.15
406.768	175.1
406.977	261.12
407.185	191.49
407.394	293.88
407.603	197.63
407.812	236.54
408.02	248.83
408.229	216.06
408.438	181.25
408.646	105.47
408.855	111.61
409.064	230.4
409.272	283.64
409.481	304.12
409.69	252.92
409.898	179.2
410.107	353.27
410.315	355.32
410.524	265.21
410.733	306.17
410.941	410.62
411.15	363.51
411.358	314.36
411.567	361.47
411.775	400.38
411.984	336.89
412.192	414.71
412.401	394.23
412.609	365.56
412.818	508.92
413.026	482.3
413.234	435.19
413.443	537.59
413.651	490.49
413.86	400.38
414.068	539.64
414.276	629.75
414.485	535.54
414.693	537.59
414.901	635.89
415.11	687.09
415.318	668.66
415.526	678.9
415.734	726
415.943	812.02
416.151	719.86
416.359	726
416.567	805.88
416.776	812.02
416.984	822.26
417.192	855.03
417.4	906.23
417.608	850.93
417.817	850.93
418.025	963.57
418.233	1141.74
418.441	990.19
418.649	1014.77
418.857	1137.65
419.065	1178.61
419.273	1088.5
419.481	1225.71
419.689	1256.43
419.897	1278.96
420.105	1213.42
420.313	1383.4
420.521	1455.08
420.729	1371.12
420.937	1420.27
421.145	1524.71
421.353	1567.72
421.561	1739.75
421.769	1653.73
421.977	1756.13
422.185	1696.74
422.393	1870.82
422.601	1942.5
422.809	1942.5
423.017	1989.6
423.224	2034.66
423.432	2200.54
423.64	2182.11
423.848	2413.53
424.056	2259.93
424.263	2417.63
424.471	2415.58
424.679	2524.12
424.887	2474.97
425.094	2745.3
425.302	2655.19
425.51	2868.18
425.718	2831.32
425.925	2939.86
426.133	3154.9
426.341	3408.84
426.548	3392.46
426.756	3455.95
426.964	3412.94
427.171	3519.43
427.379	3701.7
427.586	3687.37
427.794	3910.6
428.001	4121.54
428.209	4225.98
428.417	4199.36
428.624	4533.18
428.832	4541.37
429.039	4479.93
429.247	4375.49
429.454	4862.9
429.662	5217.2
429.869	4834.23
430.076	5192.62
430.284	5168.05
430.491	5239.73
430.699	5530.54
430.906	5489.58
431.114	5696.43
431.321	5815.21
431.528	6106.02
431.736	6286.24
431.943	6622.11
432.15	6437.79
432.358	6405.02
432.565	6841.24
432.772	6802.33
432.979	7349.14
433.187	7197.59
433.394	7455.63
433.601	7936.9
433.808	7840.65
434.016	8010.63
434.223	8072.07
434.43	8733.56
434.637	8512.38
434.844	8864.63
435.052	9243.51
435.259	9094.01
435.466	9268.08
435.673	9079.67
435.88	9724.78
436.087	10320.74
436.294	10247.01
436.501	9907.05
436.708	10322.79
436.915	10713.95
437.122	10978.14
437.329	11184.98
437.537	11447.12
437.743	11631.44
437.95	11559.76
438.157	12127.05
438.364	12366.66
438.571	12397.38
438.778	12419.91
438.985	13843.24
439.192	13142.84
439.399	13544.24
439.606	13359.92
439.813	14164.78
440.02	14904.09
440.227	14834.46
440.433	14525.22
440.64	15164.18
440.847	15067.93
441.054	15096.6
441.261	16425.73
441.467	15964.94
441.674	16300.81
441.881	16995.07
442.088	17101.56
442.294	16814.85
442.501	17134.33
442.708	17545.97
442.914	18244.33
443.121	19002.08
443.328	18666.21
443.534	19626.71
443.741	19364.57
443.948	18897.63
444.154	20720.32
444.361	20581.06
444.568	20429.51
444.774	20531.91
444.981	20515.53
445.187	21596.85
445.394	22067.89
445.6	22213.29
445.807	24142.48
446.013	23007.9
446.22	23755.41
446.426	24355.47
446.633	24656.52
446.839	25547.39
447.046	24384.14
447.252	26083.95
447.459	25844.34
447.665	25932.4
447.871	27058.79
448.078	27968.09
448.284	26821.22
448.491	27277.92
448.697	28793.42
448.903	29114.95
449.11	29125.19
449.316	28830.28
449.522	29514.3
449.728	30296.63
449.935	30458.42
450.141	30396.98
450.347	31259.17
450.553	29981.24
450.76	30626.35
450.966	31777.31
451.172	31117.86
451.378	31812.12
451.584	31363.62
451.791	31894.04
451.997	31762.97
452.203	32467.47
452.409	32422.42
452.615	32520.72
452.821	31396.38
453.027	30990.89
453.233	33008.14
453.44	31293.99
453.646	31758.88
453.852	32002.58
454.058	32234
454.264	31384.1
454.47	32064.02
454.676	31375.91
454.882	32692.75
455.088	29743.67
455.294	30208.56
455.5	30673.45
455.705	31470.11
455.911	29530.69
456.117	29284.93
456.323	29028.93
456.529	27056.74
456.735	28547.66
456.941	27875.93
457.147	27413.09
457.352	26292.85
457.558	26376.81
457.764	26032.75
457.97	25868.92
458.176	25305.73
458.381	25346.69
458.587	23947.92
458.793	24093.33
458.999	22469.29
459.204	24543.88
459.41	23476.89
459.616	22162.09
459.821	22434.47
460.027	21721.78
460.233	21775.03
460.438	20652.74
460.644	21066.43
460.85	20073.17
461.055	19763.92
461.261	19423.96
461.466	18143.98
461.672	17695.47
461.878	18805.47
462.083	17652.47
462.289	17085.18
462.494	16943.87
462.7	16481.03
462.905	15905.55
463.111	16415.49
463.316	16483.08
463.522	16028.43
463.727	16073.48
463.932	15821.58
464.138	15690.51
464.343	16139.02
464.549	15436.56
464.754	15962.89
464.959	15991.56
465.165	15696.66
465.37	15155.99
465.575	14484.26
465.781	15489.81
465.986	15237.91
466.191	14811.93
466.397	14310.18
466.602	13738.8
