Data from USB4F104151__21__13-04-39-929.txt Node

Date: Fri Mar 14 13:04:39 EDT 2025
User: louis
Spectrometer: USB4F10415
Trigger mode: 4
Integration Time (sec): 4.000000E-2
Scans to average: 1
Electric dark correction enabled: true
Nonlinearity correction enabled: false
Boxcar width: 0
XAxis mode: Wavelengths
Number of Pixels in Spectrum: 3648
>>>>>Begin Spectral Data<<<<<
178.204	-165.89
178.424	-165.89
178.644	-165.89
178.864	-243.71
179.084	-165.89
179.304	43.01
179.524	2.05
179.744	-86.01
179.964	-10.24
180.184	-32.77
180.404	22.53
180.624	40.96
180.844	6.14
181.064	49.15
181.283	-18.43
181.503	-20.48
181.723	4.1
181.943	-34.82
182.163	22.53
182.383	-32.77
182.602	67.58
182.822	73.73
183.042	71.68
183.262	-8.19
183.482	8.19
183.701	0
183.921	-28.67
184.141	-28.67
184.361	57.34
184.58	92.16
184.8	-6.14
185.02	81.92
185.239	-2.05
185.459	22.53
185.679	0
185.898	0
186.118	38.91
186.338	43.01
186.557	30.72
186.777	88.06
186.997	-65.53
187.216	8.19
187.436	96.25
187.655	-32.77
187.875	22.53
188.095	53.25
188.314	45.06
188.534	79.87
188.753	38.91
188.973	-18.43
189.192	90.11
189.412	28.67
189.631	-6.14
189.851	-6.14
190.07	98.3
190.29	-98.3
190.509	53.25
190.729	-47.1
190.948	43.01
191.168	96.25
191.387	12.29
191.607	-26.62
191.826	69.63
192.045	-28.67
192.265	-34.82
192.484	20.48
192.704	-73.73
192.923	-16.38
193.142	73.73
193.362	34.82
193.581	69.63
193.8	2.05
194.02	79.87
194.239	-18.43
194.458	36.86
194.678	8.19
194.897	-14.34
195.116	-2.05
195.335	-26.62
195.555	34.82
195.774	51.2
195.993	2.05
196.212	55.3
196.432	-12.29
196.651	8.19
196.87	-18.43
197.089	96.25
197.308	43.01
197.528	49.15
197.747	49.15
197.966	-55.3
198.185	61.44
198.404	34.82
198.623	106.49
198.842	112.64
199.062	65.54
199.281	-16.38
199.5	34.82
199.719	88.06
199.938	16.38
200.157	71.68
200.376	55.3
200.595	59.39
200.814	6.14
201.033	24.58
201.252	-30.72
201.471	90.11
201.69	0
201.909	-6.14
202.128	57.34
202.347	30.72
202.566	24.58
202.785	30.72
203.004	55.3
203.223	157.69
203.442	24.58
203.661	8.19
203.879	-2.05
204.098	57.34
204.317	-10.24
204.536	47.1
204.755	20.48
204.974	49.15
205.193	-12.29
205.411	106.49
205.63	-10.24
205.849	-4.1
206.068	36.86
206.287	-34.82
206.505	10.24
206.724	-75.77
206.943	-73.73
207.162	20.48
207.381	14.34
207.599	24.58
207.818	8.19
208.037	-51.2
208.255	10.24
208.474	26.62
208.693	-10.24
208.911	-40.96
209.13	98.3
209.349	30.72
209.567	26.62
209.786	43.01
210.005	61.44
210.223	2.05
210.442	-81.92
210.661	14.34
210.879	55.3
211.098	32.77
211.316	34.82
211.535	92.16
211.753	-38.91
211.972	-32.77
212.191	-28.67
212.409	57.34
212.628	20.48
212.846	-55.3
213.065	98.3
213.283	34.82
213.502	2.05
213.72	-24.58
213.938	65.54
214.157	6.14
214.375	-53.25
214.594	57.34
214.812	49.15
215.031	-26.62
215.249	-14.34
215.467	36.86
215.686	57.34
215.904	75.77
216.122	-8.19
216.341	73.73
216.559	-26.62
216.778	131.07
216.996	22.53
217.214	30.72
217.432	-67.58
217.651	-6.14
217.869	4.1
218.087	24.58
218.306	30.72
218.524	141.31
218.742	-10.24
218.96	51.2
219.179	-16.38
219.397	8.19
219.615	55.3
219.833	24.58
220.051	-61.44
220.27	86.01
220.488	-6.14
220.706	36.86
220.924	32.77
221.142	-28.67
221.36	69.63
221.578	43.01
221.796	-10.24
222.015	-32.77
222.233	51.2
222.451	10.24
222.669	6.14
222.887	-16.38
223.105	6.14
223.323	47.1
223.541	-38.91
223.759	20.48
223.977	8.19
224.195	51.2
224.413	69.63
224.631	55.3
224.849	38.91
225.067	47.1
225.285	-8.19
225.503	-26.62
225.721	-100.35
225.939	-47.1
226.157	-26.62
226.375	174.08
226.592	-4.1
226.81	22.53
227.028	55.3
227.246	75.77
227.464	-2.05
227.682	47.1
227.9	73.73
228.117	26.62
228.335	-43.01
228.553	22.53
228.771	-26.62
228.989	59.39
229.206	20.48
229.424	0
229.642	-2.05
229.86	32.77
230.077	88.06
230.295	-14.34
230.513	-6.14
230.731	69.63
230.948	75.77
231.166	57.34
231.384	32.77
231.601	38.91
231.819	-38.91
232.037	-90.11
232.254	2.05
232.472	-16.38
232.689	-26.62
232.907	-16.38
233.125	20.48
233.342	-77.82
233.56	28.67
233.777	40.96
233.995	51.2
234.213	100.35
234.43	-16.38
234.648	92.16
234.865	-43.01
235.083	28.67
235.3	86.01
235.518	-71.68
235.735	88.06
235.953	20.48
236.17	-61.44
236.388	-22.53
236.605	94.21
236.822	6.14
237.04	32.77
237.257	30.72
237.475	49.15
237.692	26.62
237.909	34.82
238.127	-88.06
238.344	6.14
238.562	57.34
238.779	-16.38
238.996	-30.72
239.214	22.53
239.431	8.19
239.648	-49.15
239.865	-24.58
240.083	61.44
240.3	32.77
240.517	-24.58
240.735	53.25
240.952	133.12
241.169	73.73
241.386	49.15
241.603	8.19
241.821	-55.3
242.038	20.48
242.255	63.49
242.472	55.3
242.689	-8.19
242.907	77.82
243.124	51.2
243.341	-14.34
243.558	51.2
243.775	-26.62
243.992	-73.73
244.209	71.68
244.426	73.73
244.643	-2.05
244.86	96.25
245.078	49.15
245.295	51.2
245.512	-34.82
245.729	-26.62
245.946	10.24
246.163	43.01
246.38	-6.14
246.597	-14.34
246.814	6.14
247.031	-45.06
247.248	59.39
247.464	0
247.681	6.14
247.898	43.01
248.115	65.54
248.332	-10.24
248.549	-10.24
248.766	45.06
248.983	43.01
249.2	51.2
249.417	24.58
249.633	-34.82
249.85	73.73
250.067	55.3
250.284	-24.58
250.501	55.3
250.717	55.3
250.934	-67.58
251.151	0
251.368	-28.67
251.585	63.49
251.801	2.05
252.018	-28.67
252.235	126.97
252.451	-10.24
252.668	24.58
252.885	34.82
253.102	34.82
253.318	40.96
253.535	-32.77
253.752	14.34
253.968	30.72
254.185	-71.68
254.401	-24.58
254.618	-6.14
254.835	36.86
255.051	63.49
255.268	47.1
255.484	16.38
255.701	-34.82
255.917	51.2
256.134	-22.53
256.351	69.63
256.567	-124.93
256.784	-24.58
257	-18.43
257.217	83.97
257.433	67.58
257.65	26.62
257.866	34.82
258.082	-14.34
258.299	-26.62
258.515	24.58
258.732	-18.43
258.948	-104.45
259.165	63.49
259.381	12.29
259.597	49.15
259.814	-43.01
260.03	36.86
260.246	10.24
260.463	-18.43
260.679	-65.53
260.895	51.2
261.112	53.25
261.328	61.44
261.544	8.19
261.761	198.65
261.977	126.97
262.193	-34.82
262.409	12.29
262.626	-12.29
262.842	12.29
263.058	-14.34
263.274	16.38
263.49	-4.1
263.707	75.77
263.923	98.3
264.139	-8.19
264.355	-43.01
264.571	139.26
264.787	75.77
265.004	114.69
265.22	2.05
265.436	-34.82
265.652	4.1
265.868	43.01
266.084	-32.77
266.3	34.82
266.516	40.96
266.732	67.58
266.948	26.62
267.164	96.25
267.38	83.97
267.596	47.1
267.812	139.26
268.028	53.25
268.244	40.96
268.46	51.2
268.676	20.48
268.892	0
269.108	10.24
269.324	-16.38
269.54	-14.34
269.756	94.21
269.972	-8.19
270.188	-4.1
270.403	-94.21
270.619	6.14
270.835	2.05
271.051	-49.15
271.267	0
271.483	-6.14
271.698	57.34
271.914	14.34
272.13	34.82
272.346	38.91
272.562	2.05
272.777	55.3
272.993	49.15
273.209	47.1
273.425	-8.19
273.64	12.29
273.856	81.92
274.072	-4.1
274.287	-28.67
274.503	6.14
274.719	73.73
274.934	-43.01
275.15	-16.38
275.366	-22.53
275.581	-51.2
275.797	12.29
276.012	51.2
276.228	43.01
276.444	14.34
276.659	38.91
276.875	-24.58
277.09	-10.24
277.306	38.91
277.521	-2.05
277.737	40.96
277.952	77.82
278.168	4.1
278.383	-4.1
278.599	90.11
278.814	55.3
279.03	20.48
279.245	90.11
279.461	-16.38
279.676	73.73
279.892	-55.3
280.107	-12.29
280.322	-8.19
280.538	-8.19
280.753	2.05
280.969	-16.38
281.184	-38.91
281.399	28.67
281.615	81.92
281.83	18.43
282.045	-12.29
282.26	6.14
282.476	30.72
282.691	-24.58
282.906	63.49
283.122	2.05
283.337	83.97
283.552	30.72
283.767	6.14
283.983	2.05
284.198	59.39
284.413	18.43
284.628	-59.39
284.843	51.2
285.058	24.58
285.274	-24.58
285.489	-26.62
285.704	71.68
285.919	26.62
286.134	2.05
286.349	-10.24
286.564	-16.38
286.779	79.87
286.995	71.68
287.21	34.82
287.425	22.53
287.64	-26.62
287.855	30.72
288.07	-40.96
288.285	71.68
288.5	28.67
288.715	22.53
288.93	-55.3
289.145	-43.01
289.36	81.92
289.575	-49.15
289.79	79.87
290.004	-69.63
290.219	104.45
290.434	-24.58
290.649	2.05
290.864	-22.53
291.079	36.86
291.294	14.34
291.509	57.34
291.724	18.43
291.938	-14.34
292.153	18.43
292.368	-18.43
292.583	-59.39
292.798	-16.38
293.012	-2.05
293.227	-12.29
293.442	-34.82
293.657	81.92
293.871	112.64
294.086	20.48
294.301	65.54
294.516	47.1
294.73	-14.34
294.945	-49.15
295.16	71.68
295.374	90.11
295.589	53.25
295.804	55.3
296.018	24.58
296.233	26.62
296.447	47.1
296.662	10.24
296.877	63.49
297.091	36.86
297.306	-12.29
297.52	57.34
297.735	-8.19
297.949	-26.62
298.164	6.14
298.378	-34.82
298.593	-4.1
298.807	-14.34
299.022	73.73
299.236	63.49
299.451	28.67
299.665	-30.72
299.88	-38.91
300.094	-43.01
300.309	-34.82
300.523	69.63
300.737	4.1
300.952	24.58
301.166	-10.24
301.381	-14.34
301.595	4.1
301.809	-59.39
302.024	-22.53
302.238	0
302.452	67.58
302.667	-51.2
302.881	55.3
303.095	40.96
303.309	-2.05
303.524	-38.91
303.738	47.1
303.952	-32.77
304.166	2.05
304.381	-86.01
304.595	18.43
304.809	4.1
305.023	-10.24
305.237	-38.91
305.452	-79.87
305.666	106.49
305.88	75.77
306.094	20.48
306.308	126.97
306.522	-20.48
306.736	-32.77
306.95	36.86
307.164	-53.25
307.379	-38.91
307.593	65.54
307.807	118.78
308.021	24.58
308.235	14.34
308.449	-28.67
308.663	32.77
308.877	114.69
309.091	24.58
309.305	98.3
309.519	-92.16
309.733	120.83
309.947	-47.1
310.161	-16.38
310.374	59.39
310.588	81.92
310.802	24.58
311.016	-38.91
311.23	-22.53
311.444	40.96
311.658	49.15
311.872	38.91
312.085	96.25
312.299	-14.34
312.513	88.06
312.727	49.15
312.941	-75.77
313.154	63.49
313.368	-4.1
313.582	-2.05
313.796	-22.53
314.009	32.77
314.223	8.19
314.437	0
314.651	16.38
314.864	0
315.078	22.53
315.292	-81.92
315.505	-12.29
315.719	6.14
315.933	47.1
316.146	-34.82
316.36	24.58
316.573	-10.24
316.787	106.49
317.001	34.82
317.214	2.05
317.428	57.34
317.641	-12.29
317.855	6.14
318.068	51.2
318.282	26.62
318.495	157.69
318.709	59.39
318.922	-51.2
319.136	73.73
319.349	94.21
319.563	-6.14
319.776	40.96
319.99	-47.1
320.203	-24.58
320.417	-32.77
320.63	-34.82
320.843	24.58
321.057	-22.53
321.27	36.86
321.483	45.06
321.697	100.35
321.91	28.67
322.124	81.92
322.337	6.14
322.55	16.38
322.763	67.58
322.977	90.11
323.19	-43.01
323.403	63.49
323.617	-38.91
323.83	63.49
324.043	-65.53
324.256	-10.24
324.469	-53.25
324.683	104.45
324.896	45.06
325.109	-22.53
325.322	26.62
325.535	38.91
325.748	36.86
325.962	0
326.175	28.67
326.388	34.82
326.601	102.4
326.814	-10.24
327.027	65.54
327.24	118.78
327.453	-43.01
327.666	-16.38
327.879	86.01
328.092	114.69
328.305	38.91
328.518	40.96
328.731	0
328.944	-20.48
329.157	83.97
329.37	-38.91
329.583	92.16
329.796	112.64
330.009	-83.97
330.222	34.82
330.435	88.06
330.648	-2.05
330.861	94.21
331.073	38.91
331.286	16.38
331.499	-26.62
331.712	-22.53
331.925	-2.05
332.138	51.2
332.35	77.82
332.563	-36.86
332.776	30.72
332.989	-69.63
333.202	75.77
333.414	-16.38
333.627	-51.2
333.84	-10.24
334.053	-36.86
334.265	47.1
334.478	49.15
334.691	14.34
334.903	-4.1
335.116	-12.29
335.329	-6.14
335.541	49.15
335.754	112.64
335.966	16.38
336.179	14.34
336.392	36.86
336.604	38.91
336.817	57.34
337.029	-51.2
337.242	45.06
337.454	77.82
337.667	0
337.88	20.48
338.092	51.2
338.305	32.77
338.517	51.2
338.729	20.48
338.942	51.2
339.154	-14.34
339.367	-86.01
339.579	-8.19
339.792	43.01
340.004	30.72
340.217	53.25
340.429	6.14
340.641	40.96
340.854	6.14
341.066	10.24
341.278	49.15
341.491	6.14
341.703	40.96
341.915	75.77
342.128	71.68
342.34	90.11
342.552	36.86
342.764	38.91
342.977	6.14
343.189	16.38
343.401	22.53
343.613	-32.77
343.826	12.29
344.038	-30.72
344.25	28.67
344.462	-14.34
344.674	49.15
344.886	32.77
345.099	20.48
345.311	47.1
345.523	34.82
345.735	-104.45
345.947	71.68
346.159	34.82
346.371	16.38
346.583	59.39
346.795	126.97
347.007	40.96
347.219	36.86
347.431	-4.1
347.643	120.83
347.855	10.24
348.067	79.87
348.279	-14.34
348.491	45.06
348.703	10.24
348.915	22.53
349.127	-98.3
349.339	28.67
349.551	-2.05
349.763	14.34
349.975	-16.38
350.187	73.73
350.399	149.5
350.61	114.69
350.822	10.24
351.034	79.87
351.246	-24.58
351.458	59.39
351.669	49.15
351.881	65.54
352.093	90.11
352.305	53.25
352.517	53.25
352.728	63.49
352.94	8.19
353.152	16.38
353.363	8.19
353.575	38.91
353.787	36.86
353.999	6.14
354.21	49.15
354.422	32.77
354.633	-8.19
354.845	20.48
355.057	22.53
355.268	43.01
355.48	12.29
355.692	32.77
355.903	6.14
356.115	-34.82
356.326	14.34
356.538	114.69
356.749	30.72
356.961	104.45
357.172	106.49
357.384	-67.58
357.595	96.25
357.807	-6.14
358.018	12.29
358.23	14.34
358.441	104.45
358.653	94.21
358.864	49.15
359.075	-47.1
359.287	0
359.498	106.49
359.709	63.49
359.921	-4.1
360.132	59.39
360.344	14.34
360.555	-22.53
360.766	36.86
360.977	32.77
361.189	2.05
361.4	22.53
361.611	79.87
361.823	40.96
362.034	145.41
362.245	-47.1
362.456	88.06
362.667	65.54
362.879	-45.06
363.09	10.24
363.301	-18.43
363.512	22.53
363.723	4.1
363.935	-32.77
364.146	63.49
364.357	16.38
364.568	18.43
364.779	-149.5
364.99	55.3
365.201	12.29
365.412	90.11
365.623	-67.58
365.834	55.3
366.045	77.82
366.256	6.14
366.467	69.63
366.678	-10.24
366.889	57.34
367.1	69.63
367.311	0
367.522	-38.91
367.733	30.72
367.944	55.3
368.155	-12.29
368.366	40.96
368.577	22.53
368.788	90.11
368.999	-14.34
369.209	71.68
369.42	94.21
369.631	126.97
369.842	38.91
370.053	34.82
370.264	79.87
370.474	-63.49
370.685	32.77
370.896	49.15
371.107	57.34
371.317	45.06
371.528	59.39
371.739	77.82
371.95	12.29
372.16	14.34
372.371	-32.77
372.582	49.15
372.792	-26.62
373.003	53.25
373.214	98.3
373.424	43.01
373.635	73.73
373.846	71.68
374.056	2.05
374.267	16.38
374.477	4.1
374.688	43.01
374.898	81.92
375.109	-28.67
375.319	51.2
375.53	28.67
375.74	92.16
375.951	28.67
376.161	55.3
376.372	57.34
376.582	4.1
376.793	81.92
377.003	8.19
377.214	92.16
377.424	104.45
377.635	71.68
377.845	12.29
378.055	75.77
378.266	-59.39
378.476	18.43
378.686	83.97
378.897	49.15
379.107	28.67
379.317	59.39
379.528	-12.29
379.738	18.43
379.948	-57.34
380.158	61.44
380.369	-6.14
380.579	38.91
380.789	4.1
380.999	12.29
381.21	-20.48
381.42	124.93
381.63	83.97
381.84	38.91
382.05	12.29
382.261	71.68
382.471	20.48
382.681	20.48
382.891	-8.19
383.101	61.44
383.311	10.24
383.521	34.82
383.731	-16.38
383.941	16.38
384.151	6.14
384.361	6.14
384.571	-6.14
384.781	65.54
384.991	92.16
385.201	65.54
385.411	43.01
385.621	61.44
385.831	22.53
386.041	34.82
386.251	34.82
386.461	126.97
386.671	86.01
386.881	88.06
387.091	81.92
387.301	28.67
387.511	51.2
387.72	79.87
387.93	36.86
388.14	-30.72
388.35	83.97
388.56	71.68
388.769	102.4
388.979	32.77
389.189	6.14
389.399	65.54
389.609	51.2
389.818	131.07
390.028	49.15
390.238	65.54
390.447	-26.62
390.657	-32.77
390.867	-24.58
391.076	-24.58
391.286	-10.24
391.496	47.1
391.705	-8.19
391.915	2.05
392.125	116.73
392.334	45.06
392.544	8.19
392.753	40.96
392.963	22.53
393.172	59.39
393.382	-57.34
393.591	139.26
393.801	18.43
394.01	126.97
394.22	114.69
394.429	92.16
394.639	96.25
394.848	81.92
395.058	106.49
395.267	98.3
395.477	22.53
395.686	102.4
395.895	139.26
396.105	161.79
396.314	36.86
396.524	53.25
396.733	16.38
396.942	122.88
397.152	145.41
397.361	71.68
397.57	43.01
397.78	131.07
397.989	149.5
398.198	53.25
398.407	102.4
398.617	63.49
398.826	-6.14
399.035	6.14
399.244	141.31
399.453	116.73
399.663	90.11
399.872	77.82
400.081	155.65
400.29	153.6
400.499	40.96
400.708	110.59
400.917	79.87
401.127	73.73
401.336	61.44
401.545	106.49
401.754	139.26
401.963	137.21
402.172	126.97
402.381	22.53
402.59	71.68
402.799	131.07
403.008	88.06
403.217	120.83
403.426	167.93
403.635	8.19
403.844	79.87
404.053	159.74
404.262	88.06
404.471	208.89
404.68	75.77
404.888	98.3
405.097	51.2
405.306	112.64
405.515	198.65
405.724	114.69
405.933	210.94
406.142	67.58
406.35	235.52
406.559	270.33
406.768	147.45
406.977	251.9
407.185	163.84
407.394	151.55
407.603	172.03
407.812	157.69
408.02	227.32
408.229	202.75
408.438	278.52
408.646	133.12
408.855	268.28
409.064	219.13
409.272	223.23
409.481	260.09
409.69	323.58
409.898	190.46
410.107	272.38
410.315	333.82
410.524	266.24
410.733	262.14
410.941	307.2
411.15	374.78
411.358	309.24
411.567	335.87
411.775	391.16
411.984	393.21
412.192	456.7
412.401	372.73
412.609	501.75
412.818	524.28
413.026	389.11
413.234	460.79
413.443	428.03
413.651	481.27
413.86	534.52
414.068	485.37
414.276	550.9
414.485	608.25
414.693	657.4
414.901	653.3
415.11	641.01
415.318	704.5
415.526	626.68
415.734	700.41
415.943	702.45
416.151	720.89
416.359	788.47
416.567	808.95
416.776	933.87
416.984	929.78
417.192	806.9
417.4	958.45
417.608	903.15
417.817	1007.6
418.025	1017.84
418.233	1169.39
418.441	1038.32
418.649	1126.38
418.857	1177.58
419.065	1191.92
419.273	1140.72
419.481	1253.36
419.689	1335.28
419.897	1400.81
420.105	1423.34
420.313	1417.19
420.521	1513.45
420.729	1499.11
420.937	1591.27
421.145	1703.91
421.353	1693.67
421.561	1755.11
421.769	1816.55
421.977	1990.63
422.185	1859.56
422.393	1945.57
422.601	2037.73
422.809	2193.37
423.017	2176.99
423.224	2144.22
423.432	2244.57
423.64	2285.53
423.848	2652.12
424.056	2414.56
424.263	2742.23
424.471	2693.08
424.679	2719.7
424.887	2897.88
425.094	2953.17
425.302	3084.24
425.51	3059.67
425.718	3293.13
425.925	3192.78
426.133	3299.28
426.341	3434.44
426.548	3620.81
426.756	3768.26
426.964	3669.96
427.171	3897.28
427.379	3987.4
427.586	4126.66
427.794	4390.85
428.001	4429.76
428.209	4577.21
428.417	4556.73
428.624	4868.02
428.832	4919.22
429.039	4849.59
429.247	4898.74
429.454	5224.37
429.662	5674.92
429.869	5373.87
430.076	5627.82
430.284	5451.69
430.491	5750.7
430.699	6082.47
430.906	6070.18
431.114	6199.2
431.321	6557.6
431.528	6479.77
431.736	6977.43
431.943	7155.6
432.15	7010.2
432.358	7135.12
432.565	7499.66
432.772	7417.74
432.979	7864.2
433.187	8093.57
433.394	8224.64
433.601	8753.02
433.808	8585.08
434.016	8636.28
434.223	8812.41
434.43	9494.38
434.637	9404.27
434.844	9662.32
435.052	10395.49
435.259	10106.73
435.466	10037.09
435.673	10033
435.88	10788.7
436.087	11188.05
436.294	11282.26
436.501	11106.13
436.708	11091.8
436.915	11654.99
437.122	12111.69
437.329	11982.67
437.537	12609.34
437.743	12762.94
437.95	12498.75
438.157	13301.56
438.364	13621.04
438.571	13641.52
438.778	13856.56
438.985	15095.58
439.192	14468.9
439.399	14761.76
439.606	14456.61
439.813	15529.75
440.02	16402.18
440.227	16119.56
440.433	15879.95
440.64	16555.78
440.847	16201.48
441.054	16707.33
441.261	17874.67
441.467	17786.61
441.674	18286.31
441.881	18755.3
442.088	18798.31
442.294	18398.95
442.501	18695.91
442.708	19320.54
442.914	19873.49
443.121	21069.5
443.328	20367.05
443.534	22093.49
443.741	21200.57
443.948	21034.69
444.154	22568.62
444.361	22714.02
444.568	22671.01
444.774	22478.5
444.981	22865.57
445.187	23572.12
445.394	24241.81
445.6	24397.45
445.807	26812.01
446.013	25403
446.22	25851.51
446.426	26949.22
446.633	27100.77
446.839	28149.33
447.046	26977.89
447.252	28165.71
447.459	28515.92
447.665	28239.44
447.871	29707.83
448.078	30715.44
448.284	29394.5
448.491	30250.55
448.697	31241.76
448.903	31675.93
449.11	32243.22
449.316	31329.83
449.522	32206.36
449.728	33125.89
449.935	33324.55
450.141	33046.02
450.347	33969.66
450.553	32876.04
450.76	33594.88
450.966	34719.21
451.172	34094.58
451.378	34956.78
451.584	34457.07
451.791	35364.32
451.997	35026.41
452.203	35771.87
452.409	35810.78
452.615	35673.57
452.821	34598.38
453.027	34244.09
453.233	36132.31
453.44	34229.75
453.646	35098.09
453.852	34862.57
454.058	35491.3
454.264	34536.94
454.47	35235.3
454.676	34649.58
454.882	35605.98
455.088	32597.52
455.294	32824.84
455.5	33613.31
455.705	34014.71
455.911	32218.64
456.117	31974.94
456.323	31542.81
456.529	29797.95
456.735	31317.54
456.941	30293.55
457.147	29933.11
457.352	28798.54
457.558	28530.25
457.764	28763.72
457.97	28198.48
458.176	27186.79
458.381	27805.27
458.587	26066.55
458.793	25972.34
458.999	24931.97
459.204	27018.85
459.41	26148.46
459.616	24489.61
459.821	24372.88
460.027	24241.81
460.233	23543.45
460.438	22326.96
460.644	23049.89
460.85	21507.77
461.055	21278.4
461.261	21202.62
461.466	19687.12
461.672	19101.4
461.878	20360.91
462.083	19173.08
462.289	18644.71
462.494	18646.76
462.7	17676.02
462.905	17245.94
463.111	17841.9
463.316	18054.89
463.522	17573.62
463.727	17250.04
463.932	17479.41
464.138	17207.03
464.343	17336.06
464.549	17071.87
464.754	17258.23
464.959	17381.11
465.165	16971.52
465.37	16383.75
465.575	15910.67
465.781	16748.29
465.986	16645.89
466.191	16363.27
466.397	15898.38
466.602	15083.29
466.807	15707.92
467.012	15572.75
467.218	15496.98
