Data from USB4F104151__38__13-05-06-645.txt Node

Date: Fri Mar 14 13:05:06 EDT 2025
User: louis
Spectrometer: USB4F10415
Trigger mode: 4
Integration Time (sec): 4.000000E-2
Scans to average: 1
Electric dark correction enabled: true
Nonlinearity correction enabled: false
Boxcar width: 0
XAxis mode: Wavelengths
Number of Pixels in Spectrum: 3648
>>>>>Begin Spectral Data<<<<<
178.204	-104.45
178.424	-104.45
178.644	-104.45
178.864	-217.08
179.084	-163.84
179.304	24.58
179.524	2.05
179.744	12.29
179.964	34.82
180.184	-28.67
180.404	8.19
180.624	-75.77
180.844	-55.3
181.064	-71.68
181.283	43.01
181.503	57.34
181.723	49.15
181.943	2.05
182.163	165.89
182.383	-26.62
182.602	67.58
182.822	83.97
183.042	-43.01
183.262	49.15
183.482	43.01
183.701	116.73
183.921	55.3
184.141	-63.49
184.361	114.69
184.58	43.01
184.8	63.49
185.02	28.67
185.239	116.73
185.459	43.01
185.679	47.1
185.898	16.38
186.118	98.3
186.338	38.91
186.557	88.06
186.777	6.14
186.997	-28.67
187.216	-4.1
187.436	92.16
187.655	94.21
187.875	90.11
188.095	53.25
188.314	73.73
188.534	92.16
188.753	18.43
188.973	86.01
189.192	108.54
189.412	28.67
189.631	36.86
189.851	36.86
190.07	106.49
190.29	-6.14
190.509	47.1
190.729	55.3
190.948	36.86
191.168	245.76
191.387	81.92
191.607	6.14
191.826	69.63
192.045	53.25
192.265	49.15
192.484	45.06
192.704	22.53
192.923	-57.34
193.142	147.45
193.362	-20.48
193.581	90.11
193.8	59.39
194.02	65.53
194.239	59.39
194.458	53.25
194.678	16.38
194.897	32.77
195.116	40.96
195.335	4.1
195.555	100.35
195.774	38.91
195.993	133.12
196.212	67.58
196.432	8.19
196.651	49.15
196.87	24.58
197.089	100.35
197.308	4.1
197.528	116.73
197.747	20.48
197.966	16.38
198.185	108.54
198.404	94.21
198.623	73.73
198.842	81.92
199.062	92.16
199.281	40.96
199.5	49.15
199.719	139.26
199.938	34.82
200.157	45.06
200.376	20.48
200.595	122.88
200.814	34.82
201.033	65.53
201.252	143.36
201.471	133.12
201.69	71.68
201.909	55.3
202.128	94.21
202.347	110.59
202.566	20.48
202.785	-4.1
203.004	-10.24
203.223	192.51
203.442	43.01
203.661	26.62
203.879	106.49
204.098	79.87
204.317	61.44
204.536	88.06
204.755	20.48
204.974	141.31
205.193	36.86
205.411	94.21
205.63	34.82
205.849	34.82
206.068	4.1
206.287	47.1
206.505	43.01
206.724	-30.72
206.943	65.53
207.162	69.63
207.381	110.59
207.599	-24.58
207.818	18.43
208.037	2.05
208.255	28.67
208.474	106.49
208.693	126.97
208.911	57.34
209.13	86.01
209.349	57.34
209.567	57.34
209.786	90.11
210.005	100.35
210.223	114.69
210.442	8.19
210.661	122.88
210.879	94.21
211.098	114.69
211.316	59.39
211.535	61.44
211.753	26.62
211.972	75.77
212.191	53.25
212.409	49.15
212.628	106.49
212.846	45.06
213.065	98.3
213.283	110.59
213.502	63.49
213.72	102.4
213.938	116.73
214.157	67.58
214.375	73.73
214.594	-14.34
214.812	20.48
215.031	30.72
215.249	69.63
215.467	159.74
215.686	106.49
215.904	120.83
216.122	10.24
216.341	100.35
216.559	69.63
216.778	49.15
216.996	86.01
217.214	79.87
217.432	20.48
217.651	92.16
217.869	57.34
218.087	24.58
218.306	26.62
218.524	75.77
218.742	16.38
218.96	-4.1
219.179	67.58
219.397	135.17
219.615	188.41
219.833	81.92
220.051	104.45
220.27	106.49
220.488	88.06
220.706	10.24
220.924	-8.19
221.142	75.77
221.36	45.06
221.578	67.58
221.796	12.29
222.015	96.25
222.233	16.38
222.451	141.31
222.669	-14.34
222.887	122.88
223.105	38.91
223.323	129.02
223.541	47.1
223.759	90.11
223.977	100.35
224.195	57.34
224.413	96.25
224.631	88.06
224.849	51.2
225.067	182.27
225.285	45.06
225.503	57.34
225.721	4.1
225.939	94.21
226.157	81.92
226.375	198.65
226.592	30.72
226.81	-16.38
227.028	98.3
227.246	81.92
227.464	81.92
227.682	98.3
227.9	73.73
228.117	94.21
228.335	90.11
228.553	24.58
228.771	49.15
228.989	40.96
229.206	69.63
229.424	131.07
229.642	8.19
229.86	-40.96
230.077	79.87
230.295	118.78
230.513	51.2
230.731	32.77
230.948	90.11
231.166	137.21
231.384	104.45
231.601	26.62
231.819	98.3
232.037	43.01
232.254	88.06
232.472	75.77
232.689	43.01
232.907	34.82
233.125	40.96
233.342	51.2
233.56	45.06
233.777	98.3
233.995	20.48
234.213	98.3
234.43	61.44
234.648	43.01
234.865	118.78
235.083	51.2
235.3	51.2
235.518	73.73
235.735	73.73
235.953	96.25
236.17	8.19
236.388	32.77
236.605	98.3
236.822	61.44
237.04	94.21
237.257	0
237.475	-30.72
237.692	49.15
237.909	96.25
238.127	53.25
238.344	83.97
238.562	12.29
238.779	0
238.996	98.3
239.214	94.21
239.431	182.27
239.648	53.25
239.865	71.68
240.083	71.68
240.3	40.96
240.517	32.77
240.735	71.68
240.952	57.34
241.169	122.88
241.386	53.25
241.603	0
241.821	0
242.038	96.25
242.255	108.54
242.472	88.06
242.689	106.49
242.907	79.87
243.124	98.3
243.341	55.3
243.558	-2.05
243.775	51.2
243.992	-22.53
244.209	98.3
244.426	126.97
244.643	100.35
244.86	-6.14
245.078	73.73
245.295	92.16
245.512	122.88
245.729	-24.58
245.946	112.64
246.163	59.39
246.38	14.34
246.597	81.92
246.814	75.77
247.031	71.68
247.248	24.58
247.464	67.58
247.681	-12.29
247.898	96.25
248.115	106.49
248.332	73.73
248.549	96.25
248.766	149.5
248.983	143.36
249.2	55.3
249.417	73.73
249.633	43.01
249.85	26.62
250.067	65.53
250.284	102.4
250.501	116.73
250.717	65.53
250.934	65.53
251.151	59.39
251.368	32.77
251.585	59.39
251.801	98.3
252.018	18.43
252.235	36.86
252.451	34.82
252.668	-16.38
252.885	61.44
253.102	28.67
253.318	45.06
253.535	47.1
253.752	26.62
253.968	57.34
254.185	43.01
254.401	32.77
254.618	104.45
254.835	24.58
255.051	79.87
255.268	90.11
255.484	108.54
255.701	63.49
255.917	67.58
256.134	49.15
256.351	167.93
256.567	-77.82
256.784	26.62
257	65.53
257.217	114.69
257.433	88.06
257.65	49.15
257.866	96.25
258.082	-100.35
258.299	53.25
258.515	24.58
258.732	61.44
258.948	69.63
259.165	96.25
259.381	49.15
259.597	30.72
259.814	124.93
260.03	26.62
260.246	-26.62
260.463	67.58
260.679	98.3
260.895	53.25
261.112	120.83
261.328	51.2
261.544	-14.34
261.761	155.65
261.977	73.73
262.193	34.82
262.409	53.25
262.626	10.24
262.842	108.54
263.058	-22.53
263.274	57.34
263.49	92.16
263.707	100.35
263.923	159.74
264.139	-4.1
264.355	40.96
264.571	112.64
264.787	79.87
265.004	110.59
265.22	-22.53
265.436	55.3
265.652	20.48
265.868	92.16
266.084	36.86
266.3	92.16
266.516	51.2
266.732	32.77
266.948	75.77
267.164	75.77
267.38	92.16
267.596	59.39
267.812	106.49
268.028	96.25
268.244	28.67
268.46	86.01
268.676	10.24
268.892	61.44
269.108	112.64
269.324	81.92
269.54	8.19
269.756	120.83
269.972	-14.34
270.188	73.73
270.403	0
270.619	163.84
270.835	90.11
271.051	30.72
271.267	55.3
271.483	-49.15
271.698	34.82
271.914	75.77
272.13	69.63
272.346	110.59
272.562	59.39
272.777	106.49
272.993	79.87
273.209	32.77
273.425	135.17
273.64	47.1
273.856	73.73
274.072	81.92
274.287	4.1
274.503	79.87
274.719	75.77
274.934	45.06
275.15	40.96
275.366	24.58
275.581	57.34
275.797	18.43
276.012	79.87
276.228	79.87
276.444	69.63
276.659	131.07
276.875	6.14
277.09	83.97
277.306	65.53
277.521	43.01
277.737	45.06
277.952	81.92
278.168	-32.77
278.383	106.49
278.599	102.4
278.814	57.34
279.03	75.77
279.245	137.21
279.461	-12.29
279.676	75.77
279.892	32.77
280.107	63.49
280.322	40.96
280.538	112.64
280.753	43.01
280.969	86.01
281.184	67.58
281.399	81.92
281.615	0
281.83	8.19
282.045	8.19
282.26	59.39
282.476	94.21
282.691	59.39
282.906	65.53
283.122	83.97
283.337	-26.62
283.552	94.21
283.767	-14.34
283.983	79.87
284.198	0
284.413	110.59
284.628	38.91
284.843	16.38
285.058	96.25
285.274	51.2
285.489	63.49
285.704	90.11
285.919	147.45
286.134	114.69
286.349	57.34
286.564	2.05
286.779	147.45
286.995	36.86
287.21	0
287.425	69.63
287.64	75.77
287.855	73.73
288.07	10.24
288.285	32.77
288.5	67.58
288.715	26.62
288.93	77.82
289.145	69.63
289.36	133.12
289.575	34.82
289.79	163.84
290.004	10.24
290.219	129.02
290.434	90.11
290.649	32.77
290.864	108.54
291.079	-14.34
291.294	0
291.509	118.78
291.724	104.45
291.938	-16.38
292.153	83.97
292.368	67.58
292.583	98.3
292.798	79.87
293.012	100.35
293.227	47.1
293.442	49.15
293.657	20.48
293.871	77.82
294.086	94.21
294.301	133.12
294.516	8.19
294.73	110.59
294.945	6.14
295.16	65.53
295.374	114.69
295.589	124.93
295.804	63.49
296.018	94.21
296.233	124.93
296.447	92.16
296.662	-49.15
296.877	73.73
297.091	176.13
297.306	43.01
297.52	49.15
297.735	49.15
297.949	114.69
298.164	116.73
298.378	116.73
298.593	75.77
298.807	98.3
299.022	116.73
299.236	157.69
299.451	102.4
299.665	49.15
299.88	57.34
300.094	57.34
300.309	6.14
300.523	49.15
300.737	2.05
300.952	77.82
301.166	57.34
301.381	-8.19
301.595	-8.19
301.809	114.69
302.024	63.49
302.238	49.15
302.452	77.82
302.667	47.1
302.881	139.26
303.095	67.58
303.309	10.24
303.524	73.73
303.738	63.49
303.952	20.48
304.166	57.34
304.381	34.82
304.595	122.88
304.809	-6.14
305.023	61.44
305.237	73.73
305.452	36.86
305.666	79.87
305.88	73.73
306.094	73.73
306.308	100.35
306.522	176.13
306.736	79.87
306.95	73.73
307.164	32.77
307.379	-16.38
307.593	155.65
307.807	92.16
308.021	77.82
308.235	77.82
308.449	22.53
308.663	45.06
308.877	124.93
309.091	100.35
309.305	145.41
309.519	4.1
309.733	65.53
309.947	20.48
310.161	77.82
310.374	100.35
310.588	106.49
310.802	155.65
311.016	57.34
311.23	77.82
311.444	120.83
311.658	55.3
311.872	114.69
312.085	83.97
312.299	131.07
312.513	65.53
312.727	77.82
312.941	0
313.154	69.63
313.368	55.3
313.582	73.73
313.796	40.96
314.009	49.15
314.223	122.88
314.437	36.86
314.651	153.6
314.864	28.67
315.078	104.45
315.292	8.19
315.505	49.15
315.719	65.53
315.933	75.77
316.146	57.34
316.36	90.11
316.573	40.96
316.787	51.2
317.001	75.77
317.214	69.63
317.428	92.16
317.641	51.2
317.855	65.53
318.068	24.58
318.282	-6.14
318.495	124.93
318.709	71.68
318.922	92.16
319.136	24.58
319.349	38.91
319.563	32.77
319.776	36.86
319.99	53.25
320.203	98.3
320.417	24.58
320.63	155.65
320.843	110.59
321.057	77.82
321.27	28.67
321.483	65.53
321.697	104.45
321.91	75.77
322.124	40.96
322.337	47.1
322.55	12.29
322.763	69.63
322.977	63.49
323.19	126.97
323.403	96.25
323.617	65.53
323.83	34.82
324.043	88.06
324.256	45.06
324.469	57.34
324.683	104.45
324.896	0
325.109	92.16
325.322	47.1
325.535	83.97
325.748	67.58
325.962	83.97
326.175	118.78
326.388	73.73
326.601	110.59
326.814	159.74
327.027	94.21
327.24	83.97
327.453	43.01
327.666	40.96
327.879	65.53
328.092	153.6
328.305	108.54
328.518	86.01
328.731	51.2
328.944	36.86
329.157	20.48
329.37	114.69
329.583	108.54
329.796	126.97
330.009	2.05
330.222	69.63
330.435	81.92
330.648	131.07
330.861	118.78
331.073	73.73
331.286	149.5
331.499	59.39
331.712	49.15
331.925	59.39
332.138	49.15
332.35	116.73
332.563	40.96
332.776	75.77
332.989	73.73
333.202	12.29
333.414	98.3
333.627	12.29
333.84	108.54
334.053	45.06
334.265	32.77
334.478	57.34
334.691	133.12
334.903	51.2
335.116	-30.72
335.329	-2.05
335.541	131.07
335.754	172.03
335.966	30.72
336.179	49.15
336.392	77.82
336.604	40.96
336.817	49.15
337.029	163.84
337.242	67.58
337.454	88.06
337.667	32.77
337.88	100.35
338.092	49.15
338.305	143.36
338.517	4.1
338.729	69.63
338.942	67.58
339.154	34.82
339.367	110.59
339.579	112.64
339.792	53.25
340.004	110.59
340.217	14.34
340.429	94.21
340.641	0
340.854	75.77
341.066	92.16
341.278	159.74
341.491	69.63
341.703	79.87
341.915	-4.1
342.128	106.49
342.34	14.34
342.552	133.12
342.764	108.54
342.977	59.39
343.189	86.01
343.401	69.63
343.613	22.53
343.826	57.34
344.038	24.58
344.25	63.49
344.462	102.4
344.674	57.34
344.886	-6.14
345.099	102.4
345.311	79.87
345.523	108.54
345.735	45.06
345.947	110.59
346.159	28.67
346.371	18.43
346.583	38.91
346.795	122.88
347.007	49.15
347.219	94.21
347.431	112.64
347.643	55.3
347.855	67.58
348.067	114.69
348.279	10.24
348.491	69.63
348.703	96.25
348.915	47.1
349.127	20.48
349.339	106.49
349.551	10.24
349.763	61.44
349.975	57.34
350.187	167.93
350.399	145.41
350.61	81.92
350.822	100.35
351.034	40.96
351.246	90.11
351.458	147.45
351.669	133.12
351.881	88.06
352.093	88.06
352.305	81.92
352.517	75.77
352.728	77.82
352.94	49.15
353.152	92.16
353.363	59.39
353.575	90.11
353.787	159.74
353.999	122.88
354.21	16.38
354.422	49.15
354.633	65.53
354.845	55.3
355.057	40.96
355.268	45.06
355.48	114.69
355.692	59.39
355.903	69.63
356.115	-34.82
356.326	45.06
356.538	145.41
356.749	149.5
356.961	61.44
357.172	92.16
357.384	120.83
357.595	157.69
357.807	57.34
358.018	108.54
358.23	8.19
358.441	92.16
358.653	126.97
358.864	81.92
359.075	94.21
359.287	16.38
359.498	81.92
359.709	81.92
359.921	24.58
360.132	129.02
360.344	83.97
360.555	16.38
360.766	122.88
360.977	-2.05
361.189	172.03
361.4	0
361.611	137.21
361.823	114.69
362.034	112.64
362.245	43.01
362.456	49.15
362.667	180.22
362.879	65.53
363.09	69.63
363.301	88.06
363.512	129.02
363.723	34.82
363.935	69.63
364.146	20.48
364.357	14.34
364.568	151.55
364.779	43.01
364.99	186.37
365.201	108.54
365.412	79.87
365.623	-14.34
365.834	83.97
366.045	114.69
366.256	143.36
366.467	118.78
366.678	36.86
366.889	100.35
367.1	112.64
367.311	155.65
367.522	77.82
367.733	69.63
367.944	53.25
368.155	26.62
368.366	147.45
368.577	106.49
368.788	124.93
368.999	-8.19
369.209	135.17
369.42	190.46
369.631	157.69
369.842	139.26
370.053	69.63
370.264	57.34
370.474	61.44
370.685	112.64
370.896	0
371.107	114.69
371.317	147.45
371.528	94.21
371.739	20.48
371.95	77.82
372.16	51.2
372.371	47.1
372.582	43.01
372.792	112.64
373.003	71.68
373.214	118.78
373.424	81.92
373.635	10.24
373.846	159.74
374.056	65.53
374.267	77.82
374.477	116.73
374.688	98.3
374.898	20.48
375.109	81.92
375.319	102.4
375.53	212.99
375.74	108.54
375.951	69.63
376.161	24.58
376.372	182.27
376.582	36.86
376.793	106.49
377.003	98.3
377.214	75.77
377.424	61.44
377.635	118.78
377.845	71.68
378.055	126.97
378.266	90.11
378.476	75.77
378.686	120.83
378.897	118.78
379.107	16.38
379.317	124.93
379.528	-104.45
379.738	106.49
379.948	34.82
380.158	190.46
380.369	98.3
380.579	172.03
380.789	102.4
380.999	34.82
381.21	59.39
381.42	126.97
381.63	43.01
381.84	124.93
382.05	149.5
382.261	90.11
382.471	120.83
382.681	32.77
382.891	139.26
383.101	139.26
383.311	24.58
383.521	65.53
383.731	98.3
383.941	182.27
384.151	96.25
384.361	38.91
384.571	98.3
384.781	133.12
384.991	204.8
385.201	124.93
385.411	83.97
385.621	61.44
385.831	96.25
386.041	51.2
386.251	38.91
386.461	98.3
386.671	49.15
386.881	32.77
387.091	77.82
387.301	47.1
387.511	55.3
387.72	26.62
387.93	88.06
388.14	65.53
388.35	122.88
388.56	131.07
388.769	45.06
388.979	116.73
389.189	43.01
389.399	36.86
389.609	129.02
389.818	65.53
390.028	77.82
390.238	69.63
390.447	106.49
390.657	135.17
390.867	143.36
391.076	16.38
391.286	88.06
391.496	34.82
391.705	55.3
391.915	112.64
392.125	79.87
392.334	108.54
392.544	90.11
392.753	143.36
392.963	71.68
393.172	106.49
393.382	73.73
393.591	172.03
393.801	139.26
394.01	178.17
394.22	98.3
394.429	90.11
394.639	102.4
394.848	104.45
395.058	155.65
395.267	120.83
395.477	83.97
395.686	90.11
395.895	180.22
396.105	196.6
396.314	145.41
396.524	77.82
396.733	124.93
396.942	233.47
397.152	126.97
397.361	106.49
397.57	141.31
397.78	157.69
397.989	192.51
398.198	174.08
398.407	145.41
398.617	38.91
398.826	231.42
399.035	172.03
399.244	167.93
399.453	104.45
399.663	98.3
399.872	118.78
400.081	137.21
400.29	233.47
400.499	180.22
400.708	163.84
400.917	112.64
401.127	165.89
401.336	34.82
401.545	186.37
401.754	249.85
401.963	243.71
402.172	139.26
402.381	118.78
402.59	169.98
402.799	106.49
403.008	196.6
403.217	188.41
403.426	176.13
403.635	174.08
403.844	129.02
404.053	202.75
404.262	129.02
404.471	223.23
404.68	229.37
404.888	239.61
405.097	204.8
405.306	260.09
405.515	212.99
405.724	208.89
405.933	264.19
406.142	190.46
406.35	309.24
406.559	180.22
406.768	219.13
406.977	239.61
407.185	231.42
407.394	264.19
407.603	196.6
407.812	262.14
408.02	337.91
408.229	241.66
408.438	276.48
408.646	260.09
408.855	270.33
409.064	337.91
409.272	284.67
409.481	358.39
409.69	237.56
409.898	270.33
410.107	329.72
410.315	368.63
410.524	376.83
410.733	393.21
410.941	464.89
411.15	448.51
411.358	528.38
411.567	593.91
411.775	458.74
411.984	493.56
412.192	491.51
412.401	462.84
412.609	555
412.818	663.54
413.026	526.33
413.234	499.7
413.443	546.81
413.651	595.96
413.86	684.02
414.068	712.69
414.276	706.55
414.485	632.82
414.693	706.55
414.901	765.94
415.11	804.85
415.318	862.19
415.526	880.63
415.734	884.72
415.943	878.58
416.151	954.35
416.359	968.69
416.567	991.22
416.776	1089.52
416.984	1038.32
417.192	1187.82
417.4	1118.19
417.608	1200.11
417.817	1191.92
418.025	1363.95
418.233	1363.95
418.441	1193.97
418.649	1277.93
418.857	1345.52
419.065	1495.02
419.273	1503.21
419.481	1439.72
419.689	1703.91
419.897	1632.23
420.105	1544.17
420.313	1642.47
420.521	1832.93
420.729	1789.92
420.937	1824.74
421.145	1892.32
421.353	2080.74
421.561	2179.04
421.769	2222.05
421.977	2338.78
422.185	2170.85
422.393	2414.56
422.601	2582.49
422.809	2605.02
423.017	2590.68
423.224	2631.64
423.432	2766.81
423.64	2818
423.848	3131.34
424.056	3024.85
424.263	3168.21
424.471	3102.67
424.679	3319.76
424.887	3436.49
425.094	3579.85
425.302	3532.75
425.51	3561.42
425.718	3778.5
425.925	3753.93
426.133	3907.52
426.341	4339.65
426.548	4362.17
426.756	4341.69
426.964	4396.99
427.171	4665.27
427.379	4847.54
427.586	4970.42
427.794	5070.77
428.001	5357.49
428.209	5453.74
428.417	5535.66
428.624	5717.93
428.832	5771.18
429.039	5855.14
429.247	5842.85
429.454	6268.83
429.662	6823.83
429.869	6252.45
430.076	6967.19
430.284	6504.35
430.491	6778.78
430.699	7264.15
430.906	7307.15
431.114	7212.95
431.321	7579.53
431.528	7798.66
431.736	8167.3
431.943	8619.9
432.15	8306.56
432.358	8517.5
432.565	8978.3
432.772	9019.25
432.979	9547.63
433.187	9490.29
433.394	9547.63
433.601	10274.66
433.808	10458.98
434.016	10104.68
434.223	10600.29
434.43	11288.4
434.637	11038.55
434.844	11738.96
435.052	11917.13
435.259	12035.91
435.466	12218.18
435.673	11849.55
435.88	12619.58
436.087	13401.91
436.294	13360.95
436.501	13033.27
436.708	13213.49
436.915	13907.76
437.122	14217
437.329	14186.28
437.537	14800.67
437.743	15382.29
437.95	14657.31
438.157	15746.83
438.364	16072.46
438.571	16146.19
438.778	16398.09
438.985	17891.05
439.192	17094.4
439.399	17417.97
439.606	17403.64
439.813	18222.83
440.02	19642.07
440.227	19177.18
440.433	18697.95
440.64	19551.96
440.847	19318.49
441.054	20057.81
441.261	21046.97
441.467	21096.13
441.674	21272.25
441.881	21862.07
442.088	21966.51
442.294	21540.54
442.501	22386.35
442.708	23082.66
442.914	24006.29
443.121	24542.86
443.328	24000.15
443.534	25534.07
443.741	24843.91
443.948	24397.45
444.154	26631.79
444.361	26248.82
444.568	26576.49
444.774	26855.01
444.981	26736.23
445.187	27795.03
445.394	29013.57
445.6	28309.07
445.807	31295.01
446.013	30113.33
446.22	30201.4
446.426	31577.63
446.633	32259.6
446.839	33316.36
447.046	31733.28
447.252	33203.72
447.459	33721.85
447.665	33383.94
447.871	35507.68
448.078	36548.05
448.284	34498.03
448.491	36009.43
448.697	36978.12
448.903	38118.84
449.11	37631.43
449.316	37096.91
449.522	37850.56
449.728	38649.27
449.935	39075.24
450.141	38950.32
450.347	39906.72
450.553	38987.18
450.76	39685.54
450.966	40920.46
451.172	40029.6
451.378	41188.75
451.584	40291.74
451.791	41381.26
451.997	41409.93
452.203	42014.08
452.409	41813.38
452.615	41655.68
452.821	40166.81
453.027	39792.03
453.233	42147.2
453.44	40453.53
453.646	40865.17
453.852	40695.19
454.058	41454.98
454.264	40326.55
454.47	41137.55
454.676	40050.08
454.882	41790.85
455.088	38157.75
455.294	38387.13
455.5	39128.49
455.705	39495.08
455.911	38483.38
456.117	37076.43
456.323	37076.43
456.529	34915.82
456.735	36658.64
456.941	35677.66
457.147	35065.32
457.352	34063.86
457.558	33889.79
457.764	33488.38
457.97	32923.15
458.176	32509.46
458.381	32282.13
458.587	30510.64
458.793	30731.82
458.999	28902.98
459.204	31286.82
459.41	30043.7
459.616	28532.3
459.821	28511.82
460.027	28368.46
460.233	27835.99
460.438	26181.23
460.644	26611.31
460.85	25861.75
461.055	24970.88
461.261	24952.45
461.466	23221.92
461.672	22552.23
461.878	24110.74
462.083	22546.09
462.289	21954.22
462.494	21841.59
462.7	20801.22
462.905	20289.23
463.111	21012.16
463.316	21124.8
463.522	20569.8
463.727	20551.37
463.932	20596.42
464.138	20436.68
464.343	20428.49
464.549	19891.92
464.754	20467.4
464.959	20403.91
465.165	19959.5
465.37	19449.56
465.575	18812.64
465.781	19603.16
465.986	19488.47
