Data from USB4F104151__53__13-05-34-763.txt Node

Date: Fri Mar 14 13:05:34 EDT 2025
User: louis
Spectrometer: USB4F10415
Trigger mode: 4
Integration Time (sec): 4.000000E-2
Scans to average: 1
Electric dark correction enabled: true
Nonlinearity correction enabled: false
Boxcar width: 0
XAxis mode: Wavelengths
Number of Pixels in Spectrum: 3648
>>>>>Begin Spectral Data<<<<<
178.204	-193.53
178.424	-193.53
178.644	-193.53
178.864	-230.4
179.084	-154.62
179.304	23.55
179.524	-3.07
179.744	11.26
179.964	39.94
180.184	-13.31
180.404	-41.98
180.624	19.46
180.844	-21.5
181.064	25.6
181.283	11.26
181.503	-39.94
181.723	-11.26
181.943	-52.22
182.163	48.13
182.383	113.66
182.602	25.6
182.822	132.09
183.042	52.22
183.262	-9.22
183.482	72.7
183.701	60.42
183.921	50.18
184.141	-87.04
184.361	107.52
184.58	19.46
184.8	105.47
185.02	44.03
185.239	82.94
185.459	54.27
185.679	37.89
185.898	-37.89
186.118	95.23
186.338	46.08
186.557	37.89
186.777	-68.61
186.997	25.6
187.216	31.74
187.436	125.95
187.655	27.65
187.875	80.89
188.095	33.79
188.314	78.85
188.534	91.13
188.753	56.32
188.973	62.46
189.192	82.94
189.412	52.22
189.631	60.42
189.851	-3.07
190.07	3.07
190.29	-70.65
190.509	21.5
190.729	113.66
190.948	23.55
191.168	238.59
191.387	50.18
191.607	39.94
191.826	91.13
192.045	41.98
192.265	91.13
192.484	78.85
192.704	15.36
192.923	-46.08
193.142	117.76
193.362	37.89
193.581	150.53
193.8	117.76
194.02	54.27
194.239	60.42
194.458	48.13
194.678	52.22
194.897	68.61
195.116	41.98
195.335	9.22
195.555	25.6
195.774	-21.5
195.993	84.99
196.212	41.98
196.432	91.13
196.651	-1.02
196.87	13.31
197.089	136.19
197.308	80.89
197.528	-13.31
197.747	-1.02
197.966	-27.65
198.185	29.7
198.404	-19.46
198.623	52.22
198.842	58.37
199.062	97.28
199.281	99.33
199.5	15.36
199.719	54.27
199.938	60.42
200.157	66.56
200.376	35.84
200.595	138.24
200.814	23.55
201.033	-5.12
201.252	66.56
201.471	9.22
201.69	60.42
201.909	31.74
202.128	87.04
202.347	33.79
202.566	68.61
202.785	-27.65
203.004	-15.36
203.223	201.72
203.442	3.07
203.661	-46.08
203.879	91.13
204.098	109.57
204.317	-39.94
204.536	31.74
204.755	84.99
204.974	95.23
205.193	13.31
205.411	138.24
205.63	35.84
205.849	-9.22
206.068	31.74
206.287	-15.36
206.505	39.94
206.724	89.09
206.943	31.74
207.162	39.94
207.381	21.5
207.599	33.79
207.818	39.94
208.037	-50.18
208.255	-27.65
208.474	5.12
208.693	15.36
208.911	11.26
209.13	101.37
209.349	-46.08
209.567	62.46
209.786	93.18
210.005	62.46
210.223	39.94
210.442	-46.08
210.661	52.22
210.879	60.42
211.098	13.31
211.316	54.27
211.535	84.99
211.753	3.07
211.972	60.42
212.191	-11.26
212.409	48.13
212.628	74.75
212.846	-48.13
213.065	54.27
213.283	64.51
213.502	31.74
213.72	50.18
213.938	41.98
214.157	-5.12
214.375	72.7
214.594	7.17
214.812	72.7
215.031	15.36
215.249	-25.6
215.467	74.75
215.686	5.12
215.904	74.75
216.122	44.03
216.341	-19.46
216.559	62.46
216.778	52.22
216.996	50.18
217.214	52.22
217.432	-21.5
217.651	52.22
217.869	91.13
218.087	27.65
218.306	13.31
218.524	62.46
218.742	3.07
218.96	13.31
219.179	93.18
219.397	39.94
219.615	152.57
219.833	82.94
220.051	-27.65
220.27	138.24
220.488	91.13
220.706	95.23
220.924	39.94
221.142	21.5
221.36	-35.84
221.578	93.18
221.796	-3.07
222.015	31.74
222.233	31.74
222.451	113.66
222.669	-27.65
222.887	-37.89
223.105	21.5
223.323	-3.07
223.541	9.22
223.759	7.17
223.977	72.7
224.195	119.81
224.413	91.13
224.631	50.18
224.849	52.22
225.067	125.95
225.285	33.79
225.503	80.89
225.721	-17.41
225.939	7.17
226.157	21.5
226.375	138.24
226.592	-11.26
226.81	-17.41
227.028	140.29
227.246	185.34
227.464	-3.07
227.682	115.71
227.9	44.03
228.117	101.37
228.335	39.94
228.553	-54.27
228.771	17.41
228.989	84.99
229.206	-3.07
229.424	87.04
229.642	-25.6
229.86	-66.56
230.077	17.41
230.295	35.84
230.513	154.62
230.731	74.75
230.948	134.14
231.166	99.33
231.384	-5.12
231.601	35.84
231.819	37.89
232.037	-9.22
232.254	15.36
232.472	44.03
232.689	-29.7
232.907	-39.94
233.125	-5.12
233.342	19.46
233.56	-44.03
233.777	54.27
233.995	29.7
234.213	76.8
234.43	-5.12
234.648	64.51
234.865	-5.12
235.083	87.04
235.3	46.08
235.518	41.98
235.735	115.71
235.953	-23.55
236.17	54.27
236.388	23.55
236.605	33.79
236.822	109.57
237.04	11.26
237.257	37.89
237.475	1.02
237.692	44.03
237.909	72.7
238.127	7.17
238.344	97.28
238.562	41.98
238.779	-1.02
238.996	-35.84
239.214	11.26
239.431	93.18
239.648	52.22
239.865	125.95
240.083	105.47
240.3	7.17
240.517	21.5
240.735	60.42
240.952	82.94
241.169	138.24
241.386	44.03
241.603	60.42
241.821	-9.22
242.038	95.23
242.255	-19.46
242.472	25.6
242.689	64.51
242.907	82.94
243.124	35.84
243.341	54.27
243.558	33.79
243.775	5.12
243.992	-29.7
244.209	117.76
244.426	136.19
244.643	68.61
244.86	-1.02
245.078	27.65
245.295	-9.22
245.512	87.04
245.729	17.41
245.946	109.57
246.163	80.89
246.38	21.5
246.597	52.22
246.814	-44.03
247.031	19.46
247.248	-1.02
247.464	89.09
247.681	-21.5
247.898	33.79
248.115	68.61
248.332	11.26
248.549	113.66
248.766	103.42
248.983	93.18
249.2	64.51
249.417	-5.12
249.633	54.27
249.85	68.61
250.067	58.37
250.284	64.51
250.501	9.22
250.717	44.03
250.934	-1.02
251.151	3.07
251.368	44.03
251.585	48.13
251.801	33.79
252.018	37.89
252.235	130.05
252.451	54.27
252.668	29.7
252.885	-19.46
253.102	125.95
253.318	1.02
253.535	-5.12
253.752	-5.12
253.968	-33.79
254.185	5.12
254.401	35.84
254.618	113.66
254.835	87.04
255.051	44.03
255.268	19.46
255.484	60.42
255.701	15.36
255.917	13.31
256.134	84.99
256.351	3.07
256.567	3.07
256.784	25.6
257	9.22
257.217	78.85
257.433	99.33
257.65	54.27
257.866	1.02
258.082	9.22
258.299	29.7
258.515	84.99
258.732	15.36
258.948	11.26
259.165	-11.26
259.381	-17.41
259.597	37.89
259.814	97.28
260.03	58.37
260.246	-1.02
260.463	-5.12
260.679	62.46
260.895	56.32
261.112	46.08
261.328	5.12
261.544	31.74
261.761	109.57
261.977	66.56
262.193	-41.98
262.409	54.27
262.626	-3.07
262.842	46.08
263.058	-60.42
263.274	76.8
263.49	3.07
263.707	97.28
263.923	37.89
264.139	-41.98
264.355	-19.46
264.571	82.94
264.787	44.03
265.004	68.61
265.22	72.7
265.436	9.22
265.652	44.03
265.868	21.5
266.084	-80.89
266.3	27.65
266.516	101.37
266.732	39.94
266.948	68.61
267.164	80.89
267.38	60.42
267.596	21.5
267.812	189.44
268.028	29.7
268.244	3.07
268.46	48.13
268.676	60.42
268.892	46.08
269.108	17.41
269.324	91.13
269.54	11.26
269.756	62.46
269.972	7.17
270.188	44.03
270.403	-35.84
270.619	35.84
270.835	35.84
271.051	11.26
271.267	80.89
271.483	3.07
271.698	46.08
271.914	68.61
272.13	93.18
272.346	-3.07
272.562	60.42
272.777	5.12
272.993	60.42
273.209	37.89
273.425	11.26
273.64	-15.36
273.856	97.28
274.072	54.27
274.287	7.17
274.503	35.84
274.719	15.36
274.934	35.84
275.15	-91.13
275.366	-7.17
275.581	-54.27
275.797	78.85
276.012	1.02
276.228	64.51
276.444	35.84
276.659	-11.26
276.875	-54.27
277.09	76.8
277.306	-27.65
277.521	41.98
277.737	-3.07
277.952	78.85
278.168	25.6
278.383	60.42
278.599	-9.22
278.814	101.37
279.03	25.6
279.245	54.27
279.461	62.46
279.676	15.36
279.892	-72.7
280.107	29.7
280.322	21.5
280.538	66.56
280.753	11.26
280.969	105.47
281.184	33.79
281.399	136.19
281.615	121.85
281.83	60.42
282.045	-60.42
282.26	13.31
282.476	-52.22
282.691	87.04
282.906	27.65
283.122	11.26
283.337	-31.74
283.552	68.61
283.767	-44.03
283.983	119.81
284.198	19.46
284.413	68.61
284.628	-50.18
284.843	19.46
285.058	105.47
285.274	33.79
285.489	35.84
285.704	62.46
285.919	21.5
286.134	101.37
286.349	-21.5
286.564	-3.07
286.779	136.19
286.995	-31.74
287.21	-27.65
287.425	48.13
287.64	21.5
287.855	41.98
288.07	-64.51
288.285	101.37
288.5	68.61
288.715	17.41
288.93	23.55
289.145	44.03
289.36	101.37
289.575	39.94
289.79	7.17
290.004	29.7
290.219	17.41
290.434	19.46
290.649	62.46
290.864	35.84
291.079	91.13
291.294	29.7
291.509	9.22
291.724	-9.22
291.938	19.46
292.153	74.75
292.368	29.7
292.583	-56.32
292.798	117.76
293.012	68.61
293.227	9.22
293.442	17.41
293.657	64.51
293.871	95.23
294.086	60.42
294.301	138.24
294.516	56.32
294.73	23.55
294.945	-13.31
295.16	-23.55
295.374	107.52
295.589	70.65
295.804	-29.7
296.018	87.04
296.233	27.65
296.447	-46.08
296.662	80.89
296.877	35.84
297.091	76.8
297.306	-19.46
297.52	64.51
297.735	-17.41
297.949	1.02
298.164	-35.84
298.378	48.13
298.593	70.65
298.807	60.42
299.022	103.42
299.236	50.18
299.451	-11.26
299.665	66.56
299.88	21.5
300.094	29.7
300.309	33.79
300.523	101.37
300.737	-46.08
300.952	-7.17
301.166	13.31
301.381	3.07
301.595	27.65
301.809	-1.02
302.024	23.55
302.238	19.46
302.452	31.74
302.667	70.65
302.881	121.85
303.095	64.51
303.309	70.65
303.524	-7.17
303.738	-9.22
303.952	3.07
304.166	93.18
304.381	-31.74
304.595	99.33
304.809	-7.17
305.023	7.17
305.237	31.74
305.452	35.84
305.666	19.46
305.88	60.42
306.094	84.99
306.308	-15.36
306.522	74.75
306.736	25.6
306.95	27.65
307.164	37.89
307.379	134.14
307.593	119.81
307.807	76.8
308.021	-7.17
308.235	-3.07
308.449	19.46
308.663	23.55
308.877	99.33
309.091	60.42
309.305	64.51
309.519	-3.07
309.733	80.89
309.947	-7.17
310.161	-27.65
310.374	111.61
310.588	39.94
310.802	44.03
311.016	54.27
311.23	68.61
311.444	11.26
311.658	21.5
311.872	87.04
312.085	62.46
312.299	93.18
312.513	50.18
312.727	84.99
312.941	7.17
313.154	101.37
313.368	9.22
313.582	5.12
313.796	-11.26
314.009	60.42
314.223	70.65
314.437	46.08
314.651	64.51
314.864	-21.5
315.078	11.26
315.292	19.46
315.505	-46.08
315.719	3.07
315.933	21.5
316.146	48.13
316.36	52.22
316.573	103.42
316.787	95.23
317.001	27.65
317.214	-29.7
317.428	68.61
317.641	91.13
317.855	52.22
318.068	64.51
318.282	15.36
318.495	117.76
318.709	19.46
318.922	13.31
319.136	68.61
319.349	21.5
319.563	-11.26
319.776	9.22
319.99	39.94
320.203	-25.6
320.417	21.5
320.63	33.79
320.843	111.61
321.057	13.31
321.27	23.55
321.483	78.85
321.697	87.04
321.91	103.42
322.124	50.18
322.337	19.46
322.55	72.7
322.763	5.12
322.977	56.32
323.19	-35.84
323.403	27.65
323.617	72.7
323.83	-19.46
324.043	52.22
324.256	84.99
324.469	39.94
324.683	54.27
324.896	48.13
325.109	19.46
325.322	-50.18
325.535	134.14
325.748	21.5
325.962	37.89
326.175	70.65
326.388	17.41
326.601	119.81
326.814	58.37
327.027	48.13
327.24	162.81
327.453	-9.22
327.666	121.85
327.879	58.37
328.092	82.94
328.305	97.28
328.518	11.26
328.731	7.17
328.944	21.5
329.157	82.94
329.37	44.03
329.583	78.85
329.796	82.94
330.009	-39.94
330.222	121.85
330.435	93.18
330.648	21.5
330.861	64.51
331.073	113.66
331.286	125.95
331.499	142.33
331.712	13.31
331.925	13.31
332.138	-37.89
332.35	125.95
332.563	15.36
332.776	1.02
332.989	-21.5
333.202	54.27
333.414	37.89
333.627	50.18
333.84	23.55
334.053	46.08
334.265	119.81
334.478	52.22
334.691	19.46
334.903	35.84
335.116	37.89
335.329	-37.89
335.541	95.23
335.754	76.8
335.966	3.07
336.179	48.13
336.392	25.6
336.604	70.65
336.817	123.9
337.029	56.32
337.242	52.22
337.454	101.37
337.667	93.18
337.88	103.42
338.092	48.13
338.305	82.94
338.517	3.07
338.729	27.65
338.942	160.77
339.154	11.26
339.367	-5.12
339.579	54.27
339.792	132.09
340.004	134.14
340.217	27.65
340.429	27.65
340.641	44.03
340.854	-33.79
341.066	-25.6
341.278	113.66
341.491	103.42
341.703	109.57
341.915	15.36
342.128	117.76
342.34	72.7
342.552	-41.98
342.764	58.37
342.977	5.12
343.189	23.55
343.401	60.42
343.613	-52.22
343.826	7.17
344.038	19.46
344.25	93.18
344.462	56.32
344.674	-7.17
344.886	37.89
345.099	41.98
345.311	35.84
345.523	-52.22
345.735	13.31
345.947	-44.03
346.159	23.55
346.371	41.98
346.583	60.42
346.795	64.51
347.007	-17.41
347.219	58.37
347.431	7.17
347.643	109.57
347.855	17.41
348.067	93.18
348.279	-23.55
348.491	29.7
348.703	44.03
348.915	27.65
349.127	39.94
349.339	44.03
349.551	19.46
349.763	11.26
349.975	41.98
350.187	205.82
350.399	37.89
350.61	89.09
350.822	44.03
351.034	11.26
351.246	37.89
351.458	-41.98
351.669	52.22
351.881	156.67
352.093	91.13
352.305	-1.02
352.517	1.02
352.728	95.23
352.94	29.7
353.152	46.08
353.363	-3.07
353.575	97.28
353.787	103.42
353.999	5.12
354.21	70.65
354.422	80.89
354.633	56.32
354.845	15.36
355.057	37.89
355.268	44.03
355.48	111.61
355.692	-68.61
355.903	31.74
356.115	-37.89
356.326	35.84
356.538	76.8
356.749	50.18
356.961	119.81
357.172	84.99
357.384	25.6
357.595	117.76
357.807	60.42
358.018	48.13
358.23	44.03
358.441	97.28
358.653	109.57
358.864	37.89
359.075	3.07
359.287	82.94
359.498	60.42
359.709	31.74
359.921	82.94
360.132	3.07
360.344	52.22
360.555	46.08
360.766	68.61
360.977	-50.18
361.189	84.99
361.4	37.89
361.611	48.13
361.823	56.32
362.034	74.75
362.245	-3.07
362.456	44.03
362.667	91.13
362.879	-21.5
363.09	60.42
363.301	150.53
363.512	13.31
363.723	62.46
363.935	21.5
364.146	37.89
364.357	-25.6
364.568	-13.31
364.779	11.26
364.99	160.77
365.201	35.84
365.412	150.53
365.623	-11.26
365.834	78.85
366.045	15.36
366.256	97.28
366.467	-21.5
366.678	60.42
366.889	80.89
367.1	101.37
367.311	84.99
367.522	15.36
367.733	93.18
367.944	62.46
368.155	44.03
368.366	31.74
368.577	29.7
368.788	84.99
368.999	58.37
369.209	56.32
369.42	123.9
369.631	136.19
369.842	132.09
370.053	21.5
370.264	19.46
370.474	11.26
370.685	33.79
370.896	35.84
371.107	123.9
371.317	72.7
371.528	11.26
371.739	119.81
371.95	62.46
372.16	97.28
372.371	-21.5
372.582	56.32
372.792	91.13
373.003	60.42
373.214	62.46
373.424	78.85
373.635	27.65
373.846	25.6
374.056	-37.89
374.267	95.23
374.477	72.7
374.688	-11.26
374.898	11.26
375.109	60.42
375.319	58.37
375.53	95.23
375.74	103.42
375.951	-9.22
376.161	87.04
376.372	125.95
376.582	31.74
376.793	87.04
377.003	21.5
377.214	5.12
377.424	62.46
377.635	50.18
377.845	23.55
378.055	80.89
378.266	-15.36
378.476	29.7
378.686	68.61
378.897	33.79
379.107	41.98
379.317	60.42
379.528	74.75
379.738	72.7
379.948	-27.65
380.158	111.61
380.369	35.84
380.579	101.37
380.789	68.61
380.999	74.75
381.21	68.61
381.42	140.29
381.63	7.17
381.84	46.08
382.05	-37.89
382.261	60.42
382.471	70.65
382.681	46.08
382.891	140.29
383.101	105.47
383.311	19.46
383.521	-60.42
383.731	11.26
383.941	58.37
384.151	66.56
384.361	134.14
384.571	72.7
384.781	93.18
384.991	103.42
385.201	171.01
385.411	123.9
385.621	134.14
385.831	89.09
386.041	95.23
386.251	91.13
386.461	95.23
386.671	144.38
386.881	27.65
387.091	80.89
387.301	84.99
387.511	76.8
387.72	95.23
387.93	-5.12
388.14	-37.89
388.35	89.09
388.56	121.85
388.769	-13.31
388.979	11.26
389.189	-11.26
389.399	74.75
389.609	56.32
389.818	93.18
390.028	50.18
390.238	66.56
390.447	-7.17
390.657	68.61
390.867	66.56
391.076	66.56
391.286	95.23
391.496	105.47
391.705	37.89
391.915	87.04
392.125	76.8
392.334	54.27
392.544	162.81
392.753	101.37
392.963	-7.17
393.172	19.46
393.382	19.46
393.591	93.18
393.801	15.36
394.01	183.29
394.22	33.79
394.429	60.42
394.639	52.22
394.848	119.81
395.058	35.84
395.267	105.47
395.477	62.46
395.686	52.22
395.895	168.96
396.105	162.81
396.314	119.81
396.524	97.28
396.733	48.13
396.942	121.85
397.152	66.56
397.361	76.8
397.57	78.85
397.78	136.19
397.989	164.86
398.198	52.22
398.407	11.26
398.617	97.28
398.826	54.27
399.035	70.65
399.244	144.38
399.453	41.98
399.663	74.75
399.872	72.7
400.081	-1.02
400.29	189.44
400.499	52.22
400.708	162.81
400.917	21.5
401.127	52.22
401.336	52.22
401.545	150.53
401.754	125.95
401.963	168.96
402.172	93.18
402.381	78.85
402.59	33.79
402.799	140.29
403.008	148.48
403.217	113.66
403.426	160.77
403.635	25.6
403.844	54.27
404.053	99.33
404.262	-5.12
404.471	134.14
404.68	207.87
404.888	111.61
405.097	144.38
405.306	166.91
405.515	185.34
405.724	191.49
405.933	144.38
406.142	171.01
406.35	201.72
406.559	103.42
406.768	132.09
406.977	269.31
407.185	220.16
407.394	142.33
407.603	23.55
407.812	242.68
408.02	316.41
408.229	177.15
408.438	175.1
408.646	181.25
408.855	187.39
409.064	240.64
409.272	125.95
409.481	291.84
409.69	267.26
409.898	257.02
410.107	246.78
410.315	318.46
410.524	308.22
410.733	334.84
410.941	263.16
411.15	373.75
411.358	355.32
411.567	377.85
411.775	340.99
411.984	433.15
412.192	519.16
412.401	388.09
412.609	513.02
412.818	484.34
413.026	502.78
413.234	490.49
413.443	496.63
413.651	488.44
413.86	648.18
414.068	662.52
414.276	658.42
414.485	611.32
414.693	678.9
414.901	717.81
415.11	683
415.318	715.77
415.526	693.24
415.734	799.73
415.943	803.83
416.151	867.31
416.359	867.31
416.567	887.79
416.776	1002.48
416.984	1041.39
417.192	1010.67
417.4	1027.06
417.608	975.86
417.817	1059.82
418.025	1141.74
418.233	1170.41
418.441	1141.74
418.649	1272.81
418.857	1428.46
419.065	1354.73
419.273	1303.53
419.481	1420.27
419.689	1450.99
419.897	1668.07
420.105	1696.74
420.313	1692.65
420.521	1752.04
420.729	1879.01
420.937	1815.52
421.145	1870.82
421.353	2122.72
421.561	2008.03
421.769	2161.63
421.977	2261.98
422.185	2296.8
422.393	2124.77
422.601	2479.07
422.809	2427.87
423.017	2448.35
423.224	2647
423.432	2804.69
423.64	2655.19
423.848	2997.2
424.056	2968.53
424.263	3056.59
424.471	3066.83
424.679	3306.45
424.887	3193.81
425.094	3562.44
425.302	3435.47
425.51	3541.96
425.718	3658.7
425.925	3855.3
426.133	3926.98
426.341	4197.31
426.548	4363.2
426.756	4320.19
426.964	4465.6
427.171	4707.26
427.379	4670.39
427.586	4789.17
427.794	4959.16
428.001	5221.3
428.209	5456.81
428.417	5432.24
428.624	5839.78
428.832	5680.04
429.039	5594.03
429.247	5682.09
429.454	6288.29
429.662	6683.55
429.869	6138.79
430.076	6755.22
430.284	6632.35
430.491	6822.81
430.699	7113.62
430.906	7125.91
431.114	7392.14
431.321	7469.97
431.528	7785.35
431.736	8199.04
431.943	8530.81
432.15	8131.46
432.358	8309.63
432.565	8797.05
432.772	8801.15
432.979	9352.05
433.187	9517.93
433.394	9542.51
433.601	9964.39
433.808	10195.81
434.016	10079.08
434.223	10568.54
434.43	11232.08
434.637	11000.66
434.844	11744.08
435.052	11776.84
435.259	11826
435.466	11750.22
435.673	11782.99
435.88	12567.36
436.087	13308.72
436.294	13087.54
436.501	13028.15
436.708	13075.26
436.915	13384.5
437.122	14113.58
437.329	14254.89
437.537	14486.31
437.743	14897.95
437.95	14660.38
438.157	15514.39
438.364	15926.03
438.571	15874.83
438.778	16163.59
438.985	17533.68
439.192	17003.26
439.399	17171.19
439.606	17109.75
439.813	18197.23
440.02	19098.33
440.227	18918.11
440.433	18572
440.64	19241.69
440.847	19278.55
441.054	19516.12
441.261	20933.31
441.467	20458.18
441.674	21017.28
441.881	21658.29
442.088	21658.29
442.294	21476.02
442.501	22401.71
442.708	22813.35
442.914	23349.92
443.121	24572.55
443.328	24027.79
443.534	25555.58
443.741	24584.84
443.948	24529.55
444.154	26385.01
444.361	26301.04
444.568	26382.96
444.774	26157.68
444.981	26724.97
445.187	27576.92
445.394	28684.87
445.6	28148.31
445.807	31013.41
446.013	29676.09
446.22	29968.95
446.426	31248.93
446.633	31627.81
446.839	32686.61
447.046	31390.24
447.252	33143.3
447.459	32848.39
447.665	33098.25
447.871	34580.98
448.078	36155.86
448.284	34290.16
448.491	35539.43
448.697	36803.02
448.903	36952.52
449.11	37331.4
449.316	36901.32
449.522	37775.81
449.728	38810.03
449.935	38855.09
450.141	38498.74
450.347	39414.18
450.553	38570.42
450.76	38877.61
450.966	40241.56
451.172	40055.2
451.378	40771.99
451.584	39745.95
451.791	41220.49
451.997	40780.18
452.203	41644.42
452.409	41460.1
452.615	41617.8
452.821	39791.01
453.027	39408.04
453.233	41576.84
453.44	40264.09
453.646	40284.57
453.852	40507.8
454.058	41339.27
454.264	40114.59
454.47	40980.88
454.676	40243.61
454.882	41259.4
455.088	37831.1
455.294	38558.13
455.5	39604.64
455.705	39522.72
455.911	37841.34
456.117	37231.05
456.323	36753.87
456.529	35015.15
456.735	36213.21
456.941	34894.32
457.147	34847.21
457.352	33810.94
457.558	33655.29
457.764	33608.19
457.97	32866.83
458.176	32262.68
458.381	32012.82
458.587	30437.94
458.793	30878.25
458.999	28738.12
459.204	30829.1
459.41	30075.45
459.616	28275.28
459.821	28648.01
460.027	28172.88
460.233	27892.31
460.438	26733.16
460.644	26704.49
460.85	25631.35
461.055	25109.12
461.261	24973.95
461.466	23104.16
461.672	22274.73
461.878	23788.18
462.083	22301.36
462.289	21729.97
462.494	21746.36
462.7	20775.62
462.905	20234.96
463.111	20564.68
463.316	20912.83
463.522	20636.36
463.727	20474.57
463.932	20503.24
464.138	20200.14
464.343	20161.23
464.549	19731.15
464.754	20521.67
464.959	20296.39
465.165	19993.29
465.37	19221.21
465.575	18606.82
465.781	19765.97
465.986	19776.21
466.191	18959.07
466.397	18504.42
466.602	17500.92
