Data from USB4F104151__8__13-04-11-971.txt Node

Date: Fri Mar 14 13:04:11 EDT 2025
User: louis
Spectrometer: USB4F10415
Trigger mode: 4
Integration Time (sec): 4.000000E-2
Scans to average: 1
Electric dark correction enabled: true
Nonlinearity correction enabled: false
Boxcar width: 0
XAxis mode: Wavelengths
Number of Pixels in Spectrum: 3648
>>>>>Begin Spectral Data<<<<<
178.204	-210.77
178.424	-210.77
178.644	-210.77
178.864	-212.82
179.084	-251.73
179.304	-32.6
179.524	-3.93
179.744	24.75
179.964	57.51
180.184	-59.22
180.404	20.65
180.624	-48.98
180.844	-34.64
181.064	-63.32
181.283	51.37
181.503	2.22
181.723	86.19
181.943	-69.46
182.163	112.81
182.383	-59.22
182.602	-53.08
182.822	96.43
183.042	24.75
183.262	-20.31
183.482	16.55
183.701	30.89
183.921	43.18
184.141	-79.7
184.361	30.89
184.58	8.36
184.8	41.13
185.02	-42.84
185.239	-1.88
185.459	-44.88
185.679	-10.07
185.898	-8.02
186.118	-1.88
186.338	4.27
186.557	30.89
186.777	20.65
186.997	-34.64
187.216	73.9
187.436	37.03
187.655	63.66
187.875	98.47
188.095	41.13
188.314	18.6
188.534	102.57
188.753	49.32
188.973	69.8
189.192	24.75
189.412	30.89
189.631	28.84
189.851	14.51
190.07	104.62
190.29	6.31
190.509	28.84
190.729	6.31
190.948	88.23
191.168	174.25
191.387	96.43
191.607	80.04
191.826	14.51
192.045	-65.36
192.265	-18.26
192.484	20.65
192.704	65.71
192.923	-67.41
193.142	-3.93
193.362	80.04
193.581	143.53
193.8	24.75
194.02	47.27
194.239	12.46
194.458	-12.12
194.678	-18.26
194.897	45.23
195.116	45.23
195.335	67.75
195.555	96.43
195.774	12.46
195.993	24.75
196.212	-34.64
196.432	82.09
196.651	-10.07
196.87	71.85
197.089	123.05
197.308	12.46
197.528	30.89
197.747	-8.02
197.966	-12.12
198.185	84.14
198.404	-12.12
198.623	20.65
198.842	110.76
199.062	94.38
199.281	123.05
199.5	24.75
199.719	108.71
199.938	-3.93
200.157	123.05
200.376	10.41
200.595	98.47
200.814	65.71
201.033	-48.98
201.252	114.86
201.471	82.09
201.69	55.47
201.909	57.51
202.128	47.27
202.347	69.8
202.566	104.62
202.785	-46.93
203.004	-20.31
203.223	149.67
203.442	73.9
203.661	-12.12
203.879	41.13
204.098	16.55
204.317	8.36
204.536	90.28
204.755	55.47
204.974	45.23
205.193	88.23
205.411	98.47
205.63	102.57
205.849	-28.5
206.068	-8.02
206.287	18.6
206.505	-5.97
206.724	2.22
206.943	77.99
207.162	-18.26
207.381	28.84
207.599	6.31
207.818	55.47
208.037	-12.12
208.255	34.99
208.474	32.94
208.693	-18.26
208.911	12.46
209.13	12.46
209.349	100.52
209.567	53.42
209.786	45.23
210.005	24.75
210.223	24.75
210.442	-38.74
210.661	47.27
210.879	82.09
211.098	-67.41
211.316	34.99
211.535	59.56
211.753	12.46
211.972	-3.93
212.191	47.27
212.409	12.46
212.628	57.51
212.846	-10.07
213.065	26.79
213.283	159.91
213.502	-1.88
213.72	34.99
213.938	-5.97
214.157	39.08
214.375	55.47
214.594	-28.5
214.812	112.81
215.031	-18.26
215.249	30.89
215.467	22.7
215.686	57.51
215.904	32.94
216.122	-16.21
216.341	12.46
216.559	-5.97
216.778	2.22
216.996	22.7
217.214	32.94
217.432	-34.64
217.651	-44.88
217.869	6.31
218.087	-3.93
218.306	69.8
218.524	94.38
218.742	-26.45
218.96	28.84
219.179	20.65
219.397	-8.02
219.615	55.47
219.833	39.08
220.051	-85.84
220.27	24.75
220.488	80.04
220.706	4.27
220.924	6.31
221.142	37.03
221.36	16.55
221.578	37.03
221.796	-1.88
222.015	-36.69
222.233	45.23
222.451	135.34
222.669	-1.88
222.887	53.42
223.105	59.56
223.323	-32.6
223.541	-36.69
223.759	67.75
223.977	43.18
224.195	69.8
224.413	32.94
224.631	63.66
224.849	26.79
225.067	143.53
225.285	26.79
225.503	-1.88
225.721	-55.12
225.939	77.99
226.157	4.27
226.375	77.99
226.592	4.27
226.81	20.65
227.028	57.51
227.246	123.05
227.464	-8.02
227.682	10.41
227.9	28.84
228.117	-30.55
228.335	65.71
228.553	14.51
228.771	4.27
228.989	63.66
229.206	71.85
229.424	12.46
229.642	8.36
229.86	43.18
230.077	37.03
230.295	57.51
230.513	57.51
230.731	-1.88
230.948	53.42
231.166	100.52
231.384	0.17
231.601	59.56
231.819	18.6
232.037	-48.98
232.254	6.31
232.472	-8.02
232.689	-18.26
232.907	24.75
233.125	-1.88
233.342	4.27
233.56	-24.4
233.777	10.41
233.995	6.31
234.213	77.99
234.43	41.13
234.648	0.17
234.865	-28.5
235.083	24.75
235.3	65.71
235.518	32.94
235.735	159.91
235.953	88.23
236.17	41.13
236.388	63.66
236.605	-12.12
236.822	49.32
237.04	90.28
237.257	41.13
237.475	-91.99
237.692	53.42
237.909	2.22
238.127	-10.07
238.344	32.94
238.562	14.51
238.779	6.31
238.996	-3.93
239.214	41.13
239.431	12.46
239.648	-42.84
239.865	49.32
240.083	39.08
240.3	12.46
240.517	-32.6
240.735	45.23
240.952	43.18
241.169	47.27
241.386	34.99
241.603	-28.5
241.821	0.17
242.038	75.95
242.255	51.37
242.472	30.89
242.689	34.99
242.907	37.03
243.124	75.95
243.341	-51.03
243.558	10.41
243.775	-40.79
243.992	-48.98
244.209	34.99
244.426	110.76
244.643	-16.21
244.86	-89.94
245.078	24.75
245.295	51.37
245.512	24.75
245.729	34.99
245.946	-24.4
246.163	61.61
246.38	4.27
246.597	24.75
246.814	-18.26
247.031	0.17
247.248	69.8
247.464	55.47
247.681	30.89
247.898	98.47
248.115	37.03
248.332	-8.02
248.549	41.13
248.766	61.61
248.983	57.51
249.2	45.23
249.417	69.8
249.633	-8.02
249.85	30.89
250.067	28.84
250.284	98.47
250.501	30.89
250.717	39.08
250.934	-22.36
251.151	47.27
251.368	10.41
251.585	114.86
251.801	-14.17
252.018	26.79
252.235	88.23
252.451	-67.41
252.668	-24.4
252.885	10.41
253.102	6.31
253.318	47.27
253.535	51.37
253.752	-20.31
253.968	55.47
254.185	-5.97
254.401	-18.26
254.618	86.19
254.835	-3.93
255.051	53.42
255.268	-3.93
255.484	51.37
255.701	8.36
255.917	63.66
256.134	-22.36
256.351	41.13
256.567	-44.88
256.784	39.08
257	-28.5
257.217	-8.02
257.433	10.41
257.65	-12.12
257.866	77.99
258.082	-1.88
258.299	-18.26
258.515	28.84
258.732	84.14
258.948	-36.69
259.165	22.7
259.381	47.27
259.597	14.51
259.814	30.89
260.03	77.99
260.246	51.37
260.463	47.27
260.679	63.66
260.895	43.18
261.112	63.66
261.328	20.65
261.544	-12.12
261.761	102.57
261.977	-51.03
262.193	-34.64
262.409	57.51
262.626	96.43
262.842	49.32
263.058	22.7
263.274	47.27
263.49	28.84
263.707	65.71
263.923	-18.26
264.139	6.31
264.355	-20.31
264.571	59.56
264.787	-36.69
265.004	55.47
265.22	12.46
265.436	26.79
265.652	-1.88
265.868	32.94
266.084	-44.88
266.3	55.47
266.516	-20.31
266.732	18.6
266.948	2.22
267.164	8.36
267.38	0.17
267.596	-28.5
267.812	57.51
268.028	-32.6
268.244	-28.5
268.46	55.47
268.676	34.99
268.892	34.99
269.108	45.23
269.324	-5.97
269.54	-3.93
269.756	30.89
269.972	-73.56
270.188	-10.07
270.403	-34.64
270.619	4.27
270.835	73.9
271.051	-10.07
271.267	14.51
271.483	39.08
271.698	49.32
271.914	32.94
272.13	57.51
272.346	53.42
272.562	-79.7
272.777	22.7
272.993	-18.26
273.209	-3.93
273.425	55.47
273.64	-32.6
273.856	49.32
274.072	12.46
274.287	43.18
274.503	41.13
274.719	53.42
274.934	49.32
275.15	-42.84
275.366	-42.84
275.581	-110.42
275.797	39.08
276.012	45.23
276.228	14.51
276.444	20.65
276.659	59.56
276.875	0.17
277.09	34.99
277.306	28.84
277.521	116.9
277.737	-63.32
277.952	108.71
278.168	4.27
278.383	53.42
278.599	49.32
278.814	47.27
279.03	53.42
279.245	133.29
279.461	12.46
279.676	32.94
279.892	12.46
280.107	-71.51
280.322	-8.02
280.538	6.31
280.753	41.13
280.969	10.41
281.184	45.23
281.399	47.27
281.615	24.75
281.83	30.89
282.045	8.36
282.26	-32.6
282.476	-61.27
282.691	77.99
282.906	-42.84
283.122	10.41
283.337	-48.98
283.552	75.95
283.767	-18.26
283.983	39.08
284.198	71.85
284.413	75.95
284.628	-57.17
284.843	-8.02
285.058	90.28
285.274	14.51
285.489	14.51
285.704	34.99
285.919	16.55
286.134	20.65
286.349	49.32
286.564	16.55
286.779	121
286.995	-3.93
287.21	-34.64
287.425	45.23
287.64	88.23
287.855	41.13
288.07	-1.88
288.285	80.04
288.5	149.67
288.715	63.66
288.93	14.51
289.145	-61.27
289.36	75.95
289.575	-48.98
289.79	71.85
290.004	121
290.219	-18.26
290.434	-10.07
290.649	-1.88
290.864	26.79
291.079	39.08
291.294	43.18
291.509	10.41
291.724	57.51
291.938	-18.26
292.153	39.08
292.368	-48.98
292.583	92.33
292.798	18.6
293.012	41.13
293.227	73.9
293.442	-18.26
293.657	73.9
293.871	32.94
294.086	28.84
294.301	123.05
294.516	77.99
294.73	90.28
294.945	-5.97
295.16	20.65
295.374	67.75
295.589	100.52
295.804	63.66
296.018	41.13
296.233	106.67
296.447	53.42
296.662	20.65
296.877	145.58
297.091	49.32
297.306	77.99
297.52	71.85
297.735	-59.22
297.949	14.51
298.164	-26.45
298.378	-14.17
298.593	-10.07
298.807	-40.79
299.022	8.36
299.236	98.47
299.451	-24.4
299.665	16.55
299.88	20.65
300.094	49.32
300.309	-36.69
300.523	28.84
300.737	53.42
300.952	-22.36
301.166	63.66
301.381	53.42
301.595	-36.69
301.809	-12.12
302.024	-44.88
302.238	-42.84
302.452	24.75
302.667	20.65
302.881	32.94
303.095	88.23
303.309	77.99
303.524	28.84
303.738	-10.07
303.952	57.51
304.166	80.04
304.381	-83.8
304.595	116.9
304.809	22.7
305.023	55.47
305.237	4.27
305.452	51.37
305.666	-5.97
305.88	47.27
306.094	22.7
306.308	49.32
306.522	82.09
306.736	45.23
306.95	47.27
307.164	12.46
307.379	67.75
307.593	63.66
307.807	73.9
308.021	30.89
308.235	77.99
308.449	-12.12
308.663	43.18
308.877	73.9
309.091	12.46
309.305	63.66
309.519	-77.65
309.733	32.94
309.947	-30.55
310.161	71.85
310.374	8.36
310.588	90.28
310.802	2.22
311.016	51.37
311.23	20.65
311.444	53.42
311.658	12.46
311.872	92.33
312.085	28.84
312.299	84.14
312.513	39.08
312.727	8.36
312.941	-28.5
313.154	67.75
313.368	-22.36
313.582	16.55
313.796	-36.69
314.009	-57.17
314.223	12.46
314.437	37.03
314.651	80.04
314.864	0.17
315.078	51.37
315.292	4.27
315.505	86.19
315.719	26.79
315.933	110.76
316.146	139.43
316.36	14.51
316.573	73.9
316.787	45.23
317.001	98.47
317.214	-42.84
317.428	69.8
317.641	-32.6
317.855	12.46
318.068	28.84
318.282	57.51
318.495	94.38
318.709	67.75
318.922	12.46
319.136	82.09
319.349	45.23
319.563	39.08
319.776	20.65
319.99	-42.84
320.203	34.99
320.417	34.99
320.63	30.89
320.843	-8.02
321.057	39.08
321.27	37.03
321.483	20.65
321.697	49.32
321.91	20.65
322.124	59.56
322.337	73.9
322.55	-32.6
322.763	-1.88
322.977	104.62
323.19	92.33
323.403	-38.74
323.617	28.84
323.83	59.56
324.043	30.89
324.256	55.47
324.469	-3.93
324.683	88.23
324.896	-36.69
325.109	-18.26
325.322	-77.65
325.535	53.42
325.748	30.89
325.962	-18.26
326.175	43.18
326.388	102.57
326.601	90.28
326.814	57.51
327.027	47.27
327.24	143.53
327.453	-3.93
327.666	-20.31
327.879	114.86
328.092	73.9
328.305	45.23
328.518	8.36
328.731	47.27
328.944	-8.02
329.157	53.42
329.37	-26.45
329.583	49.32
329.796	22.7
330.009	-5.97
330.222	14.51
330.435	88.23
330.648	61.61
330.861	-16.21
331.073	30.89
331.286	121
331.499	-3.93
331.712	-36.69
331.925	28.84
332.138	-20.31
332.35	39.08
332.563	-42.84
332.776	57.51
332.989	-87.89
333.202	39.08
333.414	2.22
333.627	22.7
333.84	-3.93
334.053	6.31
334.265	73.9
334.478	73.9
334.691	59.56
334.903	26.79
335.116	-20.31
335.329	30.89
335.541	-40.79
335.754	4.27
335.966	8.36
336.179	77.99
336.392	-67.41
336.604	-40.79
336.817	-8.02
337.029	26.79
337.242	51.37
337.454	49.32
337.667	45.23
337.88	67.75
338.092	22.7
338.305	59.56
338.517	26.79
338.729	20.65
338.942	53.42
339.154	57.51
339.367	86.19
339.579	51.37
339.792	-38.74
340.004	32.94
340.217	57.51
340.429	63.66
340.641	16.55
340.854	-3.93
341.066	12.46
341.278	112.81
341.491	102.57
341.703	26.79
341.915	-3.93
342.128	77.99
342.34	32.94
342.552	14.51
342.764	37.03
342.977	-12.12
343.189	49.32
343.401	73.9
343.613	-61.27
343.826	94.38
344.038	12.46
344.25	34.99
344.462	24.75
344.674	-26.45
344.886	30.89
345.099	53.42
345.311	37.03
345.523	26.79
345.735	22.7
345.947	28.84
346.159	86.19
346.371	61.61
346.583	-34.64
346.795	157.86
347.007	71.85
347.219	26.79
347.431	18.6
347.643	69.8
347.855	-5.97
348.067	37.03
348.279	-75.6
348.491	63.66
348.703	47.27
348.915	28.84
349.127	61.61
349.339	28.84
349.551	-14.17
349.763	71.85
349.975	-18.26
350.187	112.81
350.399	86.19
350.61	-16.21
350.822	14.51
351.034	22.7
351.246	51.37
351.458	100.52
351.669	94.38
351.881	69.8
352.093	88.23
352.305	86.19
352.517	49.32
352.728	133.29
352.94	80.04
353.152	82.09
353.363	73.9
353.575	10.41
353.787	18.6
353.999	53.42
354.21	108.71
354.422	-46.93
354.633	49.32
354.845	-24.4
355.057	14.51
355.268	49.32
355.48	61.61
355.692	45.23
355.903	43.18
356.115	24.75
356.326	-65.36
356.538	51.37
356.749	61.61
356.961	123.05
357.172	8.36
357.384	-48.98
357.595	174.25
357.807	41.13
358.018	-1.88
358.23	37.03
358.441	129.19
358.653	2.22
358.864	30.89
359.075	-18.26
359.287	88.23
359.498	24.75
359.709	112.81
359.921	65.71
360.132	90.28
360.344	71.85
360.555	-89.94
360.766	-5.97
360.977	28.84
361.189	30.89
361.4	47.27
361.611	139.43
361.823	102.57
362.034	118.95
362.245	14.51
362.456	53.42
362.667	49.32
362.879	12.46
363.09	-65.36
363.301	30.89
363.512	39.08
363.723	61.61
363.935	69.8
364.146	43.18
364.357	20.65
364.568	8.36
364.779	0.17
364.99	61.61
365.201	102.57
365.412	135.34
365.623	30.89
365.834	67.75
366.045	-20.31
366.256	49.32
366.467	102.57
366.678	-46.93
366.889	86.19
367.1	88.23
367.311	51.37
367.522	37.03
367.733	12.46
367.944	39.08
368.155	14.51
368.366	30.89
368.577	10.41
368.788	94.38
368.999	22.7
369.209	12.46
369.42	121
369.631	135.34
369.842	55.47
370.053	49.32
370.264	84.14
370.474	39.08
370.685	92.33
370.896	28.84
371.107	12.46
371.317	47.27
371.528	22.7
371.739	18.6
371.95	6.31
372.16	129.19
372.371	-26.45
372.582	-12.12
372.792	77.99
373.003	49.32
373.214	51.37
373.424	18.6
373.635	41.13
373.846	39.08
374.056	63.66
374.267	24.75
374.477	28.84
374.688	14.51
374.898	22.7
375.109	12.46
375.319	2.22
375.53	69.8
375.74	-28.5
375.951	-57.17
376.161	37.03
376.372	69.8
376.582	4.27
376.793	84.14
377.003	-24.4
377.214	6.31
377.424	-16.21
377.635	45.23
377.845	20.65
378.055	129.19
378.266	-44.88
378.476	53.42
378.686	63.66
378.897	-1.88
379.107	47.27
379.317	24.75
379.528	22.7
379.738	55.47
379.948	0.17
380.158	110.76
380.369	12.46
380.579	0.17
380.789	2.22
380.999	106.67
381.21	71.85
381.42	125.1
381.63	-18.26
381.84	47.27
382.05	77.99
382.261	166.06
382.471	69.8
382.681	-24.4
382.891	110.76
383.101	73.9
383.311	-18.26
383.521	6.31
383.731	55.47
383.941	106.67
384.151	47.27
384.361	6.31
384.571	4.27
384.781	100.52
384.991	75.95
385.201	202.92
385.411	92.33
385.621	145.58
385.831	37.03
386.041	65.71
386.251	55.47
386.461	69.8
386.671	57.51
386.881	92.33
387.091	20.65
387.301	6.31
387.511	49.32
387.72	108.71
387.93	41.13
388.14	-3.93
388.35	45.23
388.56	92.33
388.769	45.23
388.979	20.65
389.189	14.51
389.399	24.75
389.609	24.75
389.818	86.19
390.028	37.03
390.238	141.48
390.447	28.84
390.657	-26.45
390.867	90.28
391.076	110.76
391.286	-14.17
391.496	69.8
391.705	69.8
391.915	71.85
392.125	139.43
392.334	-18.26
392.544	164.01
392.753	18.6
392.963	47.27
393.172	53.42
393.382	47.27
393.591	82.09
393.801	37.03
394.01	82.09
394.22	106.67
394.429	45.23
394.639	45.23
394.848	90.28
395.058	90.28
395.267	57.51
395.477	63.66
395.686	90.28
395.895	92.33
396.105	151.72
396.314	104.62
396.524	53.42
396.733	18.6
396.942	69.8
397.152	14.51
397.361	137.38
397.57	75.95
397.78	170.15
397.989	139.43
398.198	47.27
398.407	49.32
398.617	82.09
398.826	69.8
399.035	16.55
399.244	94.38
399.453	98.47
399.663	26.79
399.872	-14.17
400.081	65.71
400.29	104.62
400.499	65.71
400.708	106.67
400.917	34.99
401.127	71.85
401.336	55.47
401.545	143.53
401.754	86.19
401.963	151.72
402.172	82.09
402.381	73.9
402.59	139.43
402.799	55.47
403.008	77.99
403.217	151.72
403.426	145.58
403.635	55.47
403.844	151.72
404.053	65.71
404.262	55.47
404.471	188.58
404.68	141.48
404.888	53.42
405.097	69.8
405.306	45.23
405.515	235.69
405.724	127.14
405.933	123.05
406.142	118.95
406.35	252.07
406.559	209.06
406.768	143.53
406.977	143.53
407.185	188.58
407.394	170.15
407.603	110.76
407.812	186.54
408.02	147.62
408.229	252.07
408.438	174.25
408.646	176.3
408.855	172.2
409.064	192.68
409.272	166.06
409.481	221.35
409.69	274.6
409.898	155.82
410.107	254.12
410.315	225.45
410.524	217.26
410.733	227.5
410.941	241.83
411.15	282.79
411.358	260.26
411.567	374.95
411.775	299.17
411.984	266.41
412.192	297.13
412.401	270.5
412.609	479.4
412.818	381.09
413.026	360.61
413.234	381.09
413.443	309.41
413.651	415.91
413.86	346.28
414.068	522.4
414.276	483.49
414.485	405.67
414.693	510.11
414.901	661.66
415.11	538.79
415.318	415.91
415.526	544.93
415.734	608.42
415.943	575.65
416.151	608.42
416.359	528.55
416.567	602.27
416.776	678.05
416.984	698.53
417.192	778.4
417.4	712.86
417.608	747.68
417.817	739.49
418.025	825.5
418.233	915.61
418.441	704.67
418.649	856.22
418.857	929.95
419.065	999.58
419.273	917.66
419.481	944.28
419.689	1022.11
419.897	1028.25
420.105	1134.75
420.313	1069.21
420.521	1196.18
420.729	1255.58
420.937	1241.24
421.145	1210.52
421.353	1357.97
421.561	1532.05
421.769	1560.72
421.977	1466.52
422.185	1542.29
422.393	1679.51
422.601	1759.38
422.809	1716.37
423.017	1689.74
423.224	1706.13
423.432	1806.48
423.64	1775.76
423.848	2037.9
424.056	1886.35
424.263	2099.34
424.471	2093.19
424.679	2156.68
424.887	2242.7
425.094	2306.18
425.302	2377.86
425.51	2457.73
425.718	2504.84
425.925	2551.94
426.133	2605.19
426.341	2826.37
426.548	2855.04
426.756	2859.14
426.964	2998.4
427.171	3047.55
427.379	3166.33
427.586	3321.98
427.794	3293.3
428.001	3451
428.209	3790.96
428.417	3596.4
428.624	3827.82
428.832	3784.82
429.039	3807.34
429.247	3795.06
429.454	4237.42
429.662	4436.07
429.869	4182.12
430.076	4513.89
430.284	4362.34
430.491	4509.8
430.699	4700.26
430.906	4636.77
431.114	4814.95
431.321	5044.32
431.528	5111.9
431.736	5451.86
431.943	5580.89
432.15	5568.6
432.358	5728.34
432.565	5808.21
432.772	5814.35
432.979	6363.21
433.187	6269
433.394	6297.67
433.601	6772.8
433.808	6993.98
434.016	6690.88
434.223	7032.9
434.43	7456.82
434.637	7331.9
434.844	7682.1
435.052	7807.03
435.259	7841.84
435.466	7911.47
435.673	7901.23
435.88	8575.02
436.087	8796.2
436.294	8859.68
436.501	8536.1
436.708	8953.89
436.915	9058.34
437.122	9635.86
437.329	9484.31
437.537	9943.06
437.743	9908.24
437.95	10022.93
438.157	10420.24
438.364	10553.35
438.571	10659.85
438.778	10688.52
438.985	11681.78
439.192	11575.29
439.399	11714.55
439.606	11300.86
439.813	12013.56
440.02	13078.5
440.227	12484.59
440.433	12636.14
440.64	12900.33
440.847	12859.37
441.054	13250.53
441.261	13832.15
441.467	13660.12
441.674	14208.98
441.881	14704.59
442.088	14362.58
442.294	14792.65
442.501	14870.47
442.708	15212.48
442.914	15794.11
443.121	16445.36
443.328	16101.3
443.534	17084.33
443.741	16826.28
443.948	16388.02
444.154	17659.81
444.361	17559.45
444.568	17815.45
444.774	17756.06
444.981	17872.79
445.187	18442.13
445.394	19218.31
445.6	19134.34
445.807	20954.99
446.013	19738.49
446.22	20103.03
446.426	21145.45
446.633	21653.34
446.839	22015.83
447.046	21051.24
447.252	22105.95
447.459	22445.91
447.665	22421.33
447.871	23365.45
448.078	24246.07
448.284	23301.96
448.491	23797.57
448.697	24624.95
448.903	25245.48
449.11	25161.51
449.316	24389.43
449.522	25304.87
449.728	26097.44
449.935	26167.07
450.141	26212.12
450.347	26795.79
450.553	26019.61
450.76	26494.74
450.966	27096.85
451.172	26650.39
451.378	27637.51
451.584	27285.26
451.791	27772.67
451.997	27746.05
452.203	28180.22
452.409	28307.19
452.615	28012.29
452.821	26826.51
453.027	26638.1
453.233	28288.76
453.44	26812.18
453.646	27629.32
453.852	27627.27
454.058	27920.13
454.264	27168.52
454.47	27737.86
454.676	27053.84
454.882	27778.82
455.088	25741.09
455.294	26056.48
455.5	25902.88
455.705	26431.26
455.911	25362.22
456.117	25126.7
456.323	24645.43
456.529	23566.15
456.735	24457.01
456.941	23719.74
457.147	23297.86
457.352	22654.8
457.558	22349.65
457.764	22654.8
457.97	21739.36
458.176	21376.87
458.381	21624.67
458.587	20346.74
458.793	20561.78
458.999	19478.4
459.204	20893.55
459.41	20103.03
459.616	19074.95
459.821	18968.46
460.027	18980.75
460.233	18405.27
460.438	17817.5
460.644	17651.61
460.85	17018.79
461.055	16705.45
461.261	16476.08
461.466	15394.75
461.672	15060.93
461.878	15945.66
462.083	14890.95
462.289	14680.01
462.494	14571.47
462.7	13905.88
462.905	13520.86
463.111	14118.87
463.316	13932.5
463.522	13813.72
463.727	14045.14
463.932	13561.82
464.138	13686.75
464.343	13555.68
464.549	13094.88
464.754	13858.78
464.959	13709.27
465.165	13498.33
465.37	12816.36
465.575	12435.44
465.781	13002.72
465.986	13148.13
466.191	12591.08
466.397	12296.18
466.602	11788.28
466.807	12226.54
467.012	12308.46
467.218	11923.44
