Data from USB4F104151__74__13-06-02-440.txt Node

Date: Fri Mar 14 13:06:02 EDT 2025
User: louis
Spectrometer: USB4F10415
Trigger mode: 4
Integration Time (sec): 4.000000E-2
Scans to average: 1
Electric dark correction enabled: true
Nonlinearity correction enabled: false
Boxcar width: 0
XAxis mode: Wavelengths
Number of Pixels in Spectrum: 3648
>>>>>Begin Spectral Data<<<<<
178.204	-111.1
178.424	-111.1
178.644	-111.1
178.864	-150.01
179.084	-160.25
179.304	-23.04
179.524	-39.42
179.744	5.63
179.964	-4.61
180.184	7.68
180.404	26.11
180.624	50.69
180.844	-41.47
181.064	-31.23
181.283	108.03
181.503	-84.48
181.723	26.11
181.943	-70.14
182.163	132.61
182.383	-72.19
182.602	124.41
182.822	50.69
183.042	77.31
183.262	67.07
183.482	50.69
183.701	11.78
183.921	28.16
184.141	-27.14
184.361	62.98
184.58	89.6
184.8	81.41
185.02	28.16
185.239	19.97
185.459	105.98
185.679	77.31
185.898	-6.66
186.118	3.58
186.338	77.31
186.557	85.5
186.777	-14.85
186.997	26.11
187.216	-41.47
187.436	108.03
187.655	73.21
187.875	48.64
188.095	67.07
188.314	116.22
188.534	87.55
188.753	85.5
188.973	124.41
189.192	67.07
189.412	112.13
189.631	56.83
189.851	24.06
190.07	118.27
190.29	22.02
190.509	-2.56
190.729	15.87
190.948	34.3
191.168	224.76
191.387	67.07
191.607	11.78
191.826	42.5
192.045	69.12
192.265	62.98
192.484	40.45
192.704	32.26
192.923	60.93
193.142	208.38
193.362	110.08
193.581	132.61
193.8	24.06
194.02	83.45
194.239	81.41
194.458	52.74
194.678	-4.61
194.897	75.26
195.116	62.98
195.335	46.59
195.555	13.82
195.774	38.4
195.993	77.31
196.212	46.59
196.432	120.32
196.651	46.59
196.87	26.11
197.089	132.61
197.308	30.21
197.528	126.46
197.747	26.11
197.966	140.8
198.185	65.02
198.404	-31.23
198.623	46.59
198.842	52.74
199.062	101.89
199.281	157.18
199.5	89.6
199.719	24.06
199.938	56.83
200.157	81.41
200.376	52.74
200.595	89.6
200.814	153.09
201.033	75.26
201.252	110.08
201.471	56.83
201.69	128.51
201.909	85.5
202.128	15.87
202.347	67.07
202.566	-4.61
202.785	73.21
203.004	-6.66
203.223	181.76
203.442	112.13
203.661	101.89
203.879	65.02
204.098	132.61
204.317	11.78
204.536	44.54
204.755	99.84
204.974	79.36
205.193	62.98
205.411	163.33
205.63	36.35
205.849	38.4
206.068	36.35
206.287	11.78
206.505	122.37
206.724	26.11
206.943	24.06
207.162	42.5
207.381	91.65
207.599	32.26
207.818	40.45
208.037	91.65
208.255	54.78
208.474	11.78
208.693	44.54
208.911	65.02
209.13	112.13
209.349	99.84
209.567	87.55
209.786	132.61
210.005	99.84
210.223	15.87
210.442	-109.05
210.661	58.88
210.879	50.69
211.098	36.35
211.316	36.35
211.535	85.5
211.753	-29.18
211.972	36.35
212.191	118.27
212.409	48.64
212.628	62.98
212.846	48.64
213.065	108.03
213.283	99.84
213.502	9.73
213.72	83.45
213.938	83.45
214.157	19.97
214.375	60.93
214.594	56.83
214.812	46.59
215.031	67.07
215.249	108.03
215.467	46.59
215.686	71.17
215.904	128.51
216.122	36.35
216.341	122.37
216.559	54.78
216.778	83.45
216.996	77.31
217.214	-20.99
217.432	105.98
217.651	34.3
217.869	28.16
218.087	105.98
218.306	62.98
218.524	105.98
218.742	-61.95
218.96	9.73
219.179	36.35
219.397	77.31
219.615	134.65
219.833	118.27
220.051	1.54
220.27	99.84
220.488	67.07
220.706	44.54
220.924	19.97
221.142	62.98
221.36	50.69
221.578	67.07
221.796	-6.66
222.015	42.5
222.233	60.93
222.451	73.21
222.669	52.74
222.887	122.37
223.105	17.92
223.323	122.37
223.541	73.21
223.759	95.74
223.977	67.07
224.195	114.17
224.413	81.41
224.631	50.69
224.849	85.5
225.067	112.13
225.285	67.07
225.503	17.92
225.721	-49.66
225.939	99.84
226.157	42.5
226.375	142.85
226.592	91.65
226.81	34.3
227.028	136.7
227.246	50.69
227.464	42.5
227.682	79.36
227.9	60.93
228.117	99.84
228.335	136.7
228.553	50.69
228.771	62.98
228.989	62.98
229.206	81.41
229.424	-4.61
229.642	67.07
229.86	52.74
230.077	132.61
230.295	-27.14
230.513	69.12
230.731	60.93
230.948	163.33
231.166	122.37
231.384	79.36
231.601	-37.38
231.819	105.98
232.037	103.93
232.254	42.5
232.472	56.83
232.689	97.79
232.907	132.61
233.125	15.87
233.342	17.92
233.56	-39.42
233.777	79.36
233.995	103.93
234.213	183.81
234.43	58.88
234.648	67.07
234.865	62.98
235.083	101.89
235.3	65.02
235.518	42.5
235.735	210.43
235.953	114.17
236.17	38.4
236.388	34.3
236.605	48.64
236.822	75.26
237.04	54.78
237.257	126.46
237.475	50.69
237.692	-14.85
237.909	42.5
238.127	38.4
238.344	58.88
238.562	42.5
238.779	67.07
238.996	17.92
239.214	5.63
239.431	148.99
239.648	77.31
239.865	112.13
240.083	69.12
240.3	26.11
240.517	17.92
240.735	73.21
240.952	161.28
241.169	140.8
241.386	-12.8
241.603	67.07
241.821	15.87
242.038	112.13
242.255	67.07
242.472	-6.66
242.689	79.36
242.907	91.65
243.124	60.93
243.341	40.45
243.558	9.73
243.775	-20.99
243.992	24.06
244.209	81.41
244.426	85.5
244.643	56.83
244.86	5.63
245.078	44.54
245.295	142.85
245.512	75.26
245.729	105.98
245.946	56.83
246.163	62.98
246.38	93.69
246.597	97.79
246.814	38.4
247.031	132.61
247.248	38.4
247.464	15.87
247.681	65.02
247.898	73.21
248.115	181.76
248.332	71.17
248.549	118.27
248.766	65.02
248.983	167.42
249.2	5.63
249.417	124.41
249.633	73.21
249.85	126.46
250.067	52.74
250.284	-6.66
250.501	157.18
250.717	87.55
250.934	11.78
251.151	50.69
251.368	30.21
251.585	1.54
251.801	-2.56
252.018	17.92
252.235	30.21
252.451	54.78
252.668	34.3
252.885	67.07
253.102	11.78
253.318	42.5
253.535	-0.51
253.752	54.78
253.968	97.79
254.185	26.11
254.401	7.68
254.618	142.85
254.835	142.85
255.051	142.85
255.268	-49.66
255.484	118.27
255.701	83.45
255.917	75.26
256.134	26.11
256.351	13.82
256.567	22.02
256.784	19.97
257	22.02
257.217	34.3
257.433	77.31
257.65	60.93
257.866	89.6
258.082	40.45
258.299	126.46
258.515	52.74
258.732	24.06
258.948	-6.66
259.165	67.07
259.381	22.02
259.597	124.41
259.814	22.02
260.03	114.17
260.246	91.65
260.463	99.84
260.679	101.89
260.895	81.41
261.112	26.11
261.328	153.09
261.544	11.78
261.761	144.89
261.977	87.55
262.193	-23.04
262.409	108.03
262.626	22.02
262.842	-6.66
263.058	32.26
263.274	148.99
263.49	62.98
263.707	132.61
263.923	81.41
264.139	9.73
264.355	-55.81
264.571	103.93
264.787	114.17
265.004	26.11
265.22	50.69
265.436	40.45
265.652	36.35
265.868	24.06
266.084	116.22
266.3	38.4
266.516	-18.94
266.732	67.07
266.948	130.56
267.164	44.54
267.38	118.27
267.596	83.45
267.812	62.98
268.028	42.5
268.244	15.87
268.46	5.63
268.676	69.12
268.892	101.89
269.108	3.58
269.324	38.4
269.54	32.26
269.756	126.46
269.972	24.06
270.188	48.64
270.403	17.92
270.619	42.5
270.835	85.5
271.051	42.5
271.267	7.68
271.483	69.12
271.698	60.93
271.914	71.17
272.13	118.27
272.346	52.74
272.562	67.07
272.777	153.09
272.993	91.65
273.209	75.26
273.425	11.78
273.64	91.65
273.856	71.17
274.072	28.16
274.287	-8.7
274.503	103.93
274.719	62.98
274.934	75.26
275.15	-6.66
275.366	24.06
275.581	36.35
275.797	93.69
276.012	91.65
276.228	38.4
276.444	-0.51
276.659	67.07
276.875	56.83
277.09	28.16
277.306	60.93
277.521	157.18
277.737	56.83
277.952	189.95
278.168	62.98
278.383	116.22
278.599	85.5
278.814	99.84
279.03	116.22
279.245	155.13
279.461	-37.38
279.676	67.07
279.892	46.59
280.107	60.93
280.322	1.54
280.538	99.84
280.753	50.69
280.969	44.54
281.184	36.35
281.399	99.84
281.615	38.4
281.83	46.59
282.045	24.06
282.26	62.98
282.476	81.41
282.691	122.37
282.906	146.94
283.122	36.35
283.337	11.78
283.552	81.41
283.767	69.12
283.983	71.17
284.198	30.21
284.413	83.45
284.628	13.82
284.843	30.21
285.058	112.13
285.274	62.98
285.489	67.07
285.704	83.45
285.919	-6.66
286.134	26.11
286.349	62.98
286.564	91.65
286.779	148.99
286.995	118.27
287.21	-18.94
287.425	60.93
287.64	54.78
287.855	75.26
288.07	67.07
288.285	132.61
288.5	81.41
288.715	83.45
288.93	87.55
289.145	101.89
289.36	50.69
289.575	28.16
289.79	77.31
290.004	77.31
290.219	134.65
290.434	62.98
290.649	56.83
290.864	50.69
291.079	44.54
291.294	46.59
291.509	-0.51
291.724	136.7
291.938	-14.85
292.153	146.94
292.368	136.7
292.583	34.3
292.798	77.31
293.012	167.42
293.227	58.88
293.442	36.35
293.657	46.59
293.871	85.5
294.086	128.51
294.301	112.13
294.516	101.89
294.73	112.13
294.945	138.75
295.16	91.65
295.374	65.02
295.589	58.88
295.804	79.36
296.018	101.89
296.233	103.93
296.447	60.93
296.662	-20.99
296.877	87.55
297.091	52.74
297.306	71.17
297.52	58.88
297.735	24.06
297.949	15.87
298.164	93.69
298.378	38.4
298.593	-14.85
298.807	87.55
299.022	77.31
299.236	175.61
299.451	52.74
299.665	54.78
299.88	34.3
300.094	50.69
300.309	26.11
300.523	128.51
300.737	19.97
300.952	69.12
301.166	83.45
301.381	71.17
301.595	7.68
301.809	52.74
302.024	67.07
302.238	-6.66
302.452	128.51
302.667	97.79
302.881	103.93
303.095	89.6
303.309	48.64
303.524	-2.56
303.738	87.55
303.952	52.74
304.166	42.5
304.381	-37.38
304.595	110.08
304.809	97.79
305.023	105.98
305.237	26.11
305.452	124.41
305.666	58.88
305.88	58.88
306.094	83.45
306.308	93.69
306.522	103.93
306.736	101.89
306.95	67.07
307.164	46.59
307.379	114.17
307.593	83.45
307.807	65.02
308.021	-14.85
308.235	71.17
308.449	26.11
308.663	75.26
308.877	140.8
309.091	65.02
309.305	97.79
309.519	58.88
309.733	79.36
309.947	-14.85
310.161	95.74
310.374	108.03
310.588	124.41
310.802	3.58
311.016	93.69
311.23	56.83
311.444	99.84
311.658	67.07
311.872	167.42
312.085	97.79
312.299	60.93
312.513	79.36
312.727	65.02
312.941	1.54
313.154	71.17
313.368	24.06
313.582	52.74
313.796	65.02
314.009	112.13
314.223	99.84
314.437	93.69
314.651	118.27
314.864	69.12
315.078	108.03
315.292	26.11
315.505	38.4
315.719	52.74
315.933	110.08
316.146	34.3
316.36	36.35
316.573	132.61
316.787	54.78
317.001	60.93
317.214	73.21
317.428	42.5
317.641	13.82
317.855	-14.85
318.068	62.98
318.282	110.08
318.495	116.22
318.709	44.54
318.922	112.13
319.136	134.65
319.349	83.45
319.563	108.03
319.776	87.55
319.99	54.78
320.203	91.65
320.417	34.3
320.63	93.69
320.843	87.55
321.057	95.74
321.27	19.97
321.483	101.89
321.697	91.65
321.91	87.55
322.124	67.07
322.337	138.75
322.55	-18.94
322.763	52.74
322.977	28.16
323.19	9.73
323.403	95.74
323.617	44.54
323.83	42.5
324.043	58.88
324.256	50.69
324.469	77.31
324.683	34.3
324.896	67.07
325.109	101.89
325.322	-2.56
325.535	132.61
325.748	151.04
325.962	-27.14
326.175	112.13
326.388	77.31
326.601	58.88
326.814	42.5
327.027	67.07
327.24	118.27
327.453	60.93
327.666	140.8
327.879	89.6
328.092	101.89
328.305	87.55
328.518	62.98
328.731	52.74
328.944	40.45
329.157	34.3
329.37	85.5
329.583	79.36
329.796	73.21
330.009	28.16
330.222	58.88
330.435	167.42
330.648	116.22
330.861	56.83
331.073	83.45
331.286	112.13
331.499	58.88
331.712	54.78
331.925	93.69
332.138	75.26
332.35	138.75
332.563	34.3
332.776	136.7
332.989	36.35
333.202	58.88
333.414	81.41
333.627	42.5
333.84	-39.42
334.053	83.45
334.265	60.93
334.478	116.22
334.691	22.02
334.903	34.3
335.116	85.5
335.329	116.22
335.541	75.26
335.754	85.5
335.966	26.11
336.179	48.64
336.392	9.73
336.604	79.36
336.817	42.5
337.029	116.22
337.242	85.5
337.454	54.78
337.667	50.69
337.88	114.17
338.092	-14.85
338.305	91.65
338.517	30.21
338.729	155.13
338.942	11.78
339.154	62.98
339.367	1.54
339.579	167.42
339.792	69.12
340.004	62.98
340.217	60.93
340.429	58.88
340.641	22.02
340.854	116.22
341.066	85.5
341.278	97.79
341.491	93.69
341.703	-6.66
341.915	19.97
342.128	97.79
342.34	13.82
342.552	69.12
342.764	38.4
342.977	58.88
343.189	132.61
343.401	75.26
343.613	-8.7
343.826	67.07
344.038	24.06
344.25	79.36
344.462	50.69
344.674	79.36
344.886	42.5
345.099	132.61
345.311	144.89
345.523	52.74
345.735	1.54
345.947	128.51
346.159	124.41
346.371	50.69
346.583	60.93
346.795	103.93
347.007	-2.56
347.219	34.3
347.431	93.69
347.643	99.84
347.855	65.02
348.067	126.46
348.279	-29.18
348.491	110.08
348.703	116.22
348.915	83.45
349.127	36.35
349.339	167.42
349.551	87.55
349.763	58.88
349.975	56.83
350.187	97.79
350.399	83.45
350.61	89.6
350.822	38.4
351.034	105.98
351.246	34.3
351.458	32.26
351.669	85.5
351.881	46.59
352.093	130.56
352.305	124.41
352.517	120.32
352.728	177.66
352.94	93.69
353.152	83.45
353.363	28.16
353.575	67.07
353.787	140.8
353.999	108.03
354.21	120.32
354.422	17.92
354.633	87.55
354.845	77.31
355.057	60.93
355.268	126.46
355.48	56.83
355.692	28.16
355.903	58.88
356.115	40.45
356.326	-6.66
356.538	116.22
356.749	69.12
356.961	89.6
357.172	120.32
357.384	11.78
357.595	132.61
357.807	-27.14
358.018	44.54
358.23	93.69
358.441	142.85
358.653	173.57
358.864	60.93
359.075	91.65
359.287	108.03
359.498	73.21
359.709	99.84
359.921	22.02
360.132	67.07
360.344	101.89
360.555	99.84
360.766	134.65
360.977	99.84
361.189	112.13
361.4	46.59
361.611	114.17
361.823	122.37
362.034	99.84
362.245	-2.56
362.456	87.55
362.667	95.74
362.879	138.75
363.09	126.46
363.301	101.89
363.512	54.78
363.723	157.18
363.935	28.16
364.146	36.35
364.357	85.5
364.568	56.83
364.779	30.21
364.99	99.84
365.201	85.5
365.412	173.57
365.623	-47.62
365.834	38.4
366.045	56.83
366.256	93.69
366.467	95.74
366.678	62.98
366.889	91.65
367.1	5.63
367.311	110.08
367.522	67.07
367.733	110.08
367.944	99.84
368.155	58.88
368.366	95.74
368.577	83.45
368.788	97.79
368.999	24.06
369.209	151.04
369.42	148.99
369.631	151.04
369.842	108.03
370.053	103.93
370.264	189.95
370.474	50.69
370.685	54.78
370.896	62.98
371.107	151.04
371.317	157.18
371.528	87.55
371.739	83.45
371.95	101.89
372.16	144.89
372.371	38.4
372.582	26.11
372.792	99.84
373.003	91.65
373.214	34.3
373.424	85.5
373.635	167.42
373.846	175.61
374.056	108.03
374.267	40.45
374.477	130.56
374.688	67.07
374.898	130.56
375.109	99.84
375.319	87.55
375.53	175.61
375.74	103.93
375.951	93.69
376.161	71.17
376.372	75.26
376.582	112.13
376.793	28.16
377.003	54.78
377.214	67.07
377.424	73.21
377.635	89.6
377.845	71.17
378.055	163.33
378.266	54.78
378.476	42.5
378.686	26.11
378.897	134.65
379.107	181.76
379.317	108.03
379.528	91.65
379.738	108.03
379.948	62.98
380.158	116.22
380.369	62.98
380.579	134.65
380.789	171.52
380.999	138.75
381.21	91.65
381.42	136.7
381.63	73.21
381.84	108.03
382.05	122.37
382.261	50.69
382.471	136.7
382.681	-8.7
382.891	101.89
383.101	134.65
383.311	19.97
383.521	69.12
383.731	108.03
383.941	173.57
384.151	175.61
384.361	120.32
384.571	105.98
384.781	120.32
384.991	116.22
385.201	171.52
385.411	136.7
385.621	93.69
385.831	103.93
386.041	101.89
386.251	65.02
386.461	142.85
386.671	62.98
386.881	118.27
387.091	128.51
387.301	159.23
387.511	58.88
387.72	161.28
387.93	122.37
388.14	26.11
388.35	34.3
388.56	95.74
388.769	126.46
388.979	140.8
389.189	38.4
389.399	54.78
389.609	146.94
389.818	159.23
390.028	120.32
390.238	99.84
390.447	136.7
390.657	105.98
390.867	108.03
391.076	56.83
391.286	28.16
391.496	34.3
391.705	124.41
391.915	124.41
392.125	105.98
392.334	110.08
392.544	163.33
392.753	91.65
392.963	83.45
393.172	177.66
393.382	83.45
393.591	243.2
393.801	62.98
394.01	165.37
394.22	148.99
394.429	183.81
394.639	110.08
394.848	142.85
395.058	124.41
395.267	75.26
395.477	83.45
395.686	75.26
395.895	210.43
396.105	200.19
396.314	165.37
396.524	108.03
396.733	167.42
396.942	81.41
397.152	173.57
397.361	138.75
397.57	202.24
397.78	105.98
397.989	189.95
398.198	175.61
398.407	89.6
398.617	134.65
398.826	146.94
399.035	187.9
399.244	181.76
399.453	142.85
399.663	132.61
399.872	171.52
400.081	140.8
400.29	265.72
400.499	128.51
400.708	116.22
400.917	85.5
401.127	198.14
401.336	194.05
401.545	216.57
401.754	177.66
401.963	165.37
402.172	181.76
402.381	202.24
402.59	75.26
402.799	198.14
403.008	273.92
403.217	239.1
403.426	239.1
403.635	124.41
403.844	202.24
404.053	206.33
404.262	208.38
404.471	216.57
404.68	122.37
404.888	239.1
405.097	249.34
405.306	169.47
405.515	232.96
405.724	169.47
405.933	214.52
406.142	173.57
406.35	275.96
406.559	241.15
406.768	282.11
406.977	341.5
407.185	267.77
407.394	282.11
407.603	245.24
407.812	288.25
408.02	239.1
408.229	286.2
408.438	335.35
408.646	302.59
408.855	325.12
409.064	321.02
409.272	343.55
409.481	368.12
409.69	331.26
409.898	413.18
410.107	404.99
410.315	394.75
410.524	443.9
410.733	437.75
410.941	476.66
411.15	564.73
411.358	556.54
411.567	577.02
411.775	503.29
411.984	593.4
412.192	636.41
412.401	601.59
412.609	644.6
412.818	617.97
413.026	710.13
413.234	650.74
413.443	644.6
413.651	658.93
413.86	779.76
414.068	765.43
414.276	847.35
414.485	839.16
414.693	904.69
414.901	894.45
415.11	898.55
415.318	986.61
415.526	931.31
415.734	982.51
415.943	986.61
416.151	1056.24
416.359	1168.88
416.567	1066.48
416.776	1181.17
416.984	1226.22
417.192	1265.13
417.4	1289.71
417.608	1218.03
417.817	1326.57
418.025	1443.31
418.233	1445.35
418.441	1512.94
418.649	1492.46
418.857	1682.92
419.065	1658.34
419.273	1725.93
419.481	1766.89
419.689	1897.96
419.897	2010.59
420.105	2096.61
420.313	2031.07
420.521	2076.13
420.729	2123.23
420.937	2305.5
421.145	2264.54
421.353	2383.32
421.561	2385.37
421.769	2596.31
421.977	2641.37
422.185	2575.83
422.393	2848.21
422.601	2923.99
422.809	2880.98
423.017	3059.15
423.224	3040.72
423.432	3249.61
423.64	3358.16
423.848	3382.73
424.056	3227.09
424.263	3669.45
424.471	3624.39
424.679	3739.08
424.887	3978.69
425.094	4079.04
425.302	4064.71
425.51	4222.4
425.718	4242.88
425.925	4429.24
426.133	4607.42
426.341	4832.69
426.548	4941.24
426.756	5213.62
426.964	5035.44
427.171	5547.44
427.379	5488.04
427.586	5772.71
427.794	5727.66
428.001	6010.28
428.209	6522.27
428.417	6215.07
428.624	6729.11
428.832	6700.44
429.039	6636.95
429.247	6759.83
429.454	7435.66
429.662	7738.76
429.869	7310.74
430.076	7753.1
430.284	7785.87
430.491	8041.86
430.699	8230.27
430.906	8340.86
431.114	8459.65
431.321	8959.35
431.528	8920.44
431.736	9604.46
431.943	10071.4
432.15	9672.04
432.358	9821.55
432.565	10474.85
432.772	10343.78
432.979	10747.23
433.187	11054.42
433.394	11101.53
433.601	11781.45
433.808	11963.72
434.016	11701.58
434.223	12336.45
434.43	13167.93
434.637	12715.33
434.844	13554.99
435.052	13653.3
435.259	13569.33
435.466	13786.41
435.673	13700.4
435.88	14372.13
436.087	15314.2
436.294	15252.76
436.501	15043.87
436.708	15496.47
436.915	15947.02
437.122	16684.29
437.329	16459.01
437.537	16964.86
437.743	17302.78
437.95	17233.15
438.157	18021.61
438.364	18689.25
438.571	18783.46
438.778	18611.43
438.985	20561.09
439.192	19737.81
439.399	20495.56
439.606	20020.43
439.813	21175.48
440.02	22219.95
440.227	22146.22
440.433	21941.43
440.64	22260.91
440.847	22453.42
441.054	22715.56
441.261	24446.09
441.467	24091.79
441.674	24583.3
441.881	25472.12
442.088	25269.37
442.294	25234.56
442.501	26041.46
442.708	26414.19
442.914	27284.58
443.121	28744.78
443.328	27782.23
443.534	29680.7
443.741	28781.64
443.948	28613.71
444.154	30708.78
444.361	30538.8
444.568	30749.74
444.774	30557.23
444.981	30942.25
445.187	31722.52
445.394	33344.52
445.6	33115.14
445.807	35986.39
446.013	34339.83
446.22	34954.22
446.426	36348.89
446.633	37059.53
446.839	37880.77
447.046	36584.4
447.252	38484.92
447.459	38362.04
447.665	38292.41
447.871	40102.81
448.078	41776
448.284	39873.44
448.491	41003.92
448.697	42619.77
448.903	43576.17
449.11	43385.71
449.316	42785.65
449.522	43760.48
449.728	44620.63
449.935	45200.21
450.141	45093.71
450.347	46007.11
450.553	44331.87
450.76	45044.56
450.966	46801.72
451.172	46492.47
451.378	47657.77
451.584	46297.92
451.791	47776.55
451.997	47614.76
452.203	48132.9
452.409	47915.81
452.615	48259.87
452.821	46185.28
453.027	45980.48
453.233	48597.79
453.44	46742.33
453.646	47215.41
453.852	47141.68
454.058	48042.79
454.264	46586.68
454.47	47629.1
454.676	46674.74
454.882	48147.23
455.088	44297.05
455.294	44589.91
455.5	44976.98
455.705	46068.55
455.911	44133.21
456.117	43027.31
456.323	42587
456.529	40334.23
456.735	42316.67
456.941	41431.94
457.147	40512.41
457.352	39277.48
457.558	39234.47
457.764	38837.17
457.97	38052.8
458.176	37241.8
458.381	37424.07
458.587	35589.09
458.793	35677.15
458.999	34089.98
459.204	36041.69
459.41	35210.21
459.616	33082.38
459.821	33197.06
460.027	32607.25
460.233	32463.89
460.438	30573.61
460.644	31153.19
460.85	29439.04
461.055	29011.01
461.261	28902.47
461.466	26614.89
461.672	26264.69
461.878	28052.56
462.083	26066.03
462.289	25482.36
462.494	25339.01
462.7	24325.26
462.905	23700.63
463.111	24388.75
463.316	24462.47
463.522	23854.23
463.727	24198.29
463.932	23633.05
464.138	23891.09
464.343	23860.37
464.549	23016.61
464.754	23690.39
464.959	23696.53
465.165	23119.01
