Data from USB4F104151__92__13-06-25-477.txt Node

Date: Fri Mar 14 13:06:25 EDT 2025
User: louis
Spectrometer: USB4F10415
Trigger mode: 4
Integration Time (sec): 4.000000E-2
Scans to average: 1
Electric dark correction enabled: true
Nonlinearity correction enabled: false
Boxcar width: 0
XAxis mode: Wavelengths
Number of Pixels in Spectrum: 3648
>>>>>Begin Spectral Data<<<<<
178.204	-145.92
178.424	-145.92
178.644	-145.92
178.864	-231.93
179.084	-209.4
179.304	7.68
179.524	-39.42
179.744	3.58
179.964	46.59
180.184	-61.95
180.404	22.02
180.624	48.64
180.844	40.45
181.064	-55.81
181.283	-55.81
181.503	13.82
181.723	30.21
181.943	-57.86
182.163	77.31
182.383	28.16
182.602	110.08
182.822	79.36
183.042	77.31
183.262	52.74
183.482	-18.94
183.701	73.21
183.921	1.54
184.141	11.78
184.361	91.65
184.58	79.36
184.8	79.36
185.02	-80.38
185.239	93.69
185.459	-51.71
185.679	95.74
185.898	5.63
186.118	69.12
186.338	-12.8
186.557	75.26
186.777	-72.19
186.997	42.5
187.216	-18.94
187.436	79.36
187.655	110.08
187.875	40.45
188.095	38.4
188.314	87.55
188.534	71.17
188.753	5.63
188.973	87.55
189.192	67.07
189.412	-27.14
189.631	26.11
189.851	32.26
190.07	112.13
190.29	3.58
190.509	40.45
190.729	-45.57
190.948	85.5
191.168	226.81
191.387	95.74
191.607	81.41
191.826	85.5
192.045	56.83
192.265	79.36
192.484	24.06
192.704	36.35
192.923	-2.56
193.142	110.08
193.362	99.84
193.581	79.36
193.8	58.88
194.02	60.93
194.239	30.21
194.458	62.98
194.678	-25.09
194.897	38.4
195.116	71.17
195.335	17.92
195.555	5.63
195.774	73.21
195.993	28.16
196.212	77.31
196.432	38.4
196.651	5.63
196.87	32.26
197.089	140.8
197.308	67.07
197.528	69.12
197.747	28.16
197.966	75.26
198.185	28.16
198.404	-4.61
198.623	-23.04
198.842	77.31
199.062	124.41
199.281	120.32
199.5	67.07
199.719	62.98
199.938	36.35
200.157	32.26
200.376	54.78
200.595	89.6
200.814	144.89
201.033	-10.75
201.252	73.21
201.471	24.06
201.69	73.21
201.909	34.3
202.128	-2.56
202.347	120.32
202.566	67.07
202.785	-23.04
203.004	15.87
203.223	132.61
203.442	-49.66
203.661	46.59
203.879	44.54
204.098	71.17
204.317	26.11
204.536	112.13
204.755	26.11
204.974	95.74
205.193	73.21
205.411	89.6
205.63	75.26
205.849	5.63
206.068	30.21
206.287	83.45
206.505	71.17
206.724	-14.85
206.943	-31.23
207.162	30.21
207.381	15.87
207.599	3.58
207.818	9.73
208.037	13.82
208.255	44.54
208.474	28.16
208.693	1.54
208.911	5.63
209.13	30.21
209.349	71.17
209.567	62.98
209.786	60.93
210.005	-14.85
210.223	-33.28
210.442	-35.33
210.661	62.98
210.879	81.41
211.098	-10.75
211.316	93.69
211.535	73.21
211.753	-43.52
211.972	69.12
212.191	22.02
212.409	110.08
212.628	73.21
212.846	28.16
213.065	13.82
213.283	38.4
213.502	22.02
213.72	17.92
213.938	89.6
214.157	15.87
214.375	108.03
214.594	-6.66
214.812	73.21
215.031	65.02
215.249	36.35
215.467	48.64
215.686	38.4
215.904	95.74
216.122	-37.38
216.341	83.45
216.559	28.16
216.778	62.98
216.996	79.36
217.214	103.93
217.432	-16.9
217.651	38.4
217.869	54.78
218.087	11.78
218.306	75.26
218.524	46.59
218.742	71.17
218.96	56.83
219.179	56.83
219.397	48.64
219.615	91.65
219.833	48.64
220.051	-4.61
220.27	71.17
220.488	9.73
220.706	114.17
220.924	54.78
221.142	50.69
221.36	-2.56
221.578	30.21
221.796	11.78
222.015	48.64
222.233	38.4
222.451	91.65
222.669	-2.56
222.887	75.26
223.105	38.4
223.323	17.92
223.541	5.63
223.759	34.3
223.977	24.06
224.195	128.51
224.413	75.26
224.631	87.55
224.849	67.07
225.067	15.87
225.285	50.69
225.503	22.02
225.721	-49.66
225.939	65.02
226.157	62.98
226.375	161.28
226.592	-53.76
226.81	-10.75
227.028	97.79
227.246	46.59
227.464	46.59
227.682	99.84
227.9	134.65
228.117	103.93
228.335	36.35
228.553	69.12
228.771	87.55
228.989	36.35
229.206	15.87
229.424	17.92
229.642	65.02
229.86	-27.14
230.077	114.17
230.295	30.21
230.513	116.22
230.731	97.79
230.948	46.59
231.166	144.89
231.384	42.5
231.601	-23.04
231.819	58.88
232.037	-70.14
232.254	-20.99
232.472	19.97
232.689	-18.94
232.907	65.02
233.125	-23.04
233.342	-8.7
233.56	-27.14
233.777	34.3
233.995	-16.9
234.213	65.02
234.43	24.06
234.648	58.88
234.865	58.88
235.083	79.36
235.3	65.02
235.518	58.88
235.735	95.74
235.953	83.45
236.17	42.5
236.388	67.07
236.605	62.98
236.822	105.98
237.04	97.79
237.257	54.78
237.475	-33.28
237.692	40.45
237.909	26.11
238.127	-4.61
238.344	32.26
238.562	28.16
238.779	13.82
238.996	-6.66
239.214	44.54
239.431	38.4
239.648	7.68
239.865	42.5
240.083	52.74
240.3	71.17
240.517	95.74
240.735	-18.94
240.952	91.65
241.169	85.5
241.386	46.59
241.603	71.17
241.821	58.88
242.038	-23.04
242.255	44.54
242.472	-43.52
242.689	65.02
242.907	65.02
243.124	50.69
243.341	79.36
243.558	38.4
243.775	30.21
243.992	-35.33
244.209	103.93
244.426	120.32
244.643	91.65
244.86	1.54
245.078	91.65
245.295	-6.66
245.512	46.59
245.729	9.73
245.946	71.17
246.163	13.82
246.38	-6.66
246.597	118.27
246.814	48.64
247.031	-70.14
247.248	65.02
247.464	9.73
247.681	54.78
247.898	103.93
248.115	112.13
248.332	30.21
248.549	22.02
248.766	87.55
248.983	75.26
249.2	-0.51
249.417	62.98
249.633	56.83
249.85	69.12
250.067	56.83
250.284	128.51
250.501	38.4
250.717	36.35
250.934	3.58
251.151	32.26
251.368	120.32
251.585	112.13
251.801	-47.62
252.018	50.69
252.235	58.88
252.451	32.26
252.668	-2.56
252.885	71.17
253.102	40.45
253.318	-0.51
253.535	-33.28
253.752	15.87
253.968	-18.94
254.185	-45.57
254.401	48.64
254.618	65.02
254.835	46.59
255.051	136.7
255.268	71.17
255.484	28.16
255.701	36.35
255.917	58.88
256.134	-43.52
256.351	26.11
256.567	26.11
256.784	-0.51
257	24.06
257.217	54.78
257.433	46.59
257.65	-27.14
257.866	114.17
258.082	-27.14
258.299	50.69
258.515	95.74
258.732	26.11
258.948	-94.72
259.165	15.87
259.381	79.36
259.597	24.06
259.814	97.79
260.03	1.54
260.246	56.83
260.463	40.45
260.679	15.87
260.895	11.78
261.112	11.78
261.328	-14.85
261.544	-39.42
261.761	175.61
261.977	30.21
262.193	-66.05
262.409	65.02
262.626	50.69
262.842	-35.33
263.058	-8.7
263.274	75.26
263.49	22.02
263.707	62.98
263.923	65.02
264.139	-20.99
264.355	105.98
264.571	95.74
264.787	32.26
265.004	89.6
265.22	7.68
265.436	30.21
265.652	1.54
265.868	-39.42
266.084	44.54
266.3	24.06
266.516	3.58
266.732	9.73
266.948	22.02
267.164	54.78
267.38	5.63
267.596	69.12
267.812	69.12
268.028	159.23
268.244	19.97
268.46	15.87
268.676	62.98
268.892	-2.56
269.108	9.73
269.324	48.64
269.54	5.63
269.756	87.55
269.972	-10.75
270.188	-23.04
270.403	-80.38
270.619	81.41
270.835	-27.14
271.051	15.87
271.267	3.58
271.483	73.21
271.698	62.98
271.914	93.69
272.13	38.4
272.346	46.59
272.562	36.35
272.777	77.31
272.993	44.54
273.209	-0.51
273.425	62.98
273.64	42.5
273.856	46.59
274.072	-51.71
274.287	-41.47
274.503	24.06
274.719	26.11
274.934	42.5
275.15	-68.09
275.366	-27.14
275.581	36.35
275.797	5.63
276.012	54.78
276.228	54.78
276.444	36.35
276.659	30.21
276.875	-31.23
277.09	30.21
277.306	7.68
277.521	60.93
277.737	34.3
277.952	46.59
278.168	34.3
278.383	-16.9
278.599	34.3
278.814	15.87
279.03	-35.33
279.245	24.06
279.461	65.02
279.676	40.45
279.892	-33.28
280.107	22.02
280.322	-6.66
280.538	112.13
280.753	-23.04
280.969	97.79
281.184	30.21
281.399	87.55
281.615	30.21
281.83	54.78
282.045	9.73
282.26	30.21
282.476	34.3
282.691	97.79
282.906	38.4
283.122	32.26
283.337	-6.66
283.552	71.17
283.767	9.73
283.983	73.21
284.198	24.06
284.413	42.5
284.628	3.58
284.843	15.87
285.058	75.26
285.274	-14.85
285.489	-10.75
285.704	95.74
285.919	17.92
286.134	38.4
286.349	24.06
286.564	9.73
286.779	91.65
286.995	95.74
287.21	-76.29
287.425	99.84
287.64	-16.9
287.855	24.06
288.07	17.92
288.285	62.98
288.5	83.45
288.715	95.74
288.93	-35.33
289.145	5.63
289.36	-14.85
289.575	-12.8
289.79	142.85
290.004	38.4
290.219	11.78
290.434	-2.56
290.649	5.63
290.864	56.83
291.079	105.98
291.294	105.98
291.509	38.4
291.724	15.87
291.938	1.54
292.153	105.98
292.368	24.06
292.583	40.45
292.798	46.59
293.012	26.11
293.227	26.11
293.442	34.3
293.657	79.36
293.871	34.3
294.086	87.55
294.301	112.13
294.516	56.83
294.73	32.26
294.945	5.63
295.16	13.82
295.374	26.11
295.589	105.98
295.804	34.3
296.018	42.5
296.233	120.32
296.447	24.06
296.662	-25.09
296.877	136.7
297.091	42.5
297.306	19.97
297.52	30.21
297.735	-2.56
297.949	81.41
298.164	77.31
298.378	54.78
298.593	-0.51
298.807	-2.56
299.022	11.78
299.236	34.3
299.451	56.83
299.665	-2.56
299.88	32.26
300.094	9.73
300.309	67.07
300.523	40.45
300.737	54.78
300.952	11.78
301.166	91.65
301.381	-25.09
301.595	5.63
301.809	5.63
302.024	24.06
302.238	7.68
302.452	77.31
302.667	13.82
302.881	91.65
303.095	62.98
303.309	54.78
303.524	11.78
303.738	32.26
303.952	-74.24
304.166	79.36
304.381	-64
304.595	148.99
304.809	-113.15
305.023	130.56
305.237	19.97
305.452	30.21
305.666	108.03
305.88	38.4
306.094	118.27
306.308	22.02
306.522	79.36
306.736	58.88
306.95	19.97
307.164	40.45
307.379	71.17
307.593	95.74
307.807	56.83
308.021	62.98
308.235	87.55
308.449	-29.18
308.663	26.11
308.877	196.09
309.091	50.69
309.305	48.64
309.519	-41.47
309.733	99.84
309.947	-84.48
310.161	54.78
310.374	54.78
310.588	105.98
310.802	24.06
311.016	-0.51
311.23	65.02
311.444	30.21
311.658	-10.75
311.872	93.69
312.085	44.54
312.299	108.03
312.513	120.32
312.727	-55.81
312.941	32.26
313.154	73.21
313.368	42.5
313.582	87.55
313.796	-18.94
314.009	32.26
314.223	75.26
314.437	-31.23
314.651	83.45
314.864	28.16
315.078	50.69
315.292	32.26
315.505	48.64
315.719	114.17
315.933	5.63
316.146	32.26
316.36	44.54
316.573	11.78
316.787	89.6
317.001	17.92
317.214	71.17
317.428	58.88
317.641	-23.04
317.855	95.74
318.068	30.21
318.282	30.21
318.495	54.78
318.709	81.41
318.922	32.26
319.136	48.64
319.349	140.8
319.563	40.45
319.776	26.11
319.99	-20.99
320.203	118.27
320.417	65.02
320.63	81.41
320.843	114.17
321.057	124.41
321.27	-2.56
321.483	85.5
321.697	60.93
321.91	69.12
322.124	15.87
322.337	54.78
322.55	-6.66
322.763	42.5
322.977	50.69
323.19	22.02
323.403	69.12
323.617	118.27
323.83	77.31
324.043	73.21
324.256	24.06
324.469	-4.61
324.683	153.09
324.896	40.45
325.109	120.32
325.322	32.26
325.535	22.02
325.748	83.45
325.962	1.54
326.175	-4.61
326.388	-6.66
326.601	75.26
326.814	44.54
327.027	73.21
327.24	71.17
327.453	-10.75
327.666	52.74
327.879	108.03
328.092	112.13
328.305	71.17
328.518	108.03
328.731	13.82
328.944	71.17
329.157	87.55
329.37	122.37
329.583	140.8
329.796	153.09
330.009	-29.18
330.222	73.21
330.435	62.98
330.648	122.37
330.861	65.02
331.073	65.02
331.286	97.79
331.499	42.5
331.712	3.58
331.925	-10.75
332.138	71.17
332.35	77.31
332.563	87.55
332.776	58.88
332.989	67.07
333.202	40.45
333.414	36.35
333.627	79.36
333.84	46.59
334.053	28.16
334.265	99.84
334.478	-2.56
334.691	26.11
334.903	5.63
335.116	46.59
335.329	32.26
335.541	34.3
335.754	32.26
335.966	13.82
336.179	1.54
336.392	3.58
336.604	3.58
336.817	62.98
337.029	-16.9
337.242	73.21
337.454	87.55
337.667	56.83
337.88	79.36
338.092	58.88
338.305	71.17
338.517	48.64
338.729	3.58
338.942	67.07
339.154	-2.56
339.367	62.98
339.579	71.17
339.792	-31.23
340.004	103.93
340.217	-27.14
340.429	-8.7
340.641	-55.81
340.854	65.02
341.066	5.63
341.278	132.61
341.491	67.07
341.703	58.88
341.915	15.87
342.128	114.17
342.34	62.98
342.552	13.82
342.764	34.3
342.977	60.93
343.189	101.89
343.401	87.55
343.613	-49.66
343.826	-10.75
344.038	81.41
344.25	105.98
344.462	19.97
344.674	89.6
344.886	-18.94
345.099	77.31
345.311	103.93
345.523	112.13
345.735	40.45
345.947	38.4
346.159	73.21
346.371	50.69
346.583	38.4
346.795	108.03
347.007	-39.42
347.219	30.21
347.431	65.02
347.643	138.75
347.855	22.02
348.067	189.95
348.279	28.16
348.491	71.17
348.703	46.59
348.915	75.26
349.127	28.16
349.339	93.69
349.551	9.73
349.763	93.69
349.975	52.74
350.187	40.45
350.399	124.41
350.61	26.11
350.822	48.64
351.034	42.5
351.246	73.21
351.458	118.27
351.669	130.56
351.881	118.27
352.093	142.85
352.305	62.98
352.517	91.65
352.728	122.37
352.94	91.65
353.152	65.02
353.363	30.21
353.575	40.45
353.787	148.99
353.999	-41.47
354.21	112.13
354.422	15.87
354.633	30.21
354.845	77.31
355.057	128.51
355.268	79.36
355.48	91.65
355.692	-25.09
355.903	-2.56
356.115	24.06
356.326	5.63
356.538	112.13
356.749	-10.75
356.961	114.17
357.172	73.21
357.384	69.12
357.595	95.74
357.807	-25.09
358.018	44.54
358.23	56.83
358.441	128.51
358.653	13.82
358.864	65.02
359.075	50.69
359.287	85.5
359.498	79.36
359.709	97.79
359.921	103.93
360.132	75.26
360.344	15.87
360.555	130.56
360.766	151.04
360.977	-33.28
361.189	54.78
361.4	28.16
361.611	183.81
361.823	122.37
362.034	103.93
362.245	54.78
362.456	62.98
362.667	103.93
362.879	46.59
363.09	54.78
363.301	159.23
363.512	13.82
363.723	71.17
363.935	1.54
364.146	153.09
364.357	65.02
364.568	81.41
364.779	11.78
364.99	153.09
365.201	-2.56
365.412	101.89
365.623	-84.48
365.834	75.26
366.045	-2.56
366.256	99.84
366.467	-16.9
366.678	67.07
366.889	46.59
367.1	79.36
367.311	132.61
367.522	-10.75
367.733	38.4
367.944	120.32
368.155	32.26
368.366	93.69
368.577	95.74
368.788	75.26
368.999	42.5
369.209	95.74
369.42	112.13
369.631	130.56
369.842	54.78
370.053	54.78
370.264	114.17
370.474	-4.61
370.685	17.92
370.896	34.3
371.107	130.56
371.317	89.6
371.528	46.59
371.739	87.55
371.95	58.88
372.16	44.54
372.371	-20.99
372.582	7.68
372.792	79.36
373.003	97.79
373.214	30.21
373.424	67.07
373.635	7.68
373.846	85.5
374.056	50.69
374.267	60.93
374.477	46.59
374.688	17.92
374.898	58.88
375.109	58.88
375.319	40.45
375.53	128.51
375.74	46.59
375.951	108.03
376.161	108.03
376.372	146.94
376.582	-18.94
376.793	79.36
377.003	54.78
377.214	-4.61
377.424	48.64
377.635	34.3
377.845	85.5
378.055	118.27
378.266	1.54
378.476	32.26
378.686	62.98
378.897	52.74
379.107	69.12
379.317	108.03
379.528	46.59
379.738	5.63
379.948	-16.9
380.158	67.07
380.369	77.31
380.579	95.74
380.789	56.83
380.999	136.7
381.21	-2.56
381.42	108.03
381.63	75.26
381.84	36.35
382.05	69.12
382.261	120.32
382.471	77.31
382.681	60.93
382.891	87.55
383.101	54.78
383.311	62.98
383.521	-16.9
383.731	75.26
383.941	87.55
384.151	52.74
384.361	71.17
384.571	120.32
384.781	99.84
384.991	163.33
385.201	91.65
385.411	116.22
385.621	32.26
385.831	28.16
386.041	62.98
386.251	34.3
386.461	130.56
386.671	67.07
386.881	87.55
387.091	42.5
387.301	128.51
387.511	24.06
387.72	32.26
387.93	56.83
388.14	22.02
388.35	83.45
388.56	52.74
388.769	75.26
388.979	56.83
389.189	-23.04
389.399	114.17
389.609	155.13
389.818	140.8
390.028	75.26
390.238	153.09
390.447	50.69
390.657	114.17
390.867	17.92
391.076	15.87
391.286	-27.14
391.496	40.45
391.705	101.89
391.915	138.75
392.125	85.5
392.334	73.21
392.544	120.32
392.753	-18.94
392.963	71.17
393.172	136.7
393.382	36.35
393.591	163.33
393.801	69.12
394.01	148.99
394.22	81.41
394.429	56.83
394.639	73.21
394.848	36.35
395.058	97.79
395.267	89.6
395.477	122.37
395.686	159.23
395.895	132.61
396.105	173.57
396.314	40.45
396.524	85.5
396.733	116.22
396.942	130.56
397.152	110.08
397.361	97.79
397.57	120.32
397.78	71.17
397.989	65.02
398.198	192
398.407	130.56
398.617	122.37
398.826	124.41
399.035	181.76
399.244	173.57
399.453	62.98
399.663	85.5
399.872	157.18
400.081	161.28
400.29	175.61
400.499	93.69
400.708	140.8
400.917	67.07
401.127	132.61
401.336	79.36
401.545	192
401.754	165.37
401.963	67.07
402.172	214.52
402.381	32.26
402.59	146.94
402.799	153.09
403.008	157.18
403.217	118.27
403.426	157.18
403.635	87.55
403.844	151.04
404.053	140.8
404.262	140.8
404.471	202.24
404.68	173.57
404.888	142.85
405.097	112.13
405.306	142.85
405.515	241.15
405.724	189.95
405.933	200.19
406.142	185.85
406.35	138.75
406.559	175.61
406.768	136.7
406.977	284.16
407.185	212.48
407.394	243.2
407.603	255.48
407.812	312.83
408.02	253.44
408.229	189.95
408.438	255.48
408.646	239.1
408.855	284.16
409.064	243.2
409.272	292.35
409.481	292.35
409.69	196.09
409.898	214.52
410.107	353.79
410.315	359.93
410.524	394.75
410.733	292.35
410.941	312.83
411.15	419.32
411.358	390.65
411.567	472.57
411.775	480.76
411.984	474.62
412.192	546.3
412.401	511.48
412.609	568.82
412.818	570.87
413.026	517.62
413.234	558.58
413.443	577.02
413.651	626.17
413.86	589.3
414.068	722.42
414.276	763.38
414.485	693.75
414.693	708.09
414.901	773.62
415.11	730.61
415.318	835.06
415.526	790
415.734	828.92
415.943	943.6
416.151	912.88
416.359	878.07
416.567	914.93
416.776	974.32
416.984	1078.77
417.192	1091.06
417.4	1086.96
417.608	1091.06
417.817	1201.65
418.025	1193.45
418.233	1308.14
418.441	1201.65
418.649	1365.48
418.857	1398.25
419.065	1441.26
419.273	1396.2
419.481	1420.78
419.689	1549.8
419.897	1660.39
420.105	1648.1
420.313	1805.8
420.521	1725.93
420.729	1658.34
420.937	1877.48
421.145	1936.87
421.353	1994.21
421.561	2139.62
421.769	2168.29
421.977	2268.64
422.185	2340.32
422.393	2377.18
422.601	2596.31
422.809	2563.54
423.017	2567.64
423.224	2684.38
423.432	2866.64
423.64	2807.25
423.848	3007.95
424.056	2872.79
424.263	3202.51
424.471	3188.18
424.679	3282.38
424.887	3311.05
425.094	3452.36
425.302	3505.61
425.51	3704.26
425.718	3683.78
425.925	3845.57
426.133	3909.06
426.341	4179.39
426.548	4292.03
426.756	4269.5
426.964	4509.12
427.171	4517.31
427.379	4838.84
427.586	4881.85
427.794	4773.3
428.001	5127.6
428.209	5453.23
428.417	5475.76
428.624	5760.42
428.832	5670.31
429.039	5780.9
429.247	5717.42
429.454	6192.55
429.662	6808.98
429.869	6262.18
430.076	6782.36
430.284	6391.2
430.491	6688.15
430.699	7140.76
430.906	7218.58
431.114	7327.12
431.321	7724.43
431.528	7814.54
431.736	8369.54
431.943	8768.89
432.15	8301.95
432.358	8273.28
432.565	8850.81
432.772	8957.3
432.979	9219.44
433.187	9340.27
433.394	9471.34
433.601	10114.41
433.808	10196.32
434.016	9930.09
434.223	10534.24
434.43	11040.09
434.637	10892.63
434.844	11832.65
435.052	12074.31
435.259	11961.67
435.466	11849.04
435.673	11867.47
435.88	12574.02
436.087	13227.32
436.294	13059.38
436.501	13032.76
436.708	13258.04
436.915	13313.33
437.122	14202.15
437.329	14376.23
437.537	14525.73
437.743	14841.12
437.95	14654.75
438.157	15684.88
438.364	16329.99
438.571	16104.71
438.778	16260.36
438.985	17763.57
439.192	17257.72
439.399	17517.81
439.606	17255.67
439.813	18371.82
440.02	19227.87
440.227	18998.49
440.433	18664.68
440.64	19336.41
440.847	19360.98
441.054	19573.97
441.261	21003.46
441.467	20905.15
441.674	21279.93
441.881	21812.4
442.088	21839.03
442.294	21916.85
442.501	22371.5
442.708	22912.16
442.914	23504.03
443.121	24640.65
443.328	23884.95
443.534	25347.2
443.741	25001.09
443.948	24677.51
444.154	26410.09
444.361	26338.41
444.568	26377.33
444.774	26592.36
444.981	26819.69
445.187	27536.48
445.394	28828.74
445.6	28509.26
445.807	31099.94
446.013	29817.91
446.22	30125.11
446.426	31570.97
446.633	31857.69
446.839	32900.11
447.046	31497.25
447.252	33289.22
447.459	33125.38
447.665	33184.77
447.871	34776.05
448.078	35992.54
448.284	34851.82
448.491	35218.41
448.697	36873.17
448.903	37342.15
449.11	37526.47
449.316	37225.42
449.522	37925.82
449.728	38943.66
449.935	39379.88
450.141	39156.65
450.347	39748.51
450.553	38871.98
450.76	39193.51
450.966	40874.9
451.172	40047.52
451.378	40940.43
451.584	40225.69
451.791	41698.18
451.997	41522.05
452.203	41964.42
452.409	42210.17
452.615	42138.49
452.821	40405.91
453.027	39930.78
453.233	42249.08
453.44	40876.94
453.646	40887.18
453.852	41356.17
454.058	42177.4
454.264	40704.91
454.47	41894.78
454.676	40776.59
454.882	42095.49
455.088	38245.3
455.294	38968.24
455.5	39635.88
455.705	40121.24
455.911	38579.12
456.117	37854.14
456.323	37004.24
456.529	35056.62
456.735	37225.42
456.941	35644.38
457.147	35423.2
457.352	34341.88
457.558	34036.73
457.764	33895.42
457.97	33195.01
458.176	32949.26
458.381	32717.84
458.587	30864.43
458.793	31304.74
458.999	29523.01
459.204	32269.33
459.41	30764.07
459.616	28425.29
459.821	29002.82
460.027	28634.19
460.233	28179.54
460.438	26881.13
460.644	27028.58
460.85	25676.92
461.055	25179.26
461.261	25527.42
461.466	23563.42
461.672	22631.59
461.878	24470.67
462.083	22885.54
462.289	22650.02
462.494	21761.2
462.7	21247.16
462.905	20808.9
463.111	20985.02
463.316	21621.94
463.522	20575.43
463.727	20982.98
463.932	20958.4
464.138	20606.15
464.343	20849.86
464.549	19915.98
464.754	20694.21
464.959	20749.51
465.165	20395.21
465.37	19498.2
465.575	18867.42
465.781	19723.48
465.986	20151.5
466.191	19066.08
466.397	18779.36
466.602	18042.09
