Data from USB4F104151__62__13-05-51-361.txt Node

Date: Fri Mar 14 13:05:51 EDT 2025
User: louis
Spectrometer: USB4F10415
Trigger mode: 4
Integration Time (sec): 4.000000E-2
Scans to average: 1
Electric dark correction enabled: true
Nonlinearity correction enabled: false
Boxcar width: 0
XAxis mode: Wavelengths
Number of Pixels in Spectrum: 3648
>>>>>Begin Spectral Data<<<<<
178.204	-152.57
178.424	-152.57
178.644	-152.57
178.864	-211.96
179.084	-191.49
179.304	54.27
179.524	7.17
179.744	-103.42
179.964	48.13
180.184	-17.41
180.404	117.76
180.624	-1.02
180.844	-17.41
181.064	-50.18
181.283	-5.12
181.503	-52.22
181.723	19.46
181.943	-52.22
182.163	76.8
182.383	7.17
182.602	9.22
182.822	31.74
183.042	-15.36
183.262	33.79
183.482	60.42
183.701	7.17
183.921	39.94
184.141	52.22
184.361	31.74
184.58	-11.26
184.8	23.55
185.02	39.94
185.239	13.31
185.459	-19.46
185.679	105.47
185.898	-13.31
186.118	-1.02
186.338	7.17
186.557	21.5
186.777	46.08
186.997	-1.02
187.216	76.8
187.436	142.33
187.655	130.05
187.875	113.66
188.095	54.27
188.314	93.18
188.534	82.94
188.753	-27.65
188.973	44.03
189.192	150.53
189.412	60.42
189.631	3.07
189.851	74.75
190.07	62.46
190.29	-27.65
190.509	27.65
190.729	9.22
190.948	68.61
191.168	230.4
191.387	82.94
191.607	13.31
191.826	44.03
192.045	46.08
192.265	-5.12
192.484	3.07
192.704	-5.12
192.923	-35.84
193.142	138.24
193.362	66.56
193.581	72.7
193.8	140.29
194.02	39.94
194.239	60.42
194.458	9.22
194.678	50.18
194.897	89.09
195.116	37.89
195.335	78.85
195.555	72.7
195.774	44.03
195.993	39.94
196.212	58.37
196.432	1.02
196.651	-5.12
196.87	5.12
197.089	48.13
197.308	134.14
197.528	66.56
197.747	-35.84
197.966	31.74
198.185	121.85
198.404	9.22
198.623	50.18
198.842	37.89
199.062	158.72
199.281	62.46
199.5	70.65
199.719	35.84
199.938	76.8
200.157	29.7
200.376	144.38
200.595	58.37
200.814	80.89
201.033	46.08
201.252	1.02
201.471	52.22
201.69	64.51
201.909	50.18
202.128	70.65
202.347	33.79
202.566	76.8
202.785	25.6
203.004	-37.89
203.223	128
203.442	11.26
203.661	48.13
203.879	35.84
204.098	66.56
204.317	19.46
204.536	78.85
204.755	46.08
204.974	48.13
205.193	74.75
205.411	158.72
205.63	46.08
205.849	70.65
206.068	58.37
206.287	5.12
206.505	107.52
206.724	66.56
206.943	35.84
207.162	7.17
207.381	142.33
207.599	115.71
207.818	60.42
208.037	23.55
208.255	136.19
208.474	-13.31
208.693	78.85
208.911	21.5
209.13	44.03
209.349	134.14
209.567	87.04
209.786	134.14
210.005	132.09
210.223	60.42
210.442	-31.74
210.661	60.42
210.879	64.51
211.098	84.99
211.316	19.46
211.535	66.56
211.753	68.61
211.972	64.51
212.191	-19.46
212.409	-21.5
212.628	35.84
212.846	15.36
213.065	91.13
213.283	62.46
213.502	31.74
213.72	23.55
213.938	66.56
214.157	31.74
214.375	78.85
214.594	21.5
214.812	72.7
215.031	23.55
215.249	87.04
215.467	44.03
215.686	-13.31
215.904	158.72
216.122	62.46
216.341	50.18
216.559	52.22
216.778	3.07
216.996	84.99
217.214	48.13
217.432	-9.22
217.651	-1.02
217.869	39.94
218.087	35.84
218.306	-21.5
218.524	31.74
218.742	5.12
218.96	130.05
219.179	54.27
219.397	13.31
219.615	117.76
219.833	29.7
220.051	23.55
220.27	68.61
220.488	62.46
220.706	82.94
220.924	56.32
221.142	117.76
221.36	66.56
221.578	76.8
221.796	80.89
222.015	35.84
222.233	33.79
222.451	134.14
222.669	101.37
222.887	13.31
223.105	13.31
223.323	21.5
223.541	-29.7
223.759	121.85
223.977	84.99
224.195	72.7
224.413	80.89
224.631	84.99
224.849	31.74
225.067	62.46
225.285	29.7
225.503	31.74
225.721	-60.42
225.939	70.65
226.157	-76.8
226.375	89.09
226.592	-19.46
226.81	3.07
227.028	70.65
227.246	152.57
227.464	58.37
227.682	68.61
227.9	70.65
228.117	23.55
228.335	93.18
228.553	134.14
228.771	62.46
228.989	99.33
229.206	5.12
229.424	19.46
229.642	-13.31
229.86	29.7
230.077	64.51
230.295	19.46
230.513	56.32
230.731	46.08
230.948	80.89
231.166	128
231.384	68.61
231.601	17.41
231.819	125.95
232.037	-9.22
232.254	11.26
232.472	35.84
232.689	37.89
232.907	54.27
233.125	17.41
233.342	11.26
233.56	-15.36
233.777	3.07
233.995	27.65
234.213	70.65
234.43	27.65
234.648	44.03
234.865	48.13
235.083	68.61
235.3	52.22
235.518	44.03
235.735	97.28
235.953	60.42
236.17	33.79
236.388	60.42
236.605	35.84
236.822	39.94
237.04	48.13
237.257	35.84
237.475	105.47
237.692	80.89
237.909	19.46
238.127	64.51
238.344	99.33
238.562	93.18
238.779	-19.46
238.996	50.18
239.214	58.37
239.431	93.18
239.648	-21.5
239.865	54.27
240.083	3.07
240.3	56.32
240.517	-50.18
240.735	54.27
240.952	56.32
241.169	84.99
241.386	33.79
241.603	9.22
241.821	-29.7
242.038	74.75
242.255	166.91
242.472	35.84
242.689	62.46
242.907	66.56
243.124	115.71
243.341	21.5
243.558	44.03
243.775	-15.36
243.992	25.6
244.209	44.03
244.426	105.47
244.643	29.7
244.86	5.12
245.078	44.03
245.295	-15.36
245.512	78.85
245.729	17.41
245.946	44.03
246.163	29.7
246.38	68.61
246.597	33.79
246.814	7.17
247.031	97.28
247.248	-3.07
247.464	15.36
247.681	1.02
247.898	35.84
248.115	109.57
248.332	17.41
248.549	119.81
248.766	74.75
248.983	60.42
249.2	48.13
249.417	13.31
249.633	37.89
249.85	142.33
250.067	54.27
250.284	31.74
250.501	46.08
250.717	52.22
250.934	21.5
251.151	89.09
251.368	60.42
251.585	76.8
251.801	48.13
252.018	46.08
252.235	50.18
252.451	-9.22
252.668	23.55
252.885	39.94
253.102	-5.12
253.318	58.37
253.535	-11.26
253.752	17.41
253.968	84.99
254.185	44.03
254.401	50.18
254.618	27.65
254.835	46.08
255.051	62.46
255.268	48.13
255.484	23.55
255.701	64.51
255.917	101.37
256.134	29.7
256.351	-1.02
256.567	35.84
256.784	-5.12
257	41.98
257.217	66.56
257.433	144.38
257.65	52.22
257.866	128
258.082	48.13
258.299	11.26
258.515	56.32
258.732	-39.94
258.948	31.74
259.165	41.98
259.381	21.5
259.597	60.42
259.814	-13.31
260.03	-23.55
260.246	25.6
260.463	52.22
260.679	21.5
260.895	50.18
261.112	91.13
261.328	13.31
261.544	35.84
261.761	89.09
261.977	3.07
262.193	-19.46
262.409	78.85
262.626	101.37
262.842	62.46
263.058	13.31
263.274	111.61
263.49	13.31
263.707	68.61
263.923	33.79
264.139	-46.08
264.355	39.94
264.571	93.18
264.787	50.18
265.004	70.65
265.22	21.5
265.436	35.84
265.652	46.08
265.868	64.51
266.084	41.98
266.3	52.22
266.516	-58.37
266.732	66.56
266.948	91.13
267.164	-13.31
267.38	97.28
267.596	19.46
267.812	154.62
268.028	95.23
268.244	29.7
268.46	70.65
268.676	11.26
268.892	46.08
269.108	48.13
269.324	-1.02
269.54	91.13
269.756	66.56
269.972	-19.46
270.188	31.74
270.403	48.13
270.619	-7.17
270.835	72.7
271.051	62.46
271.267	5.12
271.483	-19.46
271.698	7.17
271.914	46.08
272.13	31.74
272.346	54.27
272.562	76.8
272.777	64.51
272.993	35.84
273.209	52.22
273.425	64.51
273.64	-33.79
273.856	93.18
274.072	60.42
274.287	11.26
274.503	105.47
274.719	76.8
274.934	37.89
275.15	-39.94
275.366	107.52
275.581	68.61
275.797	64.51
276.012	9.22
276.228	21.5
276.444	27.65
276.659	113.66
276.875	1.02
277.09	56.32
277.306	103.42
277.521	48.13
277.737	-5.12
277.952	80.89
278.168	56.32
278.383	39.94
278.599	101.37
278.814	70.65
279.03	33.79
279.245	35.84
279.461	5.12
279.676	70.65
279.892	-35.84
280.107	39.94
280.322	-11.26
280.538	109.57
280.753	17.41
280.969	15.36
281.184	1.02
281.399	80.89
281.615	19.46
281.83	60.42
282.045	-44.03
282.26	-25.6
282.476	-9.22
282.691	117.76
282.906	-17.41
283.122	35.84
283.337	15.36
283.552	23.55
283.767	7.17
283.983	74.75
284.198	3.07
284.413	3.07
284.628	11.26
284.843	58.37
285.058	44.03
285.274	19.46
285.489	56.32
285.704	113.66
285.919	-29.7
286.134	103.42
286.349	54.27
286.564	11.26
286.779	97.28
286.995	-17.41
287.21	-21.5
287.425	33.79
287.64	21.5
287.855	93.18
288.07	15.36
288.285	105.47
288.5	78.85
288.715	46.08
288.93	84.99
289.145	50.18
289.36	101.37
289.575	-7.17
289.79	21.5
290.004	70.65
290.219	107.52
290.434	29.7
290.649	58.37
290.864	87.04
291.079	3.07
291.294	27.65
291.509	78.85
291.724	11.26
291.938	117.76
292.153	13.31
292.368	9.22
292.583	46.08
292.798	54.27
293.012	48.13
293.227	46.08
293.442	41.98
293.657	80.89
293.871	62.46
294.086	99.33
294.301	87.04
294.516	179.2
294.73	17.41
294.945	21.5
295.16	37.89
295.374	148.48
295.589	-3.07
295.804	15.36
296.018	29.7
296.233	107.52
296.447	134.14
296.662	21.5
296.877	140.29
297.091	109.57
297.306	11.26
297.52	25.6
297.735	109.57
297.949	62.46
298.164	56.32
298.378	125.95
298.593	-70.65
298.807	97.28
299.022	70.65
299.236	54.27
299.451	-5.12
299.665	97.28
299.88	-27.65
300.094	44.03
300.309	48.13
300.523	80.89
300.737	95.23
300.952	7.17
301.166	-19.46
301.381	-17.41
301.595	31.74
301.809	52.22
302.024	74.75
302.238	7.17
302.452	140.29
302.667	87.04
302.881	123.9
303.095	41.98
303.309	44.03
303.524	-29.7
303.738	19.46
303.952	48.13
304.166	19.46
304.381	-56.32
304.595	84.99
304.809	-25.6
305.023	78.85
305.237	52.22
305.452	-46.08
305.666	95.23
305.88	60.42
306.094	70.65
306.308	41.98
306.522	62.46
306.736	130.05
306.95	62.46
307.164	41.98
307.379	68.61
307.593	44.03
307.807	99.33
308.021	-13.31
308.235	89.09
308.449	35.84
308.663	44.03
308.877	84.99
309.091	87.04
309.305	76.8
309.519	7.17
309.733	109.57
309.947	5.12
310.161	66.56
310.374	23.55
310.588	7.17
310.802	-33.79
311.016	11.26
311.23	70.65
311.444	37.89
311.658	-17.41
311.872	179.2
312.085	70.65
312.299	27.65
312.513	113.66
312.727	-27.65
312.941	31.74
313.154	121.85
313.368	35.84
313.582	64.51
313.796	99.33
314.009	60.42
314.223	154.62
314.437	21.5
314.651	41.98
314.864	-5.12
315.078	19.46
315.292	9.22
315.505	-33.79
315.719	76.8
315.933	72.7
316.146	7.17
316.36	19.46
316.573	125.95
316.787	99.33
317.001	113.66
317.214	13.31
317.428	107.52
317.641	66.56
317.855	48.13
318.068	7.17
318.282	17.41
318.495	76.8
318.709	64.51
318.922	19.46
319.136	72.7
319.349	87.04
319.563	15.36
319.776	29.7
319.99	44.03
320.203	80.89
320.417	-35.84
320.63	56.32
320.843	136.19
321.057	66.56
321.27	76.8
321.483	107.52
321.697	144.38
321.91	39.94
322.124	-5.12
322.337	-1.02
322.55	7.17
322.763	46.08
322.977	54.27
323.19	72.7
323.403	103.42
323.617	158.72
323.83	33.79
324.043	130.05
324.256	168.96
324.469	37.89
324.683	107.52
324.896	-39.94
325.109	54.27
325.322	-29.7
325.535	56.32
325.748	78.85
325.962	21.5
326.175	64.51
326.388	78.85
326.601	105.47
326.814	48.13
327.027	130.05
327.24	107.52
327.453	-17.41
327.666	132.09
327.879	68.61
328.092	109.57
328.305	35.84
328.518	62.46
328.731	39.94
328.944	123.9
329.157	27.65
329.37	78.85
329.583	107.52
329.796	78.85
330.009	109.57
330.222	78.85
330.435	113.66
330.648	70.65
330.861	19.46
331.073	23.55
331.286	111.61
331.499	58.37
331.712	19.46
331.925	27.65
332.138	109.57
332.35	130.05
332.563	31.74
332.776	97.28
332.989	29.7
333.202	3.07
333.414	21.5
333.627	50.18
333.84	52.22
334.053	66.56
334.265	15.36
334.478	78.85
334.691	54.27
334.903	80.89
335.116	29.7
335.329	107.52
335.541	56.32
335.754	138.24
335.966	132.09
336.179	1.02
336.392	41.98
336.604	101.37
336.817	27.65
337.029	60.42
337.242	33.79
337.454	48.13
337.667	74.75
337.88	148.48
338.092	15.36
338.305	11.26
338.517	25.6
338.729	3.07
338.942	35.84
339.154	23.55
339.367	46.08
339.579	93.18
339.792	35.84
340.004	70.65
340.217	-9.22
340.429	64.51
340.641	84.99
340.854	46.08
341.066	171.01
341.278	101.37
341.491	97.28
341.703	76.8
341.915	27.65
342.128	91.13
342.34	17.41
342.552	25.6
342.764	46.08
342.977	21.5
343.189	130.05
343.401	-39.94
343.613	-23.55
343.826	78.85
344.038	105.47
344.25	46.08
344.462	101.37
344.674	27.65
344.886	31.74
345.099	84.99
345.311	105.47
345.523	-3.07
345.735	-21.5
345.947	48.13
346.159	11.26
346.371	64.51
346.583	-7.17
346.795	130.05
347.007	39.94
347.219	84.99
347.431	62.46
347.643	58.37
347.855	13.31
348.067	84.99
348.279	-35.84
348.491	31.74
348.703	109.57
348.915	46.08
349.127	19.46
349.339	74.75
349.551	68.61
349.763	72.7
349.975	119.81
350.187	115.71
350.399	72.7
350.61	64.51
350.822	13.31
351.034	46.08
351.246	121.85
351.458	70.65
351.669	93.18
351.881	93.18
352.093	27.65
352.305	103.42
352.517	113.66
352.728	160.77
352.94	97.28
353.152	101.37
353.363	37.89
353.575	119.81
353.787	134.14
353.999	101.37
354.21	168.96
354.422	37.89
354.633	3.07
354.845	52.22
355.057	128
355.268	105.47
355.48	97.28
355.692	-13.31
355.903	1.02
356.115	3.07
356.326	-1.02
356.538	62.46
356.749	15.36
356.961	132.09
357.172	111.61
357.384	109.57
357.595	142.33
357.807	56.32
358.018	37.89
358.23	-9.22
358.441	138.24
358.653	80.89
358.864	103.42
359.075	37.89
359.287	115.71
359.498	134.14
359.709	60.42
359.921	93.18
360.132	44.03
360.344	44.03
360.555	56.32
360.766	103.42
360.977	25.6
361.189	84.99
361.4	17.41
361.611	48.13
361.823	160.77
362.034	44.03
362.245	66.56
362.456	15.36
362.667	113.66
362.879	15.36
363.09	9.22
363.301	33.79
363.512	52.22
363.723	-23.55
363.935	-21.5
364.146	93.18
364.357	41.98
364.568	31.74
364.779	41.98
364.99	89.09
365.201	17.41
365.412	93.18
365.623	5.12
365.834	87.04
366.045	84.99
366.256	35.84
366.467	99.33
366.678	58.37
366.889	33.79
367.1	132.09
367.311	68.61
367.522	125.95
367.733	132.09
367.944	93.18
368.155	68.61
368.366	70.65
368.577	146.43
368.788	117.76
368.999	29.7
369.209	52.22
369.42	97.28
369.631	128
369.842	37.89
370.053	39.94
370.264	93.18
370.474	19.46
370.685	87.04
370.896	82.94
371.107	97.28
371.317	125.95
371.528	60.42
371.739	44.03
371.95	29.7
372.16	121.85
372.371	37.89
372.582	48.13
372.792	97.28
373.003	101.37
373.214	72.7
373.424	74.75
373.635	3.07
373.846	109.57
374.056	72.7
374.267	82.94
374.477	84.99
374.688	23.55
374.898	107.52
375.109	60.42
375.319	39.94
375.53	142.33
375.74	62.46
375.951	74.75
376.161	97.28
376.372	74.75
376.582	121.85
376.793	76.8
377.003	121.85
377.214	-11.26
377.424	84.99
377.635	52.22
377.845	25.6
378.055	138.24
378.266	50.18
378.476	-1.02
378.686	37.89
378.897	76.8
379.107	52.22
379.317	101.37
379.528	68.61
379.738	15.36
379.948	5.12
380.158	91.13
380.369	115.71
380.579	134.14
380.789	-56.32
380.999	37.89
381.21	121.85
381.42	171.01
381.63	70.65
381.84	89.09
382.05	121.85
382.261	173.05
382.471	37.89
382.681	-7.17
382.891	95.23
383.101	105.47
383.311	-37.89
383.521	46.08
383.731	105.47
383.941	64.51
384.151	78.85
384.361	44.03
384.571	27.65
384.781	35.84
384.991	109.57
385.201	128
385.411	95.23
385.621	156.67
385.831	87.04
386.041	78.85
386.251	62.46
386.461	97.28
386.671	87.04
386.881	84.99
387.091	82.94
387.301	70.65
387.511	70.65
387.72	5.12
387.93	109.57
388.14	-60.42
388.35	97.28
388.56	130.05
388.769	91.13
388.979	56.32
389.189	66.56
389.399	156.67
389.609	93.18
389.818	183.29
390.028	89.09
390.238	93.18
390.447	62.46
390.657	99.33
390.867	152.57
391.076	13.31
391.286	111.61
391.496	44.03
391.705	44.03
391.915	128
392.125	160.77
392.334	80.89
392.544	64.51
392.753	31.74
392.963	48.13
393.172	68.61
393.382	113.66
393.591	177.15
393.801	111.61
394.01	142.33
394.22	105.47
394.429	128
394.639	68.61
394.848	74.75
395.058	183.29
395.267	105.47
395.477	113.66
395.686	84.99
395.895	234.49
396.105	183.29
396.314	142.33
396.524	140.29
396.733	103.42
396.942	119.81
397.152	218.11
397.361	168.96
397.57	144.38
397.78	117.76
397.989	150.53
398.198	226.3
398.407	128
398.617	128
398.826	181.25
399.035	113.66
399.244	156.67
399.453	119.81
399.663	207.87
399.872	150.53
400.081	115.71
400.29	128
400.499	101.37
400.708	246.78
400.917	291.84
401.127	87.04
401.336	103.42
401.545	236.54
401.754	185.34
401.963	134.14
402.172	166.91
402.381	80.89
402.59	105.47
402.799	130.05
403.008	214.01
403.217	183.29
403.426	185.34
403.635	181.25
403.844	177.15
404.053	179.2
404.262	89.09
404.471	179.2
404.68	240.64
404.888	171.01
405.097	125.95
405.306	187.39
405.515	144.38
405.724	138.24
405.933	183.29
406.142	181.25
406.35	281.6
406.559	199.68
406.768	201.72
406.977	267.26
407.185	222.2
407.394	281.6
407.603	146.43
407.812	254.97
408.02	291.84
408.229	275.45
408.438	322.56
408.646	248.83
408.855	252.92
409.064	332.79
409.272	304.12
409.481	361.47
409.69	279.55
409.898	304.12
410.107	340.99
410.315	429.05
410.524	322.56
410.733	392.19
410.941	404.47
411.15	549.88
411.358	433.15
411.567	531.45
411.775	510.97
411.984	465.91
412.192	560.12
412.401	531.45
412.609	635.89
412.818	672.76
413.026	621.56
413.234	631.8
413.443	617.46
413.651	674.81
413.86	578.55
414.068	764.92
414.276	766.96
414.485	693.24
414.693	781.3
414.901	867.31
415.11	824.31
415.318	848.88
415.526	895.99
415.734	1031.15
415.943	947.19
416.151	1065.97
416.359	934.9
416.567	1051.63
416.776	1057.78
416.984	1229.81
417.192	1223.66
417.4	1133.55
417.608	1272.81
417.817	1180.65
418.025	1342.44
418.233	1414.12
418.441	1405.93
418.649	1403.88
418.857	1623.02
419.065	1696.74
419.273	1479.66
419.481	1641.45
419.689	1805.28
419.897	1725.41
420.105	1852.39
420.313	1827.81
420.521	2083.81
420.729	1960.93
420.937	2055.14
421.145	2122.72
421.353	2270.17
421.561	2452.44
421.769	2315.23
421.977	2403.29
422.185	2393.05
422.393	2657.24
422.601	2831.32
422.809	2755.54
423.017	2794.45
423.224	2915.28
423.432	2952.15
423.64	2966.48
423.848	3304.4
424.056	3013.59
424.263	3544.01
424.471	3484.62
424.679	3552.2
424.887	3660.74
425.094	3791.81
425.302	3984.32
425.51	3982.28
425.718	4096.96
425.925	4262.85
426.133	4393.92
426.341	4533.18
426.548	4799.41
426.756	4813.75
426.964	4654.01
427.171	4893.62
427.379	5166
427.586	5368.75
427.794	5469.1
428.001	5729.19
428.209	5905.32
428.417	6024.1
428.624	6351.78
428.832	6284.19
429.039	6116.26
429.247	6251.42
429.454	6886.29
429.662	7623.56
429.869	7017.36
430.076	7365.52
430.284	7027.6
430.491	7414.67
430.699	7973.77
430.906	8078.21
431.114	7949.19
431.321	8141.7
431.528	8369.02
431.736	8801.15
431.943	9190.26
432.15	9051
432.358	9315.19
432.565	9866.09
432.772	9614.19
432.979	10150.76
433.187	10132.33
433.394	10333.03
433.601	11322.2
433.808	11289.43
434.016	11006.81
434.223	11565.9
434.43	12444.48
434.637	12018.5
434.844	12712.77
435.052	13009.72
435.259	12901.18
435.466	13030.2
435.673	12927.8
435.88	13603.63
436.087	14183.21
436.294	14318.37
436.501	14318.37
436.708	14406.44
436.915	14934.81
437.122	15510.29
437.329	15483.67
437.537	16204.55
437.743	16319.24
437.95	16417.54
438.157	16978.68
438.364	17566.45
438.571	17648.37
438.778	17797.87
438.985	19372.76
439.192	18582.24
439.399	19030.75
439.606	18789.09
439.813	20091.6
440.02	20882.11
440.227	20607.69
440.433	20482.76
440.64	21009.09
440.847	21164.73
441.054	21441.21
441.261	22923.94
441.467	22397.61
441.674	22997.67
441.881	23767.7
442.088	23872.15
442.294	23605.91
442.501	24132.24
442.708	24707.72
442.914	25741.94
443.121	26737.26
443.328	26266.22
443.534	28373.58
443.741	27353.69
443.948	26704.49
444.154	28965.45
444.361	28611.15
444.568	28856.9
444.774	28809.8
444.981	29069.89
445.187	30028.34
445.394	31578.65
445.6	30886.44
445.807	33753.6
446.013	32395.79
446.22	33024.52
446.426	34159.09
446.633	34382.32
446.839	35668.45
447.046	34349.56
447.252	36264.41
447.459	36096.47
447.665	35959.26
447.871	37591.49
448.078	39637.41
448.284	37611.97
448.491	38521.27
448.697	40229.27
448.903	40692.12
449.11	40929.68
449.316	40116.64
449.522	40690.07
449.728	42084.73
449.935	42201.47
450.141	41992.58
450.347	43366.76
450.553	42203.52
450.76	42529.14
450.966	43759.97
451.172	43442.54
451.378	44415.32
451.584	43546.98
451.791	45007.19
451.997	44366.17
452.203	45697.35
452.409	45488.46
452.615	45375.82
452.821	43870.56
453.027	43264.36
453.233	45637.96
453.44	44085.6
453.646	44255.58
453.852	44505.43
454.058	45375.82
454.264	44310.88
454.47	44581.21
454.676	43628.9
454.882	44970.32
455.088	41290.12
455.294	42047.87
455.5	42353.02
455.705	42971.5
455.911	41339.27
456.117	40792.47
456.323	40524.18
456.529	38150.59
456.735	39965.09
456.941	38838.7
457.147	38109.63
457.352	36915.66
457.558	36708.82
457.764	36581.84
457.97	35848.67
458.176	35199.46
458.381	35437.03
458.587	33493.5
458.793	33495.55
458.999	32031.26
459.204	34308.6
459.41	33198.6
459.616	31070.76
459.821	31124.01
460.027	31222.31
460.233	30132.79
460.438	29186.63
460.644	29309.5
460.85	27785.82
461.055	27044.45
461.261	26897
461.466	25260.67
461.672	24588.94
461.878	26206.83
462.083	24277.65
462.289	24220.3
462.494	23851.67
462.7	22704.81
462.905	21904.05
463.111	22786.72
463.316	22739.62
463.522	22416.04
463.727	22366.89
463.932	22233.77
464.138	22053.55
464.343	22338.22
464.549	21484.22
464.754	22315.69
464.959	22088.37
465.165	21867.19
465.37	21240.51
465.575	20406.98
465.781	21387.96
465.986	21342.91
466.191	20851.39
466.397	20073.17
466.602	19344.09
