Data from USB4F104151__94__13-06-26-236.txt Node

Date: Fri Mar 14 13:06:26 EDT 2025
User: louis
Spectrometer: USB4F10415
Trigger mode: 4
Integration Time (sec): 4.000000E-2
Scans to average: 1
Electric dark correction enabled: true
Nonlinearity correction enabled: false
Boxcar width: 0
XAxis mode: Wavelengths
Number of Pixels in Spectrum: 3648
>>>>>Begin Spectral Data<<<<<
178.204	-202.41
178.424	-202.41
178.644	-202.41
178.864	-237.22
179.084	-220.84
179.304	-54.95
179.524	-30.38
179.744	-40.62
179.964	123.22
180.184	57.68
180.404	37.2
180.624	-24.23
180.844	8.53
181.064	-28.33
181.283	6.49
181.503	-63.15
181.723	8.53
181.943	-81.58
182.163	76.12
182.383	-13.99
182.602	129.36
182.822	80.21
183.042	-28.33
183.262	4.44
183.482	24.92
183.701	41.3
183.921	-48.81
184.141	39.25
184.361	98.64
184.58	37.2
184.8	53.59
185.02	-7.85
185.239	76.12
185.459	-54.95
185.679	123.22
185.898	-54.95
186.118	33.11
186.338	26.96
186.557	74.07
186.777	-30.38
186.997	-3.75
187.216	-18.09
187.436	125.27
187.655	-32.43
187.875	119.12
188.095	33.11
188.314	67.92
188.534	59.73
188.753	63.83
188.973	33.11
189.192	129.36
189.412	67.92
189.631	57.68
189.851	33.11
190.07	59.73
190.29	31.06
190.509	-22.19
190.729	10.58
190.948	106.84
191.168	201.04
191.387	96.6
191.607	-3.75
191.826	123.22
192.045	-32.43
192.265	63.83
192.484	90.45
192.704	14.68
192.923	24.92
193.142	82.26
193.362	6.49
193.581	65.88
193.8	20.82
194.02	86.36
194.239	-120.49
194.458	63.83
194.678	33.11
194.897	24.92
195.116	41.3
195.335	18.77
195.555	129.36
195.774	6.49
195.993	98.64
196.212	22.87
196.432	20.82
196.651	59.73
196.87	20.82
197.089	133.46
197.308	86.36
197.528	53.59
197.747	-34.47
197.966	-24.23
198.185	86.36
198.404	-32.43
198.623	16.73
198.842	57.68
199.062	108.88
199.281	82.26
199.5	-11.95
199.719	41.3
199.938	-3.75
200.157	37.2
200.376	67.92
200.595	57.68
200.814	8.53
201.033	4.44
201.252	90.45
201.471	-18.09
201.69	65.88
201.909	100.69
202.128	74.07
202.347	112.98
202.566	98.64
202.785	12.63
203.004	39.25
203.223	196.95
203.442	51.54
203.661	-24.23
203.879	26.96
204.098	43.35
204.317	16.73
204.536	69.97
204.755	94.55
204.974	74.07
205.193	104.79
205.411	147.8
205.63	29.01
205.849	69.97
206.068	37.2
206.287	-57
206.505	90.45
206.724	39.25
206.943	80.21
207.162	-38.57
207.381	24.92
207.599	33.11
207.818	123.22
208.037	24.92
208.255	82.26
208.474	18.77
208.693	24.92
208.911	16.73
209.13	49.49
209.349	80.21
209.567	41.3
209.786	94.55
210.005	49.49
210.223	-1.71
210.442	-16.04
210.661	29.01
210.879	96.6
211.098	-42.67
211.316	39.25
211.535	65.88
211.753	-1.71
211.972	49.49
212.191	78.16
212.409	2.39
212.628	59.73
212.846	43.35
213.065	78.16
213.283	98.64
213.502	0.34
213.72	49.49
213.938	12.63
214.157	-7.85
214.375	90.45
214.594	29.01
214.812	88.4
215.031	45.4
215.249	35.16
215.467	100.69
215.686	24.92
215.904	8.53
216.122	94.55
216.341	61.78
216.559	49.49
216.778	108.88
216.996	72.02
217.214	31.06
217.432	74.07
217.651	8.53
217.869	49.49
218.087	-7.85
218.306	-20.14
218.524	37.2
218.742	31.06
218.96	51.54
219.179	-7.85
219.397	-1.71
219.615	78.16
219.833	41.3
220.051	-26.28
220.27	86.36
220.488	121.17
220.706	80.21
220.924	49.49
221.142	49.49
221.36	98.64
221.578	-24.23
221.796	67.92
222.015	39.25
222.233	-65.19
222.451	166.23
222.669	-28.33
222.887	106.84
223.105	-20.14
223.323	4.44
223.541	31.06
223.759	69.97
223.977	24.92
224.195	117.08
224.413	117.08
224.631	65.88
224.849	57.68
225.067	123.22
225.285	20.82
225.503	61.78
225.721	-7.85
225.939	57.68
226.157	65.88
226.375	123.22
226.592	39.25
226.81	37.2
227.028	55.64
227.246	121.17
227.464	-44.71
227.682	18.77
227.9	43.35
228.117	20.82
228.335	14.68
228.553	65.88
228.771	61.78
228.989	117.08
229.206	39.25
229.424	57.68
229.642	24.92
229.86	-63.15
230.077	69.97
230.295	78.16
230.513	51.54
230.731	127.32
230.948	86.36
231.166	41.3
231.384	57.68
231.601	-3.75
231.819	127.32
232.037	65.88
232.254	-59.05
232.472	49.49
232.689	12.63
232.907	102.74
233.125	37.2
233.342	-16.04
233.56	45.4
233.777	12.63
233.995	45.4
234.213	100.69
234.43	8.53
234.648	31.06
234.865	98.64
235.083	67.92
235.3	43.35
235.518	0.34
235.735	139.6
235.953	57.68
236.17	49.49
236.388	41.3
236.605	49.49
236.822	67.92
237.04	33.11
237.257	141.65
237.475	-22.19
237.692	47.44
237.909	33.11
238.127	-24.23
238.344	37.2
238.562	123.22
238.779	26.96
238.996	-16.04
239.214	57.68
239.431	155.99
239.648	-28.33
239.865	43.35
240.083	65.88
240.3	55.64
240.517	61.78
240.735	110.93
240.952	106.84
241.169	78.16
241.386	12.63
241.603	67.92
241.821	33.11
242.038	37.2
242.255	43.35
242.472	2.39
242.689	94.55
242.907	29.01
243.124	29.01
243.341	8.53
243.558	0.34
243.775	-3.75
243.992	0.34
244.209	67.92
244.426	131.41
244.643	-65.19
244.86	-7.85
245.078	110.93
245.295	82.26
245.512	35.16
245.729	-81.58
245.946	24.92
246.163	102.74
246.38	8.53
246.597	-9.9
246.814	51.54
247.031	53.59
247.248	-18.09
247.464	-13.99
247.681	61.78
247.898	80.21
248.115	47.44
248.332	16.73
248.549	82.26
248.766	178.51
248.983	37.2
249.2	94.55
249.417	108.88
249.633	-48.81
249.85	51.54
250.067	57.68
250.284	123.22
250.501	37.2
250.717	80.21
250.934	-24.23
251.151	-7.85
251.368	43.35
251.585	10.58
251.801	45.4
252.018	51.54
252.235	110.93
252.451	4.44
252.668	49.49
252.885	125.27
253.102	67.92
253.318	82.26
253.535	35.16
253.752	24.92
253.968	-85.67
254.185	-28.33
254.401	-16.04
254.618	84.31
254.835	-28.33
255.051	115.03
255.268	131.41
255.484	84.31
255.701	-32.43
255.917	45.4
256.134	0.34
256.351	6.49
256.567	0.34
256.784	51.54
257	-52.91
257.217	69.97
257.433	49.49
257.65	59.73
257.866	110.93
258.082	-24.23
258.299	-1.71
258.515	61.78
258.732	12.63
258.948	41.3
259.165	33.11
259.381	-20.14
259.597	49.49
259.814	43.35
260.03	-30.38
260.246	61.78
260.463	106.84
260.679	49.49
260.895	24.92
261.112	55.64
261.328	-38.57
261.544	-24.23
261.761	135.51
261.977	33.11
262.193	-30.38
262.409	67.92
262.626	26.96
262.842	65.88
263.058	29.01
263.274	26.96
263.49	4.44
263.707	61.78
263.923	106.84
264.139	-20.14
264.355	4.44
264.571	74.07
264.787	-1.71
265.004	94.55
265.22	86.36
265.436	-11.95
265.652	6.49
265.868	16.73
266.084	45.4
266.3	0.34
266.516	-34.47
266.732	20.82
266.948	78.16
267.164	4.44
267.38	2.39
267.596	110.93
267.812	49.49
268.028	82.26
268.244	6.49
268.46	47.44
268.676	59.73
268.892	67.92
269.108	29.01
269.324	2.39
269.54	-42.67
269.756	43.35
269.972	-40.62
270.188	41.3
270.403	-54.95
270.619	33.11
270.835	65.88
271.051	80.21
271.267	35.16
271.483	2.39
271.698	143.7
271.914	53.59
272.13	92.5
272.346	108.88
272.562	47.44
272.777	33.11
272.993	16.73
273.209	31.06
273.425	53.59
273.64	-16.04
273.856	84.31
274.072	14.68
274.287	-28.33
274.503	90.45
274.719	26.96
274.934	55.64
275.15	26.96
275.366	51.54
275.581	18.77
275.797	35.16
276.012	24.92
276.228	35.16
276.444	90.45
276.659	35.16
276.875	65.88
277.09	65.88
277.306	57.68
277.521	45.4
277.737	37.2
277.952	98.64
278.168	18.77
278.383	65.88
278.599	10.58
278.814	45.4
279.03	57.68
279.245	121.17
279.461	-16.04
279.676	78.16
279.892	45.4
280.107	-46.76
280.322	29.01
280.538	53.59
280.753	31.06
280.969	59.73
281.184	37.2
281.399	84.31
281.615	45.4
281.83	59.73
282.045	88.4
282.26	2.39
282.476	53.59
282.691	31.06
282.906	65.88
283.122	6.49
283.337	-13.99
283.552	69.97
283.767	82.26
283.983	12.63
284.198	35.16
284.413	2.39
284.628	51.54
284.843	26.96
285.058	61.78
285.274	45.4
285.489	8.53
285.704	96.6
285.919	-3.75
286.134	29.01
286.349	43.35
286.564	55.64
286.779	84.31
286.995	-3.75
287.21	-22.19
287.425	0.34
287.64	0.34
287.855	61.78
288.07	2.39
288.285	10.58
288.5	123.22
288.715	53.59
288.93	69.97
289.145	8.53
289.36	74.07
289.575	59.73
289.79	133.46
290.004	2.39
290.219	145.75
290.434	-16.04
290.649	67.92
290.864	61.78
291.079	8.53
291.294	18.77
291.509	74.07
291.724	16.73
291.938	35.16
292.153	51.54
292.368	-5.8
292.583	-13.99
292.798	82.26
293.012	67.92
293.227	74.07
293.442	57.68
293.657	112.98
293.871	198.99
294.086	47.44
294.301	145.75
294.516	112.98
294.73	10.58
294.945	16.73
295.16	24.92
295.374	51.54
295.589	104.79
295.804	8.53
296.018	-13.99
296.233	90.45
296.447	2.39
296.662	2.39
296.877	117.08
297.091	53.59
297.306	49.49
297.52	20.82
297.735	55.64
297.949	10.58
298.164	47.44
298.378	57.68
298.593	20.82
298.807	-16.04
299.022	-36.52
299.236	117.08
299.451	37.2
299.665	-18.09
299.88	-3.75
300.094	35.16
300.309	-11.95
300.523	53.59
300.737	45.4
300.952	59.73
301.166	78.16
301.381	-3.75
301.595	90.45
301.809	45.4
302.024	6.49
302.238	-48.81
302.452	39.25
302.667	94.55
302.881	55.64
303.095	-5.8
303.309	49.49
303.524	65.88
303.738	51.54
303.952	4.44
304.166	125.27
304.381	-50.86
304.595	69.97
304.809	8.53
305.023	65.88
305.237	121.17
305.452	8.53
305.666	80.21
305.88	43.35
306.094	141.65
306.308	82.26
306.522	96.6
306.736	45.4
306.95	35.16
307.164	84.31
307.379	90.45
307.593	18.77
307.807	59.73
308.021	31.06
308.235	-22.19
308.449	-9.9
308.663	16.73
308.877	135.51
309.091	43.35
309.305	69.97
309.519	-69.29
309.733	90.45
309.947	4.44
310.161	59.73
310.374	76.12
310.588	92.5
310.802	20.82
311.016	35.16
311.23	-11.95
311.444	14.68
311.658	35.16
311.872	80.21
312.085	80.21
312.299	88.4
312.513	119.12
312.727	49.49
312.941	22.87
313.154	16.73
313.368	29.01
313.582	16.73
313.796	67.92
314.009	67.92
314.223	106.84
314.437	41.3
314.651	26.96
314.864	45.4
315.078	26.96
315.292	-5.8
315.505	49.49
315.719	-3.75
315.933	139.6
316.146	65.88
316.36	-28.33
316.573	57.68
316.787	69.97
317.001	67.92
317.214	-16.04
317.428	100.69
317.641	63.83
317.855	53.59
318.068	90.45
318.282	45.4
318.495	115.03
318.709	96.6
318.922	76.12
319.136	112.98
319.349	59.73
319.563	67.92
319.776	47.44
319.99	2.39
320.203	80.21
320.417	41.3
320.63	-18.09
320.843	131.41
321.057	92.5
321.27	94.55
321.483	106.84
321.697	90.45
321.91	49.49
322.124	59.73
322.337	82.26
322.55	18.77
322.763	106.84
322.977	59.73
323.19	12.63
323.403	-3.75
323.617	51.54
323.83	121.17
324.043	-7.85
324.256	55.64
324.469	65.88
324.683	92.5
324.896	33.11
325.109	74.07
325.322	10.58
325.535	43.35
325.748	135.51
325.962	143.7
326.175	55.64
326.388	31.06
326.601	43.35
326.814	160.08
327.027	0.34
327.24	102.74
327.453	-7.85
327.666	74.07
327.879	92.5
328.092	104.79
328.305	53.59
328.518	16.73
328.731	-34.47
328.944	16.73
329.157	55.64
329.37	22.87
329.583	106.84
329.796	94.55
330.009	57.68
330.222	100.69
330.435	45.4
330.648	86.36
330.861	67.92
331.073	35.16
331.286	49.49
331.499	14.68
331.712	14.68
331.925	61.78
332.138	110.93
332.35	63.83
332.563	74.07
332.776	143.7
332.989	74.07
333.202	-32.43
333.414	69.97
333.627	82.26
333.84	76.12
334.053	139.6
334.265	-11.95
334.478	76.12
334.691	51.54
334.903	8.53
335.116	29.01
335.329	2.39
335.541	45.4
335.754	61.78
335.966	51.54
336.179	4.44
336.392	45.4
336.604	59.73
336.817	135.51
337.029	94.55
337.242	82.26
337.454	98.64
337.667	90.45
337.88	139.6
338.092	63.83
338.305	88.4
338.517	-7.85
338.729	141.65
338.942	135.51
339.154	29.01
339.367	16.73
339.579	-5.8
339.792	53.59
340.004	98.64
340.217	0.34
340.429	14.68
340.641	51.54
340.854	41.3
341.066	8.53
341.278	78.16
341.491	61.78
341.703	-5.8
341.915	22.87
342.128	69.97
342.34	67.92
342.552	37.2
342.764	41.3
342.977	100.69
343.189	31.06
343.401	18.77
343.613	-42.67
343.826	61.78
344.038	33.11
344.25	61.78
344.462	22.87
344.674	53.59
344.886	106.84
345.099	16.73
345.311	12.63
345.523	-13.99
345.735	-11.95
345.947	94.55
346.159	65.88
346.371	12.63
346.583	24.92
346.795	65.88
347.007	41.3
347.219	59.73
347.431	51.54
347.643	41.3
347.855	90.45
348.067	90.45
348.279	-13.99
348.491	69.97
348.703	72.02
348.915	33.11
349.127	18.77
349.339	35.16
349.551	43.35
349.763	-22.19
349.975	-3.75
350.187	108.88
350.399	18.77
350.61	78.16
350.822	26.96
351.034	41.3
351.246	59.73
351.458	143.7
351.669	29.01
351.881	117.08
352.093	69.97
352.305	192.85
352.517	47.44
352.728	63.83
352.94	74.07
353.152	94.55
353.363	20.82
353.575	43.35
353.787	49.49
353.999	41.3
354.21	133.46
354.422	-48.81
354.633	-7.85
354.845	84.31
355.057	69.97
355.268	33.11
355.48	131.41
355.692	61.78
355.903	35.16
356.115	82.26
356.326	-69.29
356.538	106.84
356.749	123.22
356.961	196.95
357.172	74.07
357.384	0.34
357.595	133.46
357.807	74.07
358.018	33.11
358.23	49.49
358.441	168.27
358.653	-22.19
358.864	35.16
359.075	35.16
359.287	29.01
359.498	119.12
359.709	76.12
359.921	61.78
360.132	-5.8
360.344	-11.95
360.555	65.88
360.766	123.22
360.977	-11.95
361.189	149.84
361.4	10.58
361.611	31.06
361.823	22.87
362.034	10.58
362.245	-11.95
362.456	78.16
362.667	65.88
362.879	-7.85
363.09	55.64
363.301	88.4
363.512	33.11
363.723	57.68
363.935	-7.85
364.146	98.64
364.357	49.49
364.568	106.84
364.779	35.16
364.99	59.73
365.201	51.54
365.412	53.59
365.623	65.88
365.834	51.54
366.045	65.88
366.256	45.4
366.467	102.74
366.678	29.01
366.889	33.11
367.1	41.3
367.311	33.11
367.522	8.53
367.733	57.68
367.944	41.3
368.155	37.2
368.366	49.49
368.577	74.07
368.788	84.31
368.999	59.73
369.209	18.77
369.42	119.12
369.631	166.23
369.842	98.64
370.053	63.83
370.264	84.31
370.474	24.92
370.685	37.2
370.896	67.92
371.107	131.41
371.317	86.36
371.528	67.92
371.739	125.27
371.95	29.01
372.16	49.49
372.371	16.73
372.582	26.96
372.792	67.92
373.003	37.2
373.214	102.74
373.424	63.83
373.635	86.36
373.846	80.21
374.056	51.54
374.267	26.96
374.477	-38.57
374.688	74.07
374.898	100.69
375.109	-7.85
375.319	14.68
375.53	67.92
375.74	78.16
375.951	84.31
376.161	33.11
376.372	145.75
376.582	33.11
376.793	67.92
377.003	55.64
377.214	35.16
377.424	84.31
377.635	90.45
377.845	29.01
378.055	139.6
378.266	57.68
378.476	41.3
378.686	84.31
378.897	51.54
379.107	135.51
379.317	51.54
379.528	80.21
379.738	-30.38
379.948	-20.14
380.158	125.27
380.369	8.53
380.579	65.88
380.789	84.31
380.999	123.22
381.21	61.78
381.42	158.03
381.63	29.01
381.84	14.68
382.05	139.6
382.261	98.64
382.471	88.4
382.681	24.92
382.891	129.36
383.101	82.26
383.311	100.69
383.521	90.45
383.731	155.99
383.941	43.35
384.151	98.64
384.361	-7.85
384.571	139.6
384.781	135.51
384.991	174.42
385.201	92.5
385.411	65.88
385.621	59.73
385.831	63.83
386.041	106.84
386.251	100.69
386.461	135.51
386.671	41.3
386.881	139.6
387.091	14.68
387.301	51.54
387.511	125.27
387.72	22.87
387.93	57.68
388.14	33.11
388.35	67.92
388.56	12.63
388.769	201.04
388.979	51.54
389.189	74.07
389.399	125.27
389.609	121.17
389.818	76.12
390.028	123.22
390.238	74.07
390.447	22.87
390.657	84.31
390.867	164.18
391.076	26.96
391.286	100.69
391.496	76.12
391.705	86.36
391.915	65.88
392.125	57.68
392.334	45.4
392.544	98.64
392.753	96.6
392.963	-1.71
393.172	92.5
393.382	33.11
393.591	141.65
393.801	-28.33
394.01	166.23
394.22	82.26
394.429	41.3
394.639	24.92
394.848	31.06
395.058	135.51
395.267	8.53
395.477	207.19
395.686	49.49
395.895	172.37
396.105	180.56
396.314	123.22
396.524	69.97
396.733	106.84
396.942	123.22
397.152	147.8
397.361	106.84
397.57	104.79
397.78	129.36
397.989	104.79
398.198	168.27
398.407	123.22
398.617	94.55
398.826	86.36
399.035	139.6
399.244	147.8
399.453	160.08
399.663	160.08
399.872	123.22
400.081	149.84
400.29	155.99
400.499	92.5
400.708	106.84
400.917	76.12
401.127	129.36
401.336	74.07
401.545	166.23
401.754	112.98
401.963	239.95
402.172	211.28
402.381	215.38
402.59	80.21
402.799	135.51
403.008	221.52
403.217	192.85
403.426	129.36
403.635	94.55
403.844	96.6
404.053	129.36
404.262	135.51
404.471	225.62
404.68	215.38
404.888	117.08
405.097	217.43
405.306	215.38
405.515	207.19
405.724	205.14
405.933	184.66
406.142	188.75
406.35	205.14
406.559	151.89
406.768	207.19
406.977	258.39
407.185	258.39
407.394	229.71
407.603	244.05
407.812	246.1
408.02	264.53
408.229	291.15
408.438	295.25
408.646	246.1
408.855	260.43
409.064	303.44
409.272	364.88
409.481	368.98
409.69	305.49
409.898	239.95
410.107	364.88
410.315	336.21
410.524	362.83
410.733	389.46
410.941	360.78
411.15	469.33
411.358	463.18
411.567	469.33
411.775	495.95
411.984	522.57
412.192	502.09
412.401	411.98
412.609	553.29
412.818	588.11
413.026	543.05
413.234	569.68
413.443	641.36
413.651	682.31
413.86	616.78
414.068	729.42
414.276	659.79
414.485	704.84
414.693	778.57
414.901	864.58
415.11	717.13
415.318	735.56
415.526	762.19
415.734	823.62
415.943	868.68
416.151	971.08
416.359	942.41
416.567	985.41
416.776	977.22
416.984	1106.24
417.192	1104.2
417.4	1098.05
417.608	1026.37
417.817	1122.63
418.025	1202.5
418.233	1263.94
418.441	1235.27
418.649	1239.36
418.857	1413.44
419.065	1466.69
419.273	1399.1
419.481	1388.86
419.689	1569.09
419.897	1724.73
420.105	1732.92
420.313	1843.51
420.521	1839.42
420.729	1800.51
420.937	1818.94
421.145	1804.6
421.353	2107.7
421.561	2117.94
421.769	2169.14
421.977	2310.45
422.185	2230.58
422.393	2398.51
422.601	2568.49
422.809	2531.63
423.017	2560.3
423.224	2709.8
423.432	2756.91
423.64	2752.81
423.848	3078.44
424.056	2976.04
424.263	3186.98
424.471	3074.34
424.679	3289.38
424.887	3332.39
425.094	3520.8
425.302	3422.5
425.51	3752.22
425.718	3690.78
425.925	3887.39
426.133	3979.54
426.341	4204.82
426.548	4415.76
426.756	4268.31
426.964	4436.24
427.171	4694.29
427.379	4643.09
427.586	4722.96
427.794	5062.92
428.001	5206.28
428.209	5613.82
428.417	5390.6
428.624	5910.78
428.832	5595.39
429.039	5767.42
429.247	5730.56
429.454	6330.61
429.662	6758.64
429.869	6150.39
430.076	6643.95
430.284	6514.93
430.491	6752.49
430.699	7256.29
430.906	7104.74
431.114	7174.38
431.321	7342.31
431.528	7563.49
431.736	8321.24
431.943	8388.82
432.15	8315.09
432.358	8335.57
432.565	8894.67
432.772	8767.7
432.979	9461.96
433.187	9576.64
433.394	9547.97
433.601	9922.75
433.808	10268.86
434.016	10176.7
434.223	10655.92
434.43	11157.68
434.637	10877.1
434.844	11667.62
435.052	12052.64
435.259	11618.47
435.466	12042.4
435.673	11718.82
435.88	12677.27
436.087	12994.7
436.294	13215.88
436.501	12898.45
436.708	13244.56
436.915	13672.58
437.122	14309.5
437.329	14116.99
437.537	14737.52
437.743	15003.76
437.95	15040.62
438.157	15755.36
438.364	16236.64
438.571	16210.01
438.778	16111.71
438.985	17901.64
439.192	17018.96
439.399	17721.41
439.606	17395.79
439.813	18083.91
440.02	19159.09
440.227	18935.86
440.433	18911.28
440.64	19388.46
440.847	19492.91
441.054	19623.98
441.261	21248.02
441.467	20764.7
441.674	21313.55
441.881	22112.26
442.088	21973
442.294	21698.57
442.501	22497.28
442.708	22788.09
442.914	23965.67
443.121	24811.48
443.328	23914.47
443.534	25956.3
443.741	24936.41
443.948	24838.11
444.154	26423.23
444.361	26494.91
444.568	26904.51
444.774	26441.67
444.981	27047.86
445.187	27881.39
445.394	28438.44
445.6	28680.1
445.807	31188.86
446.013	29697.94
446.22	30203.78
446.426	31903.6
446.633	32186.22
446.839	32886.62
447.046	31547.25
447.252	33564.5
447.459	33546.07
447.665	33709.91
447.871	34783.04
448.078	36280.11
448.284	34606.92
448.491	35383.1
448.697	37013.28
448.903	37656.34
449.11	38008.59
449.316	37230.37
449.522	37881.62
449.728	38586.12
449.935	38682.38
450.141	38977.28
450.347	40218.35
450.553	38756.1
450.76	39462.65
450.966	40812.26
451.172	40722.15
451.378	41307.87
451.584	40392.43
451.791	41494.24
451.997	41969.36
452.203	42069.72
452.409	41760.47
452.615	41899.73
452.821	40410.86
453.027	40441.58
453.233	42348.24
453.44	40439.53
453.646	41182.94
453.852	41459.42
454.058	42090.2
454.264	40599.27
454.47	41969.36
454.676	40546.03
454.882	41766.62
455.088	38485.77
455.294	38942.47
455.5	39882.48
455.705	39956.21
455.911	38829.83
456.117	37967.63
456.323	37027.62
456.529	35553.08
456.735	37287.71
456.941	35778.36
457.147	35419.96
457.352	34160.46
457.558	34017.1
457.764	34318.15
457.97	33754.96
458.176	33062.75
458.381	33159
458.587	31231.86
458.793	31207.29
458.999	29806.48
459.204	32137.07
459.41	30816.13
459.616	29009.82
459.821	28710.82
460.027	28903.32
460.233	28379.04
460.438	26826.68
460.644	27258.81
460.85	25755.6
461.055	25438.16
461.261	25507.79
461.466	23730.16
461.672	22915.06
461.878	24465.38
462.083	22896.63
462.289	22519.81
462.494	22181.89
462.7	21112.85
462.905	20697.11
463.111	21487.63
463.316	21327.89
463.522	21026.84
463.727	21037.08
463.932	20973.59
464.138	20836.38
464.343	20719.64
464.549	19918.89
464.754	20838.42
464.959	20715.55
465.165	20250.66
465.37	19472.43
465.575	19068.98
465.781	19773.48
465.986	20111.39
466.191	19171.38
466.397	18894.9
466.602	17885.25
