Data from USB4F104151__70__13-05-58-680.txt Node

Date: Fri Mar 14 13:05:58 EDT 2025
User: louis
Spectrometer: USB4F10415
Trigger mode: 4
Integration Time (sec): 4.000000E-2
Scans to average: 1
Electric dark correction enabled: true
Nonlinearity correction enabled: false
Boxcar width: 0
XAxis mode: Wavelengths
Number of Pixels in Spectrum: 3648
>>>>>Begin Spectral Data<<<<<
178.204	-211.45
178.424	-211.45
178.644	-211.45
178.864	-250.36
179.084	-152.06
179.304	19.97
179.524	40.45
179.744	75.26
179.964	-53.76
180.184	-45.57
180.404	-12.8
180.624	36.35
180.844	-47.62
181.064	-10.75
181.283	1.54
181.503	-31.23
181.723	28.16
181.943	-82.43
182.163	15.87
182.383	-14.85
182.602	67.07
182.822	50.69
183.042	-2.56
183.262	50.69
183.482	-16.9
183.701	54.78
183.921	-12.8
184.141	-18.94
184.361	91.65
184.58	26.11
184.8	30.21
185.02	-14.85
185.239	17.92
185.459	15.87
185.679	38.4
185.898	-0.51
186.118	54.78
186.338	54.78
186.557	108.03
186.777	-72.19
186.997	-0.51
187.216	71.17
187.436	85.5
187.655	114.17
187.875	54.78
188.095	71.17
188.314	32.26
188.534	75.26
188.753	17.92
188.973	24.06
189.192	110.08
189.412	67.07
189.631	7.68
189.851	52.74
190.07	114.17
190.29	-39.42
190.509	-12.8
190.729	91.65
190.948	22.02
191.168	200.19
191.387	65.02
191.607	13.82
191.826	-6.66
192.045	-2.56
192.265	54.78
192.484	56.83
192.704	24.06
192.923	7.68
193.142	124.41
193.362	-16.9
193.581	52.74
193.8	-45.57
194.02	46.59
194.239	15.87
194.458	36.35
194.678	48.64
194.897	52.74
195.116	22.02
195.335	15.87
195.555	128.51
195.774	22.02
195.993	91.65
196.212	24.06
196.432	1.54
196.651	-61.95
196.87	-27.14
197.089	114.17
197.308	56.83
197.528	13.82
197.747	-59.9
197.966	46.59
198.185	50.69
198.404	-2.56
198.623	54.78
198.842	7.68
199.062	108.03
199.281	97.79
199.5	-4.61
199.719	69.12
199.938	60.93
200.157	89.6
200.376	65.02
200.595	3.58
200.814	36.35
201.033	24.06
201.252	46.59
201.471	52.74
201.69	7.68
201.909	103.93
202.128	28.16
202.347	69.12
202.566	50.69
202.785	-61.95
203.004	-2.56
203.223	103.93
203.442	-27.14
203.661	85.5
203.879	42.5
204.098	48.64
204.317	-16.9
204.536	30.21
204.755	28.16
204.974	65.02
205.193	44.54
205.411	83.45
205.63	50.69
205.849	60.93
206.068	-8.7
206.287	79.36
206.505	7.68
206.724	38.4
206.943	-4.61
207.162	32.26
207.381	38.4
207.599	22.02
207.818	17.92
208.037	38.4
208.255	3.58
208.474	69.12
208.693	5.63
208.911	22.02
209.13	-14.85
209.349	-12.8
209.567	71.17
209.786	87.55
210.005	52.74
210.223	-12.8
210.442	-12.8
210.661	-0.51
210.879	56.83
211.098	-43.52
211.316	73.21
211.535	32.26
211.753	65.02
211.972	75.26
212.191	-51.71
212.409	67.07
212.628	48.64
212.846	22.02
213.065	89.6
213.283	62.98
213.502	-29.18
213.72	85.5
213.938	110.08
214.157	54.78
214.375	28.16
214.594	42.5
214.812	22.02
215.031	-23.04
215.249	-0.51
215.467	46.59
215.686	-16.9
215.904	44.54
216.122	56.83
216.341	65.02
216.559	52.74
216.778	42.5
216.996	83.45
217.214	52.74
217.432	36.35
217.651	13.82
217.869	32.26
218.087	54.78
218.306	116.22
218.524	44.54
218.742	50.69
218.96	-4.61
219.179	50.69
219.397	81.41
219.615	87.55
219.833	40.45
220.051	1.54
220.27	-29.18
220.488	75.26
220.706	13.82
220.924	28.16
221.142	11.78
221.36	71.17
221.578	-27.14
221.796	142.85
222.015	128.51
222.233	-4.61
222.451	38.4
222.669	28.16
222.887	-29.18
223.105	44.54
223.323	58.88
223.541	11.78
223.759	44.54
223.977	-20.99
224.195	126.46
224.413	11.78
224.631	42.5
224.849	69.12
225.067	103.93
225.285	-70.14
225.503	19.97
225.721	9.73
225.939	-8.7
226.157	83.45
226.375	144.89
226.592	56.83
226.81	-18.94
227.028	75.26
227.246	120.32
227.464	-27.14
227.682	54.78
227.9	40.45
228.117	26.11
228.335	67.07
228.553	11.78
228.771	7.68
228.989	11.78
229.206	52.74
229.424	-6.66
229.642	-59.9
229.86	71.17
230.077	15.87
230.295	40.45
230.513	99.84
230.731	62.98
230.948	52.74
231.166	110.08
231.384	79.36
231.601	-10.75
231.819	81.41
232.037	7.68
232.254	38.4
232.472	3.58
232.689	-29.18
232.907	-16.9
233.125	-12.8
233.342	-4.61
233.56	3.58
233.777	-27.14
233.995	42.5
234.213	-2.56
234.43	3.58
234.648	32.26
234.865	38.4
235.083	60.93
235.3	52.74
235.518	7.68
235.735	40.45
235.953	28.16
236.17	-43.52
236.388	44.54
236.605	-0.51
236.822	38.4
237.04	77.31
237.257	75.26
237.475	54.78
237.692	7.68
237.909	-41.47
238.127	32.26
238.344	3.58
238.562	7.68
238.779	-20.99
238.996	-20.99
239.214	17.92
239.431	114.17
239.648	-2.56
239.865	17.92
240.083	-27.14
240.3	-4.61
240.517	89.6
240.735	79.36
240.952	44.54
241.169	13.82
241.386	52.74
241.603	-49.66
241.821	-18.94
242.038	83.45
242.255	99.84
242.472	-0.51
242.689	48.64
242.907	130.56
243.124	-57.86
243.341	24.06
243.558	9.73
243.775	-35.33
243.992	-6.66
244.209	62.98
244.426	19.97
244.643	101.89
244.86	54.78
245.078	52.74
245.295	44.54
245.512	77.31
245.729	-20.99
245.946	38.4
246.163	-10.75
246.38	22.02
246.597	30.21
246.814	81.41
247.031	-2.56
247.248	24.06
247.464	85.5
247.681	30.21
247.898	44.54
248.115	54.78
248.332	-18.94
248.549	130.56
248.766	48.64
248.983	65.02
249.2	26.11
249.417	30.21
249.633	-0.51
249.85	38.4
250.067	30.21
250.284	26.11
250.501	56.83
250.717	65.02
250.934	-14.85
251.151	38.4
251.368	32.26
251.585	91.65
251.801	19.97
252.018	11.78
252.235	-0.51
252.451	-10.75
252.668	7.68
252.885	44.54
253.102	24.06
253.318	32.26
253.535	36.35
253.752	-20.99
253.968	9.73
254.185	-33.28
254.401	24.06
254.618	46.59
254.835	15.87
255.051	116.22
255.268	-8.7
255.484	79.36
255.701	17.92
255.917	48.64
256.134	-29.18
256.351	50.69
256.567	17.92
256.784	79.36
257	-18.94
257.217	36.35
257.433	26.11
257.65	5.63
257.866	118.27
258.082	3.58
258.299	32.26
258.515	36.35
258.732	-2.56
258.948	5.63
259.165	30.21
259.381	91.65
259.597	71.17
259.814	-31.23
260.03	-31.23
260.246	77.31
260.463	28.16
260.679	120.32
260.895	40.45
261.112	-45.57
261.328	36.35
261.544	28.16
261.761	91.65
261.977	17.92
262.193	-33.28
262.409	85.5
262.626	-4.61
262.842	71.17
263.058	-33.28
263.274	91.65
263.49	-23.04
263.707	69.12
263.923	56.83
264.139	-82.43
264.355	9.73
264.571	110.08
264.787	56.83
265.004	-43.52
265.22	19.97
265.436	48.64
265.652	13.82
265.868	77.31
266.084	56.83
266.3	52.74
266.516	3.58
266.732	58.88
266.948	60.93
267.164	40.45
267.38	30.21
267.596	15.87
267.812	124.41
268.028	17.92
268.244	1.54
268.46	28.16
268.676	-18.94
268.892	5.63
269.108	-12.8
269.324	-72.19
269.54	22.02
269.756	95.74
269.972	-8.7
270.188	-12.8
270.403	26.11
270.619	19.97
270.835	65.02
271.051	32.26
271.267	-10.75
271.483	-12.8
271.698	130.56
271.914	101.89
272.13	-12.8
272.346	9.73
272.562	52.74
272.777	103.93
272.993	15.87
273.209	24.06
273.425	-20.99
273.64	-2.56
273.856	75.26
274.072	38.4
274.287	30.21
274.503	126.46
274.719	56.83
274.934	54.78
275.15	-43.52
275.366	50.69
275.581	19.97
275.797	5.63
276.012	-29.18
276.228	-45.57
276.444	110.08
276.659	42.5
276.875	7.68
277.09	7.68
277.306	44.54
277.521	48.64
277.737	11.78
277.952	-4.61
278.168	24.06
278.383	26.11
278.599	38.4
278.814	48.64
279.03	65.02
279.245	87.55
279.461	-45.57
279.676	93.69
279.892	-88.57
280.107	13.82
280.322	-29.18
280.538	118.27
280.753	50.69
280.969	97.79
281.184	36.35
281.399	118.27
281.615	13.82
281.83	95.74
282.045	-12.8
282.26	-14.85
282.476	40.45
282.691	75.26
282.906	34.3
283.122	34.3
283.337	-33.28
283.552	42.5
283.767	7.68
283.983	17.92
284.198	-20.99
284.413	95.74
284.628	11.78
284.843	105.98
285.058	71.17
285.274	-6.66
285.489	-31.23
285.704	38.4
285.919	-27.14
286.134	-78.33
286.349	3.58
286.564	-12.8
286.779	120.32
286.995	79.36
287.21	52.74
287.425	97.79
287.64	24.06
287.855	-14.85
288.07	71.17
288.285	110.08
288.5	122.37
288.715	38.4
288.93	142.85
289.145	-61.95
289.36	69.12
289.575	-8.7
289.79	50.69
290.004	22.02
290.219	93.69
290.434	28.16
290.649	7.68
290.864	-29.18
291.079	50.69
291.294	136.7
291.509	17.92
291.724	22.02
291.938	7.68
292.153	28.16
292.368	-20.99
292.583	65.02
292.798	62.98
293.012	67.07
293.227	3.58
293.442	116.22
293.657	32.26
293.871	46.59
294.086	-23.04
294.301	65.02
294.516	28.16
294.73	52.74
294.945	11.78
295.16	1.54
295.374	118.27
295.589	54.78
295.804	56.83
296.018	11.78
296.233	101.89
296.447	-4.61
296.662	22.02
296.877	60.93
297.091	87.55
297.306	34.3
297.52	24.06
297.735	52.74
297.949	19.97
298.164	77.31
298.378	46.59
298.593	34.3
298.807	56.83
299.022	52.74
299.236	42.5
299.451	-43.52
299.665	91.65
299.88	-10.75
300.094	5.63
300.309	60.93
300.523	58.88
300.737	-37.38
300.952	65.02
301.166	52.74
301.381	-55.81
301.595	-18.94
301.809	15.87
302.024	28.16
302.238	44.54
302.452	50.69
302.667	60.93
302.881	44.54
303.095	36.35
303.309	110.08
303.524	81.41
303.738	3.58
303.952	24.06
304.166	69.12
304.381	-86.53
304.595	65.02
304.809	-53.76
305.023	-6.66
305.237	40.45
305.452	56.83
305.666	77.31
305.88	36.35
306.094	15.87
306.308	36.35
306.522	81.41
306.736	69.12
306.95	44.54
307.164	79.36
307.379	11.78
307.593	118.27
307.807	22.02
308.021	28.16
308.235	50.69
308.449	-45.57
308.663	15.87
308.877	34.3
309.091	13.82
309.305	159.23
309.519	-25.09
309.733	9.73
309.947	-25.09
310.161	-4.61
310.374	83.45
310.588	69.12
310.802	32.26
311.016	56.83
311.23	1.54
311.444	-20.99
311.658	-66.05
311.872	15.87
312.085	71.17
312.299	40.45
312.513	79.36
312.727	77.31
312.941	30.21
313.154	62.98
313.368	42.5
313.582	19.97
313.796	54.78
314.009	-14.85
314.223	85.5
314.437	103.93
314.651	-25.09
314.864	-2.56
315.078	22.02
315.292	11.78
315.505	-10.75
315.719	54.78
315.933	48.64
316.146	3.58
316.36	30.21
316.573	50.69
316.787	62.98
317.001	67.07
317.214	-0.51
317.428	-70.14
317.641	9.73
317.855	-12.8
318.068	-25.09
318.282	46.59
318.495	142.85
318.709	69.12
318.922	85.5
319.136	179.71
319.349	-0.51
319.563	19.97
319.776	62.98
319.99	34.3
320.203	93.69
320.417	52.74
320.63	85.5
320.843	97.79
321.057	48.64
321.27	-4.61
321.483	30.21
321.697	85.5
321.91	-20.99
322.124	-2.56
322.337	71.17
322.55	71.17
322.763	65.02
322.977	42.5
323.19	-20.99
323.403	32.26
323.617	32.26
323.83	71.17
324.043	77.31
324.256	81.41
324.469	-8.7
324.683	114.17
324.896	15.87
325.109	105.98
325.322	-70.14
325.535	30.21
325.748	126.46
325.962	-12.8
326.175	19.97
326.388	36.35
326.601	171.52
326.814	-12.8
327.027	34.3
327.24	110.08
327.453	52.74
327.666	79.36
327.879	81.41
328.092	97.79
328.305	62.98
328.518	9.73
328.731	15.87
328.944	32.26
329.157	32.26
329.37	44.54
329.583	93.69
329.796	132.61
330.009	48.64
330.222	126.46
330.435	69.12
330.648	-10.75
330.861	67.07
331.073	22.02
331.286	40.45
331.499	42.5
331.712	28.16
331.925	38.4
332.138	69.12
332.35	48.64
332.563	-27.14
332.776	118.27
332.989	95.74
333.202	73.21
333.414	34.3
333.627	36.35
333.84	24.06
334.053	79.36
334.265	15.87
334.478	-16.9
334.691	48.64
334.903	19.97
335.116	-4.61
335.329	11.78
335.541	36.35
335.754	167.42
335.966	30.21
336.179	44.54
336.392	-4.61
336.604	71.17
336.817	28.16
337.029	58.88
337.242	44.54
337.454	40.45
337.667	56.83
337.88	65.02
338.092	-2.56
338.305	75.26
338.517	17.92
338.729	134.65
338.942	136.7
339.154	-31.23
339.367	38.4
339.579	11.78
339.792	-12.8
340.004	91.65
340.217	65.02
340.429	81.41
340.641	1.54
340.854	-0.51
341.066	19.97
341.278	83.45
341.491	46.59
341.703	-57.86
341.915	69.12
342.128	36.35
342.34	99.84
342.552	-18.94
342.764	108.03
342.977	17.92
343.189	85.5
343.401	22.02
343.613	-23.04
343.826	11.78
344.038	30.21
344.25	60.93
344.462	24.06
344.674	13.82
344.886	69.12
345.099	75.26
345.311	122.37
345.523	-2.56
345.735	-16.9
345.947	99.84
346.159	60.93
346.371	9.73
346.583	36.35
346.795	163.33
347.007	17.92
347.219	52.74
347.431	-25.09
347.643	132.61
347.855	81.41
348.067	46.59
348.279	-10.75
348.491	69.12
348.703	15.87
348.915	32.26
349.127	13.82
349.339	48.64
349.551	87.55
349.763	81.41
349.975	69.12
350.187	85.5
350.399	134.65
350.61	134.65
350.822	24.06
351.034	120.32
351.246	15.87
351.458	101.89
351.669	46.59
351.881	-12.8
352.093	169.47
352.305	95.74
352.517	50.69
352.728	60.93
352.94	3.58
353.152	114.17
353.363	-33.28
353.575	1.54
353.787	110.08
353.999	52.74
354.21	83.45
354.422	36.35
354.633	130.56
354.845	130.56
355.057	9.73
355.268	65.02
355.48	15.87
355.692	-31.23
355.903	65.02
356.115	-20.99
356.326	-4.61
356.538	126.46
356.749	36.35
356.961	71.17
357.172	60.93
357.384	38.4
357.595	77.31
357.807	44.54
358.018	67.07
358.23	44.54
358.441	91.65
358.653	91.65
358.864	38.4
359.075	-0.51
359.287	89.6
359.498	54.78
359.709	30.21
359.921	38.4
360.132	15.87
360.344	52.74
360.555	38.4
360.766	7.68
360.977	46.59
361.189	103.93
361.4	32.26
361.611	67.07
361.823	32.26
362.034	30.21
362.245	22.02
362.456	54.78
362.667	81.41
362.879	-2.56
363.09	56.83
363.301	28.16
363.512	60.93
363.723	7.68
363.935	5.63
364.146	175.61
364.357	40.45
364.568	48.64
364.779	5.63
364.99	52.74
365.201	5.63
365.412	118.27
365.623	1.54
365.834	93.69
366.045	-23.04
366.256	101.89
366.467	101.89
366.678	-2.56
366.889	44.54
367.1	46.59
367.311	167.42
367.522	126.46
367.733	87.55
367.944	142.85
368.155	85.5
368.366	81.41
368.577	40.45
368.788	38.4
368.999	24.06
369.209	101.89
369.42	192
369.631	183.81
369.842	44.54
370.053	-0.51
370.264	40.45
370.474	44.54
370.685	75.26
370.896	52.74
371.107	103.93
371.317	91.65
371.528	60.93
371.739	15.87
371.95	71.17
372.16	112.13
372.371	-8.7
372.582	24.06
372.792	95.74
373.003	62.98
373.214	46.59
373.424	44.54
373.635	73.21
373.846	11.78
374.056	17.92
374.267	81.41
374.477	28.16
374.688	56.83
374.898	34.3
375.109	60.93
375.319	73.21
375.53	54.78
375.74	62.98
375.951	62.98
376.161	163.33
376.372	118.27
376.582	13.82
376.793	87.55
377.003	67.07
377.214	24.06
377.424	17.92
377.635	19.97
377.845	-20.99
378.055	54.78
378.266	-12.8
378.476	110.08
378.686	62.98
378.897	79.36
379.107	95.74
379.317	52.74
379.528	-8.7
379.738	81.41
379.948	48.64
380.158	73.21
380.369	-0.51
380.579	-4.61
380.789	73.21
380.999	103.93
381.21	73.21
381.42	192
381.63	95.74
381.84	85.5
382.05	79.36
382.261	81.41
382.471	65.02
382.681	-18.94
382.891	132.61
383.101	15.87
383.311	48.64
383.521	69.12
383.731	118.27
383.941	56.83
384.151	-6.66
384.361	110.08
384.571	56.83
384.781	56.83
384.991	138.75
385.201	110.08
385.411	159.23
385.621	60.93
385.831	-2.56
386.041	65.02
386.251	30.21
386.461	112.13
386.671	81.41
386.881	118.27
387.091	73.21
387.301	192
387.511	46.59
387.72	142.85
387.93	50.69
388.14	13.82
388.35	28.16
388.56	83.45
388.769	95.74
388.979	77.31
389.189	-2.56
389.399	87.55
389.609	79.36
389.818	112.13
390.028	60.93
390.238	120.32
390.447	81.41
390.657	54.78
390.867	97.79
391.076	-0.51
391.286	67.07
391.496	54.78
391.705	46.59
391.915	93.69
392.125	136.7
392.334	93.69
392.544	126.46
392.753	142.85
392.963	52.74
393.172	126.46
393.382	3.58
393.591	226.81
393.801	83.45
394.01	138.75
394.22	101.89
394.429	-0.51
394.639	151.04
394.848	200.19
395.058	159.23
395.267	87.55
395.477	103.93
395.686	136.7
395.895	144.89
396.105	161.28
396.314	95.74
396.524	132.61
396.733	142.85
396.942	148.99
397.152	93.69
397.361	140.8
397.57	89.6
397.78	118.27
397.989	103.93
398.198	198.14
398.407	83.45
398.617	114.17
398.826	140.8
399.035	93.69
399.244	161.28
399.453	101.89
399.663	187.9
399.872	103.93
400.081	67.07
400.29	153.09
400.499	124.41
400.708	179.71
400.917	181.76
401.127	36.35
401.336	134.65
401.545	206.33
401.754	177.66
401.963	126.46
402.172	110.08
402.381	122.37
402.59	179.71
402.799	255.48
403.008	187.9
403.217	216.57
403.426	165.37
403.635	153.09
403.844	167.42
404.053	169.47
404.262	181.76
404.471	269.82
404.68	126.46
404.888	173.57
405.097	165.37
405.306	105.98
405.515	194.05
405.724	273.92
405.933	210.43
406.142	230.91
406.35	241.15
406.559	210.43
406.768	208.38
406.977	308.73
407.185	245.24
407.394	331.26
407.603	243.2
407.812	306.68
408.02	308.73
408.229	298.49
408.438	251.39
408.646	255.48
408.855	380.41
409.064	339.45
409.272	364.03
409.481	402.94
409.69	325.12
409.898	237.05
410.107	364.03
410.315	431.61
410.524	415.23
410.733	437.75
410.941	400.89
411.15	488.95
411.358	529.91
411.567	577.02
411.775	523.77
411.984	620.02
412.192	611.83
412.401	556.54
412.609	589.3
412.818	710.13
413.026	605.69
413.234	712.18
413.443	650.74
413.651	701.94
413.86	701.94
414.068	785.91
414.276	847.35
414.485	859.63
414.693	904.69
414.901	976.37
415.11	941.55
415.318	910.83
415.526	923.12
415.734	1043.95
415.943	1015.28
416.151	1144.3
416.359	1082.86
416.567	1160.69
416.776	1103.34
416.984	1207.79
417.192	1306.09
417.4	1240.56
417.608	1299.95
417.817	1465.83
418.025	1404.39
418.233	1496.55
418.441	1494.51
418.649	1504.75
418.857	1523.18
419.065	1828.32
419.273	1770.98
419.481	1852.9
419.689	1949.15
419.897	1955.3
420.105	1861.09
420.313	2084.32
420.521	2285.02
420.729	2227.68
420.937	2229.73
421.145	2383.32
421.353	2485.72
421.561	2545.11
421.769	2588.12
421.977	2768.34
422.185	2756.05
422.393	2934.23
422.601	3132.88
422.809	3093.97
423.017	3194.32
423.224	3126.74
423.432	3384.78
423.64	3390.92
423.848	3747.27
424.056	3540.43
424.263	3849.67
424.471	3970.5
424.679	3964.36
424.887	4283.84
425.094	4310.46
425.302	4378.05
425.51	4406.72
425.718	4558.27
425.925	4670.9
426.133	4795.83
426.341	4978.1
426.548	5387.69
426.756	5399.98
426.964	5479.85
427.171	5627.31
427.379	5760.42
427.586	5817.77
427.794	6143.39
428.001	6380.96
428.209	6745.5
428.417	6436.25
428.624	7015.83
428.832	7054.74
429.039	6737.31
429.247	7052.69
429.454	7636.36
429.662	8172.93
429.869	7646.6
430.076	8240.51
430.284	7847.3
430.491	8277.38
430.699	8744.31
430.906	8779.13
431.114	8969.59
431.321	9176.44
431.528	9577.84
431.736	10112.36
431.943	10530.14
432.15	10206.56
432.358	10083.69
432.565	10976.6
432.772	10753.37
432.979	11408.72
433.187	11740.49
433.394	11662.67
433.601	12361.03
433.808	12238.15
434.016	12399.94
434.223	12928.31
434.43	13708.59
434.637	13440.31
434.844	14421.28
435.052	14671.14
435.259	14372.13
435.466	14726.43
435.673	14331.17
435.88	15590.67
436.087	16475.4
436.294	16248.07
436.501	16022.8
436.708	16168.2
436.915	16823.55
437.122	17515.76
437.329	17476.85
437.537	17906.93
437.743	18285.8
437.95	18248.94
438.157	19311.83
438.364	19758.29
438.571	19633.36
438.778	20032.72
438.985	21791.92
439.192	20974.78
439.399	21224.64
439.606	21171.39
439.813	22056.11
440.02	23485.59
440.227	23313.56
440.433	22951.07
440.64	23442.59
440.847	23760.02
441.054	24261.77
441.261	25781.37
441.467	25515.13
441.674	25865.33
441.881	26942.56
442.088	27001.96
442.294	26627.18
442.501	27006.05
442.708	27995.22
442.914	28927.05
443.121	30270.51
443.328	29432.89
443.534	31300.64
443.741	30630.96
443.948	29783.1
444.154	32355.35
444.361	32328.72
444.568	32410.64
444.774	32177.17
444.981	32295.96
445.187	33836.03
445.394	35144.68
445.6	34737.13
445.807	37968.83
446.013	36170.71
446.22	36873.17
446.426	38325.18
446.633	38824.88
446.839	40108.96
447.046	37860.29
447.252	40496.02
447.459	40526.74
447.665	40033.18
447.871	42279.8
448.078	44118.88
448.284	42027.9
448.491	43029.36
448.697	45157.2
448.903	45499.21
449.11	45867.84
449.316	45169.49
449.522	45620.04
449.728	47072.05
449.935	47256.37
450.141	47319.85
450.347	48360.22
450.553	46738.23
450.76	47475.5
450.966	49255.18
451.172	48659.23
451.378	49621.77
451.584	48816.92
451.791	49978.12
451.997	49621.77
452.203	50883.32
452.409	50686.71
452.615	50733.82
452.821	48769.82
453.027	48112.42
453.233	50801.4
453.44	48691.99
453.646	49130.26
453.852	49679.11
454.058	50572.03
454.264	48999.19
454.47	50101
454.676	48991
454.882	50365.18
455.088	45972.29
455.294	46623.54
455.5	47127.34
455.705	48036.64
455.911	45992.77
456.117	45351.76
456.323	44768.08
456.529	42754.93
456.735	44587.86
456.941	43176.81
457.147	42292.09
457.352	41294.73
457.558	40831.89
457.764	41106.32
457.97	40037.28
458.176	39082.92
458.381	38992.81
458.587	37186.5
458.793	37628.87
458.999	35501.03
459.204	38167.48
459.41	36821.97
459.616	34458.61
459.821	34558.96
460.027	34448.37
460.233	33731.58
460.438	32646.16
460.644	32568.34
460.85	31013.93
461.055	30694.44
461.261	30553.13
461.466	28447.82
461.672	27475.04
461.878	29398.08
462.083	27503.71
462.289	26905.7
462.494	26694.76
462.7	25263.23
462.905	24824.97
463.111	25695.35
463.316	25851
463.522	25037.95
463.727	25070.72
463.932	24990.85
464.138	24804.49
464.343	24908.93
464.549	23829.65
464.754	24894.6
464.959	24587.4
465.165	24542.35
465.37	23366.81
465.575	22885.54
465.781	23839.89
465.986	24020.11
466.191	23047.33
466.397	22586.54
