Data from USB4F104151__37__13-05-06-246.txt Node

Date: Fri Mar 14 13:05:06 EDT 2025
User: louis
Spectrometer: USB4F10415
Trigger mode: 4
Integration Time (sec): 4.000000E-2
Scans to average: 1
Electric dark correction enabled: true
Nonlinearity correction enabled: false
Boxcar width: 0
XAxis mode: Wavelengths
Number of Pixels in Spectrum: 3648
>>>>>Begin Spectral Data<<<<<
178.204	-147.8
178.424	-147.8
178.644	-147.8
178.864	-172.37
179.084	-192.85
179.304	-22.87
179.524	-78.16
179.744	3.75
179.964	61.1
180.184	11.95
180.404	1.71
180.624	3.75
180.844	7.85
181.064	1.71
181.283	61.1
181.503	-16.73
181.723	-35.16
181.943	-49.49
182.163	75.43
182.383	-65.88
182.602	57
182.822	95.91
183.042	26.28
183.262	-41.3
183.482	-8.53
183.701	-6.49
183.921	18.09
184.141	-65.88
184.361	75.43
184.58	18.09
184.8	57
185.02	32.43
185.239	79.53
185.459	1.71
185.679	116.39
185.898	-24.92
186.118	48.81
186.338	40.62
186.557	97.96
186.777	-24.92
186.997	73.39
187.216	-6.49
187.436	63.15
187.655	59.05
187.875	104.11
188.095	54.95
188.314	220.84
188.534	52.91
188.753	18.09
188.973	26.28
189.192	65.19
189.412	24.23
189.631	-16.73
189.851	28.33
190.07	44.71
190.29	-57.68
190.509	42.67
190.729	-39.25
190.948	50.86
191.168	214.7
191.387	52.91
191.607	52.91
191.826	61.1
192.045	26.28
192.265	32.43
192.484	34.47
192.704	38.57
192.923	-0.34
193.142	210.6
193.362	65.19
193.581	67.24
193.8	28.33
194.02	83.63
194.239	38.57
194.458	22.19
194.678	1.71
194.897	93.87
195.116	44.71
195.335	69.29
195.555	122.54
195.774	81.58
195.993	3.75
196.212	11.95
196.432	89.77
196.651	48.81
196.87	11.95
197.089	138.92
197.308	52.91
197.528	-39.25
197.747	-33.11
197.966	22.19
198.185	34.47
198.404	-39.25
198.623	54.95
198.842	34.47
199.062	57
199.281	-10.58
199.5	28.33
199.719	11.95
199.938	40.62
200.157	77.48
200.376	81.58
200.595	48.81
200.814	32.43
201.033	102.06
201.252	48.81
201.471	9.9
201.69	108.2
201.909	48.81
202.128	-37.2
202.347	16.04
202.566	65.19
202.785	77.48
203.004	-63.83
203.223	61.1
203.442	24.23
203.661	97.96
203.879	-16.73
204.098	93.87
204.317	-35.16
204.536	89.77
204.755	30.38
204.974	28.33
205.193	46.76
205.411	124.58
205.63	3.75
205.849	65.19
206.068	-31.06
206.287	13.99
206.505	3.75
206.724	36.52
206.943	50.86
207.162	24.23
207.381	-61.78
207.599	24.23
207.818	40.62
208.037	65.19
208.255	71.34
208.474	-18.77
208.693	81.58
208.911	73.39
209.13	87.72
209.349	95.91
209.567	110.25
209.786	124.58
210.005	106.15
210.223	42.67
210.442	1.71
210.661	44.71
210.879	-16.73
211.098	9.9
211.316	18.09
211.535	26.28
211.753	52.91
211.972	-6.49
212.191	-24.92
212.409	50.86
212.628	-8.53
212.846	65.19
213.065	-2.39
213.283	1.71
213.502	20.14
213.72	-18.77
213.938	-33.11
214.157	-14.68
214.375	-10.58
214.594	-0.34
214.812	83.63
215.031	85.67
215.249	28.33
215.467	97.96
215.686	-57.68
215.904	118.44
216.122	-37.2
216.341	26.28
216.559	-2.39
216.778	83.63
216.996	97.96
217.214	-0.34
217.432	3.75
217.651	28.33
217.869	38.57
218.087	69.29
218.306	83.63
218.524	-31.06
218.742	-6.49
218.96	44.71
219.179	-8.53
219.397	40.62
219.615	104.11
219.833	48.81
220.051	-8.53
220.27	126.63
220.488	93.87
220.706	85.67
220.924	-69.97
221.142	50.86
221.36	-12.63
221.578	-2.39
221.796	65.19
222.015	67.24
222.233	93.87
222.451	153.26
222.669	-22.87
222.887	-39.25
223.105	36.52
223.323	108.2
223.541	-65.88
223.759	30.38
223.977	24.23
224.195	48.81
224.413	110.25
224.631	9.9
224.849	13.99
225.067	132.78
225.285	48.81
225.503	30.38
225.721	1.71
225.939	18.09
226.157	36.52
226.375	204.46
226.592	-18.77
226.81	1.71
227.028	65.19
227.246	87.72
227.464	85.67
227.682	134.82
227.9	67.24
228.117	65.19
228.335	32.43
228.553	73.39
228.771	40.62
228.989	-2.39
229.206	89.77
229.424	-63.83
229.642	32.43
229.86	-16.73
230.077	34.47
230.295	36.52
230.513	61.1
230.731	-8.53
230.948	132.78
231.166	77.48
231.384	46.76
231.601	-47.44
231.819	132.78
232.037	11.95
232.254	-20.82
232.472	-4.44
232.689	57
232.907	106.15
233.125	32.43
233.342	-8.53
233.56	-20.82
233.777	9.9
233.995	71.34
234.213	138.92
234.43	46.76
234.648	-0.34
234.865	24.23
235.083	38.57
235.3	73.39
235.518	-16.73
235.735	85.67
235.953	9.9
236.17	59.05
236.388	-0.34
236.605	44.71
236.822	134.82
237.04	48.81
237.257	73.39
237.475	44.71
237.692	87.72
237.909	28.33
238.127	-0.34
238.344	106.15
238.562	-16.73
238.779	-12.63
238.996	42.67
239.214	54.95
239.431	36.52
239.648	36.52
239.865	18.09
240.083	52.91
240.3	46.76
240.517	48.81
240.735	42.67
240.952	91.82
241.169	104.11
241.386	54.95
241.603	50.86
241.821	65.19
242.038	32.43
242.255	32.43
242.472	-16.73
242.689	32.43
242.907	110.25
243.124	71.34
243.341	42.67
243.558	34.47
243.775	-10.58
243.992	-8.53
244.209	-18.77
244.426	104.11
244.643	100.01
244.86	69.29
245.078	106.15
245.295	59.05
245.512	32.43
245.729	-8.53
245.946	-10.58
246.163	48.81
246.38	-22.87
246.597	65.19
246.814	42.67
247.031	48.81
247.248	34.47
247.464	22.19
247.681	-31.06
247.898	13.99
248.115	65.19
248.332	1.71
248.549	106.15
248.766	124.58
248.983	91.82
249.2	7.85
249.417	97.96
249.633	-0.34
249.85	61.1
250.067	75.43
250.284	30.38
250.501	24.23
250.717	-41.3
250.934	26.28
251.151	18.09
251.368	-14.68
251.585	40.62
251.801	-8.53
252.018	20.14
252.235	122.54
252.451	-33.11
252.668	36.52
252.885	104.11
253.102	54.95
253.318	52.91
253.535	32.43
253.752	50.86
253.968	1.71
254.185	-31.06
254.401	3.75
254.618	65.19
254.835	-0.34
255.051	97.96
255.268	75.43
255.484	54.95
255.701	-0.34
255.917	34.47
256.134	-4.44
256.351	38.57
256.567	9.9
256.784	42.67
257	-37.2
257.217	155.3
257.433	-49.49
257.65	61.1
257.866	73.39
258.082	22.19
258.299	30.38
258.515	89.77
258.732	-0.34
258.948	38.57
259.165	22.19
259.381	-2.39
259.597	13.99
259.814	71.34
260.03	16.04
260.246	-20.82
260.463	95.91
260.679	97.96
260.895	3.75
261.112	110.25
261.328	95.91
261.544	-26.96
261.761	69.29
261.977	26.28
262.193	1.71
262.409	97.96
262.626	54.95
262.842	11.95
263.058	65.19
263.274	48.81
263.49	108.2
263.707	36.52
263.923	59.05
264.139	40.62
264.355	73.39
264.571	118.44
264.787	48.81
265.004	40.62
265.22	40.62
265.436	-0.34
265.652	18.09
265.868	50.86
266.084	16.04
266.3	30.38
266.516	-24.92
266.732	65.19
266.948	28.33
267.164	40.62
267.38	3.75
267.596	118.44
267.812	118.44
268.028	-22.87
268.244	38.57
268.46	-16.73
268.676	54.95
268.892	5.8
269.108	9.9
269.324	-0.34
269.54	11.95
269.756	59.05
269.972	-35.16
270.188	40.62
270.403	-39.25
270.619	11.95
270.835	24.23
271.051	42.67
271.267	11.95
271.483	-8.53
271.698	83.63
271.914	-2.39
272.13	9.9
272.346	11.95
272.562	95.91
272.777	57
272.993	-53.59
273.209	54.95
273.425	9.9
273.64	-0.34
273.856	20.14
274.072	26.28
274.287	-78.16
274.503	42.67
274.719	75.43
274.934	13.99
275.15	-49.49
275.366	28.33
275.581	-31.06
275.797	110.25
276.012	100.01
276.228	26.28
276.444	81.58
276.659	61.1
276.875	7.85
277.09	114.34
277.306	81.58
277.521	116.39
277.737	77.48
277.952	87.72
278.168	36.52
278.383	24.23
278.599	77.48
278.814	20.14
279.03	-18.77
279.245	50.86
279.461	16.04
279.676	57
279.892	67.24
280.107	42.67
280.322	-0.34
280.538	54.95
280.753	-4.44
280.969	30.38
281.184	65.19
281.399	161.45
281.615	30.38
281.83	91.82
282.045	40.62
282.26	32.43
282.476	22.19
282.691	77.48
282.906	42.67
283.122	44.71
283.337	16.04
283.552	106.15
283.767	42.67
283.983	-6.49
284.198	114.34
284.413	59.05
284.628	-0.34
284.843	1.71
285.058	-6.49
285.274	32.43
285.489	24.23
285.704	181.93
285.919	30.38
286.134	22.19
286.349	26.28
286.564	24.23
286.779	75.43
286.995	42.67
287.21	30.38
287.425	106.15
287.64	-16.73
287.855	54.95
288.07	-26.96
288.285	36.52
288.5	36.52
288.715	61.1
288.93	-53.59
289.145	22.19
289.36	75.43
289.575	100.01
289.79	-0.34
290.004	-65.88
290.219	46.76
290.434	81.58
290.649	-14.68
290.864	-18.77
291.079	16.04
291.294	59.05
291.509	-8.53
291.724	-0.34
291.938	9.9
292.153	30.38
292.368	1.71
292.583	24.23
292.798	63.15
293.012	67.24
293.227	7.85
293.442	-16.73
293.657	71.34
293.871	138.92
294.086	32.43
294.301	59.05
294.516	65.19
294.73	36.52
294.945	61.1
295.16	57
295.374	24.23
295.589	83.63
295.804	-57.68
296.018	83.63
296.233	143.02
296.447	83.63
296.662	-10.58
296.877	85.67
297.091	79.53
297.306	32.43
297.52	16.04
297.735	67.24
297.949	100.01
298.164	110.25
298.378	9.9
298.593	-61.78
298.807	18.09
299.022	-10.58
299.236	57
299.451	-14.68
299.665	48.81
299.88	13.99
300.094	85.67
300.309	87.72
300.523	75.43
300.737	110.25
300.952	57
301.166	67.24
301.381	-26.96
301.595	138.92
301.809	36.52
302.024	65.19
302.238	22.19
302.452	97.96
302.667	128.68
302.881	71.34
303.095	-29.01
303.309	32.43
303.524	40.62
303.738	-29.01
303.952	20.14
304.166	50.86
304.381	-123.22
304.595	26.28
304.809	65.19
305.023	40.62
305.237	59.05
305.452	7.85
305.666	34.47
305.88	65.19
306.094	3.75
306.308	-0.34
306.522	140.97
306.736	69.29
306.95	20.14
307.164	40.62
307.379	24.23
307.593	97.96
307.807	89.77
308.021	130.73
308.235	57
308.449	-22.87
308.663	24.23
308.877	159.4
309.091	136.87
309.305	48.81
309.519	-24.92
309.733	50.86
309.947	1.71
310.161	159.4
310.374	-2.39
310.588	102.06
310.802	65.19
311.016	40.62
311.23	73.39
311.444	-16.73
311.658	132.78
311.872	67.24
312.085	20.14
312.299	124.58
312.513	32.43
312.727	24.23
312.941	18.09
313.154	93.87
313.368	28.33
313.582	73.39
313.796	46.76
314.009	36.52
314.223	153.26
314.437	-16.73
314.651	54.95
314.864	81.58
315.078	44.71
315.292	-20.82
315.505	52.91
315.719	28.33
315.933	65.19
316.146	40.62
316.36	18.09
316.573	130.73
316.787	75.43
317.001	71.34
317.214	57
317.428	18.09
317.641	65.19
317.855	61.1
318.068	57
318.282	81.58
318.495	75.43
318.709	13.99
318.922	73.39
319.136	73.39
319.349	126.63
319.563	36.52
319.776	114.34
319.99	18.09
320.203	130.73
320.417	-8.53
320.63	11.95
320.843	128.68
321.057	61.1
321.27	63.15
321.483	57
321.697	85.67
321.91	-4.44
322.124	95.91
322.337	65.19
322.55	32.43
322.763	-67.92
322.977	77.48
323.19	50.86
323.403	20.14
323.617	13.99
323.83	95.91
324.043	77.48
324.256	69.29
324.469	52.91
324.683	40.62
324.896	-14.68
325.109	18.09
325.322	-74.07
325.535	100.01
325.748	24.23
325.962	13.99
326.175	-31.06
326.388	143.02
326.601	157.35
326.814	5.8
327.027	69.29
327.24	83.63
327.453	-6.49
327.666	13.99
327.879	71.34
328.092	42.67
328.305	116.39
328.518	5.8
328.731	-26.96
328.944	16.04
329.157	69.29
329.37	100.01
329.583	91.82
329.796	91.82
330.009	102.06
330.222	59.05
330.435	85.67
330.648	81.58
330.861	40.62
331.073	-4.44
331.286	81.58
331.499	40.62
331.712	73.39
331.925	67.24
332.138	32.43
332.35	138.92
332.563	57
332.776	77.48
332.989	-6.49
333.202	9.9
333.414	46.76
333.627	-51.54
333.84	112.3
334.053	69.29
334.265	13.99
334.478	73.39
334.691	11.95
334.903	-10.58
335.116	7.85
335.329	81.58
335.541	67.24
335.754	85.67
335.966	36.52
336.179	85.67
336.392	128.68
336.604	-24.92
336.817	120.49
337.029	46.76
337.242	61.1
337.454	69.29
337.667	44.71
337.88	116.39
338.092	65.19
338.305	1.71
338.517	59.05
338.729	97.96
338.942	61.1
339.154	75.43
339.367	36.52
339.579	32.43
339.792	26.28
340.004	24.23
340.217	-67.92
340.429	77.48
340.641	-4.44
340.854	-65.88
341.066	83.63
341.278	-8.53
341.491	34.47
341.703	36.52
341.915	-63.83
342.128	1.71
342.34	54.95
342.552	-33.11
342.764	42.67
342.977	36.52
343.189	36.52
343.401	1.71
343.613	61.1
343.826	73.39
344.038	7.85
344.25	32.43
344.462	-22.87
344.674	67.24
344.886	34.47
345.099	52.91
345.311	89.77
345.523	89.77
345.735	-10.58
345.947	102.06
346.159	30.38
346.371	71.34
346.583	-14.68
346.795	89.77
347.007	-43.35
347.219	54.95
347.431	30.38
347.643	71.34
347.855	48.81
348.067	159.4
348.279	-6.49
348.491	5.8
348.703	65.19
348.915	-12.63
349.127	26.28
349.339	67.24
349.551	28.33
349.763	7.85
349.975	91.82
350.187	44.71
350.399	34.47
350.61	-18.77
350.822	24.23
351.034	95.91
351.246	36.52
351.458	3.75
351.669	71.34
351.881	102.06
352.093	-0.34
352.305	145.06
352.517	44.71
352.728	91.82
352.94	50.86
353.152	89.77
353.363	9.9
353.575	36.52
353.787	50.86
353.999	34.47
354.21	65.19
354.422	83.63
354.633	73.39
354.845	-35.16
355.057	20.14
355.268	95.91
355.48	3.75
355.692	-16.73
355.903	36.52
356.115	34.47
356.326	36.52
356.538	97.96
356.749	7.85
356.961	157.35
357.172	28.33
357.384	-37.2
357.595	93.87
357.807	32.43
358.018	7.85
358.23	36.52
358.441	145.06
358.653	30.38
358.864	46.76
359.075	44.71
359.287	93.87
359.498	100.01
359.709	30.38
359.921	-10.58
360.132	97.96
360.344	95.91
360.555	26.28
360.766	24.23
360.977	85.67
361.189	-20.82
361.4	9.9
361.611	91.82
361.823	126.63
362.034	54.95
362.245	24.23
362.456	36.52
362.667	85.67
362.879	81.58
363.09	73.39
363.301	61.1
363.512	28.33
363.723	110.25
363.935	-29.01
364.146	77.48
364.357	-8.53
364.568	65.19
364.779	-18.77
364.99	81.58
365.201	73.39
365.412	50.86
365.623	-24.92
365.834	61.1
366.045	69.29
366.256	108.2
366.467	54.95
366.678	69.29
366.889	81.58
367.1	26.28
367.311	61.1
367.522	46.76
367.733	-12.63
367.944	69.29
368.155	30.38
368.366	122.54
368.577	108.2
368.788	44.71
368.999	9.9
369.209	28.33
369.42	91.82
369.631	159.4
369.842	75.43
370.053	-2.39
370.264	24.23
370.474	42.67
370.685	71.34
370.896	48.81
371.107	108.2
371.317	110.25
371.528	81.58
371.739	61.1
371.95	81.58
372.16	100.01
372.371	7.85
372.582	87.72
372.792	102.06
373.003	114.34
373.214	73.39
373.424	42.67
373.635	-14.68
373.846	118.44
374.056	-45.4
374.267	52.91
374.477	65.19
374.688	-14.68
374.898	54.95
375.109	91.82
375.319	52.91
375.53	48.81
375.74	48.81
375.951	5.8
376.161	50.86
376.372	112.3
376.582	54.95
376.793	40.62
377.003	-8.53
377.214	87.72
377.424	32.43
377.635	112.3
377.845	16.04
378.055	124.58
378.266	48.81
378.476	11.95
378.686	100.01
378.897	63.15
379.107	67.24
379.317	48.81
379.528	-6.49
379.738	140.97
379.948	-10.58
380.158	-37.2
380.369	73.39
380.579	-8.53
380.789	54.95
380.999	114.34
381.21	57
381.42	153.26
381.63	-4.44
381.84	108.2
382.05	95.91
382.261	106.15
382.471	20.14
382.681	32.43
382.891	126.63
383.101	122.54
383.311	91.82
383.521	34.47
383.731	50.86
383.941	122.54
384.151	136.87
384.361	-0.34
384.571	97.96
384.781	57
384.991	171.69
385.201	67.24
385.411	79.53
385.621	40.62
385.831	89.77
386.041	132.78
386.251	97.96
386.461	198.31
386.671	63.15
386.881	79.53
387.091	83.63
387.301	67.24
387.511	114.34
387.72	75.43
387.93	-0.34
388.14	-29.01
388.35	59.05
388.56	85.67
388.769	65.19
388.979	155.3
389.189	18.09
389.399	40.62
389.609	169.64
389.818	69.29
390.028	32.43
390.238	134.82
390.447	85.67
390.657	71.34
390.867	57
391.076	81.58
391.286	38.57
391.496	89.77
391.705	3.75
391.915	165.54
392.125	34.47
392.334	83.63
392.544	36.52
392.753	102.06
392.963	38.57
393.172	108.2
393.382	44.71
393.591	65.19
393.801	24.23
394.01	132.78
394.22	130.73
394.429	91.82
394.639	97.96
394.848	57
395.058	95.91
395.267	171.69
395.477	42.67
395.686	28.33
395.895	112.3
396.105	161.45
396.314	114.34
396.524	186.02
396.733	32.43
396.942	42.67
397.152	149.16
397.361	130.73
397.57	128.68
397.78	116.39
397.989	128.68
398.198	97.96
398.407	171.69
398.617	87.72
398.826	89.77
399.035	40.62
399.244	147.11
399.453	138.92
399.663	75.43
399.872	198.31
400.081	32.43
400.29	157.35
400.499	93.87
400.708	190.12
400.917	130.73
401.127	40.62
401.336	120.49
401.545	190.12
401.754	108.2
401.963	120.49
402.172	89.77
402.381	140.97
402.59	124.58
402.799	149.16
403.008	116.39
403.217	161.45
403.426	59.05
403.635	81.58
403.844	130.73
404.053	169.64
404.262	165.54
404.471	163.5
404.68	114.34
404.888	143.02
405.097	102.06
405.306	218.79
405.515	233.13
405.724	212.65
405.933	198.31
406.142	245.41
406.35	245.41
406.559	222.89
406.768	220.84
406.977	218.79
407.185	175.78
407.394	224.94
407.603	190.12
407.812	321.19
408.02	280.23
408.229	245.41
408.438	265.89
408.646	241.32
408.855	286.37
409.064	261.8
409.272	282.28
409.481	288.42
409.69	302.76
409.898	267.94
410.107	306.85
410.315	310.95
410.524	343.72
410.733	327.33
410.941	351.91
411.15	362.15
411.358	439.97
411.567	550.56
411.775	476.84
411.984	474.79
412.192	425.64
412.401	462.5
412.609	532.13
412.818	525.99
413.026	478.88
413.234	528.03
413.443	571.04
413.651	511.65
413.86	632.48
414.068	712.35
414.276	728.74
414.485	704.16
414.693	704.16
414.901	759.46
415.11	796.32
415.318	685.73
415.526	804.51
415.734	716.45
415.943	886.43
416.151	966.3
416.359	865.95
416.567	880.29
416.776	984.73
416.984	992.92
417.192	1126.04
417.4	1017.5
417.608	1046.17
417.817	1101.47
418.025	1171.1
418.233	1408.66
418.441	1197.72
418.649	1238.68
418.857	1390.23
419.065	1459.86
419.273	1386.13
419.481	1552.02
419.689	1605.27
419.897	1613.46
420.105	1609.36
420.313	1691.28
420.521	1687.18
420.729	1762.96
420.937	1810.06
421.145	1885.84
421.353	2039.44
421.561	2047.63
421.769	2152.07
421.977	2174.6
422.185	2197.13
422.393	2340.49
422.601	2651.78
422.809	2498.18
423.017	2354.82
423.224	2500.23
423.432	2692.74
423.64	2670.21
423.848	2924.16
424.056	2866.81
424.263	3157.63
424.471	3038.84
424.679	3192.44
424.887	3309.18
425.094	3526.26
425.302	3495.54
425.51	3505.78
425.718	3757.68
425.925	3778.16
426.133	3931.76
426.341	4107.88
426.548	4345.45
426.756	4284.01
426.964	4488.81
427.171	4550.25
427.379	4648.55
427.586	4910.69
427.794	4953.7
428.001	5164.64
428.209	5387.86
428.417	5250.65
428.624	5588.57
428.832	5676.63
429.039	5641.81
429.247	5652.05
429.454	6186.57
429.662	6688.32
429.869	6272.59
430.076	6510.15
430.284	6450.76
430.491	6870.59
430.699	7122.49
430.906	6993.47
431.114	7173.69
431.321	7517.75
431.528	7609.91
431.736	8046.13
431.943	8375.85
432.15	8136.24
432.358	8353.32
432.565	8934.95
432.772	8818.21
432.979	9156.13
433.187	9352.73
433.394	9436.7
433.601	10200.59
433.808	10323.47
434.016	10081.81
434.223	10499.59
434.43	10956.29
434.637	10921.48
434.844	11488.76
435.052	11654.65
435.259	11773.43
435.466	11914.74
435.673	11808.25
435.88	12506.6
436.087	13188.58
436.294	13039.08
436.501	13037.03
436.708	13313.5
436.915	13747.67
437.122	13948.37
437.329	14050.77
437.537	14722.51
437.743	14785.99
437.95	14732.75
438.157	15449.53
438.364	15934.9
438.571	15936.95
438.778	16199.09
438.985	17720.73
439.192	16940.46
439.399	17292.71
439.606	16934.31
439.813	18052.5
440.02	19060.1
440.227	18607.5
440.433	18570.64
440.64	19299.72
440.847	18941.32
441.054	19672.45
441.261	20790.64
441.467	20389.24
441.674	20927.85
441.881	21628.26
442.088	21710.18
442.294	21435.75
442.501	21947.74
442.708	22510.93
442.914	23510.34
443.121	24241.46
443.328	23700.8
443.534	25404.71
443.741	24425.78
443.948	24399.16
444.154	25826.59
444.361	26066.2
444.568	26391.83
444.774	26285.34
444.981	26373.4
445.187	27305.23
445.394	28695.8
445.6	28181.76
445.807	30713.05
446.013	29406.44
446.22	30153.95
446.426	30717.14
446.633	31347.92
446.839	32566.46
447.046	31280.33
447.252	33139.89
447.459	32867.51
447.665	32801.97
447.871	34499.74
448.078	35554.44
448.284	34528.41
448.491	34987.16
448.697	36478.08
448.903	37131.38
449.11	37364.85
449.316	36691.07
449.522	37301.36
449.728	38417.5
449.935	38732.89
450.141	38456.42
450.347	39593.04
450.553	38317.15
450.76	38997.08
450.966	40121.41
451.172	39650.38
451.378	40766.52
451.584	39980.1
451.791	40862.78
451.997	41026.62
452.203	41483.31
452.409	41380.92
452.615	41479.22
452.821	40189
453.027	39494.74
453.233	41481.27
453.44	39601.23
453.646	40281.16
453.852	40434.75
454.058	41376.82
454.264	39873.61
454.47	40475.71
454.676	39750.73
454.882	41059.38
455.088	37616.75
455.294	38032.49
455.5	38784.09
455.705	39367.76
455.911	37870.7
456.117	36727.93
456.323	36455.55
456.529	34512.03
456.735	35859.59
456.941	35327.12
457.147	34614.43
457.352	33442.99
457.558	33086.64
457.764	33135.79
457.97	32658.62
458.176	31837.38
458.381	31767.75
458.587	30481.63
458.793	30495.96
458.999	28843.25
459.204	30831.83
459.41	29934.82
459.616	27612.42
459.821	27897.09
460.027	27852.03
460.233	27417.86
460.438	26131.74
460.644	26397.98
460.85	25111.85
461.055	24548.66
461.261	24735.03
461.466	22562.13
461.672	22164.82
461.878	23524.68
462.083	22070.62
462.289	21767.52
462.494	21521.76
462.7	20561.26
462.905	20014.46
463.111	20776.3
463.316	20856.17
463.522	20118.9
463.727	20383.09
463.932	20440.43
464.138	19953.02
464.343	20049.27
464.549	19402.11
464.754	20018.55
464.959	19821.95
465.165	19873.15
465.37	19191.17
465.575	18587.02
465.781	19158.41
465.986	19221.89
466.191	18900.36
466.397	18386.32
466.602	17577.37
466.807	18333.07
