Data from USB4F104151__93__13-06-25-837.txt Node

Date: Fri Mar 14 13:06:25 EDT 2025
User: louis
Spectrometer: USB4F10415
Trigger mode: 4
Integration Time (sec): 4.000000E-2
Scans to average: 1
Electric dark correction enabled: true
Nonlinearity correction enabled: false
Boxcar width: 0
XAxis mode: Wavelengths
Number of Pixels in Spectrum: 3648
>>>>>Begin Spectral Data<<<<<
178.204	-222.2
178.424	-222.2
178.644	-222.2
178.864	-228.35
179.084	-199.68
179.304	-52.22
179.524	-19.46
179.744	-3.07
179.964	39.94
180.184	58.37
180.404	41.98
180.624	-25.6
180.844	13.31
181.064	-70.65
181.283	-13.31
181.503	-27.65
181.723	58.37
181.943	27.65
182.163	72.7
182.383	-1.02
182.602	25.6
182.822	35.84
183.042	15.36
183.262	-3.07
183.482	19.46
183.701	46.08
183.921	37.89
184.141	66.56
184.361	107.52
184.58	72.7
184.8	89.09
185.02	37.89
185.239	121.85
185.459	25.6
185.679	62.46
185.898	-17.41
186.118	-17.41
186.338	-48.13
186.557	80.89
186.777	-25.6
186.997	3.07
187.216	35.84
187.436	107.52
187.655	58.37
187.875	48.13
188.095	13.31
188.314	74.75
188.534	48.13
188.753	33.79
188.973	89.09
189.192	146.43
189.412	70.65
189.631	7.17
189.851	74.75
190.07	1.02
190.29	17.41
190.509	13.31
190.729	35.84
190.948	87.04
191.168	205.82
191.387	121.85
191.607	-27.65
191.826	7.17
192.045	91.13
192.265	37.89
192.484	31.74
192.704	-19.46
192.923	-7.17
193.142	103.42
193.362	23.55
193.581	101.37
193.8	37.89
194.02	50.18
194.239	15.36
194.458	19.46
194.678	-21.5
194.897	76.8
195.116	72.7
195.335	48.13
195.555	41.98
195.774	13.31
195.993	60.42
196.212	-58.37
196.432	48.13
196.651	-9.22
196.87	-5.12
197.089	146.43
197.308	119.81
197.528	93.18
197.747	21.5
197.966	-13.31
198.185	152.57
198.404	11.26
198.623	31.74
198.842	46.08
199.062	52.22
199.281	97.28
199.5	58.37
199.719	5.12
199.938	80.89
200.157	185.34
200.376	25.6
200.595	121.85
200.814	39.94
201.033	70.65
201.252	62.46
201.471	74.75
201.69	39.94
201.909	44.03
202.128	33.79
202.347	115.71
202.566	44.03
202.785	9.22
203.004	-13.31
203.223	117.76
203.442	44.03
203.661	50.18
203.879	21.5
204.098	117.76
204.317	-19.46
204.536	109.57
204.755	107.52
204.974	54.27
205.193	66.56
205.411	138.24
205.63	97.28
205.849	138.24
206.068	62.46
206.287	82.94
206.505	99.33
206.724	-17.41
206.943	74.75
207.162	21.5
207.381	-19.46
207.599	31.74
207.818	56.32
208.037	5.12
208.255	107.52
208.474	58.37
208.693	72.7
208.911	31.74
209.13	56.32
209.349	58.37
209.567	80.89
209.786	82.94
210.005	111.61
210.223	5.12
210.442	-25.6
210.661	93.18
210.879	74.75
211.098	41.98
211.316	99.33
211.535	101.37
211.753	56.32
211.972	138.24
212.191	19.46
212.409	37.89
212.628	91.13
212.846	15.36
213.065	70.65
213.283	87.04
213.502	-31.74
213.72	68.61
213.938	103.42
214.157	35.84
214.375	41.98
214.594	76.8
214.812	76.8
215.031	37.89
215.249	41.98
215.467	56.32
215.686	70.65
215.904	62.46
216.122	29.7
216.341	91.13
216.559	66.56
216.778	13.31
216.996	60.42
217.214	-60.42
217.432	46.08
217.651	13.31
217.869	76.8
218.087	62.46
218.306	17.41
218.524	35.84
218.742	27.65
218.96	52.22
219.179	33.79
219.397	-7.17
219.615	95.23
219.833	68.61
220.051	-9.22
220.27	17.41
220.488	80.89
220.706	29.7
220.924	54.27
221.142	-5.12
221.36	21.5
221.578	115.71
221.796	-3.07
222.015	54.27
222.233	11.26
222.451	99.33
222.669	27.65
222.887	91.13
223.105	-46.08
223.323	27.65
223.541	95.23
223.759	82.94
223.977	25.6
224.195	72.7
224.413	54.27
224.631	150.53
224.849	54.27
225.067	144.38
225.285	56.32
225.503	56.32
225.721	-35.84
225.939	60.42
226.157	66.56
226.375	214.01
226.592	21.5
226.81	89.09
227.028	156.67
227.246	93.18
227.464	7.17
227.682	54.27
227.9	54.27
228.117	111.61
228.335	15.36
228.553	29.7
228.771	52.22
228.989	70.65
229.206	66.56
229.424	23.55
229.642	-1.02
229.86	11.26
230.077	117.76
230.295	87.04
230.513	25.6
230.731	27.65
230.948	87.04
231.166	89.09
231.384	54.27
231.601	-17.41
231.819	-31.74
232.037	15.36
232.254	70.65
232.472	5.12
232.689	-35.84
232.907	29.7
233.125	35.84
233.342	58.37
233.56	66.56
233.777	64.51
233.995	84.99
234.213	105.47
234.43	185.34
234.648	54.27
234.865	21.5
235.083	35.84
235.3	-11.26
235.518	25.6
235.735	87.04
235.953	93.18
236.17	39.94
236.388	37.89
236.605	33.79
236.822	60.42
237.04	107.52
237.257	78.85
237.475	-60.42
237.692	48.13
237.909	52.22
238.127	-13.31
238.344	78.85
238.562	-3.07
238.779	-9.22
238.996	44.03
239.214	-5.12
239.431	39.94
239.648	15.36
239.865	119.81
240.083	29.7
240.3	15.36
240.517	25.6
240.735	13.31
240.952	7.17
241.169	168.96
241.386	37.89
241.603	-1.02
241.821	23.55
242.038	105.47
242.255	80.89
242.472	35.84
242.689	87.04
242.907	46.08
243.124	29.7
243.341	27.65
243.558	62.46
243.775	44.03
243.992	15.36
244.209	48.13
244.426	80.89
244.643	121.85
244.86	70.65
245.078	9.22
245.295	11.26
245.512	84.99
245.729	70.65
245.946	33.79
246.163	39.94
246.38	91.13
246.597	68.61
246.814	3.07
247.031	-17.41
247.248	144.38
247.464	60.42
247.681	95.23
247.898	97.28
248.115	91.13
248.332	54.27
248.549	103.42
248.766	134.14
248.983	72.7
249.2	115.71
249.417	74.75
249.633	56.32
249.85	-1.02
250.067	48.13
250.284	-35.84
250.501	82.94
250.717	54.27
250.934	9.22
251.151	48.13
251.368	78.85
251.585	111.61
251.801	82.94
252.018	-17.41
252.235	123.9
252.451	-15.36
252.668	31.74
252.885	21.5
253.102	66.56
253.318	56.32
253.535	-9.22
253.752	27.65
253.968	33.79
254.185	44.03
254.401	11.26
254.618	60.42
254.835	33.79
255.051	128
255.268	66.56
255.484	72.7
255.701	-23.55
255.917	76.8
256.134	-101.37
256.351	-9.22
256.567	62.46
256.784	3.07
257	-1.02
257.217	66.56
257.433	111.61
257.65	7.17
257.866	134.14
258.082	44.03
258.299	87.04
258.515	70.65
258.732	70.65
258.948	41.98
259.165	39.94
259.381	-44.03
259.597	87.04
259.814	70.65
260.03	54.27
260.246	-56.32
260.463	144.38
260.679	84.99
260.895	21.5
261.112	78.85
261.328	41.98
261.544	-56.32
261.761	168.96
261.977	52.22
262.193	74.75
262.409	17.41
262.626	93.18
262.842	-15.36
263.058	25.6
263.274	101.37
263.49	99.33
263.707	78.85
263.923	99.33
264.139	1.02
264.355	66.56
264.571	156.67
264.787	-62.46
265.004	89.09
265.22	72.7
265.436	-19.46
265.652	35.84
265.868	78.85
266.084	15.36
266.3	60.42
266.516	-17.41
266.732	87.04
266.948	56.32
267.164	84.99
267.38	128
267.596	87.04
267.812	97.28
268.028	25.6
268.244	60.42
268.46	54.27
268.676	70.65
268.892	89.09
269.108	87.04
269.324	7.17
269.54	58.37
269.756	80.89
269.972	56.32
270.188	-27.65
270.403	-19.46
270.619	89.09
270.835	37.89
271.051	5.12
271.267	25.6
271.483	60.42
271.698	58.37
271.914	60.42
272.13	76.8
272.346	37.89
272.562	82.94
272.777	37.89
272.993	44.03
273.209	23.55
273.425	66.56
273.64	-9.22
273.856	46.08
274.072	-25.6
274.287	-64.51
274.503	87.04
274.719	58.37
274.934	80.89
275.15	54.27
275.366	39.94
275.581	15.36
275.797	82.94
276.012	39.94
276.228	-27.65
276.444	50.18
276.659	19.46
276.875	13.31
277.09	-15.36
277.306	78.85
277.521	35.84
277.737	97.28
277.952	56.32
278.168	103.42
278.383	-17.41
278.599	44.03
278.814	44.03
279.03	13.31
279.245	154.62
279.461	121.85
279.676	56.32
279.892	-19.46
280.107	17.41
280.322	21.5
280.538	13.31
280.753	-13.31
280.969	13.31
281.184	-1.02
281.399	54.27
281.615	41.98
281.83	37.89
282.045	48.13
282.26	-17.41
282.476	33.79
282.691	46.08
282.906	101.37
283.122	44.03
283.337	82.94
283.552	101.37
283.767	58.37
283.983	64.51
284.198	60.42
284.413	113.66
284.628	-41.98
284.843	41.98
285.058	29.7
285.274	64.51
285.489	-35.84
285.704	31.74
285.919	21.5
286.134	-5.12
286.349	78.85
286.564	7.17
286.779	119.81
286.995	44.03
287.21	5.12
287.425	111.61
287.64	-19.46
287.855	41.98
288.07	-25.6
288.285	60.42
288.5	35.84
288.715	41.98
288.93	50.18
289.145	7.17
289.36	142.33
289.575	-1.02
289.79	87.04
290.004	19.46
290.219	95.23
290.434	54.27
290.649	5.12
290.864	107.52
291.079	66.56
291.294	-3.07
291.509	136.19
291.724	23.55
291.938	25.6
292.153	78.85
292.368	35.84
292.583	-19.46
292.798	111.61
293.012	44.03
293.227	39.94
293.442	48.13
293.657	87.04
293.871	154.62
294.086	31.74
294.301	119.81
294.516	76.8
294.73	5.12
294.945	-13.31
295.16	7.17
295.374	54.27
295.589	76.8
295.804	-23.55
296.018	5.12
296.233	128
296.447	33.79
296.662	48.13
296.877	37.89
297.091	91.13
297.306	66.56
297.52	39.94
297.735	97.28
297.949	27.65
298.164	48.13
298.378	78.85
298.593	113.66
298.807	15.36
299.022	33.79
299.236	23.55
299.451	62.46
299.665	33.79
299.88	58.37
300.094	46.08
300.309	17.41
300.523	101.37
300.737	-56.32
300.952	46.08
301.166	39.94
301.381	-11.26
301.595	37.89
301.809	54.27
302.024	52.22
302.238	15.36
302.452	21.5
302.667	-37.89
302.881	95.23
303.095	50.18
303.309	89.09
303.524	1.02
303.738	27.65
303.952	-44.03
304.166	-11.26
304.381	-17.41
304.595	70.65
304.809	17.41
305.023	60.42
305.237	54.27
305.452	41.98
305.666	9.22
305.88	46.08
306.094	9.22
306.308	80.89
306.522	119.81
306.736	160.77
306.95	136.19
307.164	46.08
307.379	84.99
307.593	72.7
307.807	87.04
308.021	89.09
308.235	105.47
308.449	-1.02
308.663	46.08
308.877	119.81
309.091	70.65
309.305	39.94
309.519	17.41
309.733	72.7
309.947	-27.65
310.161	89.09
310.374	56.32
310.588	74.75
310.802	44.03
311.016	27.65
311.23	56.32
311.444	80.89
311.658	19.46
311.872	105.47
312.085	138.24
312.299	87.04
312.513	148.48
312.727	37.89
312.941	80.89
313.154	56.32
313.368	19.46
313.582	37.89
313.796	13.31
314.009	-37.89
314.223	103.42
314.437	158.72
314.651	119.81
314.864	15.36
315.078	19.46
315.292	3.07
315.505	46.08
315.719	80.89
315.933	95.23
316.146	9.22
316.36	-39.94
316.573	78.85
316.787	144.38
317.001	17.41
317.214	60.42
317.428	27.65
317.641	35.84
317.855	7.17
318.068	-13.31
318.282	80.89
318.495	119.81
318.709	132.09
318.922	80.89
319.136	171.01
319.349	140.29
319.563	132.09
319.776	146.43
319.99	56.32
320.203	44.03
320.417	97.28
320.63	87.04
320.843	128
321.057	27.65
321.27	103.42
321.483	62.46
321.697	74.75
321.91	107.52
322.124	78.85
322.337	107.52
322.55	-11.26
322.763	35.84
322.977	-39.94
323.19	105.47
323.403	76.8
323.617	76.8
323.83	62.46
324.043	29.7
324.256	54.27
324.469	-119.81
324.683	37.89
324.896	68.61
325.109	89.09
325.322	3.07
325.535	132.09
325.748	78.85
325.962	117.76
326.175	50.18
326.388	11.26
326.601	72.7
326.814	72.7
327.027	46.08
327.24	138.24
327.453	29.7
327.666	37.89
327.879	80.89
328.092	150.53
328.305	68.61
328.518	-1.02
328.731	7.17
328.944	-41.98
329.157	107.52
329.37	29.7
329.583	138.24
329.796	105.47
330.009	46.08
330.222	50.18
330.435	115.71
330.648	97.28
330.861	119.81
331.073	89.09
331.286	121.85
331.499	-11.26
331.712	11.26
331.925	46.08
332.138	29.7
332.35	128
332.563	72.7
332.776	128
332.989	27.65
333.202	29.7
333.414	93.18
333.627	146.43
333.84	70.65
334.053	82.94
334.265	5.12
334.478	64.51
334.691	107.52
334.903	41.98
335.116	39.94
335.329	54.27
335.541	111.61
335.754	152.57
335.966	46.08
336.179	62.46
336.392	99.33
336.604	80.89
336.817	78.85
337.029	111.61
337.242	68.61
337.454	97.28
337.667	11.26
337.88	97.28
338.092	99.33
338.305	80.89
338.517	-15.36
338.729	99.33
338.942	160.77
339.154	-19.46
339.367	23.55
339.579	78.85
339.792	19.46
340.004	95.23
340.217	29.7
340.429	80.89
340.641	56.32
340.854	95.23
341.066	-9.22
341.278	152.57
341.491	134.14
341.703	70.65
341.915	66.56
342.128	107.52
342.34	41.98
342.552	27.65
342.764	84.99
342.977	37.89
343.189	107.52
343.401	-7.17
343.613	31.74
343.826	35.84
344.038	-9.22
344.25	21.5
344.462	29.7
344.674	76.8
344.886	99.33
345.099	39.94
345.311	95.23
345.523	62.46
345.735	33.79
345.947	109.57
346.159	31.74
346.371	72.7
346.583	29.7
346.795	181.25
347.007	97.28
347.219	89.09
347.431	70.65
347.643	17.41
347.855	58.37
348.067	187.39
348.279	31.74
348.491	-27.65
348.703	72.7
348.915	-3.07
349.127	-52.22
349.339	50.18
349.551	5.12
349.763	50.18
349.975	60.42
350.187	144.38
350.399	107.52
350.61	105.47
350.822	-27.65
351.034	62.46
351.246	31.74
351.458	-9.22
351.669	105.47
351.881	119.81
352.093	54.27
352.305	78.85
352.517	41.98
352.728	113.66
352.94	132.09
353.152	103.42
353.363	-25.6
353.575	130.05
353.787	115.71
353.999	74.75
354.21	150.53
354.422	35.84
354.633	68.61
354.845	13.31
355.057	-7.17
355.268	84.99
355.48	-3.07
355.692	58.37
355.903	52.22
356.115	-19.46
356.326	15.36
356.538	115.71
356.749	1.02
356.961	132.09
357.172	138.24
357.384	-17.41
357.595	56.32
357.807	68.61
358.018	21.5
358.23	156.67
358.441	125.95
358.653	111.61
358.864	111.61
359.075	35.84
359.287	37.89
359.498	119.81
359.709	46.08
359.921	3.07
360.132	119.81
360.344	62.46
360.555	-46.08
360.766	64.51
360.977	76.8
361.189	107.52
361.4	21.5
361.611	166.91
361.823	80.89
362.034	60.42
362.245	-52.22
362.456	60.42
362.667	62.46
362.879	89.09
363.09	87.04
363.301	29.7
363.512	84.99
363.723	-52.22
363.935	31.74
364.146	111.61
364.357	41.98
364.568	25.6
364.779	-1.02
364.99	132.09
365.201	52.22
365.412	115.71
365.623	5.12
365.834	95.23
366.045	89.09
366.256	103.42
366.467	52.22
366.678	60.42
366.889	48.13
367.1	72.7
367.311	105.47
367.522	9.22
367.733	130.05
367.944	-9.22
368.155	62.46
368.366	84.99
368.577	134.14
368.788	80.89
368.999	27.65
369.209	82.94
369.42	125.95
369.631	142.33
369.842	113.66
370.053	62.46
370.264	140.29
370.474	62.46
370.685	136.19
370.896	39.94
371.107	130.05
371.317	89.09
371.528	21.5
371.739	152.57
371.95	99.33
372.16	121.85
372.371	66.56
372.582	37.89
372.792	89.09
373.003	82.94
373.214	64.51
373.424	82.94
373.635	48.13
373.846	103.42
374.056	25.6
374.267	84.99
374.477	132.09
374.688	-25.6
374.898	33.79
375.109	101.37
375.319	60.42
375.53	41.98
375.74	58.37
375.951	70.65
376.161	166.91
376.372	111.61
376.582	66.56
376.793	78.85
377.003	25.6
377.214	84.99
377.424	70.65
377.635	9.22
377.845	48.13
378.055	138.24
378.266	-19.46
378.476	52.22
378.686	177.15
378.897	74.75
379.107	148.48
379.317	78.85
379.528	15.36
379.738	82.94
379.948	15.36
380.158	109.57
380.369	27.65
380.579	82.94
380.789	31.74
380.999	123.9
381.21	101.37
381.42	152.57
381.63	37.89
381.84	82.94
382.05	128
382.261	140.29
382.471	107.52
382.681	87.04
382.891	103.42
383.101	50.18
383.311	76.8
383.521	-3.07
383.731	113.66
383.941	80.89
384.151	-27.65
384.361	46.08
384.571	68.61
384.781	89.09
384.991	136.19
385.201	103.42
385.411	37.89
385.621	136.19
385.831	103.42
386.041	123.9
386.251	64.51
386.461	123.9
386.671	13.31
386.881	41.98
387.091	146.43
387.301	121.85
387.511	103.42
387.72	130.05
387.93	52.22
388.14	76.8
388.35	78.85
388.56	197.63
388.769	105.47
388.979	168.96
389.189	31.74
389.399	46.08
389.609	152.57
389.818	130.05
390.028	111.61
390.238	146.43
390.447	27.65
390.657	72.7
390.867	113.66
391.076	9.22
391.286	80.89
391.496	72.7
391.705	164.86
391.915	132.09
392.125	162.81
392.334	64.51
392.544	113.66
392.753	148.48
392.963	72.7
393.172	175.1
393.382	44.03
393.591	150.53
393.801	119.81
394.01	130.05
394.22	164.86
394.429	97.28
394.639	68.61
394.848	46.08
395.058	121.85
395.267	80.89
395.477	164.86
395.686	78.85
395.895	162.81
396.105	250.88
396.314	109.57
396.524	121.85
396.733	76.8
396.942	228.35
397.152	101.37
397.361	119.81
397.57	156.67
397.78	80.89
397.989	146.43
398.198	228.35
398.407	115.71
398.617	31.74
398.826	195.58
399.035	76.8
399.244	115.71
399.453	158.72
399.663	152.57
399.872	195.58
400.081	105.47
400.29	130.05
400.499	80.89
400.708	111.61
400.917	193.53
401.127	144.38
401.336	64.51
401.545	142.33
401.754	193.53
401.963	162.81
402.172	189.44
402.381	87.04
402.59	146.43
402.799	162.81
403.008	189.44
403.217	138.24
403.426	93.18
403.635	132.09
403.844	156.67
404.053	185.34
404.262	154.62
404.471	201.72
404.68	193.53
404.888	193.53
405.097	179.2
405.306	211.96
405.515	140.29
405.724	242.68
405.933	220.16
406.142	195.58
406.35	214.01
406.559	158.72
406.768	248.83
406.977	267.26
407.185	199.68
407.394	259.07
407.603	236.54
407.812	257.02
408.02	334.84
408.229	269.31
408.438	287.74
408.646	209.92
408.855	267.26
409.064	349.18
409.272	328.7
409.481	369.66
409.69	332.79
409.898	322.56
410.107	324.6
410.315	416.76
410.524	390.14
410.733	459.77
410.941	334.84
411.15	392.19
411.358	410.62
411.567	416.76
411.775	478.2
411.984	435.19
412.192	433.15
412.401	439.29
412.609	568.31
412.818	599.03
413.026	572.41
413.234	513.02
413.443	556.02
413.651	566.26
413.86	601.08
414.068	766.96
414.276	773.11
414.485	703.48
414.693	762.87
414.901	777.2
415.11	711.67
415.318	775.16
415.526	799.73
415.734	771.06
415.943	859.12
416.151	891.89
416.359	906.23
416.567	924.66
416.776	1090.54
416.984	994.29
417.192	1154.03
417.4	1115.12
417.608	1072.11
417.817	1174.51
418.025	1246.19
418.233	1305.58
418.441	1242.09
418.649	1264.62
418.857	1473.51
419.065	1444.84
419.273	1547.24
419.481	1389.55
419.689	1725.41
419.897	1678.31
420.105	1618.92
420.313	1790.95
420.521	1856.48
420.729	1831.91
420.937	1956.83
421.145	1895.4
421.353	1848.29
421.561	2239.45
421.769	2171.87
421.977	2245.6
422.185	2284.51
422.393	2350.04
422.601	2563.03
422.809	2606.04
423.017	2642.9
423.224	2649.05
423.432	2726.87
423.64	2710.49
423.848	3072.98
424.056	2917.33
424.263	3234.77
424.471	3034.07
424.679	3255.25
424.887	3388.36
425.094	3488.71
425.302	3537.87
425.51	3685.32
425.718	3746.76
425.925	3795.91
426.133	3955.65
426.341	4113.35
426.548	4266.94
426.756	4357.05
426.964	4420.54
427.171	4563.9
427.379	4731.83
427.586	4840.37
427.794	5010.36
428.001	5305.26
428.209	5596.07
428.417	5450.67
428.624	5829.54
428.832	5757.86
429.039	5774.25
429.247	5677.99
429.454	6196.13
429.662	6800.28
429.869	6245.28
430.076	6773.66
430.284	6605.72
430.491	6734.75
430.699	7181.2
430.906	7099.28
431.114	7279.5
431.321	7484.3
431.528	7603.08
431.736	8358.78
431.943	8561.53
432.15	8283.01
432.358	8539.01
432.565	8893.3
432.772	8838.01
432.979	9454.45
433.187	9706.35
433.394	9507.69
433.601	10257.25
433.808	10181.48
434.016	9923.43
434.223	10793.82
434.43	11238.23
434.637	10945.37
434.844	11729.74
435.052	11916.11
435.259	11756.36
435.466	11963.21
435.673	11821.9
435.88	12620.61
436.087	13263.67
436.294	13230.9
436.501	12895.04
436.708	13429.56
436.915	13542.19
437.122	14287.65
437.329	14215.98
437.537	14869.28
437.743	14871.33
437.95	14758.69
438.157	15600.4
438.364	16208.65
438.571	15932.17
438.778	16028.43
438.985	17744.63
439.192	17173.24
439.399	17568.5
439.606	17210.11
439.813	18176.75
440.02	19288.79
440.227	18895.58
440.433	19026.65
440.64	19198.68
440.847	19342.04
441.054	19606.23
441.261	21181.12
441.467	20894.4
441.674	21330.62
441.881	22006.45
442.088	21752.5
442.294	21545.66
442.501	22528.68
442.708	22850.21
442.914	23753.37
443.121	24781.45
443.328	24316.56
443.534	25539.19
443.741	24785.54
443.948	24638.09
444.154	26503.79
444.361	26538.6
444.568	26643.05
444.774	26923.62
444.981	26641
445.187	27517.53
445.394	28799.56
445.6	28566.09
445.807	31332.9
446.013	29981.24
446.22	30317.11
446.426	31250.98
446.633	31889.95
446.839	32893.45
447.046	31636
447.252	33442.31
447.459	33518.08
447.665	33260.04
447.871	34873.84
448.078	36131.29
448.284	34669.04
448.491	35357.16
448.697	36760.02
448.903	37405.13
449.11	37814.72
449.316	37239.24
449.522	37757.38
449.728	38773.17
449.935	39156.14
450.141	39125.42
450.347	39922.08
450.553	38879.66
450.76	39430.57
450.966	40855.95
451.172	40049.05
451.378	41726.34
451.584	40657.3
451.791	41228.68
451.997	41263.5
452.203	41937.28
452.409	42049.92
452.615	42193.28
452.821	40378.78
453.027	40212.89
453.233	42465.66
453.44	40241.56
453.646	41161.1
453.852	41476.49
454.058	42099.07
454.264	40812.95
454.47	41625.99
454.676	40798.61
454.882	42025.34
455.088	38300.09
455.294	38695.35
455.5	39346.6
455.705	40288.67
455.911	38633.91
456.117	37583.3
456.323	36983.24
456.529	35355.11
456.735	36987.34
456.941	36053.47
457.147	35697.12
457.352	34279.92
457.558	34152.95
457.764	34138.62
457.97	33538.56
458.176	32840.2
458.381	33085.96
458.587	31242.79
458.793	31488.54
458.999	29440.57
459.204	31568.41
459.41	30601.77
459.616	28777.03
459.821	28832.33
460.027	28699.21
460.233	27863.64
460.438	26765.93
460.644	27255.39
460.85	25756.28
461.055	25442.94
461.261	25244.29
461.466	23255.71
461.672	22928.03
461.878	24507.02
462.083	22801.06
462.289	22459.05
462.494	21981.87
462.7	21285.56
462.905	20845.25
463.111	21547.7
463.316	21289.66
463.522	20779.71
463.727	20847.3
463.932	20720.32
464.138	20708.04
464.343	20626.12
464.549	20134.6
464.754	20681.41
464.959	20628.17
465.165	20245.2
465.37	19206.87
465.575	18856.67
465.781	19911.38
465.986	20212.43
