Data from USB4F104151__52__13-05-34-323.txt Node

Date: Fri Mar 14 13:05:34 EDT 2025
User: louis
Spectrometer: USB4F10415
Trigger mode: 4
Integration Time (sec): 4.000000E-2
Scans to average: 1
Electric dark correction enabled: true
Nonlinearity correction enabled: false
Boxcar width: 0
XAxis mode: Wavelengths
Number of Pixels in Spectrum: 3648
>>>>>Begin Spectral Data<<<<<
178.204	-208.72
178.424	-208.72
178.644	-208.72
178.864	-192.34
179.084	-259.92
179.304	10.41
179.524	10.41
179.744	-20.31
179.964	41.13
180.184	-22.36
180.404	-42.84
180.624	-16.21
180.844	26.79
181.064	8.36
181.283	2.22
181.503	-34.64
181.723	37.03
181.943	-16.21
182.163	110.76
182.383	10.41
182.602	92.33
182.822	32.94
183.042	98.47
183.262	-44.88
183.482	34.99
183.701	112.81
183.921	47.27
184.141	55.47
184.361	67.75
184.58	-5.97
184.8	75.95
185.02	108.71
185.239	100.52
185.459	10.41
185.679	22.7
185.898	-51.03
186.118	43.18
186.338	51.37
186.557	-8.02
186.777	-57.17
186.997	69.8
187.216	98.47
187.436	104.62
187.655	141.48
187.875	59.56
188.095	59.56
188.314	75.95
188.534	82.09
188.753	30.89
188.973	94.38
189.192	116.9
189.412	32.94
189.631	-30.55
189.851	-5.97
190.07	51.37
190.29	2.22
190.509	28.84
190.729	18.6
190.948	73.9
191.168	194.73
191.387	26.79
191.607	0.17
191.826	80.04
192.045	125.1
192.265	53.42
192.484	67.75
192.704	67.75
192.923	16.55
193.142	143.53
193.362	65.71
193.581	82.09
193.8	110.76
194.02	39.08
194.239	94.38
194.458	110.76
194.678	41.13
194.897	106.67
195.116	43.18
195.335	96.43
195.555	8.36
195.774	8.36
195.993	84.14
196.212	26.79
196.432	12.46
196.651	84.14
196.87	0.17
197.089	141.48
197.308	28.84
197.528	28.84
197.747	-67.41
197.966	55.47
198.185	69.8
198.404	51.37
198.623	135.34
198.842	59.56
199.062	129.19
199.281	59.56
199.5	55.47
199.719	61.61
199.938	123.05
200.157	131.24
200.376	-1.88
200.595	102.57
200.814	71.85
201.033	-83.8
201.252	71.85
201.471	59.56
201.69	59.56
201.909	67.75
202.128	24.75
202.347	73.9
202.566	37.03
202.785	12.46
203.004	-44.88
203.223	123.05
203.442	53.42
203.661	37.03
203.879	65.71
204.098	108.71
204.317	26.79
204.536	30.89
204.755	20.65
204.974	75.95
205.193	116.9
205.411	96.43
205.63	51.37
205.849	47.27
206.068	32.94
206.287	82.09
206.505	69.8
206.724	84.14
206.943	-40.79
207.162	86.19
207.381	59.56
207.599	-3.93
207.818	12.46
208.037	-3.93
208.255	39.08
208.474	75.95
208.693	41.13
208.911	28.84
209.13	125.1
209.349	77.99
209.567	98.47
209.786	-8.02
210.005	2.22
210.223	-3.93
210.442	-46.93
210.661	12.46
210.879	69.8
211.098	16.55
211.316	26.79
211.535	75.95
211.753	-14.17
211.972	41.13
212.191	71.85
212.409	-10.07
212.628	67.75
212.846	67.75
213.065	84.14
213.283	90.28
213.502	-26.45
213.72	41.13
213.938	41.13
214.157	14.51
214.375	114.86
214.594	45.23
214.812	80.04
215.031	53.42
215.249	16.55
215.467	102.57
215.686	61.61
215.904	37.03
216.122	-79.7
216.341	43.18
216.559	37.03
216.778	65.71
216.996	20.65
217.214	86.19
217.432	16.55
217.651	-38.74
217.869	53.42
218.087	0.17
218.306	45.23
218.524	41.13
218.742	18.6
218.96	94.38
219.179	-8.02
219.397	71.85
219.615	121
219.833	59.56
220.051	57.51
220.27	125.1
220.488	123.05
220.706	127.14
220.924	-24.4
221.142	26.79
221.36	108.71
221.578	28.84
221.796	14.51
222.015	47.27
222.233	41.13
222.451	108.71
222.669	-3.93
222.887	43.18
223.105	22.7
223.323	-8.02
223.541	108.71
223.759	82.09
223.977	53.42
224.195	110.76
224.413	90.28
224.631	45.23
224.849	8.36
225.067	155.82
225.285	45.23
225.503	41.13
225.721	39.08
225.939	28.84
226.157	32.94
226.375	157.86
226.592	-28.5
226.81	94.38
227.028	69.8
227.246	133.29
227.464	8.36
227.682	41.13
227.9	20.65
228.117	141.48
228.335	24.75
228.553	41.13
228.771	59.56
228.989	125.1
229.206	141.48
229.424	-30.55
229.642	53.42
229.86	24.75
230.077	86.19
230.295	73.9
230.513	92.33
230.731	65.71
230.948	104.62
231.166	108.71
231.384	32.94
231.601	51.37
231.819	90.28
232.037	6.31
232.254	-24.4
232.472	-26.45
232.689	28.84
232.907	53.42
233.125	61.61
233.342	22.7
233.56	-16.21
233.777	-63.32
233.995	41.13
234.213	75.95
234.43	59.56
234.648	28.84
234.865	90.28
235.083	67.75
235.3	63.66
235.518	69.8
235.735	57.51
235.953	32.94
236.17	61.61
236.388	37.03
236.605	39.08
236.822	55.47
237.04	82.09
237.257	14.51
237.475	4.27
237.692	69.8
237.909	37.03
238.127	-36.69
238.344	16.55
238.562	41.13
238.779	-46.93
238.996	-20.31
239.214	57.51
239.431	28.84
239.648	-22.36
239.865	94.38
240.083	37.03
240.3	77.99
240.517	10.41
240.735	-10.07
240.952	77.99
241.169	90.28
241.386	67.75
241.603	26.79
241.821	24.75
242.038	86.19
242.255	65.71
242.472	-14.17
242.689	65.71
242.907	123.05
243.124	18.6
243.341	8.36
243.558	-8.02
243.775	32.94
243.992	32.94
244.209	18.6
244.426	67.75
244.643	63.66
244.86	90.28
245.078	80.04
245.295	57.51
245.512	82.09
245.729	18.6
245.946	51.37
246.163	45.23
246.38	67.75
246.597	26.79
246.814	32.94
247.031	39.08
247.248	-16.21
247.464	28.84
247.681	-24.4
247.898	59.56
248.115	16.55
248.332	-16.21
248.549	6.31
248.766	73.9
248.983	45.23
249.2	86.19
249.417	6.31
249.633	129.19
249.85	51.37
250.067	26.79
250.284	51.37
250.501	73.9
250.717	49.32
250.934	-12.12
251.151	2.22
251.368	28.84
251.585	96.43
251.801	41.13
252.018	-32.6
252.235	43.18
252.451	-53.08
252.668	45.23
252.885	45.23
253.102	8.36
253.318	32.94
253.535	32.94
253.752	4.27
253.968	-8.02
254.185	26.79
254.401	51.37
254.618	34.99
254.835	28.84
255.051	106.67
255.268	75.95
255.484	10.41
255.701	84.14
255.917	43.18
256.134	-3.93
256.351	110.76
256.567	-30.55
256.784	28.84
257	0.17
257.217	75.95
257.433	88.23
257.65	96.43
257.866	137.38
258.082	16.55
258.299	41.13
258.515	53.42
258.732	26.79
258.948	65.71
259.165	47.27
259.381	-65.36
259.597	41.13
259.814	51.37
260.03	28.84
260.246	-38.74
260.463	65.71
260.679	114.86
260.895	53.42
261.112	37.03
261.328	-20.31
261.544	63.66
261.761	137.38
261.977	53.42
262.193	57.51
262.409	32.94
262.626	30.89
262.842	43.18
263.058	26.79
263.274	-1.88
263.49	-34.64
263.707	65.71
263.923	80.04
264.139	-10.07
264.355	67.75
264.571	86.19
264.787	16.55
265.004	24.75
265.22	86.19
265.436	57.51
265.652	39.08
265.868	-8.02
266.084	30.89
266.3	82.09
266.516	4.27
266.732	57.51
266.948	22.7
267.164	65.71
267.38	63.66
267.596	8.36
267.812	108.71
268.028	45.23
268.244	73.9
268.46	-12.12
268.676	67.75
268.892	8.36
269.108	-20.31
269.324	0.17
269.54	-26.45
269.756	61.61
269.972	-48.98
270.188	10.41
270.403	4.27
270.619	18.6
270.835	59.56
271.051	16.55
271.267	-10.07
271.483	12.46
271.698	106.67
271.914	8.36
272.13	43.18
272.346	20.65
272.562	32.94
272.777	53.42
272.993	41.13
273.209	69.8
273.425	-8.02
273.64	34.99
273.856	73.9
274.072	94.38
274.287	65.71
274.503	88.23
274.719	141.48
274.934	37.03
275.15	14.51
275.366	-3.93
275.581	-36.69
275.797	59.56
276.012	28.84
276.228	116.9
276.444	37.03
276.659	73.9
276.875	-28.5
277.09	16.55
277.306	37.03
277.521	41.13
277.737	37.03
277.952	30.89
278.168	16.55
278.383	-18.26
278.599	37.03
278.814	129.19
279.03	26.79
279.245	157.86
279.461	-30.55
279.676	123.05
279.892	-44.88
280.107	51.37
280.322	-24.4
280.538	2.22
280.753	28.84
280.969	59.56
281.184	16.55
281.399	73.9
281.615	82.09
281.83	92.33
282.045	-40.79
282.26	41.13
282.476	104.62
282.691	125.1
282.906	51.37
283.122	34.99
283.337	18.6
283.552	82.09
283.767	59.56
283.983	82.09
284.198	57.51
284.413	61.61
284.628	-28.5
284.843	77.99
285.058	28.84
285.274	49.32
285.489	82.09
285.704	166.06
285.919	-18.26
286.134	16.55
286.349	26.79
286.564	20.65
286.779	88.23
286.995	-24.4
287.21	-24.4
287.425	102.57
287.64	41.13
287.855	53.42
288.07	4.27
288.285	155.82
288.5	37.03
288.715	92.33
288.93	34.99
289.145	34.99
289.36	20.65
289.575	-3.93
289.79	47.27
290.004	-5.97
290.219	41.13
290.434	39.08
290.649	16.55
290.864	-32.6
291.079	55.47
291.294	63.66
291.509	18.6
291.724	22.7
291.938	75.95
292.153	39.08
292.368	28.84
292.583	4.27
292.798	84.14
293.012	59.56
293.227	18.6
293.442	75.95
293.657	67.75
293.871	118.95
294.086	32.94
294.301	137.38
294.516	102.57
294.73	18.6
294.945	-48.98
295.16	34.99
295.374	94.38
295.589	114.86
295.804	41.13
296.018	22.7
296.233	49.32
296.447	84.14
296.662	30.89
296.877	94.38
297.091	80.04
297.306	51.37
297.52	84.14
297.735	61.61
297.949	63.66
298.164	96.43
298.378	77.99
298.593	-57.17
298.807	-38.74
299.022	135.34
299.236	82.09
299.451	28.84
299.665	41.13
299.88	32.94
300.094	71.85
300.309	69.8
300.523	106.67
300.737	100.52
300.952	41.13
301.166	-14.17
301.381	-16.21
301.595	84.14
301.809	90.28
302.024	63.66
302.238	84.14
302.452	22.7
302.667	2.22
302.881	123.05
303.095	82.09
303.309	32.94
303.524	-8.02
303.738	51.37
303.952	41.13
304.166	22.7
304.381	-98.13
304.595	100.52
304.809	2.22
305.023	32.94
305.237	30.89
305.452	2.22
305.666	34.99
305.88	39.08
306.094	155.82
306.308	129.19
306.522	55.47
306.736	125.1
306.95	26.79
307.164	12.46
307.379	45.23
307.593	131.24
307.807	61.61
308.021	94.38
308.235	47.27
308.449	0.17
308.663	53.42
308.877	157.86
309.091	65.71
309.305	82.09
309.519	16.55
309.733	135.34
309.947	-42.84
310.161	57.51
310.374	131.24
310.588	4.27
310.802	-100.18
311.016	73.9
311.23	12.46
311.444	-73.56
311.658	16.55
311.872	49.32
312.085	71.85
312.299	114.86
312.513	75.95
312.727	14.51
312.941	-51.03
313.154	59.56
313.368	8.36
313.582	-26.45
313.796	53.42
314.009	26.79
314.223	51.37
314.437	61.61
314.651	8.36
314.864	59.56
315.078	-67.41
315.292	-26.45
315.505	16.55
315.719	67.75
315.933	69.8
316.146	55.47
316.36	14.51
316.573	69.8
316.787	30.89
317.001	118.95
317.214	10.41
317.428	41.13
317.641	92.33
317.855	43.18
318.068	37.03
318.282	45.23
318.495	28.84
318.709	98.47
318.922	92.33
319.136	80.04
319.349	125.1
319.563	80.04
319.776	43.18
319.99	6.31
320.203	4.27
320.417	45.23
320.63	102.57
320.843	77.99
321.057	69.8
321.27	10.41
321.483	82.09
321.697	53.42
321.91	90.28
322.124	37.03
322.337	51.37
322.55	-59.22
322.763	28.84
322.977	16.55
323.19	-3.93
323.403	73.9
323.617	88.23
323.83	131.24
324.043	-40.79
324.256	37.03
324.469	8.36
324.683	164.01
324.896	8.36
325.109	77.99
325.322	-5.97
325.535	123.05
325.748	106.67
325.962	10.41
326.175	37.03
326.388	90.28
326.601	67.75
326.814	32.94
327.027	-1.88
327.24	100.52
327.453	63.66
327.666	84.14
327.879	20.65
328.092	147.62
328.305	-30.55
328.518	51.37
328.731	8.36
328.944	55.47
329.157	37.03
329.37	8.36
329.583	118.95
329.796	92.33
330.009	6.31
330.222	86.19
330.435	34.99
330.648	51.37
330.861	49.32
331.073	75.95
331.286	108.71
331.499	20.65
331.712	59.56
331.925	30.89
332.138	47.27
332.35	127.14
332.563	-14.17
332.776	69.8
332.989	2.22
333.202	41.13
333.414	30.89
333.627	73.9
333.84	86.19
334.053	65.71
334.265	26.79
334.478	53.42
334.691	8.36
334.903	59.56
335.116	4.27
335.329	22.7
335.541	129.19
335.754	41.13
335.966	-22.36
336.179	22.7
336.392	43.18
336.604	30.89
336.817	20.65
337.029	77.99
337.242	32.94
337.454	34.99
337.667	-30.55
337.88	133.29
338.092	53.42
338.305	0.17
338.517	8.36
338.729	80.04
338.942	80.04
339.154	2.22
339.367	-28.5
339.579	73.9
339.792	8.36
340.004	28.84
340.217	-20.31
340.429	39.08
340.641	82.09
340.854	24.75
341.066	55.47
341.278	112.81
341.491	102.57
341.703	51.37
341.915	26.79
342.128	98.47
342.34	104.62
342.552	30.89
342.764	0.17
342.977	30.89
343.189	98.47
343.401	63.66
343.613	22.7
343.826	18.6
344.038	-14.17
344.25	135.34
344.462	28.84
344.674	71.85
344.886	71.85
345.099	28.84
345.311	6.31
345.523	55.47
345.735	0.17
345.947	57.51
346.159	108.71
346.371	-22.36
346.583	37.03
346.795	59.56
347.007	41.13
347.219	-14.17
347.431	26.79
347.643	108.71
347.855	20.65
348.067	86.19
348.279	2.22
348.491	55.47
348.703	10.41
348.915	22.7
349.127	-42.84
349.339	65.71
349.551	51.37
349.763	129.19
349.975	94.38
350.187	80.04
350.399	104.62
350.61	41.13
350.822	24.75
351.034	59.56
351.246	67.75
351.458	77.99
351.669	102.57
351.881	80.04
352.093	131.24
352.305	57.51
352.517	-32.6
352.728	139.43
352.94	90.28
353.152	-5.97
353.363	-12.12
353.575	86.19
353.787	43.18
353.999	0.17
354.21	110.76
354.422	0.17
354.633	-28.5
354.845	34.99
355.057	26.79
355.268	90.28
355.48	51.37
355.692	2.22
355.903	53.42
356.115	-14.17
356.326	28.84
356.538	69.8
356.749	137.38
356.961	71.85
357.172	49.32
357.384	-40.79
357.595	178.34
357.807	43.18
358.018	45.23
358.23	127.14
358.441	90.28
358.653	55.47
358.864	-10.07
359.075	-1.88
359.287	-12.12
359.498	123.05
359.709	45.23
359.921	-18.26
360.132	100.52
360.344	102.57
360.555	51.37
360.766	28.84
360.977	37.03
361.189	137.38
361.4	-3.93
361.611	112.81
361.823	69.8
362.034	84.14
362.245	59.56
362.456	118.95
362.667	28.84
362.879	41.13
363.09	106.67
363.301	75.95
363.512	18.6
363.723	65.71
363.935	30.89
364.146	129.19
364.357	73.9
364.568	84.14
364.779	39.08
364.99	98.47
365.201	65.71
365.412	0.17
365.623	0.17
365.834	82.09
366.045	137.38
366.256	98.47
366.467	90.28
366.678	-16.21
366.889	30.89
367.1	24.75
367.311	67.75
367.522	84.14
367.733	100.52
367.944	49.32
368.155	139.43
368.366	37.03
368.577	102.57
368.788	166.06
368.999	-38.74
369.209	80.04
369.42	221.35
369.631	143.53
369.842	104.62
370.053	32.94
370.264	98.47
370.474	24.75
370.685	73.9
370.896	4.27
371.107	102.57
371.317	82.09
371.528	37.03
371.739	129.19
371.95	-26.45
372.16	65.71
372.371	49.32
372.582	65.71
372.792	41.13
373.003	100.52
373.214	57.51
373.424	39.08
373.635	22.7
373.846	161.96
374.056	18.6
374.267	75.95
374.477	102.57
374.688	22.7
374.898	114.86
375.109	14.51
375.319	131.24
375.53	57.51
375.74	98.47
375.951	94.38
376.161	4.27
376.372	86.19
376.582	-20.31
376.793	65.71
377.003	100.52
377.214	12.46
377.424	55.47
377.635	4.27
377.845	2.22
378.055	67.75
378.266	-5.97
378.476	94.38
378.686	80.04
378.897	4.27
379.107	94.38
379.317	92.33
379.528	73.9
379.738	34.99
379.948	-8.02
380.158	80.04
380.369	75.95
380.579	49.32
380.789	45.23
380.999	12.46
381.21	98.47
381.42	155.82
381.63	6.31
381.84	82.09
382.05	108.71
382.261	102.57
382.471	69.8
382.681	84.14
382.891	69.8
383.101	0.17
383.311	34.99
383.521	-20.31
383.731	69.8
383.941	57.51
384.151	41.13
384.361	-32.6
384.571	69.8
384.781	41.13
384.991	188.58
385.201	188.58
385.411	28.84
385.621	90.28
385.831	131.24
386.041	24.75
386.251	43.18
386.461	106.67
386.671	2.22
386.881	45.23
387.091	32.94
387.301	198.82
387.511	41.13
387.72	34.99
387.93	155.82
388.14	45.23
388.35	94.38
388.56	92.33
388.769	112.81
388.979	24.75
389.189	-10.07
389.399	69.8
389.609	41.13
389.818	69.8
390.028	51.37
390.238	73.9
390.447	90.28
390.657	34.99
390.867	34.99
391.076	61.61
391.286	131.24
391.496	49.32
391.705	164.01
391.915	45.23
392.125	147.62
392.334	24.75
392.544	51.37
392.753	86.19
392.963	-12.12
393.172	61.61
393.382	82.09
393.591	147.62
393.801	71.85
394.01	207.02
394.22	135.34
394.429	53.42
394.639	-8.02
394.848	155.82
395.058	30.89
395.267	16.55
395.477	102.57
395.686	84.14
395.895	143.53
396.105	157.86
396.314	123.05
396.524	-3.93
396.733	57.51
396.942	153.77
397.152	116.9
397.361	102.57
397.57	41.13
397.78	77.99
397.989	61.61
398.198	217.26
398.407	53.42
398.617	145.58
398.826	69.8
399.035	30.89
399.244	53.42
399.453	129.19
399.663	77.99
399.872	65.71
400.081	73.9
400.29	207.02
400.499	104.62
400.708	108.71
400.917	59.56
401.127	75.95
401.336	133.29
401.545	174.25
401.754	141.48
401.963	102.57
402.172	67.75
402.381	84.14
402.59	186.54
402.799	151.72
403.008	121
403.217	90.28
403.426	127.14
403.635	73.9
403.844	16.55
404.053	98.47
404.262	118.95
404.471	200.87
404.68	147.62
404.888	73.9
405.097	92.33
405.306	96.43
405.515	116.9
405.724	59.56
405.933	100.52
406.142	106.67
406.35	221.35
406.559	180.39
406.768	258.21
406.977	174.25
407.185	178.34
407.394	172.2
407.603	61.61
407.812	168.1
408.02	241.83
408.229	168.1
408.438	229.54
408.646	227.5
408.855	188.58
409.064	239.78
409.272	237.74
409.481	209.06
409.69	196.78
409.898	256.17
410.107	290.98
410.315	313.51
410.524	245.93
410.733	295.08
410.941	293.03
411.15	260.26
411.358	282.79
411.567	379.04
411.775	266.41
411.984	297.13
412.192	362.66
412.401	377
412.609	415.91
412.818	426.15
413.026	424.1
413.234	430.24
413.443	422.05
413.651	465.06
413.86	469.16
414.068	606.37
414.276	557.22
414.485	426.15
414.693	524.45
414.901	512.16
415.11	581.79
415.318	553.12
415.526	606.37
415.734	637.09
415.943	585.89
416.151	639.14
416.359	587.94
416.567	622.75
416.776	667.81
416.984	671.9
417.192	714.91
417.4	753.82
417.608	782.49
417.817	700.58
418.025	757.92
418.233	868.51
418.441	895.13
418.649	878.75
418.857	841.89
419.065	1024.16
419.273	954.52
419.481	1052.83
419.689	1118.36
419.897	1083.55
420.105	1071.26
420.313	1112.22
420.521	1247.38
420.729	1206.42
420.937	1163.42
421.145	1179.8
421.353	1417.37
421.561	1378.45
421.769	1413.27
421.977	1497.24
422.185	1564.82
422.393	1468.56
422.601	1599.63
422.809	1628.31
423.017	1611.92
423.224	1712.27
423.432	1884.3
423.64	1781.9
423.848	2052.24
424.056	1859.73
424.263	2031.76
424.471	2076.81
424.679	2066.57
424.887	2201.74
425.094	2369.67
425.302	2373.77
425.51	2332.81
425.718	2400.39
425.925	2527.36
426.133	2424.97
426.341	2773.12
426.548	2656.39
426.756	2828.42
426.964	2859.14
427.171	2947.2
427.379	3055.74
427.586	2955.39
427.794	3244.15
428.001	3244.15
428.209	3573.88
428.417	3465.33
428.624	3776.63
428.832	3663.99
429.039	3659.89
429.247	3674.23
429.454	4063.34
429.662	4300.91
429.869	4040.81
430.076	4315.24
430.284	4268.14
430.491	4251.75
430.699	4644.96
430.906	4745.31
431.114	4692.07
431.321	4819.04
431.528	4976.73
431.736	5171.29
431.943	5556.31
432.15	5333.08
432.358	5398.62
432.565	5941.33
432.772	5468.25
432.979	5924.94
433.187	6246.48
433.394	6029.39
433.601	6475.85
433.808	6611.01
434.016	6477.9
434.223	6735.94
434.43	7141.44
434.637	7157.82
434.844	7508.02
435.052	7585.85
435.259	7473.21
435.466	7809.08
435.673	7626.81
435.88	7985.2
436.087	8364.08
436.294	8445.99
436.501	8257.58
436.708	8489
436.915	8804.39
437.122	9256.99
437.329	9158.69
437.537	9533.47
437.743	9715.73
437.95	9623.58
438.157	9834.52
438.364	10291.21
438.571	10246.16
438.778	10543.11
438.985	11173.89
439.192	10833.93
439.399	11239.42
439.606	11329.53
439.813	11728.89
440.02	12226.54
440.227	12169.2
440.433	12140.53
440.64	12453.87
440.847	12339.18
441.054	12564.46
441.261	13576.16
441.467	13234.14
441.674	13707.23
441.881	14192.59
442.088	14118.87
442.294	14170.07
442.501	14505.93
442.708	14630.86
442.914	15226.82
443.121	16003
443.328	15454.14
443.534	16502.7
443.741	16037.81
443.948	15779.77
444.154	16891.82
444.361	17194.92
444.568	17258.4
444.774	17246.12
444.981	17215.4
445.187	17610.65
445.394	18339.73
445.6	18294.68
445.807	20055.93
446.013	19060.62
446.22	19443.59
446.426	20502.39
446.633	20692.85
446.839	21636.96
447.046	19998.59
447.252	21509.99
447.459	21507.94
447.665	21565.28
447.871	22615.89
448.078	23394.12
448.284	22280.02
448.491	23240.52
448.697	23652.16
448.903	24262.46
449.11	24166.2
449.316	23859.01
449.522	24577.84
449.728	25181.99
449.935	25331.5
450.141	25358.12
450.347	25806.62
450.553	25022.25
450.76	25501.48
450.966	26269.47
451.172	25632.55
451.378	26826.51
451.584	26150.68
451.791	26664.72
451.997	26953.49
452.203	27182.86
452.409	27102.99
452.615	27248.39
452.821	26005.28
453.027	25896.74
453.233	27260.68
453.44	26300.19
453.646	26631.96
453.852	26717.97
454.058	27307.79
454.264	26162.97
454.47	26912.53
454.676	26185.5
454.882	26943.25
455.088	24473.4
455.294	25329.45
455.5	25685.79
455.705	26054.43
455.911	24598.32
456.117	24100.67
456.323	24024.89
456.529	22796.11
456.735	23521.09
456.941	23019.34
457.147	22777.68
457.352	22122.33
457.558	21976.92
457.764	21866.33
457.97	21428.07
458.176	21069.67
458.381	20922.22
458.587	19976.06
458.793	19855.23
458.999	19007.37
459.204	20520.82
459.41	19838.84
459.616	18505.62
459.821	18519.95
460.027	18444.18
460.233	18161.56
460.438	17428.38
460.644	17471.39
460.85	16568.24
461.055	16347.06
461.261	16379.82
461.466	15044.55
461.672	14639.05
461.878	15628.22
462.083	14571.47
462.289	14364.62
462.494	14131.16
462.7	13264.86
462.905	13238.24
463.111	13621.21
463.316	13672.41
463.522	13520.86
463.727	13570.01
463.932	13275.1
464.138	13271.01
464.343	13244.38
464.549	12744.68
464.754	13385.69
464.959	13033.44
465.165	13017.06
465.37	12529.64
465.575	12142.58
465.781	12730.34
465.986	12937.19
466.191	12212.21
466.397	12111.86
466.602	11569.15
466.807	11917.3
467.012	12148.72
467.218	11864.05
