Data from USB4F104151__9__13-04-12-332.txt Node

Date: Fri Mar 14 13:04:12 EDT 2025
User: louis
Spectrometer: USB4F10415
Trigger mode: 4
Integration Time (sec): 4.000000E-2
Scans to average: 1
Electric dark correction enabled: true
Nonlinearity correction enabled: false
Boxcar width: 0
XAxis mode: Wavelengths
Number of Pixels in Spectrum: 3648
>>>>>Begin Spectral Data<<<<<
178.204	-215.89
178.424	-215.89
178.644	-215.89
178.864	-209.75
179.084	-269.14
179.304	11.43
179.524	-62.29
179.744	15.53
179.964	-41.81
180.184	42.15
180.404	83.11
180.624	60.59
180.844	40.11
181.064	-97.11
181.283	50.35
181.503	-45.91
181.723	-56.15
181.943	-78.68
182.163	-31.57
182.383	29.87
182.602	3.24
182.822	-4.95
183.042	-7
183.262	-27.48
183.482	3.24
183.701	9.39
183.921	-25.43
184.141	-23.38
184.361	11.43
184.58	-70.48
184.8	-68.44
185.02	36.01
185.239	13.48
185.459	-27.48
185.679	72.87
185.898	-66.39
186.118	36.01
186.338	-35.67
186.557	74.92
186.777	13.48
186.997	-0.85
187.216	19.63
187.436	87.21
187.655	81.07
187.875	79.02
188.095	-72.53
188.314	91.31
188.534	50.35
188.753	19.63
188.973	42.15
189.192	46.25
189.412	-7
189.631	11.43
189.851	11.43
190.07	74.92
190.29	-97.11
190.509	-7
190.729	11.43
190.948	44.2
191.168	109.74
191.387	79.02
191.607	-27.48
191.826	-11.09
192.045	40.11
192.265	54.44
192.484	7.34
192.704	-7
192.923	-7
193.142	134.31
193.362	-41.81
193.581	29.87
193.8	42.15
194.02	9.39
194.239	-11.09
194.458	56.49
194.678	-31.57
194.897	-11.09
195.116	23.72
195.335	66.73
195.555	42.15
195.774	-37.72
195.993	9.39
196.212	17.58
196.432	-2.9
196.651	-72.53
196.87	-27.48
197.089	70.83
197.308	-15.19
197.528	-37.72
197.747	-47.96
197.966	-9.05
198.185	46.25
198.404	-88.92
198.623	15.53
198.842	-0.85
199.062	52.39
199.281	13.48
199.5	29.87
199.719	33.96
199.938	44.2
200.157	66.73
200.376	-33.62
200.595	-29.52
200.814	85.16
201.033	36.01
201.252	76.97
201.471	-17.24
201.69	-25.43
201.909	40.11
202.128	-43.86
202.347	-21.33
202.566	-15.19
202.785	-43.86
203.004	-4.95
203.223	115.88
203.442	33.96
203.661	-84.82
203.879	7.34
204.098	31.91
204.317	-27.48
204.536	56.49
204.755	-2.9
204.974	-7
205.193	-39.76
205.411	115.88
205.63	-11.09
205.849	-19.29
206.068	-54.1
206.287	-13.14
206.505	-62.29
206.724	-31.57
206.943	-62.29
207.162	-31.57
207.381	25.77
207.599	-52.05
207.818	5.29
208.037	-35.67
208.255	15.53
208.474	29.87
208.693	42.15
208.911	-29.52
209.13	-9.05
209.349	-19.29
209.567	42.15
209.786	-52.05
210.005	54.44
210.223	-43.86
210.442	-86.87
210.661	93.35
210.879	-74.58
211.098	-19.29
211.316	25.77
211.535	48.3
211.753	-41.81
211.972	-15.19
212.191	-7
212.409	3.24
212.628	44.2
212.846	-70.48
213.065	62.63
213.283	48.3
213.502	-47.96
213.72	-2.9
213.938	27.82
214.157	-4.95
214.375	46.25
214.594	7.34
214.812	29.87
215.031	-19.29
215.249	-60.24
215.467	21.67
215.686	56.49
215.904	124.07
216.122	64.68
216.341	93.35
216.559	5.29
216.778	-15.19
216.996	-47.96
217.214	-47.96
217.432	-58.2
217.651	11.43
217.869	15.53
218.087	-37.72
218.306	17.58
218.524	56.49
218.742	11.43
218.96	42.15
219.179	-25.43
219.397	3.24
219.615	103.59
219.833	9.39
220.051	-60.24
220.27	74.92
220.488	-37.72
220.706	17.58
220.924	-11.09
221.142	-4.95
221.36	-101.2
221.578	-29.52
221.796	46.25
222.015	-41.81
222.233	-23.38
222.451	89.26
222.669	38.06
222.887	15.53
223.105	44.2
223.323	36.01
223.541	-15.19
223.759	54.44
223.977	-68.44
224.195	95.4
224.413	40.11
224.631	27.82
224.849	-2.9
225.067	101.55
225.285	7.34
225.503	-95.06
225.721	-54.1
225.939	-47.96
226.157	50.35
226.375	64.68
226.592	42.15
226.81	9.39
227.028	48.3
227.246	99.5
227.464	-56.15
227.682	36.01
227.9	54.44
228.117	-47.96
228.335	-29.52
228.553	-11.09
228.771	33.96
228.989	27.82
229.206	-9.05
229.424	56.49
229.642	48.3
229.86	-76.63
230.077	62.63
230.295	25.77
230.513	23.72
230.731	19.63
230.948	21.67
231.166	132.26
231.384	-47.96
231.601	-15.19
231.819	152.74
232.037	-23.38
232.254	-41.81
232.472	1.19
232.689	3.24
232.907	33.96
233.125	-54.1
233.342	89.26
233.56	-7
233.777	-41.81
233.995	-66.39
234.213	103.59
234.43	17.58
234.648	36.01
234.865	-31.57
235.083	50.35
235.3	-4.95
235.518	11.43
235.735	48.3
235.953	50.35
236.17	42.15
236.388	17.58
236.605	29.87
236.822	-37.72
237.04	44.2
237.257	64.68
237.475	-29.52
237.692	-7
237.909	31.91
238.127	-52.05
238.344	17.58
238.562	68.78
238.779	-97.11
238.996	-136.02
239.214	-15.19
239.431	62.63
239.648	-50
239.865	76.97
240.083	17.58
240.3	-45.91
240.517	70.83
240.735	33.96
240.952	54.44
241.169	89.26
241.386	44.2
241.603	-7
241.821	-11.09
242.038	105.64
242.255	7.34
242.472	-23.38
242.689	-31.57
242.907	52.39
243.124	-52.05
243.341	56.49
243.558	-21.33
243.775	-21.33
243.992	-11.09
244.209	-58.2
244.426	66.73
244.643	7.34
244.86	-19.29
245.078	-13.14
245.295	21.67
245.512	33.96
245.729	-13.14
245.946	-13.14
246.163	-31.57
246.38	-23.38
246.597	-2.9
246.814	33.96
247.031	-17.24
247.248	36.01
247.464	36.01
247.681	29.87
247.898	-13.14
248.115	-15.19
248.332	-86.87
248.549	33.96
248.766	17.58
248.983	103.59
249.2	-62.29
249.417	17.58
249.633	-86.87
249.85	-23.38
250.067	-15.19
250.284	3.24
250.501	76.97
250.717	13.48
250.934	44.2
251.151	-68.44
251.368	-11.09
251.585	3.24
251.801	-21.33
252.018	-56.15
252.235	58.54
252.451	3.24
252.668	-45.91
252.885	7.34
253.102	7.34
253.318	44.2
253.535	13.48
253.752	-33.62
253.968	-80.72
254.185	-70.48
254.401	-74.58
254.618	1.19
254.835	-7
255.051	74.92
255.268	-33.62
255.484	29.87
255.701	-27.48
255.917	-27.48
256.134	-95.06
256.351	-0.85
256.567	-47.96
256.784	19.63
257	-62.29
257.217	27.82
257.433	134.31
257.65	25.77
257.866	56.49
258.082	-80.72
258.299	-19.29
258.515	-27.48
258.732	15.53
258.948	-33.62
259.165	1.19
259.381	1.19
259.597	40.11
259.814	-80.72
260.03	60.59
260.246	-76.63
260.463	40.11
260.679	79.02
260.895	60.59
261.112	1.19
261.328	21.67
261.544	7.34
261.761	70.83
261.977	9.39
262.193	-99.16
262.409	-15.19
262.626	-0.85
262.842	-47.96
263.058	3.24
263.274	17.58
263.49	9.39
263.707	68.78
263.923	-7
264.139	-31.57
264.355	3.24
264.571	44.2
264.787	97.45
265.004	-27.48
265.22	-21.33
265.436	3.24
265.652	-15.19
265.868	19.63
266.084	-43.86
266.3	58.54
266.516	-41.81
266.732	-45.91
266.948	17.58
267.164	3.24
267.38	-7
267.596	27.82
267.812	91.31
268.028	29.87
268.244	-78.68
268.46	-80.72
268.676	-7
268.892	40.11
269.108	7.34
269.324	21.67
269.54	-82.77
269.756	132.26
269.972	-13.14
270.188	-56.15
270.403	-21.33
270.619	-11.09
270.835	-68.44
271.051	44.2
271.267	17.58
271.483	-19.29
271.698	-9.05
271.914	-17.24
272.13	-9.05
272.346	-35.67
272.562	-56.15
272.777	31.91
272.993	31.91
273.209	-82.77
273.425	50.35
273.64	-0.85
273.856	-0.85
274.072	-4.95
274.287	-7
274.503	50.35
274.719	52.39
274.934	-54.1
275.15	42.15
275.366	-43.86
275.581	-15.19
275.797	-2.9
276.012	-50
276.228	-60.24
276.444	-33.62
276.659	-11.09
276.875	-74.58
277.09	15.53
277.306	-2.9
277.521	-13.14
277.737	5.29
277.952	-0.85
278.168	-58.2
278.383	42.15
278.599	-70.48
278.814	1.19
279.03	33.96
279.245	3.24
279.461	33.96
279.676	56.49
279.892	-95.06
280.107	-43.86
280.322	42.15
280.538	13.48
280.753	-15.19
280.969	42.15
281.184	-64.34
281.399	68.78
281.615	-17.24
281.83	3.24
282.045	-29.52
282.26	-47.96
282.476	44.2
282.691	11.43
282.906	-23.38
283.122	11.43
283.337	-41.81
283.552	74.92
283.767	-11.09
283.983	-39.76
284.198	-19.29
284.413	-21.33
284.628	-7
284.843	13.48
285.058	46.25
285.274	-35.67
285.489	38.06
285.704	25.77
285.919	17.58
286.134	3.24
286.349	27.82
286.564	33.96
286.779	21.67
286.995	-23.38
287.21	-31.57
287.425	13.48
287.64	-19.29
287.855	36.01
288.07	-62.29
288.285	60.59
288.5	50.35
288.715	54.44
288.93	-17.24
289.145	1.19
289.36	23.72
289.575	-29.52
289.79	68.78
290.004	40.11
290.219	31.91
290.434	15.53
290.649	-19.29
290.864	-21.33
291.079	-41.81
291.294	3.24
291.509	9.39
291.724	-45.91
291.938	74.92
292.153	40.11
292.368	17.58
292.583	-9.05
292.798	25.77
293.012	93.35
293.227	-11.09
293.442	-13.14
293.657	66.73
293.871	68.78
294.086	46.25
294.301	58.54
294.516	50.35
294.73	21.67
294.945	1.19
295.16	31.91
295.374	54.44
295.589	62.63
295.804	-21.33
296.018	83.11
296.233	72.87
296.447	-29.52
296.662	-45.91
296.877	87.21
297.091	60.59
297.306	-56.15
297.52	1.19
297.735	56.49
297.949	-7
298.164	23.72
298.378	27.82
298.593	-39.76
298.807	7.34
299.022	50.35
299.236	46.25
299.451	-21.33
299.665	1.19
299.88	-4.95
300.094	-9.05
300.309	-43.86
300.523	-9.05
300.737	-4.95
300.952	50.35
301.166	40.11
301.381	-82.77
301.595	11.43
301.809	-13.14
302.024	-23.38
302.238	23.72
302.452	70.83
302.667	-50
302.881	97.45
303.095	74.92
303.309	-23.38
303.524	42.15
303.738	44.2
303.952	-84.82
304.166	-4.95
304.381	-66.39
304.595	21.67
304.809	3.24
305.023	-113.49
305.237	-45.91
305.452	-50
305.666	9.39
305.88	3.24
306.094	19.63
306.308	-35.67
306.522	-39.76
306.736	-17.24
306.95	31.91
307.164	-9.05
307.379	50.35
307.593	89.26
307.807	15.53
308.021	-4.95
308.235	-23.38
308.449	-47.96
308.663	-50
308.877	40.11
309.091	7.34
309.305	40.11
309.519	-70.48
309.733	70.83
309.947	-21.33
310.161	23.72
310.374	17.58
310.588	7.34
310.802	-25.43
311.016	-9.05
311.23	-0.85
311.444	3.24
311.658	-39.76
311.872	15.53
312.085	40.11
312.299	85.16
312.513	-27.48
312.727	-47.96
312.941	-15.19
313.154	1.19
313.368	81.07
313.582	68.78
313.796	31.91
314.009	-19.29
314.223	107.69
314.437	-0.85
314.651	19.63
314.864	-21.33
315.078	-25.43
315.292	-88.92
315.505	17.58
315.719	-37.72
315.933	46.25
316.146	-11.09
316.36	-58.2
316.573	50.35
316.787	-0.85
317.001	50.35
317.214	-43.86
317.428	17.58
317.641	7.34
317.855	-17.24
318.068	17.58
318.282	-15.19
318.495	21.67
318.709	50.35
318.922	-41.81
319.136	-7
319.349	25.77
319.563	-21.33
319.776	107.69
319.99	-68.44
320.203	-23.38
320.417	33.96
320.63	29.87
320.843	25.77
321.057	-7
321.27	-29.52
321.483	25.77
321.697	31.91
321.91	-9.05
322.124	19.63
322.337	-7
322.55	-109.4
322.763	-13.14
322.977	11.43
323.19	-17.24
323.403	-7
323.617	46.25
323.83	3.24
324.043	-23.38
324.256	-88.92
324.469	-27.48
324.683	81.07
324.896	-25.43
325.109	-47.96
325.322	-62.29
325.535	50.35
325.748	-56.15
325.962	-0.85
326.175	-15.19
326.388	-11.09
326.601	27.82
326.814	3.24
327.027	1.19
327.24	113.83
327.453	-29.52
327.666	-41.81
327.879	81.07
328.092	21.67
328.305	1.19
328.518	-78.68
328.731	64.68
328.944	-52.05
329.157	15.53
329.37	17.58
329.583	7.34
329.796	19.63
330.009	11.43
330.222	66.73
330.435	25.77
330.648	66.73
330.861	-9.05
331.073	21.67
331.286	17.58
331.499	13.48
331.712	-41.81
331.925	54.44
332.138	83.11
332.35	60.59
332.563	-64.34
332.776	85.16
332.989	-21.33
333.202	-23.38
333.414	-4.95
333.627	79.02
333.84	38.06
334.053	-23.38
334.265	50.35
334.478	9.39
334.691	72.87
334.903	9.39
335.116	3.24
335.329	-60.24
335.541	76.97
335.754	103.59
335.966	50.35
336.179	36.01
336.392	-99.16
336.604	-62.29
336.817	19.63
337.029	-13.14
337.242	1.19
337.454	46.25
337.667	21.67
337.88	40.11
338.092	58.54
338.305	74.92
338.517	38.06
338.729	36.01
338.942	-64.34
339.154	9.39
339.367	5.29
339.579	15.53
339.792	52.39
340.004	58.54
340.217	31.91
340.429	-7
340.641	-0.85
340.854	-35.67
341.066	-15.19
341.278	99.5
341.491	138.41
341.703	-7
341.915	54.44
342.128	-11.09
342.34	76.97
342.552	-37.72
342.764	38.06
342.977	-19.29
343.189	11.43
343.401	-17.24
343.613	-35.67
343.826	9.39
344.038	25.77
344.25	-39.76
344.462	5.29
344.674	66.73
344.886	19.63
345.099	-21.33
345.311	31.91
345.523	-7
345.735	5.29
345.947	54.44
346.159	-31.57
346.371	52.39
346.583	27.82
346.795	107.69
347.007	33.96
347.219	42.15
347.431	-9.05
347.643	66.73
347.855	-50
348.067	107.69
348.279	-7
348.491	-19.29
348.703	-13.14
348.915	87.21
349.127	-33.62
349.339	79.02
349.551	15.53
349.763	-7
349.975	15.53
350.187	33.96
350.399	-39.76
350.61	11.43
350.822	11.43
351.034	54.44
351.246	-31.57
351.458	70.83
351.669	68.78
351.881	21.67
352.093	33.96
352.305	66.73
352.517	-41.81
352.728	36.01
352.94	3.24
353.152	-19.29
353.363	42.15
353.575	33.96
353.787	54.44
353.999	-15.19
354.21	56.49
354.422	-19.29
354.633	7.34
354.845	-4.95
355.057	19.63
355.268	1.19
355.48	95.4
355.692	-43.86
355.903	-43.86
356.115	-33.62
356.326	27.82
356.538	74.92
356.749	68.78
356.961	36.01
357.172	-37.72
357.384	68.78
357.595	89.26
357.807	-45.91
358.018	-7
358.23	-60.24
358.441	74.92
358.653	107.69
358.864	33.96
359.075	-23.38
359.287	74.92
359.498	76.97
359.709	99.5
359.921	79.02
360.132	-37.72
360.344	11.43
360.555	-4.95
360.766	-4.95
360.977	17.58
361.189	-11.09
361.4	1.19
361.611	83.11
361.823	38.06
362.034	-27.48
362.245	-66.39
362.456	19.63
362.667	-4.95
362.879	13.48
363.09	-64.34
363.301	36.01
363.512	70.83
363.723	-60.24
363.935	33.96
364.146	52.39
364.357	21.67
364.568	40.11
364.779	-95.06
364.99	7.34
365.201	-41.81
365.412	68.78
365.623	1.19
365.834	42.15
366.045	-13.14
366.256	3.24
366.467	33.96
366.678	23.72
366.889	27.82
367.1	-17.24
367.311	44.2
367.522	60.59
367.733	91.31
367.944	-11.09
368.155	-21.33
368.366	3.24
368.577	21.67
368.788	74.92
368.999	-9.05
369.209	9.39
369.42	70.83
369.631	109.74
369.842	13.48
370.053	33.96
370.264	13.48
370.474	17.58
370.685	44.2
370.896	-23.38
371.107	50.35
371.317	44.2
371.528	27.82
371.739	130.22
371.95	31.91
372.16	-0.85
372.371	-60.24
372.582	9.39
372.792	72.87
373.003	36.01
373.214	-11.09
373.424	89.26
373.635	-7
373.846	109.74
374.056	17.58
374.267	54.44
374.477	-25.43
374.688	-52.05
374.898	48.3
375.109	60.59
375.319	27.82
375.53	72.87
375.74	-41.81
375.951	-27.48
376.161	25.77
376.372	93.35
376.582	-47.96
376.793	74.92
377.003	-7
377.214	-7
377.424	31.91
377.635	-78.68
377.845	-15.19
378.055	150.7
378.266	-11.09
378.476	93.35
378.686	17.58
378.897	152.74
379.107	81.07
379.317	44.2
379.528	-21.33
379.738	85.16
379.948	-45.91
380.158	52.39
380.369	5.29
380.579	-43.86
380.789	-23.38
380.999	62.63
381.21	83.11
381.42	50.35
381.63	-60.24
381.84	62.63
382.05	91.31
382.261	-19.29
382.471	72.87
382.681	9.39
382.891	117.93
383.101	15.53
383.311	-11.09
383.521	-15.19
383.731	95.4
383.941	76.97
384.151	-17.24
384.361	31.91
384.571	-17.24
384.781	21.67
384.991	54.44
385.201	205.99
385.411	54.44
385.621	46.25
385.831	21.67
386.041	33.96
386.251	68.78
386.461	-2.9
386.671	-47.96
386.881	70.83
387.091	-13.14
387.301	44.2
387.511	52.39
387.72	99.5
387.93	-11.09
388.14	-37.72
388.35	36.01
388.56	7.34
388.769	-7
388.979	-29.52
389.189	-43.86
389.399	58.54
389.609	-21.33
389.818	56.49
390.028	36.01
390.238	1.19
390.447	-45.91
390.657	107.69
390.867	103.59
391.076	-23.38
391.286	-29.52
391.496	52.39
391.705	38.06
391.915	126.12
392.125	99.5
392.334	83.11
392.544	62.63
392.753	-13.14
392.963	15.53
393.172	-58.2
393.382	15.53
393.591	91.31
393.801	3.24
394.01	99.5
394.22	48.3
394.429	66.73
394.639	-9.05
394.848	1.19
395.058	29.87
395.267	56.49
395.477	54.44
395.686	13.48
395.895	115.88
396.105	101.55
396.314	19.63
396.524	9.39
396.733	122.02
396.942	134.31
397.152	21.67
397.361	72.87
397.57	23.72
397.78	70.83
397.989	62.63
398.198	91.31
398.407	44.2
398.617	64.68
398.826	66.73
399.035	46.25
399.244	132.26
399.453	7.34
399.663	68.78
399.872	64.68
400.081	1.19
400.29	31.91
400.499	-52.05
400.708	119.98
400.917	50.35
401.127	50.35
401.336	31.91
401.545	68.78
401.754	44.2
401.963	95.4
402.172	91.31
402.381	-39.76
402.59	-37.72
402.799	103.59
403.008	56.49
403.217	5.29
403.426	52.39
403.635	109.74
403.844	27.82
404.053	25.77
404.262	111.78
404.471	165.03
404.68	79.02
404.888	165.03
405.097	58.54
405.306	132.26
405.515	220.33
405.724	72.87
405.933	156.84
406.142	165.03
406.35	191.66
406.559	167.08
406.768	50.35
406.977	162.98
407.185	93.35
407.394	158.89
407.603	79.02
407.812	177.32
408.02	222.38
408.229	132.26
408.438	197.8
408.646	105.64
408.855	140.46
409.064	169.13
409.272	134.31
409.481	257.19
409.69	181.42
409.898	171.18
410.107	269.48
410.315	249
410.524	154.79
410.733	234.66
410.941	134.31
411.15	289.96
411.358	312.49
411.567	283.81
411.775	322.73
411.984	253.09
412.192	343.21
412.401	304.29
412.609	392.36
412.818	461.99
413.026	296.1
413.234	330.92
413.443	351.4
413.651	306.34
413.86	382.12
414.068	427.17
414.276	408.74
414.485	390.31
414.693	572.58
414.901	515.23
415.11	558.24
415.318	437.41
415.526	496.8
415.734	568.48
415.943	470.18
416.151	634.02
416.359	666.78
416.567	515.23
416.776	615.59
416.984	672.93
417.192	699.55
417.4	730.27
417.608	709.79
417.817	636.06
418.025	826.53
418.233	849.05
418.441	734.37
418.649	820.38
418.857	879.77
419.065	849.05
419.273	959.64
419.481	920.73
419.689	1066.14
419.897	1090.71
420.105	1059.99
420.313	1123.48
420.521	1182.87
420.729	1178.78
420.937	1193.11
421.145	1275.03
421.353	1344.66
421.561	1363.09
421.769	1332.37
421.977	1379.48
422.185	1485.97
422.393	1553.55
422.601	1557.65
422.809	1625.23
423.017	1670.29
423.224	1754.26
423.432	1744.02
423.64	1803.41
423.848	2008.2
424.056	1916.05
424.263	2045.07
424.471	2122.89
424.679	2137.23
424.887	2022.54
425.094	2247.82
425.302	2208.9
425.51	2188.43
425.718	2534.53
425.925	2466.95
426.133	2487.43
426.341	2841.73
426.548	2862.21
426.756	2708.61
426.964	2880.64
427.171	3009.66
427.379	3118.2
427.586	3097.72
427.794	3279.99
428.001	3433.59
428.209	3566.71
428.417	3452.02
428.624	3683.44
428.832	3734.64
429.039	3785.84
429.247	3658.87
429.454	3959.92
429.662	4277.35
429.869	4056.17
430.076	4484.2
430.284	4387.94
430.491	4523.11
430.699	4639.84
430.906	4635.75
431.114	4863.07
431.321	4926.56
431.528	5076.06
431.736	5336.15
431.943	5559.38
432.15	5481.56
432.358	5489.75
432.565	5848.15
432.772	5551.19
432.979	6081.61
433.187	6061.13
433.394	6218.83
433.601	6669.38
433.808	6726.72
434.016	6636.61
434.223	6941.76
434.43	7482.42
434.637	7179.33
434.844	7679.03
435.052	7951.41
435.259	7746.61
435.466	7922.74
435.673	7756.85
435.88	8410.15
436.087	8619.05
436.294	8619.05
436.501	8498.22
436.708	8582.18
436.915	9024.54
437.122	9286.68
437.329	9040.93
437.537	9597.98
437.743	9716.76
437.95	9823.25
438.157	10052.63
438.364	10474.51
438.571	10478.6
438.778	10660.87
438.985	11578.36
439.192	11076.61
439.399	11584.51
439.606	11252.73
439.813	12051.44
440.02	12624.87
440.227	12332.01
440.433	12342.25
440.64	12594.15
440.847	12659.69
441.054	13134.82
441.261	13767.64
441.467	13489.12
441.674	13853.66
441.881	14281.68
442.088	14332.88
442.294	14300.11
442.501	14711.75
442.708	14894.02
442.914	15600.57
443.121	16245.68
443.328	15991.73
443.534	17073.06
443.741	16430
443.948	15965.11
444.154	17537.95
444.361	17374.11
444.568	17556.38
444.774	17335.2
444.981	17449.89
445.187	18396.05
445.394	18850.7
445.6	18750.35
445.807	20708.21
446.013	19483.52
446.22	19936.12
446.426	20829.04
446.633	20804.46
446.839	21850.97
447.046	20747.12
447.252	21703.52
447.459	22014.81
447.665	22002.52
447.871	22758.22
448.078	23841.6
448.284	22489.94
448.491	23542.6
448.697	24281.91
448.903	24683.31
449.11	24855.34
449.316	24345.4
449.522	24873.78
449.728	25709.35
449.935	25840.42
450.141	25875.23
450.347	26393.37
450.553	25422.63
450.76	26051.36
450.966	26995.47
451.172	26413.85
451.378	26979.09
451.584	26762
451.791	27534.09
451.997	27224.84
452.203	27577.09
452.409	27851.52
452.615	27583.24
452.821	26376.98
453.027	26223.39
453.233	27861.76
453.44	26815.25
453.646	26891.02
453.852	27292.43
454.058	27509.51
454.264	26465.05
454.47	27255.56
454.676	26741.52
454.882	27185.93
455.088	24896.3
455.294	25631.52
455.5	26129.18
455.705	26020.64
455.911	25174.83
456.117	24865.58
456.323	24146.75
456.529	23296.84
456.735	24212.28
456.941	23366.47
457.147	23081.8
457.352	22342.49
457.558	22174.55
457.764	22260.57
457.97	21627.74
458.176	21283.69
458.381	21056.36
458.587	20237.17
458.793	20001.66
458.999	19110.79
459.204	20437.87
459.41	19956.6
459.616	18703.25
459.821	18758.54
460.027	18723.72
460.233	18224.02
460.438	17236.9
460.644	17380.26
460.85	16870.31
461.055	16423.86
461.261	16393.14
461.466	15150.02
461.672	14595.02
461.878	15733.69
462.083	14617.55
462.289	14390.22
462.494	14166.99
462.7	13700.06
462.905	13290.46
463.111	14101.46
463.316	13929.43
463.522	13480.92
463.727	13505.5
463.932	13460.45
464.138	13362.14
464.343	13323.23
464.549	13054.95
464.754	13446.11
464.959	13351.9
465.165	13196.26
465.37	12692.46
465.575	12499.95
465.781	12862.44
465.986	13145.06
466.191	12444.65
466.397	12114.93
466.602	11375.61
466.807	12047.35
