Data from USB4F104151__5__12-23-19-228.txt Node

Date: Fri Mar 14 12:23:19 EDT 2025
User: louis
Spectrometer: USB4F10415
Trigger mode: 4
Integration Time (sec): 3.500000E-2
Scans to average: 1
Electric dark correction enabled: true
Nonlinearity correction enabled: false
Boxcar width: 0
XAxis mode: Wavelengths
Number of Pixels in Spectrum: 3648
>>>>>Begin Spectral Data<<<<<
178.204	-136.7
178.424	-136.7
178.644	-136.7
178.864	-97.79
179.084	-173.57
179.304	-9.73
179.524	-52.74
179.744	64
179.964	14.85
180.184	12.8
180.404	4.61
180.624	43.52
180.844	-44.54
181.064	-40.45
181.283	31.23
181.503	-46.59
181.723	23.04
181.943	-30.21
182.163	82.43
182.383	-36.35
182.602	23.04
182.822	16.9
183.042	55.81
183.262	-13.82
183.482	49.66
183.701	-15.87
183.921	51.71
184.141	4.61
184.361	16.9
184.58	90.62
184.8	-17.92
185.02	35.33
185.239	43.52
185.459	-15.87
185.679	82.43
185.898	-52.74
186.118	49.66
186.338	-7.68
186.557	51.71
186.777	10.75
186.997	55.81
187.216	-36.35
187.436	53.76
187.655	-24.06
187.875	-5.63
188.095	33.28
188.314	152.06
188.534	18.94
188.753	14.85
188.973	-7.68
189.192	25.09
189.412	33.28
189.631	47.62
189.851	57.86
190.07	35.33
190.29	64
190.509	-5.63
190.729	-19.97
190.948	-19.97
191.168	137.73
191.387	49.66
191.607	29.18
191.826	45.57
192.045	39.42
192.265	-50.69
192.484	-32.26
192.704	18.94
192.923	-26.11
193.142	76.29
193.362	31.23
193.581	82.43
193.8	-9.73
194.02	29.18
194.239	70.14
194.458	76.29
194.678	6.66
194.897	-65.02
195.116	-15.87
195.335	10.75
195.555	92.67
195.774	20.99
195.993	61.95
196.212	31.23
196.432	-67.07
196.651	-3.58
196.87	-1.54
197.089	55.81
197.308	-11.78
197.528	35.33
197.747	-9.73
197.966	25.09
198.185	98.81
198.404	-3.58
198.623	29.18
198.842	8.7
199.062	113.15
199.281	135.68
199.5	66.05
199.719	31.23
199.938	-7.68
200.157	66.05
200.376	-19.97
200.595	45.57
200.814	102.91
201.033	18.94
201.252	25.09
201.471	20.99
201.69	53.76
201.909	31.23
202.128	53.76
202.347	41.47
202.566	8.7
202.785	-15.87
203.004	-15.87
203.223	55.81
203.442	35.33
203.661	10.75
203.879	10.75
204.098	104.96
204.317	61.95
204.536	25.09
204.755	31.23
204.974	86.53
205.193	-81.41
205.411	92.67
205.63	53.76
205.849	33.28
206.068	-19.97
206.287	10.75
206.505	64
206.724	29.18
206.943	-24.06
207.162	-3.58
207.381	2.56
207.599	31.23
207.818	51.71
208.037	-46.59
208.255	-73.21
208.474	14.85
208.693	14.85
208.911	43.52
209.13	16.9
209.349	29.18
209.567	14.85
209.786	156.16
210.005	-50.69
210.223	16.9
210.442	-32.26
210.661	119.29
210.879	-40.45
211.098	14.85
211.316	12.8
211.535	49.66
211.753	49.66
211.972	41.47
212.191	39.42
212.409	45.57
212.628	-5.63
212.846	49.66
213.065	104.96
213.283	27.14
213.502	-48.64
213.72	43.52
213.938	4.61
214.157	-34.3
214.375	39.42
214.594	31.23
214.812	61.95
215.031	37.38
215.249	-32.26
215.467	80.38
215.686	0.51
215.904	92.67
216.122	78.33
216.341	107.01
216.559	-5.63
216.778	27.14
216.996	55.81
217.214	-38.4
217.432	2.56
217.651	39.42
217.869	6.66
218.087	55.81
218.306	74.24
218.524	94.72
218.742	18.94
218.96	12.8
219.179	-22.02
219.397	107.01
219.615	129.53
219.833	59.9
220.051	-44.54
220.27	8.7
220.488	-5.63
220.706	12.8
220.924	12.8
221.142	12.8
221.36	18.94
221.578	16.9
221.796	55.81
222.015	84.48
222.233	10.75
222.451	86.53
222.669	25.09
222.887	45.57
223.105	-7.68
223.323	53.76
223.541	-17.92
223.759	76.29
223.977	41.47
224.195	74.24
224.413	61.95
224.631	84.48
224.849	-11.78
225.067	61.95
225.285	6.66
225.503	-62.98
225.721	-7.68
225.939	14.85
226.157	64
226.375	119.29
226.592	-36.35
226.81	37.38
227.028	78.33
227.246	96.77
227.464	31.23
227.682	100.86
227.9	76.29
228.117	20.99
228.335	41.47
228.553	-28.16
228.771	53.76
228.989	-32.26
229.206	20.99
229.424	20.99
229.642	68.09
229.86	18.94
230.077	33.28
230.295	33.28
230.513	23.04
230.731	80.38
230.948	74.24
231.166	2.56
231.384	53.76
231.601	16.9
231.819	64
232.037	-17.92
232.254	25.09
232.472	80.38
232.689	-93.69
232.907	41.47
233.125	31.23
233.342	-9.73
233.56	-19.97
233.777	-32.26
233.995	64
234.213	102.91
234.43	14.85
234.648	70.14
234.865	-50.69
235.083	0.51
235.3	35.33
235.518	6.66
235.735	117.25
235.953	-15.87
236.17	25.09
236.388	-54.78
236.605	74.24
236.822	66.05
237.04	43.52
237.257	2.56
237.475	53.76
237.692	6.66
237.909	57.86
238.127	-42.5
238.344	70.14
238.562	78.33
238.779	-24.06
238.996	-11.78
239.214	33.28
239.431	33.28
239.648	-15.87
239.865	74.24
240.083	-1.54
240.3	47.62
240.517	-3.58
240.735	59.9
240.952	143.87
241.169	-11.78
241.386	39.42
241.603	27.14
241.821	41.47
242.038	49.66
242.255	-1.54
242.472	-9.73
242.689	107.01
242.907	23.04
243.124	20.99
243.341	45.57
243.558	-56.83
243.775	8.7
243.992	-48.64
244.209	31.23
244.426	107.01
244.643	72.19
244.86	27.14
245.078	41.47
245.295	39.42
245.512	-3.58
245.729	31.23
245.946	49.66
246.163	-17.92
246.38	-52.74
246.597	29.18
246.814	70.14
247.031	-28.16
247.248	31.23
247.464	16.9
247.681	-30.21
247.898	41.47
248.115	86.53
248.332	35.33
248.549	98.81
248.766	33.28
248.983	29.18
249.2	41.47
249.417	12.8
249.633	53.76
249.85	37.38
250.067	-13.82
250.284	18.94
250.501	102.91
250.717	98.81
250.934	-7.68
251.151	-9.73
251.368	-1.54
251.585	129.53
251.801	76.29
252.018	25.09
252.235	8.7
252.451	-15.87
252.668	47.62
252.885	57.86
253.102	41.47
253.318	45.57
253.535	-71.17
253.752	37.38
253.968	-17.92
254.185	-42.5
254.401	-19.97
254.618	-22.02
254.835	-7.68
255.051	29.18
255.268	-11.78
255.484	-13.82
255.701	-34.3
255.917	49.66
256.134	-1.54
256.351	41.47
256.567	55.81
256.784	2.56
257	-56.83
257.217	25.09
257.433	-7.68
257.65	20.99
257.866	27.14
258.082	-52.74
258.299	-15.87
258.515	-15.87
258.732	68.09
258.948	-15.87
259.165	4.61
259.381	10.75
259.597	47.62
259.814	-30.21
260.03	37.38
260.246	25.09
260.463	104.96
260.679	80.38
260.895	82.43
261.112	35.33
261.328	-50.69
261.544	45.57
261.761	72.19
261.977	-11.78
262.193	47.62
262.409	12.8
262.626	27.14
262.842	33.28
263.058	-26.11
263.274	27.14
263.49	64
263.707	29.18
263.923	55.81
264.139	-48.64
264.355	43.52
264.571	70.14
264.787	-50.69
265.004	78.33
265.22	23.04
265.436	-5.63
265.652	-5.63
265.868	137.73
266.084	51.71
266.3	-13.82
266.516	-15.87
266.732	59.9
266.948	2.56
267.164	37.38
267.38	27.14
267.596	-13.82
267.812	43.52
268.028	98.81
268.244	35.33
268.46	8.7
268.676	-28.16
268.892	33.28
269.108	0.51
269.324	-30.21
269.54	2.56
269.756	72.19
269.972	41.47
270.188	-44.54
270.403	94.72
270.619	41.47
270.835	-24.06
271.051	-24.06
271.267	68.09
271.483	-77.31
271.698	68.09
271.914	33.28
272.13	-22.02
272.346	-1.54
272.562	27.14
272.777	20.99
272.993	16.9
273.209	-3.58
273.425	-13.82
273.64	-5.63
273.856	72.19
274.072	49.66
274.287	10.75
274.503	16.9
274.719	8.7
274.934	82.43
275.15	49.66
275.366	37.38
275.581	-1.54
275.797	-13.82
276.012	-1.54
276.228	0.51
276.444	-13.82
276.659	-9.73
276.875	-58.88
277.09	35.33
277.306	-5.63
277.521	66.05
277.737	-42.5
277.952	68.09
278.168	25.09
278.383	25.09
278.599	121.34
278.814	96.77
279.03	16.9
279.245	129.53
279.461	59.9
279.676	51.71
279.892	33.28
280.107	139.77
280.322	55.81
280.538	55.81
280.753	-34.3
280.969	12.8
281.184	96.77
281.399	45.57
281.615	43.52
281.83	29.18
282.045	-17.92
282.26	-3.58
282.476	-50.69
282.691	76.29
282.906	31.23
283.122	57.86
283.337	-11.78
283.552	16.9
283.767	18.94
283.983	55.81
284.198	35.33
284.413	-26.11
284.628	-48.64
284.843	-22.02
285.058	43.52
285.274	-32.26
285.489	25.09
285.704	-3.58
285.919	10.75
286.134	53.76
286.349	14.85
286.564	47.62
286.779	8.7
286.995	57.86
287.21	-13.82
287.425	12.8
287.64	31.23
287.855	16.9
288.07	-26.11
288.285	74.24
288.5	47.62
288.715	64
288.93	-17.92
289.145	-22.02
289.36	90.62
289.575	35.33
289.79	55.81
290.004	-73.21
290.219	33.28
290.434	33.28
290.649	31.23
290.864	-26.11
291.079	27.14
291.294	43.52
291.509	-17.92
291.724	0.51
291.938	20.99
292.153	43.52
292.368	-26.11
292.583	27.14
292.798	8.7
293.012	84.48
293.227	4.61
293.442	2.56
293.657	-26.11
293.871	35.33
294.086	31.23
294.301	111.1
294.516	72.19
294.73	0.51
294.945	-11.78
295.16	76.29
295.374	82.43
295.589	76.29
295.804	-3.58
296.018	31.23
296.233	43.52
296.447	18.94
296.662	43.52
296.877	59.9
297.091	121.34
297.306	53.76
297.52	14.85
297.735	16.9
297.949	57.86
298.164	47.62
298.378	27.14
298.593	14.85
298.807	59.9
299.022	102.91
299.236	51.71
299.451	4.61
299.665	-17.92
299.88	57.86
300.094	31.23
300.309	68.09
300.523	-11.78
300.737	55.81
300.952	23.04
301.166	23.04
301.381	27.14
301.595	68.09
301.809	45.57
302.024	57.86
302.238	-26.11
302.452	68.09
302.667	59.9
302.881	41.47
303.095	31.23
303.309	64
303.524	66.05
303.738	4.61
303.952	41.47
304.166	55.81
304.381	-71.17
304.595	4.61
304.809	41.47
305.023	41.47
305.237	-24.06
305.452	-42.5
305.666	23.04
305.88	145.92
306.094	100.86
306.308	82.43
306.522	43.52
306.736	23.04
306.95	55.81
307.164	-15.87
307.379	70.14
307.593	61.95
307.807	90.62
308.021	80.38
308.235	104.96
308.449	-36.35
308.663	20.99
308.877	80.38
309.091	64
309.305	-56.83
309.519	35.33
309.733	72.19
309.947	-38.4
310.161	49.66
310.374	27.14
310.588	23.04
310.802	27.14
311.016	33.28
311.23	23.04
311.444	41.47
311.658	25.09
311.872	29.18
312.085	35.33
312.299	61.95
312.513	84.48
312.727	-15.87
312.941	-1.54
313.154	23.04
313.368	-32.26
313.582	59.9
313.796	12.8
314.009	33.28
314.223	61.95
314.437	25.09
314.651	92.67
314.864	-40.45
315.078	-28.16
315.292	12.8
315.505	70.14
315.719	29.18
315.933	59.9
316.146	53.76
316.36	14.85
316.573	125.44
316.787	66.05
317.001	90.62
317.214	-65.02
317.428	51.71
317.641	-17.92
317.855	31.23
318.068	64
318.282	57.86
318.495	23.04
318.709	61.95
318.922	10.75
319.136	107.01
319.349	70.14
319.563	-46.59
319.776	25.09
319.99	-5.63
320.203	-17.92
320.417	35.33
320.63	82.43
320.843	86.53
321.057	51.71
321.27	4.61
321.483	27.14
321.697	84.48
321.91	55.81
322.124	-46.59
322.337	80.38
322.55	-28.16
322.763	25.09
322.977	64
323.19	27.14
323.403	-13.82
323.617	16.9
323.83	59.9
324.043	74.24
324.256	70.14
324.469	35.33
324.683	33.28
324.896	37.38
325.109	31.23
325.322	51.71
325.535	111.1
325.748	57.86
325.962	51.71
326.175	41.47
326.388	59.9
326.601	35.33
326.814	80.38
327.027	8.7
327.24	8.7
327.453	-52.74
327.666	53.76
327.879	49.66
328.092	25.09
328.305	25.09
328.518	109.05
328.731	0.51
328.944	10.75
329.157	35.33
329.37	47.62
329.583	117.25
329.796	82.43
330.009	-79.36
330.222	104.96
330.435	90.62
330.648	74.24
330.861	29.18
331.073	88.57
331.286	43.52
331.499	16.9
331.712	-56.83
331.925	59.9
332.138	-19.97
332.35	37.38
332.563	-15.87
332.776	86.53
332.989	-22.02
333.202	27.14
333.414	64
333.627	39.42
333.84	68.09
334.053	6.66
334.265	-42.5
334.478	29.18
334.691	-32.26
334.903	49.66
335.116	0.51
335.329	-13.82
335.541	0.51
335.754	92.67
335.966	76.29
336.179	80.38
336.392	-3.58
336.604	61.95
336.817	76.29
337.029	104.96
337.242	27.14
337.454	59.9
337.667	10.75
337.88	86.53
338.092	39.42
338.305	31.23
338.517	10.75
338.729	-3.58
338.942	-3.58
339.154	-5.63
339.367	20.99
339.579	-11.78
339.792	-13.82
340.004	66.05
340.217	35.33
340.429	31.23
340.641	-17.92
340.854	-42.5
341.066	20.99
341.278	125.44
341.491	92.67
341.703	18.94
341.915	43.52
342.128	84.48
342.34	115.2
342.552	-28.16
342.764	-15.87
342.977	88.57
343.189	53.76
343.401	27.14
343.613	-52.74
343.826	-3.58
344.038	-30.21
344.25	76.29
344.462	-19.97
344.674	55.81
344.886	55.81
345.099	84.48
345.311	66.05
345.523	2.56
345.735	14.85
345.947	-36.35
346.159	59.9
346.371	100.86
346.583	96.77
346.795	154.11
347.007	41.47
347.219	37.38
347.431	-28.16
347.643	18.94
347.855	-44.54
348.067	41.47
348.279	14.85
348.491	6.66
348.703	29.18
348.915	39.42
349.127	-22.02
349.339	41.47
349.551	88.57
349.763	57.86
349.975	47.62
350.187	43.52
350.399	80.38
350.61	59.9
350.822	64
351.034	0.51
351.246	-38.4
351.458	43.52
351.669	111.1
351.881	72.19
352.093	0.51
352.305	88.57
352.517	45.57
352.728	72.19
352.94	-7.68
353.152	92.67
353.363	6.66
353.575	25.09
353.787	8.7
353.999	55.81
354.21	49.66
354.422	-26.11
354.633	25.09
354.845	-3.58
355.057	74.24
355.268	37.38
355.48	8.7
355.692	-46.59
355.903	78.33
356.115	14.85
356.326	-65.02
356.538	98.81
356.749	-24.06
356.961	102.91
357.172	37.38
357.384	-26.11
357.595	107.01
357.807	-36.35
358.018	39.42
358.23	18.94
358.441	61.95
358.653	6.66
358.864	37.38
359.075	31.23
359.287	88.57
359.498	123.39
359.709	96.77
359.921	18.94
360.132	119.29
360.344	31.23
360.555	61.95
360.766	29.18
360.977	74.24
361.189	41.47
361.4	-34.3
361.611	33.28
361.823	72.19
362.034	143.87
362.245	-40.45
362.456	53.76
362.667	23.04
362.879	-32.26
363.09	-3.58
363.301	33.28
363.512	29.18
363.723	0.51
363.935	25.09
364.146	66.05
364.357	12.8
364.568	70.14
364.779	-9.73
364.99	94.72
365.201	-17.92
365.412	39.42
365.623	4.61
365.834	35.33
366.045	-30.21
366.256	51.71
366.467	55.81
366.678	25.09
366.889	43.52
367.1	-13.82
367.311	-36.35
367.522	74.24
367.733	33.28
367.944	127.49
368.155	53.76
368.366	35.33
368.577	64
368.788	64
368.999	86.53
369.209	18.94
369.42	102.91
369.631	135.68
369.842	64
370.053	-36.35
370.264	23.04
370.474	76.29
370.685	82.43
370.896	6.66
371.107	74.24
371.317	107.01
371.528	-5.63
371.739	12.8
371.95	0.51
372.16	43.52
372.371	57.86
372.582	25.09
372.792	37.38
373.003	86.53
373.214	70.14
373.424	121.34
373.635	-75.26
373.846	82.43
374.056	39.42
374.267	20.99
374.477	20.99
374.688	-5.63
374.898	31.23
375.109	43.52
375.319	2.56
375.53	12.8
375.74	57.86
375.951	59.9
376.161	78.33
376.372	57.86
376.582	6.66
376.793	100.86
377.003	41.47
377.214	72.19
377.424	102.91
377.635	-11.78
377.845	0.51
378.055	43.52
378.266	-34.3
378.476	12.8
378.686	68.09
378.897	18.94
379.107	66.05
379.317	16.9
379.528	41.47
379.738	94.72
379.948	-28.16
380.158	64
380.369	53.76
380.579	33.28
380.789	8.7
380.999	6.66
381.21	57.86
381.42	125.44
381.63	53.76
381.84	51.71
382.05	111.1
382.261	86.53
382.471	20.99
382.681	35.33
382.891	76.29
383.101	-15.87
383.311	100.86
383.521	6.66
383.731	92.67
383.941	20.99
384.151	20.99
384.361	6.66
384.571	29.18
384.781	68.09
384.991	61.95
385.201	139.77
385.411	68.09
385.621	88.57
385.831	12.8
386.041	82.43
386.251	39.42
386.461	57.86
386.671	33.28
386.881	47.62
387.091	-1.54
387.301	66.05
387.511	18.94
387.72	107.01
387.93	70.14
388.14	27.14
388.35	129.53
388.56	104.96
388.769	53.76
388.979	47.62
389.189	-13.82
389.399	14.85
389.609	102.91
389.818	80.38
390.028	-36.35
390.238	109.05
390.447	59.9
390.657	64
390.867	64
391.076	-54.78
391.286	43.52
391.496	86.53
391.705	123.39
391.915	90.62
392.125	113.15
392.334	35.33
392.544	113.15
392.753	70.14
392.963	-28.16
393.172	14.85
393.382	0.51
393.591	94.72
393.801	37.38
394.01	147.97
394.22	74.24
394.429	41.47
394.639	53.76
394.848	57.86
395.058	84.48
395.267	47.62
395.477	88.57
395.686	182.78
395.895	139.77
396.105	94.72
396.314	-32.26
396.524	4.61
396.733	84.48
396.942	8.7
397.152	96.77
397.361	233.98
397.57	57.86
397.78	76.29
397.989	25.09
398.198	150.01
398.407	57.86
398.617	125.44
398.826	64
399.035	41.47
399.244	121.34
399.453	84.48
399.663	51.71
399.872	76.29
400.081	51.71
400.29	94.72
400.499	92.67
400.708	102.91
400.917	82.43
401.127	162.3
401.336	53.76
401.545	123.39
401.754	109.05
401.963	86.53
402.172	137.73
402.381	66.05
402.59	66.05
402.799	143.87
403.008	121.34
403.217	115.2
403.426	123.39
403.635	16.9
403.844	84.48
404.053	145.92
404.262	111.1
404.471	100.86
404.68	137.73
404.888	41.47
405.097	86.53
405.306	96.77
405.515	190.97
405.724	57.86
405.933	201.21
406.142	162.3
406.35	178.69
406.559	164.35
406.768	115.2
406.977	260.6
407.185	96.77
407.394	168.45
407.603	143.87
407.812	119.29
408.02	129.53
408.229	201.21
408.438	172.54
408.646	215.55
408.855	270.84
409.064	166.4
409.272	242.17
409.481	186.88
409.69	215.55
409.898	127.49
410.107	172.54
410.315	274.94
410.524	238.08
410.733	229.88
410.941	270.84
411.15	295.42
411.358	256.51
411.567	317.95
411.775	301.56
411.984	291.32
412.192	309.76
412.401	311.8
412.609	322.04
412.818	399.87
413.026	377.34
413.234	346.62
413.443	328.19
413.651	375.29
413.86	299.52
414.068	444.92
414.276	492.02
414.485	432.63
414.693	432.63
414.901	551.42
415.11	528.89
415.318	471.54
415.526	479.74
415.734	494.07
415.943	500.22
416.151	629.24
416.359	637.43
416.567	598.52
416.776	575.99
416.984	664.05
417.192	788.98
417.4	649.72
417.608	674.29
417.817	715.25
418.025	809.46
418.233	895.47
418.441	725.49
418.649	840.18
418.857	866.8
419.065	985.58
419.273	858.61
419.481	973.3
419.689	1008.11
419.897	1065.46
420.105	1077.74
420.313	1108.46
420.521	1100.27
420.729	1169.9
420.937	1147.37
421.145	1196.53
421.353	1346.03
421.561	1427.95
421.769	1358.32
421.977	1462.76
422.185	1429.99
422.393	1528.3
422.601	1608.17
422.809	1526.25
423.017	1612.26
423.224	1661.41
423.432	1739.24
423.64	1667.56
423.848	1907.17
424.056	1835.49
424.263	2056.67
424.471	1968.61
424.679	2034.14
424.887	2101.73
425.094	2236.89
425.302	2200.03
425.51	2322.91
425.718	2353.63
425.925	2396.64
426.133	2478.55
426.341	2423.26
426.548	2773.46
426.756	2793.94
426.964	2707.93
427.171	2925.01
427.379	2953.68
427.586	2988.5
427.794	3037.65
428.001	3195.34
428.209	3430.86
428.417	3369.42
428.624	3711.43
428.832	3664.33
429.039	3666.38
429.247	3652.04
429.454	4006.34
429.662	4118.98
429.869	3912.13
430.076	4125.12
430.284	4196.8
430.491	4391.36
430.699	4569.53
430.906	4661.69
431.114	4495.8
431.321	4698.55
431.528	4667.83
431.736	5077.43
431.943	5366.19
432.15	5226.93
432.358	5218.74
432.565	5769.64
432.772	5433.77
432.979	5689.77
433.187	5908.9
433.394	5945.77
433.601	6404.51
433.808	6590.88
434.016	6525.34
434.223	6658.46
434.43	7127.44
434.637	6934.93
434.844	7180.69
435.052	7571.85
435.259	7436.69
435.466	7661.96
435.673	7360.91
435.88	7795.08
436.087	8294.79
436.294	8384.9
436.501	8235.39
436.708	8245.63
436.915	8606.08
437.122	8964.47
437.329	9175.41
437.537	9245.04
437.743	9376.11
437.95	9531.76
438.157	9929.06
438.364	10103.14
438.571	10146.15
438.778	10217.83
438.985	11325.78
439.192	10643.81
439.399	11002.2
439.606	10699.1
439.813	11557.2
440.02	12101.96
440.227	11848.01
440.433	11946.31
440.64	12120.39
440.847	12001.61
441.054	12482.88
441.261	13394.23
441.467	13115.7
441.674	13455.67
441.881	13748.53
442.088	13723.95
442.294	13680.94
442.501	14154.02
442.708	14346.53
442.914	14731.55
443.121	15421.72
443.328	15309.08
443.534	16038.16
443.741	15735.06
443.948	15464.72
444.154	16668.93
444.361	16691.46
444.568	16728.32
444.774	16924.93
444.981	17154.3
445.187	17365.24
445.394	18245.87
445.6	17912.05
445.807	19683.54
446.013	18563.3
446.22	19316.95
446.426	20259.02
446.633	20017.36
446.839	20908.22
447.046	20117.71
447.252	20992.19
447.459	20854.98
447.665	21158.08
447.871	22231.21
448.078	23052.45
448.284	21813.43
448.491	22544.55
448.697	23292.06
448.903	23785.62
449.11	23822.48
449.316	23552.15
449.522	23963.79
449.728	24338.57
449.935	24889.48
450.141	24543.37
450.347	25467
450.553	24461.45
450.76	25061.51
450.966	25399.42
451.172	25307.26
451.378	25845.88
451.584	25374.84
451.791	26183.79
451.997	25858.17
452.203	26488.94
452.409	26478.7
452.615	25985.14
452.821	25153.66
453.027	24987.78
453.233	26579.05
453.44	25567.35
453.646	25712.76
453.852	25542.78
454.058	26151.02
454.264	25335.93
454.47	25784.44
454.676	24987.78
454.882	26249.33
455.088	24080.53
455.294	23875.73
455.5	24703.11
455.705	24666.25
455.911	23826.58
456.117	23376.03
456.323	22833.32
456.529	21608.63
456.735	22462.63
456.941	22311.08
457.147	21704.88
457.352	20906.18
457.558	20623.56
457.764	20668.61
457.97	20308.17
458.176	19661.01
458.381	20115.66
458.587	19009.76
458.793	19054.81
458.999	18039.02
459.204	19282.14
459.41	18792.67
459.616	17381.62
459.821	17760.5
460.027	17443.06
460.233	17035.52
460.438	16204.04
460.644	16447.75
460.85	15608.08
461.055	15452.44
461.261	15239.45
461.466	14086.44
461.672	13879.6
461.878	14573.86
462.083	13963.56
462.289	13578.54
462.494	13560.11
462.7	12736.83
462.905	12659.01
463.111	12790.08
463.316	12849.47
463.522	12558.66
463.727	12831.04
463.932	12775.74
464.138	12470.59
464.343	12613.95
464.549	12241.22
464.754	12380.48
464.959	12593.47
465.165	12556.61
465.37	11790.67
465.575	11571.54
465.781	12265.8
465.986	12032.33
466.191	11698.51
466.397	11422.03
466.602	10625.37
466.807	11460.95
467.012	11444.56
467.218	11149.65
467.423	11034.97
467.628	11217.24
467.833	11514.19
