Data from USB4F104151__47__12-23-57-199.txt Node

Date: Fri Mar 14 12:23:57 EDT 2025
User: louis
Spectrometer: USB4F10415
Trigger mode: 4
Integration Time (sec): 3.500000E-2
Scans to average: 1
Electric dark correction enabled: true
Nonlinearity correction enabled: false
Boxcar width: 0
XAxis mode: Wavelengths
Number of Pixels in Spectrum: 3648
>>>>>Begin Spectral Data<<<<<
178.204	-113.83
178.424	-113.83
178.644	-113.83
178.864	-93.35
179.084	-91.31
179.304	17.24
179.524	-23.72
179.744	-70.83
179.964	45.91
180.184	25.43
180.404	0.85
180.624	19.29
180.844	-33.96
181.064	-52.39
181.283	105.3
181.503	-56.49
181.723	23.38
181.943	21.33
182.163	37.72
182.383	9.05
182.602	86.87
182.822	72.53
183.042	9.05
183.262	58.2
183.482	58.2
183.701	21.33
183.921	50
184.141	19.29
184.361	54.1
184.58	19.29
184.8	33.62
185.02	50
185.239	97.11
185.459	78.68
185.679	70.48
185.898	9.05
186.118	54.1
186.338	45.91
186.557	50
186.777	17.24
186.997	97.11
187.216	60.24
187.436	80.72
187.655	90.96
187.875	86.87
188.095	4.95
188.314	127.83
188.534	76.63
188.753	-9.39
188.973	47.96
189.192	37.72
189.412	21.33
189.631	37.72
189.851	72.53
190.07	23.38
190.29	13.14
190.509	23.38
190.729	50
190.948	90.96
191.168	66.39
191.387	123.73
191.607	50
191.826	93.01
192.045	-52.39
192.265	66.39
192.484	95.06
192.704	93.01
192.923	45.91
193.142	111.44
193.362	117.59
193.581	105.3
193.8	31.57
194.02	86.87
194.239	60.24
194.458	101.2
194.678	47.96
194.897	-17.58
195.116	82.77
195.335	31.57
195.555	78.68
195.774	33.62
195.993	101.2
196.212	-31.91
196.432	19.29
196.651	25.43
196.87	62.29
197.089	74.58
197.308	64.34
197.528	-7.34
197.747	-33.96
197.966	-29.87
198.185	95.06
198.404	-1.19
198.623	70.48
198.842	41.81
199.062	70.48
199.281	115.54
199.5	-33.96
199.719	95.06
199.938	64.34
200.157	123.73
200.376	45.91
200.595	72.53
200.814	47.96
201.033	74.58
201.252	127.83
201.471	23.38
201.69	78.68
201.909	123.73
202.128	52.05
202.347	33.62
202.566	33.62
202.785	37.72
203.004	43.86
203.223	35.67
203.442	84.82
203.661	88.92
203.879	35.67
204.098	88.92
204.317	17.24
204.536	23.38
204.755	78.68
204.974	47.96
205.193	54.1
205.411	148.31
205.63	78.68
205.849	58.2
206.068	45.91
206.287	60.24
206.505	95.06
206.724	50
206.943	115.54
207.162	64.34
207.381	25.43
207.599	23.38
207.818	68.44
208.037	31.57
208.255	54.1
208.474	121.68
208.693	84.82
208.911	-9.39
209.13	37.72
209.349	-21.67
209.567	60.24
209.786	68.44
210.005	82.77
210.223	-17.58
210.442	9.05
210.661	105.3
210.879	58.2
211.098	58.2
211.316	66.39
211.535	45.91
211.753	-40.11
211.972	115.54
212.191	105.3
212.409	37.72
212.628	66.39
212.846	80.72
213.065	56.15
213.283	113.49
213.502	-33.96
213.72	25.43
213.938	76.63
214.157	-25.77
214.375	13.14
214.594	41.81
214.812	54.1
215.031	68.44
215.249	50
215.467	115.54
215.686	62.29
215.904	33.62
216.122	-15.53
216.341	117.59
216.559	4.95
216.778	35.67
216.996	99.16
217.214	45.91
217.432	-7.34
217.651	-11.43
217.869	129.88
218.087	54.1
218.306	13.14
218.524	31.57
218.742	43.86
218.96	68.44
219.179	68.44
219.397	37.72
219.615	138.07
219.833	80.72
220.051	29.52
220.27	90.96
220.488	21.33
220.706	31.57
220.924	54.1
221.142	31.57
221.36	21.33
221.578	39.76
221.796	50
222.015	68.44
222.233	115.54
222.451	93.01
222.669	15.19
222.887	62.29
223.105	29.52
223.323	19.29
223.541	-5.29
223.759	107.35
223.977	29.52
224.195	95.06
224.413	56.15
224.631	43.86
224.849	58.2
225.067	138.07
225.285	21.33
225.503	31.57
225.721	41.81
225.939	7
226.157	50
226.375	60.24
226.592	82.77
226.81	-23.72
227.028	54.1
227.246	86.87
227.464	93.01
227.682	138.07
227.9	80.72
228.117	154.45
228.335	88.92
228.553	9.05
228.771	111.44
228.989	88.92
229.206	80.72
229.424	35.67
229.642	25.43
229.86	31.57
230.077	7
230.295	66.39
230.513	86.87
230.731	54.1
230.948	45.91
231.166	54.1
231.384	86.87
231.601	86.87
231.819	97.11
232.037	25.43
232.254	31.57
232.472	29.52
232.689	45.91
232.907	95.06
233.125	-15.53
233.342	15.19
233.56	11.09
233.777	82.77
233.995	93.01
234.213	129.88
234.43	31.57
234.648	72.53
234.865	138.07
235.083	31.57
235.3	47.96
235.518	107.35
235.735	70.48
235.953	82.77
236.17	-3.24
236.388	74.58
236.605	9.05
236.822	74.58
237.04	41.81
237.257	78.68
237.475	-13.48
237.692	68.44
237.909	50
238.127	35.67
238.344	95.06
238.562	84.82
238.779	-25.77
238.996	45.91
239.214	43.86
239.431	74.58
239.648	9.05
239.865	107.35
240.083	136.02
240.3	39.76
240.517	99.16
240.735	125.78
240.952	131.92
241.169	78.68
241.386	29.52
241.603	2.9
241.821	-23.72
242.038	62.29
242.255	103.25
242.472	140.12
242.689	9.05
242.907	99.16
243.124	80.72
243.341	90.96
243.558	56.15
243.775	25.43
243.992	37.72
244.209	97.11
244.426	66.39
244.643	66.39
244.86	56.15
245.078	119.64
245.295	17.24
245.512	86.87
245.729	23.38
245.946	84.82
246.163	54.1
246.38	95.06
246.597	7
246.814	62.29
247.031	29.52
247.248	105.3
247.464	29.52
247.681	93.01
247.898	15.19
248.115	123.73
248.332	-27.82
248.549	54.1
248.766	123.73
248.983	43.86
249.2	111.44
249.417	58.2
249.633	15.19
249.85	64.34
250.067	54.1
250.284	43.86
250.501	101.2
250.717	41.81
250.934	-1.19
251.151	76.63
251.368	-31.91
251.585	47.96
251.801	23.38
252.018	17.24
252.235	52.05
252.451	-44.2
252.668	43.86
252.885	-62.63
253.102	25.43
253.318	0.85
253.535	68.44
253.752	-17.58
253.968	45.91
254.185	23.38
254.401	56.15
254.618	107.35
254.835	45.91
255.051	105.3
255.268	27.48
255.484	62.29
255.701	68.44
255.917	88.92
256.134	111.44
256.351	66.39
256.567	-33.96
256.784	35.67
257	-103.59
257.217	111.44
257.433	82.77
257.65	29.52
257.866	86.87
258.082	-7.34
258.299	23.38
258.515	138.07
258.732	50
258.948	80.72
259.165	-15.53
259.381	45.91
259.597	-46.25
259.814	-9.39
260.03	21.33
260.246	54.1
260.463	76.63
260.679	133.97
260.895	103.25
261.112	50
261.328	47.96
261.544	80.72
261.761	111.44
261.977	50
262.193	-7.34
262.409	39.76
262.626	25.43
262.842	56.15
263.058	52.05
263.274	29.52
263.49	54.1
263.707	31.57
263.923	-3.24
264.139	52.05
264.355	76.63
264.571	131.92
264.787	80.72
265.004	125.78
265.22	13.14
265.436	43.86
265.652	66.39
265.868	43.86
266.084	-29.87
266.3	58.2
266.516	72.53
266.732	21.33
266.948	29.52
267.164	50
267.38	76.63
267.596	37.72
267.812	68.44
268.028	93.01
268.244	23.38
268.46	-23.72
268.676	11.09
268.892	88.92
269.108	4.95
269.324	111.44
269.54	70.48
269.756	117.59
269.972	17.24
270.188	113.49
270.403	15.19
270.619	35.67
270.835	60.24
271.051	19.29
271.267	-1.19
271.483	58.2
271.698	33.62
271.914	52.05
272.13	27.48
272.346	23.38
272.562	-27.82
272.777	103.25
272.993	84.82
273.209	52.05
273.425	105.3
273.64	39.76
273.856	-21.67
274.072	43.86
274.287	0.85
274.503	52.05
274.719	99.16
274.934	45.91
275.15	-13.48
275.366	56.15
275.581	-1.19
275.797	95.06
276.012	99.16
276.228	41.81
276.444	19.29
276.659	113.49
276.875	-36.01
277.09	129.88
277.306	58.2
277.521	66.39
277.737	7
277.952	105.3
278.168	11.09
278.383	103.25
278.599	-3.24
278.814	142.16
279.03	11.09
279.245	95.06
279.461	4.95
279.676	82.77
279.892	-19.63
280.107	78.68
280.322	-5.29
280.538	101.2
280.753	11.09
280.969	35.67
281.184	62.29
281.399	58.2
281.615	35.67
281.83	-1.19
282.045	62.29
282.26	68.44
282.476	2.9
282.691	74.58
282.906	74.58
283.122	90.96
283.337	33.62
283.552	146.26
283.767	52.05
283.983	39.76
284.198	21.33
284.413	-11.43
284.628	95.06
284.843	78.68
285.058	31.57
285.274	123.73
285.489	19.29
285.704	58.2
285.919	93.01
286.134	52.05
286.349	43.86
286.564	78.68
286.779	37.72
286.995	50
287.21	13.14
287.425	78.68
287.64	29.52
287.855	54.1
288.07	27.48
288.285	72.53
288.5	27.48
288.715	-46.25
288.93	52.05
289.145	103.25
289.36	45.91
289.575	60.24
289.79	68.44
290.004	21.33
290.219	115.54
290.434	21.33
290.649	43.86
290.864	-11.43
291.079	101.2
291.294	47.96
291.509	52.05
291.724	4.95
291.938	15.19
292.153	174.93
292.368	43.86
292.583	99.16
292.798	105.3
293.012	103.25
293.227	93.01
293.442	41.81
293.657	90.96
293.871	133.97
294.086	105.3
294.301	107.35
294.516	140.12
294.73	119.64
294.945	27.48
295.16	35.67
295.374	82.77
295.589	103.25
295.804	11.09
296.018	146.26
296.233	117.59
296.447	47.96
296.662	54.1
296.877	78.68
297.091	76.63
297.306	84.82
297.52	11.09
297.735	62.29
297.949	80.72
298.164	35.67
298.378	52.05
298.593	-5.29
298.807	60.24
299.022	37.72
299.236	41.81
299.451	43.86
299.665	90.96
299.88	15.19
300.094	111.44
300.309	86.87
300.523	-23.72
300.737	25.43
300.952	-9.39
301.166	68.44
301.381	70.48
301.595	80.72
301.809	25.43
302.024	27.48
302.238	56.15
302.452	52.05
302.667	54.1
302.881	119.64
303.095	82.77
303.309	80.72
303.524	21.33
303.738	-11.43
303.952	19.29
304.166	62.29
304.381	47.96
304.595	111.44
304.809	66.39
305.023	70.48
305.237	21.33
305.452	29.52
305.666	56.15
305.88	74.58
306.094	138.07
306.308	68.44
306.522	84.82
306.736	103.25
306.95	99.16
307.164	43.86
307.379	45.91
307.593	90.96
307.807	64.34
308.021	47.96
308.235	64.34
308.449	-42.15
308.663	2.9
308.877	72.53
309.091	74.58
309.305	52.05
309.519	19.29
309.733	129.88
309.947	9.05
310.161	90.96
310.374	90.96
310.588	133.97
310.802	37.72
311.016	27.48
311.23	144.21
311.444	62.29
311.658	66.39
311.872	174.93
312.085	17.24
312.299	64.34
312.513	80.72
312.727	37.72
312.941	15.19
313.154	101.2
313.368	111.44
313.582	-3.24
313.796	50
314.009	52.05
314.223	58.2
314.437	115.54
314.651	117.59
314.864	45.91
315.078	88.92
315.292	35.67
315.505	58.2
315.719	62.29
315.933	101.2
316.146	52.05
316.36	21.33
316.573	84.82
316.787	82.77
317.001	56.15
317.214	-29.87
317.428	62.29
317.641	52.05
317.855	29.52
318.068	93.01
318.282	70.48
318.495	99.16
318.709	97.11
318.922	25.43
319.136	62.29
319.349	136.02
319.563	47.96
319.776	7
319.99	64.34
320.203	35.67
320.417	-9.39
320.63	84.82
320.843	95.06
321.057	70.48
321.27	68.44
321.483	78.68
321.697	117.59
321.91	88.92
322.124	13.14
322.337	11.09
322.55	33.62
322.763	37.72
322.977	54.1
323.19	64.34
323.403	35.67
323.617	90.96
323.83	160.59
324.043	60.24
324.256	101.2
324.469	-17.58
324.683	140.12
324.896	31.57
325.109	56.15
325.322	74.58
325.535	45.91
325.748	27.48
325.962	-11.43
326.175	37.72
326.388	13.14
326.601	76.63
326.814	78.68
327.027	29.52
327.24	144.21
327.453	-11.43
327.666	54.1
327.879	33.62
328.092	56.15
328.305	99.16
328.518	-1.19
328.731	23.38
328.944	43.86
329.157	84.82
329.37	21.33
329.583	58.2
329.796	164.69
330.009	35.67
330.222	84.82
330.435	80.72
330.648	39.76
330.861	47.96
331.073	70.48
331.286	64.34
331.499	21.33
331.712	15.19
331.925	52.05
332.138	43.86
332.35	41.81
332.563	54.1
332.776	52.05
332.989	82.77
333.202	-13.48
333.414	82.77
333.627	41.81
333.84	9.05
334.053	76.63
334.265	9.05
334.478	19.29
334.691	47.96
334.903	113.49
335.116	29.52
335.329	111.44
335.541	41.81
335.754	168.79
335.966	56.15
336.179	99.16
336.392	43.86
336.604	15.19
336.817	113.49
337.029	70.48
337.242	-3.24
337.454	45.91
337.667	54.1
337.88	158.55
338.092	62.29
338.305	33.62
338.517	80.72
338.729	121.68
338.942	152.4
339.154	68.44
339.367	45.91
339.579	111.44
339.792	78.68
340.004	84.82
340.217	-13.48
340.429	99.16
340.641	66.39
340.854	-5.29
341.066	131.92
341.278	41.81
341.491	23.38
341.703	4.95
341.915	11.09
342.128	105.3
342.34	33.62
342.552	27.48
342.764	74.58
342.977	68.44
343.189	47.96
343.401	-1.19
343.613	9.05
343.826	45.91
344.038	35.67
344.25	168.79
344.462	50
344.674	45.91
344.886	84.82
345.099	54.1
345.311	39.76
345.523	109.4
345.735	19.29
345.947	70.48
346.159	70.48
346.371	-1.19
346.583	-5.29
346.795	82.77
347.007	-17.58
347.219	129.88
347.431	41.81
347.643	62.29
347.855	113.49
348.067	68.44
348.279	-9.39
348.491	154.45
348.703	86.87
348.915	95.06
349.127	50
349.339	9.05
349.551	11.09
349.763	158.55
349.975	-17.58
350.187	60.24
350.399	45.91
350.61	68.44
350.822	47.96
351.034	82.77
351.246	29.52
351.458	64.34
351.669	33.62
351.881	78.68
352.093	131.92
352.305	115.54
352.517	62.29
352.728	129.88
352.94	41.81
353.152	80.72
353.363	50
353.575	136.02
353.787	93.01
353.999	35.67
354.21	152.4
354.422	86.87
354.633	80.72
354.845	136.02
355.057	52.05
355.268	35.67
355.48	121.68
355.692	109.4
355.903	70.48
356.115	13.14
356.326	-17.58
356.538	123.73
356.749	72.53
356.961	86.87
357.172	56.15
357.384	70.48
357.595	74.58
357.807	45.91
358.018	68.44
358.23	15.19
358.441	97.11
358.653	66.39
358.864	80.72
359.075	86.87
359.287	121.68
359.498	115.54
359.709	60.24
359.921	43.86
360.132	29.52
360.344	66.39
360.555	70.48
360.766	131.92
360.977	41.81
361.189	111.44
361.4	101.2
361.611	121.68
361.823	150.36
362.034	119.64
362.245	-36.01
362.456	35.67
362.667	105.3
362.879	95.06
363.09	125.78
363.301	123.73
363.512	74.58
363.723	25.43
363.935	62.29
364.146	90.96
364.357	86.87
364.568	39.76
364.779	123.73
364.99	45.91
365.201	97.11
365.412	80.72
365.623	-40.11
365.834	103.25
366.045	56.15
366.256	160.59
366.467	-3.24
366.678	41.81
366.889	41.81
367.1	35.67
367.311	86.87
367.522	62.29
367.733	37.72
367.944	148.31
368.155	88.92
368.366	90.96
368.577	97.11
368.788	140.12
368.999	-17.58
369.209	72.53
369.42	129.88
369.631	228.18
369.842	125.78
370.053	66.39
370.264	158.55
370.474	21.33
370.685	41.81
370.896	56.15
371.107	66.39
371.317	39.76
371.528	29.52
371.739	105.3
371.95	97.11
372.16	80.72
372.371	47.96
372.582	80.72
372.792	103.25
373.003	183.12
373.214	29.52
373.424	33.62
373.635	41.81
373.846	138.07
374.056	70.48
374.267	56.15
374.477	185.17
374.688	62.29
374.898	93.01
375.109	54.1
375.319	76.63
375.53	117.59
375.74	99.16
375.951	35.67
376.161	76.63
376.372	117.59
376.582	0.85
376.793	170.83
377.003	74.58
377.214	25.43
377.424	107.35
377.635	103.25
377.845	-7.34
378.055	123.73
378.266	66.39
378.476	88.92
378.686	95.06
378.897	80.72
379.107	64.34
379.317	-11.43
379.528	45.91
379.738	64.34
379.948	43.86
380.158	86.87
380.369	136.02
380.579	115.54
380.789	97.11
380.999	62.29
381.21	72.53
381.42	74.58
381.63	66.39
381.84	74.58
382.05	142.16
382.261	119.64
382.471	97.11
382.681	82.77
382.891	115.54
383.101	187.22
383.311	9.05
383.521	52.05
383.731	117.59
383.941	95.06
384.151	113.49
384.361	50
384.571	47.96
384.781	156.5
384.991	150.36
385.201	152.4
385.411	105.3
385.621	93.01
385.831	111.44
386.041	142.16
386.251	72.53
386.461	123.73
386.671	99.16
386.881	41.81
387.091	93.01
387.301	95.06
387.511	99.16
387.72	144.21
387.93	150.36
388.14	4.95
388.35	107.35
388.56	123.73
388.769	60.24
388.979	37.72
389.189	136.02
389.399	90.96
389.609	93.01
389.818	138.07
390.028	74.58
390.238	129.88
390.447	-13.48
390.657	172.88
390.867	109.4
391.076	84.82
391.286	125.78
391.496	93.01
391.705	146.26
391.915	62.29
392.125	58.2
392.334	129.88
392.544	93.01
392.753	93.01
392.963	84.82
393.172	113.49
393.382	150.36
393.591	164.69
393.801	113.49
394.01	146.26
394.22	125.78
394.429	125.78
394.639	111.44
394.848	164.69
395.058	117.59
395.267	129.88
395.477	82.77
395.686	37.72
395.895	142.16
396.105	181.07
396.314	123.73
396.524	160.59
396.733	103.25
396.942	150.36
397.152	103.25
397.361	215.89
397.57	142.16
397.78	93.01
397.989	174.93
398.198	140.12
398.407	170.83
398.617	74.58
398.826	111.44
399.035	150.36
399.244	170.83
399.453	127.83
399.663	187.22
399.872	164.69
400.081	136.02
400.29	236.37
400.499	150.36
400.708	142.16
400.917	166.74
401.127	164.69
401.336	201.55
401.545	209.75
401.754	189.27
401.963	179.03
402.172	172.88
402.381	170.83
402.59	187.22
402.799	136.02
403.008	260.95
403.217	152.4
403.426	129.88
403.635	127.83
403.844	207.7
404.053	209.75
404.262	140.12
404.471	267.09
404.68	205.65
404.888	189.27
405.097	219.99
405.306	219.99
405.515	183.12
405.724	203.6
405.933	279.38
406.142	160.59
406.35	277.33
406.559	199.51
406.768	277.33
406.977	234.32
407.185	219.99
407.394	262.99
407.603	123.73
407.812	279.38
408.02	314.19
408.229	324.43
408.438	299.86
408.646	301.9
408.855	293.71
409.064	318.29
409.272	310.1
409.481	353.1
409.69	410.45
409.898	318.29
410.107	439.12
410.315	336.72
410.524	301.9
410.733	473.93
410.941	451.41
411.15	439.12
411.358	471.89
411.567	570.19
411.775	496.46
411.984	486.22
412.192	498.51
412.401	592.72
412.609	615.24
412.818	576.33
413.026	621.39
413.234	643.92
413.443	617.29
413.651	639.82
413.86	693.07
414.068	838.47
414.276	815.94
414.485	758.6
414.693	807.75
414.901	834.38
415.11	799.56
415.318	881.48
415.526	947.01
415.734	916.3
415.943	1061.7
416.151	1088.32
416.359	942.92
416.567	998.21
416.776	1239.87
416.984	1209.15
417.192	1295.17
417.4	1231.68
417.608	1282.88
417.817	1264.45
418.025	1356.61
418.233	1479.49
418.441	1405.76
418.649	1428.29
418.857	1624.89
419.065	1692.48
419.273	1577.79
419.481	1731.39
419.689	1749.82
419.897	1864.5
420.105	1917.75
420.313	2001.72
420.521	2044.73
420.729	2177.84
420.937	2118.45
421.145	2181.94
421.353	2341.68
421.561	2425.65
421.769	2499.38
421.977	2571.05
422.185	2573.1
422.393	2759.47
422.601	2915.11
422.809	2861.87
423.017	2857.77
423.224	3076.9
423.432	3126.05
423.64	3242.79
423.848	3437.34
424.056	3349.28
424.263	3468.06
424.471	3470.11
424.679	3736.35
424.887	3832.6
425.094	3898.14
425.302	4080.41
425.51	4250.39
425.718	4373.27
425.925	4414.23
426.133	4606.74
426.341	4694.8
426.548	5006.09
426.756	4870.92
426.964	4924.17
427.171	5055.24
427.379	5382.92
427.586	5640.96
427.794	5726.97
428.001	6062.84
428.209	6179.58
428.417	6007.55
428.624	6638.32
428.832	6411
429.039	6509.3
429.247	6552.31
429.454	7105.26
429.662	7549.67
429.869	7121.64
430.076	7559.91
430.284	7396.07
430.491	7848.67
430.699	8170.2
430.906	8211.16
431.114	8458.96
431.321	8649.43
431.528	8770.26
431.736	9425.61
431.943	9714.37
432.15	9536.2
432.358	9626.31
432.565	10189.5
432.772	9870.01
432.979	10644.15
433.187	10730.16
433.394	10826.42
433.601	11623.08
433.808	11416.23
434.016	11549.35
434.223	12266.14
434.43	12731.03
434.637	12690.07
434.844	13333.13
435.052	13443.72
435.259	13365.9
435.466	13740.68
435.673	13619.85
435.88	14381.69
436.087	15108.72
436.294	15211.12
436.501	14643.83
436.708	14979.7
436.915	15678.05
437.122	16331.36
437.329	16245.34
437.537	17099.34
437.743	16955.99
437.95	17199.69
438.157	17627.72
438.364	18233.92
438.571	18156.1
438.778	18432.57
438.985	20402.72
439.192	19577.39
439.399	20017.7
439.606	19741.22
439.813	20709.91
440.02	21983.75
440.227	21654.03
440.433	21328.4
440.64	22125.06
440.847	21946.89
441.054	22561.28
441.261	23964.14
441.467	23620.08
441.674	24152.55
441.881	25430.48
442.088	25076.18
442.294	24994.26
442.501	25268.69
442.708	26184.13
442.914	27003.32
443.121	27890.09
443.328	27474.35
443.534	29387.16
443.741	28909.98
443.948	27908.52
444.154	30318.98
444.361	30120.33
444.568	30224.78
444.774	30550.4
444.981	30534.02
445.187	31226.23
445.394	32889.18
445.6	32409.96
445.807	35434.81
446.013	33759.57
446.22	34333
446.426	36122.93
446.633	36436.27
446.839	37216.54
447.046	35946.8
447.252	38076.69
447.459	38140.18
447.665	37980.43
447.871	39493.88
448.078	41437.41
448.284	39321.85
448.491	40247.54
448.697	41791.7
448.903	42393.81
449.11	42539.21
449.316	41842.9
449.522	43028.68
449.728	44103.86
449.935	44382.38
450.141	43956.41
450.347	45066.41
450.553	44003.51
450.76	44556.46
450.966	45770.91
451.172	45121.7
451.378	46422.16
451.584	45590.69
451.791	46303.38
451.997	46119.06
452.203	47315.08
452.409	47141
452.615	46637.2
452.821	45060.26
453.027	44652.72
453.233	46682.25
453.44	45127.84
453.646	45826.2
453.852	45682.84
454.058	46280.85
454.264	45017.25
454.47	45863.07
454.676	44710.06
454.882	46753.93
455.088	42604.75
455.294	42676.43
455.5	43710.65
455.705	43778.23
455.911	42361.04
456.117	41408.73
456.323	40976.61
456.529	38969.6
456.735	40548.59
456.941	39487.74
457.147	38793.48
457.352	37538.07
457.558	37239.07
457.764	37134.62
457.97	36497.7
458.176	36069.68
458.381	35719.48
458.587	33644.88
458.793	33620.31
458.999	32137.58
459.204	34357.58
459.41	33827.15
459.616	31068.54
459.821	31402.36
460.027	31355.25
460.233	30380.42
460.438	29301.14
460.644	29196.7
460.85	28017.07
461.055	27384.24
461.261	27503.03
461.466	25569.74
461.672	24719.84
461.878	26565.06
462.083	24898.01
462.289	24056.29
462.494	24041.96
462.7	22972.92
462.905	22219.27
463.111	23259.63
463.316	23007.73
463.522	22753.79
463.727	22974.97
463.932	22919.67
464.138	22462.97
464.343	22456.83
464.549	22077.96
464.754	22886.9
464.959	22481.41
465.165	22360.58
465.37	21443.09
465.575	20750.87
465.781	21445.13
465.986	21772.81
466.191	20851.22
466.397	20726.3
466.602	19231.28
466.807	20173.35
