Data from USB4F104151__73__12-24-18-546.txt Node

Date: Fri Mar 14 12:24:18 EDT 2025
User: louis
Spectrometer: USB4F10415
Trigger mode: 4
Integration Time (sec): 3.500000E-2
Scans to average: 1
Electric dark correction enabled: true
Nonlinearity correction enabled: false
Boxcar width: 0
XAxis mode: Wavelengths
Number of Pixels in Spectrum: 3648
>>>>>Begin Spectral Data<<<<<
178.204	-215.04
178.424	-215.04
178.644	-215.04
178.864	-196.61
179.084	-184.32
179.304	-4.1
179.524	-10.24
179.744	-34.82
179.964	47.1
180.184	57.34
180.404	-34.82
180.624	81.92
180.844	12.29
181.064	-20.48
181.283	-32.77
181.503	-47.1
181.723	-14.34
181.943	-43.01
182.163	53.25
182.383	-88.06
182.602	8.19
182.822	-16.38
183.042	-30.72
183.262	-53.25
183.482	-67.58
183.701	-2.05
183.921	-4.1
184.141	-59.39
184.361	-0
184.58	-4.1
184.8	-61.44
185.02	-38.91
185.239	6.14
185.459	20.48
185.679	77.82
185.898	-51.2
186.118	40.96
186.338	-28.67
186.557	12.29
186.777	-36.86
186.997	-22.53
187.216	-6.14
187.436	26.62
187.655	40.96
187.875	-4.1
188.095	-75.77
188.314	18.43
188.534	-40.96
188.753	-40.96
188.973	73.73
189.192	-43.01
189.412	65.53
189.631	-22.53
189.851	2.05
190.07	57.34
190.29	-57.34
190.509	-83.97
190.729	24.58
190.948	-36.86
191.168	131.07
191.387	90.11
191.607	-30.72
191.826	-14.34
192.045	-26.62
192.265	79.87
192.484	6.14
192.704	36.86
192.923	-30.72
193.142	65.53
193.362	49.15
193.581	18.43
193.8	6.14
194.02	71.68
194.239	-36.86
194.458	8.19
194.678	-24.58
194.897	30.72
195.116	-47.1
195.335	-6.14
195.555	-26.62
195.774	-59.39
195.993	28.67
196.212	-32.77
196.432	-10.24
196.651	28.67
196.87	-14.34
197.089	100.35
197.308	24.58
197.528	14.34
197.747	22.53
197.966	-65.54
198.185	83.97
198.404	-55.3
198.623	-26.62
198.842	8.19
199.062	4.1
199.281	16.38
199.5	-55.3
199.719	65.53
199.938	12.29
200.157	6.14
200.376	12.29
200.595	-6.14
200.814	28.67
201.033	73.73
201.252	-10.24
201.471	-92.16
201.69	61.44
201.909	34.82
202.128	-16.38
202.347	-47.1
202.566	71.68
202.785	-36.86
203.004	-51.2
203.223	114.69
203.442	-4.1
203.661	-32.77
203.879	-26.62
204.098	36.86
204.317	-77.82
204.536	10.24
204.755	10.24
204.974	71.68
205.193	-16.38
205.411	49.15
205.63	-0
205.849	16.38
206.068	2.05
206.287	-40.96
206.505	10.24
206.724	14.34
206.943	-16.38
207.162	38.91
207.381	4.1
207.599	4.1
207.818	92.16
208.037	61.44
208.255	-36.86
208.474	-32.77
208.693	24.58
208.911	-40.96
209.13	8.19
209.349	32.77
209.567	-8.19
209.786	22.53
210.005	18.43
210.223	-2.05
210.442	-6.14
210.661	71.68
210.879	-6.14
211.098	6.14
211.316	-18.43
211.535	26.62
211.753	43.01
211.972	-4.1
212.191	-28.67
212.409	-67.58
212.628	22.53
212.846	-14.34
213.065	-4.1
213.283	-53.25
213.502	32.77
213.72	49.15
213.938	-36.86
214.157	-49.15
214.375	16.38
214.594	-57.34
214.812	-38.91
215.031	-28.67
215.249	-18.43
215.467	-65.54
215.686	-12.29
215.904	-18.43
216.122	18.43
216.341	-24.58
216.559	-22.53
216.778	61.44
216.996	49.15
217.214	14.34
217.432	14.34
217.651	6.14
217.869	47.1
218.087	4.1
218.306	-40.96
218.524	4.1
218.742	2.05
218.96	28.67
219.179	-10.24
219.397	61.44
219.615	67.58
219.833	28.67
220.051	-98.3
220.27	40.96
220.488	-22.53
220.706	10.24
220.924	-28.67
221.142	-22.53
221.36	-83.97
221.578	-4.1
221.796	-4.1
222.015	36.86
222.233	-18.43
222.451	32.77
222.669	-40.96
222.887	-47.1
223.105	-10.24
223.323	49.15
223.541	-12.29
223.759	-40.96
223.977	-2.05
224.195	-24.58
224.413	-12.29
224.631	-61.44
224.849	-45.06
225.067	63.49
225.285	-71.68
225.503	-10.24
225.721	2.05
225.939	-16.38
226.157	86.01
226.375	81.92
226.592	-40.96
226.81	53.25
227.028	49.15
227.246	86.01
227.464	75.77
227.682	-36.86
227.9	159.74
228.117	10.24
228.335	28.67
228.553	-24.58
228.771	-53.25
228.989	59.39
229.206	20.48
229.424	4.1
229.642	-40.96
229.86	47.1
230.077	57.34
230.295	-34.82
230.513	43.01
230.731	47.1
230.948	45.06
231.166	-4.1
231.384	-43.01
231.601	43.01
231.819	24.58
232.037	-32.77
232.254	-53.25
232.472	133.12
232.689	-34.82
232.907	63.49
233.125	26.62
233.342	43.01
233.56	16.38
233.777	38.91
233.995	8.19
234.213	6.14
234.43	53.25
234.648	22.53
234.865	16.38
235.083	-2.05
235.3	24.58
235.518	-51.2
235.735	55.3
235.953	2.05
236.17	-18.43
236.388	-24.58
236.605	55.3
236.822	12.29
237.04	-14.34
237.257	61.44
237.475	-30.72
237.692	18.43
237.909	-63.49
238.127	-40.96
238.344	59.39
238.562	-34.82
238.779	-57.34
238.996	-32.77
239.214	-20.48
239.431	45.06
239.648	6.14
239.865	20.48
240.083	-61.44
240.3	38.91
240.517	-26.62
240.735	-43.01
240.952	26.62
241.169	-26.62
241.386	-55.3
241.603	6.14
241.821	-38.91
242.038	30.72
242.255	24.58
242.472	12.29
242.689	22.53
242.907	2.05
243.124	57.34
243.341	63.49
243.558	-81.92
243.775	-49.15
243.992	-36.86
244.209	6.14
244.426	108.54
244.643	-6.14
244.86	45.06
245.078	-10.24
245.295	8.19
245.512	-43.01
245.729	-45.06
245.946	8.19
246.163	10.24
246.38	40.96
246.597	-4.1
246.814	-24.58
247.031	-28.67
247.248	6.14
247.464	16.38
247.681	-16.38
247.898	8.19
248.115	-10.24
248.332	20.48
248.549	-8.19
248.766	14.34
248.983	32.77
249.2	63.49
249.417	24.58
249.633	-8.19
249.85	51.2
250.067	6.14
250.284	34.82
250.501	-20.48
250.717	20.48
250.934	-73.73
251.151	-26.62
251.368	-34.82
251.585	51.2
251.801	-30.72
252.018	-30.72
252.235	-14.34
252.451	-20.48
252.668	-69.63
252.885	-0
253.102	43.01
253.318	-14.34
253.535	-26.62
253.752	28.67
253.968	-28.67
254.185	-10.24
254.401	-6.14
254.618	6.14
254.835	-22.53
255.051	20.48
255.268	-20.48
255.484	30.72
255.701	-40.96
255.917	53.25
256.134	-36.86
256.351	-14.34
256.567	-38.91
256.784	14.34
257	6.14
257.217	49.15
257.433	6.14
257.65	65.53
257.866	45.06
258.082	-4.1
258.299	-38.91
258.515	-0
258.732	-53.25
258.948	-38.91
259.165	-18.43
259.381	-36.86
259.597	-26.62
259.814	30.72
260.03	-2.05
260.246	-8.19
260.463	12.29
260.679	-2.05
260.895	-34.82
261.112	4.1
261.328	47.1
261.544	-38.91
261.761	20.48
261.977	-2.05
262.193	-102.4
262.409	-6.14
262.626	6.14
262.842	14.34
263.058	-71.68
263.274	-28.67
263.49	-4.1
263.707	28.67
263.923	-8.19
264.139	10.24
264.355	-6.14
264.571	79.87
264.787	4.1
265.004	-0
265.22	36.86
265.436	-34.82
265.652	-36.86
265.868	-28.67
266.084	12.29
266.3	-55.3
266.516	-90.11
266.732	-47.1
266.948	51.2
267.164	-12.29
267.38	43.01
267.596	-47.1
267.812	96.25
268.028	32.77
268.244	69.63
268.46	6.14
268.676	-36.86
268.892	30.72
269.108	67.58
269.324	-26.62
269.54	4.1
269.756	61.44
269.972	51.2
270.188	30.72
270.403	10.24
270.619	40.96
270.835	-45.06
271.051	-57.34
271.267	-45.06
271.483	86.01
271.698	22.53
271.914	-104.45
272.13	36.86
272.346	-34.82
272.562	10.24
272.777	83.97
272.993	32.77
273.209	22.53
273.425	63.49
273.64	-4.1
273.856	-90.11
274.072	-30.72
274.287	-8.19
274.503	-22.53
274.719	-6.14
274.934	2.05
275.15	-36.86
275.366	32.77
275.581	-6.14
275.797	12.29
276.012	32.77
276.228	8.19
276.444	30.72
276.659	38.91
276.875	6.14
277.09	43.01
277.306	-43.01
277.521	-26.62
277.737	-28.67
277.952	12.29
278.168	28.67
278.383	-14.34
278.599	-16.38
278.814	-4.1
279.03	22.53
279.245	24.58
279.461	2.05
279.676	18.43
279.892	-26.62
280.107	20.48
280.322	2.05
280.538	-30.72
280.753	69.63
280.969	4.1
281.184	-6.14
281.399	63.49
281.615	12.29
281.83	26.62
282.045	4.1
282.26	24.58
282.476	-10.24
282.691	96.25
282.906	-32.77
283.122	22.53
283.337	-43.01
283.552	-26.62
283.767	-8.19
283.983	20.48
284.198	-18.43
284.413	43.01
284.628	-10.24
284.843	65.53
285.058	18.43
285.274	-4.1
285.489	10.24
285.704	14.34
285.919	6.14
286.134	-18.43
286.349	12.29
286.564	-43.01
286.779	6.14
286.995	-34.82
287.21	10.24
287.425	45.06
287.64	57.34
287.855	-14.34
288.07	-2.05
288.285	-16.38
288.5	4.1
288.715	75.77
288.93	-12.29
289.145	-4.1
289.36	-34.82
289.575	47.1
289.79	12.29
290.004	34.82
290.219	28.67
290.434	-53.25
290.649	-14.34
290.864	16.38
291.079	-4.1
291.294	6.14
291.509	22.53
291.724	2.05
291.938	8.19
292.153	6.14
292.368	-4.1
292.583	71.68
292.798	24.58
293.012	32.77
293.227	6.14
293.442	-6.14
293.657	45.06
293.871	36.86
294.086	16.38
294.301	43.01
294.516	67.58
294.73	-4.1
294.945	38.91
295.16	2.05
295.374	38.91
295.589	2.05
295.804	-30.72
296.018	20.48
296.233	79.87
296.447	45.06
296.662	-49.15
296.877	73.73
297.091	90.11
297.306	2.05
297.52	24.58
297.735	-10.24
297.949	-28.67
298.164	6.14
298.378	-63.49
298.593	10.24
298.807	-22.53
299.022	55.3
299.236	24.58
299.451	-14.34
299.665	-24.58
299.88	6.14
300.094	36.86
300.309	24.58
300.523	-18.43
300.737	-4.1
300.952	26.62
301.166	4.1
301.381	-32.77
301.595	-59.39
301.809	18.43
302.024	-0
302.238	-22.53
302.452	51.2
302.667	-8.19
302.881	-12.29
303.095	-2.05
303.309	-34.82
303.524	-36.86
303.738	-34.82
303.952	34.82
304.166	-28.67
304.381	-36.86
304.595	40.96
304.809	-12.29
305.023	-20.48
305.237	-61.44
305.452	-8.19
305.666	2.05
305.88	2.05
306.094	2.05
306.308	-36.86
306.522	59.39
306.736	63.49
306.95	73.73
307.164	6.14
307.379	-2.05
307.593	32.77
307.807	24.58
308.021	36.86
308.235	-16.38
308.449	-18.43
308.663	-61.44
308.877	49.15
309.091	47.1
309.305	-10.24
309.519	-92.16
309.733	18.43
309.947	6.14
310.161	14.34
310.374	12.29
310.588	65.53
310.802	-61.44
311.016	-16.38
311.23	-18.43
311.444	45.06
311.658	-12.29
311.872	16.38
312.085	-40.96
312.299	45.06
312.513	-24.58
312.727	14.34
312.941	-8.19
313.154	-30.72
313.368	-0
313.582	30.72
313.796	61.44
314.009	-26.62
314.223	-22.53
314.437	-51.2
314.651	-6.14
314.864	16.38
315.078	-2.05
315.292	-4.1
315.505	16.38
315.719	16.38
315.933	-67.58
316.146	-43.01
316.36	-16.38
316.573	61.44
316.787	118.78
317.001	47.1
317.214	-55.3
317.428	49.15
317.641	-16.38
317.855	12.29
318.068	51.2
318.282	63.49
318.495	18.43
318.709	-32.77
318.922	-32.77
319.136	67.58
319.349	-32.77
319.563	-49.15
319.776	-34.82
319.99	30.72
320.203	-14.34
320.417	-36.86
320.63	-30.72
320.843	65.53
321.057	-18.43
321.27	-36.86
321.483	36.86
321.697	65.53
321.91	51.2
322.124	-18.43
322.337	-30.72
322.55	38.91
322.763	-67.58
322.977	-2.05
323.19	16.38
323.403	53.25
323.617	53.25
323.83	-22.53
324.043	-18.43
324.256	-53.25
324.469	-30.72
324.683	32.77
324.896	24.58
325.109	20.48
325.322	-36.86
325.535	14.34
325.748	12.29
325.962	-59.39
326.175	-79.87
326.388	28.67
326.601	34.82
326.814	-28.67
327.027	-34.82
327.24	20.48
327.453	-63.49
327.666	38.91
327.879	-34.82
328.092	57.34
328.305	-6.14
328.518	22.53
328.731	14.34
328.944	6.14
329.157	-38.91
329.37	-67.58
329.583	90.11
329.796	32.77
330.009	-28.67
330.222	43.01
330.435	14.34
330.648	-16.38
330.861	-10.24
331.073	-4.1
331.286	106.49
331.499	14.34
331.712	-65.54
331.925	18.43
332.138	22.53
332.35	-4.1
332.563	28.67
332.776	149.5
332.989	10.24
333.202	-36.86
333.414	-30.72
333.627	61.44
333.84	-2.05
334.053	-43.01
334.265	-98.3
334.478	-32.77
334.691	22.53
334.903	-2.05
335.116	-2.05
335.329	-6.14
335.541	2.05
335.754	26.62
335.966	-18.43
336.179	38.91
336.392	53.25
336.604	22.53
336.817	61.44
337.029	30.72
337.242	-28.67
337.454	-55.3
337.667	2.05
337.88	71.68
338.092	-20.48
338.305	34.82
338.517	-28.67
338.729	26.62
338.942	71.68
339.154	2.05
339.367	-14.34
339.579	8.19
339.792	-65.54
340.004	22.53
340.217	-88.06
340.429	47.1
340.641	-59.39
340.854	-2.05
341.066	-51.2
341.278	-10.24
341.491	-18.43
341.703	12.29
341.915	-12.29
342.128	4.1
342.34	-34.82
342.552	16.38
342.764	-47.1
342.977	-63.49
343.189	51.2
343.401	81.92
343.613	-53.25
343.826	61.44
344.038	26.62
344.25	-51.2
344.462	-75.77
344.674	47.1
344.886	-83.97
345.099	8.19
345.311	18.43
345.523	61.44
345.735	-59.39
345.947	-10.24
346.159	40.96
346.371	-4.1
346.583	71.68
346.795	79.87
347.007	-2.05
347.219	12.29
347.431	28.67
347.643	90.11
347.855	-40.96
348.067	69.63
348.279	-36.86
348.491	2.05
348.703	20.48
348.915	30.72
349.127	-12.29
349.339	-36.86
349.551	22.53
349.763	34.82
349.975	-2.05
350.187	18.43
350.399	-32.77
350.61	24.58
350.822	2.05
351.034	-24.58
351.246	-32.77
351.458	63.49
351.669	30.72
351.881	77.82
352.093	16.38
352.305	59.39
352.517	12.29
352.728	28.67
352.94	20.48
353.152	-2.05
353.363	-49.15
353.575	94.21
353.787	102.4
353.999	-0
354.21	53.25
354.422	20.48
354.633	24.58
354.845	30.72
355.057	20.48
355.268	45.06
355.48	-4.1
355.692	-71.68
355.903	-32.77
356.115	-45.06
356.326	-73.73
356.538	77.82
356.749	-43.01
356.961	63.49
357.172	-10.24
357.384	10.24
357.595	43.01
357.807	-12.29
358.018	20.48
358.23	-4.1
358.441	88.06
358.653	-18.43
358.864	-36.86
359.075	-43.01
359.287	-12.29
359.498	114.69
359.709	-30.72
359.921	-16.38
360.132	-73.73
360.344	-14.34
360.555	-8.19
360.766	59.39
360.977	-57.34
361.189	26.62
361.4	28.67
361.611	18.43
361.823	36.86
362.034	55.3
362.245	-10.24
362.456	36.86
362.667	12.29
362.879	-30.72
363.09	4.1
363.301	30.72
363.512	-57.34
363.723	-47.1
363.935	8.19
364.146	45.06
364.357	86.01
364.568	-36.86
364.779	59.39
364.99	51.2
365.201	-16.38
365.412	32.77
365.623	-30.72
365.834	57.34
366.045	-40.96
366.256	106.49
366.467	16.38
366.678	-12.29
366.889	51.2
367.1	-43.01
367.311	73.73
367.522	30.72
367.733	-47.1
367.944	75.77
368.155	4.1
368.366	20.48
368.577	100.35
368.788	22.53
368.999	-65.54
369.209	-12.29
369.42	92.16
369.631	116.73
369.842	26.62
370.053	-18.43
370.264	40.96
370.474	-20.48
370.685	-12.29
370.896	43.01
371.107	81.92
371.317	38.91
371.528	12.29
371.739	59.39
371.95	-0
372.16	6.14
372.371	-28.67
372.582	-10.24
372.792	32.77
373.003	14.34
373.214	16.38
373.424	38.91
373.635	-104.45
373.846	55.3
374.056	30.72
374.267	-0
374.477	-4.1
374.688	12.29
374.898	18.43
375.109	71.68
375.319	6.14
375.53	59.39
375.74	4.1
375.951	-28.67
376.161	67.58
376.372	12.29
376.582	-36.86
376.793	116.73
377.003	-36.86
377.214	55.3
377.424	-16.38
377.635	-18.43
377.845	-40.96
378.055	61.44
378.266	-6.14
378.476	40.96
378.686	-26.62
378.897	-2.05
379.107	24.58
379.317	-26.62
379.528	-8.19
379.738	63.49
379.948	18.43
380.158	92.16
380.369	30.72
380.579	2.05
380.789	77.82
380.999	24.58
381.21	102.4
381.42	63.49
381.63	-28.67
381.84	61.44
382.05	-22.53
382.261	2.05
382.471	45.06
382.681	-47.1
382.891	-4.1
383.101	57.34
383.311	-14.34
383.521	22.53
383.731	-47.1
383.941	-0
384.151	86.01
384.361	-40.96
384.571	38.91
384.781	-57.34
384.991	40.96
385.201	186.37
385.411	43.01
385.621	34.82
385.831	-4.1
386.041	-22.53
386.251	61.44
386.461	83.97
386.671	-8.19
386.881	-20.48
387.091	-34.82
387.301	26.62
387.511	-8.19
387.72	-36.86
387.93	147.45
388.14	-10.24
388.35	-2.05
388.56	-10.24
388.769	53.25
388.979	100.35
389.189	-8.19
389.399	57.34
389.609	36.86
389.818	65.53
390.028	18.43
390.238	73.73
390.447	-53.25
390.657	38.91
390.867	-18.43
391.076	-61.44
391.286	-12.29
391.496	14.34
391.705	47.1
391.915	-26.62
392.125	108.54
392.334	55.3
392.544	-0
392.753	49.15
392.963	8.19
393.172	43.01
393.382	-16.38
393.591	90.11
393.801	-10.24
394.01	36.86
394.22	47.1
394.429	-16.38
394.639	14.34
394.848	47.1
395.058	45.06
395.267	26.62
395.477	61.44
395.686	45.06
395.895	73.73
396.105	81.92
396.314	40.96
396.524	116.73
396.733	14.34
396.942	53.25
397.152	-16.38
397.361	-14.34
397.57	4.1
397.78	20.48
397.989	30.72
398.198	67.58
398.407	20.48
398.617	-14.34
398.826	57.34
399.035	34.82
399.244	32.77
399.453	20.48
399.663	-16.38
399.872	51.2
400.081	-22.53
400.29	118.78
400.499	53.25
400.708	57.34
400.917	16.38
401.127	86.01
401.336	-26.62
401.545	188.41
401.754	106.49
401.963	96.25
402.172	-24.58
402.381	59.39
402.59	71.68
402.799	18.43
403.008	83.97
403.217	43.01
403.426	34.82
403.635	79.87
403.844	-0
404.053	83.97
404.262	65.53
404.471	165.89
404.68	30.72
404.888	59.39
405.097	45.06
405.306	-57.34
405.515	75.77
405.724	92.16
405.933	81.92
406.142	129.02
406.35	116.73
406.559	106.49
406.768	77.82
406.977	133.12
407.185	92.16
407.394	178.17
407.603	40.96
407.812	131.07
408.02	124.93
408.229	122.88
408.438	79.87
408.646	77.82
408.855	61.44
409.064	169.98
409.272	106.49
409.481	186.37
409.69	104.45
409.898	112.64
410.107	59.39
410.315	217.08
410.524	202.75
410.733	180.22
410.941	190.46
411.15	178.17
411.358	161.79
411.567	253.95
411.775	233.47
411.984	161.79
412.192	350.2
412.401	260.09
412.609	350.2
412.818	290.81
413.026	323.58
413.234	262.14
413.443	276.48
413.651	196.6
413.86	311.29
414.068	356.35
414.276	358.39
414.485	251.9
414.693	348.15
414.901	370.68
415.11	391.16
415.318	471.03
415.526	403.45
415.734	415.74
415.943	464.89
416.151	450.55
416.359	485.37
416.567	446.46
416.776	528.38
416.984	487.42
417.192	544.76
417.4	518.14
417.608	520.18
417.817	600.05
418.025	575.48
418.233	690.17
418.441	624.63
418.649	655.35
418.857	747.51
419.065	724.98
419.273	692.21
419.481	774.13
419.689	794.61
419.897	882.67
420.105	802.8
420.313	905.2
420.521	958.45
420.729	917.49
420.937	1007.6
421.145	950.26
421.353	1056.75
421.561	1073.14
421.769	1105.9
421.977	1165.29
422.185	1148.91
422.393	1191.92
422.601	1339.37
422.809	1214.45
423.017	1275.88
423.224	1376.23
423.432	1531.88
423.64	1427.43
423.848	1615.85
424.056	1470.44
424.263	1564.65
424.471	1517.54
424.679	1669.09
424.887	1779.68
425.094	1806.31
425.302	1867.75
425.51	1837.03
425.718	1957.86
425.925	1867.75
426.133	1976.29
426.341	2150.37
426.548	2189.28
426.756	2293.72
426.964	2277.34
427.171	2469.85
427.379	2562.01
427.586	2635.74
427.794	2684.89
428.001	2627.54
428.209	2666.46
428.417	2734.04
428.624	2971.6
428.832	2879.44
429.039	2887.64
429.247	2895.83
429.454	3076.05
429.662	3579.85
429.869	3225.55
430.076	3477.45
430.284	3330
430.491	3497.93
430.699	3825.61
430.906	3704.78
431.114	3745.73
431.321	3893.19
431.528	3950.53
431.736	4214.72
431.943	4343.74
432.15	4358.08
432.358	4296.64
432.565	4552.63
432.772	4454.33
432.979	4818.87
433.187	4900.79
433.394	4906.93
433.601	5224.37
433.808	5345.2
434.016	5402.54
434.223	5472.17
434.43	5752.74
434.637	5687.21
434.844	5971.88
435.052	6053.8
435.259	6041.51
435.466	6369.18
435.673	6305.7
435.88	6602.65
436.087	7047.06
436.294	6997.91
436.501	6750.1
436.708	6825.88
436.915	7245.71
437.122	7520.14
437.329	7313.3
437.537	7511.95
437.743	7907.21
437.95	7694.22
438.157	8107.91
438.364	8404.86
438.571	8292.23
438.778	8443.78
438.985	9301.87
439.192	8841.08
439.399	9041.78
439.606	8994.68
439.813	9584.49
440.02	10039.14
440.227	9971.56
440.433	9748.33
440.64	10155.88
440.847	9854.83
441.054	10090.34
441.261	11073.37
441.467	10585.95
441.674	11140.95
441.881	11442
442.088	11542.35
442.294	11384.66
442.501	11628.37
442.708	11919.18
442.914	12324.68
443.121	12805.95
443.328	12709.69
443.534	13567.79
443.741	13055.8
443.948	12918.59
444.154	13594.42
444.361	13809.45
444.568	13750.06
444.774	13868.84
444.981	13936.43
445.187	14370.6
445.394	15230.74
445.6	14841.63
445.807	16332.55
446.013	15394.58
446.22	15910.67
446.426	16539.4
446.633	16576.26
446.839	16928.51
447.046	16469.76
447.252	17274.62
447.459	17338.1
447.665	17370.87
447.871	18058.99
448.078	18978.53
448.284	18069.23
448.491	18448.1
448.697	19422.94
448.903	19707.6
449.11	19605.2
449.316	19388.12
449.522	19912.4
449.728	20430.54
449.935	20555.46
450.141	20395.72
450.347	20600.52
450.553	20072.14
450.76	20489.93
450.966	21233.34
451.172	20684.48
451.378	21550.78
451.584	21094.08
451.791	21597.88
451.997	21561.01
452.203	21718.71
452.409	22034.1
452.615	21624.5
452.821	20887.23
453.027	20922.05
453.233	22085.29
453.44	20922.05
453.646	21388.99
453.852	21219
454.058	21401.27
454.264	20979.39
454.47	21251.77
454.676	20870.85
454.882	21657.27
455.088	19619.54
455.294	19998.41
455.5	20242.12
455.705	20340.43
455.911	19699.41
456.117	19044.06
456.323	19134.17
456.529	18110.19
456.735	18636.52
456.941	18345.7
457.147	18179.82
457.352	17620.72
457.558	17417.97
457.764	17239.8
457.97	16762.62
458.176	16756.48
458.381	16652.03
458.587	15826.7
458.793	16000.78
458.999	14894.88
459.204	15798.03
459.41	15871.76
459.616	14497.57
459.821	14507.81
460.027	14516
460.233	13821.74
460.438	13436.72
460.644	13457.2
460.85	12980.03
461.055	12891.96
461.261	12961.59
461.466	11679.57
461.672	11392.85
461.878	12091.21
462.083	11407.19
462.289	11478.86
462.494	11376.47
462.7	10669.92
462.905	10448.74
463.111	10880.86
463.316	10753.88
463.522	10682.2
463.727	10485.6
463.932	10426.21
464.138	10489.7
464.343	10450.78
464.549	10258.28
464.754	10327.91
464.959	10477.41
465.165	10149.73
465.37	9940.84
465.575	9774.95
465.781	9957.22
465.986	10182.5
466.191	9613.17
466.397	9455.47
466.602	8902.52
466.807	9387.89
