Data from USB4F104151__0__12-23-14-345.txt Node

Date: Fri Mar 14 12:23:14 EDT 2025
User: louis
Spectrometer: USB4F10415
Trigger mode: 4
Integration Time (sec): 3.500000E-2
Scans to average: 1
Electric dark correction enabled: true
Nonlinearity correction enabled: false
Boxcar width: 0
XAxis mode: Wavelengths
Number of Pixels in Spectrum: 3648
>>>>>Begin Spectral Data<<<<<
178.204	-97.45
178.424	-97.45
178.644	-97.45
178.864	-191.66
179.084	-187.56
179.304	9.05
179.524	-19.63
179.744	13.14
179.964	50
180.184	-29.87
180.404	50
180.624	11.09
180.844	27.48
181.064	-56.49
181.283	-23.72
181.503	-48.3
181.723	17.24
181.943	-91.31
182.163	88.92
182.383	17.24
182.602	129.88
182.822	105.3
183.042	76.63
183.262	0.85
183.482	-23.72
183.701	58.2
183.921	33.62
184.141	-9.39
184.361	7
184.58	-31.91
184.8	70.48
185.02	-44.2
185.239	97.11
185.459	-11.43
185.679	62.29
185.898	-42.15
186.118	27.48
186.338	2.9
186.557	56.15
186.777	-19.63
186.997	58.2
187.216	47.96
187.436	80.72
187.655	58.2
187.875	35.67
188.095	9.05
188.314	58.2
188.534	60.24
188.753	-29.87
188.973	56.15
189.192	52.05
189.412	64.34
189.631	35.67
189.851	-44.2
190.07	72.53
190.29	-52.39
190.509	72.53
190.729	-48.3
190.948	37.72
191.168	146.26
191.387	4.95
191.607	13.14
191.826	-85.16
192.045	17.24
192.265	-29.87
192.484	-7.34
192.704	23.38
192.923	-38.06
193.142	80.72
193.362	31.57
193.581	99.16
193.8	-13.48
194.02	39.76
194.239	-36.01
194.458	4.95
194.678	-17.58
194.897	72.53
195.116	47.96
195.335	25.43
195.555	19.29
195.774	15.19
195.993	-3.24
196.212	56.15
196.432	70.48
196.651	-33.96
196.87	45.91
197.089	105.3
197.308	-19.63
197.528	84.82
197.747	41.81
197.966	-25.77
198.185	152.4
198.404	23.38
198.623	41.81
198.842	41.81
199.062	39.76
199.281	39.76
199.5	109.4
199.719	-5.29
199.938	66.39
200.157	19.29
200.376	80.72
200.595	29.52
200.814	-40.11
201.033	39.76
201.252	29.52
201.471	-46.25
201.69	74.58
201.909	11.09
202.128	-11.43
202.347	11.09
202.566	-19.63
202.785	-36.01
203.004	-17.58
203.223	41.81
203.442	60.24
203.661	4.95
203.879	2.9
204.098	23.38
204.317	-36.01
204.536	50
204.755	68.44
204.974	52.05
205.193	50
205.411	174.93
205.63	17.24
205.849	23.38
206.068	60.24
206.287	4.95
206.505	54.1
206.724	35.67
206.943	-23.72
207.162	-29.87
207.381	17.24
207.599	17.24
207.818	21.33
208.037	9.05
208.255	11.09
208.474	62.29
208.693	50
208.911	-89.26
209.13	35.67
209.349	60.24
209.567	50
209.786	33.62
210.005	-5.29
210.223	7
210.442	-38.06
210.661	37.72
210.879	-23.72
211.098	-1.19
211.316	80.72
211.535	131.92
211.753	84.82
211.972	-11.43
212.191	70.48
212.409	-5.29
212.628	11.09
212.846	84.82
213.065	119.64
213.283	27.48
213.502	54.1
213.72	33.62
213.938	-25.77
214.157	-13.48
214.375	-23.72
214.594	-52.39
214.812	13.14
215.031	-27.82
215.249	-9.39
215.467	37.72
215.686	4.95
215.904	60.24
216.122	-40.11
216.341	97.11
216.559	21.33
216.778	25.43
216.996	60.24
217.214	37.72
217.432	-7.34
217.651	15.19
217.869	-9.39
218.087	-25.77
218.306	11.09
218.524	68.44
218.742	43.86
218.96	78.68
219.179	19.29
219.397	-5.29
219.615	103.25
219.833	119.64
220.051	-50.35
220.27	117.59
220.488	25.43
220.706	66.39
220.924	-17.58
221.142	-11.43
221.36	2.9
221.578	103.25
221.796	19.29
222.015	-3.24
222.233	-1.19
222.451	62.29
222.669	37.72
222.887	76.63
223.105	15.19
223.323	33.62
223.541	21.33
223.759	-1.19
223.977	66.39
224.195	52.05
224.413	60.24
224.631	-19.63
224.849	19.29
225.067	88.92
225.285	52.05
225.503	45.91
225.721	-33.96
225.939	-23.72
226.157	27.48
226.375	109.4
226.592	21.33
226.81	-15.53
227.028	54.1
227.246	72.53
227.464	-25.77
227.682	95.06
227.9	23.38
228.117	47.96
228.335	64.34
228.553	56.15
228.771	54.1
228.989	-21.67
229.206	23.38
229.424	74.58
229.642	-13.48
229.86	58.2
230.077	11.09
230.295	-38.06
230.513	15.19
230.731	80.72
230.948	136.02
231.166	127.83
231.384	-1.19
231.601	50
231.819	74.58
232.037	-105.64
232.254	-19.63
232.472	-33.96
232.689	17.24
232.907	13.14
233.125	47.96
233.342	-5.29
233.56	-3.24
233.777	11.09
233.995	-36.01
234.213	66.39
234.43	68.44
234.648	47.96
234.865	21.33
235.083	7
235.3	4.95
235.518	29.52
235.735	-38.06
235.953	58.2
236.17	54.1
236.388	0.85
236.605	64.34
236.822	84.82
237.04	72.53
237.257	80.72
237.475	-11.43
237.692	13.14
237.909	66.39
238.127	-25.77
238.344	64.34
238.562	84.82
238.779	-15.53
238.996	27.48
239.214	62.29
239.431	-23.72
239.648	-36.01
239.865	84.82
240.083	62.29
240.3	0.85
240.517	-5.29
240.735	11.09
240.952	121.68
241.169	78.68
241.386	2.9
241.603	82.77
241.821	-36.01
242.038	176.98
242.255	70.48
242.472	-81.07
242.689	52.05
242.907	21.33
243.124	64.34
243.341	17.24
243.558	-3.24
243.775	-40.11
243.992	-13.48
244.209	70.48
244.426	123.73
244.643	97.11
244.86	41.81
245.078	121.68
245.295	29.52
245.512	31.57
245.729	82.77
245.946	9.05
246.163	101.2
246.38	29.52
246.597	47.96
246.814	103.25
247.031	-31.91
247.248	35.67
247.464	35.67
247.681	-17.58
247.898	68.44
248.115	60.24
248.332	7
248.549	47.96
248.766	131.92
248.983	123.73
249.2	60.24
249.417	39.76
249.633	-15.53
249.85	25.43
250.067	29.52
250.284	-11.43
250.501	52.05
250.717	37.72
250.934	17.24
251.151	29.52
251.368	-7.34
251.585	7
251.801	2.9
252.018	-31.91
252.235	-19.63
252.451	11.09
252.668	80.72
252.885	78.68
253.102	41.81
253.318	142.16
253.535	-42.15
253.752	39.76
253.968	43.86
254.185	-7.34
254.401	-19.63
254.618	129.88
254.835	72.53
255.051	-9.39
255.268	62.29
255.484	43.86
255.701	15.19
255.917	80.72
256.134	62.29
256.351	31.57
256.567	27.48
256.784	66.39
257	-40.11
257.217	90.96
257.433	35.67
257.65	52.05
257.866	107.35
258.082	-1.19
258.299	-62.63
258.515	56.15
258.732	15.19
258.948	76.63
259.165	-3.24
259.381	45.91
259.597	0.85
259.814	-60.59
260.03	-11.43
260.246	15.19
260.463	41.81
260.679	93.01
260.895	54.1
261.112	15.19
261.328	-31.91
261.544	23.38
261.761	54.1
261.977	31.57
262.193	-48.3
262.409	-38.06
262.626	4.95
262.842	76.63
263.058	-85.16
263.274	82.77
263.49	68.44
263.707	93.01
263.923	29.52
264.139	29.52
264.355	-7.34
264.571	62.29
264.787	-31.91
265.004	105.3
265.22	68.44
265.436	72.53
265.652	-23.72
265.868	39.76
266.084	-1.19
266.3	7
266.516	-91.31
266.732	86.87
266.948	29.52
267.164	43.86
267.38	23.38
267.596	41.81
267.812	56.15
268.028	101.2
268.244	43.86
268.46	66.39
268.676	-40.11
268.892	-15.53
269.108	148.31
269.324	-9.39
269.54	23.38
269.756	39.76
269.972	-36.01
270.188	76.63
270.403	-19.63
270.619	-19.63
270.835	62.29
271.051	37.72
271.267	11.09
271.483	4.95
271.698	23.38
271.914	90.96
272.13	54.1
272.346	23.38
272.562	25.43
272.777	2.9
272.993	21.33
273.209	68.44
273.425	13.14
273.64	-17.58
273.856	0.85
274.072	35.67
274.287	4.95
274.503	93.01
274.719	119.64
274.934	33.62
275.15	13.14
275.366	101.2
275.581	-11.43
275.797	54.1
276.012	19.29
276.228	54.1
276.444	31.57
276.659	82.77
276.875	-21.67
277.09	27.48
277.306	39.76
277.521	43.86
277.737	4.95
277.952	84.82
278.168	13.14
278.383	13.14
278.599	37.72
278.814	17.24
279.03	-21.67
279.245	97.11
279.461	15.19
279.676	136.02
279.892	21.33
280.107	-62.63
280.322	41.81
280.538	56.15
280.753	15.19
280.969	15.19
281.184	50
281.399	17.24
281.615	58.2
281.83	33.62
282.045	25.43
282.26	-33.96
282.476	19.29
282.691	74.58
282.906	9.05
283.122	47.96
283.337	-33.96
283.552	60.24
283.767	39.76
283.983	62.29
284.198	19.29
284.413	-23.72
284.628	78.68
284.843	60.24
285.058	-23.72
285.274	35.67
285.489	60.24
285.704	105.3
285.919	17.24
286.134	43.86
286.349	60.24
286.564	72.53
286.779	80.72
286.995	15.19
287.21	-1.19
287.425	70.48
287.64	27.48
287.855	31.57
288.07	-19.63
288.285	62.29
288.5	47.96
288.715	37.72
288.93	17.24
289.145	35.67
289.36	70.48
289.575	76.63
289.79	29.52
290.004	37.72
290.219	99.16
290.434	29.52
290.649	-11.43
290.864	107.35
291.079	-40.11
291.294	70.48
291.509	-11.43
291.724	13.14
291.938	-23.72
292.153	27.48
292.368	-23.72
292.583	13.14
292.798	27.48
293.012	-15.53
293.227	56.15
293.442	107.35
293.657	47.96
293.871	47.96
294.086	-5.29
294.301	56.15
294.516	43.86
294.73	84.82
294.945	27.48
295.16	-27.82
295.374	80.72
295.589	-15.53
295.804	19.29
296.018	133.97
296.233	58.2
296.447	52.05
296.662	-9.39
296.877	146.26
297.091	68.44
297.306	13.14
297.52	31.57
297.735	43.86
297.949	37.72
298.164	27.48
298.378	29.52
298.593	54.1
298.807	47.96
299.022	-27.82
299.236	-3.24
299.451	31.57
299.665	52.05
299.88	0.85
300.094	58.2
300.309	-29.87
300.523	50
300.737	2.9
300.952	13.14
301.166	-38.06
301.381	-17.58
301.595	62.29
301.809	2.9
302.024	-17.58
302.238	11.09
302.452	-17.58
302.667	39.76
302.881	97.11
303.095	-33.96
303.309	74.58
303.524	68.44
303.738	23.38
303.952	97.11
304.166	7
304.381	-31.91
304.595	4.95
304.809	35.67
305.023	45.91
305.237	50
305.452	62.29
305.666	80.72
305.88	72.53
306.094	105.3
306.308	9.05
306.522	21.33
306.736	45.91
306.95	78.68
307.164	39.76
307.379	33.62
307.593	78.68
307.807	52.05
308.021	11.09
308.235	47.96
308.449	31.57
308.663	41.81
308.877	148.31
309.091	-36.01
309.305	-38.06
309.519	-11.43
309.733	-40.11
309.947	21.33
310.161	27.48
310.374	11.09
310.588	72.53
310.802	13.14
311.016	-46.25
311.23	-33.96
311.444	13.14
311.658	-11.43
311.872	25.43
312.085	50
312.299	45.91
312.513	95.06
312.727	17.24
312.941	45.91
313.154	37.72
313.368	-3.24
313.582	-3.24
313.796	88.92
314.009	29.52
314.223	146.26
314.437	23.38
314.651	70.48
314.864	88.92
315.078	-17.58
315.292	-13.48
315.505	0.85
315.719	2.9
315.933	29.52
316.146	56.15
316.36	-40.11
316.573	76.63
316.787	17.24
317.001	50
317.214	-54.44
317.428	52.05
317.641	72.53
317.855	11.09
318.068	23.38
318.282	2.9
318.495	129.88
318.709	35.67
318.922	27.48
319.136	138.07
319.349	54.1
319.563	13.14
319.776	27.48
319.99	4.95
320.203	58.2
320.417	-13.48
320.63	80.72
320.843	109.4
321.057	15.19
321.27	-3.24
321.483	29.52
321.697	58.2
321.91	-38.06
322.124	25.43
322.337	50
322.55	25.43
322.763	-46.25
322.977	54.1
323.19	35.67
323.403	0.85
323.617	136.02
323.83	45.91
324.043	11.09
324.256	62.29
324.469	-62.63
324.683	95.06
324.896	-44.2
325.109	31.57
325.322	-19.63
325.535	9.05
325.748	17.24
325.962	-11.43
326.175	64.34
326.388	23.38
326.601	-1.19
326.814	47.96
327.027	37.72
327.24	140.12
327.453	-85.16
327.666	97.11
327.879	47.96
328.092	41.81
328.305	47.96
328.518	-25.77
328.731	50
328.944	21.33
329.157	58.2
329.37	9.05
329.583	129.88
329.796	107.35
330.009	-54.44
330.222	50
330.435	4.95
330.648	119.64
330.861	43.86
331.073	11.09
331.286	125.78
331.499	70.48
331.712	-44.2
331.925	99.16
332.138	-29.87
332.35	21.33
332.563	7
332.776	103.25
332.989	17.24
333.202	9.05
333.414	-42.15
333.627	43.86
333.84	45.91
334.053	52.05
334.265	21.33
334.478	15.19
334.691	29.52
334.903	13.14
335.116	58.2
335.329	0.85
335.541	29.52
335.754	52.05
335.966	31.57
336.179	47.96
336.392	4.95
336.604	-44.2
336.817	88.92
337.029	23.38
337.242	90.96
337.454	80.72
337.667	4.95
337.88	45.91
338.092	23.38
338.305	-50.35
338.517	-58.54
338.729	84.82
338.942	88.92
339.154	4.95
339.367	21.33
339.579	19.29
339.792	37.72
340.004	17.24
340.217	-36.01
340.429	62.29
340.641	-15.53
340.854	68.44
341.066	2.9
341.278	52.05
341.491	138.07
341.703	33.62
341.915	-48.3
342.128	56.15
342.34	43.86
342.552	52.05
342.764	43.86
342.977	-7.34
343.189	-31.91
343.401	21.33
343.613	103.25
343.826	11.09
344.038	-3.24
344.25	66.39
344.462	17.24
344.674	45.91
344.886	-11.43
345.099	117.59
345.311	27.48
345.523	15.19
345.735	-36.01
345.947	4.95
346.159	35.67
346.371	4.95
346.583	68.44
346.795	62.29
347.007	103.25
347.219	7
347.431	9.05
347.643	-1.19
347.855	-13.48
348.067	97.11
348.279	-7.34
348.491	68.44
348.703	47.96
348.915	-31.91
349.127	39.76
349.339	-11.43
349.551	4.95
349.763	7
349.975	37.72
350.187	52.05
350.399	-33.96
350.61	43.86
350.822	-5.29
351.034	-11.43
351.246	15.19
351.458	9.05
351.669	50
351.881	70.48
352.093	60.24
352.305	160.59
352.517	60.24
352.728	84.82
352.94	21.33
353.152	62.29
353.363	11.09
353.575	11.09
353.787	58.2
353.999	80.72
354.21	123.73
354.422	-11.43
354.633	13.14
354.845	-5.29
355.057	-21.67
355.268	88.92
355.48	19.29
355.692	-5.29
355.903	27.48
356.115	-5.29
356.326	64.34
356.538	111.44
356.749	11.09
356.961	27.48
357.172	58.2
357.384	-31.91
357.595	82.77
357.807	-9.39
358.018	17.24
358.23	-19.63
358.441	58.2
358.653	82.77
358.864	37.72
359.075	19.29
359.287	13.14
359.498	39.76
359.709	37.72
359.921	117.59
360.132	56.15
360.344	9.05
360.555	-54.44
360.766	-33.96
360.977	84.82
361.189	88.92
361.4	23.38
361.611	119.64
361.823	56.15
362.034	80.72
362.245	-46.25
362.456	-11.43
362.667	99.16
362.879	-48.3
363.09	-11.43
363.301	31.57
363.512	27.48
363.723	70.48
363.935	-13.48
364.146	-9.39
364.357	21.33
364.568	37.72
364.779	-13.48
364.99	84.82
365.201	4.95
365.412	170.83
365.623	27.48
365.834	-1.19
366.045	21.33
366.256	64.34
366.467	-15.53
366.678	105.3
366.889	21.33
367.1	-27.82
367.311	107.35
367.522	58.2
367.733	25.43
367.944	-1.19
368.155	9.05
368.366	29.52
368.577	99.16
368.788	50
368.999	11.09
369.209	60.24
369.42	72.53
369.631	117.59
369.842	60.24
370.053	35.67
370.264	41.81
370.474	31.57
370.685	19.29
370.896	-7.34
371.107	52.05
371.317	54.1
371.528	19.29
371.739	84.82
371.95	7
372.16	56.15
372.371	25.43
372.582	-56.49
372.792	17.24
373.003	29.52
373.214	31.57
373.424	125.78
373.635	66.39
373.846	105.3
374.056	-3.24
374.267	45.91
374.477	15.19
374.688	70.48
374.898	21.33
375.109	54.1
375.319	62.29
375.53	47.96
375.74	54.1
375.951	72.53
376.161	17.24
376.372	76.63
376.582	-3.24
376.793	80.72
377.003	23.38
377.214	-83.11
377.424	50
377.635	31.57
377.845	15.19
378.055	121.68
378.266	11.09
378.476	-42.15
378.686	88.92
378.897	-5.29
379.107	54.1
379.317	62.29
379.528	50
379.738	-17.58
379.948	23.38
380.158	47.96
380.369	23.38
380.579	35.67
380.789	25.43
380.999	-3.24
381.21	111.44
381.42	47.96
381.63	2.9
381.84	74.58
382.05	19.29
382.261	111.44
382.471	107.35
382.681	45.91
382.891	152.4
383.101	109.4
383.311	-38.06
383.521	-29.87
383.731	43.86
383.941	105.3
384.151	88.92
384.361	23.38
384.571	56.15
384.781	15.19
384.991	52.05
385.201	105.3
385.411	27.48
385.621	76.63
385.831	19.29
386.041	11.09
386.251	43.86
386.461	109.4
386.671	35.67
386.881	62.29
387.091	15.19
387.301	23.38
387.511	64.34
387.72	133.97
387.93	88.92
388.14	-52.39
388.35	90.96
388.56	86.87
388.769	170.83
388.979	78.68
389.189	25.43
389.399	33.62
389.609	50
389.818	62.29
390.028	113.49
390.238	76.63
390.447	23.38
390.657	-3.24
390.867	11.09
391.076	31.57
391.286	15.19
391.496	29.52
391.705	-27.82
391.915	123.73
392.125	164.69
392.334	72.53
392.544	121.68
392.753	43.86
392.963	76.63
393.172	4.95
393.382	95.06
393.591	125.78
393.801	-31.91
394.01	62.29
394.22	115.54
394.429	39.76
394.639	23.38
394.848	78.68
395.058	123.73
395.267	41.81
395.477	43.86
395.686	19.29
395.895	162.64
396.105	117.59
396.314	95.06
396.524	95.06
396.733	99.16
396.942	107.35
397.152	78.68
397.361	136.02
397.57	47.96
397.78	15.19
397.989	129.88
398.198	86.87
398.407	56.15
398.617	78.68
398.826	43.86
399.035	86.87
399.244	131.92
399.453	70.48
399.663	58.2
399.872	119.64
400.081	97.11
400.29	121.68
400.499	7
400.708	58.2
400.917	-3.24
401.127	25.43
401.336	54.1
401.545	109.4
401.754	86.87
401.963	105.3
402.172	80.72
402.381	62.29
402.59	99.16
402.799	27.48
403.008	111.44
403.217	105.3
403.426	103.25
403.635	56.15
403.844	52.05
404.053	86.87
404.262	97.11
404.471	207.7
404.68	52.05
404.888	109.4
405.097	56.15
405.306	93.01
405.515	52.05
405.724	138.07
405.933	195.41
406.142	97.11
406.35	183.12
406.559	185.17
406.768	127.83
406.977	197.46
407.185	172.88
407.394	80.72
407.603	84.82
407.812	162.64
408.02	183.12
408.229	166.74
408.438	164.69
408.646	119.64
408.855	172.88
409.064	197.46
409.272	230.23
409.481	201.55
409.69	176.98
409.898	127.83
410.107	201.55
410.315	226.13
410.524	127.83
410.733	234.32
410.941	213.84
411.15	267.09
411.358	252.75
411.567	314.19
411.775	326.48
411.984	232.27
412.192	250.71
412.401	265.04
412.609	301.9
412.818	344.91
413.026	299.86
413.234	306
413.443	426.83
413.651	318.29
413.86	338.77
414.068	381.78
414.276	410.45
414.485	422.73
414.693	430.93
414.901	451.41
415.11	465.74
415.318	463.69
415.526	441.17
415.734	498.51
415.943	461.65
416.151	525.13
416.359	527.18
416.567	553.8
416.776	525.13
416.984	568.14
417.192	654.16
417.4	625.48
417.608	635.72
417.817	658.25
418.025	666.44
418.233	742.22
418.441	795.47
418.649	731.98
418.857	754.51
419.065	893.77
419.273	734.03
419.481	809.8
419.689	840.52
419.897	889.67
420.105	887.62
420.313	990.02
420.521	1024.84
420.729	987.97
420.937	1082.18
421.145	1164.1
421.353	1088.32
421.561	1213.25
421.769	1168.2
421.977	1229.63
422.185	1293.12
422.393	1323.84
422.601	1448.77
422.809	1409.86
423.017	1479.49
423.224	1463.1
423.432	1551.17
423.64	1516.35
423.848	1639.23
424.056	1684.28
424.263	1696.57
424.471	1796.92
424.679	1829.69
424.887	1905.46
425.094	1846.07
425.302	1979.19
425.51	1966.9
425.718	2179.89
425.925	2081.59
426.133	2169.65
426.341	2233.14
426.548	2552.62
426.756	2427.7
426.964	2495.28
427.171	2591.53
427.379	2450.22
427.586	2646.83
427.794	2802.47
428.001	2898.73
428.209	3050.28
428.417	3003.18
428.624	3308.32
428.832	3101.48
429.039	3128.1
429.247	3269.41
429.454	3470.11
429.662	3617.57
429.869	3377.95
430.076	3758.88
430.284	3498.78
430.491	3795.74
430.699	3949.34
430.906	4061.98
431.114	4006.68
431.321	4207.38
431.528	4399.89
431.736	4578.06
431.943	4858.64
432.15	4754.19
432.358	4743.95
432.565	4879.11
432.772	4918.03
432.979	5356.29
433.187	5335.81
433.394	5301
433.601	5763.84
433.808	5833.47
434.016	5663.49
434.223	5888.76
434.43	6224.63
434.637	6116.09
434.844	6466.29
435.052	6695.66
435.259	6583.02
435.466	6722.29
435.673	6671.09
435.88	7023.34
436.087	7234.28
436.294	7465.7
436.501	7305.96
436.708	7287.53
436.915	7527.14
437.122	7983.84
437.329	8039.13
437.537	8200.92
437.743	8282.84
437.95	8266.46
438.157	8604.37
438.364	9024.2
438.571	8948.43
438.778	9153.23
438.985	9974.46
439.192	9380.55
439.399	9734.85
439.606	9614.02
439.813	10175.16
440.02	10982.06
440.227	10580.66
440.433	10347.19
440.64	10990.25
440.847	10840.75
441.054	10988.21
441.261	11887.26
441.467	11602.6
441.674	11625.12
441.881	12333.72
442.088	12075.68
442.294	12130.97
442.501	12266.14
442.708	12753.55
442.914	12995.22
443.121	13808.26
443.328	13230.73
443.534	14406.27
443.741	14101.12
443.948	13705.86
444.154	14944.88
444.361	14924.4
444.568	14957.17
444.774	14951.03
444.981	14899.83
445.187	15358.57
445.394	16132.7
445.6	15825.51
445.807	17474.12
446.013	16585.3
446.22	16869.97
446.426	17881.67
446.633	18018.88
446.839	18520.63
447.046	17527.37
447.252	18659.9
447.459	18610.75
447.665	18725.43
447.871	19253.81
448.078	20566.56
448.284	19282.48
448.491	19978.79
448.697	20646.43
448.903	21047.83
449.11	21068.31
449.316	20750.87
449.522	21228.05
449.728	21660.17
449.935	21795.34
450.141	21971.46
450.347	22395.39
450.553	21619.21
450.76	21850.63
450.966	22761.98
451.172	22356.48
451.378	22997.49
451.584	22673.92
451.791	23296.5
451.997	23071.22
452.203	23425.52
452.409	23341.55
452.615	22983.16
452.821	22514.17
453.027	22110.72
453.233	23538.16
453.44	22288.9
453.646	22759.93
453.852	22587.9
454.058	23130.61
454.264	22397.44
454.47	22895.1
454.676	22428.16
454.882	23091.7
455.088	21318.16
455.294	21506.57
455.5	21656.07
455.705	22129.16
455.911	21191.19
456.117	20619.8
456.323	20308.51
456.529	19249.71
456.735	19915.3
456.941	19831.33
457.147	19558.95
457.352	18870.84
457.558	18451
457.764	18686.52
457.97	18139.71
458.176	17750.6
458.381	17711.69
458.587	16638.55
458.793	16704.09
458.999	15927.91
459.204	17074.77
459.41	16487
459.616	15446.63
459.821	15571.56
460.027	15407.72
460.233	15102.57
460.438	14494.33
460.644	14541.43
460.85	13724.29
461.055	13685.38
461.261	13771.4
461.466	12559
461.672	12196.51
461.878	13140.62
462.083	12139.16
462.289	12008.09
462.494	11893.41
462.7	11539.11
462.905	10957.49
463.111	11502.25
463.316	11457.19
463.522	11219.63
463.727	11066.03
463.932	11225.77
464.138	11117.23
464.343	11164.33
464.549	10910.38
464.754	11150
464.959	10959.53
465.165	11098.8
465.37	10672.82
465.575	10105.53
465.781	10693.3
465.986	10775.22
466.191	10384.05
466.397	10246.84
466.602	9732.8
466.807	9931.45
467.012	9855.68
467.218	10150.59
467.423	9913.02
467.628	9880.25
467.833	10244.79
468.038	9953.98
468.244	9620.16
468.449	9972.41
468.654	9759.42
