Data from USB4F104151__78__12-24-22-816.txt Node

Date: Fri Mar 14 12:24:22 EDT 2025
User: louis
Spectrometer: USB4F10415
Trigger mode: 4
Integration Time (sec): 3.500000E-2
Scans to average: 1
Electric dark correction enabled: true
Nonlinearity correction enabled: false
Boxcar width: 0
XAxis mode: Wavelengths
Number of Pixels in Spectrum: 3648
>>>>>Begin Spectral Data<<<<<
178.204	-165.54
178.424	-165.54
178.644	-165.54
178.864	-204.46
179.084	-159.4
179.304	12.63
179.524	-36.52
179.744	22.87
179.964	-3.75
180.184	-3.75
180.404	-5.8
180.624	-22.19
180.844	-42.67
181.064	-28.33
181.283	65.88
181.503	-5.8
181.723	47.44
181.943	-16.04
182.163	47.44
182.383	-36.52
182.602	65.88
182.822	106.84
183.042	51.54
183.262	-46.76
183.482	18.77
183.701	-20.14
183.921	37.2
184.141	-32.43
184.361	86.36
184.58	8.53
184.8	80.21
185.02	-16.04
185.239	65.88
185.459	-5.8
185.679	18.77
185.898	-77.48
186.118	41.3
186.338	14.68
186.557	39.25
186.777	-1.71
186.997	-22.19
187.216	24.92
187.436	110.93
187.655	18.77
187.875	16.73
188.095	33.11
188.314	123.22
188.534	76.12
188.753	-16.04
188.973	53.59
189.192	55.64
189.412	61.78
189.631	24.92
189.851	127.32
190.07	29.01
190.29	8.53
190.509	39.25
190.729	-9.9
190.948	-13.99
191.168	170.32
191.387	41.3
191.607	-22.19
191.826	22.87
192.045	4.44
192.265	2.39
192.484	31.06
192.704	57.68
192.923	0.34
193.142	63.83
193.362	6.49
193.581	76.12
193.8	112.98
194.02	55.64
194.239	78.16
194.458	51.54
194.678	22.87
194.897	59.73
195.116	49.49
195.335	14.68
195.555	78.16
195.774	37.2
195.993	39.25
196.212	26.96
196.432	2.39
196.651	106.84
196.87	16.73
197.089	80.21
197.308	43.35
197.528	102.74
197.747	43.35
197.966	61.78
198.185	67.92
198.404	14.68
198.623	10.58
198.842	39.25
199.062	61.78
199.281	78.16
199.5	43.35
199.719	59.73
199.938	33.11
200.157	12.63
200.376	35.16
200.595	88.4
200.814	76.12
201.033	16.73
201.252	-18.09
201.471	41.3
201.69	72.02
201.909	45.4
202.128	22.87
202.347	94.55
202.566	16.73
202.785	-7.85
203.004	24.92
203.223	100.69
203.442	-7.85
203.661	-26.28
203.879	69.97
204.098	88.4
204.317	61.78
204.536	133.46
204.755	37.2
204.974	24.92
205.193	102.74
205.411	110.93
205.63	61.78
205.849	57.68
206.068	-59.05
206.287	12.63
206.505	69.97
206.724	-11.95
206.943	18.77
207.162	45.4
207.381	57.68
207.599	84.31
207.818	55.64
208.037	39.25
208.255	26.96
208.474	96.6
208.693	20.82
208.911	31.06
209.13	53.59
209.349	-20.14
209.567	20.82
209.786	65.88
210.005	33.11
210.223	72.02
210.442	-3.75
210.661	31.06
210.879	-9.9
211.098	82.26
211.316	31.06
211.535	141.65
211.753	-40.62
211.972	43.35
212.191	65.88
212.409	47.44
212.628	-11.95
212.846	29.01
213.065	67.92
213.283	26.96
213.502	-79.53
213.72	63.83
213.938	26.96
214.157	53.59
214.375	41.3
214.594	26.96
214.812	59.73
215.031	-42.67
215.249	55.64
215.467	39.25
215.686	47.44
215.904	59.73
216.122	53.59
216.341	92.5
216.559	39.25
216.778	96.6
216.996	43.35
217.214	16.73
217.432	67.92
217.651	33.11
217.869	10.58
218.087	43.35
218.306	24.92
218.524	96.6
218.742	16.73
218.96	80.21
219.179	35.16
219.397	72.02
219.615	63.83
219.833	33.11
220.051	-32.43
220.27	67.92
220.488	37.2
220.706	74.07
220.924	49.49
221.142	18.77
221.36	41.3
221.578	63.83
221.796	-28.33
222.015	72.02
222.233	43.35
222.451	115.03
222.669	-5.8
222.887	8.53
223.105	43.35
223.323	20.82
223.541	6.49
223.759	43.35
223.977	16.73
224.195	67.92
224.413	53.59
224.631	29.01
224.849	6.49
225.067	110.93
225.285	16.73
225.503	59.73
225.721	-85.67
225.939	-7.85
226.157	29.01
226.375	117.08
226.592	76.12
226.81	78.16
227.028	2.39
227.246	104.79
227.464	33.11
227.682	20.82
227.9	-3.75
228.117	31.06
228.335	78.16
228.553	86.36
228.771	55.64
228.989	-7.85
229.206	-7.85
229.424	-1.71
229.642	-16.04
229.86	-61.1
230.077	41.3
230.295	39.25
230.513	53.59
230.731	53.59
230.948	12.63
231.166	-1.71
231.384	29.01
231.601	-20.14
231.819	162.13
232.037	18.77
232.254	-7.85
232.472	-22.19
232.689	14.68
232.907	117.08
233.125	24.92
233.342	26.96
233.56	98.64
233.777	22.87
233.995	119.12
234.213	137.56
234.43	26.96
234.648	37.2
234.865	45.4
235.083	67.92
235.3	24.92
235.518	6.49
235.735	100.69
235.953	102.74
236.17	4.44
236.388	-13.99
236.605	51.54
236.822	55.64
237.04	51.54
237.257	100.69
237.475	31.06
237.692	86.36
237.909	4.44
238.127	22.87
238.344	55.64
238.562	106.84
238.779	-46.76
238.996	20.82
239.214	12.63
239.431	84.31
239.648	2.39
239.865	69.97
240.083	65.88
240.3	-16.04
240.517	4.44
240.735	-36.52
240.952	76.12
241.169	133.46
241.386	51.54
241.603	-11.95
241.821	-54.95
242.038	10.58
242.255	69.97
242.472	2.39
242.689	-11.95
242.907	43.35
243.124	92.5
243.341	-1.71
243.558	-1.71
243.775	26.96
243.992	29.01
244.209	45.4
244.426	94.55
244.643	10.58
244.86	51.54
245.078	110.93
245.295	31.06
245.512	2.39
245.729	121.17
245.946	29.01
246.163	22.87
246.38	69.97
246.597	-18.09
246.814	22.87
247.031	-11.95
247.248	65.88
247.464	67.92
247.681	80.21
247.898	14.68
248.115	43.35
248.332	-13.99
248.549	76.12
248.766	92.5
248.983	88.4
249.2	6.49
249.417	86.36
249.633	39.25
249.85	74.07
250.067	51.54
250.284	-1.71
250.501	0.34
250.717	18.77
250.934	47.44
251.151	2.39
251.368	43.35
251.585	61.78
251.801	33.11
252.018	6.49
252.235	74.07
252.451	18.77
252.668	20.82
252.885	24.92
253.102	59.73
253.318	33.11
253.535	6.49
253.752	51.54
253.968	-32.43
254.185	-24.23
254.401	57.68
254.618	10.58
254.835	24.92
255.051	92.5
255.268	18.77
255.484	20.82
255.701	78.16
255.917	117.08
256.134	-36.52
256.351	14.68
256.567	112.98
256.784	43.35
257	-50.86
257.217	78.16
257.433	106.84
257.65	33.11
257.866	37.2
258.082	12.63
258.299	6.49
258.515	33.11
258.732	33.11
258.948	0.34
259.165	41.3
259.381	47.44
259.597	53.59
259.814	65.88
260.03	31.06
260.246	10.58
260.463	2.39
260.679	88.4
260.895	6.49
261.112	76.12
261.328	127.32
261.544	57.68
261.761	82.26
261.977	39.25
262.193	-104.11
262.409	88.4
262.626	45.4
262.842	74.07
263.058	49.49
263.274	72.02
263.49	37.2
263.707	59.73
263.923	24.92
264.139	31.06
264.355	29.01
264.571	90.45
264.787	26.96
265.004	76.12
265.22	-44.71
265.436	-1.71
265.652	-1.71
265.868	39.25
266.084	14.68
266.3	39.25
266.516	4.44
266.732	78.16
266.948	55.64
267.164	6.49
267.38	55.64
267.596	65.88
267.812	106.84
268.028	98.64
268.244	4.44
268.46	-7.85
268.676	26.96
268.892	43.35
269.108	-11.95
269.324	12.63
269.54	61.78
269.756	57.68
269.972	-42.67
270.188	10.58
270.403	-3.75
270.619	33.11
270.835	-36.52
271.051	29.01
271.267	-20.14
271.483	-3.75
271.698	-11.95
271.914	39.25
272.13	69.97
272.346	12.63
272.562	86.36
272.777	-7.85
272.993	57.68
273.209	141.65
273.425	145.75
273.64	6.49
273.856	55.64
274.072	-13.99
274.287	-75.43
274.503	49.49
274.719	104.79
274.934	51.54
275.15	-87.72
275.366	67.92
275.581	-7.85
275.797	-36.52
276.012	35.16
276.228	53.59
276.444	-34.47
276.659	39.25
276.875	63.83
277.09	35.16
277.306	76.12
277.521	98.64
277.737	59.73
277.952	37.2
278.168	47.44
278.383	72.02
278.599	45.4
278.814	143.7
279.03	59.73
279.245	20.82
279.461	22.87
279.676	69.97
279.892	-32.43
280.107	6.49
280.322	-3.75
280.538	43.35
280.753	94.55
280.969	96.6
281.184	37.2
281.399	47.44
281.615	69.97
281.83	65.88
282.045	61.78
282.26	41.3
282.476	35.16
282.691	63.83
282.906	18.77
283.122	43.35
283.337	29.01
283.552	-7.85
283.767	24.92
283.983	104.79
284.198	26.96
284.413	133.46
284.628	-16.04
284.843	39.25
285.058	22.87
285.274	67.92
285.489	35.16
285.704	127.32
285.919	53.59
286.134	14.68
286.349	88.4
286.564	57.68
286.779	74.07
286.995	18.77
287.21	-9.9
287.425	-1.71
287.64	-7.85
287.855	20.82
288.07	10.58
288.285	45.4
288.5	45.4
288.715	59.73
288.93	31.06
289.145	90.45
289.36	45.4
289.575	61.78
289.79	-18.09
290.004	16.73
290.219	61.78
290.434	-38.57
290.649	8.53
290.864	24.92
291.079	-75.43
291.294	4.44
291.509	-9.9
291.724	112.98
291.938	-7.85
292.153	33.11
292.368	-20.14
292.583	121.17
292.798	74.07
293.012	94.55
293.227	59.73
293.442	110.93
293.657	72.02
293.871	170.32
294.086	67.92
294.301	92.5
294.516	49.49
294.73	100.69
294.945	-18.09
295.16	18.77
295.374	84.31
295.589	80.21
295.804	14.68
296.018	80.21
296.233	119.12
296.447	51.54
296.662	29.01
296.877	61.78
297.091	57.68
297.306	96.6
297.52	35.16
297.735	53.59
297.949	39.25
298.164	63.83
298.378	102.74
298.593	-40.62
298.807	-9.9
299.022	-48.81
299.236	80.21
299.451	26.96
299.665	65.88
299.88	-7.85
300.094	100.69
300.309	4.44
300.523	59.73
300.737	29.01
300.952	65.88
301.166	59.73
301.381	10.58
301.595	22.87
301.809	43.35
302.024	61.78
302.238	4.44
302.452	80.21
302.667	-38.57
302.881	55.64
303.095	90.45
303.309	49.49
303.524	45.4
303.738	37.2
303.952	-34.47
304.166	51.54
304.381	-61.1
304.595	88.4
304.809	74.07
305.023	-16.04
305.237	20.82
305.452	57.68
305.666	4.44
305.88	76.12
306.094	65.88
306.308	41.3
306.522	47.44
306.736	45.4
306.95	92.5
307.164	-20.14
307.379	61.78
307.593	84.31
307.807	45.4
308.021	-40.62
308.235	51.54
308.449	35.16
308.663	29.01
308.877	88.4
309.091	121.17
309.305	80.21
309.519	47.44
309.733	55.64
309.947	-44.71
310.161	31.06
310.374	35.16
310.588	82.26
310.802	-48.81
311.016	67.92
311.23	80.21
311.444	74.07
311.658	-30.38
311.872	76.12
312.085	98.64
312.299	61.78
312.513	47.44
312.727	88.4
312.941	-3.75
313.154	51.54
313.368	29.01
313.582	10.58
313.796	2.39
314.009	84.31
314.223	61.78
314.437	45.4
314.651	29.01
314.864	47.44
315.078	16.73
315.292	-52.91
315.505	0.34
315.719	88.4
315.933	51.54
316.146	12.63
316.36	53.59
316.573	10.58
316.787	51.54
317.001	22.87
317.214	-9.9
317.428	29.01
317.641	37.2
317.855	-5.8
318.068	45.4
318.282	61.78
318.495	176.47
318.709	72.02
318.922	106.84
319.136	55.64
319.349	72.02
319.563	72.02
319.776	72.02
319.99	-61.1
320.203	14.68
320.417	49.49
320.63	35.16
320.843	63.83
321.057	59.73
321.27	31.06
321.483	-16.04
321.697	41.3
321.91	-5.8
322.124	31.06
322.337	43.35
322.55	45.4
322.763	-32.43
322.977	57.68
323.19	35.16
323.403	102.74
323.617	-1.71
323.83	0.34
324.043	98.64
324.256	90.45
324.469	-18.09
324.683	67.92
324.896	-11.95
325.109	24.92
325.322	-20.14
325.535	-34.47
325.748	-7.85
325.962	4.44
326.175	-9.9
326.388	55.64
326.601	98.64
326.814	16.73
327.027	37.2
327.24	41.3
327.453	-20.14
327.666	88.4
327.879	45.4
328.092	88.4
328.305	45.4
328.518	102.74
328.731	8.53
328.944	37.2
329.157	43.35
329.37	53.59
329.583	88.4
329.796	67.92
330.009	12.63
330.222	92.5
330.435	94.55
330.648	31.06
330.861	104.79
331.073	53.59
331.286	57.68
331.499	14.68
331.712	69.97
331.925	61.78
332.138	47.44
332.35	43.35
332.563	6.49
332.776	24.92
332.989	90.45
333.202	6.49
333.414	92.5
333.627	61.78
333.84	41.3
334.053	69.97
334.265	31.06
334.478	6.49
334.691	84.31
334.903	16.73
335.116	-11.95
335.329	65.88
335.541	76.12
335.754	57.68
335.966	72.02
336.179	39.25
336.392	-32.43
336.604	39.25
336.817	59.73
337.029	29.01
337.242	35.16
337.454	84.31
337.667	24.92
337.88	53.59
338.092	106.84
338.305	24.92
338.517	39.25
338.729	37.2
338.942	86.36
339.154	-30.38
339.367	31.06
339.579	33.11
339.792	-32.43
340.004	-22.19
340.217	74.07
340.429	69.97
340.641	55.64
340.854	-13.99
341.066	55.64
341.278	6.49
341.491	127.32
341.703	-5.8
341.915	-54.95
342.128	96.6
342.34	84.31
342.552	-7.85
342.764	80.21
342.977	22.87
343.189	67.92
343.401	65.88
343.613	-38.57
343.826	74.07
344.038	24.92
344.25	22.87
344.462	45.4
344.674	65.88
344.886	-3.75
345.099	137.56
345.311	22.87
345.523	63.83
345.735	12.63
345.947	-9.9
346.159	37.2
346.371	26.96
346.583	0.34
346.795	115.03
347.007	-11.95
347.219	90.45
347.431	35.16
347.643	84.31
347.855	76.12
348.067	115.03
348.279	43.35
348.491	2.39
348.703	72.02
348.915	4.44
349.127	10.58
349.339	143.7
349.551	18.77
349.763	6.49
349.975	-20.14
350.187	22.87
350.399	76.12
350.61	14.68
350.822	6.49
351.034	80.21
351.246	33.11
351.458	57.68
351.669	14.68
351.881	4.44
352.093	45.4
352.305	104.79
352.517	-34.47
352.728	84.31
352.94	-5.8
353.152	35.16
353.363	22.87
353.575	29.01
353.787	55.64
353.999	102.74
354.21	88.4
354.422	37.2
354.633	45.4
354.845	-22.19
355.057	84.31
355.268	110.93
355.48	100.69
355.692	10.58
355.903	57.68
356.115	2.39
356.326	-5.8
356.538	137.56
356.749	45.4
356.961	55.64
357.172	29.01
357.384	-26.28
357.595	133.46
357.807	69.97
358.018	-79.53
358.23	57.68
358.441	133.46
358.653	-1.71
358.864	14.68
359.075	-1.71
359.287	94.55
359.498	100.69
359.709	86.36
359.921	18.77
360.132	88.4
360.344	4.44
360.555	61.78
360.766	29.01
360.977	-7.85
361.189	18.77
361.4	22.87
361.611	55.64
361.823	35.16
362.034	61.78
362.245	-34.47
362.456	-1.71
362.667	33.11
362.879	-30.38
363.09	29.01
363.301	12.63
363.512	0.34
363.723	121.17
363.935	22.87
364.146	69.97
364.357	88.4
364.568	63.83
364.779	51.54
364.99	31.06
365.201	-1.71
365.412	106.84
365.623	12.63
365.834	94.55
366.045	112.98
366.256	82.26
366.467	67.92
366.678	16.73
366.889	41.3
367.1	168.27
367.311	84.31
367.522	12.63
367.733	61.78
367.944	92.5
368.155	94.55
368.366	67.92
368.577	55.64
368.788	59.73
368.999	-13.99
369.209	22.87
369.42	137.56
369.631	112.98
369.842	102.74
370.053	117.08
370.264	61.78
370.474	6.49
370.685	-9.9
370.896	6.49
371.107	94.55
371.317	69.97
371.528	49.49
371.739	49.49
371.95	59.73
372.16	94.55
372.371	-65.19
372.582	26.96
372.792	49.49
373.003	115.03
373.214	110.93
373.424	37.2
373.635	49.49
373.846	47.44
374.056	69.97
374.267	65.88
374.477	41.3
374.688	37.2
374.898	43.35
375.109	22.87
375.319	-57
375.53	127.32
375.74	67.92
375.951	104.79
376.161	67.92
376.372	43.35
376.582	55.64
376.793	67.92
377.003	22.87
377.214	37.2
377.424	55.64
377.635	61.78
377.845	72.02
378.055	98.64
378.266	12.63
378.476	-5.8
378.686	80.21
378.897	55.64
379.107	63.83
379.317	92.5
379.528	49.49
379.738	135.51
379.948	43.35
380.158	61.78
380.369	78.16
380.579	112.98
380.789	26.96
380.999	37.2
381.21	26.96
381.42	51.54
381.63	14.68
381.84	20.82
382.05	69.97
382.261	16.73
382.471	96.6
382.681	41.3
382.891	82.26
383.101	69.97
383.311	6.49
383.521	22.87
383.731	57.68
383.941	39.25
384.151	39.25
384.361	20.82
384.571	90.45
384.781	39.25
384.991	110.93
385.201	141.65
385.411	96.6
385.621	145.75
385.831	55.64
386.041	104.79
386.251	55.64
386.461	143.7
386.671	12.63
386.881	53.59
387.091	37.2
387.301	96.6
387.511	26.96
387.72	141.65
387.93	121.17
388.14	-3.75
388.35	78.16
388.56	155.99
388.769	108.88
388.979	88.4
389.189	94.55
389.399	106.84
389.609	55.64
389.818	96.6
390.028	12.63
390.238	102.74
390.447	-16.04
390.657	160.08
390.867	35.16
391.076	26.96
391.286	131.41
391.496	8.53
391.705	108.88
391.915	29.01
392.125	78.16
392.334	121.17
392.544	117.08
392.753	108.88
392.963	18.77
393.172	0.34
393.382	43.35
393.591	41.3
393.801	100.69
394.01	84.31
394.22	80.21
394.429	39.25
394.639	78.16
394.848	51.54
395.058	12.63
395.267	96.6
395.477	108.88
395.686	80.21
395.895	110.93
396.105	94.55
396.314	43.35
396.524	135.51
396.733	119.12
396.942	162.13
397.152	190.8
397.361	119.12
397.57	88.4
397.78	67.92
397.989	69.97
398.198	110.93
398.407	82.26
398.617	98.64
398.826	84.31
399.035	96.6
399.244	129.36
399.453	78.16
399.663	145.75
399.872	94.55
400.081	98.64
400.29	135.51
400.499	84.31
400.708	137.56
400.917	88.4
401.127	37.2
401.336	80.21
401.545	143.7
401.754	94.55
401.963	135.51
402.172	112.98
402.381	69.97
402.59	84.31
402.799	82.26
403.008	143.7
403.217	72.02
403.426	96.6
403.635	47.44
403.844	149.84
404.053	174.42
404.262	82.26
404.471	115.03
404.68	137.56
404.888	143.7
405.097	149.84
405.306	147.8
405.515	102.74
405.724	147.8
405.933	133.46
406.142	170.32
406.35	211.28
406.559	143.7
406.768	133.46
406.977	207.19
407.185	190.8
407.394	147.8
407.603	145.75
407.812	180.56
408.02	205.14
408.229	215.38
408.438	194.9
408.646	137.56
408.855	160.08
409.064	217.43
409.272	242
409.481	246.1
409.69	188.75
409.898	164.18
410.107	262.48
410.315	278.87
410.524	268.63
410.733	328.02
410.941	301.39
411.15	342.35
411.358	328.02
411.567	401.74
411.775	342.35
411.984	350.54
412.192	319.82
412.401	346.45
412.609	467.28
412.818	416.08
413.026	420.17
413.234	395.6
413.443	424.27
413.651	432.46
413.86	436.56
414.068	506.19
414.276	553.29
414.485	479.57
414.693	663.88
414.901	545.1
415.11	557.39
415.318	631.12
415.526	651.6
415.734	721.23
415.943	704.84
416.151	751.95
416.359	760.14
416.567	737.61
416.776	893.26
416.984	807.24
417.192	872.78
417.4	809.29
417.608	760.14
417.817	815.43
418.025	893.26
418.233	1046.85
418.441	932.17
418.649	983.37
418.857	1063.24
419.065	1155.4
419.273	1073.48
419.481	1112.39
419.689	1161.54
419.897	1143.11
420.105	1114.44
420.313	1216.83
420.521	1364.29
420.729	1390.91
420.937	1374.53
421.145	1478.97
421.353	1577.28
421.561	1616.19
421.769	1726.78
421.977	1708.35
422.185	1747.26
422.393	1761.59
422.601	1861.94
422.809	1841.47
423.017	1886.52
423.224	1999.16
423.432	2068.79
423.64	2054.45
423.848	2283.83
424.056	2222.39
424.263	2326.83
424.471	2332.98
424.679	2244.92
424.887	2433.33
425.094	2638.13
425.302	2609.45
425.51	2734.38
425.718	2847.02
425.925	2789.67
426.133	2902.31
426.341	3047.72
426.548	3270.95
426.756	3201.32
426.964	3258.66
427.171	3485.98
427.379	3522.85
427.586	3541.28
427.794	3799.32
428.001	3860.76
428.209	3946.78
428.417	4139.29
428.624	4327.7
428.832	4374.8
429.039	4186.39
429.247	4180.25
429.454	4659.47
429.662	5163.27
429.869	4602.13
430.076	5112.07
430.284	4808.97
430.491	5138.69
430.699	5329.16
430.906	5462.27
431.114	5517.57
431.321	5583.1
431.528	5740.8
431.736	6170.87
431.943	6410.48
432.15	6154.49
432.358	6070.52
432.565	6695.15
432.772	6459.63
432.979	7045.35
433.187	7162.09
433.394	7100.65
433.601	7690.46
433.808	7500
434.016	7530.72
434.223	7880.93
434.43	8378.58
434.637	8093.91
434.844	8706.26
435.052	8882.38
435.259	8786.13
435.466	8874.19
435.673	8915.15
435.88	9222.34
436.087	9814.21
436.294	9930.94
436.501	9746.62
436.708	10039.48
436.915	10201.27
437.122	10660.02
437.329	10684.59
437.537	10985.65
437.743	11104.43
437.95	11143.34
438.157	11462.82
438.364	12044.45
438.571	11882.66
438.778	12038.3
438.985	13093.01
439.192	12644.5
439.399	12976.27
439.606	12785.81
439.813	13389.96
440.02	14080.13
440.227	14131.33
440.433	13891.71
440.64	14422.14
440.847	14282.88
441.054	14751.86
441.261	15767.65
441.467	15482.99
441.674	15806.56
441.881	16265.31
442.088	16455.77
442.294	16009.31
442.501	16521.31
442.708	17082.45
442.914	17592.39
443.121	18403.39
443.328	17825.86
443.534	19075.12
443.741	18593.85
443.948	18247.74
444.154	19669.03
444.361	19634.22
444.568	19634.22
444.774	19728.42
444.981	19949.6
445.187	20455.45
445.394	21329.94
445.6	21129.23
445.807	23173.11
446.013	22149.12
446.22	22523.9
446.426	23459.82
446.633	23742.44
446.839	24471.52
447.046	23533.55
447.252	24915.93
447.459	24612.83
447.665	24537.05
447.871	25948.11
448.078	26841.02
448.284	25587.66
448.491	25987.02
448.697	27412.4
448.903	27664.3
449.11	27959.21
449.316	27568.05
449.522	28180.39
449.728	28518.31
449.935	28995.48
450.141	28817.31
450.347	29450.13
450.553	28526.5
450.76	29028.25
450.966	30050.19
451.172	29433.75
451.378	30322.57
451.584	29798.29
451.791	30842.75
451.997	30242.7
452.203	30844.8
452.409	30893.95
452.615	30975.87
452.821	29847.44
453.027	29312.92
453.233	30844.8
453.44	29824.91
453.646	29708.18
453.852	30060.43
454.058	30568.32
454.264	29458.32
454.47	30150.54
454.676	29269.91
454.882	30668.67
455.088	27740.08
455.294	28245.93
455.5	28585.89
455.705	29003.67
455.911	27629.49
456.117	27070.39
456.323	27000.76
456.529	25391.06
456.735	26611.65
456.941	25999.3
457.147	25454.54
457.352	24448.99
457.558	24111.08
457.764	24467.42
457.97	23703.53
458.176	23328.75
458.381	23365.62
458.587	22142.98
458.793	22220.8
458.999	20781.08
459.204	22478.85
459.41	21747.72
459.616	20387.87
459.821	20420.64
460.027	20387.87
460.233	19662.89
460.438	19154.99
460.644	19146.8
460.85	18180.16
461.055	17872.96
461.261	17733.7
461.466	16738.39
461.672	16050.27
461.878	17381.45
462.083	15937.63
462.289	15847.52
462.494	15749.22
462.7	15003.76
462.905	14512.25
463.111	15071.34
463.316	15196.27
463.522	14731.38
463.727	14741.62
463.932	14801.01
464.138	14639.22
464.343	14581.88
464.549	14334.07
464.754	14811.25
464.959	14710.9
465.165	14366.84
465.37	13979.78
465.575	13807.75
465.781	14002.3
465.986	14141.57
466.191	13740.16
466.397	13369.48
466.602	12753.04
466.807	13168.78
467.012	13285.51
467.218	13275.27
467.423	13074.57
467.628	13197.45
467.833	13766.79
468.038	13156.49
