Data from USB4F104151__15__12-23-26-193.txt Node

Date: Fri Mar 14 12:23:26 EDT 2025
User: louis
Spectrometer: USB4F10415
Trigger mode: 4
Integration Time (sec): 3.500000E-2
Scans to average: 1
Electric dark correction enabled: true
Nonlinearity correction enabled: false
Boxcar width: 0
XAxis mode: Wavelengths
Number of Pixels in Spectrum: 3648
>>>>>Begin Spectral Data<<<<<
178.204	-160.42
178.424	-160.42
178.644	-160.42
178.864	-223.91
179.084	-119.46
179.304	-35.5
179.524	32.08
179.744	32.08
179.964	34.13
180.184	-37.55
180.404	9.56
180.624	-45.74
180.844	17.75
181.064	-19.11
181.283	-25.26
181.503	21.84
181.723	15.7
181.943	-23.21
182.163	142.68
182.383	-19.11
182.602	60.76
182.822	19.8
183.042	114
183.262	-10.92
183.482	66.9
183.701	71
183.921	126.29
184.141	-4.78
184.361	87.38
184.58	40.28
184.8	19.8
185.02	3.41
185.239	60.76
185.459	40.28
185.679	89.43
185.898	19.8
186.118	62.8
186.338	75.09
186.557	89.43
186.777	11.61
186.997	44.37
187.216	91.48
187.436	54.61
187.655	107.86
187.875	91.48
188.095	11.61
188.314	3.41
188.534	111.96
188.753	38.23
188.973	107.86
189.192	68.95
189.412	132.44
189.631	64.85
189.851	46.42
190.07	30.04
190.29	54.61
190.509	34.13
190.729	-12.97
190.948	107.86
191.168	208.21
191.387	42.32
191.607	56.66
191.826	89.43
192.045	44.37
192.265	60.76
192.484	50.52
192.704	64.85
192.923	71
193.142	71
193.362	36.18
193.581	159.06
193.8	-21.16
194.02	9.56
194.239	54.61
194.458	17.75
194.678	32.08
194.897	15.7
195.116	79.19
195.335	36.18
195.555	87.38
195.774	17.75
195.993	109.91
196.212	46.42
196.432	19.8
196.651	34.13
196.87	46.42
197.089	136.53
197.308	105.81
197.528	73.04
197.747	-19.11
197.966	25.94
198.185	159.06
198.404	27.99
198.623	3.41
198.842	73.04
199.062	111.96
199.281	114
199.5	-12.97
199.719	58.71
199.938	85.33
200.157	124.24
200.376	101.72
200.595	46.42
200.814	54.61
201.033	38.23
201.252	81.24
201.471	60.76
201.69	83.28
201.909	15.7
202.128	62.8
202.347	-25.26
202.566	62.8
202.785	23.89
203.004	23.89
203.223	130.39
203.442	64.85
203.661	19.8
203.879	75.09
204.098	85.33
204.317	-8.87
204.536	101.72
204.755	11.61
204.974	66.9
205.193	60.76
205.411	64.85
205.63	40.28
205.849	83.28
206.068	1.37
206.287	-55.98
206.505	44.37
206.724	68.95
206.943	23.89
207.162	32.08
207.381	128.34
207.599	-17.07
207.818	32.08
208.037	52.56
208.255	114
208.474	136.53
208.693	46.42
208.911	42.32
209.13	27.99
209.349	73.04
209.567	81.24
209.786	75.09
210.005	111.96
210.223	73.04
210.442	-19.11
210.661	34.13
210.879	-8.87
211.098	91.48
211.316	38.23
211.535	95.57
211.753	109.91
211.972	15.7
212.191	50.52
212.409	-17.07
212.628	21.84
212.846	64.85
213.065	17.75
213.283	73.04
213.502	99.67
213.72	1.37
213.938	62.8
214.157	36.18
214.375	62.8
214.594	77.14
214.812	109.91
215.031	1.37
215.249	42.32
215.467	40.28
215.686	38.23
215.904	91.48
216.122	19.8
216.341	32.08
216.559	36.18
216.778	109.91
216.996	171.35
217.214	32.08
217.432	21.84
217.651	-47.79
217.869	64.85
218.087	40.28
218.306	85.33
218.524	48.47
218.742	62.8
218.96	75.09
219.179	52.56
219.397	-10.92
219.615	128.34
219.833	159.06
220.051	36.18
220.27	83.28
220.488	40.28
220.706	68.95
220.924	85.33
221.142	48.47
221.36	87.38
221.578	46.42
221.796	1.37
222.015	-31.4
222.233	-10.92
222.451	56.66
222.669	73.04
222.887	77.14
223.105	60.76
223.323	38.23
223.541	-10.92
223.759	114
223.977	-19.11
224.195	60.76
224.413	148.82
224.631	126.29
224.849	-6.83
225.067	101.72
225.285	71
225.503	13.65
225.721	-15.02
225.939	-10.92
226.157	91.48
226.375	140.63
226.592	-21.16
226.81	40.28
227.028	128.34
227.246	109.91
227.464	44.37
227.682	77.14
227.9	93.52
228.117	122.2
228.335	27.99
228.553	42.32
228.771	95.57
228.989	-12.97
229.206	71
229.424	56.66
229.642	-12.97
229.86	11.61
230.077	95.57
230.295	-10.92
230.513	114
230.731	138.58
230.948	75.09
231.166	17.75
231.384	23.89
231.601	11.61
231.819	93.52
232.037	7.51
232.254	-55.98
232.472	-45.74
232.689	34.13
232.907	58.71
233.125	73.04
233.342	38.23
233.56	120.15
233.777	48.47
233.995	1.37
234.213	89.43
234.43	73.04
234.648	71
234.865	15.7
235.083	75.09
235.3	19.8
235.518	93.52
235.735	101.72
235.953	44.37
236.17	-8.87
236.388	-33.45
236.605	25.94
236.822	60.76
237.04	36.18
237.257	109.91
237.475	32.08
237.692	73.04
237.909	54.61
238.127	75.09
238.344	159.06
238.562	62.8
238.779	13.65
238.996	19.8
239.214	60.76
239.431	40.28
239.648	60.76
239.865	52.56
240.083	60.76
240.3	27.99
240.517	114
240.735	-23.21
240.952	93.52
241.169	83.28
241.386	9.56
241.603	66.9
241.821	30.04
242.038	75.09
242.255	58.71
242.472	32.08
242.689	62.8
242.907	107.86
243.124	23.89
243.341	130.39
243.558	36.18
243.775	32.08
243.992	11.61
244.209	58.71
244.426	66.9
244.643	73.04
244.86	34.13
245.078	1.37
245.295	73.04
245.512	40.28
245.729	30.04
245.946	46.42
246.163	50.52
246.38	15.7
246.597	27.99
246.814	-8.87
247.031	52.56
247.248	114
247.464	95.57
247.681	21.84
247.898	34.13
248.115	132.44
248.332	7.51
248.549	101.72
248.766	68.95
248.983	73.04
249.2	19.8
249.417	48.47
249.633	5.46
249.85	95.57
250.067	73.04
250.284	3.41
250.501	89.43
250.717	87.38
250.934	-17.07
251.151	27.99
251.368	68.95
251.585	34.13
251.801	48.47
252.018	52.56
252.235	25.94
252.451	-62.12
252.668	62.8
252.885	21.84
253.102	23.89
253.318	38.23
253.535	34.13
253.752	23.89
253.968	-25.26
254.185	13.65
254.401	66.9
254.618	124.24
254.835	101.72
255.051	52.56
255.268	118.1
255.484	64.85
255.701	7.51
255.917	101.72
256.134	9.56
256.351	99.67
256.567	-27.31
256.784	60.76
257	-35.5
257.217	107.86
257.433	105.81
257.65	83.28
257.866	58.71
258.082	17.75
258.299	23.89
258.515	40.28
258.732	11.61
258.948	44.37
259.165	30.04
259.381	56.66
259.597	91.48
259.814	71
260.03	97.62
260.246	60.76
260.463	58.71
260.679	71
260.895	23.89
261.112	25.94
261.328	50.52
261.544	64.85
261.761	130.39
261.977	-2.73
262.193	40.28
262.409	114
262.626	-15.02
262.842	58.71
263.058	58.71
263.274	81.24
263.49	68.95
263.707	27.99
263.923	19.8
264.139	-0.68
264.355	91.48
264.571	85.33
264.787	30.04
265.004	48.47
265.22	25.94
265.436	-25.26
265.652	34.13
265.868	64.85
266.084	19.8
266.3	71
266.516	27.99
266.732	89.43
266.948	40.28
267.164	-2.73
267.38	42.32
267.596	118.1
267.812	54.61
268.028	50.52
268.244	38.23
268.46	32.08
268.676	1.37
268.892	-19.11
269.108	50.52
269.324	56.66
269.54	15.7
269.756	54.61
269.972	-53.93
270.188	124.24
270.403	13.65
270.619	48.47
270.835	27.99
271.051	91.48
271.267	68.95
271.483	116.05
271.698	68.95
271.914	27.99
272.13	-47.79
272.346	79.19
272.562	54.61
272.777	107.86
272.993	25.94
273.209	-10.92
273.425	89.43
273.64	132.44
273.856	13.65
274.072	34.13
274.287	7.51
274.503	142.68
274.719	66.9
274.934	73.04
275.15	7.51
275.366	21.84
275.581	36.18
275.797	13.65
276.012	11.61
276.228	91.48
276.444	-6.83
276.659	77.14
276.875	79.19
277.09	19.8
277.306	40.28
277.521	79.19
277.737	13.65
277.952	71
278.168	1.37
278.383	17.75
278.599	62.8
278.814	89.43
279.03	83.28
279.245	91.48
279.461	71
279.676	97.62
279.892	60.76
280.107	-4.78
280.322	-21.16
280.538	56.66
280.753	54.61
280.969	13.65
281.184	30.04
281.399	56.66
281.615	75.09
281.83	81.24
282.045	5.46
282.26	73.04
282.476	62.8
282.691	73.04
282.906	32.08
283.122	-2.73
283.337	73.04
283.552	111.96
283.767	17.75
283.983	42.32
284.198	114
284.413	15.7
284.628	50.52
284.843	66.9
285.058	52.56
285.274	21.84
285.489	50.52
285.704	66.9
285.919	44.37
286.134	152.91
286.349	27.99
286.564	19.8
286.779	124.24
286.995	163.15
287.21	34.13
287.425	75.09
287.64	44.37
287.855	-2.73
288.07	36.18
288.285	101.72
288.5	89.43
288.715	38.23
288.93	-8.87
289.145	-29.35
289.36	111.96
289.575	-4.78
289.79	114
290.004	66.9
290.219	73.04
290.434	46.42
290.649	101.72
290.864	73.04
291.079	11.61
291.294	93.52
291.509	34.13
291.724	42.32
291.938	34.13
292.153	34.13
292.368	-39.59
292.583	13.65
292.798	73.04
293.012	89.43
293.227	111.96
293.442	40.28
293.657	34.13
293.871	103.76
294.086	46.42
294.301	58.71
294.516	79.19
294.73	64.85
294.945	1.37
295.16	1.37
295.374	128.34
295.589	40.28
295.804	15.7
296.018	46.42
296.233	73.04
296.447	1.37
296.662	1.37
296.877	32.08
297.091	5.46
297.306	60.76
297.52	95.57
297.735	77.14
297.949	97.62
298.164	169.3
298.378	140.63
298.593	23.89
298.807	42.32
299.022	75.09
299.236	79.19
299.451	111.96
299.665	77.14
299.88	30.04
300.094	52.56
300.309	128.34
300.523	103.76
300.737	-25.26
300.952	44.37
301.166	85.33
301.381	-19.11
301.595	-6.83
301.809	46.42
302.024	77.14
302.238	-47.79
302.452	116.05
302.667	3.41
302.881	105.81
303.095	64.85
303.309	60.76
303.524	36.18
303.738	32.08
303.952	19.8
304.166	77.14
304.381	32.08
304.595	58.71
304.809	111.96
305.023	64.85
305.237	32.08
305.452	79.19
305.666	11.61
305.88	101.72
306.094	50.52
306.308	34.13
306.522	25.94
306.736	73.04
306.95	50.52
307.164	42.32
307.379	-62.12
307.593	83.28
307.807	50.52
308.021	91.48
308.235	154.96
308.449	52.56
308.663	60.76
308.877	134.48
309.091	38.23
309.305	60.76
309.519	44.37
309.733	73.04
309.947	-12.97
310.161	32.08
310.374	107.86
310.588	13.65
310.802	68.95
311.016	17.75
311.23	44.37
311.444	-23.21
311.658	42.32
311.872	77.14
312.085	36.18
312.299	99.67
312.513	126.29
312.727	101.72
312.941	11.61
313.154	11.61
313.368	68.95
313.582	23.89
313.796	44.37
314.009	-12.97
314.223	91.48
314.437	50.52
314.651	66.9
314.864	36.18
315.078	91.48
315.292	25.94
315.505	-6.83
315.719	107.86
315.933	62.8
316.146	120.15
316.36	62.8
316.573	130.39
316.787	89.43
317.001	50.52
317.214	17.75
317.428	48.47
317.641	-27.31
317.855	93.52
318.068	17.75
318.282	9.56
318.495	93.52
318.709	40.28
318.922	75.09
319.136	58.71
319.349	50.52
319.563	111.96
319.776	36.18
319.99	40.28
320.203	34.13
320.417	107.86
320.63	87.38
320.843	60.76
321.057	103.76
321.27	1.37
321.483	75.09
321.697	101.72
321.91	81.24
322.124	105.81
322.337	79.19
322.55	85.33
322.763	62.8
322.977	17.75
323.19	36.18
323.403	25.94
323.617	114
323.83	130.39
324.043	54.61
324.256	62.8
324.469	44.37
324.683	46.42
324.896	40.28
325.109	-0.68
325.322	-53.93
325.535	75.09
325.748	116.05
325.962	85.33
326.175	56.66
326.388	40.28
326.601	30.04
326.814	-37.55
327.027	50.52
327.24	124.24
327.453	-39.59
327.666	85.33
327.879	52.56
328.092	54.61
328.305	44.37
328.518	-2.73
328.731	48.47
328.944	66.9
329.157	97.62
329.37	54.61
329.583	34.13
329.796	154.96
330.009	-19.11
330.222	32.08
330.435	5.46
330.648	64.85
330.861	46.42
331.073	62.8
331.286	-6.83
331.499	46.42
331.712	95.57
331.925	75.09
332.138	21.84
332.35	105.81
332.563	50.52
332.776	142.68
332.989	52.56
333.202	58.71
333.414	54.61
333.627	71
333.84	77.14
334.053	36.18
334.265	27.99
334.478	27.99
334.691	54.61
334.903	46.42
335.116	9.56
335.329	93.52
335.541	34.13
335.754	75.09
335.966	38.23
336.179	17.75
336.392	73.04
336.604	17.75
336.817	-6.83
337.029	75.09
337.242	130.39
337.454	85.33
337.667	-6.83
337.88	19.8
338.092	-31.4
338.305	144.72
338.517	9.56
338.729	73.04
338.942	77.14
339.154	-19.11
339.367	-0.68
339.579	27.99
339.792	48.47
340.004	66.9
340.217	38.23
340.429	50.52
340.641	66.9
340.854	25.94
341.066	73.04
341.278	21.84
341.491	71
341.703	11.61
341.915	-4.78
342.128	-0.68
342.34	42.32
342.552	48.47
342.764	34.13
342.977	71
343.189	58.71
343.401	34.13
343.613	56.66
343.826	68.95
344.038	71
344.25	68.95
344.462	64.85
344.674	-37.55
344.886	27.99
345.099	73.04
345.311	46.42
345.523	23.89
345.735	19.8
345.947	64.85
346.159	128.34
346.371	52.56
346.583	38.23
346.795	66.9
347.007	62.8
347.219	11.61
347.431	111.96
347.643	208.21
347.855	27.99
348.067	79.19
348.279	-27.31
348.491	81.24
348.703	58.71
348.915	83.28
349.127	5.46
349.339	1.37
349.551	-12.97
349.763	87.38
349.975	54.61
350.187	81.24
350.399	165.2
350.61	77.14
350.822	-60.07
351.034	130.39
351.246	54.61
351.458	93.52
351.669	93.52
351.881	83.28
352.093	109.91
352.305	103.76
352.517	58.71
352.728	73.04
352.94	-2.73
353.152	173.39
353.363	58.71
353.575	120.15
353.787	56.66
353.999	62.8
354.21	116.05
354.422	11.61
354.633	99.67
354.845	11.61
355.057	48.47
355.268	62.8
355.48	91.48
355.692	25.94
355.903	99.67
356.115	13.65
356.326	-58.03
356.538	32.08
356.749	-17.07
356.961	68.95
357.172	107.86
357.384	46.42
357.595	126.29
357.807	105.81
358.018	54.61
358.23	32.08
358.441	71
358.653	116.05
358.864	66.9
359.075	23.89
359.287	-0.68
359.498	111.96
359.709	40.28
359.921	44.37
360.132	50.52
360.344	36.18
360.555	-17.07
360.766	-10.92
360.977	30.04
361.189	58.71
361.4	21.84
361.611	19.8
361.823	21.84
362.034	17.75
362.245	-2.73
362.456	25.94
362.667	120.15
362.879	21.84
363.09	54.61
363.301	140.63
363.512	27.99
363.723	27.99
363.935	52.56
364.146	93.52
364.357	73.04
364.568	95.57
364.779	25.94
364.99	68.95
365.201	64.85
365.412	95.57
365.623	3.41
365.834	148.82
366.045	52.56
366.256	93.52
366.467	142.68
366.678	30.04
366.889	83.28
367.1	130.39
367.311	89.43
367.522	-10.92
367.733	71
367.944	54.61
368.155	34.13
368.366	81.24
368.577	62.8
368.788	128.34
368.999	60.76
369.209	1.37
369.42	165.2
369.631	62.8
369.842	77.14
370.053	130.39
370.264	87.38
370.474	17.75
370.685	15.7
370.896	146.77
371.107	152.91
371.317	83.28
371.528	30.04
371.739	111.96
371.95	27.99
372.16	73.04
372.371	3.41
372.582	83.28
372.792	44.37
373.003	89.43
373.214	91.48
373.424	34.13
373.635	17.75
373.846	101.72
374.056	54.61
374.267	50.52
374.477	30.04
374.688	66.9
374.898	36.18
375.109	97.62
375.319	58.71
375.53	171.35
375.74	60.76
375.951	1.37
376.161	103.76
376.372	60.76
376.582	32.08
376.793	66.9
377.003	1.37
377.214	87.38
377.424	46.42
377.635	5.46
377.845	3.41
378.055	75.09
378.266	-8.87
378.476	87.38
378.686	34.13
378.897	95.57
379.107	116.05
379.317	91.48
379.528	68.95
379.738	93.52
379.948	-2.73
380.158	32.08
380.369	-6.83
380.579	116.05
380.789	71
380.999	64.85
381.21	-12.97
381.42	116.05
381.63	130.39
381.84	71
382.05	107.86
382.261	140.63
382.471	38.23
382.681	52.56
382.891	152.91
383.101	66.9
383.311	81.24
383.521	30.04
383.731	50.52
383.941	71
384.151	132.44
384.361	120.15
384.571	89.43
384.781	105.81
384.991	68.95
385.201	208.21
385.411	107.86
385.621	25.94
385.831	56.66
386.041	116.05
386.251	25.94
386.461	134.48
386.671	-19.11
386.881	9.56
387.091	27.99
387.301	81.24
387.511	95.57
387.72	73.04
387.93	46.42
388.14	-6.83
388.35	50.52
388.56	116.05
388.769	30.04
388.979	60.76
389.189	73.04
389.399	77.14
389.609	73.04
389.818	101.72
390.028	85.33
390.238	105.81
390.447	93.52
390.657	148.82
390.867	83.28
391.076	77.14
391.286	93.52
391.496	34.13
391.705	134.48
391.915	66.9
392.125	13.65
392.334	46.42
392.544	27.99
392.753	71
392.963	-4.78
393.172	114
393.382	9.56
393.591	130.39
393.801	116.05
394.01	75.09
394.22	103.76
394.429	79.19
394.639	144.72
394.848	109.91
395.058	85.33
395.267	97.62
395.477	62.8
395.686	87.38
395.895	154.96
396.105	189.78
396.314	130.39
396.524	89.43
396.733	23.89
396.942	62.8
397.152	173.39
397.361	83.28
397.57	79.19
397.78	21.84
397.989	85.33
398.198	93.52
398.407	144.72
398.617	103.76
398.826	87.38
399.035	124.24
399.244	202.07
399.453	128.34
399.663	64.85
399.872	114
400.081	146.77
400.29	116.05
400.499	58.71
400.708	73.04
400.917	73.04
401.127	58.71
401.336	152.91
401.545	122.2
401.754	97.62
401.963	134.48
402.172	165.2
402.381	54.61
402.59	124.24
402.799	103.76
403.008	107.86
403.217	157.01
403.426	202.07
403.635	81.24
403.844	44.37
404.053	118.1
404.262	101.72
404.471	177.49
404.68	193.87
404.888	99.67
405.097	150.87
405.306	148.82
405.515	142.68
405.724	89.43
405.933	132.44
406.142	111.96
406.35	157.01
406.559	181.59
406.768	222.55
406.977	193.87
407.185	212.31
407.394	173.39
407.603	148.82
407.812	181.59
408.02	208.21
408.229	114
408.438	179.54
408.646	214.35
408.855	165.2
409.064	183.63
409.272	189.78
409.481	251.22
409.69	208.21
409.898	163.15
410.107	197.97
410.315	281.94
410.524	173.39
410.733	261.46
410.941	193.87
411.15	277.84
411.358	220.5
411.567	316.75
411.775	300.37
411.984	263.51
412.192	361.81
412.401	326.99
412.609	326.99
412.818	468.3
413.026	357.71
413.234	300.37
413.443	374.1
413.651	370
413.86	443.73
414.068	441.68
414.276	488.78
414.485	410.96
414.693	410.96
414.901	466.25
415.11	429.39
415.318	453.97
415.526	484.69
415.734	548.17
415.943	503.12
416.151	537.93
416.359	615.76
416.567	615.76
416.776	613.71
416.984	619.85
417.192	709.96
417.4	621.9
417.608	595.28
417.817	640.33
418.025	748.87
418.233	879.94
418.441	832.84
418.649	808.26
418.857	834.89
419.065	953.67
419.273	879.94
419.481	922.95
419.689	965.96
419.897	951.62
420.105	968.01
420.313	1023.3
420.521	1117.51
420.729	1107.27
420.937	1062.21
421.145	1127.75
421.353	1224
421.561	1348.93
421.769	1353.02
421.977	1285.44
422.185	1367.36
422.393	1492.29
422.601	1488.19
422.809	1551.68
423.017	1572.16
423.224	1602.88
423.432	1617.21
423.64	1588.54
423.848	1770.81
424.056	1674.56
424.263	1877.3
424.471	1883.45
424.679	1996.09
424.887	1969.46
425.094	2057.53
425.302	2071.86
425.51	2178.36
425.718	2207.03
425.925	2235.7
426.133	2405.68
426.341	2594.09
426.548	2532.65
426.756	2637.1
426.964	2657.58
427.171	2823.47
427.379	2827.56
427.586	2987.3
427.794	2991.4
428.001	3061.03
428.209	3222.82
428.417	3259.68
428.624	3400.99
428.832	3360.03
429.039	3419.43
429.247	3366.18
429.454	3831.07
429.662	4056.34
429.869	3781.92
430.076	4080.92
430.284	3861.79
430.491	4109.59
430.699	4289.81
430.906	4322.58
431.114	4328.72
431.321	4322.58
431.528	4883.72
431.736	4871.43
431.943	5207.3
432.15	4969.74
432.358	5000.46
432.565	5270.79
432.772	5377.28
432.979	5541.12
433.187	5575.94
433.394	5686.53
433.601	5973.24
433.808	6116.6
434.016	6118.65
434.223	6198.52
434.43	6771.95
434.637	6630.64
434.844	6876.4
435.052	7060.71
435.259	6788.33
435.466	7191.78
435.673	7068.91
435.88	7470.31
436.087	7750.88
436.294	8064.22
436.501	7857.37
436.708	7853.28
436.915	8015.07
437.122	8522.96
437.329	8563.92
437.537	8582.35
437.743	8873.17
437.95	8873.17
438.157	9147.59
438.364	9729.22
438.571	9542.85
438.778	9659.59
438.985	10568.88
439.192	10114.24
439.399	10607.8
439.606	10323.13
439.813	10761.39
440.02	11406.5
440.227	11443.37
440.433	11107.5
440.64	11529.38
440.847	11347.11
441.054	11965.6
441.261	12508.31
441.467	12539.03
441.674	12639.38
441.881	12930.19
442.088	13167.76
442.294	12782.74
442.501	13485.19
442.708	13751.43
442.914	14238.84
443.121	14750.84
443.328	14115.97
443.534	15316.08
443.741	15039.6
443.948	14777.46
444.154	15916.13
444.361	15817.83
444.568	16041.06
444.774	15766.63
444.981	15918.18
445.187	16325.72
445.394	17388.62
445.6	17173.58
445.807	18461.76
446.013	17861.7
446.22	18156.61
446.426	18914.36
446.633	19276.85
446.839	19860.52
447.046	18775.09
447.252	19942.44
447.459	20169.76
447.665	19919.91
447.871	20759.58
448.078	21724.17
448.284	20726.81
448.491	21201.94
448.697	22162.44
448.903	22285.31
449.11	22531.07
449.316	22354.94
449.522	22529.02
449.728	23206.9
449.935	23206.9
450.141	23159.8
450.347	23813.1
450.553	23004.15
450.76	23518.19
450.966	24148.96
451.172	23929.83
451.378	24613.85
451.584	23913.45
451.791	25007.06
451.997	24560.61
452.203	24845.27
452.409	25050.07
452.615	24712.16
452.821	24052.71
453.027	23489.52
453.233	24466.4
453.44	23909.35
453.646	24318.95
453.852	24421.34
454.058	24681.44
454.264	23884.78
454.47	24124.39
454.676	23677.93
454.882	24292.32
455.088	22318.08
455.294	22895.61
455.5	23114.74
455.705	23180.28
455.911	22379.52
456.117	22197.25
456.323	21728.27
456.529	20302.88
456.735	21406.73
456.941	20751.38
457.147	20358.17
457.352	20034.6
457.558	19751.98
457.764	19815.46
457.97	19235.89
458.176	18846.77
458.381	18629.69
458.587	18205.76
458.793	18003.01
458.999	16886.87
459.204	18062.4
459.41	17609.8
459.616	16544.86
459.821	16407.64
460.027	16555.1
460.233	16149.6
460.438	15223.92
460.644	15586.41
460.85	14716.02
461.055	14582.9
461.261	14615.67
461.466	13386.89
461.672	13200.52
461.878	13880.45
462.083	13190.28
462.289	12700.82
462.494	12631.19
462.7	12215.45
462.905	11672.74
463.111	12244.12
463.316	12233.88
463.522	11912.35
463.727	12035.23
463.932	11871.39
464.138	11812
464.343	11908.26
464.549	11451.56
464.754	12020.89
464.959	11756.71
465.165	11588.77
465.37	11330.73
465.575	11064.49
465.781	11398.31
465.986	11365.54
466.191	11062.44
466.397	10841.26
466.602	10357.94
466.807	10673.33
467.012	10726.58
467.218	10593.46
467.423	10523.83
467.628	10652.85
467.833	10896.56
468.038	10599.6
468.244	10327.22
