Data from USB4F104151__16__12-23-26-402.txt Node

Date: Fri Mar 14 12:23:26 EDT 2025
User: louis
Spectrometer: USB4F10415
Trigger mode: 4
Integration Time (sec): 3.500000E-2
Scans to average: 1
Electric dark correction enabled: true
Nonlinearity correction enabled: false
Boxcar width: 0
XAxis mode: Wavelengths
Number of Pixels in Spectrum: 3648
>>>>>Begin Spectral Data<<<<<
178.204	-140.8
178.424	-140.8
178.644	-140.8
178.864	-165.37
179.084	-81.41
179.304	-54.78
179.524	-7.68
179.744	-15.87
179.964	-44.54
180.184	6.66
180.404	76.29
180.624	-13.82
180.844	-3.58
181.064	-5.63
181.283	33.28
181.503	10.75
181.723	18.94
181.943	-30.21
182.163	133.63
182.383	-13.82
182.602	64
182.822	74.24
183.042	10.75
183.262	20.99
183.482	-22.02
183.701	78.33
183.921	4.61
184.141	-87.55
184.361	117.25
184.58	-15.87
184.8	80.38
185.02	18.94
185.239	109.05
185.459	70.14
185.679	-11.78
185.898	-81.41
186.118	70.14
186.338	12.8
186.557	12.8
186.777	-60.93
186.997	8.7
187.216	51.71
187.436	61.95
187.655	70.14
187.875	88.57
188.095	-13.82
188.314	68.09
188.534	90.62
188.753	2.56
188.973	39.42
189.192	-15.87
189.412	76.29
189.631	20.99
189.851	39.42
190.07	55.81
190.29	-24.06
190.509	53.76
190.729	-7.68
190.948	125.44
191.168	172.54
191.387	125.44
191.607	-58.88
191.826	0.51
192.045	16.9
192.265	14.85
192.484	-19.97
192.704	-22.02
192.923	-13.82
193.142	88.57
193.362	8.7
193.581	61.95
193.8	-11.78
194.02	29.18
194.239	25.09
194.458	25.09
194.678	23.04
194.897	-19.97
195.116	-32.26
195.335	61.95
195.555	-24.06
195.774	-5.63
195.993	18.94
196.212	37.38
196.432	4.61
196.651	78.33
196.87	66.05
197.089	143.87
197.308	18.94
197.528	41.47
197.747	-50.69
197.966	47.62
198.185	94.72
198.404	25.09
198.623	74.24
198.842	16.9
199.062	76.29
199.281	31.23
199.5	4.61
199.719	37.38
199.938	41.47
200.157	94.72
200.376	82.43
200.595	41.47
200.814	-22.02
201.033	-13.82
201.252	35.33
201.471	-1.54
201.69	88.57
201.909	16.9
202.128	88.57
202.347	53.76
202.566	2.56
202.785	27.14
203.004	-24.06
203.223	113.15
203.442	8.7
203.661	27.14
203.879	102.91
204.098	100.86
204.317	25.09
204.536	25.09
204.755	96.77
204.974	72.19
205.193	43.52
205.411	45.57
205.63	78.33
205.849	10.75
206.068	-5.63
206.287	61.95
206.505	98.81
206.724	41.47
206.943	27.14
207.162	49.66
207.381	31.23
207.599	-17.92
207.818	57.86
208.037	-28.16
208.255	47.62
208.474	37.38
208.693	-11.78
208.911	-36.35
209.13	-48.64
209.349	53.76
209.567	76.29
209.786	18.94
210.005	92.67
210.223	-15.87
210.442	-69.12
210.661	80.38
210.879	31.23
211.098	41.47
211.316	25.09
211.535	94.72
211.753	59.9
211.972	98.81
212.191	23.04
212.409	16.9
212.628	45.57
212.846	16.9
213.065	45.57
213.283	55.81
213.502	51.71
213.72	20.99
213.938	0.51
214.157	2.56
214.375	4.61
214.594	10.75
214.812	33.28
215.031	6.66
215.249	23.04
215.467	72.19
215.686	41.47
215.904	-30.21
216.122	-26.11
216.341	27.14
216.559	33.28
216.778	29.18
216.996	57.86
217.214	41.47
217.432	6.66
217.651	-114.17
217.869	51.71
218.087	0.51
218.306	12.8
218.524	74.24
218.742	0.51
218.96	61.95
219.179	45.57
219.397	84.48
219.615	113.15
219.833	49.66
220.051	-62.98
220.27	57.86
220.488	-7.68
220.706	78.33
220.924	20.99
221.142	8.7
221.36	-7.68
221.578	72.19
221.796	-9.73
222.015	-13.82
222.233	-22.02
222.451	109.05
222.669	55.81
222.887	10.75
223.105	-28.16
223.323	-9.73
223.541	27.14
223.759	47.62
223.977	18.94
224.195	23.04
224.413	51.71
224.631	-7.68
224.849	10.75
225.067	35.33
225.285	-48.64
225.503	29.18
225.721	-3.58
225.939	-5.63
226.157	-48.64
226.375	47.62
226.592	10.75
226.81	-26.11
227.028	33.28
227.246	78.33
227.464	59.9
227.682	43.52
227.9	-11.78
228.117	76.29
228.335	92.67
228.553	51.71
228.771	92.67
228.989	-3.58
229.206	31.23
229.424	16.9
229.642	45.57
229.86	6.66
230.077	-34.3
230.295	16.9
230.513	82.43
230.731	80.38
230.948	143.87
231.166	123.39
231.384	-48.64
231.601	23.04
231.819	143.87
232.037	14.85
232.254	-22.02
232.472	41.47
232.689	-13.82
232.907	39.42
233.125	-7.68
233.342	59.9
233.56	111.1
233.777	18.94
233.995	37.38
234.213	68.09
234.43	31.23
234.648	33.28
234.865	-69.12
235.083	20.99
235.3	76.29
235.518	39.42
235.735	82.43
235.953	57.86
236.17	-42.5
236.388	4.61
236.605	33.28
236.822	66.05
237.04	45.57
237.257	82.43
237.475	51.71
237.692	37.38
237.909	0.51
238.127	33.28
238.344	35.33
238.562	-22.02
238.779	20.99
238.996	-58.88
239.214	-46.59
239.431	-3.58
239.648	47.62
239.865	107.01
240.083	72.19
240.3	29.18
240.517	57.86
240.735	-7.68
240.952	80.38
241.169	74.24
241.386	29.18
241.603	47.62
241.821	31.23
242.038	76.29
242.255	119.29
242.472	23.04
242.689	27.14
242.907	121.34
243.124	23.04
243.341	-30.21
243.558	57.86
243.775	39.42
243.992	-26.11
244.209	0.51
244.426	127.49
244.643	2.56
244.86	29.18
245.078	84.48
245.295	47.62
245.512	51.71
245.729	2.56
245.946	12.8
246.163	39.42
246.38	61.95
246.597	-11.78
246.814	4.61
247.031	27.14
247.248	20.99
247.464	18.94
247.681	20.99
247.898	14.85
248.115	43.52
248.332	-7.68
248.549	64
248.766	90.62
248.983	49.66
249.2	18.94
249.417	41.47
249.633	-9.73
249.85	59.9
250.067	64
250.284	37.38
250.501	10.75
250.717	43.52
250.934	-17.92
251.151	47.62
251.368	53.76
251.585	68.09
251.801	33.28
252.018	-7.68
252.235	68.09
252.451	10.75
252.668	55.81
252.885	55.81
253.102	55.81
253.318	41.47
253.535	84.48
253.752	57.86
253.968	-28.16
254.185	12.8
254.401	-3.58
254.618	66.05
254.835	23.04
255.051	72.19
255.268	-44.54
255.484	33.28
255.701	35.33
255.917	35.33
256.134	53.76
256.351	39.42
256.567	20.99
256.784	90.62
257	-30.21
257.217	-46.59
257.433	-26.11
257.65	27.14
257.866	29.18
258.082	-26.11
258.299	-22.02
258.515	33.28
258.732	-28.16
258.948	23.04
259.165	18.94
259.381	86.53
259.597	31.23
259.814	74.24
260.03	23.04
260.246	2.56
260.463	88.57
260.679	82.43
260.895	-9.73
261.112	27.14
261.328	2.56
261.544	35.33
261.761	43.52
261.977	57.86
262.193	-15.87
262.409	14.85
262.626	25.09
262.842	37.38
263.058	53.76
263.274	61.95
263.49	12.8
263.707	6.66
263.923	59.9
264.139	18.94
264.355	59.9
264.571	55.81
264.787	59.9
265.004	64
265.22	6.66
265.436	8.7
265.652	2.56
265.868	20.99
266.084	4.61
266.3	2.56
266.516	0.51
266.732	18.94
266.948	0.51
267.164	33.28
267.38	10.75
267.596	84.48
267.812	59.9
268.028	88.57
268.244	-11.78
268.46	72.19
268.676	-22.02
268.892	33.28
269.108	12.8
269.324	-9.73
269.54	25.09
269.756	84.48
269.972	31.23
270.188	53.76
270.403	45.57
270.619	27.14
270.835	41.47
271.051	61.95
271.267	-30.21
271.483	29.18
271.698	84.48
271.914	59.9
272.13	-3.58
272.346	10.75
272.562	23.04
272.777	57.86
272.993	31.23
273.209	-7.68
273.425	123.39
273.64	-9.73
273.856	25.09
274.072	-77.31
274.287	-65.02
274.503	115.2
274.719	45.57
274.934	27.14
275.15	-46.59
275.366	76.29
275.581	14.85
275.797	0.51
276.012	20.99
276.228	-3.58
276.444	27.14
276.659	92.67
276.875	45.57
277.09	51.71
277.306	29.18
277.521	10.75
277.737	0.51
277.952	12.8
278.168	25.09
278.383	70.14
278.599	20.99
278.814	111.1
279.03	0.51
279.245	10.75
279.461	39.42
279.676	14.85
279.892	-48.64
280.107	6.66
280.322	6.66
280.538	35.33
280.753	-44.54
280.969	47.62
281.184	6.66
281.399	57.86
281.615	16.9
281.83	68.09
282.045	-83.45
282.26	-3.58
282.476	-19.97
282.691	90.62
282.906	74.24
283.122	78.33
283.337	6.66
283.552	2.56
283.767	12.8
283.983	39.42
284.198	57.86
284.413	37.38
284.628	16.9
284.843	43.52
285.058	82.43
285.274	-69.12
285.489	4.61
285.704	-19.97
285.919	-54.78
286.134	-24.06
286.349	-24.06
286.564	-15.87
286.779	27.14
286.995	100.86
287.21	-58.88
287.425	27.14
287.64	96.77
287.855	86.53
288.07	-9.73
288.285	43.52
288.5	31.23
288.715	25.09
288.93	-38.4
289.145	-44.54
289.36	45.57
289.575	-38.4
289.79	131.58
290.004	0.51
290.219	49.66
290.434	-9.73
290.649	35.33
290.864	-13.82
291.079	29.18
291.294	66.05
291.509	51.71
291.724	16.9
291.938	27.14
292.153	43.52
292.368	-17.92
292.583	37.38
292.798	-15.87
293.012	59.9
293.227	70.14
293.442	20.99
293.657	76.29
293.871	29.18
294.086	47.62
294.301	57.86
294.516	76.29
294.73	35.33
294.945	20.99
295.16	76.29
295.374	113.15
295.589	39.42
295.804	-77.31
296.018	41.47
296.233	68.09
296.447	10.75
296.662	-52.74
296.877	68.09
297.091	39.42
297.306	-9.73
297.52	47.62
297.735	4.61
297.949	-19.97
298.164	23.04
298.378	14.85
298.593	-7.68
298.807	6.66
299.022	33.28
299.236	53.76
299.451	4.61
299.665	-34.3
299.88	20.99
300.094	10.75
300.309	14.85
300.523	18.94
300.737	45.57
300.952	27.14
301.166	84.48
301.381	25.09
301.595	33.28
301.809	8.7
302.024	49.66
302.238	59.9
302.452	27.14
302.667	53.76
302.881	18.94
303.095	49.66
303.309	72.19
303.524	16.9
303.738	0.51
303.952	37.38
304.166	96.77
304.381	-30.21
304.595	33.28
304.809	6.66
305.023	-32.26
305.237	131.58
305.452	29.18
305.666	84.48
305.88	37.38
306.094	68.09
306.308	-5.63
306.522	45.57
306.736	20.99
306.95	64
307.164	41.47
307.379	0.51
307.593	27.14
307.807	72.19
308.021	39.42
308.235	27.14
308.449	-19.97
308.663	51.71
308.877	100.86
309.091	70.14
309.305	51.71
309.519	-103.93
309.733	49.66
309.947	-32.26
310.161	29.18
310.374	64
310.588	49.66
310.802	-83.45
311.016	37.38
311.23	59.9
311.444	0.51
311.658	59.9
311.872	74.24
312.085	57.86
312.299	57.86
312.513	121.34
312.727	-40.45
312.941	-65.02
313.154	70.14
313.368	-1.54
313.582	-52.74
313.796	68.09
314.009	-5.63
314.223	57.86
314.437	45.57
314.651	86.53
314.864	25.09
315.078	-5.63
315.292	18.94
315.505	2.56
315.719	84.48
315.933	-19.97
316.146	16.9
316.36	-67.07
316.573	25.09
316.787	84.48
317.001	113.15
317.214	76.29
317.428	133.63
317.641	-58.88
317.855	49.66
318.068	76.29
318.282	-26.11
318.495	51.71
318.709	-1.54
318.922	-7.68
319.136	-5.63
319.349	39.42
319.563	55.81
319.776	76.29
319.99	-69.12
320.203	10.75
320.417	51.71
320.63	57.86
320.843	57.86
321.057	37.38
321.27	86.53
321.483	76.29
321.697	68.09
321.91	16.9
322.124	39.42
322.337	6.66
322.55	-1.54
322.763	-1.54
322.977	-7.68
323.19	-52.74
323.403	61.95
323.617	-5.63
323.83	53.76
324.043	10.75
324.256	-1.54
324.469	-1.54
324.683	127.49
324.896	-15.87
325.109	39.42
325.322	-48.64
325.535	72.19
325.748	8.7
325.962	-1.54
326.175	16.9
326.388	43.52
326.601	45.57
326.814	53.76
327.027	12.8
327.24	96.77
327.453	0.51
327.666	98.81
327.879	57.86
328.092	80.38
328.305	57.86
328.518	78.33
328.731	-38.4
328.944	109.05
329.157	33.28
329.37	53.76
329.583	47.62
329.796	82.43
330.009	20.99
330.222	39.42
330.435	-44.54
330.648	33.28
330.861	66.05
331.073	41.47
331.286	14.85
331.499	49.66
331.712	6.66
331.925	10.75
332.138	-32.26
332.35	20.99
332.563	-19.97
332.776	111.1
332.989	31.23
333.202	45.57
333.414	55.81
333.627	-22.02
333.84	49.66
334.053	-40.45
334.265	-11.78
334.478	-15.87
334.691	43.52
334.903	18.94
335.116	25.09
335.329	-15.87
335.541	72.19
335.754	70.14
335.966	8.7
336.179	-1.54
336.392	-3.58
336.604	-28.16
336.817	31.23
337.029	27.14
337.242	74.24
337.454	55.81
337.667	18.94
337.88	0.51
338.092	47.62
338.305	119.29
338.517	-13.82
338.729	94.72
338.942	86.53
339.154	29.18
339.367	-30.21
339.579	27.14
339.792	-62.98
340.004	55.81
340.217	-3.58
340.429	-19.97
340.641	14.85
340.854	55.81
341.066	23.04
341.278	70.14
341.491	107.01
341.703	68.09
341.915	-11.78
342.128	51.71
342.34	102.91
342.552	104.96
342.764	12.8
342.977	45.57
343.189	-11.78
343.401	0.51
343.613	47.62
343.826	33.28
344.038	8.7
344.25	55.81
344.462	12.8
344.674	25.09
344.886	-7.68
345.099	18.94
345.311	72.19
345.523	29.18
345.735	-17.92
345.947	74.24
346.159	51.71
346.371	-22.02
346.583	47.62
346.795	61.95
347.007	-22.02
347.219	45.57
347.431	84.48
347.643	72.19
347.855	-3.58
348.067	109.05
348.279	-5.63
348.491	74.24
348.703	78.33
348.915	-11.78
349.127	16.9
349.339	86.53
349.551	-42.5
349.763	55.81
349.975	59.9
350.187	39.42
350.399	45.57
350.61	8.7
350.822	43.52
351.034	41.47
351.246	23.04
351.458	119.29
351.669	23.04
351.881	53.76
352.093	70.14
352.305	66.05
352.517	31.23
352.728	74.24
352.94	14.85
353.152	37.38
353.363	47.62
353.575	-32.26
353.787	18.94
353.999	29.18
354.21	98.81
354.422	12.8
354.633	37.38
354.845	18.94
355.057	59.9
355.268	18.94
355.48	-9.73
355.692	-60.93
355.903	51.71
356.115	-17.92
356.326	-7.68
356.538	158.21
356.749	-17.92
356.961	61.95
357.172	-11.78
357.384	-22.02
357.595	113.15
357.807	25.09
358.018	25.09
358.23	-15.87
358.441	80.38
358.653	78.33
358.864	39.42
359.075	47.62
359.287	10.75
359.498	25.09
359.709	55.81
359.921	68.09
360.132	-5.63
360.344	-19.97
360.555	27.14
360.766	20.99
360.977	29.18
361.189	121.34
361.4	66.05
361.611	80.38
361.823	31.23
362.034	-13.82
362.245	-48.64
362.456	29.18
362.667	20.99
362.879	45.57
363.09	59.9
363.301	23.04
363.512	53.76
363.723	-3.58
363.935	25.09
364.146	90.62
364.357	72.19
364.568	27.14
364.779	57.86
364.99	41.47
365.201	10.75
365.412	86.53
365.623	-26.11
365.834	109.05
366.045	57.86
366.256	94.72
366.467	49.66
366.678	76.29
366.889	82.43
367.1	-22.02
367.311	20.99
367.522	100.86
367.733	4.61
367.944	51.71
368.155	10.75
368.366	29.18
368.577	61.95
368.788	35.33
368.999	-7.68
369.209	51.71
369.42	123.39
369.631	172.54
369.842	88.57
370.053	45.57
370.264	41.47
370.474	-13.82
370.685	33.28
370.896	57.86
371.107	20.99
371.317	111.1
371.528	68.09
371.739	61.95
371.95	33.28
372.16	25.09
372.371	-52.74
372.582	27.14
372.792	70.14
373.003	29.18
373.214	49.66
373.424	20.99
373.635	-15.87
373.846	47.62
374.056	47.62
374.267	39.42
374.477	33.28
374.688	104.96
374.898	84.48
375.109	2.56
375.319	4.61
375.53	18.94
375.74	31.23
375.951	43.52
376.161	8.7
376.372	78.33
376.582	-5.63
376.793	82.43
377.003	35.33
377.214	37.38
377.424	43.52
377.635	25.09
377.845	29.18
378.055	43.52
378.266	41.47
378.476	45.57
378.686	49.66
378.897	29.18
379.107	78.33
379.317	123.39
379.528	33.28
379.738	84.48
379.948	47.62
380.158	35.33
380.369	31.23
380.579	-9.73
380.789	47.62
380.999	47.62
381.21	72.19
381.42	168.45
381.63	57.86
381.84	82.43
382.05	70.14
382.261	92.67
382.471	25.09
382.681	43.52
382.891	88.57
383.101	84.48
383.311	-19.97
383.521	20.99
383.731	102.91
383.941	98.81
384.151	35.33
384.361	-26.11
384.571	66.05
384.781	80.38
384.991	113.15
385.201	94.72
385.411	104.96
385.621	12.8
385.831	49.66
386.041	88.57
386.251	98.81
386.461	20.99
386.671	-1.54
386.881	31.23
387.091	-3.58
387.301	66.05
387.511	98.81
387.72	47.62
387.93	6.66
388.14	2.56
388.35	51.71
388.56	131.58
388.769	33.28
388.979	53.76
389.189	70.14
389.399	-7.68
389.609	45.57
389.818	74.24
390.028	115.2
390.238	92.67
390.447	6.66
390.657	76.29
390.867	47.62
391.076	-15.87
391.286	64
391.496	57.86
391.705	41.47
391.915	170.49
392.125	94.72
392.334	98.81
392.544	166.4
392.753	-5.63
392.963	18.94
393.172	74.24
393.382	-42.5
393.591	111.1
393.801	80.38
394.01	98.81
394.22	102.91
394.429	2.56
394.639	27.14
394.848	88.57
395.058	92.67
395.267	100.86
395.477	31.23
395.686	125.44
395.895	117.25
396.105	160.25
396.314	27.14
396.524	102.91
396.733	80.38
396.942	131.58
397.152	125.44
397.361	145.92
397.57	61.95
397.78	66.05
397.989	72.19
398.198	129.53
398.407	102.91
398.617	109.05
398.826	80.38
399.035	76.29
399.244	104.96
399.453	16.9
399.663	66.05
399.872	121.34
400.081	72.19
400.29	98.81
400.499	-7.68
400.708	137.73
400.917	78.33
401.127	10.75
401.336	82.43
401.545	109.05
401.754	133.63
401.963	117.25
402.172	18.94
402.381	27.14
402.59	94.72
402.799	119.29
403.008	100.86
403.217	139.77
403.426	104.96
403.635	55.81
403.844	102.91
404.053	141.82
404.262	117.25
404.471	174.59
404.68	78.33
404.888	207.36
405.097	61.95
405.306	92.67
405.515	156.16
405.724	90.62
405.933	123.39
406.142	104.96
406.35	197.12
406.559	156.16
406.768	64
406.977	213.5
407.185	111.1
407.394	141.82
407.603	102.91
407.812	166.4
408.02	133.63
408.229	96.77
408.438	172.54
408.646	125.44
408.855	111.1
409.064	145.92
409.272	248.32
409.481	205.31
409.69	223.74
409.898	117.25
410.107	291.32
410.315	281.08
410.524	188.93
410.733	231.93
410.941	242.17
411.15	254.46
411.358	326.14
411.567	313.85
411.775	254.46
411.984	287.23
412.192	315.9
412.401	260.6
412.609	293.37
412.818	352.76
413.026	299.52
413.234	354.81
413.443	352.76
413.651	363
413.86	363
414.068	492.02
414.276	434.68
414.485	313.85
414.693	428.54
414.901	477.69
415.11	504.31
415.318	465.4
415.526	453.11
415.734	471.54
415.943	496.12
416.151	573.94
416.359	489.98
416.567	553.46
416.776	641.53
416.984	682.49
417.192	713.21
417.4	651.77
417.608	596.47
417.817	659.96
418.025	711.16
418.233	762.36
418.441	758.26
418.649	766.45
418.857	879.09
419.065	891.38
419.273	776.69
419.481	862.71
419.689	952.82
419.897	1038.83
420.105	905.71
420.313	1102.32
420.521	1063.41
420.729	1169.9
420.937	1094.13
421.145	1149.42
421.353	1276.4
421.561	1241.58
421.769	1335.79
421.977	1335.79
422.185	1319.4
422.393	1425.9
422.601	1477.1
422.809	1542.63
423.017	1550.82
423.224	1540.58
423.432	1569.26
423.64	1659.37
423.848	1880.55
424.056	1694.18
424.263	1829.35
424.471	1921.51
424.679	2011.62
424.887	2056.67
425.094	2085.34
425.302	2052.58
425.51	2169.31
425.718	2224.61
425.925	2249.18
426.133	2322.91
426.341	2492.89
426.548	2478.55
426.756	2636.25
426.964	2638.3
427.171	2644.44
427.379	2726.36
427.586	2869.72
427.794	2945.49
428.001	3111.38
428.209	3123.66
428.417	3191.25
428.624	3340.75
428.832	3471.82
429.039	3428.81
429.247	3553.74
429.454	3707.34
429.662	4053.44
429.869	3647.94
430.076	3891.65
430.284	3936.71
430.491	4061.63
430.699	4200.9
430.906	4358.59
431.114	4286.91
431.321	4417.98
431.528	4538.81
431.736	4991.41
431.943	5173.68
432.15	4981.17
432.358	5061.04
432.565	5403.05
432.772	5179.82
432.979	5630.38
433.187	5497.26
433.394	5757.35
433.601	5886.37
433.808	5904.81
434.016	6031.78
434.223	6269.34
434.43	6537.63
434.637	6543.77
434.844	6955.41
435.052	6949.27
435.259	7170.45
435.466	7063.96
435.673	7109.01
435.88	7625.1
436.087	7893.38
436.294	7733.64
436.501	7805.32
436.708	7938.44
436.915	8022.41
437.122	8575.36
437.329	8503.68
437.537	8702.33
437.743	9032.05
437.95	8774.01
438.157	9372.02
438.364	9673.07
438.571	9558.38
438.778	9697.64
438.985	10602.85
439.192	10039.65
439.399	10428.77
439.606	10180.96
439.813	10846.55
440.02	11520.34
440.227	11176.28
440.433	11131.22
440.64	11481.42
440.847	11495.76
441.054	12003.66
441.261	12798.27
441.467	12101.96
441.674	12585.28
441.881	12937.53
442.088	13101.37
442.294	13148.47
442.501	13449.52
442.708	13535.54
442.914	13981.99
443.121	14715.17
443.328	14455.08
443.534	15499.54
443.741	15005.98
443.948	14747.93
444.154	15847.69
444.361	15610.13
444.568	15646.99
444.774	15808.78
444.981	16175.37
445.187	16406.79
445.394	17152.25
445.6	16861.44
445.807	18532.58
446.013	17930.48
446.22	18174.19
446.426	18884.83
446.633	18890.98
446.839	19646.68
447.046	18833.63
447.252	19779.79
447.459	20025.55
447.665	20007.12
447.871	20920.51
448.078	21745.84
448.284	20549.83
448.491	21397.69
448.697	22231.21
448.903	22509.74
449.11	22796.45
449.316	22040.75
449.522	22393
449.728	23523.48
449.935	23318.68
450.141	23296.16
450.347	23875.73
450.553	22823.08
450.76	23357.6
450.966	24189.07
451.172	23888.02
451.378	24557.71
451.584	24023.19
451.791	24782.98
451.997	24526.99
452.203	25022.59
452.409	24666.25
452.615	24885.38
452.821	23910.55
453.027	23627.93
453.233	24983.68
453.44	23832.72
453.646	24428.68
453.852	24363.15
454.058	24653.96
454.264	23873.68
454.47	24314
454.676	23785.62
454.882	24670.34
455.088	22587.56
455.294	22962.34
455.5	22933.67
455.705	23214.24
455.911	22493.35
456.117	22034.61
456.323	21747.89
456.529	20433.1
456.735	21483.7
456.941	20627.65
457.147	20523.21
457.352	19638.48
457.558	19620.05
457.764	19740.88
457.97	19187.93
458.176	18680.03
458.381	19013.85
458.587	17713.39
458.793	17842.42
458.999	16736.51
459.204	18206.95
459.41	17631.47
459.616	16333.06
459.821	16660.74
460.027	16369.93
460.233	16091.4
460.438	15309.08
460.644	15292.69
460.85	14811.42
461.055	14485.79
461.261	14485.79
461.466	13320.5
461.672	12939.58
461.878	13975.85
462.083	13078.84
462.289	12640.58
462.494	12587.33
462.7	11940.17
462.905	11727.18
463.111	12054.86
463.316	12091.72
463.522	11888.97
463.727	11946.31
463.932	11934.03
464.138	11635.02
464.343	11821.39
464.549	11430.23
464.754	11811.15
464.959	11532.62
465.165	11618.64
465.37	11286.87
465.575	10856.79
465.781	11387.22
465.986	11540.82
466.191	11051.35
466.397	10680.67
466.602	10199.4
466.807	10615.13
467.012	10662.24
467.218	10662.24
467.423	10424.67
467.628	10522.98
467.833	10914.14
