Data from USB4F104151__7__12-23-19-964.txt Node

Date: Fri Mar 14 12:23:19 EDT 2025
User: louis
Spectrometer: USB4F10415
Trigger mode: 4
Integration Time (sec): 3.500000E-2
Scans to average: 1
Electric dark correction enabled: true
Nonlinearity correction enabled: false
Boxcar width: 0
XAxis mode: Wavelengths
Number of Pixels in Spectrum: 3648
>>>>>Begin Spectral Data<<<<<
178.204	-131.92
178.424	-131.92
178.644	-131.92
178.864	-183.12
179.084	-105.3
179.304	40.11
179.524	13.48
179.744	-70.48
179.964	23.72
180.184	-2.9
180.404	-15.19
180.624	48.3
180.844	-62.29
181.064	17.58
181.283	15.53
181.503	-0.85
181.723	-7
181.943	-17.24
182.163	54.44
182.383	27.82
182.602	17.58
182.822	105.64
183.042	52.39
183.262	36.01
183.482	11.43
183.701	-19.29
183.921	-7
184.141	25.77
184.361	33.96
184.58	54.44
184.8	64.68
185.02	-29.52
185.239	23.72
185.459	11.43
185.679	52.39
185.898	-82.77
186.118	70.83
186.338	33.96
186.557	17.58
186.777	38.06
186.997	1.19
187.216	23.72
187.436	165.03
187.655	19.63
187.875	58.54
188.095	50.35
188.314	-21.33
188.534	74.92
188.753	3.24
188.973	93.35
189.192	83.11
189.412	13.48
189.631	74.92
189.851	48.3
190.07	72.87
190.29	7.34
190.509	5.29
190.729	3.24
190.948	126.12
191.168	156.84
191.387	1.19
191.607	-4.95
191.826	-11.09
192.045	-17.24
192.265	-15.19
192.484	13.48
192.704	7.34
192.923	-45.91
193.142	144.55
193.362	9.39
193.581	5.29
193.8	89.26
194.02	89.26
194.239	40.11
194.458	105.64
194.678	36.01
194.897	-41.81
195.116	60.59
195.335	66.73
195.555	56.49
195.774	-9.05
195.993	-9.05
196.212	-2.9
196.432	33.96
196.651	17.58
196.87	-13.14
197.089	95.4
197.308	36.01
197.528	81.07
197.747	-76.63
197.966	58.54
198.185	42.15
198.404	64.68
198.623	58.54
198.842	13.48
199.062	25.77
199.281	38.06
199.5	50.35
199.719	-11.09
199.938	74.92
200.157	97.45
200.376	52.39
200.595	68.78
200.814	95.4
201.033	72.87
201.252	107.69
201.471	-33.62
201.69	-11.09
201.909	5.29
202.128	56.49
202.347	83.11
202.566	60.59
202.785	1.19
203.004	27.82
203.223	115.88
203.442	21.67
203.661	56.49
203.879	31.91
204.098	85.16
204.317	33.96
204.536	60.59
204.755	29.87
204.974	81.07
205.193	50.35
205.411	122.02
205.63	29.87
205.849	68.78
206.068	5.29
206.287	9.39
206.505	33.96
206.724	97.45
206.943	79.02
207.162	-25.43
207.381	1.19
207.599	9.39
207.818	58.54
208.037	13.48
208.255	60.59
208.474	58.54
208.693	54.44
208.911	29.87
209.13	52.39
209.349	62.63
209.567	-45.91
209.786	64.68
210.005	42.15
210.223	-4.95
210.442	42.15
210.661	25.77
210.879	-15.19
211.098	9.39
211.316	50.35
211.535	74.92
211.753	15.53
211.972	68.78
212.191	50.35
212.409	-27.48
212.628	5.29
212.846	1.19
213.065	124.07
213.283	101.55
213.502	62.63
213.72	-78.68
213.938	-0.85
214.157	64.68
214.375	95.4
214.594	-31.57
214.812	23.72
215.031	62.63
215.249	60.59
215.467	48.3
215.686	64.68
215.904	124.07
216.122	62.63
216.341	50.35
216.559	36.01
216.778	72.87
216.996	85.16
217.214	11.43
217.432	46.25
217.651	42.15
217.869	17.58
218.087	99.5
218.306	38.06
218.524	11.43
218.742	19.63
218.96	44.2
219.179	13.48
219.397	50.35
219.615	101.55
219.833	62.63
220.051	113.83
220.27	74.92
220.488	-4.95
220.706	27.82
220.924	-62.29
221.142	9.39
221.36	-9.05
221.578	1.19
221.796	17.58
222.015	72.87
222.233	140.46
222.451	74.92
222.669	31.91
222.887	-4.95
223.105	15.53
223.323	-47.96
223.541	1.19
223.759	107.69
223.977	-33.62
224.195	87.21
224.413	46.25
224.631	109.74
224.849	87.21
225.067	115.88
225.285	17.58
225.503	-0.85
225.721	-13.14
225.939	27.82
226.157	-7
226.375	99.5
226.592	-43.86
226.81	-2.9
227.028	5.29
227.246	81.07
227.464	48.3
227.682	7.34
227.9	-13.14
228.117	9.39
228.335	21.67
228.553	-17.24
228.771	64.68
228.989	81.07
229.206	33.96
229.424	15.53
229.642	-31.57
229.86	79.02
230.077	60.59
230.295	7.34
230.513	36.01
230.731	113.83
230.948	83.11
231.166	36.01
231.384	23.72
231.601	-35.67
231.819	119.98
232.037	21.67
232.254	-25.43
232.472	-11.09
232.689	-17.24
232.907	46.25
233.125	31.91
233.342	-17.24
233.56	56.49
233.777	11.43
233.995	15.53
234.213	105.64
234.43	60.59
234.648	52.39
234.865	-21.33
235.083	60.59
235.3	68.78
235.518	7.34
235.735	66.73
235.953	97.45
236.17	-2.9
236.388	-17.24
236.605	-13.14
236.822	107.69
237.04	48.3
237.257	7.34
237.475	3.24
237.692	15.53
237.909	29.87
238.127	103.59
238.344	-21.33
238.562	64.68
238.779	27.82
238.996	46.25
239.214	-58.2
239.431	46.25
239.648	48.3
239.865	48.3
240.083	62.63
240.3	-41.81
240.517	-33.62
240.735	15.53
240.952	81.07
241.169	74.92
241.386	60.59
241.603	1.19
241.821	33.96
242.038	72.87
242.255	95.4
242.472	-23.38
242.689	105.64
242.907	111.78
243.124	-15.19
243.341	27.82
243.558	-27.48
243.775	-41.81
243.992	-0.85
244.209	62.63
244.426	70.83
244.643	1.19
244.86	7.34
245.078	21.67
245.295	62.63
245.512	11.43
245.729	-9.05
245.946	11.43
246.163	76.97
246.38	33.96
246.597	40.11
246.814	79.02
247.031	11.43
247.248	-21.33
247.464	-27.48
247.681	42.15
247.898	122.02
248.115	48.3
248.332	-13.14
248.549	44.2
248.766	36.01
248.983	31.91
249.2	38.06
249.417	23.72
249.633	31.91
249.85	25.77
250.067	23.72
250.284	70.83
250.501	113.83
250.717	72.87
250.934	-41.81
251.151	38.06
251.368	56.49
251.585	13.48
251.801	50.35
252.018	-2.9
252.235	107.69
252.451	27.82
252.668	13.48
252.885	23.72
253.102	74.92
253.318	44.2
253.535	7.34
253.752	-7
253.968	-17.24
254.185	-19.29
254.401	42.15
254.618	83.11
254.835	60.59
255.051	132.26
255.268	101.55
255.484	60.59
255.701	62.63
255.917	50.35
256.134	-0.85
256.351	38.06
256.567	3.24
256.784	17.58
257	-66.39
257.217	109.74
257.433	19.63
257.65	21.67
257.866	5.29
258.082	56.49
258.299	15.53
258.515	70.83
258.732	29.87
258.948	58.54
259.165	-41.81
259.381	17.58
259.597	83.11
259.814	-9.05
260.03	-13.14
260.246	74.92
260.463	42.15
260.679	68.78
260.895	27.82
261.112	74.92
261.328	44.2
261.544	60.59
261.761	140.46
261.977	68.78
262.193	9.39
262.409	87.21
262.626	23.72
262.842	23.72
263.058	93.35
263.274	64.68
263.49	7.34
263.707	72.87
263.923	64.68
264.139	-15.19
264.355	27.82
264.571	42.15
264.787	13.48
265.004	7.34
265.22	29.87
265.436	9.39
265.652	81.07
265.868	64.68
266.084	21.67
266.3	17.58
266.516	-33.62
266.732	60.59
266.948	-25.43
267.164	64.68
267.38	48.3
267.596	76.97
267.812	83.11
268.028	105.64
268.244	38.06
268.46	52.39
268.676	11.43
268.892	36.01
269.108	-15.19
269.324	7.34
269.54	-0.85
269.756	89.26
269.972	19.63
270.188	-17.24
270.403	-0.85
270.619	-17.24
270.835	52.39
271.051	9.39
271.267	79.02
271.483	-19.29
271.698	97.45
271.914	31.91
272.13	1.19
272.346	60.59
272.562	85.16
272.777	58.54
272.993	21.67
273.209	15.53
273.425	52.39
273.64	15.53
273.856	46.25
274.072	36.01
274.287	46.25
274.503	83.11
274.719	95.4
274.934	36.01
275.15	-25.43
275.366	42.15
275.581	89.26
275.797	1.19
276.012	15.53
276.228	11.43
276.444	68.78
276.659	115.88
276.875	-0.85
277.09	33.96
277.306	21.67
277.521	87.21
277.737	29.87
277.952	48.3
278.168	29.87
278.383	68.78
278.599	-4.95
278.814	56.49
279.03	103.59
279.245	38.06
279.461	13.48
279.676	101.55
279.892	42.15
280.107	36.01
280.322	54.44
280.538	38.06
280.753	36.01
280.969	1.19
281.184	27.82
281.399	50.35
281.615	42.15
281.83	-17.24
282.045	79.02
282.26	-58.2
282.476	62.63
282.691	48.3
282.906	52.39
283.122	7.34
283.337	15.53
283.552	-15.19
283.767	-33.62
283.983	109.74
284.198	74.92
284.413	56.49
284.628	-23.38
284.843	54.44
285.058	-21.33
285.274	5.29
285.489	-45.91
285.704	46.25
285.919	-39.76
286.134	-0.85
286.349	-4.95
286.564	103.59
286.779	101.55
286.995	19.63
287.21	-21.33
287.425	68.78
287.64	42.15
287.855	76.97
288.07	-13.14
288.285	66.73
288.5	48.3
288.715	68.78
288.93	62.63
289.145	15.53
289.36	76.97
289.575	52.39
289.79	17.58
290.004	-74.58
290.219	109.74
290.434	33.96
290.649	-2.9
290.864	91.31
291.079	25.77
291.294	60.59
291.509	17.58
291.724	13.48
291.938	-68.44
292.153	1.19
292.368	105.64
292.583	27.82
292.798	128.17
293.012	7.34
293.227	7.34
293.442	60.59
293.657	-31.57
293.871	72.87
294.086	36.01
294.301	117.93
294.516	60.59
294.73	-0.85
294.945	15.53
295.16	23.72
295.374	62.63
295.589	56.49
295.804	-17.24
296.018	89.26
296.233	64.68
296.447	66.73
296.662	36.01
296.877	132.26
297.091	19.63
297.306	42.15
297.52	5.29
297.735	-11.09
297.949	-17.24
298.164	97.45
298.378	27.82
298.593	33.96
298.807	11.43
299.022	9.39
299.236	93.35
299.451	23.72
299.665	44.2
299.88	54.44
300.094	70.83
300.309	33.96
300.523	21.67
300.737	5.29
300.952	56.49
301.166	-9.05
301.381	25.77
301.595	52.39
301.809	-35.67
302.024	23.72
302.238	-37.72
302.452	-4.95
302.667	-13.14
302.881	17.58
303.095	68.78
303.309	79.02
303.524	33.96
303.738	60.59
303.952	38.06
304.166	62.63
304.381	-70.48
304.595	27.82
304.809	25.77
305.023	19.63
305.237	-35.67
305.452	42.15
305.666	21.67
305.88	64.68
306.094	46.25
306.308	5.29
306.522	1.19
306.736	27.82
306.95	95.4
307.164	15.53
307.379	-27.48
307.593	7.34
307.807	124.07
308.021	76.97
308.235	7.34
308.449	-66.39
308.663	11.43
308.877	138.41
309.091	85.16
309.305	38.06
309.519	-13.14
309.733	58.54
309.947	-52.05
310.161	48.3
310.374	136.36
310.588	50.35
310.802	54.44
311.016	50.35
311.23	79.02
311.444	15.53
311.658	29.87
311.872	58.54
312.085	15.53
312.299	136.36
312.513	72.87
312.727	54.44
312.941	-2.9
313.154	109.74
313.368	50.35
313.582	48.3
313.796	122.02
314.009	11.43
314.223	76.97
314.437	99.5
314.651	3.24
314.864	-25.43
315.078	44.2
315.292	-0.85
315.505	11.43
315.719	36.01
315.933	-11.09
316.146	52.39
316.36	54.44
316.573	60.59
316.787	7.34
317.001	68.78
317.214	64.68
317.428	48.3
317.641	-19.29
317.855	-39.76
318.068	72.87
318.282	21.67
318.495	132.26
318.709	83.11
318.922	21.67
319.136	89.26
319.349	115.88
319.563	48.3
319.776	-27.48
319.99	-0.85
320.203	52.39
320.417	76.97
320.63	50.35
320.843	107.69
321.057	29.87
321.27	29.87
321.483	13.48
321.697	48.3
321.91	83.11
322.124	64.68
322.337	-7
322.55	23.72
322.763	17.58
322.977	66.73
323.19	5.29
323.403	29.87
323.617	36.01
323.83	-11.09
324.043	-9.05
324.256	-50
324.469	13.48
324.683	25.77
324.896	36.01
325.109	72.87
325.322	9.39
325.535	93.35
325.748	97.45
325.962	56.49
326.175	64.68
326.388	-4.95
326.601	87.21
326.814	95.4
327.027	21.67
327.24	64.68
327.453	33.96
327.666	-27.48
327.879	64.68
328.092	-7
328.305	15.53
328.518	-0.85
328.731	19.63
328.944	107.69
329.157	113.83
329.37	-0.85
329.583	27.82
329.796	136.36
330.009	-13.14
330.222	64.68
330.435	44.2
330.648	-19.29
330.861	76.97
331.073	95.4
331.286	44.2
331.499	25.77
331.712	27.82
331.925	64.68
332.138	1.19
332.35	126.12
332.563	54.44
332.776	60.59
332.989	-7
333.202	42.15
333.414	52.39
333.627	56.49
333.84	62.63
334.053	15.53
334.265	11.43
334.478	21.67
334.691	138.41
334.903	21.67
335.116	33.96
335.329	31.91
335.541	76.97
335.754	27.82
335.966	-9.05
336.179	105.64
336.392	13.48
336.604	-39.76
336.817	58.54
337.029	19.63
337.242	89.26
337.454	66.73
337.667	38.06
337.88	42.15
338.092	85.16
338.305	79.02
338.517	1.19
338.729	74.92
338.942	48.3
339.154	68.78
339.367	-25.43
339.579	36.01
339.792	-9.05
340.004	113.83
340.217	33.96
340.429	74.92
340.641	-4.95
340.854	42.15
341.066	33.96
341.278	132.26
341.491	119.98
341.703	58.54
341.915	5.29
342.128	87.21
342.34	79.02
342.552	40.11
342.764	9.39
342.977	36.01
343.189	36.01
343.401	46.25
343.613	19.63
343.826	29.87
344.038	31.91
344.25	38.06
344.462	42.15
344.674	136.36
344.886	-23.38
345.099	3.24
345.311	93.35
345.523	-52.05
345.735	27.82
345.947	44.2
346.159	13.48
346.371	52.39
346.583	52.39
346.795	56.49
347.007	-9.05
347.219	72.87
347.431	15.53
347.643	56.49
347.855	19.63
348.067	13.48
348.279	64.68
348.491	54.44
348.703	-0.85
348.915	19.63
349.127	50.35
349.339	83.11
349.551	36.01
349.763	97.45
349.975	89.26
350.187	64.68
350.399	44.2
350.61	33.96
350.822	-19.29
351.034	48.3
351.246	15.53
351.458	31.91
351.669	46.25
351.881	50.35
352.093	93.35
352.305	40.11
352.517	66.73
352.728	103.59
352.94	-7
353.152	31.91
353.363	11.43
353.575	29.87
353.787	60.59
353.999	70.83
354.21	93.35
354.422	33.96
354.633	5.29
354.845	-33.62
355.057	56.49
355.268	124.07
355.48	160.94
355.692	7.34
355.903	3.24
356.115	7.34
356.326	-23.38
356.538	99.5
356.749	42.15
356.961	50.35
357.172	19.63
357.384	60.59
357.595	83.11
357.807	23.72
358.018	17.58
358.23	52.39
358.441	132.26
358.653	38.06
358.864	44.2
359.075	15.53
359.287	58.54
359.498	40.11
359.709	72.87
359.921	91.31
360.132	17.58
360.344	66.73
360.555	19.63
360.766	21.67
360.977	23.72
361.189	154.79
361.4	-31.57
361.611	68.78
361.823	72.87
362.034	-13.14
362.245	54.44
362.456	52.39
362.667	58.54
362.879	-41.81
363.09	119.98
363.301	117.93
363.512	7.34
363.723	-4.95
363.935	50.35
364.146	72.87
364.357	38.06
364.568	-13.14
364.779	-9.05
364.99	76.97
365.201	54.44
365.412	60.59
365.623	42.15
365.834	124.07
366.045	76.97
366.256	52.39
366.467	27.82
366.678	23.72
366.889	33.96
367.1	72.87
367.311	101.55
367.522	52.39
367.733	29.87
367.944	13.48
368.155	83.11
368.366	62.63
368.577	3.24
368.788	115.88
368.999	62.63
369.209	29.87
369.42	140.46
369.631	119.98
369.842	36.01
370.053	-0.85
370.264	91.31
370.474	115.88
370.685	54.44
370.896	36.01
371.107	60.59
371.317	54.44
371.528	15.53
371.739	42.15
371.95	68.78
372.16	-11.09
372.371	50.35
372.582	46.25
372.792	62.63
373.003	44.2
373.214	50.35
373.424	117.93
373.635	21.67
373.846	130.22
374.056	122.02
374.267	72.87
374.477	76.97
374.688	38.06
374.898	54.44
375.109	21.67
375.319	52.39
375.53	25.77
375.74	76.97
375.951	-13.14
376.161	111.78
376.372	54.44
376.582	29.87
376.793	83.11
377.003	-7
377.214	119.98
377.424	54.44
377.635	3.24
377.845	42.15
378.055	33.96
378.266	31.91
378.476	48.3
378.686	83.11
378.897	93.35
379.107	81.07
379.317	19.63
379.528	48.3
379.738	101.55
379.948	25.77
380.158	74.92
380.369	23.72
380.579	79.02
380.789	113.83
380.999	58.54
381.21	52.39
381.42	126.12
381.63	38.06
381.84	-17.24
382.05	76.97
382.261	74.92
382.471	46.25
382.681	19.63
382.891	33.96
383.101	89.26
383.311	40.11
383.521	-33.62
383.731	152.74
383.941	54.44
384.151	58.54
384.361	33.96
384.571	44.2
384.781	17.58
384.991	117.93
385.201	136.36
385.411	60.59
385.621	81.07
385.831	42.15
386.041	29.87
386.251	79.02
386.461	122.02
386.671	-2.9
386.881	52.39
387.091	44.2
387.301	52.39
387.511	3.24
387.72	50.35
387.93	115.88
388.14	3.24
388.35	54.44
388.56	89.26
388.769	60.59
388.979	52.39
389.189	29.87
389.399	48.3
389.609	83.11
389.818	136.36
390.028	-23.38
390.238	70.83
390.447	107.69
390.657	27.82
390.867	128.17
391.076	23.72
391.286	48.3
391.496	-21.33
391.705	93.35
391.915	85.16
392.125	60.59
392.334	-0.85
392.544	72.87
392.753	1.19
392.963	38.06
393.172	21.67
393.382	36.01
393.591	113.83
393.801	3.24
394.01	124.07
394.22	27.82
394.429	58.54
394.639	105.64
394.848	60.59
395.058	128.17
395.267	42.15
395.477	93.35
395.686	124.07
395.895	85.16
396.105	146.6
396.314	68.78
396.524	56.49
396.733	7.34
396.942	9.39
397.152	52.39
397.361	119.98
397.57	128.17
397.78	64.68
397.989	105.64
398.198	87.21
398.407	70.83
398.617	48.3
398.826	132.26
399.035	-9.05
399.244	113.83
399.453	101.55
399.663	62.63
399.872	101.55
400.081	21.67
400.29	148.65
400.499	29.87
400.708	130.22
400.917	64.68
401.127	52.39
401.336	144.55
401.545	113.83
401.754	173.22
401.963	156.84
402.172	99.5
402.381	79.02
402.59	76.97
402.799	101.55
403.008	119.98
403.217	124.07
403.426	122.02
403.635	99.5
403.844	74.92
404.053	70.83
404.262	81.07
404.471	124.07
404.68	79.02
404.888	76.97
405.097	107.69
405.306	138.41
405.515	122.02
405.724	81.07
405.933	177.32
406.142	165.03
406.35	177.32
406.559	146.6
406.768	181.42
406.977	234.66
407.185	142.5
407.394	191.66
407.603	189.61
407.812	101.55
408.02	214.18
408.229	142.5
408.438	150.7
408.646	152.74
408.855	199.85
409.064	222.38
409.272	224.42
409.481	277.67
409.69	220.33
409.898	191.66
410.107	169.13
410.315	242.85
410.524	281.77
410.733	191.66
410.941	261.29
411.15	386.21
411.358	310.44
411.567	285.86
411.775	314.53
411.984	273.57
412.192	308.39
412.401	339.11
412.609	359.59
412.818	318.63
413.026	345.25
413.234	347.3
413.443	425.12
413.651	304.29
413.86	414.88
414.068	431.27
414.276	421.03
414.485	425.12
414.693	470.18
414.901	519.33
415.11	500.9
415.318	509.09
415.526	509.09
415.734	568.48
415.943	595.11
416.151	537.76
416.359	558.24
416.567	697.5
416.776	588.96
416.984	705.7
417.192	685.22
417.4	662.69
417.608	728.22
417.817	638.11
418.025	824.48
418.233	885.92
418.441	797.85
418.649	847.01
418.857	930.97
419.065	836.77
419.273	892.06
419.481	955.55
419.689	945.31
419.897	926.88
420.105	1019.04
420.313	1164.44
420.521	1191.06
420.729	1207.45
420.937	1201.3
421.145	1275.03
421.353	1377.43
421.561	1375.38
421.769	1338.52
421.977	1451.16
422.185	1467.54
422.393	1592.47
422.601	1684.62
422.809	1660.05
423.017	1649.81
423.224	1629.33
423.432	1733.78
423.64	1793.17
423.848	1934.48
424.056	1817.74
424.263	1969.29
424.471	1959.05
424.679	2067.6
424.887	2129.03
425.094	2213
425.302	2268.3
425.51	2249.86
425.718	2442.37
425.925	2352.26
426.133	2387.08
426.341	2641.03
426.548	2692.23
426.756	2743.42
426.964	2763.9
427.171	2901.12
427.379	2991.23
427.586	3083.39
427.794	3046.52
428.001	3224.7
428.209	3562.61
428.417	3421.3
428.624	3622
428.832	3665.01
429.039	3697.78
429.247	3490.93
429.454	3910.77
429.662	4240.49
429.869	3888.24
430.076	4150.38
430.284	4146.28
430.491	4389.99
430.699	4459.62
430.906	4566.12
431.114	4551.78
431.321	4824.16
431.528	4838.5
431.736	5090.4
431.943	5497.94
432.15	5229.66
432.358	5358.68
432.565	5614.68
432.772	5520.47
432.979	5977.17
433.187	5796.95
433.394	6061.13
433.601	6409.29
433.808	6360.14
434.016	6394.95
434.223	6706.24
434.43	7160.89
434.637	6882.37
434.844	7388.22
435.052	7500.86
435.259	7414.84
435.466	7566.39
435.673	7455.8
435.88	7975.98
436.087	8182.83
436.294	8444.97
436.501	8266.8
436.708	8404.01
436.915	8774.69
437.122	9139.23
437.329	9100.32
437.537	9047.07
437.743	9372.7
437.95	9276.45
438.157	9911.32
438.364	10148.88
438.571	10126.35
438.778	10202.13
438.985	11142.14
439.192	10796.04
439.399	11172.86
439.606	10728.45
439.813	11408.38
440.02	12053.49
440.227	12037.11
440.433	11928.56
440.64	12305.39
440.847	12155.89
441.054	12420.08
441.261	13407.2
441.467	12884.97
441.674	13210.59
441.881	13745.11
442.088	13941.72
442.294	13689.82
442.501	14046.16
442.708	14533.58
442.914	14834.63
443.121	15516.61
443.328	15313.86
443.534	16178.1
443.741	15899.58
443.948	15770.55
444.154	16907.18
444.361	16696.24
444.568	16860.07
444.774	16739.24
444.981	17030.05
445.187	17634.21
445.394	18416.53
445.6	17990.55
445.807	19676.03
446.013	18791.31
446.22	19073.93
446.426	20155.26
446.633	20333.43
446.839	21064.55
447.046	20132.73
447.252	21062.51
447.459	21306.21
447.665	21134.18
447.871	21959.52
448.078	22967.12
448.284	21896.03
448.491	22440.79
448.697	23481.16
448.903	23673.67
449.11	23771.97
449.316	23425.86
449.522	23831.36
449.728	24376.12
449.935	24619.83
450.141	24689.46
450.347	25262.89
450.553	24593.2
450.76	24914.73
450.966	25563.94
451.172	25434.92
451.378	26182.43
451.584	25357.1
451.791	26346.26
451.997	25895.71
452.203	26800.91
452.409	26745.62
452.615	26409.75
452.821	25185.07
453.027	25246.51
453.233	26536.73
453.44	25297.7
453.646	25469.73
453.852	25858.85
454.058	26538.77
454.264	25275.18
454.47	25838.37
454.676	25176.87
454.882	26213.15
455.088	23790.4
455.294	24052.54
455.5	24494.9
455.705	24959.79
455.911	23974.72
456.117	23632.71
456.323	22995.79
456.529	21781.34
456.735	22862.67
456.941	22498.13
457.147	22174.55
457.352	21076.84
457.558	20781.93
457.764	20917.1
457.97	20740.97
458.176	19897.21
458.381	20177.78
458.587	18940.81
458.793	19014.54
458.999	18070.42
459.204	19131.27
459.41	18834.32
459.616	17480.61
459.821	17558.43
460.027	17384.35
460.233	16815.02
460.438	16391.09
460.644	16491.44
460.85	15588.28
461.055	15524.8
461.261	15412.16
461.466	14250.96
461.672	13845.46
461.878	14736.33
462.083	13634.52
462.289	13399.01
462.494	13401.05
462.7	12872.68
462.905	12461.04
463.111	13112.29
463.316	13052.9
463.522	12823.53
463.727	12821.48
463.932	12493.8
464.138	12598.25
464.343	12573.67
464.549	12182.51
464.754	12631.02
464.959	12379.12
465.165	12266.48
465.37	11858.93
465.575	11537.4
465.781	12131.31
465.986	11887.61
466.191	11535.35
466.397	11572.22
466.602	10863.62
466.807	11486.2
467.012	11275.26
467.218	11392
467.423	11174.91
467.628	11219.97
467.833	11594.75
