Data from USB4F104151__39__12-23-52-055.txt Node

Date: Fri Mar 14 12:23:52 EDT 2025
User: louis
Spectrometer: USB4F10415
Trigger mode: 4
Integration Time (sec): 3.500000E-2
Scans to average: 1
Electric dark correction enabled: true
Nonlinearity correction enabled: false
Boxcar width: 0
XAxis mode: Wavelengths
Number of Pixels in Spectrum: 3648
>>>>>Begin Spectral Data<<<<<
178.204	-132.61
178.424	-132.61
178.644	-132.61
178.864	-237.05
179.084	-132.61
179.304	-7.68
179.524	-42.5
179.744	43.52
179.964	70.14
180.184	51.71
180.404	-9.73
180.624	-5.63
180.844	-17.92
181.064	-17.92
181.283	-15.87
181.503	-95.74
181.723	47.62
181.943	4.61
182.163	41.47
182.383	37.38
182.602	78.33
182.822	84.48
183.042	64
183.262	51.71
183.482	16.9
183.701	6.66
183.921	0.51
184.141	-32.26
184.361	68.09
184.58	23.04
184.8	0.51
185.02	10.75
185.239	80.38
185.459	-3.58
185.679	107.01
185.898	-30.21
186.118	47.62
186.338	70.14
186.557	10.75
186.777	6.66
186.997	-11.78
187.216	20.99
187.436	33.28
187.655	47.62
187.875	45.57
188.095	-24.06
188.314	96.77
188.534	55.81
188.753	104.96
188.973	43.52
189.192	74.24
189.412	55.81
189.631	53.76
189.851	43.52
190.07	57.86
190.29	-58.88
190.509	98.81
190.729	-7.68
190.948	49.66
191.168	190.97
191.387	59.9
191.607	51.71
191.826	4.61
192.045	23.04
192.265	29.18
192.484	29.18
192.704	33.28
192.923	-5.63
193.142	94.72
193.362	66.05
193.581	92.67
193.8	16.9
194.02	53.76
194.239	-17.92
194.458	23.04
194.678	55.81
194.897	14.85
195.116	-24.06
195.335	88.57
195.555	61.95
195.774	39.42
195.993	29.18
196.212	-34.3
196.432	10.75
196.651	127.49
196.87	10.75
197.089	154.11
197.308	20.99
197.528	12.8
197.747	-3.58
197.966	12.8
198.185	125.44
198.404	31.23
198.623	94.72
198.842	-9.73
199.062	20.99
199.281	41.47
199.5	-28.16
199.719	39.42
199.938	119.29
200.157	59.9
200.376	82.43
200.595	61.95
200.814	135.68
201.033	104.96
201.252	70.14
201.471	-26.11
201.69	98.81
201.909	2.56
202.128	-1.54
202.347	6.66
202.566	23.04
202.785	-3.58
203.004	-83.45
203.223	100.86
203.442	55.81
203.661	16.9
203.879	59.9
204.098	59.9
204.317	-13.82
204.536	20.99
204.755	104.96
204.974	121.34
205.193	59.9
205.411	115.2
205.63	88.57
205.849	53.76
206.068	96.77
206.287	12.8
206.505	49.66
206.724	61.95
206.943	55.81
207.162	14.85
207.381	35.33
207.599	29.18
207.818	51.71
208.037	45.57
208.255	41.47
208.474	55.81
208.693	80.38
208.911	-1.54
209.13	68.09
209.349	55.81
209.567	55.81
209.786	39.42
210.005	84.48
210.223	90.62
210.442	16.9
210.661	115.2
210.879	47.62
211.098	12.8
211.316	82.43
211.535	74.24
211.753	31.23
211.972	61.95
212.191	2.56
212.409	6.66
212.628	-3.58
212.846	45.57
213.065	64
213.283	59.9
213.502	-50.69
213.72	18.94
213.938	70.14
214.157	61.95
214.375	41.47
214.594	23.04
214.812	47.62
215.031	23.04
215.249	47.62
215.467	156.16
215.686	2.56
215.904	43.52
216.122	-42.5
216.341	57.86
216.559	33.28
216.778	78.33
216.996	0.51
217.214	27.14
217.432	94.72
217.651	-69.12
217.869	27.14
218.087	33.28
218.306	0.51
218.524	18.94
218.742	-32.26
218.96	55.81
219.179	33.28
219.397	31.23
219.615	41.47
219.833	119.29
220.051	49.66
220.27	86.53
220.488	37.38
220.706	55.81
220.924	-22.02
221.142	12.8
221.36	64
221.578	53.76
221.796	-11.78
222.015	-9.73
222.233	18.94
222.451	59.9
222.669	8.7
222.887	72.19
223.105	14.85
223.323	-34.3
223.541	-11.78
223.759	96.77
223.977	84.48
224.195	113.15
224.413	96.77
224.631	37.38
224.849	45.57
225.067	68.09
225.285	66.05
225.503	86.53
225.721	-48.64
225.939	43.52
226.157	29.18
226.375	117.25
226.592	-58.88
226.81	80.38
227.028	70.14
227.246	20.99
227.464	61.95
227.682	96.77
227.9	33.28
228.117	-15.87
228.335	6.66
228.553	31.23
228.771	0.51
228.989	53.76
229.206	78.33
229.424	0.51
229.642	-22.02
229.86	59.9
230.077	98.81
230.295	4.61
230.513	76.29
230.731	64
230.948	59.9
231.166	102.91
231.384	55.81
231.601	90.62
231.819	37.38
232.037	-7.68
232.254	18.94
232.472	-13.82
232.689	41.47
232.907	6.66
233.125	6.66
233.342	-1.54
233.56	-3.58
233.777	0.51
233.995	23.04
234.213	127.49
234.43	117.25
234.648	137.73
234.865	0.51
235.083	80.38
235.3	14.85
235.518	4.61
235.735	20.99
235.953	109.05
236.17	49.66
236.388	-9.73
236.605	107.01
236.822	127.49
237.04	39.42
237.257	45.57
237.475	2.56
237.692	29.18
237.909	-32.26
238.127	-9.73
238.344	8.7
238.562	-11.78
238.779	-24.06
238.996	25.09
239.214	39.42
239.431	41.47
239.648	86.53
239.865	41.47
240.083	10.75
240.3	53.76
240.517	-5.63
240.735	78.33
240.952	51.71
241.169	127.49
241.386	-24.06
241.603	-26.11
241.821	43.52
242.038	37.38
242.255	4.61
242.472	-32.26
242.689	47.62
242.907	31.23
243.124	55.81
243.341	6.66
243.558	-3.58
243.775	45.57
243.992	-5.63
244.209	74.24
244.426	135.68
244.643	53.76
244.86	18.94
245.078	16.9
245.295	-30.21
245.512	70.14
245.729	35.33
245.946	33.28
246.163	115.2
246.38	18.94
246.597	6.66
246.814	2.56
247.031	-22.02
247.248	31.23
247.464	16.9
247.681	4.61
247.898	76.29
248.115	35.33
248.332	-38.4
248.549	45.57
248.766	135.68
248.983	37.38
249.2	6.66
249.417	-26.11
249.633	-24.06
249.85	57.86
250.067	113.15
250.284	10.75
250.501	45.57
250.717	53.76
250.934	6.66
251.151	66.05
251.368	66.05
251.585	6.66
251.801	59.9
252.018	-79.36
252.235	31.23
252.451	4.61
252.668	33.28
252.885	20.99
253.102	16.9
253.318	31.23
253.535	-30.21
253.752	115.2
253.968	4.61
254.185	-50.69
254.401	-5.63
254.618	80.38
254.835	-13.82
255.051	25.09
255.268	-15.87
255.484	51.71
255.701	37.38
255.917	66.05
256.134	-38.4
256.351	96.77
256.567	8.7
256.784	49.66
257	-3.58
257.217	39.42
257.433	98.81
257.65	70.14
257.866	68.09
258.082	6.66
258.299	37.38
258.515	96.77
258.732	49.66
258.948	4.61
259.165	-11.78
259.381	51.71
259.597	61.95
259.814	86.53
260.03	39.42
260.246	59.9
260.463	18.94
260.679	94.72
260.895	-24.06
261.112	2.56
261.328	61.95
261.544	-38.4
261.761	47.62
261.977	49.66
262.193	0.51
262.409	12.8
262.626	31.23
262.842	10.75
263.058	-30.21
263.274	37.38
263.49	20.99
263.707	61.95
263.923	33.28
264.139	0.51
264.355	80.38
264.571	6.66
264.787	18.94
265.004	39.42
265.22	59.9
265.436	45.57
265.652	53.76
265.868	92.67
266.084	33.28
266.3	23.04
266.516	-11.78
266.732	61.95
266.948	8.7
267.164	102.91
267.38	37.38
267.596	70.14
267.812	135.68
268.028	74.24
268.244	-11.78
268.46	45.57
268.676	-13.82
268.892	78.33
269.108	33.28
269.324	6.66
269.54	-34.3
269.756	41.47
269.972	18.94
270.188	51.71
270.403	29.18
270.619	8.7
270.835	51.71
271.051	20.99
271.267	16.9
271.483	-69.12
271.698	100.86
271.914	18.94
272.13	23.04
272.346	102.91
272.562	23.04
272.777	-1.54
272.993	49.66
273.209	98.81
273.425	98.81
273.64	68.09
273.856	92.67
274.072	-7.68
274.287	12.8
274.503	-26.11
274.719	84.48
274.934	-3.58
275.15	-1.54
275.366	92.67
275.581	158.21
275.797	51.71
276.012	33.28
276.228	43.52
276.444	18.94
276.659	2.56
276.875	-24.06
277.09	41.47
277.306	49.66
277.521	16.9
277.737	25.09
277.952	23.04
278.168	94.72
278.383	104.96
278.599	92.67
278.814	84.48
279.03	74.24
279.245	109.05
279.461	109.05
279.676	27.14
279.892	-9.73
280.107	14.85
280.322	47.62
280.538	-1.54
280.753	43.52
280.969	61.95
281.184	53.76
281.399	78.33
281.615	53.76
281.83	59.9
282.045	20.99
282.26	29.18
282.476	43.52
282.691	37.38
282.906	-17.92
283.122	98.81
283.337	-65.02
283.552	74.24
283.767	23.04
283.983	76.29
284.198	-1.54
284.413	86.53
284.628	31.23
284.843	64
285.058	-19.97
285.274	82.43
285.489	-56.83
285.704	64
285.919	55.81
286.134	31.23
286.349	-13.82
286.564	27.14
286.779	84.48
286.995	33.28
287.21	12.8
287.425	64
287.64	-1.54
287.855	31.23
288.07	57.86
288.285	57.86
288.5	47.62
288.715	2.56
288.93	16.9
289.145	18.94
289.36	127.49
289.575	-11.78
289.79	0.51
290.004	-9.73
290.219	72.19
290.434	90.62
290.649	43.52
290.864	14.85
291.079	23.04
291.294	109.05
291.509	64
291.724	23.04
291.938	37.38
292.153	72.19
292.368	-30.21
292.583	49.66
292.798	49.66
293.012	100.86
293.227	45.57
293.442	66.05
293.657	35.33
293.871	102.91
294.086	37.38
294.301	123.39
294.516	86.53
294.73	78.33
294.945	2.56
295.16	49.66
295.374	111.1
295.589	100.86
295.804	39.42
296.018	16.9
296.233	55.81
296.447	78.33
296.662	-69.12
296.877	86.53
297.091	70.14
297.306	16.9
297.52	6.66
297.735	115.2
297.949	43.52
298.164	0.51
298.378	98.81
298.593	8.7
298.807	45.57
299.022	59.9
299.236	121.34
299.451	27.14
299.665	14.85
299.88	78.33
300.094	43.52
300.309	33.28
300.523	31.23
300.737	70.14
300.952	51.71
301.166	12.8
301.381	66.05
301.595	39.42
301.809	66.05
302.024	23.04
302.238	14.85
302.452	88.57
302.667	43.52
302.881	72.19
303.095	117.25
303.309	64
303.524	47.62
303.738	-13.82
303.952	16.9
304.166	-30.21
304.381	-13.82
304.595	98.81
304.809	8.7
305.023	41.47
305.237	10.75
305.452	14.85
305.666	59.9
305.88	174.59
306.094	72.19
306.308	53.76
306.522	72.19
306.736	70.14
306.95	49.66
307.164	25.09
307.379	68.09
307.593	74.24
307.807	98.81
308.021	115.2
308.235	74.24
308.449	41.47
308.663	72.19
308.877	158.21
309.091	41.47
309.305	104.96
309.519	-22.02
309.733	66.05
309.947	2.56
310.161	113.15
310.374	127.49
310.588	61.95
310.802	-50.69
311.016	74.24
311.23	57.86
311.444	66.05
311.658	45.57
311.872	27.14
312.085	20.99
312.299	121.34
312.513	100.86
312.727	49.66
312.941	-1.54
313.154	31.23
313.368	119.29
313.582	94.72
313.796	10.75
314.009	31.23
314.223	47.62
314.437	12.8
314.651	16.9
314.864	127.49
315.078	-22.02
315.292	23.04
315.505	-28.16
315.719	111.1
315.933	20.99
316.146	23.04
316.36	33.28
316.573	98.81
316.787	29.18
317.001	25.09
317.214	35.33
317.428	123.39
317.641	59.9
317.855	68.09
318.068	0.51
318.282	12.8
318.495	119.29
318.709	104.96
318.922	20.99
319.136	33.28
319.349	68.09
319.563	55.81
319.776	16.9
319.99	-34.3
320.203	66.05
320.417	20.99
320.63	2.56
320.843	127.49
321.057	135.68
321.27	20.99
321.483	55.81
321.697	72.19
321.91	96.77
322.124	41.47
322.337	20.99
322.55	37.38
322.763	2.56
322.977	102.91
323.19	45.57
323.403	-17.92
323.617	20.99
323.83	137.73
324.043	94.72
324.256	43.52
324.469	45.57
324.683	47.62
324.896	25.09
325.109	33.28
325.322	41.47
325.535	82.43
325.748	35.33
325.962	12.8
326.175	137.73
326.388	102.91
326.601	12.8
326.814	49.66
327.027	64
327.24	166.4
327.453	68.09
327.666	94.72
327.879	115.2
328.092	88.57
328.305	25.09
328.518	84.48
328.731	23.04
328.944	72.19
329.157	104.96
329.37	98.81
329.583	162.3
329.796	84.48
330.009	-15.87
330.222	104.96
330.435	72.19
330.648	-60.93
330.861	-48.64
331.073	131.58
331.286	4.61
331.499	8.7
331.712	27.14
331.925	18.94
332.138	61.95
332.35	45.57
332.563	12.8
332.776	29.18
332.989	35.33
333.202	31.23
333.414	8.7
333.627	6.66
333.84	4.61
334.053	94.72
334.265	2.56
334.478	147.97
334.691	64
334.903	53.76
335.116	-9.73
335.329	-13.82
335.541	8.7
335.754	88.57
335.966	20.99
336.179	-24.06
336.392	102.91
336.604	64
336.817	37.38
337.029	121.34
337.242	72.19
337.454	92.67
337.667	43.52
337.88	82.43
338.092	16.9
338.305	51.71
338.517	10.75
338.729	37.38
338.942	55.81
339.154	88.57
339.367	14.85
339.579	29.18
339.792	12.8
340.004	80.38
340.217	72.19
340.429	6.66
340.641	74.24
340.854	8.7
341.066	20.99
341.278	107.01
341.491	94.72
341.703	47.62
341.915	-17.92
342.128	72.19
342.34	0.51
342.552	41.47
342.764	74.24
342.977	59.9
343.189	84.48
343.401	16.9
343.613	72.19
343.826	47.62
344.038	23.04
344.25	8.7
344.462	72.19
344.674	20.99
344.886	-1.54
345.099	6.66
345.311	49.66
345.523	33.28
345.735	-17.92
345.947	39.42
346.159	4.61
346.371	111.1
346.583	57.86
346.795	94.72
347.007	68.09
347.219	96.77
347.431	70.14
347.643	70.14
347.855	20.99
348.067	61.95
348.279	16.9
348.491	8.7
348.703	43.52
348.915	23.04
349.127	8.7
349.339	-5.63
349.551	86.53
349.763	70.14
349.975	64
350.187	68.09
350.399	68.09
350.61	137.73
350.822	27.14
351.034	115.2
351.246	29.18
351.458	119.29
351.669	104.96
351.881	121.34
352.093	4.61
352.305	82.43
352.517	119.29
352.728	123.39
352.94	121.34
353.152	51.71
353.363	23.04
353.575	90.62
353.787	82.43
353.999	98.81
354.21	111.1
354.422	31.23
354.633	98.81
354.845	43.52
355.057	49.66
355.268	-22.02
355.48	90.62
355.692	86.53
355.903	23.04
356.115	37.38
356.326	-15.87
356.538	53.76
356.749	111.1
356.961	111.1
357.172	43.52
357.384	-26.11
357.595	92.67
357.807	43.52
358.018	57.86
358.23	64
358.441	43.52
358.653	37.38
358.864	29.18
359.075	-62.98
359.287	88.57
359.498	47.62
359.709	78.33
359.921	70.14
360.132	107.01
360.344	49.66
360.555	6.66
360.766	90.62
360.977	51.71
361.189	127.49
361.4	14.85
361.611	86.53
361.823	59.9
362.034	-9.73
362.245	96.77
362.456	20.99
362.667	98.81
362.879	39.42
363.09	41.47
363.301	82.43
363.512	45.57
363.723	-48.64
363.935	-22.02
364.146	61.95
364.357	12.8
364.568	64
364.779	47.62
364.99	100.86
365.201	43.52
365.412	117.25
365.623	8.7
365.834	84.48
366.045	111.1
366.256	39.42
366.467	37.38
366.678	39.42
366.889	57.86
367.1	18.94
367.311	102.91
367.522	59.9
367.733	47.62
367.944	35.33
368.155	25.09
368.366	51.71
368.577	76.29
368.788	121.34
368.999	29.18
369.209	64
369.42	70.14
369.631	115.2
369.842	18.94
370.053	37.38
370.264	137.73
370.474	2.56
370.685	72.19
370.896	139.77
371.107	160.25
371.317	82.43
371.528	82.43
371.739	64
371.95	107.01
372.16	100.86
372.371	0.51
372.582	88.57
372.792	43.52
373.003	111.1
373.214	113.15
373.424	92.67
373.635	0.51
373.846	41.47
374.056	14.85
374.267	66.05
374.477	72.19
374.688	29.18
374.898	102.91
375.109	53.76
375.319	33.28
375.53	70.14
375.74	82.43
375.951	156.16
376.161	96.77
376.372	94.72
376.582	-19.97
376.793	53.76
377.003	129.53
377.214	-11.78
377.424	57.86
377.635	29.18
377.845	-15.87
378.055	68.09
378.266	27.14
378.476	135.68
378.686	74.24
378.897	29.18
379.107	74.24
379.317	109.05
379.528	80.38
379.738	74.24
379.948	92.67
380.158	33.28
380.369	43.52
380.579	37.38
380.789	41.47
380.999	104.96
381.21	107.01
381.42	166.4
381.63	53.76
381.84	61.95
382.05	82.43
382.261	43.52
382.471	113.15
382.681	78.33
382.891	100.86
383.101	80.38
383.311	-3.58
383.521	-15.87
383.731	74.24
383.941	119.29
384.151	82.43
384.361	86.53
384.571	16.9
384.781	14.85
384.991	47.62
385.201	82.43
385.411	113.15
385.621	96.77
385.831	41.47
386.041	51.71
386.251	131.58
386.461	59.9
386.671	133.63
386.881	31.23
387.091	2.56
387.301	147.97
387.511	-7.68
387.72	20.99
387.93	117.25
388.14	31.23
388.35	41.47
388.56	90.62
388.769	78.33
388.979	121.34
389.189	84.48
389.399	207.36
389.609	88.57
389.818	102.91
390.028	72.19
390.238	141.82
390.447	86.53
390.657	31.23
390.867	59.9
391.076	-7.68
391.286	76.29
391.496	68.09
391.705	31.23
391.915	109.05
392.125	74.24
392.334	57.86
392.544	111.1
392.753	70.14
392.963	68.09
393.172	98.81
393.382	0.51
393.591	53.76
393.801	94.72
394.01	109.05
394.22	78.33
394.429	94.72
394.639	104.96
394.848	0.51
395.058	107.01
395.267	31.23
395.477	135.68
395.686	125.44
395.895	158.21
396.105	49.66
396.314	49.66
396.524	104.96
396.733	100.86
396.942	160.25
397.152	143.87
397.361	119.29
397.57	166.4
397.78	125.44
397.989	150.01
398.198	184.83
398.407	125.44
398.617	172.54
398.826	94.72
399.035	119.29
399.244	133.63
399.453	98.81
399.663	80.38
399.872	152.06
400.081	160.25
400.29	213.5
400.499	51.71
400.708	158.21
400.917	98.81
401.127	121.34
401.336	137.73
401.545	154.11
401.754	137.73
401.963	123.39
402.172	113.15
402.381	145.92
402.59	98.81
402.799	90.62
403.008	190.97
403.217	61.95
403.426	188.93
403.635	141.82
403.844	127.49
404.053	156.16
404.262	166.4
404.471	154.11
404.68	96.77
404.888	168.45
405.097	123.39
405.306	236.03
405.515	90.62
405.724	72.19
405.933	135.68
406.142	113.15
406.35	188.93
406.559	168.45
406.768	207.36
406.977	225.79
407.185	219.64
407.394	195.07
407.603	193.02
407.812	190.97
408.02	213.5
408.229	135.68
408.438	182.78
408.646	289.28
408.855	199.16
409.064	211.45
409.272	170.49
409.481	313.85
409.69	346.62
409.898	248.32
410.107	317.95
410.315	250.36
410.524	322.04
410.733	260.6
410.941	315.9
411.15	391.67
411.358	354.81
411.567	391.67
411.775	338.43
411.984	424.44
412.192	428.54
412.401	389.63
412.609	471.54
412.818	428.54
413.026	446.97
413.234	516.6
413.443	541.18
413.651	500.22
413.86	522.74
414.068	547.32
414.276	664.05
414.485	604.66
414.693	559.61
414.901	686.58
415.11	555.51
415.318	649.72
415.526	717.3
415.734	705.01
415.943	702.97
416.151	780.79
416.359	700.92
416.567	856.56
416.776	854.51
416.984	963.06
417.192	911.86
417.4	877.04
417.608	813.56
417.817	991.73
418.025	1065.46
418.233	1040.88
418.441	1085.94
418.649	1145.33
418.857	1174
419.065	1309.16
419.273	1266.16
419.481	1249.77
419.689	1380.84
419.897	1358.32
420.105	1454.57
420.313	1389.03
420.521	1544.68
420.729	1546.73
420.937	1544.68
421.145	1757.67
421.353	1614.31
421.561	1780.2
421.769	1782.24
421.977	1860.07
422.185	1798.63
422.393	2095.58
422.601	2050.53
422.809	2208.22
423.017	2111.97
423.224	2304.48
423.432	2275.81
423.64	2218.46
423.848	2632.15
424.056	2513.37
424.263	2771.41
424.471	2619.86
424.679	2714.07
424.887	2949.59
425.094	2939.35
425.302	2853.33
425.51	3088.85
425.718	3082.7
425.925	3312.08
426.133	3238.35
426.341	3516.87
426.548	3557.83
426.756	3627.46
426.964	3664.33
427.171	3926.47
427.379	4006.34
427.586	3975.62
427.794	4272.57
428.001	4342.21
428.209	4547
428.417	4544.95
428.624	4835.77
428.832	4803
429.039	4794.81
429.247	4817.33
429.454	5405.1
429.662	5687.72
429.869	5331.37
430.076	5783.98
430.284	5401.01
430.491	5956.01
430.699	6105.51
430.906	5982.63
431.114	6103.46
431.321	6468
431.528	6508.96
431.736	6767
431.943	7119.25
432.15	7031.19
432.358	7195.03
432.565	7500.17
432.772	7491.98
432.979	7883.14
433.187	7936.39
433.394	7956.87
433.601	8706.43
433.808	8601.98
434.016	8683.9
434.223	8829.31
434.43	9134.45
434.637	9376.11
434.844	9728.36
435.052	10092.9
435.259	9990.5
435.466	10121.57
435.673	9748.84
435.88	10568.03
436.087	11196.76
436.294	11221.33
436.501	10959.19
436.708	11149.65
436.915	11549.01
437.122	12151.11
437.329	11866.44
437.537	12450.11
437.743	12683.58
437.95	12685.63
438.157	13302.07
438.364	13646.13
438.571	13832.49
438.778	13728.05
438.985	14864.67
439.192	14508.32
439.399	14774.56
439.606	14342.44
439.813	15126.81
440.02	16255.24
440.227	16185.61
440.433	15806.73
440.64	16060.68
440.847	16167.18
441.054	16478.47
441.261	17768.69
441.467	17555.7
441.674	17817.84
441.881	18612.45
442.088	18712.8
442.294	18596.07
442.501	18909.41
442.708	19159.26
442.914	19863.76
443.121	20828.35
443.328	20242.64
443.534	21668.02
443.741	21070.01
443.948	20707.52
444.154	22476.97
444.361	22306.99
444.568	22335.66
444.774	22290.6
444.981	22640.81
445.187	23455.9
445.394	23949.46
445.6	23898.26
445.807	26183.79
446.013	25114.75
446.22	25618.55
446.426	26624.11
446.633	26830.95
446.839	27723.86
447.046	26550.38
447.252	28102.74
447.459	28250.19
447.665	28287.06
447.871	29495.36
448.078	30693.42
448.284	28979.27
448.491	29825.08
448.697	30908.46
448.903	31526.94
449.11	31688.73
449.316	31301.67
449.522	31862.81
449.728	32432.15
449.935	32512.02
450.141	32395.28
450.347	33296.39
450.553	32446.48
450.76	32741.39
450.966	34064.38
451.172	33509.38
451.378	34416.63
451.584	33800.19
451.791	34406.39
451.997	34553.84
452.203	34850.8
452.409	34652.14
452.615	34869.23
452.821	33642.49
453.027	33198.09
453.233	35086.31
453.44	33839.1
453.646	34050.04
453.852	33798.14
454.058	34660.34
454.264	33544.19
454.47	34084.86
454.676	33312.77
454.882	34277.36
455.088	31741.98
455.294	31830.04
455.5	32432.15
455.705	32348.18
455.911	31359.01
456.117	30791.72
456.323	30390.32
456.529	28842.06
456.735	30097.46
456.941	29431.87
457.147	28930.12
457.352	27678.81
457.558	27486.3
457.764	27734.1
457.97	27035.75
458.176	26622.06
458.381	26544.23
458.587	25319.55
458.793	25100.42
458.999	24084.62
459.204	25434.24
459.41	24961.16
459.616	23187.61
459.821	23482.52
460.027	23177.37
460.233	22601.9
460.438	21409.98
460.644	21762.23
460.85	20658.37
461.055	20306.12
461.261	20314.31
461.466	18854.11
461.672	18587.88
461.878	19722.45
462.083	18313.45
462.289	18088.17
462.494	17666.29
462.7	17019.13
462.905	16486.66
463.111	17185.02
463.316	17154.3
463.522	16756.99
463.727	16589.06
463.932	16574.72
464.138	16689.41
464.343	16638.21
464.549	16048.4
464.754	17062.14
464.959	16662.79
465.165	16539.91
465.37	15685.9
465.575	15223.06
465.781	16038.16
465.986	16228.62
466.191	15470.87
466.397	15223.06
466.602	14399.78
466.807	15118.62
467.012	15229.21
467.218	14846.24
467.423	14876.96
467.628	14852.38
467.833	15151.38
468.038	14836
