Data from USB4F104151__67__12-24-13-961.txt Node

Date: Fri Mar 14 12:24:13 EDT 2025
User: louis
Spectrometer: USB4F10415
Trigger mode: 4
Integration Time (sec): 3.500000E-2
Scans to average: 1
Electric dark correction enabled: true
Nonlinearity correction enabled: false
Boxcar width: 0
XAxis mode: Wavelengths
Number of Pixels in Spectrum: 3648
>>>>>Begin Spectral Data<<<<<
178.204	-127.66
178.424	-127.66
178.644	-127.66
178.864	-131.75
179.084	-209.58
179.304	-29.35
179.524	42.32
179.744	13.65
179.964	-0.68
180.184	-8.87
180.404	-55.98
180.624	9.56
180.844	62.8
181.064	25.94
181.283	-41.64
181.503	-43.69
181.723	25.94
181.943	-84.65
182.163	79.19
182.383	30.04
182.602	101.72
182.822	77.14
183.042	-4.78
183.262	7.51
183.482	-33.45
183.701	58.71
183.921	-55.98
184.141	23.89
184.361	109.91
184.58	9.56
184.8	36.18
185.02	-27.31
185.239	75.09
185.459	54.61
185.679	27.99
185.898	-17.07
186.118	81.24
186.338	-12.97
186.557	48.47
186.777	13.65
186.997	-21.16
187.216	19.8
187.436	93.52
187.655	7.51
187.875	68.95
188.095	21.85
188.314	171.35
188.534	54.61
188.753	17.75
188.973	34.13
189.192	62.8
189.412	52.56
189.631	38.23
189.851	46.42
190.07	116.05
190.29	46.42
190.509	-25.26
190.729	-43.69
190.948	23.89
191.168	161.11
191.387	44.37
191.607	68.95
191.826	66.9
192.045	-2.73
192.265	-4.78
192.484	-10.92
192.704	-2.73
192.923	-92.84
193.142	107.86
193.362	27.99
193.581	-12.97
193.8	-27.31
194.02	46.42
194.239	-10.92
194.458	23.89
194.678	48.47
194.897	71
195.116	23.89
195.335	56.66
195.555	9.56
195.774	32.08
195.993	83.28
196.212	56.66
196.432	-64.17
196.651	40.28
196.87	5.46
197.089	83.28
197.308	75.09
197.528	81.24
197.747	15.7
197.966	27.99
198.185	38.23
198.404	-62.12
198.623	48.47
198.842	46.42
199.062	54.61
199.281	32.08
199.5	32.08
199.719	42.32
199.938	5.46
200.157	-58.03
200.376	46.42
200.595	52.56
200.814	38.23
201.033	-70.31
201.252	105.81
201.471	3.41
201.69	58.71
201.909	23.89
202.128	19.8
202.347	46.42
202.566	25.94
202.785	-8.87
203.004	-10.92
203.223	126.29
203.442	-4.78
203.661	-8.87
203.879	19.8
204.098	-6.83
204.317	5.46
204.536	62.8
204.755	-21.16
204.974	66.9
205.193	9.56
205.411	9.56
205.63	58.71
205.849	50.52
206.068	62.8
206.287	-25.26
206.505	68.95
206.724	-60.07
206.943	42.32
207.162	42.32
207.381	62.8
207.599	19.8
207.818	30.04
208.037	-19.11
208.255	23.89
208.474	-0.68
208.693	-51.88
208.911	-15.02
209.13	-37.55
209.349	87.38
209.567	54.61
209.786	21.85
210.005	58.71
210.223	66.9
210.442	-17.07
210.661	62.8
210.879	-29.35
211.098	-4.78
211.316	21.85
211.535	38.23
211.753	-29.35
211.972	50.52
212.191	25.94
212.409	23.89
212.628	27.99
212.846	-0.68
213.065	71
213.283	19.8
213.502	83.28
213.72	-2.73
213.938	79.19
214.157	1.37
214.375	91.48
214.594	27.99
214.812	44.37
215.031	3.41
215.249	7.51
215.467	9.56
215.686	11.61
215.904	13.65
216.122	-25.26
216.341	116.05
216.559	-2.73
216.778	83.28
216.996	9.56
217.214	5.46
217.432	-4.78
217.651	-4.78
217.869	17.75
218.087	66.9
218.306	40.28
218.524	-21.16
218.742	-10.92
218.96	50.52
219.179	-41.64
219.397	50.52
219.615	105.81
219.833	62.8
220.051	34.13
220.27	79.19
220.488	54.61
220.706	27.99
220.924	9.56
221.142	1.37
221.36	5.46
221.578	32.08
221.796	15.7
222.015	34.13
222.233	-33.45
222.451	79.19
222.669	-15.02
222.887	13.65
223.105	-6.83
223.323	54.61
223.541	11.61
223.759	79.19
223.977	-21.16
224.195	32.08
224.413	34.13
224.631	107.86
224.849	21.85
225.067	83.28
225.285	-33.45
225.503	-33.45
225.721	-80.55
225.939	21.85
226.157	66.9
226.375	159.06
226.592	-25.26
226.81	13.65
227.028	11.61
227.246	122.2
227.464	50.52
227.682	77.14
227.9	62.8
228.117	15.7
228.335	42.32
228.553	17.75
228.771	93.52
228.989	75.09
229.206	85.33
229.424	-12.97
229.642	3.41
229.86	-2.73
230.077	-12.97
230.295	85.33
230.513	50.52
230.731	52.56
230.948	75.09
231.166	5.46
231.384	75.09
231.601	7.51
231.819	52.56
232.037	50.52
232.254	23.89
232.472	40.28
232.689	1.37
232.907	60.76
233.125	-6.83
233.342	56.66
233.56	-31.4
233.777	-17.07
233.995	19.8
234.213	34.13
234.43	75.09
234.648	46.42
234.865	34.13
235.083	64.85
235.3	11.61
235.518	89.43
235.735	71
235.953	15.7
236.17	25.94
236.388	34.13
236.605	48.47
236.822	48.47
237.04	38.23
237.257	36.18
237.475	56.66
237.692	107.86
237.909	9.56
238.127	9.56
238.344	17.75
238.562	68.95
238.779	-19.11
238.996	-10.92
239.214	46.42
239.431	89.43
239.648	-58.03
239.865	36.18
240.083	34.13
240.3	-25.26
240.517	-15.02
240.735	25.94
240.952	-15.02
241.169	48.47
241.386	-51.88
241.603	-31.4
241.821	9.56
242.038	85.33
242.255	56.66
242.472	13.65
242.689	3.41
242.907	136.53
243.124	-2.73
243.341	32.08
243.558	30.04
243.775	-4.78
243.992	-21.16
244.209	120.15
244.426	97.62
244.643	60.76
244.86	9.56
245.078	103.76
245.295	89.43
245.512	79.19
245.729	-53.93
245.946	42.32
246.163	50.52
246.38	56.66
246.597	46.42
246.814	73.04
247.031	19.8
247.248	9.56
247.464	21.85
247.681	7.51
247.898	-29.35
248.115	9.56
248.332	-53.93
248.549	52.56
248.766	52.56
248.983	36.18
249.2	46.42
249.417	60.76
249.633	62.8
249.85	25.94
250.067	9.56
250.284	40.28
250.501	58.71
250.717	64.85
250.934	-49.83
251.151	54.61
251.368	66.9
251.585	95.57
251.801	38.23
252.018	-6.83
252.235	-2.73
252.451	11.61
252.668	34.13
252.885	103.76
253.102	-2.73
253.318	-41.64
253.535	-6.83
253.752	-70.31
253.968	73.04
254.185	-12.97
254.401	68.95
254.618	34.13
254.835	19.8
255.051	36.18
255.268	-12.97
255.484	83.28
255.701	-29.35
255.917	95.57
256.134	56.66
256.351	11.61
256.567	15.7
256.784	19.8
257	-66.22
257.217	23.89
257.433	79.19
257.65	105.81
257.866	73.04
258.082	40.28
258.299	-2.73
258.515	7.51
258.732	1.37
258.948	34.13
259.165	17.75
259.381	34.13
259.597	34.13
259.814	25.94
260.03	75.09
260.246	77.14
260.463	9.56
260.679	71
260.895	54.61
261.112	56.66
261.328	-27.31
261.544	17.75
261.761	114
261.977	81.24
262.193	-29.35
262.409	52.56
262.626	34.13
262.842	60.76
263.058	-4.78
263.274	77.14
263.49	75.09
263.707	62.8
263.923	46.42
264.139	-68.27
264.355	1.37
264.571	34.13
264.787	5.46
265.004	48.47
265.22	7.51
265.436	3.41
265.652	-15.02
265.868	5.46
266.084	-41.64
266.3	-8.87
266.516	-66.22
266.732	3.41
266.948	54.61
267.164	9.56
267.38	32.08
267.596	21.85
267.812	79.19
268.028	79.19
268.244	25.94
268.46	36.18
268.676	-8.87
268.892	15.7
269.108	68.95
269.324	30.04
269.54	-39.59
269.756	32.08
269.972	-19.11
270.188	27.99
270.403	56.66
270.619	-0.68
270.835	44.37
271.051	42.32
271.267	32.08
271.483	-33.45
271.698	21.85
271.914	124.24
272.13	-4.78
272.346	-51.88
272.562	-76.46
272.777	83.28
272.993	1.37
273.209	13.65
273.425	71
273.64	-4.78
273.856	23.89
274.072	-23.21
274.287	46.42
274.503	17.75
274.719	54.61
274.934	-19.11
275.15	-23.21
275.366	89.43
275.581	11.61
275.797	64.85
276.012	-45.74
276.228	30.04
276.444	85.33
276.659	44.37
276.875	17.75
277.09	48.47
277.306	-19.11
277.521	-45.74
277.737	30.04
277.952	42.32
278.168	46.42
278.383	85.33
278.599	7.51
278.814	54.61
279.03	7.51
279.245	95.57
279.461	13.65
279.676	54.61
279.892	23.89
280.107	-17.07
280.322	-12.97
280.538	68.95
280.753	25.94
280.969	81.24
281.184	48.47
281.399	36.18
281.615	32.08
281.83	62.8
282.045	-27.31
282.26	-29.35
282.476	21.85
282.691	124.24
282.906	40.28
283.122	85.33
283.337	5.46
283.552	5.46
283.767	38.23
283.983	5.46
284.198	-12.97
284.413	-49.83
284.628	13.65
284.843	36.18
285.058	11.61
285.274	-15.02
285.489	21.85
285.704	111.96
285.919	-35.5
286.134	50.52
286.349	60.76
286.564	1.37
286.779	79.19
286.995	40.28
287.21	73.04
287.425	15.7
287.64	46.42
287.855	-21.16
288.07	-6.83
288.285	111.96
288.5	111.96
288.715	42.32
288.93	34.13
289.145	23.89
289.36	64.85
289.575	13.65
289.79	75.09
290.004	60.76
290.219	83.28
290.434	-2.73
290.649	17.75
290.864	-6.83
291.079	23.89
291.294	52.56
291.509	87.38
291.724	-27.31
291.938	25.94
292.153	58.71
292.368	42.32
292.583	27.99
292.798	77.14
293.012	7.51
293.227	60.76
293.442	25.94
293.657	42.32
293.871	60.76
294.086	1.37
294.301	3.41
294.516	30.04
294.73	111.96
294.945	-21.16
295.16	15.7
295.374	97.62
295.589	77.14
295.804	30.04
296.018	93.52
296.233	-8.87
296.447	-0.68
296.662	-51.88
296.877	144.72
297.091	-4.78
297.306	52.56
297.52	-4.78
297.735	-25.26
297.949	71
298.164	150.87
298.378	56.66
298.593	-8.87
298.807	7.51
299.022	36.18
299.236	62.8
299.451	48.47
299.665	-64.17
299.88	52.56
300.094	48.47
300.309	79.19
300.523	19.8
300.737	27.99
300.952	32.08
301.166	30.04
301.381	-31.4
301.595	48.47
301.809	25.94
302.024	32.08
302.238	42.32
302.452	62.8
302.667	9.56
302.881	118.1
303.095	32.08
303.309	42.32
303.524	-39.59
303.738	9.56
303.952	-10.92
304.166	124.24
304.381	-21.16
304.595	75.09
304.809	81.24
305.023	-15.02
305.237	52.56
305.452	66.9
305.666	64.85
305.88	120.15
306.094	42.32
306.308	73.04
306.522	7.51
306.736	7.51
306.95	56.66
307.164	21.85
307.379	101.72
307.593	68.95
307.807	34.13
308.021	68.95
308.235	81.24
308.449	-39.59
308.663	42.32
308.877	79.19
309.091	-39.59
309.305	124.24
309.519	-23.21
309.733	40.28
309.947	-58.03
310.161	105.81
310.374	3.41
310.588	-6.83
310.802	-6.83
311.016	36.18
311.23	62.8
311.444	75.09
311.658	-4.78
311.872	9.56
312.085	11.61
312.299	107.86
312.513	-15.02
312.727	-0.68
312.941	21.85
313.154	23.89
313.368	34.13
313.582	-17.07
313.796	-43.69
314.009	19.8
314.223	66.9
314.437	42.32
314.651	101.72
314.864	34.13
315.078	-10.92
315.292	-21.16
315.505	36.18
315.719	81.24
315.933	-12.97
316.146	-10.92
316.36	-0.68
316.573	52.56
316.787	30.04
317.001	89.43
317.214	-29.35
317.428	19.8
317.641	5.46
317.855	56.66
318.068	19.8
318.282	107.86
318.495	144.72
318.709	7.51
318.922	75.09
319.136	114
319.349	9.56
319.563	60.76
319.776	25.94
319.99	77.14
320.203	66.9
320.417	17.75
320.63	23.89
320.843	101.72
321.057	60.76
321.27	21.85
321.483	30.04
321.697	60.76
321.91	-37.55
322.124	87.38
322.337	30.04
322.55	36.18
322.763	38.23
322.977	81.24
323.19	93.52
323.403	58.71
323.617	38.23
323.83	83.28
324.043	-19.11
324.256	52.56
324.469	40.28
324.683	27.99
324.896	-12.97
325.109	62.8
325.322	15.7
325.535	30.04
325.748	85.33
325.962	19.8
326.175	-2.73
326.388	32.08
326.601	62.8
326.814	58.71
327.027	11.61
327.24	58.71
327.453	32.08
327.666	71
327.879	66.9
328.092	54.61
328.305	-12.97
328.518	-33.45
328.731	25.94
328.944	-12.97
329.157	130.39
329.37	105.81
329.583	114
329.796	83.28
330.009	38.23
330.222	56.66
330.435	25.94
330.648	48.47
330.861	17.75
331.073	42.32
331.286	62.8
331.499	44.37
331.712	50.52
331.925	-31.4
332.138	1.37
332.35	30.04
332.563	15.7
332.776	77.14
332.989	44.37
333.202	-6.83
333.414	87.38
333.627	15.7
333.84	42.32
334.053	62.8
334.265	5.46
334.478	-4.78
334.691	7.51
334.903	25.94
335.116	38.23
335.329	97.62
335.541	46.42
335.754	97.62
335.966	58.71
336.179	36.18
336.392	-10.92
336.604	128.34
336.817	-8.87
337.029	-17.07
337.242	50.52
337.454	30.04
337.667	25.94
337.88	97.62
338.092	68.95
338.305	19.8
338.517	-2.73
338.729	27.99
338.942	122.2
339.154	3.41
339.367	19.8
339.579	48.47
339.792	32.08
340.004	91.48
340.217	-35.5
340.429	109.91
340.641	9.56
340.854	32.08
341.066	124.24
341.278	68.95
341.491	91.48
341.703	64.85
341.915	-12.97
342.128	19.8
342.34	-25.26
342.552	36.18
342.764	46.42
342.977	89.43
343.189	101.72
343.401	34.13
343.613	-74.41
343.826	1.37
344.038	-70.31
344.25	101.72
344.462	73.04
344.674	87.38
344.886	17.75
345.099	77.14
345.311	27.99
345.523	30.04
345.735	3.41
345.947	60.76
346.159	36.18
346.371	46.42
346.583	-15.02
346.795	165.2
347.007	5.46
347.219	13.65
347.431	34.13
347.643	64.85
347.855	23.89
348.067	34.13
348.279	68.95
348.491	42.32
348.703	64.85
348.915	1.37
349.127	-25.26
349.339	17.75
349.551	7.51
349.763	34.13
349.975	64.85
350.187	73.04
350.399	52.56
350.61	15.7
350.822	-27.31
351.034	40.28
351.246	15.7
351.458	-19.11
351.669	77.14
351.881	52.56
352.093	81.24
352.305	71
352.517	21.85
352.728	25.94
352.94	-17.07
353.152	44.37
353.363	15.7
353.575	54.61
353.787	21.85
353.999	46.42
354.21	116.05
354.422	-70.31
354.633	3.41
354.845	71
355.057	36.18
355.268	116.05
355.48	-35.5
355.692	34.13
355.903	-10.92
356.115	-15.02
356.326	36.18
356.538	71
356.749	66.9
356.961	105.81
357.172	58.71
357.384	68.95
357.595	150.87
357.807	77.14
358.018	-23.21
358.23	122.2
358.441	48.47
358.653	75.09
358.864	73.04
359.075	19.8
359.287	36.18
359.498	25.94
359.709	15.7
359.921	107.86
360.132	50.52
360.344	17.75
360.555	-23.21
360.766	58.71
360.977	25.94
361.189	83.28
361.4	40.28
361.611	42.32
361.823	34.13
362.034	11.61
362.245	1.37
362.456	17.75
362.667	3.41
362.879	34.13
363.09	3.41
363.301	7.51
363.512	81.24
363.723	-4.78
363.935	75.09
364.146	15.7
364.357	60.76
364.568	95.57
364.779	58.71
364.99	122.2
365.201	34.13
365.412	142.68
365.623	-2.73
365.834	66.9
366.045	-27.31
366.256	107.86
366.467	30.04
366.678	71
366.889	91.48
367.1	36.18
367.311	23.89
367.522	-17.07
367.733	-4.78
367.944	42.32
368.155	52.56
368.366	62.8
368.577	87.38
368.788	58.71
368.999	109.91
369.209	-12.97
369.42	5.46
369.631	136.53
369.842	9.56
370.053	3.41
370.264	107.86
370.474	81.24
370.685	93.52
370.896	-8.87
371.107	116.05
371.317	58.71
371.528	7.51
371.739	163.15
371.95	21.85
372.16	68.95
372.371	42.32
372.582	23.89
372.792	79.19
373.003	40.28
373.214	7.51
373.424	144.72
373.635	1.37
373.846	103.76
374.056	46.42
374.267	-0.68
374.477	62.8
374.688	60.76
374.898	32.08
375.109	36.18
375.319	-0.68
375.53	71
375.74	77.14
375.951	5.46
376.161	30.04
376.372	38.23
376.582	-21.16
376.793	40.28
377.003	-33.45
377.214	44.37
377.424	36.18
377.635	23.89
377.845	77.14
378.055	79.19
378.266	30.04
378.476	-4.78
378.686	60.76
378.897	-2.73
379.107	95.57
379.317	87.38
379.528	-21.16
379.738	130.39
379.948	-0.68
380.158	68.95
380.369	42.32
380.579	107.86
380.789	128.34
380.999	62.8
381.21	54.61
381.42	118.1
381.63	60.76
381.84	165.2
382.05	23.89
382.261	56.66
382.471	56.66
382.681	52.56
382.891	132.44
383.101	68.95
383.311	48.47
383.521	-2.73
383.731	89.43
383.941	36.18
384.151	62.8
384.361	75.09
384.571	11.61
384.781	46.42
384.991	99.67
385.201	62.8
385.411	34.13
385.621	99.67
385.831	68.95
386.041	105.81
386.251	-23.21
386.461	46.42
386.671	-27.31
386.881	40.28
387.091	-17.07
387.301	19.8
387.511	97.62
387.72	38.23
387.93	91.48
388.14	25.94
388.35	5.46
388.56	91.48
388.769	40.28
388.979	38.23
389.189	66.9
389.399	91.48
389.609	66.9
389.818	68.95
390.028	79.19
390.238	48.47
390.447	42.32
390.657	46.42
390.867	-10.92
391.076	97.62
391.286	122.2
391.496	212.31
391.705	62.8
391.915	71
392.125	75.09
392.334	93.52
392.544	152.92
392.753	89.43
392.963	99.67
393.172	93.52
393.382	66.9
393.591	122.2
393.801	17.75
394.01	130.39
394.22	116.05
394.429	40.28
394.639	3.41
394.848	116.05
395.058	136.53
395.267	99.67
395.477	126.29
395.686	120.15
395.895	109.91
396.105	130.39
396.314	105.81
396.524	107.86
396.733	36.18
396.942	189.78
397.152	152.92
397.361	99.67
397.57	48.47
397.78	146.77
397.989	144.72
398.198	171.35
398.407	73.04
398.617	114
398.826	73.04
399.035	124.24
399.244	124.24
399.453	68.95
399.663	109.91
399.872	89.43
400.081	32.08
400.29	169.3
400.499	87.38
400.708	75.09
400.917	144.72
401.127	85.33
401.336	83.28
401.545	210.26
401.754	161.11
401.963	157.01
402.172	109.91
402.381	7.51
402.59	42.32
402.799	75.09
403.008	118.1
403.217	138.58
403.426	50.52
403.635	126.29
403.844	89.43
404.053	138.58
404.262	50.52
404.471	118.1
404.68	157.01
404.888	56.66
405.097	101.72
405.306	140.63
405.515	191.83
405.724	183.63
405.933	142.68
406.142	120.15
406.35	175.44
406.559	204.11
406.768	144.72
406.977	197.97
407.185	175.44
407.394	165.2
407.603	165.2
407.812	91.48
408.02	224.59
408.229	173.39
408.438	228.69
408.646	124.24
408.855	265.55
409.064	279.89
409.272	163.15
409.481	245.07
409.69	257.36
409.898	130.39
410.107	238.93
410.315	386.38
410.524	279.89
410.733	320.85
410.941	228.69
411.15	265.55
411.358	322.9
411.567	326.99
411.775	259.41
411.984	449.87
412.192	421.2
412.401	372.05
412.609	456.01
412.818	431.44
413.026	482.64
413.234	402.77
413.443	492.88
413.651	427.34
413.86	566.6
414.068	570.7
414.276	621.9
414.485	568.65
414.693	621.9
414.901	677.19
415.11	626
415.318	644.43
415.526	630.09
415.734	648.52
415.943	681.29
416.151	720.2
416.359	705.87
416.567	752.97
416.776	746.83
416.984	822.6
417.192	861.51
417.4	896.33
417.608	894.28
417.817	851.27
418.025	892.23
418.233	1004.87
418.441	1000.77
418.649	1004.87
418.857	1160.52
419.065	1170.76
419.273	1133.89
419.481	1158.47
419.689	1191.24
419.897	1256.77
420.105	1383.74
420.313	1367.36
420.521	1498.43
420.729	1508.67
420.937	1500.48
421.145	1516.86
421.353	1680.7
421.561	1744.19
421.769	1768.76
421.977	1797.43
422.185	1805.63
422.393	1865.02
422.601	2114.87
422.809	2149.68
423.017	1963.32
423.224	2057.53
423.432	2172.21
423.64	2250.03
423.848	2434.35
424.056	2319.67
424.263	2563.37
424.471	2442.54
424.679	2657.58
424.887	2825.51
425.094	2870.57
425.302	2802.99
425.51	2995.5
425.718	3054.89
425.925	3061.03
426.133	3011.88
426.341	3452.19
426.548	3400.99
426.756	3419.43
426.964	3431.71
427.171	3716.38
427.379	3786.01
427.586	3880.22
427.794	3908.89
428.001	4177.17
428.209	4302.1
428.417	4203.8
428.624	4609.3
428.832	4560.14
429.039	4508.94
429.247	4558.1
429.454	5104.9
429.662	5272.84
429.869	5217.54
430.076	5278.98
430.284	5203.21
430.491	5412.1
430.699	5735.68
430.906	5723.39
431.114	5815.55
431.321	5997.82
431.528	6089.98
431.736	6591.73
431.943	6878.44
432.15	6628.59
432.358	6796.53
432.565	7056.62
432.772	7085.29
432.979	7595.23
433.187	7503.07
433.394	7830.75
433.601	8035.55
433.808	8150.23
434.016	8135.9
434.223	8520.92
434.43	8778.96
434.637	8848.59
434.844	9313.48
435.052	9409.73
435.259	9311.43
435.466	9518.28
435.673	9266.38
435.88	10040.51
436.087	10636.47
436.294	10607.8
436.501	10259.64
436.708	10693.81
436.915	11078.83
437.122	11408.55
437.329	11134.12
437.537	11777.19
437.743	11748.51
437.95	11519.14
438.157	12412.06
438.364	12942.48
438.571	12696.72
438.778	13051.02
438.985	14019.71
439.192	13671.56
439.399	13880.45
439.606	13694.08
439.813	14447.74
440.02	15389.8
440.227	15082.61
440.433	14863.47
440.64	15297.64
440.847	15336.56
441.054	15627.37
441.261	16659.54
441.467	16428.12
441.674	16952.4
441.881	17306.7
442.088	17411.15
442.294	17155.15
442.501	17724.49
442.708	18336.83
442.914	18871.35
443.121	19495.98
443.328	19008.56
443.534	20218.91
443.741	19975.2
443.948	19729.45
444.154	21507.09
444.361	21085.2
444.568	21218.32
444.774	21296.14
444.981	21474.32
445.187	22170.63
445.394	23124.98
445.6	22420.48
445.807	24906.71
446.013	23774.19
446.22	24245.22
446.426	25267.16
446.633	25349.07
446.839	26254.28
447.046	25158.61
447.252	26811.32
447.459	26715.07
447.665	26377.15
447.871	27829.16
448.078	28685.22
448.284	27351.99
448.491	28224.42
448.697	29215.64
448.903	29911.95
449.11	30188.42
449.316	29514.64
449.522	29766.54
449.728	30722.94
449.935	30612.35
450.141	30679.94
450.347	31771.5
450.553	30477.19
450.76	31228.79
450.966	32506.73
451.172	32201.58
451.378	32473.96
451.584	31744.88
451.791	32492.39
451.997	32899.94
452.203	33264.47
452.409	32992.09
452.615	33145.69
452.821	31818.61
453.027	31511.41
453.233	33041.25
453.44	31783.79
453.646	32301.93
453.852	32449.38
454.058	32564.07
454.264	31701.87
454.47	32328.55
454.676	31464.31
454.882	32801.63
455.088	29719.44
455.294	30296.97
455.5	30831.49
455.705	30847.87
455.911	29918.09
456.117	29109.15
456.323	28724.13
456.529	27171.77
456.735	28545.95
456.941	27519.92
457.147	27489.2
457.352	26735.55
457.558	26272.71
457.764	26231.75
457.97	25844.68
458.176	25074.65
458.381	25418.71
458.587	23997.42
458.793	23919.59
458.999	22821.88
459.204	24323.04
459.41	23553.01
459.616	21986.31
459.821	22002.69
460.027	22135.81
460.233	21707.79
460.438	20280.35
460.644	20565.02
460.85	19780.65
461.055	19565.61
461.261	19422.25
461.466	18009.15
461.672	17697.86
461.878	18881.59
462.083	17421.39
462.289	17124.43
462.494	16968.79
462.7	16147.55
462.905	15733.86
463.111	16415.83
463.316	16360.54
463.522	15942.75
463.727	15952.99
463.932	16088.16
464.138	15866.98
464.343	15834.21
464.549	15473.77
464.754	15975.52
464.959	15680.61
465.165	15678.57
465.37	15086.7
465.575	14742.64
465.781	15234.16
465.986	15215.73
466.191	14802.04
466.397	14425.21
466.602	13984.9
466.807	14251.13
467.012	13907.07
467.218	14087.29
467.423	14013.57
467.628	14138.49
467.833	14507.13
