Data from USB4F104151__45__12-23-56-499.txt Node

Date: Fri Mar 14 12:23:56 EDT 2025
User: louis
Spectrometer: USB4F10415
Trigger mode: 4
Integration Time (sec): 3.500000E-2
Scans to average: 1
Electric dark correction enabled: true
Nonlinearity correction enabled: false
Boxcar width: 0
XAxis mode: Wavelengths
Number of Pixels in Spectrum: 3648
>>>>>Begin Spectral Data<<<<<
178.204	-139.09
178.424	-139.09
178.644	-139.09
178.864	-169.81
179.084	-216.91
179.304	-46.93
179.524	28.84
179.744	-20.31
179.964	96.43
180.184	37.03
180.404	8.36
180.624	0.17
180.844	-5.97
181.064	-77.65
181.283	34.99
181.503	-75.6
181.723	20.65
181.943	-18.26
182.163	73.9
182.383	4.27
182.602	159.91
182.822	110.76
183.042	77.99
183.262	8.36
183.482	-8.02
183.701	65.71
183.921	69.8
184.141	-1.88
184.361	77.99
184.58	49.32
184.8	2.22
185.02	37.03
185.239	129.19
185.459	34.99
185.679	34.99
185.898	-10.07
186.118	100.52
186.338	32.94
186.557	59.56
186.777	14.51
186.997	47.27
187.216	45.23
187.436	94.38
187.655	-10.07
187.875	71.85
188.095	-14.17
188.314	12.46
188.534	61.61
188.753	49.32
188.973	96.43
189.192	49.32
189.412	69.8
189.631	55.47
189.851	123.05
190.07	155.82
190.29	6.31
190.509	51.37
190.729	69.8
190.948	84.14
191.168	149.67
191.387	41.13
191.607	41.13
191.826	67.75
192.045	59.56
192.265	22.7
192.484	18.6
192.704	32.94
192.923	20.65
193.142	102.57
193.362	141.48
193.581	30.89
193.8	57.51
194.02	59.56
194.239	47.27
194.458	53.42
194.678	88.23
194.897	6.31
195.116	71.85
195.335	28.84
195.555	67.75
195.774	94.38
195.993	125.1
196.212	65.71
196.432	-26.45
196.651	43.18
196.87	59.56
197.089	125.1
197.308	53.42
197.528	104.62
197.747	-36.69
197.966	43.18
198.185	133.29
198.404	-5.97
198.623	108.71
198.842	88.23
199.062	100.52
199.281	41.13
199.5	16.55
199.719	63.66
199.938	12.46
200.157	88.23
200.376	82.09
200.595	53.42
200.814	28.84
201.033	26.79
201.252	73.9
201.471	59.56
201.69	110.76
201.909	61.61
202.128	8.36
202.347	41.13
202.566	14.51
202.785	14.51
203.004	34.99
203.223	166.06
203.442	49.32
203.661	63.66
203.879	6.31
204.098	100.52
204.317	18.6
204.536	86.19
204.755	77.99
204.974	34.99
205.193	92.33
205.411	108.71
205.63	-48.98
205.849	32.94
206.068	69.8
206.287	67.75
206.505	88.23
206.724	77.99
206.943	110.76
207.162	-18.26
207.381	86.19
207.599	53.42
207.818	71.85
208.037	32.94
208.255	4.27
208.474	20.65
208.693	-10.07
208.911	26.79
209.13	53.42
209.349	86.19
209.567	82.09
209.786	86.19
210.005	32.94
210.223	47.27
210.442	-26.45
210.661	69.8
210.879	32.94
211.098	104.62
211.316	88.23
211.535	53.42
211.753	51.37
211.972	90.28
212.191	77.99
212.409	61.61
212.628	51.37
212.846	-18.26
213.065	86.19
213.283	94.38
213.502	28.84
213.72	43.18
213.938	90.28
214.157	6.31
214.375	39.08
214.594	96.43
214.812	57.51
215.031	67.75
215.249	104.62
215.467	14.51
215.686	30.89
215.904	104.62
216.122	-12.12
216.341	67.75
216.559	77.99
216.778	129.19
216.996	43.18
217.214	8.36
217.432	69.8
217.651	73.9
217.869	45.23
218.087	18.6
218.306	104.62
218.524	6.31
218.742	22.7
218.96	57.51
219.179	63.66
219.397	45.23
219.615	96.43
219.833	151.72
220.051	-22.36
220.27	53.42
220.488	20.65
220.706	90.28
220.924	34.99
221.142	34.99
221.36	30.89
221.578	80.04
221.796	41.13
222.015	108.71
222.233	47.27
222.451	102.57
222.669	28.84
222.887	139.43
223.105	-18.26
223.323	61.61
223.541	34.99
223.759	100.52
223.977	41.13
224.195	69.8
224.413	59.56
224.631	65.71
224.849	34.99
225.067	41.13
225.285	20.65
225.503	6.31
225.721	-3.93
225.939	39.08
226.157	67.75
226.375	57.51
226.592	-18.26
226.81	98.47
227.028	32.94
227.246	96.43
227.464	4.27
227.682	16.55
227.9	34.99
228.117	43.18
228.335	-32.6
228.553	-36.69
228.771	12.46
228.989	12.46
229.206	100.52
229.424	20.65
229.642	41.13
229.86	0.17
230.077	96.43
230.295	57.51
230.513	71.85
230.731	45.23
230.948	28.84
231.166	90.28
231.384	41.13
231.601	43.18
231.819	82.09
232.037	12.46
232.254	18.6
232.472	30.89
232.689	-16.21
232.907	47.27
233.125	98.47
233.342	-38.74
233.56	59.56
233.777	65.71
233.995	59.56
234.213	84.14
234.43	53.42
234.648	112.81
234.865	30.89
235.083	73.9
235.3	39.08
235.518	82.09
235.735	96.43
235.953	123.05
236.17	139.43
236.388	49.32
236.605	8.36
236.822	63.66
237.04	100.52
237.257	55.47
237.475	26.79
237.692	0.17
237.909	63.66
238.127	45.23
238.344	63.66
238.562	30.89
238.779	22.7
238.996	10.41
239.214	-1.88
239.431	57.51
239.648	55.47
239.865	47.27
240.083	65.71
240.3	43.18
240.517	98.47
240.735	26.79
240.952	92.33
241.169	67.75
241.386	55.47
241.603	116.9
241.821	0.17
242.038	131.24
242.255	65.71
242.472	-26.45
242.689	102.57
242.907	121
243.124	100.52
243.341	43.18
243.558	-46.93
243.775	24.75
243.992	77.99
244.209	114.86
244.426	12.46
244.643	92.33
244.86	-10.07
245.078	43.18
245.295	71.85
245.512	39.08
245.729	-1.88
245.946	121
246.163	77.99
246.38	14.51
246.597	34.99
246.814	86.19
247.031	0.17
247.248	45.23
247.464	4.27
247.681	45.23
247.898	98.47
248.115	182.44
248.332	26.79
248.549	55.47
248.766	77.99
248.983	59.56
249.2	114.86
249.417	110.76
249.633	53.42
249.85	47.27
250.067	6.31
250.284	-5.97
250.501	32.94
250.717	14.51
250.934	14.51
251.151	127.14
251.368	102.57
251.585	49.32
251.801	96.43
252.018	12.46
252.235	96.43
252.451	12.46
252.668	90.28
252.885	102.57
253.102	82.09
253.318	6.31
253.535	63.66
253.752	22.7
253.968	141.48
254.185	-30.55
254.401	-20.31
254.618	-14.17
254.835	43.18
255.051	65.71
255.268	51.37
255.484	2.22
255.701	114.86
255.917	86.19
256.134	-26.45
256.351	59.56
256.567	67.75
256.784	94.38
257	26.79
257.217	104.62
257.433	110.76
257.65	114.86
257.866	102.57
258.082	67.75
258.299	47.27
258.515	149.67
258.732	8.36
258.948	34.99
259.165	84.14
259.381	-12.12
259.597	104.62
259.814	108.71
260.03	24.75
260.246	104.62
260.463	2.22
260.679	-8.02
260.895	133.29
261.112	51.37
261.328	-12.12
261.544	71.85
261.761	143.53
261.977	41.13
262.193	39.08
262.409	37.03
262.626	-22.36
262.842	114.86
263.058	90.28
263.274	47.27
263.49	71.85
263.707	26.79
263.923	75.95
264.139	57.51
264.355	88.23
264.571	53.42
264.787	92.33
265.004	65.71
265.22	-46.93
265.436	43.18
265.652	47.27
265.868	86.19
266.084	-77.65
266.3	90.28
266.516	14.51
266.732	71.85
266.948	-20.31
267.164	71.85
267.38	26.79
267.596	-44.88
267.812	149.67
268.028	102.57
268.244	51.37
268.46	118.95
268.676	49.32
268.892	43.18
269.108	69.8
269.324	22.7
269.54	63.66
269.756	129.19
269.972	22.7
270.188	37.03
270.403	10.41
270.619	51.37
270.835	84.14
271.051	71.85
271.267	-20.31
271.483	20.65
271.698	43.18
271.914	77.99
272.13	59.56
272.346	18.6
272.562	51.37
272.777	96.43
272.993	80.04
273.209	-20.31
273.425	131.24
273.64	30.89
273.856	77.99
274.072	65.71
274.287	2.22
274.503	77.99
274.719	69.8
274.934	69.8
275.15	47.27
275.366	53.42
275.581	63.66
275.797	37.03
276.012	8.36
276.228	121
276.444	26.79
276.659	135.34
276.875	49.32
277.09	121
277.306	14.51
277.521	41.13
277.737	67.75
277.952	41.13
278.168	147.62
278.383	147.62
278.599	-20.31
278.814	77.99
279.03	104.62
279.245	104.62
279.461	69.8
279.676	67.75
279.892	39.08
280.107	32.94
280.322	26.79
280.538	69.8
280.753	16.55
280.969	71.85
281.184	63.66
281.399	88.23
281.615	90.28
281.83	98.47
282.045	45.23
282.26	30.89
282.476	16.55
282.691	100.52
282.906	100.52
283.122	67.75
283.337	28.84
283.552	114.86
283.767	57.51
283.983	75.95
284.198	30.89
284.413	71.85
284.628	123.05
284.843	98.47
285.058	67.75
285.274	-5.97
285.489	-18.26
285.704	67.75
285.919	88.23
286.134	39.08
286.349	-24.4
286.564	-32.6
286.779	51.37
286.995	73.9
287.21	0.17
287.425	14.51
287.64	55.47
287.855	80.04
288.07	34.99
288.285	123.05
288.5	6.31
288.715	88.23
288.93	51.37
289.145	49.32
289.36	34.99
289.575	84.14
289.79	57.51
290.004	90.28
290.219	118.95
290.434	16.55
290.649	-5.97
290.864	-12.12
291.079	18.6
291.294	65.71
291.509	30.89
291.724	-18.26
291.938	-42.84
292.153	94.38
292.368	51.37
292.583	82.09
292.798	147.62
293.012	-38.74
293.227	61.61
293.442	63.66
293.657	86.19
293.871	129.19
294.086	43.18
294.301	37.03
294.516	94.38
294.73	155.82
294.945	98.47
295.16	18.6
295.374	6.31
295.589	125.1
295.804	-3.93
296.018	102.57
296.233	100.52
296.447	57.51
296.662	8.36
296.877	14.51
297.091	102.57
297.306	32.94
297.52	-10.07
297.735	65.71
297.949	178.34
298.164	118.95
298.378	102.57
298.593	16.55
298.807	26.79
299.022	116.9
299.236	123.05
299.451	121
299.665	77.99
299.88	41.13
300.094	104.62
300.309	47.27
300.523	-8.02
300.737	12.46
300.952	129.19
301.166	47.27
301.381	-1.88
301.595	57.51
301.809	82.09
302.024	80.04
302.238	0.17
302.452	102.57
302.667	86.19
302.881	69.8
303.095	90.28
303.309	80.04
303.524	34.99
303.738	90.28
303.952	0.17
304.166	37.03
304.381	59.56
304.595	145.58
304.809	32.94
305.023	26.79
305.237	129.19
305.452	51.37
305.666	22.7
305.88	104.62
306.094	90.28
306.308	100.52
306.522	57.51
306.736	84.14
306.95	77.99
307.164	-10.07
307.379	47.27
307.593	106.67
307.807	73.9
308.021	30.89
308.235	73.9
308.449	16.55
308.663	20.65
308.877	80.04
309.091	41.13
309.305	77.99
309.519	43.18
309.733	84.14
309.947	82.09
310.161	4.27
310.374	51.37
310.588	82.09
310.802	86.19
311.016	80.04
311.23	43.18
311.444	88.23
311.658	34.99
311.872	143.53
312.085	84.14
312.299	61.61
312.513	110.76
312.727	100.52
312.941	34.99
313.154	45.23
313.368	16.55
313.582	8.36
313.796	82.09
314.009	41.13
314.223	98.47
314.437	28.84
314.651	114.86
314.864	47.27
315.078	55.47
315.292	12.46
315.505	18.6
315.719	96.43
315.933	26.79
316.146	30.89
316.36	80.04
316.573	96.43
316.787	59.56
317.001	59.56
317.214	20.65
317.428	82.09
317.641	22.7
317.855	73.9
318.068	12.46
318.282	2.22
318.495	100.52
318.709	82.09
318.922	108.71
319.136	118.95
319.349	100.52
319.563	92.33
319.776	57.51
319.99	43.18
320.203	104.62
320.417	63.66
320.63	71.85
320.843	34.99
321.057	41.13
321.27	131.24
321.483	100.52
321.697	80.04
321.91	145.58
322.124	26.79
322.337	43.18
322.55	-55.12
322.763	61.61
322.977	116.9
323.19	-18.26
323.403	65.71
323.617	88.23
323.83	73.9
324.043	-10.07
324.256	51.37
324.469	63.66
324.683	94.38
324.896	57.51
325.109	34.99
325.322	30.89
325.535	67.75
325.748	102.57
325.962	12.46
326.175	65.71
326.388	98.47
326.601	47.27
326.814	73.9
327.027	94.38
327.24	125.1
327.453	-18.26
327.666	47.27
327.879	61.61
328.092	67.75
328.305	71.85
328.518	98.47
328.731	30.89
328.944	82.09
329.157	131.24
329.37	69.8
329.583	73.9
329.796	63.66
330.009	4.27
330.222	84.14
330.435	114.86
330.648	75.95
330.861	88.23
331.073	125.1
331.286	90.28
331.499	57.51
331.712	53.42
331.925	57.51
332.138	118.95
332.35	90.28
332.563	-12.12
332.776	127.14
332.989	12.46
333.202	127.14
333.414	127.14
333.627	77.99
333.84	20.65
334.053	139.43
334.265	41.13
334.478	80.04
334.691	80.04
334.903	43.18
335.116	-5.97
335.329	57.51
335.541	129.19
335.754	129.19
335.966	-12.12
336.179	102.57
336.392	69.8
336.604	49.32
336.817	96.43
337.029	155.82
337.242	28.84
337.454	104.62
337.667	106.67
337.88	125.1
338.092	102.57
338.305	39.08
338.517	41.13
338.729	16.55
338.942	65.71
339.154	45.23
339.367	80.04
339.579	123.05
339.792	104.62
340.004	20.65
340.217	47.27
340.429	65.71
340.641	67.75
340.854	51.37
341.066	37.03
341.278	129.19
341.491	96.43
341.703	65.71
341.915	96.43
342.128	22.7
342.34	110.76
342.552	22.7
342.764	94.38
342.977	69.8
343.189	98.47
343.401	170.15
343.613	-53.08
343.826	131.24
344.038	59.56
344.25	90.28
344.462	34.99
344.674	57.51
344.886	51.37
345.099	45.23
345.311	73.9
345.523	47.27
345.735	22.7
345.947	55.47
346.159	123.05
346.371	96.43
346.583	55.47
346.795	69.8
347.007	18.6
347.219	30.89
347.431	94.38
347.643	71.85
347.855	41.13
348.067	43.18
348.279	24.75
348.491	94.38
348.703	108.71
348.915	57.51
349.127	-18.26
349.339	61.61
349.551	39.08
349.763	104.62
349.975	90.28
350.187	139.43
350.399	30.89
350.61	75.95
350.822	53.42
351.034	84.14
351.246	59.56
351.458	61.61
351.669	123.05
351.881	94.38
352.093	86.19
352.305	61.61
352.517	53.42
352.728	135.34
352.94	41.13
353.152	153.77
353.363	51.37
353.575	88.23
353.787	61.61
353.999	127.14
354.21	147.62
354.422	26.79
354.633	100.52
354.845	80.04
355.057	106.67
355.268	67.75
355.48	67.75
355.692	73.9
355.903	71.85
356.115	100.52
356.326	4.27
356.538	96.43
356.749	45.23
356.961	53.42
357.172	49.32
357.384	0.17
357.595	94.38
357.807	80.04
358.018	94.38
358.23	41.13
358.441	176.3
358.653	59.56
358.864	41.13
359.075	94.38
359.287	84.14
359.498	65.71
359.709	45.23
359.921	61.61
360.132	37.03
360.344	133.29
360.555	116.9
360.766	116.9
360.977	77.99
361.189	110.76
361.4	8.36
361.611	80.04
361.823	110.76
362.034	67.75
362.245	39.08
362.456	57.51
362.667	65.71
362.879	39.08
363.09	114.86
363.301	45.23
363.512	108.71
363.723	12.46
363.935	22.7
364.146	86.19
364.357	75.95
364.568	88.23
364.779	26.79
364.99	80.04
365.201	39.08
365.412	145.58
365.623	18.6
365.834	92.33
366.045	96.43
366.256	135.34
366.467	145.58
366.678	34.99
366.889	98.47
367.1	41.13
367.311	104.62
367.522	30.89
367.733	80.04
367.944	59.56
368.155	114.86
368.366	69.8
368.577	69.8
368.788	131.24
368.999	43.18
369.209	102.57
369.42	155.82
369.631	168.1
369.842	4.27
370.053	104.62
370.264	106.67
370.474	145.58
370.685	82.09
370.896	51.37
371.107	108.71
371.317	57.51
371.528	69.8
371.739	65.71
371.95	77.99
372.16	86.19
372.371	-3.93
372.582	61.61
372.792	90.28
373.003	39.08
373.214	96.43
373.424	108.71
373.635	112.81
373.846	51.37
374.056	73.9
374.267	159.91
374.477	84.14
374.688	159.91
374.898	73.9
375.109	77.99
375.319	45.23
375.53	59.56
375.74	82.09
375.951	39.08
376.161	61.61
376.372	80.04
376.582	143.53
376.793	49.32
377.003	-22.36
377.214	88.23
377.424	73.9
377.635	96.43
377.845	51.37
378.055	75.95
378.266	80.04
378.476	73.9
378.686	98.47
378.897	67.75
379.107	82.09
379.317	80.04
379.528	84.14
379.738	104.62
379.948	176.3
380.158	114.86
380.369	106.67
380.579	14.51
380.789	47.27
380.999	157.86
381.21	77.99
381.42	110.76
381.63	96.43
381.84	112.81
382.05	88.23
382.261	77.99
382.471	137.38
382.681	57.51
382.891	59.56
383.101	51.37
383.311	63.66
383.521	49.32
383.731	80.04
383.941	98.47
384.151	65.71
384.361	127.14
384.571	118.95
384.781	53.42
384.991	104.62
385.201	209.06
385.411	61.61
385.621	106.67
385.831	73.9
386.041	69.8
386.251	53.42
386.461	182.44
386.671	12.46
386.881	108.71
387.091	129.19
387.301	10.41
387.511	110.76
387.72	102.57
387.93	12.46
388.14	43.18
388.35	125.1
388.56	86.19
388.769	112.81
388.979	59.56
389.189	121
389.399	121
389.609	104.62
389.818	168.1
390.028	43.18
390.238	102.57
390.447	-8.02
390.657	106.67
390.867	143.53
391.076	69.8
391.286	12.46
391.496	100.52
391.705	57.51
391.915	118.95
392.125	100.52
392.334	71.85
392.544	84.14
392.753	118.95
392.963	69.8
393.172	182.44
393.382	121
393.591	161.96
393.801	0.17
394.01	190.63
394.22	116.9
394.429	32.94
394.639	86.19
394.848	94.38
395.058	164.01
395.267	133.29
395.477	200.87
395.686	118.95
395.895	174.25
396.105	180.39
396.314	82.09
396.524	157.86
396.733	63.66
396.942	178.34
397.152	159.91
397.361	102.57
397.57	114.86
397.78	108.71
397.989	159.91
398.198	235.69
398.407	112.81
398.617	200.87
398.826	145.58
399.035	96.43
399.244	135.34
399.453	164.01
399.663	86.19
399.872	174.25
400.081	143.53
400.29	151.72
400.499	55.47
400.708	204.97
400.917	202.92
401.127	133.29
401.336	137.38
401.545	217.26
401.754	221.35
401.963	221.35
402.172	121
402.381	90.28
402.59	217.26
402.799	219.3
403.008	198.82
403.217	180.39
403.426	192.68
403.635	141.48
403.844	192.68
404.053	137.38
404.262	141.48
404.471	219.3
404.68	209.06
404.888	227.5
405.097	159.91
405.306	186.54
405.515	245.93
405.724	280.74
405.933	194.73
406.142	207.02
406.35	264.36
406.559	239.78
406.768	213.16
406.977	178.34
407.185	274.6
407.394	288.93
407.603	270.5
407.812	301.22
408.02	280.74
408.229	307.37
408.438	260.26
408.646	274.6
408.855	348.33
409.064	336.04
409.272	309.41
409.481	317.61
409.69	364.71
409.898	358.57
410.107	438.44
410.315	391.33
410.524	442.53
410.733	383.14
410.941	489.64
411.15	448.68
411.358	481.44
411.567	501.92
411.775	512.16
411.984	557.22
412.192	600.23
412.401	487.59
412.609	594.08
412.818	690.34
413.026	721.06
413.234	706.72
413.443	692.38
413.651	637.09
413.86	696.48
414.068	776.35
414.276	837.79
414.485	802.97
414.693	872.61
414.901	915.61
415.11	807.07
415.318	850.08
415.526	893.09
415.734	991.39
415.943	1079.45
416.151	1058.97
416.359	1085.59
416.567	1196.18
416.776	1087.64
416.984	1294.49
417.192	1233.05
417.4	1210.52
417.608	1226.9
417.817	1249.43
418.025	1355.93
418.233	1415.32
418.441	1480.85
418.649	1431.7
418.857	1714.32
419.065	1663.12
419.273	1548.44
419.481	1745.04
419.689	1824.91
419.897	1896.59
420.105	1910.93
420.313	1951.88
420.521	2035.85
420.729	2134.15
420.937	2066.57
421.145	2209.93
421.353	2363.53
421.561	2334.86
421.769	2492.55
421.977	2463.88
422.185	2558.08
422.393	2812.03
422.601	2930.81
422.809	2914.43
423.017	2906.24
423.224	3020.92
423.432	3225.72
423.64	3133.56
423.848	3598.45
424.056	3227.77
424.263	3729.52
424.471	3584.12
424.679	3651.7
424.887	3950.7
425.094	3962.99
425.302	3991.66
425.51	4032.62
425.718	4251.75
425.925	4239.47
426.133	4481.13
426.341	4698.21
426.548	4882.53
426.756	5013.6
426.964	5075.04
427.171	5292.12
427.379	5298.27
427.586	5613.65
427.794	5722.2
428.001	6092.88
428.209	6168.65
428.417	6113.36
428.624	6453.32
428.832	6598.73
429.039	6377.55
429.247	6537.29
429.454	7135.29
429.662	7686.2
429.869	7112.77
430.076	7743.54
430.284	7624.76
430.491	7790.64
430.699	8349.74
430.906	8259.63
431.114	8206.38
431.321	8491.05
431.528	8792.1
431.736	9455.64
431.943	9779.22
432.15	9420.83
432.358	9578.52
432.565	9973.78
432.772	10178.58
432.979	10522.63
433.187	10829.83
433.394	10858.5
433.601	11630.59
433.808	11675.64
434.016	11610.11
434.223	11847.67
434.43	12742.63
434.637	12404.72
434.844	13307.87
435.052	13582.3
435.259	13637.59
435.466	13727.71
435.673	13559.77
435.88	14321.62
436.087	15175.62
436.294	15169.48
436.501	14966.73
436.708	15132.61
436.915	15456.19
437.122	16453.55
437.329	16297.91
437.537	16828.33
437.743	16672.68
437.95	16930.73
438.157	17551.26
438.364	18603.92
438.571	18272.15
438.778	18665.36
438.985	20154.23
439.192	19640.19
439.399	20297.59
439.606	19644.29
439.813	20692.85
440.02	22173.53
440.227	21440.36
440.433	21241.7
440.64	22067.03
440.847	22169.43
441.054	22632.27
441.261	24059.71
441.467	23809.86
441.674	24141.63
441.881	25018.16
442.088	25112.36
442.294	24844.08
442.501	25702.18
442.708	26025.76
442.914	27068.17
443.121	28368.63
443.328	27213.58
443.534	29411.05
443.741	28542.71
443.948	28061.44
444.154	30099.17
444.361	29957.86
444.568	30506.71
444.774	30209.76
444.981	30529.24
445.187	31268.56
445.394	32626.36
445.6	32579.26
445.807	35794.57
446.013	33924.77
446.22	34692.76
446.426	36101.76
446.633	36511.36
446.839	37688.94
447.046	35804.81
447.252	37967.46
447.459	37885.54
447.665	37668.46
447.871	39343.7
448.078	41303.6
448.284	39362.13
448.491	40425.03
448.697	41467.44
448.903	42931.74
449.11	42790.43
449.316	41541.17
449.522	42632.74
449.728	43955.72
449.935	44119.56
450.141	43941.39
450.347	44934.65
450.553	43767.31
450.76	44131.85
450.966	45510.13
451.172	45168.12
451.378	46226.92
451.584	45180.41
451.791	46378.47
451.997	46147.05
452.203	46896.61
452.409	47146.46
452.615	46745.06
452.821	45141.5
453.027	45051.39
453.233	46886.37
453.44	45200.89
453.646	45798.9
453.852	45708.79
454.058	46669.28
454.264	44563.97
454.47	46040.56
454.676	44684.8
454.882	46501.35
455.088	42399.27
455.294	43419.16
455.5	43363.86
455.705	44150.28
455.911	42341.92
456.117	41631.28
456.323	40932.92
456.529	38839.9
456.735	40779.32
456.941	39616.08
457.147	38846.04
457.352	37645.93
457.558	37064.31
457.764	37246.58
457.97	36462.21
458.176	35636.87
458.381	35632.78
458.587	33840.81
458.793	33789.61
458.999	31960.77
459.204	34582.17
459.41	33943.2
459.616	31356.62
459.821	31434.44
460.027	30916.31
460.233	30615.26
460.438	29128.43
460.644	29417.19
460.85	27965.18
461.055	27557.64
461.261	27750.15
461.466	25374.5
461.672	24549.17
461.878	26441.5
462.083	24522.55
462.289	24317.75
462.494	23947.07
462.7	22916.94
462.905	22239.06
463.111	23045.96
463.316	23385.93
463.522	22607.7
463.727	22812.49
463.932	22722.38
464.138	22460.24
464.343	22794.06
464.549	22243.16
464.754	22824.78
464.959	22327.13
465.165	22241.11
465.37	21432.16
465.575	20813.68
465.781	21548.9
465.986	21995.36
