Data from USB4F104151__29__12-23-43-411.txt Node

Date: Fri Mar 14 12:23:43 EDT 2025
User: louis
Spectrometer: USB4F10415
Trigger mode: 4
Integration Time (sec): 3.500000E-2
Scans to average: 1
Electric dark correction enabled: true
Nonlinearity correction enabled: false
Boxcar width: 0
XAxis mode: Wavelengths
Number of Pixels in Spectrum: 3648
>>>>>Begin Spectral Data<<<<<
178.204	-99.67
178.424	-99.67
178.644	-99.67
178.864	-95.57
179.084	-81.24
179.304	66.22
179.524	-30.04
179.744	21.16
179.964	4.78
180.184	-5.46
180.404	-75.09
180.624	-11.61
180.844	17.07
181.064	-60.76
181.283	25.26
181.503	-38.23
181.723	86.7
181.943	-3.41
182.163	80.55
182.383	49.83
182.602	88.75
182.822	88.75
183.042	41.64
183.262	-1.37
183.482	78.51
183.701	10.92
183.921	43.69
184.141	-5.46
184.361	98.99
184.58	45.74
184.8	64.17
185.02	37.55
185.239	53.93
185.459	51.88
185.679	49.83
185.898	-25.94
186.118	105.13
186.338	29.35
186.557	82.6
186.777	43.69
186.997	35.5
187.216	-48.47
187.436	76.46
187.655	82.6
187.875	0.68
188.095	35.5
188.314	96.94
188.534	90.79
188.753	-1.37
188.973	15.02
189.192	17.07
189.412	72.36
189.631	78.51
189.851	47.79
190.07	45.74
190.29	-21.85
190.509	45.74
190.729	51.88
190.948	15.02
191.168	139.94
191.387	88.75
191.607	66.22
191.826	8.87
192.045	76.46
192.265	15.02
192.484	53.93
192.704	105.13
192.923	-15.7
193.142	113.32
193.362	29.35
193.581	88.75
193.8	51.88
194.02	191.14
194.239	37.55
194.458	-21.85
194.678	74.41
194.897	58.03
195.116	103.08
195.335	45.74
195.555	94.89
195.774	8.87
195.993	62.12
196.212	-1.37
196.432	55.98
196.651	-13.65
196.87	135.85
197.089	117.42
197.308	103.08
197.528	43.69
197.747	-15.7
197.966	-3.41
198.185	146.09
198.404	82.6
198.623	-13.65
198.842	37.55
199.062	66.22
199.281	92.84
199.5	45.74
199.719	-7.51
199.938	23.21
200.157	27.31
200.376	117.42
200.595	96.94
200.814	49.83
201.033	41.64
201.252	39.59
201.471	35.5
201.69	113.32
201.909	45.74
202.128	131.75
202.347	64.17
202.566	41.64
202.785	-11.61
203.004	4.78
203.223	115.37
203.442	19.11
203.661	15.02
203.879	29.35
204.098	103.08
204.317	27.31
204.536	84.65
204.755	10.92
204.974	58.03
205.193	35.5
205.411	172.71
205.63	66.22
205.849	60.07
206.068	47.79
206.287	12.97
206.505	66.22
206.724	-7.51
206.943	94.89
207.162	0.68
207.381	137.9
207.599	49.83
207.818	0.68
208.037	45.74
208.255	64.17
208.474	53.93
208.693	72.36
208.911	41.64
209.13	-30.04
209.349	33.45
209.567	123.56
209.786	51.88
210.005	107.18
210.223	-7.51
210.442	29.35
210.661	101.03
210.879	33.45
211.098	23.21
211.316	55.98
211.535	47.79
211.753	23.21
211.972	58.03
212.191	37.55
212.409	45.74
212.628	-7.51
212.846	2.73
213.065	49.83
213.283	74.41
213.502	25.26
213.72	29.35
213.938	72.36
214.157	-40.28
214.375	25.26
214.594	74.41
214.812	60.07
215.031	-3.41
215.249	60.07
215.467	76.46
215.686	31.4
215.904	115.37
216.122	49.83
216.341	37.55
216.559	-1.37
216.778	60.07
216.996	23.21
217.214	4.78
217.432	70.31
217.651	27.31
217.869	58.03
218.087	-17.75
218.306	-21.85
218.524	76.46
218.742	-7.51
218.96	-21.85
219.179	-9.56
219.397	23.21
219.615	111.27
219.833	90.79
220.051	105.13
220.27	60.07
220.488	98.99
220.706	25.26
220.924	12.97
221.142	17.07
221.36	-5.46
221.578	98.99
221.796	49.83
222.015	29.35
222.233	-23.89
222.451	109.23
222.669	70.31
222.887	70.31
223.105	-3.41
223.323	-40.28
223.541	-13.65
223.759	-30.04
223.977	82.6
224.195	129.7
224.413	103.08
224.631	39.59
224.849	31.4
225.067	41.64
225.285	33.45
225.503	-1.37
225.721	-17.75
225.939	78.51
226.157	76.46
226.375	123.56
226.592	29.35
226.81	6.83
227.028	76.46
227.246	168.62
227.464	45.74
227.682	78.51
227.9	25.26
228.117	70.31
228.335	31.4
228.553	-11.61
228.771	103.08
228.989	53.93
229.206	19.11
229.424	-27.99
229.642	68.27
229.86	6.83
230.077	21.16
230.295	15.02
230.513	72.36
230.731	74.41
230.948	92.84
231.166	64.17
231.384	62.12
231.601	94.89
231.819	76.46
232.037	41.64
232.254	49.83
232.472	-19.8
232.689	29.35
232.907	33.45
233.125	41.64
233.342	51.88
233.56	-9.56
233.777	115.37
233.995	76.46
234.213	60.07
234.43	25.26
234.648	47.79
234.865	21.16
235.083	45.74
235.3	131.75
235.518	62.12
235.735	98.99
235.953	86.7
236.17	47.79
236.388	29.35
236.605	-93.52
236.822	82.6
237.04	92.84
237.257	8.87
237.475	51.88
237.692	33.45
237.909	4.78
238.127	47.79
238.344	82.6
238.562	39.59
238.779	39.59
238.996	80.55
239.214	84.65
239.431	58.03
239.648	68.27
239.865	6.83
240.083	148.14
240.3	88.75
240.517	-5.46
240.735	115.37
240.952	45.74
241.169	105.13
241.386	43.69
241.603	80.55
241.821	37.55
242.038	178.86
242.255	27.31
242.472	37.55
242.689	74.41
242.907	82.6
243.124	37.55
243.341	25.26
243.558	86.7
243.775	15.02
243.992	21.16
244.209	31.4
244.426	49.83
244.643	86.7
244.86	45.74
245.078	82.6
245.295	47.79
245.512	96.94
245.729	33.45
245.946	113.32
246.163	60.07
246.38	109.23
246.597	25.26
246.814	80.55
247.031	-9.56
247.248	64.17
247.464	148.14
247.681	33.45
247.898	86.7
248.115	25.26
248.332	-38.23
248.549	55.98
248.766	78.51
248.983	166.57
249.2	39.59
249.417	115.37
249.633	33.45
249.85	19.11
250.067	25.26
250.284	-23.89
250.501	58.03
250.717	58.03
250.934	107.18
251.151	41.64
251.368	62.12
251.585	43.69
251.801	37.55
252.018	25.26
252.235	82.6
252.451	23.21
252.668	86.7
252.885	86.7
253.102	49.83
253.318	51.88
253.535	-7.51
253.752	47.79
253.968	-9.56
254.185	6.83
254.401	60.07
254.618	62.12
254.835	-1.37
255.051	90.79
255.268	131.75
255.484	105.13
255.701	27.31
255.917	119.46
256.134	-9.56
256.351	60.07
256.567	15.02
256.784	43.69
257	-27.99
257.217	103.08
257.433	82.6
257.65	4.78
257.866	84.65
258.082	33.45
258.299	0.68
258.515	80.55
258.732	62.12
258.948	35.5
259.165	51.88
259.381	-30.04
259.597	113.32
259.814	2.73
260.03	64.17
260.246	8.87
260.463	103.08
260.679	31.4
260.895	12.97
261.112	37.55
261.328	-46.42
261.544	-7.51
261.761	109.23
261.977	47.79
262.193	53.93
262.409	66.22
262.626	80.55
262.842	64.17
263.058	-11.61
263.274	35.5
263.49	84.65
263.707	55.98
263.923	115.37
264.139	-17.75
264.355	45.74
264.571	164.52
264.787	144.04
265.004	82.6
265.22	37.55
265.436	17.07
265.652	-9.56
265.868	37.55
266.084	58.03
266.3	72.36
266.516	17.07
266.732	64.17
266.948	37.55
267.164	45.74
267.38	105.13
267.596	19.11
267.812	33.45
268.028	109.23
268.244	109.23
268.46	70.31
268.676	78.51
268.892	74.41
269.108	-15.7
269.324	6.83
269.54	45.74
269.756	70.31
269.972	-62.8
270.188	64.17
270.403	-17.75
270.619	115.37
270.835	0.68
271.051	133.8
271.267	74.41
271.483	37.55
271.698	29.35
271.914	70.31
272.13	70.31
272.346	15.02
272.562	58.03
272.777	37.55
272.993	107.18
273.209	60.07
273.425	66.22
273.64	-95.57
273.856	12.97
274.072	-7.51
274.287	25.26
274.503	82.6
274.719	113.32
274.934	64.17
275.15	33.45
275.366	78.51
275.581	-36.18
275.797	47.79
276.012	-15.7
276.228	111.27
276.444	43.69
276.659	90.79
276.875	49.83
277.09	23.21
277.306	41.64
277.521	47.79
277.737	68.27
277.952	101.03
278.168	33.45
278.383	103.08
278.599	-48.47
278.814	60.07
279.03	53.93
279.245	111.27
279.461	-5.46
279.676	25.26
279.892	-21.85
280.107	21.16
280.322	29.35
280.538	80.55
280.753	8.87
280.969	49.83
281.184	123.56
281.399	115.37
281.615	33.45
281.83	58.03
282.045	-11.61
282.26	62.12
282.476	31.4
282.691	-19.8
282.906	41.64
283.122	17.07
283.337	4.78
283.552	41.64
283.767	55.98
283.983	72.36
284.198	88.75
284.413	90.79
284.628	33.45
284.843	37.55
285.058	49.83
285.274	37.55
285.489	21.16
285.704	78.51
285.919	35.5
286.134	86.7
286.349	62.12
286.564	23.21
286.779	84.65
286.995	33.45
287.21	-5.46
287.425	47.79
287.64	98.99
287.855	74.41
288.07	47.79
288.285	21.16
288.5	72.36
288.715	127.66
288.93	29.35
289.145	-17.75
289.36	37.55
289.575	35.5
289.79	98.99
290.004	43.69
290.219	133.8
290.434	-17.75
290.649	-9.56
290.864	53.93
291.079	0.68
291.294	76.46
291.509	123.56
291.724	17.07
291.938	49.83
292.153	74.41
292.368	-9.56
292.583	2.73
292.798	12.97
293.012	-40.28
293.227	19.11
293.442	-30.04
293.657	133.8
293.871	66.22
294.086	19.11
294.301	115.37
294.516	137.9
294.73	76.46
294.945	47.79
295.16	51.88
295.374	53.93
295.589	8.87
295.804	6.83
296.018	10.92
296.233	88.75
296.447	8.87
296.662	31.4
296.877	96.94
297.091	35.5
297.306	55.98
297.52	-3.41
297.735	31.4
297.949	47.79
298.164	45.74
298.378	117.42
298.593	62.12
298.807	35.5
299.022	43.69
299.236	92.84
299.451	35.5
299.665	55.98
299.88	70.31
300.094	49.83
300.309	74.41
300.523	37.55
300.737	37.55
300.952	62.12
301.166	64.17
301.381	-38.23
301.595	6.83
301.809	60.07
302.024	90.79
302.238	4.78
302.452	101.03
302.667	-3.41
302.881	92.84
303.095	66.22
303.309	80.55
303.524	-13.65
303.738	25.26
303.952	23.21
304.166	62.12
304.381	-15.7
304.595	119.46
304.809	8.87
305.023	35.5
305.237	64.17
305.452	2.73
305.666	43.69
305.88	117.42
306.094	127.66
306.308	62.12
306.522	62.12
306.736	135.85
306.95	53.93
307.164	12.97
307.379	0.68
307.593	76.46
307.807	105.13
308.021	121.51
308.235	125.61
308.449	82.6
308.663	51.88
308.877	64.17
309.091	33.45
309.305	115.37
309.519	-64.85
309.733	74.41
309.947	-34.13
310.161	82.6
310.374	37.55
310.588	117.42
310.802	31.4
311.016	111.27
311.23	8.87
311.444	64.17
311.658	12.97
311.872	68.27
312.085	19.11
312.299	111.27
312.513	19.11
312.727	25.26
312.941	-3.41
313.154	17.07
313.368	53.93
313.582	15.02
313.796	37.55
314.009	10.92
314.223	60.07
314.437	68.27
314.651	68.27
314.864	72.36
315.078	78.51
315.292	-34.13
315.505	82.6
315.719	74.41
315.933	107.18
316.146	27.31
316.36	-11.61
316.573	119.46
316.787	76.46
317.001	105.13
317.214	-36.18
317.428	66.22
317.641	90.79
317.855	47.79
318.068	98.99
318.282	96.94
318.495	53.93
318.709	41.64
318.922	49.83
319.136	84.65
319.349	90.79
319.563	41.64
319.776	-1.37
319.99	-19.8
320.203	72.36
320.417	45.74
320.63	68.27
320.843	98.99
321.057	90.79
321.27	2.73
321.483	72.36
321.697	105.13
321.91	111.27
322.124	80.55
322.337	37.55
322.55	33.45
322.763	125.61
322.977	31.4
323.19	88.75
323.403	51.88
323.617	25.26
323.83	103.08
324.043	45.74
324.256	68.27
324.469	55.98
324.683	94.89
324.896	-7.51
325.109	49.83
325.322	-1.37
325.535	4.78
325.748	58.03
325.962	21.16
326.175	82.6
326.388	37.55
326.601	94.89
326.814	23.21
327.027	41.64
327.24	80.55
327.453	33.45
327.666	74.41
327.879	80.55
328.092	121.51
328.305	43.69
328.518	33.45
328.731	45.74
328.944	55.98
329.157	49.83
329.37	47.79
329.583	33.45
329.796	158.38
330.009	-13.65
330.222	82.6
330.435	31.4
330.648	105.13
330.861	35.5
331.073	58.03
331.286	94.89
331.499	8.87
331.712	10.92
331.925	62.12
332.138	76.46
332.35	88.75
332.563	17.07
332.776	41.64
332.989	23.21
333.202	27.31
333.414	76.46
333.627	66.22
333.84	37.55
334.053	21.16
334.265	4.78
334.478	37.55
334.691	-9.56
334.903	74.41
335.116	66.22
335.329	66.22
335.541	21.16
335.754	92.84
335.966	64.17
336.179	78.51
336.392	21.16
336.604	78.51
336.817	115.37
337.029	51.88
337.242	53.93
337.454	68.27
337.667	123.56
337.88	117.42
338.092	76.46
338.305	72.36
338.517	-36.18
338.729	80.55
338.942	160.42
339.154	10.92
339.367	45.74
339.579	-5.46
339.792	51.88
340.004	60.07
340.217	62.12
340.429	139.94
340.641	33.45
340.854	43.69
341.066	47.79
341.278	174.76
341.491	156.33
341.703	82.6
341.915	82.6
342.128	58.03
342.34	-1.37
342.552	6.83
342.764	8.87
342.977	125.61
343.189	-5.46
343.401	121.51
343.613	-62.8
343.826	115.37
344.038	12.97
344.25	39.59
344.462	55.98
344.674	90.79
344.886	31.4
345.099	86.7
345.311	39.59
345.523	-7.51
345.735	90.79
345.947	76.46
346.159	78.51
346.371	39.59
346.583	101.03
346.795	182.95
347.007	39.59
347.219	19.11
347.431	37.55
347.643	64.17
347.855	62.12
348.067	68.27
348.279	15.02
348.491	47.79
348.703	68.27
348.915	-1.37
349.127	23.21
349.339	70.31
349.551	35.5
349.763	146.09
349.975	55.98
350.187	74.41
350.399	0.68
350.61	33.45
350.822	47.79
351.034	45.74
351.246	64.17
351.458	92.84
351.669	-23.89
351.881	51.88
352.093	94.89
352.305	156.33
352.517	82.6
352.728	162.47
352.94	64.17
353.152	27.31
353.363	70.31
353.575	31.4
353.787	98.99
353.999	170.66
354.21	27.31
354.422	-1.37
354.633	70.31
354.845	4.78
355.057	19.11
355.268	129.7
355.48	74.41
355.692	8.87
355.903	58.03
356.115	31.4
356.326	62.12
356.538	117.42
356.749	10.92
356.961	101.03
357.172	78.51
357.384	-13.65
357.595	105.13
357.807	4.78
358.018	45.74
358.23	37.55
358.441	47.79
358.653	90.79
358.864	107.18
359.075	10.92
359.287	29.35
359.498	41.64
359.709	8.87
359.921	17.07
360.132	35.5
360.344	25.26
360.555	2.73
360.766	86.7
360.977	-3.41
361.189	80.55
361.4	8.87
361.611	105.13
361.823	135.85
362.034	101.03
362.245	39.59
362.456	80.55
362.667	45.74
362.879	90.79
363.09	62.12
363.301	74.41
363.512	74.41
363.723	31.4
363.935	92.84
364.146	141.99
364.357	49.83
364.568	94.89
364.779	86.7
364.99	23.21
365.201	92.84
365.412	60.07
365.623	0.68
365.834	113.32
366.045	105.13
366.256	92.84
366.467	41.64
366.678	31.4
366.889	12.97
367.1	88.75
367.311	107.18
367.522	23.21
367.733	109.23
367.944	55.98
368.155	43.69
368.366	125.61
368.577	139.94
368.788	131.75
368.999	-40.28
369.209	39.59
369.42	123.56
369.631	84.65
369.842	53.93
370.053	62.12
370.264	62.12
370.474	15.02
370.685	78.51
370.896	47.79
371.107	72.36
371.317	6.83
371.528	15.02
371.739	49.83
371.95	51.88
372.16	80.55
372.371	64.17
372.582	58.03
372.792	88.75
373.003	74.41
373.214	105.13
373.424	133.8
373.635	-36.18
373.846	101.03
374.056	33.45
374.267	23.21
374.477	43.69
374.688	82.6
374.898	41.64
375.109	103.08
375.319	133.8
375.53	84.65
375.74	21.16
375.951	98.99
376.161	45.74
376.372	98.99
376.582	21.16
376.793	60.07
377.003	15.02
377.214	55.98
377.424	64.17
377.635	92.84
377.845	17.07
378.055	109.23
378.266	47.79
378.476	78.51
378.686	78.51
378.897	76.46
379.107	55.98
379.317	105.13
379.528	29.35
379.738	78.51
379.948	0.68
380.158	146.09
380.369	96.94
380.579	39.59
380.789	66.22
380.999	115.37
381.21	98.99
381.42	74.41
381.63	15.02
381.84	90.79
382.05	49.83
382.261	43.69
382.471	156.33
382.681	90.79
382.891	29.35
383.101	78.51
383.311	35.5
383.521	37.55
383.731	84.65
383.941	141.99
384.151	4.78
384.361	49.83
384.571	72.36
384.781	148.14
384.991	135.85
385.201	43.69
385.411	152.23
385.621	72.36
385.831	45.74
386.041	84.65
386.251	90.79
386.461	109.23
386.671	101.03
386.881	174.76
387.091	35.5
387.301	109.23
387.511	47.79
387.72	135.85
387.93	107.18
388.14	43.69
388.35	80.55
388.56	49.83
388.769	160.42
388.979	119.46
389.189	19.11
389.399	49.83
389.609	33.45
389.818	133.8
390.028	76.46
390.238	119.46
390.447	10.92
390.657	103.08
390.867	115.37
391.076	15.02
391.286	-15.7
391.496	74.41
391.705	49.83
391.915	84.65
392.125	74.41
392.334	47.79
392.544	129.7
392.753	80.55
392.963	35.5
393.172	70.31
393.382	23.21
393.591	141.99
393.801	41.64
394.01	51.88
394.22	58.03
394.429	82.6
394.639	88.75
394.848	125.61
395.058	84.65
395.267	17.07
395.477	35.5
395.686	107.18
395.895	139.94
396.105	199.34
396.314	45.74
396.524	78.51
396.733	98.99
396.942	162.47
397.152	137.9
397.361	158.38
397.57	139.94
397.78	98.99
397.989	70.31
398.198	152.23
398.407	133.8
398.617	49.83
398.826	107.18
399.035	35.5
399.244	115.37
399.453	148.14
399.663	135.85
399.872	109.23
400.081	107.18
400.29	135.85
400.499	84.65
400.708	76.46
400.917	47.79
401.127	64.17
401.336	113.32
401.545	185
401.754	115.37
401.963	51.88
402.172	105.13
402.381	47.79
402.59	-5.46
402.799	162.47
403.008	121.51
403.217	164.52
403.426	152.23
403.635	113.32
403.844	127.66
404.053	174.76
404.262	94.89
404.471	166.57
404.68	96.94
404.888	88.75
405.097	115.37
405.306	119.46
405.515	141.99
405.724	113.32
405.933	154.28
406.142	107.18
406.35	113.32
406.559	119.46
406.768	154.28
406.977	248.49
407.185	201.38
407.394	189.1
407.603	119.46
407.812	162.47
408.02	219.82
408.229	205.48
408.438	172.71
408.646	164.52
408.855	230.06
409.064	250.53
409.272	211.62
409.481	268.97
409.69	199.34
409.898	230.06
410.107	344.74
410.315	260.77
410.524	273.06
410.733	264.87
410.941	203.43
411.15	275.11
411.358	297.64
411.567	379.56
411.775	240.3
411.984	311.97
412.192	389.8
412.401	318.12
412.609	375.46
412.818	406.18
413.026	367.27
413.234	422.56
413.443	445.09
413.651	348.84
413.86	447.14
414.068	410.28
414.276	477.86
414.485	467.62
414.693	613.03
414.901	492.2
415.11	541.35
415.318	574.11
415.526	580.26
415.734	625.31
415.943	596.64
416.151	662.18
416.359	514.72
416.567	641.7
416.776	664.22
416.984	682.66
417.192	828.06
417.4	774.81
417.608	703.14
417.817	688.8
418.025	852.64
418.233	860.83
418.441	823.97
418.649	936.6
418.857	944.8
419.065	1026.71
419.273	856.73
419.481	1098.39
419.689	1110.68
419.897	1217.18
420.105	1149.59
420.313	1153.69
420.521	1233.56
420.729	1233.56
420.937	1311.38
421.145	1290.9
421.353	1522.32
421.561	1485.46
421.769	1448.6
421.977	1596.05
422.185	1434.26
422.393	1649.3
422.601	1786.51
422.809	1624.72
423.017	1577.62
423.224	1841.81
423.432	1870.48
423.64	1841.81
423.848	2044.56
424.056	1960.59
424.263	2083.47
424.471	2042.51
424.679	2173.58
424.887	2251.4
425.094	2253.45
425.302	2318.98
425.51	2468.48
425.718	2497.16
425.925	2491.01
426.133	2663.04
426.341	2722.43
426.548	2939.52
426.756	2886.27
426.964	2937.47
427.171	3162.75
427.379	3172.99
427.586	3226.23
427.794	3342.97
428.001	3517.05
428.209	3678.83
428.417	3721.84
428.624	3787.38
428.832	3906.16
429.039	3830.38
429.247	3844.72
429.454	4145.77
429.662	4446.82
429.869	4160.11
430.076	4489.83
430.284	4242.03
430.491	4467.3
430.699	4782.69
430.906	4719.2
431.114	4778.59
431.321	5014.11
431.528	5128.8
431.736	5384.79
431.943	5724.76
432.15	5587.54
432.358	5669.46
432.565	5909.07
432.772	5902.93
432.979	6228.56
433.187	6337.1
433.394	6242.89
433.601	6816.32
433.808	6543.94
434.016	6672.96
434.223	7045.7
434.43	7522.87
434.637	7287.36
434.844	7930.42
435.052	7924.27
435.259	7938.61
435.466	7848.5
435.673	8084.02
435.88	8297
436.087	8608.3
436.294	8852
436.501	8645.16
436.708	8866.34
436.915	9040.42
437.122	9546.26
437.329	9374.24
437.537	9789.97
437.743	10033.68
437.95	9943.57
438.157	10224.14
438.364	10779.14
438.571	10738.18
438.778	10854.92
438.985	11639.29
439.192	11364.86
439.399	11690.49
439.606	11426.3
439.813	12022.26
440.02	12964.32
440.227	12610.03
440.433	12431.85
440.64	12906.98
440.847	12775.91
441.054	13171.17
441.261	13957.59
441.467	13777.37
441.674	14283.22
441.881	14537.16
442.088	14651.85
442.294	14402
442.501	15086.02
442.708	15169.99
442.914	15841.72
443.121	16583.09
443.328	16048.57
443.534	17039.78
443.741	16488.88
443.948	16390.58
444.154	17586.59
444.361	17531.3
444.568	17842.59
444.774	17938.84
444.981	17783.2
445.187	18602.38
445.394	19165.57
445.6	18930.06
445.807	20803.95
446.013	19798.4
446.22	20152.7
446.426	21213.54
446.633	21057.9
446.839	22102.36
447.046	21066.09
447.252	22169.94
447.459	22479.19
447.665	22307.16
447.871	23085.39
448.078	24305.98
448.284	22948.17
448.491	23722.3
448.697	24523.06
448.903	25026.86
449.11	25116.97
449.316	24828.21
449.522	25014.57
449.728	25989.41
449.935	25790.75
450.141	25811.23
450.347	26781.97
450.553	25590.05
450.76	25864.48
450.966	27040.01
451.172	26681.62
451.378	27244.81
451.584	26880.27
451.791	27506.95
451.997	27099.41
452.203	27629.83
452.409	27744.52
452.615	27760.9
452.821	26648.85
453.027	26378.52
453.233	27791.62
453.44	26687.76
453.646	26865.94
453.852	26867.98
454.058	27240.72
454.264	26544.41
454.47	27101.45
454.676	26210.59
454.882	27304.2
455.088	24846.64
455.294	25420.07
455.5	25729.31
455.705	25983.26
455.911	24772.91
456.117	24113.47
456.323	24060.22
456.529	22567.25
456.735	23632.19
456.941	23152.97
457.147	22698.32
457.352	21832.03
457.558	21887.32
457.764	21721.44
457.97	21434.72
458.176	20980.07
458.381	21023.08
458.587	20136.31
458.793	19995
458.999	18868.62
459.204	19976.57
459.41	19489.15
459.616	18416.02
459.821	18454.93
460.027	18149.78
460.233	17643.93
460.438	16925.1
460.644	17580.45
460.85	16505.26
461.055	16107.96
461.261	16126.39
461.466	14957
461.672	14604.75
461.878	15286.72
462.083	14653.9
462.289	14189.01
462.494	14170.58
462.7	13230.56
462.905	13132.26
463.111	13656.54
463.316	13685.21
463.522	13128.16
463.727	13515.23
463.932	13253.09
464.138	13201.89
464.343	13238.75
464.549	12806.63
464.754	13079.01
464.959	13187.55
465.165	13023.72
465.37	12163.57
465.575	12171.76
465.781	12409.33
465.986	12775.91
466.191	12003.83
466.397	11975.16
466.602	11500.03
466.807	11751.93
467.012	11868.66
467.218	11674.1
467.423	11717.11
