Data from USB4F104151__37__12-23-48-449.txt Node

Date: Fri Mar 14 12:23:48 EDT 2025
User: louis
Spectrometer: USB4F10415
Trigger mode: 4
Integration Time (sec): 3.500000E-2
Scans to average: 1
Electric dark correction enabled: true
Nonlinearity correction enabled: false
Boxcar width: 0
XAxis mode: Wavelengths
Number of Pixels in Spectrum: 3648
>>>>>Begin Spectral Data<<<<<
178.204	-90.11
178.424	-90.11
178.644	-90.11
178.864	-137.21
179.084	-116.73
179.304	-22.53
179.524	-63.49
179.744	22.53
179.964	38.91
180.184	4.1
180.404	8.19
180.624	-8.19
180.844	2.05
181.064	2.05
181.283	-26.62
181.503	65.53
181.723	-22.53
181.943	-59.39
182.163	86.01
182.383	-2.05
182.602	28.67
182.822	75.77
183.042	-12.29
183.262	22.53
183.482	53.25
183.701	-40.96
183.921	-12.29
184.141	-36.86
184.361	10.24
184.58	-65.54
184.8	49.15
185.02	18.43
185.239	81.92
185.459	24.58
185.679	92.16
185.898	-36.86
186.118	47.1
186.338	16.38
186.557	22.53
186.777	-16.38
186.997	2.05
187.216	-36.86
187.436	47.1
187.655	6.14
187.875	-24.58
188.095	-14.34
188.314	-6.14
188.534	69.63
188.753	-43.01
188.973	34.82
189.192	43.01
189.412	36.86
189.631	-36.86
189.851	49.15
190.07	106.49
190.29	-38.91
190.509	65.53
190.729	-30.72
190.948	-8.19
191.168	161.79
191.387	16.38
191.607	10.24
191.826	34.82
192.045	-22.53
192.265	18.43
192.484	12.29
192.704	43.01
192.923	59.39
193.142	106.49
193.362	14.34
193.581	63.49
193.8	36.86
194.02	75.77
194.239	137.21
194.458	-4.1
194.678	-45.06
194.897	-40.96
195.116	-45.06
195.335	-22.53
195.555	90.11
195.774	-6.14
195.993	49.15
196.212	-12.29
196.432	2.05
196.651	-57.34
196.87	-0
197.089	8.19
197.308	10.24
197.528	47.1
197.747	-12.29
197.966	20.48
198.185	73.73
198.404	57.34
198.623	-0
198.842	47.1
199.062	36.86
199.281	-43.01
199.5	55.3
199.719	51.2
199.938	102.4
200.157	112.64
200.376	38.91
200.595	88.06
200.814	-45.06
201.033	-45.06
201.252	6.14
201.471	38.91
201.69	106.49
201.909	-43.01
202.128	51.2
202.347	-43.01
202.566	-30.72
202.785	-63.49
203.004	-14.34
203.223	149.5
203.442	34.82
203.661	-24.58
203.879	26.62
204.098	104.45
204.317	-28.67
204.536	79.87
204.755	6.14
204.974	49.15
205.193	77.82
205.411	112.64
205.63	-30.72
205.849	12.29
206.068	38.91
206.287	12.29
206.505	75.77
206.724	30.72
206.943	6.14
207.162	75.77
207.381	30.72
207.599	20.48
207.818	2.05
208.037	-63.49
208.255	57.34
208.474	24.58
208.693	45.06
208.911	57.34
209.13	65.53
209.349	75.77
209.567	38.91
209.786	73.73
210.005	45.06
210.223	77.82
210.442	-69.63
210.661	40.96
210.879	14.34
211.098	-22.53
211.316	100.35
211.535	36.86
211.753	-22.53
211.972	-6.14
212.191	16.38
212.409	12.29
212.628	36.86
212.846	-30.72
213.065	-8.19
213.283	94.21
213.502	-40.96
213.72	47.1
213.938	47.1
214.157	30.72
214.375	49.15
214.594	79.87
214.812	57.34
215.031	61.44
215.249	-51.2
215.467	51.2
215.686	53.25
215.904	55.3
216.122	22.53
216.341	40.96
216.559	-8.19
216.778	16.38
216.996	40.96
217.214	14.34
217.432	-4.1
217.651	-0
217.869	65.53
218.087	20.48
218.306	4.1
218.524	49.15
218.742	8.19
218.96	118.78
219.179	14.34
219.397	77.82
219.615	55.3
219.833	-59.39
220.051	-63.49
220.27	2.05
220.488	24.58
220.706	10.24
220.924	100.35
221.142	2.05
221.36	2.05
221.578	-4.1
221.796	34.82
222.015	45.06
222.233	94.21
222.451	24.58
222.669	81.92
222.887	81.92
223.105	34.82
223.323	88.06
223.541	92.16
223.759	49.15
223.977	28.67
224.195	79.87
224.413	53.25
224.631	-8.19
224.849	8.19
225.067	61.44
225.285	-4.1
225.503	57.34
225.721	-63.49
225.939	65.53
226.157	-18.43
226.375	110.59
226.592	-34.82
226.81	28.67
227.028	-34.82
227.246	96.25
227.464	-55.3
227.682	18.43
227.9	10.24
228.117	65.53
228.335	43.01
228.553	32.77
228.771	77.82
228.989	47.1
229.206	20.48
229.424	-4.1
229.642	36.86
229.86	-73.73
230.077	45.06
230.295	57.34
230.513	77.82
230.731	88.06
230.948	63.49
231.166	26.62
231.384	-0
231.601	-32.77
231.819	75.77
232.037	-0
232.254	36.86
232.472	40.96
232.689	-38.91
232.907	88.06
233.125	57.34
233.342	-2.05
233.56	40.96
233.777	38.91
233.995	90.11
234.213	106.49
234.43	67.58
234.648	-22.53
234.865	-94.21
235.083	-26.62
235.3	47.1
235.518	92.16
235.735	16.38
235.953	18.43
236.17	-12.29
236.388	67.58
236.605	32.77
236.822	38.91
237.04	43.01
237.257	28.67
237.475	-6.14
237.692	61.44
237.909	-6.14
238.127	2.05
238.344	49.15
238.562	-20.48
238.779	-67.58
238.996	28.67
239.214	63.49
239.431	49.15
239.648	51.2
239.865	14.34
240.083	100.35
240.3	-6.14
240.517	32.77
240.735	8.19
240.952	77.82
241.169	-0
241.386	6.14
241.603	16.38
241.821	28.67
242.038	22.53
242.255	77.82
242.472	-28.67
242.689	22.53
242.907	43.01
243.124	12.29
243.341	34.82
243.558	-32.77
243.775	16.38
243.992	-20.48
244.209	-40.96
244.426	26.62
244.643	-24.58
244.86	-12.29
245.078	47.1
245.295	73.73
245.512	-30.72
245.729	22.53
245.946	51.2
246.163	-2.05
246.38	28.67
246.597	55.3
246.814	-18.43
247.031	71.68
247.248	67.58
247.464	-18.43
247.681	10.24
247.898	-28.67
248.115	114.69
248.332	-16.38
248.549	71.68
248.766	100.35
248.983	88.06
249.2	75.77
249.417	149.5
249.633	6.14
249.85	20.48
250.067	-77.82
250.284	49.15
250.501	10.24
250.717	32.77
250.934	28.67
251.151	-40.96
251.368	45.06
251.585	51.2
251.801	67.58
252.018	4.1
252.235	81.92
252.451	18.43
252.668	-26.62
252.885	126.97
253.102	-26.62
253.318	43.01
253.535	-43.01
253.752	75.77
253.968	16.38
254.185	-4.1
254.401	-18.43
254.618	4.1
254.835	-51.2
255.051	-34.82
255.268	20.48
255.484	36.86
255.701	51.2
255.917	38.91
256.134	16.38
256.351	8.19
256.567	14.34
256.784	47.1
257	-67.58
257.217	104.45
257.433	26.62
257.65	24.58
257.866	106.49
258.082	73.73
258.299	-2.05
258.515	43.01
258.732	22.53
258.948	57.34
259.165	73.73
259.381	83.97
259.597	-14.34
259.814	59.39
260.03	43.01
260.246	73.73
260.463	116.73
260.679	51.2
260.895	38.91
261.112	6.14
261.328	8.19
261.544	-55.3
261.761	83.97
261.977	36.86
262.193	-14.34
262.409	102.4
262.626	59.39
262.842	55.3
263.058	-83.97
263.274	32.77
263.49	2.05
263.707	81.92
263.923	53.25
264.139	-55.3
264.355	59.39
264.571	57.34
264.787	61.44
265.004	55.3
265.22	79.87
265.436	-6.14
265.652	12.29
265.868	63.49
266.084	-12.29
266.3	22.53
266.516	-63.49
266.732	51.2
266.948	-10.24
267.164	-12.29
267.38	51.2
267.596	81.92
267.812	65.53
268.028	32.77
268.244	30.72
268.46	12.29
268.676	-63.49
268.892	24.58
269.108	26.62
269.324	59.39
269.54	-32.77
269.756	-26.62
269.972	6.14
270.188	49.15
270.403	-26.62
270.619	59.39
270.835	71.68
271.051	12.29
271.267	26.62
271.483	4.1
271.698	73.73
271.914	36.86
272.13	53.25
272.346	63.49
272.562	6.14
272.777	28.67
272.993	40.96
273.209	86.01
273.425	-18.43
273.64	-6.14
273.856	22.53
274.072	-45.06
274.287	-22.53
274.503	81.92
274.719	49.15
274.934	-0
275.15	20.48
275.366	49.15
275.581	-71.68
275.797	79.87
276.012	20.48
276.228	36.86
276.444	8.19
276.659	36.86
276.875	47.1
277.09	43.01
277.306	-4.1
277.521	8.19
277.737	16.38
277.952	98.3
278.168	45.06
278.383	75.77
278.599	92.16
278.814	40.96
279.03	-8.19
279.245	40.96
279.461	16.38
279.676	90.11
279.892	-0
280.107	71.68
280.322	-32.77
280.538	32.77
280.753	38.91
280.969	45.06
281.184	-2.05
281.399	-6.14
281.615	12.29
281.83	69.63
282.045	22.53
282.26	59.39
282.476	12.29
282.691	36.86
282.906	26.62
283.122	-40.96
283.337	-0
283.552	61.44
283.767	47.1
283.983	126.97
284.198	94.21
284.413	90.11
284.628	-18.43
284.843	30.72
285.058	79.87
285.274	45.06
285.489	2.05
285.704	55.3
285.919	-40.96
286.134	18.43
286.349	24.58
286.564	43.01
286.779	116.73
286.995	-6.14
287.21	-36.86
287.425	79.87
287.64	71.68
287.855	69.63
288.07	-28.67
288.285	40.96
288.5	77.82
288.715	40.96
288.93	34.82
289.145	53.25
289.36	88.06
289.575	71.68
289.79	102.4
290.004	96.25
290.219	20.48
290.434	18.43
290.649	16.38
290.864	22.53
291.079	22.53
291.294	10.24
291.509	51.2
291.724	32.77
291.938	-12.29
292.153	40.96
292.368	12.29
292.583	51.2
292.798	71.68
293.012	40.96
293.227	-16.38
293.442	-28.67
293.657	98.3
293.871	73.73
294.086	-59.39
294.301	16.38
294.516	59.39
294.73	8.19
294.945	6.14
295.16	30.72
295.374	22.53
295.589	86.01
295.804	77.82
296.018	16.38
296.233	69.63
296.447	79.87
296.662	4.1
296.877	34.82
297.091	43.01
297.306	28.67
297.52	24.58
297.735	-26.62
297.949	65.53
298.164	28.67
298.378	-71.68
298.593	61.44
298.807	-34.82
299.022	14.34
299.236	47.1
299.451	36.86
299.665	40.96
299.88	32.77
300.094	83.97
300.309	2.05
300.523	71.68
300.737	-28.67
300.952	-16.38
301.166	28.67
301.381	-18.43
301.595	24.58
301.809	55.3
302.024	-59.39
302.238	-6.14
302.452	20.48
302.667	90.11
302.881	104.45
303.095	92.16
303.309	-16.38
303.524	-34.82
303.738	-28.67
303.952	22.53
304.166	57.34
304.381	-30.72
304.595	88.06
304.809	20.48
305.023	79.87
305.237	28.67
305.452	36.86
305.666	22.53
305.88	43.01
306.094	77.82
306.308	90.11
306.522	22.53
306.736	36.86
306.95	47.1
307.164	57.34
307.379	67.58
307.593	73.73
307.807	106.49
308.021	2.05
308.235	59.39
308.449	34.82
308.663	22.53
308.877	90.11
309.091	-49.15
309.305	38.91
309.519	-2.05
309.733	67.58
309.947	6.14
310.161	51.2
310.374	18.43
310.588	83.97
310.802	2.05
311.016	2.05
311.23	-22.53
311.444	-24.58
311.658	-71.68
311.872	92.16
312.085	65.53
312.299	53.25
312.513	16.38
312.727	43.01
312.941	-30.72
313.154	71.68
313.368	12.29
313.582	-4.1
313.796	16.38
314.009	2.05
314.223	32.77
314.437	12.29
314.651	12.29
314.864	22.53
315.078	26.62
315.292	57.34
315.505	53.25
315.719	18.43
315.933	61.44
316.146	-30.72
316.36	-32.77
316.573	47.1
316.787	86.01
317.001	40.96
317.214	8.19
317.428	100.35
317.641	63.49
317.855	83.97
318.068	20.48
318.282	-22.53
318.495	94.21
318.709	75.77
318.922	53.25
319.136	116.73
319.349	-2.05
319.563	20.48
319.776	-16.38
319.99	-26.62
320.203	38.91
320.417	20.48
320.63	45.06
320.843	88.06
321.057	4.1
321.27	-6.14
321.483	49.15
321.697	67.58
321.91	51.2
322.124	-28.67
322.337	98.3
322.55	4.1
322.763	38.91
322.977	73.73
323.19	26.62
323.403	49.15
323.617	32.77
323.83	75.77
324.043	2.05
324.256	59.39
324.469	53.25
324.683	20.48
324.896	40.96
325.109	45.06
325.322	-12.29
325.535	86.01
325.748	8.19
325.962	-4.1
326.175	88.06
326.388	28.67
326.601	-0
326.814	88.06
327.027	10.24
327.24	137.21
327.453	30.72
327.666	63.49
327.879	53.25
328.092	32.77
328.305	79.87
328.518	-32.77
328.731	-26.62
328.944	81.92
329.157	20.48
329.37	16.38
329.583	49.15
329.796	94.21
330.009	4.1
330.222	67.58
330.435	59.39
330.648	45.06
330.861	36.86
331.073	67.58
331.286	32.77
331.499	45.06
331.712	-32.77
331.925	30.72
332.138	67.58
332.35	-0
332.563	53.25
332.776	-2.05
332.989	8.19
333.202	-34.82
333.414	98.3
333.627	73.73
333.84	28.67
334.053	55.3
334.265	32.77
334.478	-22.53
334.691	8.19
334.903	67.58
335.116	8.19
335.329	-28.67
335.541	73.73
335.754	98.3
335.966	-12.29
336.179	49.15
336.392	36.86
336.604	43.01
336.817	30.72
337.029	47.1
337.242	96.25
337.454	49.15
337.667	-28.67
337.88	104.45
338.092	45.06
338.305	-12.29
338.517	43.01
338.729	-12.29
338.942	71.68
339.154	51.2
339.367	-2.05
339.579	-2.05
339.792	16.38
340.004	81.92
340.217	34.82
340.429	4.1
340.641	-96.25
340.854	-14.34
341.066	51.2
341.278	14.34
341.491	102.4
341.703	65.53
341.915	-16.38
342.128	133.12
342.34	-10.24
342.552	10.24
342.764	-10.24
342.977	53.25
343.189	108.54
343.401	38.91
343.613	-30.72
343.826	38.91
344.038	26.62
344.25	108.54
344.462	77.82
344.674	-16.38
344.886	40.96
345.099	81.92
345.311	16.38
345.523	16.38
345.735	-20.48
345.947	34.82
346.159	67.58
346.371	90.11
346.583	59.39
346.795	90.11
347.007	47.1
347.219	40.96
347.431	24.58
347.643	141.31
347.855	8.19
348.067	147.45
348.279	47.1
348.491	-69.63
348.703	65.53
348.915	45.06
349.127	43.01
349.339	45.06
349.551	-16.38
349.763	112.64
349.975	-4.1
350.187	69.63
350.399	69.63
350.61	24.58
350.822	10.24
351.034	26.62
351.246	47.1
351.458	-24.58
351.669	20.48
351.881	49.15
352.093	102.4
352.305	57.34
352.517	-40.96
352.728	137.21
352.94	18.43
353.152	-4.1
353.363	59.39
353.575	59.39
353.787	38.91
353.999	63.49
354.21	61.44
354.422	16.38
354.633	18.43
354.845	81.92
355.057	81.92
355.268	47.1
355.48	34.82
355.692	-12.29
355.903	55.3
356.115	18.43
356.326	-49.15
356.538	16.38
356.749	81.92
356.961	36.86
357.172	-40.96
357.384	16.38
357.595	67.58
357.807	-0
358.018	45.06
358.23	92.16
358.441	96.25
358.653	88.06
358.864	73.73
359.075	34.82
359.287	110.59
359.498	57.34
359.709	43.01
359.921	94.21
360.132	47.1
360.344	36.86
360.555	-30.72
360.766	90.11
360.977	53.25
361.189	40.96
361.4	-0
361.611	75.77
361.823	40.96
362.034	86.01
362.245	6.14
362.456	6.14
362.667	10.24
362.879	-26.62
363.09	20.48
363.301	-10.24
363.512	26.62
363.723	22.53
363.935	96.25
364.146	49.15
364.357	30.72
364.568	43.01
364.779	24.58
364.99	133.12
365.201	20.48
365.412	98.3
365.623	-59.39
365.834	34.82
366.045	75.77
366.256	69.63
366.467	63.49
366.678	77.82
366.889	12.29
367.1	-16.38
367.311	8.19
367.522	71.68
367.733	26.62
367.944	75.77
368.155	40.96
368.366	53.25
368.577	81.92
368.788	79.87
368.999	-4.1
369.209	108.54
369.42	96.25
369.631	106.49
369.842	83.97
370.053	24.58
370.264	67.58
370.474	75.77
370.685	51.2
370.896	36.86
371.107	-0
371.317	65.53
371.528	53.25
371.739	40.96
371.95	-16.38
372.16	65.53
372.371	-26.62
372.582	98.3
372.792	26.62
373.003	-18.43
373.214	75.77
373.424	59.39
373.635	59.39
373.846	227.32
374.056	30.72
374.267	57.34
374.477	79.87
374.688	40.96
374.898	-22.53
375.109	38.91
375.319	45.06
375.53	47.1
375.74	14.34
375.951	-4.1
376.161	73.73
376.372	124.93
376.582	92.16
376.793	83.97
377.003	22.53
377.214	-16.38
377.424	69.63
377.635	28.67
377.845	16.38
378.055	114.69
378.266	6.14
378.476	8.19
378.686	57.34
378.897	18.43
379.107	51.2
379.317	112.64
379.528	26.62
379.738	108.54
379.948	-28.67
380.158	26.62
380.369	38.91
380.579	34.82
380.789	4.1
380.999	32.77
381.21	57.34
381.42	32.77
381.63	2.05
381.84	4.1
382.05	57.34
382.261	63.49
382.471	110.59
382.681	22.53
382.891	57.34
383.101	22.53
383.311	28.67
383.521	100.35
383.731	147.45
383.941	2.05
384.151	79.87
384.361	86.01
384.571	79.87
384.781	141.31
384.991	137.21
385.201	206.84
385.411	59.39
385.621	36.86
385.831	14.34
386.041	40.96
386.251	10.24
386.461	67.58
386.671	88.06
386.881	20.48
387.091	12.29
387.301	106.49
387.511	57.34
387.72	81.92
387.93	69.63
388.14	12.29
388.35	-12.29
388.56	71.68
388.769	112.64
388.979	49.15
389.189	-75.77
389.399	-4.1
389.609	61.44
389.818	81.92
390.028	30.72
390.238	83.97
390.447	30.72
390.657	24.58
390.867	-0
391.076	24.58
391.286	12.29
391.496	73.73
391.705	81.92
391.915	28.67
392.125	34.82
392.334	18.43
392.544	53.25
392.753	94.21
392.963	47.1
393.172	63.49
393.382	14.34
393.591	122.88
393.801	20.48
394.01	143.36
394.22	36.86
394.429	131.07
394.639	112.64
394.848	131.07
395.058	116.73
395.267	96.25
395.477	137.21
395.686	88.06
395.895	51.2
396.105	38.91
396.314	28.67
396.524	104.45
396.733	16.38
396.942	106.49
397.152	122.88
397.361	98.3
397.57	88.06
397.78	67.58
397.989	100.35
398.198	126.97
398.407	90.11
398.617	108.54
398.826	141.31
399.035	75.77
399.244	155.65
399.453	83.97
399.663	143.36
399.872	114.69
400.081	36.86
400.29	112.64
400.499	57.34
400.708	167.93
400.917	32.77
401.127	135.17
401.336	88.06
401.545	139.26
401.754	100.35
401.963	118.78
402.172	104.45
402.381	43.01
402.59	167.93
402.799	116.73
403.008	114.69
403.217	153.6
403.426	118.78
403.635	69.63
403.844	73.73
404.053	106.49
404.262	155.65
404.471	108.54
404.68	151.55
404.888	124.93
405.097	116.73
405.306	157.69
405.515	126.97
405.724	88.06
405.933	221.18
406.142	81.92
406.35	190.46
406.559	149.5
406.768	176.13
406.977	200.7
407.185	217.08
407.394	215.04
407.603	172.03
407.812	215.04
408.02	217.08
408.229	198.65
408.438	262.14
408.646	133.12
408.855	239.61
409.064	299
409.272	339.96
409.481	256
409.69	268.28
409.898	202.75
410.107	307.2
410.315	264.19
410.524	309.24
410.733	315.39
410.941	212.99
411.15	258.04
411.358	319.48
411.567	446.46
411.775	350.2
411.984	366.59
412.192	362.49
412.401	387.07
412.609	352.25
412.818	403.45
413.026	495.61
413.234	530.42
413.443	466.94
413.651	481.27
413.86	475.13
414.068	526.33
414.276	610.29
414.485	503.8
414.693	598.01
414.901	614.39
415.11	698.36
415.318	602.1
415.526	645.11
415.734	718.84
415.943	675.83
416.151	714.74
416.359	770.04
416.567	735.22
416.776	845.81
416.984	870.39
417.192	856.05
417.4	851.95
417.608	831.48
417.817	978.93
418.025	1013.74
418.233	935.92
418.441	907.25
418.649	1066.99
418.857	1101.81
419.065	1148.91
419.273	1089.52
419.481	1249.26
419.689	1220.59
419.897	1239.02
420.105	1413.1
420.313	1366
420.521	1468.39
420.729	1452.01
420.937	1490.92
421.145	1525.74
421.353	1574.89
421.561	1644.52
421.769	1726.44
421.977	1718.25
422.185	1777.64
422.393	1841.12
422.601	1998.82
422.809	1976.29
423.017	1990.63
423.224	2154.46
423.432	2228.19
423.64	2209.76
423.848	2580.44
424.056	2432.99
424.263	2510.81
424.471	2475.99
424.679	2576.34
424.887	2777.05
425.094	2762.71
425.302	2748.37
425.51	2908.12
425.718	3016.66
425.925	3155.92
426.133	3137.49
426.341	3399.63
426.548	3565.51
426.756	3452.88
426.964	3499.98
427.171	3719.11
427.379	3829.7
427.586	3903.43
427.794	3942.34
428.001	4114.37
428.209	4435.9
428.417	4243.39
428.624	4534.2
428.832	4466.62
429.039	4552.63
429.247	4589.5
429.454	4976.56
429.662	5349.29
429.869	4984.76
430.076	5418.93
430.284	5103.54
430.491	5423.02
430.699	5781.42
430.906	5734.31
431.114	5830.57
431.321	5873.57
431.528	6303.65
431.736	6578.08
431.943	6791.06
432.15	6528.92
432.358	6723.48
432.565	7214.99
432.772	7139.22
432.979	7397.26
433.187	7382.93
433.394	7675.79
433.601	7878.54
433.808	7999.37
434.016	8130.44
434.223	8275.84
434.43	8976.25
434.637	8699.77
434.844	9342.83
435.052	9381.74
435.259	9533.29
435.466	9568.11
435.673	9516.91
435.88	9971.56
436.087	10575.71
436.294	10508.13
436.501	10219.36
436.708	10616.67
436.915	10764.12
437.122	11216.72
437.329	11224.92
437.537	11741
437.743	12042.06
437.95	11992.91
438.157	12255.05
438.364	12822.33
438.571	12732.22
438.778	12955.45
438.985	14063.4
439.192	13363
439.399	13971.24
439.606	13834.03
439.813	14335.78
440.02	15468.31
440.227	15050.52
440.433	14712.61
440.64	15406.87
440.847	15413.01
441.054	15740.69
441.261	16805.63
441.467	16459.52
441.674	16635.65
441.881	17383.16
442.088	17231.61
442.294	17170.17
442.501	17768.18
442.708	18259.69
442.914	18757.35
443.121	19830.48
443.328	19097.31
443.534	20489.93
443.741	19814.1
443.948	19703.51
444.154	21018.3
444.361	20965.06
444.568	21049.02
444.774	21059.26
444.981	21413.56
445.187	22095.53
445.394	23060.13
445.6	22384.3
445.807	24843.91
446.013	23525.02
446.22	24071.82
446.426	25036.42
446.633	25415.29
446.839	26394.22
447.046	25118.34
447.252	26379.89
447.459	26734.18
447.665	26787.43
447.871	27784.79
448.078	28773.96
448.284	27684.44
448.491	28130.9
448.697	29314.62
448.903	29931.06
449.11	29875.77
449.316	29236.8
449.522	30021.17
449.728	30537.26
449.935	30983.72
450.141	30938.66
450.347	31407.65
450.553	30654
450.76	31274.53
450.966	32353.81
451.172	31901.21
451.378	32749.07
451.584	31839.77
451.791	32679.44
451.997	32284.18
452.203	33078.79
452.409	32978.44
452.615	32804.36
452.821	31624.73
453.027	31352.35
453.233	33031.69
453.44	31733.28
453.646	31792.67
453.852	32265.75
454.058	32974.34
454.264	31938.07
454.47	32390.67
454.676	31444.51
454.882	32843.27
455.088	29967.93
455.294	29967.93
455.5	30649.9
455.705	30801.45
455.911	29947.45
456.117	29324.86
456.323	28728.91
456.529	27465.31
456.735	28548.68
456.941	27430.49
457.147	26988.13
457.352	26261.1
457.558	26242.67
457.764	25886.32
457.97	25763.45
458.176	25138.82
458.381	24999.55
458.587	23830.16
458.793	23676.57
458.999	22607.53
459.204	24037.01
459.41	23543.45
459.616	21896.88
459.821	21833.39
460.027	21743.28
460.233	21247.68
460.438	20408.01
460.644	20584.13
460.85	19910.35
461.055	19357.4
461.261	19113.69
461.466	17977.07
461.672	17323.77
461.878	18556.64
462.083	17370.87
462.289	16723.71
462.494	16713.47
462.7	15988.49
462.905	15496.98
463.111	16181
463.316	16369.41
463.522	15757.07
463.727	15752.98
463.932	15650.58
464.138	15587.09
464.343	15712.02
464.549	15316.76
464.754	15931.15
464.959	15621.91
465.165	15644.43
465.37	14894.88
465.575	14391.08
465.781	15058.71
465.986	15263.51
466.191	14493.47
466.397	14294.82
466.602	13621.04
466.807	13969.19
467.012	14176.04
467.218	14087.98
467.423	13862.7
467.628	13958.95
467.833	14585.63
