Data from USB4F104151__17__12-23-26-823.txt Node

Date: Fri Mar 14 12:23:26 EDT 2025
User: louis
Spectrometer: USB4F10415
Trigger mode: 4
Integration Time (sec): 3.500000E-2
Scans to average: 1
Electric dark correction enabled: true
Nonlinearity correction enabled: false
Boxcar width: 0
XAxis mode: Wavelengths
Number of Pixels in Spectrum: 3648
>>>>>Begin Spectral Data<<<<<
178.204	-141.65
178.424	-141.65
178.644	-141.65
178.864	-180.56
179.084	-108.88
179.304	-41.3
179.524	30.38
179.744	59.05
179.964	40.62
180.184	18.09
180.404	5.8
180.624	-39.25
180.844	-31.06
181.064	-6.49
181.283	-6.49
181.503	-18.77
181.723	-10.58
181.943	-72.02
182.163	42.67
182.383	-92.5
182.602	57
182.822	-2.39
183.042	-2.39
183.262	5.8
183.482	16.04
183.701	57
183.921	9.9
184.141	20.14
184.361	18.09
184.58	93.87
184.8	28.33
185.02	11.95
185.239	77.48
185.459	24.23
185.679	38.57
185.898	-37.2
186.118	48.81
186.338	11.95
186.557	3.75
186.777	-22.87
186.997	-0.34
187.216	16.04
187.436	18.09
187.655	126.63
187.875	95.91
188.095	-6.49
188.314	75.43
188.534	-0.34
188.753	46.76
188.973	1.71
189.192	-0.34
189.412	11.95
189.631	-10.58
189.851	30.38
190.07	46.76
190.29	-24.92
190.509	-6.49
190.729	40.62
190.948	-10.58
191.168	190.12
191.387	108.2
191.607	-53.59
191.826	59.05
192.045	104.11
192.265	-45.4
192.484	-24.92
192.704	26.28
192.923	-2.39
193.142	77.48
193.362	-6.49
193.581	40.62
193.8	9.9
194.02	26.28
194.239	16.04
194.458	48.81
194.678	3.75
194.897	-49.49
195.116	38.57
195.335	30.38
195.555	-29.01
195.774	-4.44
195.993	100.01
196.212	-8.53
196.432	52.91
196.651	-20.82
196.87	-20.82
197.089	161.45
197.308	52.91
197.528	38.57
197.747	9.9
197.966	44.71
198.185	89.77
198.404	7.85
198.623	1.71
198.842	30.38
199.062	20.14
199.281	54.95
199.5	-12.63
199.719	30.38
199.938	-24.92
200.157	-16.73
200.376	40.62
200.595	-31.06
200.814	93.87
201.033	54.95
201.252	13.99
201.471	16.04
201.69	50.86
201.909	32.43
202.128	73.39
202.347	87.72
202.566	40.62
202.785	28.33
203.004	18.09
203.223	52.91
203.442	30.38
203.661	-24.92
203.879	-33.11
204.098	13.99
204.317	-29.01
204.536	16.04
204.755	44.71
204.974	67.24
205.193	3.75
205.411	22.19
205.63	40.62
205.849	11.95
206.068	-88.4
206.287	-37.2
206.505	87.72
206.724	-16.73
206.943	-45.4
207.162	-12.63
207.381	20.14
207.599	13.99
207.818	50.86
208.037	-31.06
208.255	-26.96
208.474	-20.82
208.693	38.57
208.911	-10.58
209.13	11.95
209.349	91.82
209.567	-26.96
209.786	50.86
210.005	18.09
210.223	-4.44
210.442	3.75
210.661	-16.73
210.879	1.71
211.098	5.8
211.316	18.09
211.535	61.1
211.753	1.71
211.972	1.71
212.191	32.43
212.409	9.9
212.628	40.62
212.846	-26.96
213.065	-0.34
213.283	-29.01
213.502	-51.54
213.72	-14.68
213.938	22.19
214.157	30.38
214.375	57
214.594	-18.77
214.812	-10.58
215.031	-49.49
215.249	9.9
215.467	-63.83
215.686	16.04
215.904	89.77
216.122	28.33
216.341	75.43
216.559	13.99
216.778	63.15
216.996	28.33
217.214	1.71
217.432	24.23
217.651	-18.77
217.869	73.39
218.087	-4.44
218.306	-22.87
218.524	3.75
218.742	24.23
218.96	67.24
219.179	26.28
219.397	-31.06
219.615	59.05
219.833	20.14
220.051	-63.83
220.27	75.43
220.488	-47.44
220.706	-4.44
220.924	-4.44
221.142	-6.49
221.36	-16.73
221.578	50.86
221.796	-16.73
222.015	24.23
222.233	18.09
222.451	38.57
222.669	-31.06
222.887	30.38
223.105	16.04
223.323	40.62
223.541	3.75
223.759	1.71
223.977	-47.44
224.195	-2.39
224.413	3.75
224.631	52.91
224.849	38.57
225.067	186.02
225.285	-47.44
225.503	22.19
225.721	-78.16
225.939	7.85
226.157	11.95
226.375	95.91
226.592	-2.39
226.81	42.67
227.028	20.14
227.246	-0.34
227.464	59.05
227.682	69.29
227.9	28.33
228.117	-4.44
228.335	44.71
228.553	59.05
228.771	65.19
228.989	63.15
229.206	57
229.424	3.75
229.642	-24.92
229.86	-37.2
230.077	44.71
230.295	9.9
230.513	28.33
230.731	-22.87
230.948	13.99
231.166	69.29
231.384	3.75
231.601	-31.06
231.819	36.52
232.037	-29.01
232.254	-49.49
232.472	22.19
232.689	-26.96
232.907	-24.92
233.125	-29.01
233.342	13.99
233.56	40.62
233.777	-0.34
233.995	46.76
234.213	24.23
234.43	-6.49
234.648	48.81
234.865	57
235.083	30.38
235.3	24.23
235.518	44.71
235.735	61.1
235.953	67.24
236.17	-10.58
236.388	46.76
236.605	-10.58
236.822	91.82
237.04	34.47
237.257	28.33
237.475	32.43
237.692	48.81
237.909	81.58
238.127	-8.53
238.344	59.05
238.562	50.86
238.779	-12.63
238.996	-8.53
239.214	-33.11
239.431	11.95
239.648	13.99
239.865	44.71
240.083	30.38
240.3	54.95
240.517	28.33
240.735	5.8
240.952	73.39
241.169	63.15
241.386	-84.31
241.603	26.28
241.821	-86.36
242.038	46.76
242.255	24.23
242.472	-33.11
242.689	57
242.907	57
243.124	-16.73
243.341	-43.35
243.558	3.75
243.775	-51.54
243.992	-43.35
244.209	-67.92
244.426	118.44
244.643	18.09
244.86	9.9
245.078	79.53
245.295	50.86
245.512	1.71
245.729	36.52
245.946	59.05
246.163	97.96
246.38	5.8
246.597	38.57
246.814	69.29
247.031	44.71
247.248	24.23
247.464	-10.58
247.681	42.67
247.898	-24.92
248.115	18.09
248.332	-12.63
248.549	110.25
248.766	77.48
248.983	50.86
249.2	5.8
249.417	44.71
249.633	36.52
249.85	22.19
250.067	20.14
250.284	50.86
250.501	28.33
250.717	7.85
250.934	-4.44
251.151	9.9
251.368	-45.4
251.585	36.52
251.801	3.75
252.018	-49.49
252.235	-0.34
252.451	-14.68
252.668	16.04
252.885	26.28
253.102	-6.49
253.318	-4.44
253.535	-29.01
253.752	73.39
253.968	-31.06
254.185	-33.11
254.401	24.23
254.618	20.14
254.835	-8.53
255.051	-14.68
255.268	67.24
255.484	48.81
255.701	-6.49
255.917	1.71
256.134	-22.87
256.351	38.57
256.567	-10.58
256.784	-53.59
257	-80.21
257.217	71.34
257.433	7.85
257.65	3.75
257.866	18.09
258.082	-39.25
258.299	-63.83
258.515	63.15
258.732	-4.44
258.948	-37.2
259.165	-24.92
259.381	48.81
259.597	32.43
259.814	18.09
260.03	28.33
260.246	3.75
260.463	87.72
260.679	13.99
260.895	20.14
261.112	42.67
261.328	-0.34
261.544	20.14
261.761	108.2
261.977	69.29
262.193	-18.77
262.409	97.96
262.626	112.3
262.842	22.19
263.058	7.85
263.274	-0.34
263.49	18.09
263.707	50.86
263.923	81.58
264.139	1.71
264.355	-12.63
264.571	87.72
264.787	44.71
265.004	44.71
265.22	-20.82
265.436	9.9
265.652	28.33
265.868	57
266.084	13.99
266.3	77.48
266.516	-22.87
266.732	16.04
266.948	32.43
267.164	22.19
267.38	-47.44
267.596	54.95
267.812	61.1
268.028	1.71
268.244	-69.97
268.46	9.9
268.676	93.87
268.892	48.81
269.108	3.75
269.324	-94.55
269.54	-45.4
269.756	59.05
269.972	16.04
270.188	22.19
270.403	69.29
270.619	-37.2
270.835	38.57
271.051	38.57
271.267	28.33
271.483	7.85
271.698	50.86
271.914	-0.34
272.13	34.47
272.346	22.19
272.562	16.04
272.777	18.09
272.993	-16.73
273.209	48.81
273.425	85.67
273.64	-31.06
273.856	-0.34
274.072	-4.44
274.287	-61.78
274.503	108.2
274.719	20.14
274.934	3.75
275.15	-4.44
275.366	34.47
275.581	-41.3
275.797	46.76
276.012	57
276.228	-74.07
276.444	-18.77
276.659	75.43
276.875	57
277.09	11.95
277.306	-16.73
277.521	-16.73
277.737	50.86
277.952	42.67
278.168	26.28
278.383	-10.58
278.599	7.85
278.814	30.38
279.03	54.95
279.245	161.45
279.461	48.81
279.676	104.11
279.892	-20.82
280.107	-20.82
280.322	-45.4
280.538	36.52
280.753	38.57
280.969	77.48
281.184	-26.96
281.399	54.95
281.615	-6.49
281.83	36.52
282.045	-106.84
282.26	-4.44
282.476	3.75
282.691	65.19
282.906	46.76
283.122	-0.34
283.337	48.81
283.552	-6.49
283.767	24.23
283.983	71.34
284.198	-69.97
284.413	87.72
284.628	36.52
284.843	3.75
285.058	-18.77
285.274	13.99
285.489	20.14
285.704	85.67
285.919	-12.63
286.134	-12.63
286.349	-22.87
286.564	-22.87
286.779	112.3
286.995	-24.92
287.21	-12.63
287.425	-16.73
287.64	-16.73
287.855	-4.44
288.07	59.05
288.285	73.39
288.5	52.91
288.715	-4.44
288.93	46.76
289.145	26.28
289.36	69.29
289.575	22.19
289.79	57
290.004	3.75
290.219	-12.63
290.434	-6.49
290.649	-84.31
290.864	-20.82
291.079	40.62
291.294	28.33
291.509	7.85
291.724	-53.59
291.938	-65.88
292.153	48.81
292.368	-39.25
292.583	9.9
292.798	5.8
293.012	5.8
293.227	32.43
293.442	3.75
293.657	65.19
293.871	30.38
294.086	9.9
294.301	42.67
294.516	18.09
294.73	65.19
294.945	30.38
295.16	59.05
295.374	26.28
295.589	28.33
295.804	81.58
296.018	52.91
296.233	75.43
296.447	108.2
296.662	-6.49
296.877	9.9
297.091	73.39
297.306	5.8
297.52	22.19
297.735	-53.59
297.949	59.05
298.164	57
298.378	-8.53
298.593	-45.4
298.807	36.52
299.022	-69.97
299.236	73.39
299.451	38.57
299.665	32.43
299.88	-22.87
300.094	44.71
300.309	-45.4
300.523	46.76
300.737	7.85
300.952	-2.39
301.166	28.33
301.381	-63.83
301.595	26.28
301.809	13.99
302.024	48.81
302.238	-4.44
302.452	42.67
302.667	20.14
302.881	30.38
303.095	-8.53
303.309	81.58
303.524	36.52
303.738	11.95
303.952	-22.87
304.166	28.33
304.381	5.8
304.595	46.76
304.809	-10.58
305.023	22.19
305.237	44.71
305.452	3.75
305.666	11.95
305.88	59.05
306.094	26.28
306.308	44.71
306.522	5.8
306.736	52.91
306.95	38.57
307.164	-24.92
307.379	-35.16
307.593	83.63
307.807	32.43
308.021	9.9
308.235	-29.01
308.449	-2.39
308.663	-18.77
308.877	75.43
309.091	-29.01
309.305	11.95
309.519	-43.35
309.733	44.71
309.947	32.43
310.161	40.62
310.374	57
310.588	40.62
310.802	40.62
311.016	-61.78
311.23	13.99
311.444	-26.96
311.658	-37.2
311.872	65.19
312.085	81.58
312.299	61.1
312.513	48.81
312.727	54.95
312.941	32.43
313.154	-49.49
313.368	-20.82
313.582	-37.2
313.796	20.14
314.009	-35.16
314.223	54.95
314.437	9.9
314.651	32.43
314.864	-10.58
315.078	9.9
315.292	63.15
315.505	-53.59
315.719	65.19
315.933	-4.44
316.146	13.99
316.36	-26.96
316.573	9.9
316.787	-12.63
317.001	140.97
317.214	-2.39
317.428	85.67
317.641	83.63
317.855	20.14
318.068	97.96
318.282	-47.44
318.495	124.58
318.709	-2.39
318.922	-35.16
319.136	108.2
319.349	61.1
319.563	11.95
319.776	69.29
319.99	57
320.203	65.19
320.417	-24.92
320.63	46.76
320.843	93.87
321.057	65.19
321.27	-12.63
321.483	69.29
321.697	114.34
321.91	26.28
322.124	24.23
322.337	11.95
322.55	-47.44
322.763	26.28
322.977	34.47
323.19	13.99
323.403	-6.49
323.617	26.28
323.83	50.86
324.043	-8.53
324.256	26.28
324.469	81.58
324.683	13.99
324.896	48.81
325.109	-12.63
325.322	-35.16
325.535	77.48
325.748	32.43
325.962	-22.87
326.175	22.19
326.388	-14.68
326.601	-12.63
326.814	32.43
327.027	3.75
327.24	79.53
327.453	-10.58
327.666	28.33
327.879	48.81
328.092	50.86
328.305	24.23
328.518	34.47
328.731	-8.53
328.944	54.95
329.157	-6.49
329.37	-26.96
329.583	26.28
329.796	20.14
330.009	-63.83
330.222	54.95
330.435	46.76
330.648	-37.2
330.861	1.71
331.073	73.39
331.286	-22.87
331.499	9.9
331.712	7.85
331.925	20.14
332.138	-12.63
332.35	83.63
332.563	-6.49
332.776	48.81
332.989	-18.77
333.202	18.09
333.414	9.9
333.627	73.39
333.84	-8.53
334.053	59.05
334.265	7.85
334.478	-6.49
334.691	38.57
334.903	81.58
335.116	9.9
335.329	42.67
335.541	-16.73
335.754	120.49
335.966	-45.4
336.179	-14.68
336.392	28.33
336.604	50.86
336.817	5.8
337.029	42.67
337.242	28.33
337.454	-20.82
337.667	-35.16
337.88	-2.39
338.092	32.43
338.305	65.19
338.517	-39.25
338.729	18.09
338.942	-18.77
339.154	11.95
339.367	-49.49
339.579	52.91
339.792	20.14
340.004	65.19
340.217	16.04
340.429	22.19
340.641	-39.25
340.854	3.75
341.066	9.9
341.278	128.68
341.491	79.53
341.703	20.14
341.915	-63.83
342.128	26.28
342.34	-14.68
342.552	13.99
342.764	32.43
342.977	13.99
343.189	102.06
343.401	34.47
343.613	-61.78
343.826	9.9
344.038	-31.06
344.25	-24.92
344.462	44.71
344.674	30.38
344.886	-12.63
345.099	5.8
345.311	61.1
345.523	-0.34
345.735	-33.11
345.947	11.95
346.159	1.71
346.371	44.71
346.583	-8.53
346.795	102.06
347.007	30.38
347.219	13.99
347.431	-24.92
347.643	102.06
347.855	38.57
348.067	48.81
348.279	20.14
348.491	38.57
348.703	36.52
348.915	32.43
349.127	28.33
349.339	-16.73
349.551	-6.49
349.763	63.15
349.975	-33.11
350.187	69.29
350.399	50.86
350.61	75.43
350.822	28.33
351.034	-24.92
351.246	26.28
351.458	75.43
351.669	75.43
351.881	-16.73
352.093	81.58
352.305	44.71
352.517	87.72
352.728	22.19
352.94	44.71
353.152	59.05
353.363	24.23
353.575	46.76
353.787	126.63
353.999	69.29
354.21	38.57
354.422	32.43
354.633	67.24
354.845	7.85
355.057	36.52
355.268	48.81
355.48	24.23
355.692	73.39
355.903	-10.58
356.115	34.47
356.326	-49.49
356.538	-22.87
356.749	48.81
356.961	26.28
357.172	20.14
357.384	16.04
357.595	67.24
357.807	46.76
358.018	-16.73
358.23	44.71
358.441	36.52
358.653	11.95
358.864	42.67
359.075	-53.59
359.287	-0.34
359.498	46.76
359.709	26.28
359.921	16.04
360.132	65.19
360.344	-20.82
360.555	13.99
360.766	7.85
360.977	48.81
361.189	40.62
361.4	65.19
361.611	-6.49
361.823	73.39
362.034	26.28
362.245	-24.92
362.456	-41.3
362.667	20.14
362.879	75.43
363.09	-29.01
363.301	28.33
363.512	-39.25
363.723	-39.25
363.935	-16.73
364.146	75.43
364.357	52.91
364.568	-6.49
364.779	54.95
364.99	116.39
365.201	-4.44
365.412	59.05
365.623	-59.73
365.834	30.38
366.045	71.34
366.256	28.33
366.467	11.95
366.678	-10.58
366.889	26.28
367.1	11.95
367.311	13.99
367.522	85.67
367.733	13.99
367.944	63.15
368.155	-31.06
368.366	26.28
368.577	-14.68
368.788	38.57
368.999	-22.87
369.209	44.71
369.42	81.58
369.631	116.39
369.842	46.76
370.053	1.71
370.264	48.81
370.474	9.9
370.685	61.1
370.896	28.33
371.107	18.09
371.317	126.63
371.528	-33.11
371.739	87.72
371.95	-2.39
372.16	-6.49
372.371	-0.34
372.582	52.91
372.792	79.53
373.003	46.76
373.214	5.8
373.424	9.9
373.635	-61.78
373.846	42.67
374.056	46.76
374.267	42.67
374.477	-47.44
374.688	22.19
374.898	48.81
375.109	20.14
375.319	9.9
375.53	79.53
375.74	16.04
375.951	24.23
376.161	13.99
376.372	1.71
376.582	36.52
376.793	11.95
377.003	54.95
377.214	52.91
377.424	57
377.635	-6.49
377.845	44.71
378.055	13.99
378.266	40.62
378.476	22.19
378.686	30.38
378.897	-10.58
379.107	34.47
379.317	28.33
379.528	-29.01
379.738	57
379.948	-8.53
380.158	-16.73
380.369	20.14
380.579	34.47
380.789	-31.06
380.999	34.47
381.21	87.72
381.42	102.06
381.63	9.9
381.84	65.19
382.05	85.67
382.261	52.91
382.471	54.95
382.681	48.81
382.891	67.24
383.101	71.34
383.311	-20.82
383.521	-8.53
383.731	122.54
383.941	52.91
384.151	13.99
384.361	-51.54
384.571	50.86
384.781	24.23
384.991	79.53
385.201	48.81
385.411	97.96
385.621	91.82
385.831	11.95
386.041	20.14
386.251	-0.34
386.461	91.82
386.671	63.15
386.881	65.19
387.091	-8.53
387.301	46.76
387.511	28.33
387.72	147.11
387.93	-0.34
388.14	20.14
388.35	61.1
388.56	65.19
388.769	28.33
388.979	52.91
389.189	24.23
389.399	18.09
389.609	46.76
389.818	20.14
390.028	61.1
390.238	44.71
390.447	-18.77
390.657	69.29
390.867	50.86
391.076	20.14
391.286	59.05
391.496	22.19
391.705	46.76
391.915	34.47
392.125	36.52
392.334	54.95
392.544	93.87
392.753	46.76
392.963	28.33
393.172	54.95
393.382	32.43
393.591	69.29
393.801	77.48
394.01	36.52
394.22	50.86
394.429	20.14
394.639	57
394.848	46.76
395.058	91.82
395.267	50.86
395.477	24.23
395.686	71.34
395.895	120.49
396.105	100.01
396.314	75.43
396.524	20.14
396.733	75.43
396.942	102.06
397.152	13.99
397.361	132.78
397.57	11.95
397.78	83.63
397.989	114.34
398.198	50.86
398.407	48.81
398.617	13.99
398.826	97.96
399.035	124.58
399.244	73.39
399.453	-35.16
399.663	100.01
399.872	100.01
400.081	16.04
400.29	93.87
400.499	13.99
400.708	116.39
400.917	50.86
401.127	77.48
401.336	52.91
401.545	124.58
401.754	132.78
401.963	145.06
402.172	63.15
402.381	81.58
402.59	30.38
402.799	52.91
403.008	138.92
403.217	-29.01
403.426	155.3
403.635	26.28
403.844	26.28
404.053	52.91
404.262	97.96
404.471	110.25
404.68	50.86
404.888	163.5
405.097	136.87
405.306	91.82
405.515	126.63
405.724	118.44
405.933	151.21
406.142	149.16
406.35	161.45
406.559	122.54
406.768	91.82
406.977	159.4
407.185	151.21
407.394	171.69
407.603	120.49
407.812	104.11
408.02	186.02
408.229	102.06
408.438	186.02
408.646	63.15
408.855	116.39
409.064	85.67
409.272	181.93
409.481	183.98
409.69	183.98
409.898	165.54
410.107	241.32
410.315	194.22
410.524	108.2
410.733	239.27
410.941	163.5
411.15	241.32
411.358	296.61
411.567	272.04
411.775	282.28
411.984	308.9
412.192	235.18
412.401	216.74
412.609	315.05
412.818	388.77
413.026	419.49
413.234	380.58
413.443	347.81
413.651	335.53
413.86	323.24
414.068	403.11
414.276	366.25
414.485	335.53
414.693	425.64
414.901	435.88
415.11	409.25
415.318	439.97
415.526	466.6
415.734	521.89
415.943	564.9
416.151	620.19
416.359	491.17
416.567	585.38
416.776	589.47
416.984	626.34
417.192	663.2
417.4	591.52
417.608	646.82
417.817	689.82
418.025	687.78
418.233	753.31
418.441	736.93
418.649	755.36
418.857	763.55
419.065	855.71
419.273	798.37
419.481	788.13
419.689	935.58
419.897	974.49
420.105	970.4
420.313	1091.23
420.521	1105.56
420.729	1177.24
420.937	988.83
421.145	1105.56
421.353	1160.86
421.561	1236.63
421.769	1240.73
421.977	1314.45
422.185	1394.33
422.393	1369.75
422.601	1463.96
422.809	1494.68
423.017	1531.54
423.224	1472.15
423.432	1635.99
423.64	1562.26
423.848	1818.25
424.056	1742.48
424.263	1896.08
424.471	1920.65
424.679	1867.41
424.887	2010.76
425.094	2141.83
425.302	2139.79
425.51	2176.65
425.718	2219.66
425.925	2305.67
426.133	2317.96
426.341	2414.21
426.548	2561.67
426.756	2477.7
426.964	2494.08
427.171	2799.23
427.379	2879.1
427.586	2936.45
427.794	3036.8
428.001	3112.57
428.209	3266.17
428.417	3241.59
428.624	3460.73
428.832	3436.15
429.039	3360.38
429.247	3532.4
429.454	3722.87
429.662	3851.89
429.869	3604.08
430.076	4019.82
430.284	3772.02
430.491	4011.63
430.699	4171.37
430.906	4331.11
431.114	4314.73
431.321	4449.89
431.528	4574.82
431.736	4757.09
431.943	5064.29
432.15	4906.59
432.358	4910.69
432.565	5328.47
432.772	5326.43
432.979	5449.3
433.187	5492.31
433.394	5725.78
433.601	5875.28
433.808	6069.84
434.016	5989.97
434.223	6223.44
434.43	6762.05
434.637	6569.54
434.844	6995.52
435.052	7093.82
435.259	7054.91
435.466	7108.16
435.673	7034.43
435.88	7487.03
436.087	7722.55
436.294	7865.91
436.501	7644.73
436.708	7740.98
436.915	8097.33
437.122	8594.98
437.329	8529.45
437.537	8818.21
437.743	8740.39
437.95	8865.32
438.157	9391.64
438.364	9539.1
438.571	9383.45
438.778	9823.76
438.985	10460.68
439.192	10116.62
439.399	10456.59
439.606	10343.95
439.813	10952.2
440.02	11458.04
440.227	11427.32
440.433	11132.42
440.64	11652.6
440.847	11533.82
441.054	11806.2
441.261	12240.37
441.467	12336.62
441.674	12764.65
441.881	13043.17
442.088	13043.17
442.294	12981.73
442.501	13340.13
442.708	13639.13
442.914	14056.92
443.121	14570.96
443.328	14312.91
443.534	15257.03
443.741	14824.9
443.948	14837.19
444.154	15584.7
444.361	15769.02
444.568	15865.27
444.774	15748.54
444.981	15949.24
445.187	16768.43
445.394	17276.32
445.6	17110.44
445.807	18601.36
446.013	17690.01
446.22	18079.13
446.426	18976.14
446.633	18976.14
446.839	19709.31
447.046	18931.08
447.252	19766.65
447.459	19821.95
447.665	20168.05
447.871	20960.62
448.078	21742.94
448.284	20845.93
448.491	21091.69
448.697	21923.16
448.903	22412.63
449.11	22361.43
449.316	22310.23
449.522	22740.3
449.728	23078.22
449.935	23483.72
450.141	23430.47
450.347	23631.17
450.553	23151.95
450.76	23403.85
450.966	24030.52
451.172	23586.11
451.378	24538.42
451.584	24149.31
451.791	24606
451.997	24567.09
452.203	25085.23
452.409	24737.07
452.615	24511.8
452.821	23846.21
453.027	23467.33
453.233	25025.84
453.44	23954.75
453.646	23967.04
453.852	24257.85
454.058	24585.52
454.264	23967.04
454.47	24415.54
454.676	23745.86
454.882	24792.37
455.088	22627.67
455.294	23041.36
455.5	23043.4
455.705	23252.3
455.911	22220.12
456.117	22009.18
456.323	21788
456.529	20477.3
456.735	21224.81
456.941	20694.38
457.147	20376.95
457.352	19770.75
457.558	19383.68
457.764	19682.69
457.97	19164.55
458.176	18681.23
458.381	18709.9
458.587	17712.54
458.793	17857.95
458.999	17036.71
459.204	18171.29
459.41	17593.76
459.616	16371.12
459.821	16352.69
460.027	16412.08
460.233	16006.58
460.438	15224.26
460.644	15500.73
460.85	14812.62
461.055	14312.91
461.261	14314.96
461.466	13368.8
461.672	12748.26
461.878	13845.98
462.083	12824.04
462.289	12678.63
462.494	12766.7
462.7	12133.87
462.905	11613.69
463.111	12119.54
463.316	12109.3
463.522	11951.6
463.727	12049.91
463.932	11906.55
464.138	11785.72
464.343	11765.24
464.549	11488.76
464.754	11808.25
464.959	11724.28
465.165	11544.06
465.37	11234.82
465.575	11144.7
465.781	11470.33
465.986	11212.29
466.191	11023.87
466.397	10763.78
466.602	10190.35
466.807	10563.08
467.012	10710.54
467.218	10620.42
467.423	10593.8
467.628	10577.42
467.833	10999.3
468.038	10489.35
