Data from USB4F104151__34__12-23-47-470.txt Node

Date: Fri Mar 14 12:23:47 EDT 2025
User: louis
Spectrometer: USB4F10415
Trigger mode: 4
Integration Time (sec): 3.500000E-2
Scans to average: 1
Electric dark correction enabled: true
Nonlinearity correction enabled: false
Boxcar width: 0
XAxis mode: Wavelengths
Number of Pixels in Spectrum: 3648
>>>>>Begin Spectral Data<<<<<
178.204	-165.03
178.424	-165.03
178.644	-165.03
178.864	-146.6
179.084	-42.15
179.304	-11.43
179.524	-9.39
179.744	2.9
179.964	66.39
180.184	0.85
180.404	47.96
180.624	-31.91
180.844	-46.25
181.064	-83.11
181.283	23.38
181.503	15.19
181.723	25.43
181.943	-23.72
182.163	29.52
182.383	-19.63
182.602	-31.91
182.822	86.87
183.042	9.05
183.262	-23.72
183.482	90.96
183.701	27.48
183.921	27.48
184.141	-5.29
184.361	88.92
184.58	60.24
184.8	117.59
185.02	-19.63
185.239	80.72
185.459	80.72
185.679	56.15
185.898	4.95
186.118	45.91
186.338	52.05
186.557	80.72
186.777	-17.58
186.997	2.9
187.216	-19.63
187.436	123.73
187.655	19.29
187.875	113.49
188.095	-7.34
188.314	86.87
188.534	101.2
188.753	27.48
188.973	41.81
189.192	123.73
189.412	-5.29
189.631	86.87
189.851	47.96
190.07	50
190.29	-58.54
190.509	80.72
190.729	-11.43
190.948	68.44
191.168	133.97
191.387	70.48
191.607	-31.91
191.826	39.76
192.045	13.14
192.265	39.76
192.484	62.29
192.704	39.76
192.923	-64.68
193.142	62.29
193.362	56.15
193.581	43.86
193.8	170.83
194.02	103.25
194.239	45.91
194.458	41.81
194.678	27.48
194.897	70.48
195.116	45.91
195.335	74.58
195.555	31.57
195.774	45.91
195.993	-3.24
196.212	35.67
196.432	-54.44
196.651	25.43
196.87	45.91
197.089	129.88
197.308	138.07
197.528	121.68
197.747	-29.87
197.966	25.43
198.185	95.06
198.404	47.96
198.623	66.39
198.842	50
199.062	107.35
199.281	70.48
199.5	35.67
199.719	-3.24
199.938	2.9
200.157	115.54
200.376	13.14
200.595	15.19
200.814	86.87
201.033	17.24
201.252	29.52
201.471	54.1
201.69	64.34
201.909	52.05
202.128	78.68
202.347	43.86
202.566	17.24
202.785	9.05
203.004	68.44
203.223	11.09
203.442	166.74
203.661	90.96
203.879	9.05
204.098	31.57
204.317	29.52
204.536	27.48
204.755	107.35
204.974	39.76
205.193	-5.29
205.411	119.64
205.63	86.87
205.849	93.01
206.068	4.95
206.287	4.95
206.505	47.96
206.724	-19.63
206.943	74.58
207.162	13.14
207.381	2.9
207.599	27.48
207.818	17.24
208.037	11.09
208.255	64.34
208.474	72.53
208.693	113.49
208.911	45.91
209.13	95.06
209.349	11.09
209.567	-1.19
209.786	17.24
210.005	-15.53
210.223	27.48
210.442	-5.29
210.661	101.2
210.879	97.11
211.098	-54.44
211.316	68.44
211.535	95.06
211.753	80.72
211.972	11.09
212.191	37.72
212.409	-58.54
212.628	121.68
212.846	17.24
213.065	11.09
213.283	88.92
213.502	-48.3
213.72	35.67
213.938	15.19
214.157	66.39
214.375	15.19
214.594	9.05
214.812	-33.96
215.031	13.14
215.249	33.62
215.467	-36.01
215.686	27.48
215.904	80.72
216.122	33.62
216.341	99.16
216.559	11.09
216.778	113.49
216.996	90.96
217.214	11.09
217.432	2.9
217.651	37.72
217.869	-1.19
218.087	78.68
218.306	2.9
218.524	31.57
218.742	-56.49
218.96	138.07
219.179	35.67
219.397	-9.39
219.615	119.64
219.833	23.38
220.051	70.48
220.27	58.2
220.488	19.29
220.706	37.72
220.924	2.9
221.142	84.82
221.36	9.05
221.578	-44.2
221.796	7
222.015	35.67
222.233	23.38
222.451	60.24
222.669	9.05
222.887	27.48
223.105	90.96
223.323	4.95
223.541	0.85
223.759	107.35
223.977	4.95
224.195	115.54
224.413	76.63
224.631	27.48
224.849	-11.43
225.067	123.73
225.285	11.09
225.503	60.24
225.721	-9.39
225.939	60.24
226.157	-40.11
226.375	133.97
226.592	-17.58
226.81	29.52
227.028	117.59
227.246	179.03
227.464	27.48
227.682	-3.24
227.9	74.58
228.117	4.95
228.335	84.82
228.553	-13.48
228.771	58.2
228.989	56.15
229.206	17.24
229.424	41.81
229.642	-7.34
229.86	-46.25
230.077	13.14
230.295	13.14
230.513	78.68
230.731	33.62
230.948	62.29
231.166	95.06
231.384	60.24
231.601	-11.43
231.819	19.29
232.037	31.57
232.254	-25.77
232.472	-11.43
232.689	50
232.907	68.44
233.125	60.24
233.342	47.96
233.56	37.72
233.777	29.52
233.995	29.52
234.213	66.39
234.43	45.91
234.648	25.43
234.865	31.57
235.083	97.11
235.3	23.38
235.518	54.1
235.735	95.06
235.953	84.82
236.17	-27.82
236.388	-23.72
236.605	80.72
236.822	103.25
237.04	84.82
237.257	-36.01
237.475	-25.77
237.692	-7.34
237.909	47.96
238.127	7
238.344	140.12
238.562	39.76
238.779	15.19
238.996	-15.53
239.214	47.96
239.431	76.63
239.648	-27.82
239.865	80.72
240.083	105.3
240.3	-15.53
240.517	-17.58
240.735	56.15
240.952	15.19
241.169	129.88
241.386	76.63
241.603	74.58
241.821	-1.19
242.038	62.29
242.255	23.38
242.472	7
242.689	140.12
242.907	54.1
243.124	-15.53
243.341	66.39
243.558	-9.39
243.775	37.72
243.992	13.14
244.209	4.95
244.426	142.16
244.643	56.15
244.86	88.92
245.078	17.24
245.295	25.43
245.512	45.91
245.729	76.63
245.946	93.01
246.163	47.96
246.38	62.29
246.597	37.72
246.814	-23.72
247.031	7
247.248	115.54
247.464	41.81
247.681	72.53
247.898	50
248.115	62.29
248.332	45.91
248.549	50
248.766	88.92
248.983	43.86
249.2	-11.43
249.417	27.48
249.633	21.33
249.85	82.77
250.067	33.62
250.284	-9.39
250.501	0.85
250.717	58.2
250.934	9.05
251.151	50
251.368	13.14
251.585	19.29
251.801	-3.24
252.018	-44.2
252.235	54.1
252.451	-7.34
252.668	-15.53
252.885	70.48
253.102	82.77
253.318	7
253.535	-46.25
253.752	-5.29
253.968	68.44
254.185	-19.63
254.401	15.19
254.618	-52.39
254.835	-9.39
255.051	84.82
255.268	76.63
255.484	19.29
255.701	47.96
255.917	127.83
256.134	-31.91
256.351	95.06
256.567	-23.72
256.784	-7.34
257	15.19
257.217	58.2
257.433	86.87
257.65	-44.2
257.866	60.24
258.082	-21.67
258.299	-19.63
258.515	15.19
258.732	11.09
258.948	82.77
259.165	93.01
259.381	-21.67
259.597	17.24
259.814	25.43
260.03	109.4
260.246	-31.91
260.463	105.3
260.679	72.53
260.895	41.81
261.112	66.39
261.328	4.95
261.544	-9.39
261.761	117.59
261.977	-36.01
262.193	56.15
262.409	136.02
262.626	50
262.842	29.52
263.058	82.77
263.274	136.02
263.49	68.44
263.707	39.76
263.923	25.43
264.139	37.72
264.355	56.15
264.571	60.24
264.787	60.24
265.004	39.76
265.22	19.29
265.436	-7.34
265.652	-3.24
265.868	80.72
266.084	43.86
266.3	43.86
266.516	11.09
266.732	-70.83
266.948	39.76
267.164	97.11
267.38	103.25
267.596	41.81
267.812	35.67
268.028	31.57
268.244	56.15
268.46	35.67
268.676	25.43
268.892	9.05
269.108	-48.3
269.324	39.76
269.54	74.58
269.756	58.2
269.972	-33.96
270.188	117.59
270.403	37.72
270.619	33.62
270.835	76.63
271.051	52.05
271.267	39.76
271.483	21.33
271.698	35.67
271.914	4.95
272.13	50
272.346	41.81
272.562	41.81
272.777	93.01
272.993	66.39
273.209	33.62
273.425	62.29
273.64	58.2
273.856	37.72
274.072	58.2
274.287	54.1
274.503	13.14
274.719	76.63
274.934	9.05
275.15	-70.83
275.366	99.16
275.581	29.52
275.797	17.24
276.012	103.25
276.228	27.48
276.444	41.81
276.659	56.15
276.875	-38.06
277.09	35.67
277.306	29.52
277.521	60.24
277.737	31.57
277.952	127.83
278.168	9.05
278.383	27.48
278.599	90.96
278.814	-36.01
279.03	105.3
279.245	56.15
279.461	-1.19
279.676	62.29
279.892	-25.77
280.107	54.1
280.322	58.2
280.538	80.72
280.753	-7.34
280.969	86.87
281.184	88.92
281.399	88.92
281.615	41.81
281.83	58.2
282.045	-21.67
282.26	84.82
282.476	70.48
282.691	31.57
282.906	-40.11
283.122	9.05
283.337	7
283.552	23.38
283.767	70.48
283.983	117.59
284.198	93.01
284.413	86.87
284.628	45.91
284.843	41.81
285.058	62.29
285.274	2.9
285.489	-9.39
285.704	15.19
285.919	29.52
286.134	58.2
286.349	68.44
286.564	19.29
286.779	84.82
286.995	76.63
287.21	4.95
287.425	54.1
287.64	-29.87
287.855	29.52
288.07	43.86
288.285	58.2
288.5	4.95
288.715	29.52
288.93	-5.29
289.145	39.76
289.36	35.67
289.575	-15.53
289.79	66.39
290.004	-19.63
290.219	39.76
290.434	21.33
290.649	62.29
290.864	119.64
291.079	33.62
291.294	-1.19
291.509	60.24
291.724	74.58
291.938	56.15
292.153	21.33
292.368	43.86
292.583	31.57
292.798	84.82
293.012	41.81
293.227	60.24
293.442	27.48
293.657	97.11
293.871	58.2
294.086	47.96
294.301	105.3
294.516	68.44
294.73	27.48
294.945	11.09
295.16	-79.02
295.374	113.49
295.589	29.52
295.804	-9.39
296.018	115.54
296.233	105.3
296.447	58.2
296.662	-60.59
296.877	148.31
297.091	74.58
297.306	86.87
297.52	35.67
297.735	80.72
297.949	45.91
298.164	70.48
298.378	45.91
298.593	9.05
298.807	19.29
299.022	58.2
299.236	146.26
299.451	39.76
299.665	25.43
299.88	-44.2
300.094	13.14
300.309	68.44
300.523	29.52
300.737	-48.3
300.952	-25.77
301.166	68.44
301.381	47.96
301.595	35.67
301.809	64.34
302.024	-9.39
302.238	-7.34
302.452	90.96
302.667	37.72
302.881	11.09
303.095	97.11
303.309	-21.67
303.524	-3.24
303.738	25.43
303.952	90.96
304.166	80.72
304.381	-9.39
304.595	27.48
304.809	23.38
305.023	50
305.237	58.2
305.452	54.1
305.666	103.25
305.88	9.05
306.094	43.86
306.308	68.44
306.522	2.9
306.736	58.2
306.95	0.85
307.164	-93.35
307.379	37.72
307.593	37.72
307.807	0.85
308.021	84.82
308.235	7
308.449	-44.2
308.663	9.05
308.877	101.2
309.091	-31.91
309.305	60.24
309.519	-21.67
309.733	125.78
309.947	-13.48
310.161	-13.48
310.374	33.62
310.588	78.68
310.802	2.9
311.016	82.77
311.23	64.34
311.444	33.62
311.658	50
311.872	23.38
312.085	86.87
312.299	76.63
312.513	41.81
312.727	-5.29
312.941	-31.91
313.154	119.64
313.368	68.44
313.582	103.25
313.796	39.76
314.009	43.86
314.223	45.91
314.437	84.82
314.651	2.9
314.864	39.76
315.078	68.44
315.292	25.43
315.505	129.88
315.719	99.16
315.933	17.24
316.146	47.96
316.36	62.29
316.573	70.48
316.787	86.87
317.001	80.72
317.214	25.43
317.428	82.77
317.641	11.09
317.855	37.72
318.068	60.24
318.282	74.58
318.495	131.92
318.709	21.33
318.922	29.52
319.136	117.59
319.349	39.76
319.563	117.59
319.776	111.44
319.99	37.72
320.203	47.96
320.417	11.09
320.63	90.96
320.843	140.12
321.057	125.78
321.27	70.48
321.483	78.68
321.697	72.53
321.91	17.24
322.124	66.39
322.337	70.48
322.55	-27.82
322.763	0.85
322.977	-17.58
323.19	9.05
323.403	78.68
323.617	101.2
323.83	123.73
324.043	-1.19
324.256	41.81
324.469	70.48
324.683	11.09
324.896	66.39
325.109	-9.39
325.322	-44.2
325.535	58.2
325.748	82.77
325.962	29.52
326.175	29.52
326.388	31.57
326.601	72.53
326.814	56.15
327.027	76.63
327.24	113.49
327.453	-48.3
327.666	54.1
327.879	23.38
328.092	52.05
328.305	33.62
328.518	21.33
328.731	-1.19
328.944	39.76
329.157	74.58
329.37	-3.24
329.583	115.54
329.796	31.57
330.009	-1.19
330.222	50
330.435	52.05
330.648	-33.96
330.861	31.57
331.073	97.11
331.286	117.59
331.499	133.97
331.712	-9.39
331.925	19.29
332.138	105.3
332.35	15.19
332.563	-11.43
332.776	101.2
332.989	33.62
333.202	9.05
333.414	-11.43
333.627	105.3
333.84	7
334.053	64.34
334.265	93.01
334.478	21.33
334.691	19.29
334.903	15.19
335.116	86.87
335.329	-11.43
335.541	11.09
335.754	119.64
335.966	50
336.179	60.24
336.392	25.43
336.604	35.67
336.817	84.82
337.029	115.54
337.242	54.1
337.454	19.29
337.667	27.48
337.88	109.4
338.092	76.63
338.305	21.33
338.517	15.19
338.729	33.62
338.942	181.07
339.154	-29.87
339.367	-83.11
339.579	90.96
339.792	-54.44
340.004	43.86
340.217	43.86
340.429	23.38
340.641	0.85
340.854	72.53
341.066	41.81
341.278	7
341.491	105.3
341.703	156.5
341.915	-9.39
342.128	37.72
342.34	39.76
342.552	-36.01
342.764	80.72
342.977	-29.87
343.189	97.11
343.401	80.72
343.613	13.14
343.826	-15.53
344.038	-13.48
344.25	43.86
344.462	70.48
344.674	78.68
344.886	72.53
345.099	50
345.311	101.2
345.523	62.29
345.735	11.09
345.947	90.96
346.159	21.33
346.371	109.4
346.583	11.09
346.795	88.92
347.007	2.9
347.219	41.81
347.431	19.29
347.643	99.16
347.855	78.68
348.067	185.17
348.279	7
348.491	13.14
348.703	27.48
348.915	11.09
349.127	62.29
349.339	58.2
349.551	-9.39
349.763	78.68
349.975	72.53
350.187	70.48
350.399	52.05
350.61	43.86
350.822	37.72
351.034	31.57
351.246	68.44
351.458	31.57
351.669	27.48
351.881	129.88
352.093	107.35
352.305	107.35
352.517	70.48
352.728	33.62
352.94	19.29
353.152	119.64
353.363	-33.96
353.575	52.05
353.787	74.58
353.999	-3.24
354.21	82.77
354.422	7
354.633	-29.87
354.845	86.87
355.057	47.96
355.268	27.48
355.48	82.77
355.692	-1.19
355.903	13.14
356.115	2.9
356.326	-25.77
356.538	166.74
356.749	23.38
356.961	70.48
357.172	78.68
357.384	64.34
357.595	74.58
357.807	29.52
358.018	43.86
358.23	82.77
358.441	105.3
358.653	90.96
358.864	15.19
359.075	84.82
359.287	84.82
359.498	111.44
359.709	41.81
359.921	68.44
360.132	99.16
360.344	72.53
360.555	-7.34
360.766	105.3
360.977	-13.48
361.189	125.78
361.4	13.14
361.611	72.53
361.823	99.16
362.034	35.67
362.245	7
362.456	4.95
362.667	39.76
362.879	29.52
363.09	113.49
363.301	31.57
363.512	70.48
363.723	9.05
363.935	-48.3
364.146	82.77
364.357	7
364.568	74.58
364.779	60.24
364.99	115.54
365.201	35.67
365.412	66.39
365.623	52.05
365.834	15.19
366.045	113.49
366.256	84.82
366.467	37.72
366.678	31.57
366.889	56.15
367.1	13.14
367.311	82.77
367.522	-56.49
367.733	64.34
367.944	113.49
368.155	41.81
368.366	11.09
368.577	74.58
368.788	105.3
368.999	19.29
369.209	82.77
369.42	84.82
369.631	117.59
369.842	101.2
370.053	-11.43
370.264	121.68
370.474	68.44
370.685	133.97
370.896	9.05
371.107	90.96
371.317	39.76
371.528	62.29
371.739	64.34
371.95	37.72
372.16	111.44
372.371	27.48
372.582	23.38
372.792	113.49
373.003	19.29
373.214	88.92
373.424	35.67
373.635	33.62
373.846	115.54
374.056	56.15
374.267	101.2
374.477	99.16
374.688	31.57
374.898	37.72
375.109	25.43
375.319	95.06
375.53	88.92
375.74	21.33
375.951	45.91
376.161	54.1
376.372	43.86
376.582	47.96
376.793	43.86
377.003	19.29
377.214	25.43
377.424	117.59
377.635	29.52
377.845	0.85
378.055	97.11
378.266	23.38
378.476	56.15
378.686	66.39
378.897	29.52
379.107	131.92
379.317	9.05
379.528	39.76
379.738	105.3
379.948	47.96
380.158	93.01
380.369	33.62
380.579	37.72
380.789	72.53
380.999	99.16
381.21	90.96
381.42	93.01
381.63	15.19
381.84	21.33
382.05	-23.72
382.261	164.69
382.471	58.2
382.681	119.64
382.891	146.26
383.101	119.64
383.311	45.91
383.521	23.38
383.731	58.2
383.941	56.15
384.151	52.05
384.361	-3.24
384.571	129.88
384.781	11.09
384.991	248.66
385.201	107.35
385.411	95.06
385.621	103.25
385.831	58.2
386.041	45.91
386.251	29.52
386.461	78.68
386.671	60.24
386.881	76.63
387.091	97.11
387.301	107.35
387.511	88.92
387.72	62.29
387.93	86.87
388.14	35.67
388.35	-7.34
388.56	119.64
388.769	72.53
388.979	93.01
389.189	4.95
389.399	33.62
389.609	64.34
389.818	62.29
390.028	76.63
390.238	138.07
390.447	78.68
390.657	121.68
390.867	19.29
391.076	70.48
391.286	21.33
391.496	52.05
391.705	58.2
391.915	86.87
392.125	150.36
392.334	47.96
392.544	185.17
392.753	17.24
392.963	52.05
393.172	27.48
393.382	125.78
393.591	183.12
393.801	-7.34
394.01	97.11
394.22	144.21
394.429	93.01
394.639	88.92
394.848	111.44
395.058	131.92
395.267	88.92
395.477	113.49
395.686	68.44
395.895	115.54
396.105	82.77
396.314	56.15
396.524	76.63
396.733	125.78
396.942	105.3
397.152	95.06
397.361	140.12
397.57	144.21
397.78	21.33
397.989	68.44
398.198	224.08
398.407	142.16
398.617	115.54
398.826	-11.43
399.035	117.59
399.244	93.01
399.453	111.44
399.663	189.27
399.872	109.4
400.081	148.31
400.29	150.36
400.499	72.53
400.708	131.92
400.917	80.72
401.127	105.3
401.336	133.97
401.545	195.41
401.754	131.92
401.963	107.35
402.172	156.5
402.381	93.01
402.59	170.83
402.799	84.82
403.008	179.03
403.217	164.69
403.426	74.58
403.635	156.5
403.844	131.92
404.053	121.68
404.262	45.91
404.471	217.94
404.68	164.69
404.888	136.02
405.097	162.64
405.306	164.69
405.515	162.64
405.724	142.16
405.933	226.13
406.142	211.79
406.35	179.03
406.559	189.27
406.768	133.97
406.977	248.66
407.185	197.46
407.394	269.14
407.603	189.27
407.812	158.55
408.02	195.41
408.229	191.31
408.438	207.7
408.646	152.4
408.855	236.37
409.064	209.75
409.272	199.51
409.481	258.9
409.69	279.38
409.898	238.42
410.107	217.94
410.315	308.05
410.524	318.29
410.733	291.66
410.941	367.44
411.15	314.19
411.358	301.9
411.567	363.34
411.775	371.54
411.984	355.15
412.192	377.68
412.401	432.97
412.609	404.3
412.818	486.22
413.026	410.45
413.234	498.51
413.443	539.47
413.651	363.34
413.86	471.89
414.068	555.85
414.276	578.38
414.485	559.95
414.693	621.39
414.901	652.11
415.11	598.86
415.318	680.78
415.526	680.78
415.734	697.16
415.943	766.79
416.151	746.31
416.359	744.27
416.567	686.92
416.776	865.1
416.984	899.91
417.192	918.34
417.4	840.52
417.608	793.42
417.817	893.77
418.025	947.01
418.233	1051.46
418.441	977.73
418.649	1106.76
418.857	1147.72
419.065	1172.29
419.273	1176.39
419.481	1184.58
419.689	1233.73
419.897	1370.94
420.105	1321.79
420.313	1418.05
420.521	1436.48
420.729	1450.82
420.937	1581.89
421.145	1540.93
421.353	1749.82
421.561	1776.44
421.769	1639.23
421.977	1864.5
422.185	1743.67
422.393	1979.19
422.601	1993.53
422.809	2050.87
423.017	2018.1
423.224	2134.84
423.432	2265.91
423.64	2270
423.848	2501.42
424.056	2323.25
424.263	2593.58
424.471	2419.5
424.679	2644.78
424.887	2677.55
425.094	2788.14
425.302	2837.29
425.51	2994.98
425.718	2986.79
425.925	3013.42
426.133	3101.48
426.341	3298.08
426.548	3461.92
426.756	3392.29
426.964	3461.92
427.171	3695.39
427.379	3810.08
427.586	3838.75
427.794	3877.66
428.001	4127.51
428.209	4373.27
428.417	4360.98
428.624	4715.28
428.832	4643.6
429.039	4715.28
429.247	4580.11
429.454	4805.39
429.662	5321.48
429.869	4956.94
430.076	5470.98
430.284	5214.98
430.491	5458.69
430.699	5616.38
430.906	5683.97
431.114	5835.52
431.321	6081.27
431.528	6243.06
431.736	6421.24
431.943	6812.4
432.15	6798.06
432.358	6724.33
432.565	7082.73
432.772	6789.87
432.979	7430.88
433.187	7754.46
433.394	7650.02
433.601	8096.47
433.808	8000.22
434.016	8207.06
434.223	8200.92
434.43	8852.17
434.637	8567.51
434.844	9415.37
435.052	9732.8
435.259	9460.42
435.466	9452.23
435.673	9415.37
435.88	9949.89
436.087	10445.49
436.294	10699.44
436.501	10416.82
436.708	10650.29
436.915	10816.18
437.122	11348.65
437.329	11373.22
437.537	11901.6
437.743	12010.14
437.95	11881.12
438.157	12348.06
438.364	13032.08
438.571	12798.61
438.778	13011.6
438.985	14090.88
439.192	13779.59
439.399	13861.51
439.606	13695.62
439.813	14631.54
440.02	15708.77
440.227	15250.03
440.433	14983.79
440.64	15432.3
440.847	15274.6
441.054	15723.11
441.261	16902.74
441.467	16542.3
441.674	16953.94
441.881	17601.1
442.088	17480.27
442.294	17461.83
442.501	17703.5
442.708	18289.21
442.914	18735.67
443.121	19622.44
443.328	19204.66
443.534	20693.53
443.741	19939.88
443.948	19599.91
444.154	21045.78
444.361	20957.72
444.568	21240.34
444.774	21062.16
444.981	21586.44
445.187	22174.21
445.394	22999.54
445.6	22505.98
445.807	24986.07
446.013	23630.32
446.22	24267.24
446.426	25119.19
446.633	25237.97
446.839	26524.1
447.046	25326.03
447.252	26808.76
447.459	26522.05
447.665	26851.77
447.871	28086.7
448.078	29249.94
448.284	27431.35
448.491	28369.32
448.697	29358.49
448.903	30261.64
449.11	29985.16
449.316	29579.67
449.522	30220.68
449.728	30867.84
449.935	30912.89
450.141	30931.33
450.347	31799.66
450.553	30687.62
450.76	31070.59
450.966	32319.85
451.172	31746.42
451.378	32842.08
451.584	32086.38
451.791	32852.32
451.997	32565.6
452.203	33223
452.409	33337.69
452.615	33024.35
452.821	32065.9
453.027	31529.33
453.233	33220.95
453.44	31938.93
453.646	32043.37
453.852	32325.99
454.058	32840.03
454.264	31873.39
454.47	32668
454.676	31814
454.882	32956.77
455.088	30140.81
455.294	30388.61
455.5	30865.79
455.705	31103.35
455.911	29991.31
456.117	29579.67
456.323	29028.76
456.529	27201.97
456.735	28586.4
456.941	27810.22
457.147	27249.08
457.352	26542.53
457.558	26141.13
457.764	26614.21
457.97	25803.21
458.176	25194.96
458.381	24975.83
458.587	24009.19
458.793	23935.46
458.999	22716.92
459.204	24052.2
459.41	23828.97
459.616	21983.75
459.821	22123.01
460.027	22000.13
460.233	21508.62
460.438	20697.63
460.644	20750.87
460.85	19847.72
461.055	19274.29
461.261	19235.38
461.466	17994.31
461.672	17447.5
461.878	18459.2
462.083	17281.61
462.289	16896.6
462.494	16712.28
462.7	15983.2
462.905	15913.57
463.111	16329.31
463.316	16396.89
463.522	15911.52
463.727	16003.68
463.932	15696.49
464.138	15870.56
464.343	15839.84
464.549	15407.72
464.754	16046.69
464.959	15721.06
465.165	15622.76
465.37	14991.98
465.575	14490.23
465.781	15268.46
465.986	15182.45
466.191	14803.57
466.397	14375.55
466.602	13789.83
466.807	14144.13
467.012	14066.3
467.218	13922.94
467.423	14092.93
467.628	14297.72
467.833	14598.77
468.038	14234.24
