Data from USB4F104151__35__12-23-47-750.txt Node

Date: Fri Mar 14 12:23:47 EDT 2025
User: louis
Spectrometer: USB4F10415
Trigger mode: 4
Integration Time (sec): 3.500000E-2
Scans to average: 1
Electric dark correction enabled: true
Nonlinearity correction enabled: false
Boxcar width: 0
XAxis mode: Wavelengths
Number of Pixels in Spectrum: 3648
>>>>>Begin Spectral Data<<<<<
178.204	-92.84
178.424	-92.84
178.644	-92.84
178.864	-156.33
179.084	-141.99
179.304	40.28
179.524	19.8
179.744	-23.21
179.964	42.32
180.184	-25.26
180.404	-17.07
180.624	-8.87
180.844	-23.21
181.064	-8.87
181.283	21.84
181.503	7.51
181.723	-25.26
181.943	-29.35
182.163	66.9
182.383	-15.02
182.602	34.13
182.822	109.91
183.042	71
183.262	-4.78
183.482	-21.16
183.701	42.32
183.921	111.96
184.141	-35.5
184.361	36.18
184.58	15.7
184.8	-15.02
185.02	42.32
185.239	56.66
185.459	-6.83
185.679	101.72
185.898	3.41
186.118	62.8
186.338	81.24
186.557	118.1
186.777	-12.97
186.997	-49.83
187.216	-12.97
187.436	71
187.655	54.61
187.875	-31.4
188.095	46.42
188.314	23.89
188.534	23.89
188.753	-12.97
188.973	60.76
189.192	114
189.412	19.8
189.631	15.7
189.851	-10.92
190.07	-0.68
190.29	36.18
190.509	38.23
190.729	17.75
190.948	32.08
191.168	175.44
191.387	25.94
191.607	25.94
191.826	38.23
192.045	30.04
192.265	11.61
192.484	44.37
192.704	54.61
192.923	-17.07
193.142	111.96
193.362	42.32
193.581	109.91
193.8	1.37
194.02	3.41
194.239	-68.27
194.458	30.04
194.678	66.9
194.897	56.66
195.116	13.65
195.335	-31.4
195.555	42.32
195.774	66.9
195.993	71
196.212	13.65
196.432	-10.92
196.651	54.61
196.87	91.48
197.089	23.89
197.308	54.61
197.528	87.38
197.747	13.65
197.966	38.23
198.185	75.09
198.404	11.61
198.623	-8.87
198.842	46.42
199.062	9.56
199.281	52.56
199.5	-41.64
199.719	19.8
199.938	91.48
200.157	75.09
200.376	13.65
200.595	56.66
200.814	38.23
201.033	1.37
201.252	56.66
201.471	142.68
201.69	42.32
201.909	44.37
202.128	77.14
202.347	42.32
202.566	11.61
202.785	-23.21
203.004	60.76
203.223	126.29
203.442	30.04
203.661	9.56
203.879	36.18
204.098	99.67
204.317	19.8
204.536	19.8
204.755	-8.87
204.974	19.8
205.193	-21.16
205.411	107.86
205.63	120.15
205.849	3.41
206.068	-19.11
206.287	9.56
206.505	21.84
206.724	54.61
206.943	5.46
207.162	-74.41
207.381	32.08
207.599	-2.73
207.818	36.18
208.037	-8.87
208.255	42.32
208.474	-23.21
208.693	-8.87
208.911	1.37
209.13	73.04
209.349	56.66
209.567	68.95
209.786	9.56
210.005	73.04
210.223	52.56
210.442	-39.59
210.661	40.28
210.879	68.95
211.098	109.91
211.316	79.19
211.535	116.05
211.753	-27.31
211.972	-47.79
212.191	11.61
212.409	25.94
212.628	17.75
212.846	-31.4
213.065	56.66
213.283	44.37
213.502	17.75
213.72	34.13
213.938	89.43
214.157	7.51
214.375	27.99
214.594	66.9
214.812	-2.73
215.031	25.94
215.249	-35.5
215.467	38.23
215.686	40.28
215.904	83.28
216.122	30.04
216.341	48.47
216.559	17.75
216.778	62.8
216.996	77.14
217.214	-23.21
217.432	48.47
217.651	7.51
217.869	52.56
218.087	38.23
218.306	-39.59
218.524	83.28
218.742	56.66
218.96	44.37
219.179	-41.64
219.397	68.95
219.615	54.61
219.833	36.18
220.051	-33.45
220.27	36.18
220.488	75.09
220.706	-58.03
220.924	38.23
221.142	124.24
221.36	21.84
221.578	56.66
221.796	48.47
222.015	-29.35
222.233	-21.16
222.451	132.44
222.669	1.37
222.887	107.86
223.105	-23.21
223.323	-31.4
223.541	-37.55
223.759	19.8
223.977	138.58
224.195	-8.87
224.413	27.99
224.631	40.28
224.849	23.89
225.067	118.1
225.285	25.94
225.503	75.09
225.721	30.04
225.939	52.56
226.157	52.56
226.375	101.72
226.592	-23.21
226.81	13.65
227.028	58.71
227.246	81.24
227.464	54.61
227.682	85.33
227.9	111.96
228.117	73.04
228.335	44.37
228.553	15.7
228.771	64.85
228.989	38.23
229.206	77.14
229.424	44.37
229.642	-8.87
229.86	-10.92
230.077	77.14
230.295	97.62
230.513	77.14
230.731	77.14
230.948	62.8
231.166	34.13
231.384	-45.74
231.601	50.52
231.819	64.85
232.037	-41.64
232.254	27.99
232.472	132.44
232.689	32.08
232.907	-27.31
233.125	103.76
233.342	-8.87
233.56	83.28
233.777	52.56
233.995	-35.5
234.213	42.32
234.43	46.42
234.648	23.89
234.865	116.05
235.083	9.56
235.3	62.8
235.518	-37.55
235.735	34.13
235.953	25.94
236.17	23.89
236.388	-10.92
236.605	124.24
236.822	46.42
237.04	-35.5
237.257	-35.5
237.475	-12.97
237.692	73.04
237.909	42.32
238.127	73.04
238.344	-45.74
238.562	-19.11
238.779	-10.92
238.996	-29.35
239.214	7.51
239.431	50.52
239.648	-47.79
239.865	36.18
240.083	30.04
240.3	-17.07
240.517	-8.87
240.735	114
240.952	99.67
241.169	32.08
241.386	3.41
241.603	60.76
241.821	13.65
242.038	91.48
242.255	19.8
242.472	-31.4
242.689	83.28
242.907	34.13
243.124	34.13
243.341	30.04
243.558	-49.83
243.775	9.56
243.992	5.46
244.209	52.56
244.426	159.06
244.643	73.04
244.86	-17.07
245.078	161.11
245.295	13.65
245.512	32.08
245.729	9.56
245.946	40.28
246.163	79.19
246.38	79.19
246.597	-31.4
246.814	19.8
247.031	3.41
247.248	36.18
247.464	30.04
247.681	91.48
247.898	27.99
248.115	-60.07
248.332	30.04
248.549	81.24
248.766	134.48
248.983	64.85
249.2	30.04
249.417	97.62
249.633	44.37
249.85	11.61
250.067	27.99
250.284	27.99
250.501	23.89
250.717	36.18
250.934	-35.5
251.151	58.71
251.368	-27.31
251.585	27.99
251.801	36.18
252.018	-23.21
252.235	44.37
252.451	-12.97
252.668	23.89
252.885	30.04
253.102	58.71
253.318	46.42
253.535	19.8
253.752	44.37
253.968	5.46
254.185	-17.07
254.401	46.42
254.618	-2.73
254.835	19.8
255.051	54.61
255.268	-41.64
255.484	60.76
255.701	101.72
255.917	68.95
256.134	40.28
256.351	-15.02
256.567	36.18
256.784	62.8
257	5.46
257.217	111.96
257.433	54.61
257.65	46.42
257.866	21.84
258.082	-35.5
258.299	-55.98
258.515	66.9
258.732	-0.68
258.948	50.52
259.165	34.13
259.381	15.7
259.597	1.37
259.814	40.28
260.03	64.85
260.246	132.44
260.463	-21.16
260.679	44.37
260.895	44.37
261.112	68.95
261.328	40.28
261.544	-39.59
261.761	99.67
261.977	19.8
262.193	-4.78
262.409	48.47
262.626	34.13
262.842	-25.26
263.058	9.56
263.274	7.51
263.49	42.32
263.707	77.14
263.923	-0.68
264.139	-27.31
264.355	91.48
264.571	48.47
264.787	32.08
265.004	93.52
265.22	48.47
265.436	-62.12
265.652	5.46
265.868	-2.73
266.084	-21.16
266.3	93.52
266.516	42.32
266.732	1.37
266.948	-12.97
267.164	11.61
267.38	64.85
267.596	27.99
267.812	50.52
268.028	27.99
268.244	-76.46
268.46	-19.11
268.676	89.43
268.892	64.85
269.108	-8.87
269.324	1.37
269.54	-23.21
269.756	109.91
269.972	-49.83
270.188	-0.68
270.403	15.7
270.619	56.66
270.835	9.56
271.051	23.89
271.267	-8.87
271.483	66.9
271.698	36.18
271.914	38.23
272.13	79.19
272.346	-39.59
272.562	19.8
272.777	109.91
272.993	89.43
273.209	9.56
273.425	-2.73
273.64	-21.16
273.856	42.32
274.072	50.52
274.287	-23.21
274.503	-6.83
274.719	-25.26
274.934	-4.78
275.15	21.84
275.366	40.28
275.581	-35.5
275.797	-25.26
276.012	40.28
276.228	1.37
276.444	30.04
276.659	77.14
276.875	7.51
277.09	56.66
277.306	-21.16
277.521	116.05
277.737	-51.88
277.952	-25.26
278.168	11.61
278.383	52.56
278.599	30.04
278.814	36.18
279.03	52.56
279.245	19.8
279.461	-12.97
279.676	79.19
279.892	9.56
280.107	-86.7
280.322	-8.87
280.538	-0.68
280.753	19.8
280.969	101.72
281.184	109.91
281.399	81.24
281.615	19.8
281.83	58.71
282.045	-35.5
282.26	58.71
282.476	46.42
282.691	95.57
282.906	60.76
283.122	136.53
283.337	-21.16
283.552	27.99
283.767	-29.35
283.983	1.37
284.198	-0.68
284.413	54.61
284.628	38.23
284.843	-21.16
285.058	109.91
285.274	15.7
285.489	40.28
285.704	27.99
285.919	73.04
286.134	97.62
286.349	36.18
286.564	103.76
286.779	71
286.995	-19.11
287.21	46.42
287.425	97.62
287.64	1.37
287.855	32.08
288.07	-33.45
288.285	85.33
288.5	46.42
288.715	52.56
288.93	40.28
289.145	-8.87
289.36	71
289.575	30.04
289.79	83.28
290.004	5.46
290.219	-17.07
290.434	34.13
290.649	-17.07
290.864	19.8
291.079	17.75
291.294	34.13
291.509	95.57
291.724	-2.73
291.938	3.41
292.153	66.9
292.368	50.52
292.583	109.91
292.798	21.84
293.012	71
293.227	71
293.442	87.38
293.657	34.13
293.871	9.56
294.086	73.04
294.301	154.96
294.516	42.32
294.73	62.8
294.945	-15.02
295.16	30.04
295.374	58.71
295.589	75.09
295.804	23.89
296.018	30.04
296.233	58.71
296.447	103.76
296.662	-8.87
296.877	124.24
297.091	30.04
297.306	13.65
297.52	-4.78
297.735	17.75
297.949	-39.59
298.164	68.95
298.378	52.56
298.593	-35.5
298.807	19.8
299.022	60.76
299.236	60.76
299.451	68.95
299.665	-55.98
299.88	-39.59
300.094	48.47
300.309	-74.41
300.523	52.56
300.737	-21.16
300.952	13.65
301.166	23.89
301.381	-55.98
301.595	68.95
301.809	71
302.024	48.47
302.238	17.75
302.452	85.33
302.667	-10.92
302.881	58.71
303.095	-33.45
303.309	13.65
303.524	81.24
303.738	60.76
303.952	-21.16
304.166	15.7
304.381	-4.78
304.595	73.04
304.809	36.18
305.023	1.37
305.237	11.61
305.452	-35.5
305.666	71
305.88	87.38
306.094	120.15
306.308	27.99
306.522	73.04
306.736	62.8
306.95	79.19
307.164	-4.78
307.379	40.28
307.593	46.42
307.807	42.32
308.021	62.8
308.235	17.75
308.449	-45.74
308.663	1.37
308.877	60.76
309.091	42.32
309.305	3.41
309.519	-6.83
309.733	68.95
309.947	-17.07
310.161	1.37
310.374	46.42
310.588	62.8
310.802	-66.22
311.016	27.99
311.23	42.32
311.444	23.89
311.658	-2.73
311.872	9.56
312.085	48.47
312.299	23.89
312.513	99.67
312.727	7.51
312.941	25.94
313.154	101.72
313.368	42.32
313.582	19.8
313.796	38.23
314.009	-39.59
314.223	38.23
314.437	62.8
314.651	116.05
314.864	27.99
315.078	34.13
315.292	-49.83
315.505	-23.21
315.719	48.47
315.933	56.66
316.146	25.94
316.36	-53.93
316.573	15.7
316.787	83.28
317.001	58.71
317.214	50.52
317.428	111.96
317.641	25.94
317.855	42.32
318.068	46.42
318.282	46.42
318.495	91.48
318.709	71
318.922	19.8
319.136	68.95
319.349	64.85
319.563	71
319.776	17.75
319.99	13.65
320.203	27.99
320.417	11.61
320.63	38.23
320.843	120.15
321.057	23.89
321.27	64.85
321.483	87.38
321.697	13.65
321.91	38.23
322.124	42.32
322.337	62.8
322.55	-21.16
322.763	52.56
322.977	-8.87
323.19	40.28
323.403	-21.16
323.617	1.37
323.83	48.47
324.043	-37.55
324.256	134.48
324.469	46.42
324.683	75.09
324.896	1.37
325.109	85.33
325.322	23.89
325.535	34.13
325.748	21.84
325.962	15.7
326.175	46.42
326.388	75.09
326.601	99.67
326.814	-0.68
327.027	23.89
327.24	71
327.453	-86.7
327.666	-2.73
327.879	-21.16
328.092	36.18
328.305	93.52
328.518	-2.73
328.731	-0.68
328.944	64.85
329.157	5.46
329.37	11.61
329.583	99.67
329.796	161.11
330.009	-2.73
330.222	124.24
330.435	114
330.648	3.41
330.861	71
331.073	11.61
331.286	66.9
331.499	21.84
331.712	85.33
331.925	5.46
332.138	42.32
332.35	44.37
332.563	-15.02
332.776	79.19
332.989	60.76
333.202	34.13
333.414	-8.87
333.627	-12.97
333.84	-15.02
334.053	-10.92
334.265	50.52
334.478	-19.11
334.691	34.13
334.903	-27.31
335.116	5.46
335.329	38.23
335.541	60.76
335.754	56.66
335.966	107.86
336.179	60.76
336.392	81.24
336.604	42.32
336.817	107.86
337.029	138.58
337.242	19.8
337.454	-15.02
337.667	40.28
337.88	44.37
338.092	9.56
338.305	30.04
338.517	-4.78
338.729	91.48
338.942	85.33
339.154	85.33
339.367	13.65
339.579	87.38
339.792	-33.45
340.004	7.51
340.217	99.67
340.429	11.61
340.641	58.71
340.854	21.84
341.066	11.61
341.278	109.91
341.491	97.62
341.703	19.8
341.915	79.19
342.128	54.61
342.34	25.94
342.552	21.84
342.764	48.47
342.977	30.04
343.189	99.67
343.401	107.86
343.613	3.41
343.826	38.23
344.038	32.08
344.25	52.56
344.462	42.32
344.674	120.15
344.886	111.96
345.099	105.81
345.311	77.14
345.523	42.32
345.735	-8.87
345.947	58.71
346.159	68.95
346.371	-15.02
346.583	148.82
346.795	66.9
347.007	9.56
347.219	-2.73
347.431	-0.68
347.643	130.39
347.855	71
348.067	71
348.279	36.18
348.491	60.76
348.703	89.43
348.915	46.42
349.127	-45.74
349.339	11.61
349.551	1.37
349.763	60.76
349.975	23.89
350.187	122.2
350.399	103.76
350.61	77.14
350.822	30.04
351.034	66.9
351.246	101.72
351.458	46.42
351.669	-4.78
351.881	103.76
352.093	75.09
352.305	79.19
352.517	-6.83
352.728	109.91
352.94	73.04
353.152	93.52
353.363	40.28
353.575	87.38
353.787	79.19
353.999	101.72
354.21	81.24
354.422	11.61
354.633	9.56
354.845	44.37
355.057	34.13
355.268	54.61
355.48	50.52
355.692	-12.97
355.903	36.18
356.115	13.65
356.326	-8.87
356.538	99.67
356.749	-27.31
356.961	36.18
357.172	85.33
357.384	1.37
357.595	81.24
357.807	73.04
358.018	87.38
358.23	25.94
358.441	91.48
358.653	19.8
358.864	34.13
359.075	21.84
359.287	128.34
359.498	52.56
359.709	107.86
359.921	34.13
360.132	114
360.344	81.24
360.555	-4.78
360.766	56.66
360.977	73.04
361.189	89.43
361.4	21.84
361.611	21.84
361.823	56.66
362.034	19.8
362.245	11.61
362.456	25.94
362.667	48.47
362.879	13.65
363.09	93.52
363.301	15.7
363.512	42.32
363.723	-15.02
363.935	62.8
364.146	77.14
364.357	15.7
364.568	40.28
364.779	-25.26
364.99	54.61
365.201	11.61
365.412	93.52
365.623	7.51
365.834	71
366.045	87.38
366.256	128.34
366.467	-12.97
366.678	73.04
366.889	81.24
367.1	27.99
367.311	93.52
367.522	23.89
367.733	66.9
367.944	62.8
368.155	116.05
368.366	64.85
368.577	116.05
368.788	42.32
368.999	11.61
369.209	-10.92
369.42	60.76
369.631	142.68
369.842	-12.97
370.053	42.32
370.264	93.52
370.474	13.65
370.685	-39.59
370.896	11.61
371.107	58.71
371.317	75.09
371.528	50.52
371.739	91.48
371.95	73.04
372.16	77.14
372.371	-21.16
372.582	46.42
372.792	-4.78
373.003	46.42
373.214	64.85
373.424	107.86
373.635	30.04
373.846	99.67
374.056	85.33
374.267	81.24
374.477	64.85
374.688	-0.68
374.898	36.18
375.109	-2.73
375.319	62.8
375.53	97.62
375.74	36.18
375.951	5.46
376.161	118.1
376.372	91.48
376.582	25.94
376.793	27.99
377.003	-10.92
377.214	-17.07
377.424	79.19
377.635	75.09
377.845	-2.73
378.055	89.43
378.266	-17.07
378.476	60.76
378.686	81.24
378.897	48.47
379.107	-23.21
379.317	46.42
379.528	54.61
379.738	52.56
379.948	118.1
380.158	85.33
380.369	91.48
380.579	36.18
380.789	107.86
380.999	114
381.21	44.37
381.42	89.43
381.63	77.14
381.84	60.76
382.05	42.32
382.261	101.72
382.471	95.57
382.681	21.84
382.891	136.53
383.101	17.75
383.311	-19.11
383.521	105.81
383.731	89.43
383.941	118.1
384.151	-31.4
384.361	99.67
384.571	52.56
384.781	95.57
384.991	64.85
385.201	103.76
385.411	114
385.621	73.04
385.831	32.08
386.041	60.76
386.251	58.71
386.461	107.86
386.671	62.8
386.881	21.84
387.091	9.56
387.301	-0.68
387.511	93.52
387.72	101.72
387.93	27.99
388.14	62.8
388.35	101.72
388.56	23.89
388.769	91.48
388.979	66.9
389.189	-8.87
389.399	73.04
389.609	130.39
389.818	103.76
390.028	38.23
390.238	99.67
390.447	17.75
390.657	-23.21
390.867	128.34
391.076	-27.31
391.286	83.28
391.496	152.91
391.705	13.65
391.915	99.67
392.125	101.72
392.334	101.72
392.544	68.95
392.753	60.76
392.963	77.14
393.172	163.15
393.382	68.95
393.591	165.2
393.801	38.23
394.01	124.24
394.22	150.87
394.429	34.13
394.639	118.1
394.848	95.57
395.058	34.13
395.267	62.8
395.477	46.42
395.686	54.61
395.895	134.48
396.105	200.02
396.314	68.95
396.524	48.47
396.733	44.37
396.942	146.77
397.152	89.43
397.361	138.58
397.57	148.82
397.78	79.19
397.989	206.16
398.198	103.76
398.407	40.28
398.617	101.72
398.826	103.76
399.035	126.29
399.244	165.2
399.453	148.82
399.663	126.29
399.872	36.18
400.081	89.43
400.29	126.29
400.499	5.46
400.708	144.72
400.917	30.04
401.127	85.33
401.336	81.24
401.545	173.39
401.754	179.54
401.963	157.01
402.172	140.63
402.381	97.62
402.59	81.24
402.799	105.81
403.008	222.55
403.217	54.61
403.426	85.33
403.635	91.48
403.844	109.91
404.053	111.96
404.262	128.34
404.471	161.11
404.68	138.58
404.888	101.72
405.097	93.52
405.306	79.19
405.515	103.76
405.724	128.34
405.933	105.81
406.142	157.01
406.35	144.72
406.559	148.82
406.768	122.2
406.977	265.55
407.185	204.11
407.394	126.29
407.603	130.39
407.812	161.11
408.02	247.12
408.229	193.87
408.438	206.16
408.646	109.91
408.855	185.68
409.064	286.03
409.272	249.17
409.481	267.6
409.69	197.97
409.898	230.74
410.107	302.42
410.315	202.07
410.524	249.17
410.733	324.94
410.941	355.66
411.15	316.75
411.358	312.66
411.567	367.95
411.775	370
411.984	365.9
412.192	410.96
412.401	390.48
412.609	451.92
412.818	482.64
413.026	357.71
413.234	484.69
413.443	484.69
413.651	388.43
413.86	521.55
414.068	535.89
414.276	617.8
414.485	519.5
414.693	658.76
414.901	642.38
415.11	607.56
415.318	636.24
415.526	685.39
415.734	740.68
415.943	744.78
416.151	707.91
416.359	685.39
416.567	775.5
416.776	843.08
416.984	906.57
417.192	867.66
417.4	890.18
417.608	937.29
417.817	830.79
418.025	1037.64
418.233	1064.26
418.441	1011.01
418.649	961.86
418.857	1221.95
419.065	1121.6
419.273	1125.7
419.481	1068.36
419.689	1291.59
419.897	1369.41
420.105	1383.74
420.313	1428.8
420.521	1475.9
420.729	1480
420.937	1473.85
421.145	1469.76
421.353	1588.54
421.561	1754.43
421.769	1717.56
421.977	1828.15
422.185	1787.19
422.393	1846.59
422.601	1991.99
422.809	2026.81
423.017	1981.75
423.224	2143.54
423.432	2100.53
423.64	2266.42
423.848	2295.09
424.056	2288.95
424.263	2633.01
424.471	2456.88
424.679	2704.68
424.887	2698.54
425.094	2749.74
425.302	2673.96
425.51	2907.43
425.718	2960.68
425.925	3089.7
426.133	3020.07
426.341	3310.88
426.548	3366.18
426.756	3515.68
426.964	3534.11
427.171	3691.8
427.379	3939.61
427.586	3861.79
427.794	3808.54
428.001	4238.61
428.209	4320.53
428.417	4267.28
428.624	4470.03
428.832	4584.72
429.039	4484.37
429.247	4599.06
429.454	4990.22
429.662	5272.84
429.869	5055.75
430.076	5369.09
430.284	5260.55
430.491	5375.24
430.699	5862.65
430.906	5727.49
431.114	5819.64
431.321	6083.83
431.528	6223.09
431.736	6608.11
431.943	6814.96
432.15	6667.5
432.358	6862.06
432.565	6941.93
432.772	7128.3
432.979	7304.42
433.187	7429.35
433.394	7689.44
433.601	7945.44
433.808	8109.27
434.016	7980.25
434.223	8381.65
434.43	8936.65
434.637	8731.86
434.844	9260.23
435.052	9643.2
435.259	9360.58
435.466	9606.34
435.673	9499.84
435.88	10294.46
436.087	10685.62
436.294	10513.59
436.501	10486.97
436.708	10403
436.915	10982.57
437.122	11519.14
437.329	11480.23
437.537	11824.29
437.743	11807.91
437.95	11830.43
438.157	12498.07
438.364	12760.21
438.571	13012.11
438.778	13147.28
438.985	14079.1
439.192	13567.11
439.399	13902.98
439.606	13907.07
439.813	14439.54
440.02	15178.86
440.227	15217.77
440.433	14847.09
440.64	15281.26
440.847	15406.19
441.054	15844.45
441.261	16970.83
441.467	16661.59
441.674	16970.83
441.881	17712.2
442.088	17486.92
442.294	17443.92
442.501	17910.85
442.708	18046.02
442.914	19016.76
443.121	19657.77
443.328	19315.76
443.534	20227.1
443.741	19946.53
443.948	19645.48
444.154	21056.53
444.361	21146.64
444.568	21187.6
444.774	21273.62
444.981	21466.13
445.187	22154.24
445.394	22965.24
445.6	22852.6
445.807	24814.55
446.013	23876.58
446.22	24273.89
446.426	25271.25
446.633	25394.13
446.839	26330.05
447.046	25283.54
447.252	26510.27
447.459	26489.79
447.665	26739.65
447.871	28191.66
448.078	29236.12
448.284	27685.81
448.491	28455.84
448.697	29592.47
448.903	29899.66
449.11	30026.64
449.316	29541.27
449.522	29873.04
449.728	31046.52
449.935	31118.2
450.141	31024
450.347	31757.17
450.553	30761.86
450.76	30940.03
450.966	32285.54
451.172	31882.09
451.378	32605.03
451.584	31933.29
451.791	32801.63
451.997	32834.4
452.203	33209.18
452.409	33512.28
452.615	33176.41
452.821	31630.19
453.027	31157.11
453.233	33143.64
453.44	32168.81
453.646	32301.93
453.852	32328.55
454.058	32709.47
454.264	31824.75
454.47	32766.82
454.676	31501.17
454.882	32547.68
455.088	29879.18
455.294	30260.1
455.5	30587.78
455.705	31007.61
455.911	29758.35
456.117	29555.6
456.323	29158.3
456.529	27519.92
456.735	28627.87
456.941	27917.23
457.147	27368.37
457.352	26497.99
457.558	26115.01
457.764	26252.23
457.97	25705.42
458.176	25115.61
458.381	25265.11
458.587	23614.44
458.793	23776.23
458.999	22598.65
459.204	24380.39
459.41	23329.78
459.616	21967.88
459.821	22103.04
460.027	21918.73
460.233	21459.98
460.438	20571.16
460.644	20673.56
460.85	19606.57
461.055	19442.73
461.261	19385.39
461.466	17896.52
461.672	17210.45
461.878	18426.94
462.083	17474.63
462.289	16933.97
462.494	16661.59
462.7	16340.06
462.905	15651.94
463.111	16213.09
463.316	16579.67
463.522	15897.7
463.727	16082.02
463.932	15733.86
464.138	15879.27
464.343	15815.78
464.549	15307.88
464.754	15733.86
464.959	15805.54
465.165	15576.17
465.37	14892.15
465.575	14627.96
465.781	15072.37
465.986	15096.94
466.191	14580.85
466.397	14394.49
466.602	13589.64
466.807	14496.89
467.012	14204.03
467.218	14068.86
467.423	14011.52
467.628	13853.83
