Data from USB4F104151__28__12-23-40-612.txt Node

Date: Fri Mar 14 12:23:40 EDT 2025
User: louis
Spectrometer: USB4F10415
Trigger mode: 4
Integration Time (sec): 3.500000E-2
Scans to average: 1
Electric dark correction enabled: true
Nonlinearity correction enabled: false
Boxcar width: 0
XAxis mode: Wavelengths
Number of Pixels in Spectrum: 3648
>>>>>Begin Spectral Data<<<<<
178.204	-191.31
178.424	-191.31
178.644	-191.31
178.864	-117.59
179.084	-168.79
179.304	29.87
179.524	-19.29
179.744	-60.24
179.964	21.67
180.184	-27.48
180.404	56.49
180.624	-103.25
180.844	19.63
181.064	-21.33
181.283	60.59
181.503	17.58
181.723	25.77
181.943	-25.43
182.163	66.73
182.383	3.24
182.602	9.39
182.822	33.96
183.042	54.44
183.262	1.19
183.482	-50
183.701	21.67
183.921	76.97
184.141	-45.91
184.361	1.19
184.58	3.24
184.8	36.01
185.02	-7
185.239	27.82
185.459	-31.57
185.679	58.54
185.898	-64.34
186.118	111.78
186.338	33.96
186.557	42.15
186.777	-15.19
186.997	-15.19
187.216	-11.09
187.436	113.83
187.655	42.15
187.875	46.25
188.095	36.01
188.314	95.4
188.534	85.16
188.753	21.67
188.973	1.19
189.192	-13.14
189.412	68.78
189.631	52.39
189.851	13.48
190.07	89.26
190.29	60.59
190.509	33.96
190.729	5.29
190.948	111.78
191.168	97.45
191.387	85.16
191.607	-7
191.826	83.11
192.045	7.34
192.265	23.72
192.484	-19.29
192.704	-7
192.923	-68.44
193.142	105.64
193.362	33.96
193.581	-4.95
193.8	42.15
194.02	44.2
194.239	29.87
194.458	21.67
194.678	-27.48
194.897	44.2
195.116	-23.38
195.335	54.44
195.555	85.16
195.774	-47.96
195.993	23.72
196.212	89.26
196.432	29.87
196.651	29.87
196.87	-27.48
197.089	95.4
197.308	117.93
197.528	66.73
197.747	-54.1
197.966	-15.19
198.185	48.3
198.404	58.54
198.623	58.54
198.842	56.49
199.062	101.55
199.281	-31.57
199.5	66.73
199.719	11.43
199.938	11.43
200.157	48.3
200.376	83.11
200.595	19.63
200.814	27.82
201.033	-15.19
201.252	-2.9
201.471	23.72
201.69	76.97
201.909	13.48
202.128	50.35
202.347	-56.15
202.566	25.77
202.785	42.15
203.004	-4.95
203.223	171.18
203.442	95.4
203.661	-37.72
203.879	-17.24
204.098	97.45
204.317	-58.2
204.536	74.92
204.755	58.54
204.974	95.4
205.193	42.15
205.411	158.89
205.63	56.49
205.849	50.35
206.068	56.49
206.287	1.19
206.505	-27.48
206.724	27.82
206.943	-13.14
207.162	95.4
207.381	-0.85
207.599	54.44
207.818	60.59
208.037	40.11
208.255	-23.38
208.474	46.25
208.693	25.77
208.911	-13.14
209.13	-0.85
209.349	-25.43
209.567	17.58
209.786	31.91
210.005	-7
210.223	33.96
210.442	-15.19
210.661	64.68
210.879	-11.09
211.098	46.25
211.316	9.39
211.535	19.63
211.753	-13.14
211.972	-7
212.191	40.11
212.409	19.63
212.628	13.48
212.846	-9.05
213.065	60.59
213.283	42.15
213.502	83.11
213.72	-9.05
213.938	44.2
214.157	-13.14
214.375	13.48
214.594	-41.81
214.812	19.63
215.031	-21.33
215.249	29.87
215.467	52.39
215.686	44.2
215.904	97.45
216.122	-25.43
216.341	-0.85
216.559	42.15
216.778	74.92
216.996	19.63
217.214	89.26
217.432	74.92
217.651	-4.95
217.869	-4.95
218.087	50.35
218.306	72.87
218.524	42.15
218.742	38.06
218.96	-4.95
219.179	-29.52
219.397	11.43
219.615	103.59
219.833	33.96
220.051	-7
220.27	21.67
220.488	83.11
220.706	1.19
220.924	111.78
221.142	17.58
221.36	-2.9
221.578	52.39
221.796	11.43
222.015	-56.15
222.233	50.35
222.451	83.11
222.669	21.67
222.887	52.39
223.105	21.67
223.323	7.34
223.541	46.25
223.759	-9.05
223.977	-2.9
224.195	-15.19
224.413	68.78
224.631	91.31
224.849	5.29
225.067	64.68
225.285	-23.38
225.503	-21.33
225.721	-27.48
225.939	25.77
226.157	27.82
226.375	103.59
226.592	13.48
226.81	-41.81
227.028	-54.1
227.246	101.55
227.464	-29.52
227.682	101.55
227.9	31.91
228.117	13.48
228.335	23.72
228.553	91.31
228.771	-54.1
228.989	68.78
229.206	27.82
229.424	40.11
229.642	-2.9
229.86	-7
230.077	97.45
230.295	-0.85
230.513	-15.19
230.731	-29.52
230.948	117.93
231.166	46.25
231.384	79.02
231.601	-33.62
231.819	85.16
232.037	25.77
232.254	-13.14
232.472	107.69
232.689	-17.24
232.907	60.59
233.125	33.96
233.342	68.78
233.56	-9.05
233.777	-72.53
233.995	19.63
234.213	60.59
234.43	17.58
234.648	1.19
234.865	15.53
235.083	31.91
235.3	60.59
235.518	101.55
235.735	40.11
235.953	70.83
236.17	-72.53
236.388	-84.82
236.605	-35.67
236.822	58.54
237.04	40.11
237.257	33.96
237.475	-88.92
237.692	62.63
237.909	48.3
238.127	15.53
238.344	25.77
238.562	46.25
238.779	-13.14
238.996	-80.72
239.214	-31.57
239.431	44.2
239.648	-80.72
239.865	68.78
240.083	11.43
240.3	5.29
240.517	-4.95
240.735	76.97
240.952	68.78
241.169	-19.29
241.386	42.15
241.603	-52.05
241.821	36.01
242.038	11.43
242.255	-4.95
242.472	7.34
242.689	-21.33
242.907	-9.05
243.124	64.68
243.341	11.43
243.558	-7
243.775	21.67
243.992	33.96
244.209	29.87
244.426	85.16
244.643	56.49
244.86	15.53
245.078	13.48
245.295	89.26
245.512	89.26
245.729	-80.72
245.946	76.97
246.163	7.34
246.38	15.53
246.597	-9.05
246.814	103.59
247.031	-13.14
247.248	1.19
247.464	-15.19
247.681	9.39
247.898	-17.24
248.115	40.11
248.332	-54.1
248.549	29.87
248.766	17.58
248.983	115.88
249.2	-27.48
249.417	101.55
249.633	-19.29
249.85	76.97
250.067	-37.72
250.284	-13.14
250.501	66.73
250.717	50.35
250.934	5.29
251.151	-25.43
251.368	9.39
251.585	56.49
251.801	-29.52
252.018	7.34
252.235	23.72
252.451	3.24
252.668	62.63
252.885	76.97
253.102	76.97
253.318	1.19
253.535	44.2
253.752	13.48
253.968	11.43
254.185	-21.33
254.401	-90.96
254.618	3.24
254.835	-33.62
255.051	76.97
255.268	87.21
255.484	76.97
255.701	46.25
255.917	79.02
256.134	-7
256.351	3.24
256.567	-9.05
256.784	58.54
257	36.01
257.217	79.02
257.433	15.53
257.65	27.82
257.866	-33.62
258.082	31.91
258.299	-37.72
258.515	-41.81
258.732	25.77
258.948	-29.52
259.165	93.35
259.381	-21.33
259.597	-9.05
259.814	3.24
260.03	13.48
260.246	38.06
260.463	111.78
260.679	50.35
260.895	58.54
261.112	-7
261.328	-45.91
261.544	3.24
261.761	173.22
261.977	23.72
262.193	-29.52
262.409	-27.48
262.626	-7
262.842	33.96
263.058	-41.81
263.274	7.34
263.49	33.96
263.707	83.11
263.923	105.64
264.139	-19.29
264.355	68.78
264.571	29.87
264.787	1.19
265.004	79.02
265.22	107.69
265.436	79.02
265.652	-39.76
265.868	62.63
266.084	11.43
266.3	-9.05
266.516	1.19
266.732	23.72
266.948	52.39
267.164	87.21
267.38	44.2
267.596	-17.24
267.812	87.21
268.028	46.25
268.244	-13.14
268.46	40.11
268.676	9.39
268.892	31.91
269.108	-31.57
269.324	15.53
269.54	-15.19
269.756	115.88
269.972	7.34
270.188	23.72
270.403	38.06
270.619	11.43
270.835	-27.48
271.051	-17.24
271.267	-25.43
271.483	-35.67
271.698	44.2
271.914	25.77
272.13	58.54
272.346	3.24
272.562	60.59
272.777	23.72
272.993	29.87
273.209	40.11
273.425	81.07
273.64	-33.62
273.856	-4.95
274.072	-31.57
274.287	11.43
274.503	9.39
274.719	83.11
274.934	-17.24
275.15	-13.14
275.366	1.19
275.581	68.78
275.797	66.73
276.012	9.39
276.228	70.83
276.444	72.87
276.659	74.92
276.875	-41.81
277.09	-27.48
277.306	36.01
277.521	46.25
277.737	13.48
277.952	36.01
278.168	44.2
278.383	128.17
278.599	48.3
278.814	-39.76
279.03	68.78
279.245	79.02
279.461	97.45
279.676	13.48
279.892	-56.15
280.107	38.06
280.322	9.39
280.538	-80.72
280.753	70.83
280.969	-4.95
281.184	-17.24
281.399	74.92
281.615	3.24
281.83	48.3
282.045	17.58
282.26	-9.05
282.476	21.67
282.691	74.92
282.906	54.44
283.122	-17.24
283.337	-0.85
283.552	56.49
283.767	46.25
283.983	3.24
284.198	25.77
284.413	52.39
284.628	11.43
284.843	-13.14
285.058	50.35
285.274	17.58
285.489	-23.38
285.704	38.06
285.919	33.96
286.134	-9.05
286.349	52.39
286.564	44.2
286.779	-23.38
286.995	13.48
287.21	36.01
287.425	85.16
287.64	9.39
287.855	29.87
288.07	-72.53
288.285	31.91
288.5	44.2
288.715	-2.9
288.93	17.58
289.145	36.01
289.36	36.01
289.575	-84.82
289.79	48.3
290.004	74.92
290.219	105.64
290.434	-54.1
290.649	-9.05
290.864	-7
291.079	-15.19
291.294	27.82
291.509	-56.15
291.724	38.06
291.938	3.24
292.153	29.87
292.368	-13.14
292.583	11.43
292.798	9.39
293.012	60.59
293.227	48.3
293.442	44.2
293.657	5.29
293.871	76.97
294.086	56.49
294.301	79.02
294.516	40.11
294.73	144.55
294.945	13.48
295.16	29.87
295.374	85.16
295.589	101.55
295.804	7.34
296.018	60.59
296.233	58.54
296.447	36.01
296.662	-9.05
296.877	89.26
297.091	103.59
297.306	91.31
297.52	9.39
297.735	25.77
297.949	17.58
298.164	-13.14
298.378	-11.09
298.593	17.58
298.807	-11.09
299.022	19.63
299.236	113.83
299.451	44.2
299.665	25.77
299.88	19.63
300.094	36.01
300.309	54.44
300.523	36.01
300.737	-35.67
300.952	74.92
301.166	79.02
301.381	-45.91
301.595	-2.9
301.809	111.78
302.024	-2.9
302.238	-23.38
302.452	54.44
302.667	56.49
302.881	85.16
303.095	50.35
303.309	91.31
303.524	-47.96
303.738	-37.72
303.952	-15.19
304.166	54.44
304.381	-19.29
304.595	68.78
304.809	23.72
305.023	38.06
305.237	11.43
305.452	91.31
305.666	103.59
305.88	13.48
306.094	31.91
306.308	-2.9
306.522	27.82
306.736	9.39
306.95	44.2
307.164	36.01
307.379	11.43
307.593	31.91
307.807	38.06
308.021	79.02
308.235	11.43
308.449	-29.52
308.663	58.54
308.877	101.55
309.091	27.82
309.305	56.49
309.519	-13.14
309.733	62.63
309.947	13.48
310.161	48.3
310.374	27.82
310.588	89.26
310.802	36.01
311.016	-4.95
311.23	109.74
311.444	-33.62
311.658	17.58
311.872	52.39
312.085	95.4
312.299	48.3
312.513	23.72
312.727	111.78
312.941	70.83
313.154	29.87
313.368	5.29
313.582	-25.43
313.796	48.3
314.009	21.67
314.223	101.55
314.437	9.39
314.651	-39.76
314.864	33.96
315.078	-0.85
315.292	5.29
315.505	52.39
315.719	13.48
315.933	42.15
316.146	-25.43
316.36	17.58
316.573	21.67
316.787	85.16
317.001	-0.85
317.214	27.82
317.428	62.63
317.641	-11.09
317.855	3.24
318.068	-15.19
318.282	91.31
318.495	134.31
318.709	56.49
318.922	-7
319.136	46.25
319.349	62.63
319.563	-47.96
319.776	48.3
319.99	-56.15
320.203	-2.9
320.417	36.01
320.63	27.82
320.843	87.21
321.057	54.44
321.27	-31.57
321.483	36.01
321.697	60.59
321.91	50.35
322.124	19.63
322.337	-23.38
322.55	-11.09
322.763	50.35
322.977	5.29
323.19	-58.2
323.403	42.15
323.617	36.01
323.83	64.68
324.043	-41.81
324.256	-27.48
324.469	-25.43
324.683	74.92
324.896	7.34
325.109	42.15
325.322	5.29
325.535	66.73
325.748	40.11
325.962	70.83
326.175	83.11
326.388	-37.72
326.601	56.49
326.814	23.72
327.027	60.59
327.24	50.35
327.453	21.67
327.666	91.31
327.879	93.35
328.092	21.67
328.305	11.43
328.518	-68.44
328.731	11.43
328.944	15.53
329.157	52.39
329.37	62.63
329.583	105.64
329.796	93.35
330.009	-93.01
330.222	23.72
330.435	68.78
330.648	-4.95
330.861	-9.05
331.073	95.4
331.286	50.35
331.499	-56.15
331.712	-35.67
331.925	-15.19
332.138	-82.77
332.35	15.53
332.563	87.21
332.776	36.01
332.989	3.24
333.202	-31.57
333.414	156.84
333.627	-4.95
333.84	72.87
334.053	74.92
334.265	64.68
334.478	-15.19
334.691	33.96
334.903	54.44
335.116	44.2
335.329	46.25
335.541	11.43
335.754	17.58
335.966	60.59
336.179	3.24
336.392	-2.9
336.604	72.87
336.817	25.77
337.029	107.69
337.242	93.35
337.454	89.26
337.667	7.34
337.88	74.92
338.092	23.72
338.305	58.54
338.517	-17.24
338.729	126.12
338.942	87.21
339.154	23.72
339.367	-35.67
339.579	72.87
339.792	40.11
340.004	9.39
340.217	40.11
340.429	85.16
340.641	9.39
340.854	33.96
341.066	91.31
341.278	7.34
341.491	21.67
341.703	64.68
341.915	21.67
342.128	115.88
342.34	15.53
342.552	11.43
342.764	101.55
342.977	38.06
343.189	72.87
343.401	60.59
343.613	19.63
343.826	3.24
344.038	-39.76
344.25	5.29
344.462	38.06
344.674	85.16
344.886	66.73
345.099	64.68
345.311	74.92
345.523	81.07
345.735	-2.9
345.947	76.97
346.159	38.06
346.371	17.58
346.583	25.77
346.795	23.72
347.007	-33.62
347.219	29.87
347.431	11.43
347.643	50.35
347.855	44.2
348.067	-9.05
348.279	29.87
348.491	58.54
348.703	54.44
348.915	40.11
349.127	-50
349.339	95.4
349.551	-19.29
349.763	13.48
349.975	40.11
350.187	89.26
350.399	89.26
350.61	76.97
350.822	52.39
351.034	3.24
351.246	54.44
351.458	52.39
351.669	21.67
351.881	81.07
352.093	79.02
352.305	15.53
352.517	27.82
352.728	5.29
352.94	-19.29
353.152	15.53
353.363	38.06
353.575	60.59
353.787	105.64
353.999	52.39
354.21	56.49
354.422	52.39
354.633	5.29
354.845	-9.05
355.057	-19.29
355.268	33.96
355.48	52.39
355.692	-52.05
355.903	40.11
356.115	27.82
356.326	48.3
356.538	-0.85
356.749	19.63
356.961	105.64
357.172	-64.34
357.384	29.87
357.595	103.59
357.807	68.78
358.018	48.3
358.23	76.97
358.441	62.63
358.653	101.55
358.864	23.72
359.075	13.48
359.287	54.44
359.498	76.97
359.709	85.16
359.921	33.96
360.132	33.96
360.344	5.29
360.555	97.45
360.766	36.01
360.977	5.29
361.189	21.67
361.4	-9.05
361.611	91.31
361.823	91.31
362.034	64.68
362.245	-88.92
362.456	54.44
362.667	40.11
362.879	-2.9
363.09	68.78
363.301	5.29
363.512	17.58
363.723	21.67
363.935	46.25
364.146	107.69
364.357	68.78
364.568	-29.52
364.779	-25.43
364.99	44.2
365.201	31.91
365.412	83.11
365.623	-33.62
365.834	124.07
366.045	-23.38
366.256	27.82
366.467	101.55
366.678	29.87
366.889	134.31
367.1	-39.76
367.311	33.96
367.522	48.3
367.733	7.34
367.944	-7
368.155	-0.85
368.366	7.34
368.577	85.16
368.788	119.98
368.999	-37.72
369.209	60.59
369.42	167.08
369.631	11.43
369.842	87.21
370.053	-2.9
370.264	72.87
370.474	25.77
370.685	40.11
370.896	17.58
371.107	175.27
371.317	103.59
371.528	19.63
371.739	42.15
371.95	38.06
372.16	7.34
372.371	9.39
372.582	7.34
372.792	-13.14
373.003	103.59
373.214	105.64
373.424	97.45
373.635	-0.85
373.846	122.02
374.056	74.92
374.267	60.59
374.477	66.73
374.688	-31.57
374.898	-29.52
375.109	62.63
375.319	60.59
375.53	13.48
375.74	89.26
375.951	50.35
376.161	-15.19
376.372	54.44
376.582	52.39
376.793	130.22
377.003	-17.24
377.214	42.15
377.424	72.87
377.635	42.15
377.845	46.25
378.055	29.87
378.266	52.39
378.476	-43.86
378.686	15.53
378.897	72.87
379.107	95.4
379.317	64.68
379.528	56.49
379.738	76.97
379.948	-35.67
380.158	1.19
380.369	-4.95
380.579	38.06
380.789	89.26
380.999	-21.33
381.21	36.01
381.42	36.01
381.63	85.16
381.84	113.83
382.05	79.02
382.261	87.21
382.471	1.19
382.681	11.43
382.891	46.25
383.101	36.01
383.311	-27.48
383.521	-2.9
383.731	93.35
383.941	15.53
384.151	36.01
384.361	11.43
384.571	11.43
384.781	29.87
384.991	111.78
385.201	85.16
385.411	-0.85
385.621	21.67
385.831	1.19
386.041	52.39
386.251	11.43
386.461	58.54
386.671	72.87
386.881	33.96
387.091	46.25
387.301	99.5
387.511	70.83
387.72	68.78
387.93	111.78
388.14	27.82
388.35	46.25
388.56	46.25
388.769	87.21
388.979	1.19
389.189	-25.43
389.399	-13.14
389.609	-29.52
389.818	44.2
390.028	64.68
390.238	42.15
390.447	11.43
390.657	93.35
390.867	83.11
391.076	21.67
391.286	79.02
391.496	95.4
391.705	58.54
391.915	64.68
392.125	134.31
392.334	40.11
392.544	109.74
392.753	74.92
392.963	54.44
393.172	33.96
393.382	27.82
393.591	58.54
393.801	-11.09
394.01	89.26
394.22	62.63
394.429	70.83
394.639	76.97
394.848	29.87
395.058	70.83
395.267	58.54
395.477	95.4
395.686	76.97
395.895	154.79
396.105	89.26
396.314	58.54
396.524	33.96
396.733	31.91
396.942	64.68
397.152	126.12
397.361	66.73
397.57	36.01
397.78	5.29
397.989	70.83
398.198	85.16
398.407	60.59
398.617	89.26
398.826	95.4
399.035	128.17
399.244	138.41
399.453	95.4
399.663	76.97
399.872	89.26
400.081	27.82
400.29	152.74
400.499	50.35
400.708	105.64
400.917	62.63
401.127	119.98
401.336	105.64
401.545	142.5
401.754	64.68
401.963	89.26
402.172	72.87
402.381	38.06
402.59	101.55
402.799	79.02
403.008	87.21
403.217	99.5
403.426	48.3
403.635	70.83
403.844	148.65
404.053	85.16
404.262	64.68
404.471	142.5
404.68	130.22
404.888	128.17
405.097	60.59
405.306	54.44
405.515	60.59
405.724	74.92
405.933	140.46
406.142	74.92
406.35	144.55
406.559	89.26
406.768	72.87
406.977	199.85
407.185	113.83
407.394	156.84
407.603	85.16
407.812	138.41
408.02	124.07
408.229	138.41
408.438	91.31
408.646	124.07
408.855	154.79
409.064	93.35
409.272	150.7
409.481	167.08
409.69	154.79
409.898	177.32
410.107	224.42
410.315	230.57
410.524	152.74
410.733	214.18
410.941	230.57
411.15	218.28
411.358	279.72
411.567	226.47
411.775	226.47
411.984	296.1
412.192	324.77
412.401	249
412.609	363.69
412.818	314.53
413.026	310.44
413.234	310.44
413.443	341.16
413.651	341.16
413.86	363.69
414.068	447.65
414.276	394.4
414.485	306.34
414.693	429.22
414.901	449.7
415.11	453.8
415.318	373.92
415.526	459.94
415.734	543.91
415.943	486.56
416.151	482.47
416.359	457.89
416.567	605.35
416.776	572.58
416.984	644.26
417.192	629.92
417.4	588.96
417.608	605.35
417.817	728.22
418.025	683.17
418.233	746.66
418.441	728.22
418.649	861.34
418.857	717.98
419.065	818.33
419.273	867.49
419.481	890.01
419.689	877.73
419.897	924.83
420.105	912.54
420.313	973.98
420.521	1029.27
420.729	1027.23
420.937	1027.23
421.145	1115.29
421.353	1242.26
421.561	1045.66
421.769	1315.99
421.977	1209.5
422.185	1238.17
422.393	1426.58
422.601	1391.77
422.809	1459.35
423.017	1440.92
423.224	1502.36
423.432	1502.36
423.64	1510.55
423.848	1768.59
424.056	1698.96
424.263	1739.92
424.471	1815.69
424.679	1811.6
424.887	1973.39
425.094	1959.05
425.302	1936.53
425.51	2075.79
425.718	2032.78
425.925	2126.99
426.133	2149.51
426.341	2391.17
426.548	2466.95
426.756	2387.08
426.964	2509.96
427.171	2534.53
427.379	2749.57
427.586	2741.38
427.794	2724.99
428.001	2966.65
428.209	3038.33
428.417	3183.74
428.624	3191.93
428.832	3249.27
429.039	3323
429.247	3245.18
429.454	3497.08
429.662	3751.03
429.869	3390.58
430.076	3658.87
430.284	3665.01
430.491	3869.81
430.699	3978.35
430.906	4019.31
431.114	4144.24
431.321	4260.97
431.528	4312.17
431.736	4580.45
431.943	4742.24
432.15	4777.06
432.358	4684.9
432.565	5108.83
432.772	4883.55
432.979	5172.32
433.187	5411.93
433.394	5508.18
433.601	5645.4
433.808	5766.23
434.016	5733.46
434.223	6018.13
434.43	6302.79
434.637	6059.09
434.844	6564.93
435.052	6607.94
435.259	6714.44
435.466	6714.44
435.673	6736.96
435.88	6933.57
436.087	7363.64
436.294	7414.84
436.501	7195.71
436.708	7251
436.915	7806
437.122	7932.98
437.329	8109.1
437.537	8160.3
437.743	8418.35
437.95	8332.33
438.157	8817.7
438.364	9102.37
438.571	8993.83
438.778	9231.39
438.985	9921.56
439.192	9581.59
439.399	9862.16
439.606	9600.02
439.813	10130.45
440.02	10757.13
440.227	10669.06
440.433	10740.74
440.64	10900.48
440.847	10705.93
441.054	11308.03
441.261	11725.82
441.467	11625.47
441.674	11805.69
441.881	12430.32
442.088	12168.18
442.294	12151.79
442.501	12557.29
442.708	12960.74
442.914	13087.71
443.121	13923.29
443.328	13556.7
443.534	14613.45
443.741	14099.41
443.948	13702.11
444.154	14826.44
444.361	14830.54
444.568	15076.29
444.774	14799.82
444.981	15072.2
445.187	15576
445.394	16077.75
445.6	15848.38
445.807	17327.01
446.013	16825.26
446.22	17218.47
446.426	18043.8
446.633	17863.58
446.839	18531.22
447.046	17613.73
447.252	18600.85
447.459	19026.82
447.665	18729.87
447.871	19561.34
448.078	20333.43
448.284	19057.54
448.491	20167.54
448.697	20503.41
448.903	21113.7
449.11	21224.29
449.316	20736.88
449.522	21289.83
449.728	21939.04
449.935	22061.91
450.141	21687.14
450.347	22836.05
450.553	21773.15
450.76	22213.46
450.966	22688.59
451.172	22692.69
451.378	23348.04
451.584	22805.33
451.791	23229.26
451.997	23001.93
452.203	23640.9
452.409	23849.79
452.615	23466.82
452.821	22496.08
453.027	22569.81
453.233	23561.03
453.44	22756.18
453.646	22594.39
453.852	22889.29
454.058	23419.72
454.264	22621.01
454.47	23339.85
454.676	22457.17
454.882	23133
455.088	21181.29
455.294	21549.92
455.5	21885.79
455.705	22254.42
455.911	21156.71
456.117	20886.38
456.323	20618.1
456.529	19639.17
456.735	20392.82
456.941	19792.76
457.147	19454.85
457.352	19110.79
457.558	18402.19
457.764	18912.14
457.97	18025.37
458.176	17861.53
458.381	17914.78
458.587	17044.39
458.793	16995.24
458.999	16018.36
459.204	17312.67
459.41	16995.24
459.616	15813.56
459.821	15758.27
460.027	15791.03
460.233	15283.14
460.438	14420.94
460.644	14693.32
460.85	14115.8
461.055	13591.52
461.261	13716.44
461.466	12450.8
461.672	12295.15
461.878	13169.63
462.083	12299.25
462.289	12065.78
462.494	11979.76
462.7	11766.78
462.905	11097.09
463.111	11598.84
463.316	11457.53
463.522	11379.71
463.727	11355.13
463.932	11412.48
464.138	11189.25
464.343	11211.78
464.549	10810.37
464.754	11181.06
464.959	11219.97
465.165	11049.99
465.37	10691.59
465.575	10069.01
465.781	10970.12
465.986	10970.12
466.191	10316.81
466.397	10165.26
466.602	9815.06
466.807	10169.36
467.012	10224.65
467.218	9925.65
467.423	10042.39
467.628	9890.84
467.833	10482.7
468.038	9864.21
