Data from USB4F104151__43__12-23-53-524.txt Node

Date: Fri Mar 14 12:23:53 EDT 2025
User: louis
Spectrometer: USB4F10415
Trigger mode: 4
Integration Time (sec): 3.500000E-2
Scans to average: 1
Electric dark correction enabled: true
Nonlinearity correction enabled: false
Boxcar width: 0
XAxis mode: Wavelengths
Number of Pixels in Spectrum: 3648
>>>>>Begin Spectral Data<<<<<
178.204	-150.7
178.424	-150.7
178.644	-150.7
178.864	-226.47
179.084	-136.36
179.304	-42.15
179.524	25.43
179.744	-42.15
179.964	66.39
180.184	-7.34
180.404	19.29
180.624	39.76
180.844	-76.97
181.064	25.43
181.283	7
181.503	-27.82
181.723	13.14
181.943	-66.73
182.163	54.1
182.383	33.62
182.602	-3.24
182.822	23.38
183.042	60.24
183.262	-44.2
183.482	-3.24
183.701	27.48
183.921	-38.06
184.141	21.33
184.361	17.24
184.58	2.9
184.8	11.09
185.02	11.09
185.239	76.63
185.459	43.86
185.679	-19.63
185.898	-1.19
186.118	54.1
186.338	25.43
186.557	84.82
186.777	-38.06
186.997	-13.48
187.216	23.38
187.436	41.81
187.655	-1.19
187.875	-3.24
188.095	-11.43
188.314	41.81
188.534	21.33
188.753	0.85
188.973	39.76
189.192	52.05
189.412	33.62
189.631	43.86
189.851	-7.34
190.07	125.78
190.29	4.95
190.509	-72.87
190.729	50
190.948	52.05
191.168	138.07
191.387	62.29
191.607	-3.24
191.826	52.05
192.045	2.9
192.265	-44.2
192.484	76.63
192.704	-13.48
192.923	-21.67
193.142	78.68
193.362	50
193.581	-3.24
193.8	31.57
194.02	52.05
194.239	-17.58
194.458	-17.58
194.678	31.57
194.897	52.05
195.116	-15.53
195.335	-11.43
195.555	-15.53
195.774	21.33
195.993	33.62
196.212	-21.67
196.432	54.1
196.651	50
196.87	-13.48
197.089	136.02
197.308	-21.67
197.528	-48.3
197.747	-60.59
197.966	58.2
198.185	58.2
198.404	4.95
198.623	-17.58
198.842	111.44
199.062	41.81
199.281	95.06
199.5	37.72
199.719	43.86
199.938	15.19
200.157	25.43
200.376	62.29
200.595	39.76
200.814	-21.67
201.033	50
201.252	-3.24
201.471	7
201.69	-9.39
201.909	70.48
202.128	27.48
202.347	33.62
202.566	9.05
202.785	13.14
203.004	-13.48
203.223	31.57
203.442	25.43
203.661	-33.96
203.879	4.95
204.098	-23.72
204.317	-25.77
204.536	68.44
204.755	47.96
204.974	45.91
205.193	21.33
205.411	105.3
205.63	-25.77
205.849	47.96
206.068	37.72
206.287	19.29
206.505	54.1
206.724	15.19
206.943	2.9
207.162	50
207.381	52.05
207.599	2.9
207.818	-40.11
208.037	2.9
208.255	47.96
208.474	60.24
208.693	68.44
208.911	-1.19
209.13	-23.72
209.349	58.2
209.567	43.86
209.786	80.72
210.005	29.52
210.223	43.86
210.442	-46.25
210.661	2.9
210.879	9.05
211.098	-1.19
211.316	0.85
211.535	84.82
211.753	9.05
211.972	-46.25
212.191	45.91
212.409	9.05
212.628	58.2
212.846	25.43
213.065	52.05
213.283	70.48
213.502	-7.34
213.72	19.29
213.938	-19.63
214.157	-38.06
214.375	78.68
214.594	-91.31
214.812	41.81
215.031	23.38
215.249	-1.19
215.467	68.44
215.686	-17.58
215.904	84.82
216.122	19.29
216.341	76.63
216.559	-29.87
216.778	64.34
216.996	23.38
217.214	109.4
217.432	-68.78
217.651	-58.54
217.869	21.33
218.087	-27.82
218.306	68.44
218.524	-15.53
218.742	-1.19
218.96	0.85
219.179	-48.3
219.397	15.19
219.615	78.68
219.833	78.68
220.051	29.52
220.27	60.24
220.488	33.62
220.706	72.53
220.924	60.24
221.142	2.9
221.36	7
221.578	-27.82
221.796	45.91
222.015	50
222.233	31.57
222.451	39.76
222.669	-19.63
222.887	33.62
223.105	-85.16
223.323	-13.48
223.541	11.09
223.759	4.95
223.977	-17.58
224.195	99.16
224.413	23.38
224.631	-21.67
224.849	35.67
225.067	123.73
225.285	-23.72
225.503	13.14
225.721	-83.11
225.939	25.43
226.157	72.53
226.375	111.44
226.592	-23.72
226.81	-29.87
227.028	37.72
227.246	119.64
227.464	-5.29
227.682	-40.11
227.9	37.72
228.117	-23.72
228.335	21.33
228.553	107.35
228.771	9.05
228.989	82.77
229.206	66.39
229.424	-52.39
229.642	-23.72
229.86	11.09
230.077	80.72
230.295	-7.34
230.513	45.91
230.731	9.05
230.948	43.86
231.166	35.67
231.384	39.76
231.601	-44.2
231.819	45.91
232.037	-3.24
232.254	31.57
232.472	64.34
232.689	50
232.907	9.05
233.125	-33.96
233.342	64.34
233.56	80.72
233.777	-11.43
233.995	15.19
234.213	82.77
234.43	-52.39
234.648	29.52
234.865	-11.43
235.083	27.48
235.3	2.9
235.518	52.05
235.735	47.96
235.953	-13.48
236.17	-44.2
236.388	31.57
236.605	27.48
236.822	78.68
237.04	146.26
237.257	-29.87
237.475	-79.02
237.692	19.29
237.909	64.34
238.127	13.14
238.344	-3.24
238.562	45.91
238.779	-7.34
238.996	2.9
239.214	-17.58
239.431	33.62
239.648	64.34
239.865	66.39
240.083	-11.43
240.3	70.48
240.517	-21.67
240.735	17.24
240.952	52.05
241.169	4.95
241.386	29.52
241.603	17.24
241.821	-50.35
242.038	64.34
242.255	99.16
242.472	-1.19
242.689	17.24
242.907	17.24
243.124	41.81
243.341	33.62
243.558	-15.53
243.775	-40.11
243.992	4.95
244.209	66.39
244.426	131.92
244.643	4.95
244.86	-17.58
245.078	29.52
245.295	41.81
245.512	-17.58
245.729	-17.58
245.946	-5.29
246.163	72.53
246.38	-9.39
246.597	4.95
246.814	19.29
247.031	13.14
247.248	76.63
247.464	33.62
247.681	9.05
247.898	39.76
248.115	72.53
248.332	-50.35
248.549	72.53
248.766	84.82
248.983	21.33
249.2	-11.43
249.417	27.48
249.633	41.81
249.85	-5.29
250.067	4.95
250.284	72.53
250.501	4.95
250.717	43.86
250.934	-3.24
251.151	50
251.368	-7.34
251.585	54.1
251.801	101.2
252.018	13.14
252.235	58.2
252.451	-27.82
252.668	-11.43
252.885	31.57
253.102	-42.15
253.318	27.48
253.535	-54.44
253.752	41.81
253.968	19.29
254.185	31.57
254.401	88.92
254.618	21.33
254.835	62.29
255.051	113.49
255.268	33.62
255.484	70.48
255.701	37.72
255.917	37.72
256.134	11.09
256.351	15.19
256.567	31.57
256.784	-23.72
257	-48.3
257.217	31.57
257.433	29.52
257.65	37.72
257.866	21.33
258.082	35.67
258.299	-15.53
258.515	-3.24
258.732	-27.82
258.948	47.96
259.165	45.91
259.381	-46.25
259.597	33.62
259.814	-58.54
260.03	-5.29
260.246	-23.72
260.463	17.24
260.679	78.68
260.895	19.29
261.112	4.95
261.328	50
261.544	-3.24
261.761	54.1
261.977	4.95
262.193	4.95
262.409	72.53
262.626	47.96
262.842	29.52
263.058	-38.06
263.274	125.78
263.49	37.72
263.707	15.19
263.923	25.43
264.139	60.24
264.355	2.9
264.571	15.19
264.787	90.96
265.004	109.4
265.22	99.16
265.436	23.38
265.652	33.62
265.868	-17.58
266.084	-13.48
266.3	-9.39
266.516	-19.63
266.732	62.29
266.948	-33.96
267.164	52.05
267.38	39.76
267.596	11.09
267.812	60.24
268.028	15.19
268.244	25.43
268.46	27.48
268.676	-21.67
268.892	37.72
269.108	0.85
269.324	2.9
269.54	-11.43
269.756	88.92
269.972	-1.19
270.188	33.62
270.403	-33.96
270.619	50
270.835	119.64
271.051	47.96
271.267	-11.43
271.483	-25.77
271.698	80.72
271.914	60.24
272.13	47.96
272.346	-13.48
272.562	47.96
272.777	-87.21
272.993	-40.11
273.209	-7.34
273.425	50
273.64	31.57
273.856	76.63
274.072	88.92
274.287	60.24
274.503	25.43
274.719	72.53
274.934	37.72
275.15	-76.97
275.366	50
275.581	90.96
275.797	37.72
276.012	21.33
276.228	-64.68
276.444	54.1
276.659	45.91
276.875	-58.54
277.09	62.29
277.306	-64.68
277.521	62.29
277.737	52.05
277.952	39.76
278.168	-5.29
278.383	52.05
278.599	15.19
278.814	7
279.03	9.05
279.245	31.57
279.461	-17.58
279.676	80.72
279.892	21.33
280.107	56.15
280.322	4.95
280.538	0.85
280.753	45.91
280.969	68.44
281.184	23.38
281.399	41.81
281.615	-3.24
281.83	41.81
282.045	33.62
282.26	13.14
282.476	64.34
282.691	152.4
282.906	29.52
283.122	66.39
283.337	-13.48
283.552	-19.63
283.767	-15.53
283.983	-7.34
284.198	-23.72
284.413	-7.34
284.628	-68.78
284.843	70.48
285.058	17.24
285.274	45.91
285.489	-36.01
285.704	58.2
285.919	31.57
286.134	11.09
286.349	41.81
286.564	2.9
286.779	68.44
286.995	47.96
287.21	50
287.425	-85.16
287.64	17.24
287.855	33.62
288.07	-17.58
288.285	74.58
288.5	41.81
288.715	-11.43
288.93	2.9
289.145	4.95
289.36	7
289.575	29.52
289.79	21.33
290.004	27.48
290.219	72.53
290.434	82.77
290.649	29.52
290.864	-5.29
291.079	-17.58
291.294	21.33
291.509	-17.58
291.724	-91.31
291.938	-7.34
292.153	37.72
292.368	2.9
292.583	9.05
292.798	27.48
293.012	68.44
293.227	9.05
293.442	-33.96
293.657	50
293.871	39.76
294.086	23.38
294.301	54.1
294.516	50
294.73	31.57
294.945	-31.91
295.16	-99.5
295.374	86.87
295.589	64.34
295.804	62.29
296.018	35.67
296.233	80.72
296.447	7
296.662	-17.58
296.877	86.87
297.091	0.85
297.306	70.48
297.52	0.85
297.735	-1.19
297.949	60.24
298.164	60.24
298.378	-27.82
298.593	2.9
298.807	2.9
299.022	-29.87
299.236	70.48
299.451	-3.24
299.665	19.29
299.88	68.44
300.094	52.05
300.309	-5.29
300.523	58.2
300.737	33.62
300.952	86.87
301.166	90.96
301.381	7
301.595	4.95
301.809	70.48
302.024	60.24
302.238	31.57
302.452	45.91
302.667	-23.72
302.881	45.91
303.095	80.72
303.309	35.67
303.524	-1.19
303.738	2.9
303.952	90.96
304.166	21.33
304.381	-42.15
304.595	109.4
304.809	60.24
305.023	0.85
305.237	-9.39
305.452	-38.06
305.666	21.33
305.88	82.77
306.094	90.96
306.308	11.09
306.522	9.05
306.736	21.33
306.95	47.96
307.164	45.91
307.379	43.86
307.593	62.29
307.807	74.58
308.021	80.72
308.235	23.38
308.449	-23.72
308.663	11.09
308.877	133.97
309.091	23.38
309.305	-31.91
309.519	-11.43
309.733	70.48
309.947	4.95
310.161	31.57
310.374	-19.63
310.588	52.05
310.802	17.24
311.016	86.87
311.23	-13.48
311.444	60.24
311.658	-56.49
311.872	-46.25
312.085	39.76
312.299	86.87
312.513	54.1
312.727	31.57
312.941	-33.96
313.154	45.91
313.368	13.14
313.582	-9.39
313.796	33.62
314.009	88.92
314.223	47.96
314.437	47.96
314.651	58.2
314.864	-1.19
315.078	66.39
315.292	-9.39
315.505	23.38
315.719	9.05
315.933	21.33
316.146	2.9
316.36	-21.67
316.573	86.87
316.787	50
317.001	11.09
317.214	47.96
317.428	41.81
317.641	-27.82
317.855	11.09
318.068	37.72
318.282	35.67
318.495	99.16
318.709	56.15
318.922	17.24
319.136	78.68
319.349	-23.72
319.563	43.86
319.776	7
319.99	62.29
320.203	4.95
320.417	2.9
320.63	37.72
320.843	60.24
321.057	56.15
321.27	-7.34
321.483	21.33
321.697	84.82
321.91	95.06
322.124	41.81
322.337	33.62
322.55	2.9
322.763	35.67
322.977	13.14
323.19	-7.34
323.403	-3.24
323.617	58.2
323.83	-13.48
324.043	47.96
324.256	29.52
324.469	56.15
324.683	47.96
324.896	39.76
325.109	23.38
325.322	-31.91
325.535	93.01
325.748	66.39
325.962	-38.06
326.175	4.95
326.388	-1.19
326.601	-23.72
326.814	62.29
327.027	2.9
327.24	19.29
327.453	-29.87
327.666	21.33
327.879	97.11
328.092	54.1
328.305	41.81
328.518	9.05
328.731	-19.63
328.944	37.72
329.157	21.33
329.37	17.24
329.583	109.4
329.796	86.87
330.009	97.11
330.222	50
330.435	52.05
330.648	52.05
330.861	-11.43
331.073	0.85
331.286	-3.24
331.499	99.16
331.712	-27.82
331.925	-5.29
332.138	27.48
332.35	56.15
332.563	2.9
332.776	41.81
332.989	45.91
333.202	19.29
333.414	25.43
333.627	9.05
333.84	52.05
334.053	41.81
334.265	37.72
334.478	-62.63
334.691	-29.87
334.903	-5.29
335.116	47.96
335.329	13.14
335.541	-48.3
335.754	-36.01
335.966	-27.82
336.179	74.58
336.392	37.72
336.604	45.91
336.817	21.33
337.029	-21.67
337.242	56.15
337.454	50
337.667	15.19
337.88	84.82
338.092	56.15
338.305	88.92
338.517	50
338.729	33.62
338.942	58.2
339.154	11.09
339.367	50
339.579	4.95
339.792	27.48
340.004	93.01
340.217	60.24
340.429	41.81
340.641	123.73
340.854	15.19
341.066	2.9
341.278	-3.24
341.491	111.44
341.703	80.72
341.915	7
342.128	66.39
342.34	-19.63
342.552	37.72
342.764	41.81
342.977	-3.24
343.189	7
343.401	58.2
343.613	-50.35
343.826	43.86
344.038	-23.72
344.25	27.48
344.462	37.72
344.674	33.62
344.886	13.14
345.099	13.14
345.311	-27.82
345.523	-38.06
345.735	-95.4
345.947	4.95
346.159	-48.3
346.371	70.48
346.583	70.48
346.795	70.48
347.007	45.91
347.219	129.88
347.431	-29.87
347.643	41.81
347.855	25.43
348.067	93.01
348.279	2.9
348.491	99.16
348.703	84.82
348.915	15.19
349.127	-74.92
349.339	39.76
349.551	50
349.763	80.72
349.975	31.57
350.187	60.24
350.399	15.19
350.61	4.95
350.822	103.25
351.034	-17.58
351.246	-17.58
351.458	39.76
351.669	21.33
351.881	70.48
352.093	-17.58
352.305	60.24
352.517	29.52
352.728	60.24
352.94	19.29
353.152	11.09
353.363	15.19
353.575	-7.34
353.787	37.72
353.999	90.96
354.21	99.16
354.422	-52.39
354.633	41.81
354.845	29.52
355.057	54.1
355.268	15.19
355.48	37.72
355.692	23.38
355.903	99.16
356.115	-58.54
356.326	19.29
356.538	74.58
356.749	35.67
356.961	76.63
357.172	43.86
357.384	23.38
357.595	138.07
357.807	7
358.018	35.67
358.23	13.14
358.441	99.16
358.653	13.14
358.864	64.34
359.075	-21.67
359.287	62.29
359.498	54.1
359.709	-13.48
359.921	-17.58
360.132	7
360.344	107.35
360.555	72.53
360.766	39.76
360.977	50
361.189	70.48
361.4	-31.91
361.611	19.29
361.823	70.48
362.034	64.34
362.245	29.52
362.456	-31.91
362.667	-1.19
362.879	43.86
363.09	82.77
363.301	41.81
363.512	-3.24
363.723	17.24
363.935	11.09
364.146	90.96
364.357	105.3
364.568	27.48
364.779	-29.87
364.99	164.69
365.201	72.53
365.412	111.44
365.623	-27.82
365.834	76.63
366.045	13.14
366.256	138.07
366.467	99.16
366.678	-46.25
366.889	31.57
367.1	54.1
367.311	84.82
367.522	70.48
367.733	150.36
367.944	-3.24
368.155	-42.15
368.366	86.87
368.577	70.48
368.788	52.05
368.999	-48.3
369.209	66.39
369.42	72.53
369.631	117.59
369.842	56.15
370.053	-9.39
370.264	66.39
370.474	-21.67
370.685	15.19
370.896	111.44
371.107	35.67
371.317	25.43
371.528	-81.07
371.739	84.82
371.95	54.1
372.16	45.91
372.371	11.09
372.582	-21.67
372.792	43.86
373.003	19.29
373.214	60.24
373.424	27.48
373.635	15.19
373.846	142.16
374.056	37.72
374.267	-11.43
374.477	19.29
374.688	39.76
374.898	4.95
375.109	-21.67
375.319	-1.19
375.53	33.62
375.74	99.16
375.951	7
376.161	72.53
376.372	62.29
376.582	113.49
376.793	76.63
377.003	47.96
377.214	70.48
377.424	80.72
377.635	41.81
377.845	107.35
378.055	56.15
378.266	-25.77
378.476	-21.67
378.686	43.86
378.897	21.33
379.107	80.72
379.317	2.9
379.528	33.62
379.738	103.25
379.948	23.38
380.158	56.15
380.369	15.19
380.579	-7.34
380.789	168.79
380.999	90.96
381.21	35.67
381.42	111.44
381.63	31.57
381.84	27.48
382.05	54.1
382.261	41.81
382.471	29.52
382.681	29.52
382.891	66.39
383.101	68.44
383.311	21.33
383.521	-1.19
383.731	105.3
383.941	84.82
384.151	72.53
384.361	50
384.571	70.48
384.781	21.33
384.991	74.58
385.201	35.67
385.411	68.44
385.621	23.38
385.831	70.48
386.041	50
386.251	50
386.461	82.77
386.671	4.95
386.881	27.48
387.091	37.72
387.301	113.49
387.511	43.86
387.72	56.15
387.93	43.86
388.14	23.38
388.35	97.11
388.56	119.64
388.769	111.44
388.979	13.14
389.189	45.91
389.399	43.86
389.609	148.31
389.818	56.15
390.028	117.59
390.238	115.54
390.447	15.19
390.657	76.63
390.867	54.1
391.076	-15.53
391.286	-36.01
391.496	60.24
391.705	-15.53
391.915	54.1
392.125	78.68
392.334	2.9
392.544	166.74
392.753	47.96
392.963	54.1
393.172	47.96
393.382	68.44
393.591	136.02
393.801	66.39
394.01	107.35
394.22	62.29
394.429	90.96
394.639	9.05
394.848	68.44
395.058	54.1
395.267	9.05
395.477	166.74
395.686	131.92
395.895	117.59
396.105	58.2
396.314	115.54
396.524	45.91
396.733	7
396.942	33.62
397.152	133.97
397.361	99.16
397.57	90.96
397.78	90.96
397.989	154.45
398.198	109.4
398.407	84.82
398.617	113.49
398.826	84.82
399.035	115.54
399.244	74.58
399.453	131.92
399.663	95.06
399.872	115.54
400.081	25.43
400.29	111.44
400.499	76.63
400.708	86.87
400.917	115.54
401.127	146.26
401.336	97.11
401.545	213.84
401.754	105.3
401.963	156.5
402.172	-5.29
402.381	64.34
402.59	72.53
402.799	76.63
403.008	111.44
403.217	95.06
403.426	74.58
403.635	80.72
403.844	117.59
404.053	144.21
404.262	119.64
404.471	80.72
404.68	199.51
404.888	95.06
405.097	166.74
405.306	129.88
405.515	156.5
405.724	183.12
405.933	148.31
406.142	205.65
406.35	131.92
406.559	201.55
406.768	193.36
406.977	191.31
407.185	250.71
407.394	197.46
407.603	125.78
407.812	213.84
408.02	250.71
408.229	176.98
408.438	156.5
408.646	121.68
408.855	242.51
409.064	217.94
409.272	146.26
409.481	201.55
409.69	201.55
409.898	209.75
410.107	287.57
410.315	314.19
410.524	258.9
410.733	320.34
410.941	320.34
411.15	289.62
411.358	316.24
411.567	381.78
411.775	404.3
411.984	373.58
412.192	441.17
412.401	400.21
412.609	432.97
412.818	482.13
413.026	432.97
413.234	435.02
413.443	453.45
413.651	475.98
413.86	562
414.068	537.42
414.276	592.72
414.485	547.66
414.693	564.04
414.901	674.64
415.11	619.34
415.318	672.59
415.526	672.59
415.734	666.44
415.943	660.3
416.151	791.37
416.359	740.17
416.567	756.55
416.776	809.8
416.984	858.95
417.192	910.15
417.4	889.67
417.608	1000.26
417.817	1010.5
418.025	1049.41
418.233	1063.75
418.441	1030.98
418.649	1088.32
418.857	1203.01
419.065	1233.73
419.273	1129.28
419.481	1209.15
419.689	1262.4
419.897	1389.38
420.105	1418.05
420.313	1430.34
420.521	1540.93
420.729	1561.41
420.937	1557.31
421.145	1559.36
421.353	1631.04
421.561	1846.07
421.769	1884.98
421.977	1854.27
422.185	1770.3
422.393	2001.72
422.601	2081.59
422.809	2083.64
423.017	2136.88
423.224	2130.74
423.432	2360.11
423.64	2347.83
423.848	2530.09
424.056	2437.94
424.263	2554.67
424.471	2638.64
424.679	2769.71
424.887	2835.24
425.094	2970.41
425.302	2738.99
425.51	2994.98
425.718	3056.42
425.925	3205.92
426.133	3277.6
426.341	3529.5
426.548	3642.14
426.756	3810.08
426.964	3724.06
427.171	3834.65
427.379	3959.58
427.586	4178.71
427.794	4156.18
428.001	4487.95
428.209	4569.87
428.417	4543.25
428.624	4875.02
428.832	4860.68
429.039	4746
429.247	4834.06
429.454	5296.9
429.662	5620.48
429.869	5266.18
430.076	5839.61
430.284	5573.38
430.491	5669.63
430.699	6111.99
430.906	5950.2
431.114	5980.92
431.321	6408.95
431.528	6494.96
431.736	6939.37
431.943	7172.84
432.15	6966
432.358	6951.66
432.565	7625.44
432.772	7250.66
432.979	7656.16
433.187	7850.72
433.394	7697.12
433.601	8553.17
433.808	8628.95
434.016	8495.83
434.223	8803.02
434.43	9300.68
434.637	9255.62
434.844	10013.37
435.052	10027.71
435.259	9945.79
435.466	9904.83
435.673	9851.58
435.88	10666.67
436.087	11072.17
436.294	11164.33
436.501	10846.9
436.708	11006.64
436.915	11494.05
437.122	11938.46
437.329	12104.35
437.537	12216.99
437.743	12563.09
437.95	12235.42
438.157	13128.33
438.364	13607.56
438.571	13527.69
438.778	13798.02
438.985	14772.85
439.192	14316.15
439.399	14623.35
439.606	14443.13
439.813	15227.5
440.02	15919.71
440.227	15927.91
440.433	15741.54
440.64	16544.34
440.847	16159.33
441.054	16380.51
441.261	17709.64
441.467	17078.86
441.674	17619.53
441.881	18506.3
442.088	18205.25
442.294	18137.66
442.501	18725.43
442.708	19229.23
442.914	19937.83
443.121	20701.72
443.328	20064.8
443.534	21699.08
443.741	20818.46
443.948	20220.45
444.154	22127.11
444.361	22254.08
444.568	22206.98
444.774	22219.27
444.981	22534.65
445.187	23157.24
445.394	23884.26
445.6	24017.38
445.807	26202.57
446.013	25270.74
446.22	25186.77
446.426	26556.86
446.633	26692.03
446.839	27627.95
447.046	26292.68
447.252	27630
447.459	28195.24
447.665	27670.96
447.871	29280.66
448.078	30648.71
448.284	28850.59
448.491	29757.84
448.697	30869.89
448.903	31500.66
449.11	31381.88
449.316	31117.69
449.522	31584.63
449.728	32639.33
449.935	32627.04
450.141	32719.2
450.347	33450.33
450.553	32532.84
450.76	32678.24
450.966	33898.83
451.172	33548.63
451.378	34492.74
451.584	33751.38
451.791	34416.97
451.997	34019.66
452.203	34679.11
452.409	34840.9
452.615	34308.43
452.821	33364.31
453.027	33014.11
453.233	34822.47
453.44	33216.86
453.646	33894.74
453.852	34011.47
454.058	34611.53
454.264	33184.09
454.47	33878.35
454.676	33257.82
454.882	34224.46
455.088	31439.22
455.294	31908.21
455.5	32184.68
455.705	32479.59
455.911	31390.07
456.117	30603.65
456.323	30263.69
456.529	28674.46
456.735	29964.68
456.941	28832.16
457.147	28553.63
457.352	27834.8
457.558	27331
457.764	27187.64
457.97	26800.57
458.176	26397.12
458.381	26440.13
458.587	25051.61
458.793	24793.56
458.999	23294.45
459.204	25330.13
459.41	24738.27
459.616	23284.21
459.821	23132.66
460.027	23089.65
460.233	22426.11
460.438	21600.78
460.644	21758.47
460.85	20656.67
461.055	20175.39
461.261	20111.91
461.466	18586.17
461.672	18207.3
461.878	19706.41
462.083	18422.33
462.289	17734.21
462.494	17420.88
462.7	16831.06
462.905	16351.84
463.111	17099.34
463.316	17115.73
463.522	16628.31
463.727	16773.72
463.932	16484.95
464.138	16693.85
464.343	16407.13
464.549	16183.9
464.754	16804.44
464.959	16353.88
465.165	16325.21
465.37	15676.01
465.575	15270.51
465.781	15925.86
465.986	16142.94
466.191	15493.74
466.397	15147.63
466.602	14342.78
466.807	15217.26
467.012	14965.36
467.218	14781.04
467.423	14576.25
467.628	14729.84
467.833	15450.73
468.038	14719.6
468.244	14402.17
468.449	14850.67
468.654	14324.35
