Data from USB4F104151__12__12-23-23-463.txt Node

Date: Fri Mar 14 12:23:23 EDT 2025
User: louis
Spectrometer: USB4F10415
Trigger mode: 4
Integration Time (sec): 3.500000E-2
Scans to average: 1
Electric dark correction enabled: true
Nonlinearity correction enabled: false
Boxcar width: 0
XAxis mode: Wavelengths
Number of Pixels in Spectrum: 3648
>>>>>Begin Spectral Data<<<<<
178.204	-141.65
178.424	-141.65
178.644	-141.65
178.864	-211.28
179.084	-98.64
179.304	-18.77
179.524	-16.73
179.744	-8.53
179.964	85.67
180.184	18.09
180.404	89.77
180.624	-16.73
180.844	1.71
181.064	26.28
181.283	-53.59
181.503	-24.92
181.723	-82.26
181.943	-82.26
182.163	91.82
182.383	-12.63
182.602	26.28
182.822	73.39
183.042	24.23
183.262	-33.11
183.482	-0.34
183.701	-29.01
183.921	28.33
184.141	30.38
184.361	18.09
184.58	-57.68
184.8	108.2
185.02	22.19
185.239	151.21
185.459	-4.44
185.679	22.19
185.898	1.71
186.118	-24.92
186.338	65.19
186.557	40.62
186.777	-35.16
186.997	46.76
187.216	18.09
187.436	59.05
187.655	61.1
187.875	32.43
188.095	-14.68
188.314	116.39
188.534	-12.63
188.753	9.9
188.973	9.9
189.192	93.87
189.412	54.95
189.631	34.47
189.851	18.09
190.07	44.71
190.29	26.28
190.509	-22.87
190.729	48.81
190.948	79.53
191.168	145.06
191.387	112.3
191.607	-26.96
191.826	36.52
192.045	65.19
192.265	-51.54
192.484	46.76
192.704	-76.12
192.923	-8.53
193.142	134.82
193.362	18.09
193.581	91.82
193.8	34.47
194.02	-20.82
194.239	-69.97
194.458	28.33
194.678	-22.87
194.897	30.38
195.116	40.62
195.335	87.72
195.555	32.43
195.774	36.52
195.993	-2.39
196.212	-29.01
196.432	-20.82
196.651	-57.68
196.87	52.91
197.089	85.67
197.308	85.67
197.528	28.33
197.747	-53.59
197.966	-35.16
198.185	20.14
198.404	44.71
198.623	13.99
198.842	24.23
199.062	128.68
199.281	75.43
199.5	-2.39
199.719	-12.63
199.938	48.81
200.157	65.19
200.376	-45.4
200.595	-31.06
200.814	-10.58
201.033	-2.39
201.252	63.15
201.471	91.82
201.69	67.24
201.909	89.77
202.128	38.57
202.347	75.43
202.566	87.72
202.785	-0.34
203.004	1.71
203.223	59.05
203.442	-10.58
203.661	-22.87
203.879	44.71
204.098	32.43
204.317	-41.3
204.536	120.49
204.755	32.43
204.974	106.15
205.193	52.91
205.411	147.11
205.63	54.95
205.849	36.52
206.068	54.95
206.287	67.24
206.505	81.58
206.724	38.57
206.943	-12.63
207.162	24.23
207.381	28.33
207.599	-18.77
207.818	3.75
208.037	57
208.255	26.28
208.474	-8.53
208.693	36.52
208.911	9.9
209.13	28.33
209.349	71.34
209.567	-12.63
209.786	57
210.005	-24.92
210.223	50.86
210.442	-24.92
210.661	24.23
210.879	9.9
211.098	9.9
211.316	36.52
211.535	-14.68
211.753	-31.06
211.972	32.43
212.191	26.28
212.409	-24.92
212.628	16.04
212.846	65.19
213.065	32.43
213.283	52.91
213.502	1.71
213.72	3.75
213.938	69.29
214.157	-14.68
214.375	57
214.594	26.28
214.812	-24.92
215.031	54.95
215.249	46.76
215.467	-26.96
215.686	69.29
215.904	75.43
216.122	87.72
216.341	81.58
216.559	73.39
216.778	81.58
216.996	26.28
217.214	40.62
217.432	28.33
217.651	-49.49
217.869	-12.63
218.087	-14.68
218.306	-18.77
218.524	28.33
218.742	16.04
218.96	11.95
219.179	73.39
219.397	65.19
219.615	67.24
219.833	-88.4
220.051	-63.83
220.27	100.01
220.488	73.39
220.706	26.28
220.924	13.99
221.142	-12.63
221.36	-16.73
221.578	54.95
221.796	-16.73
222.015	48.81
222.233	30.38
222.451	46.76
222.669	87.72
222.887	38.57
223.105	-26.96
223.323	9.9
223.541	-47.44
223.759	65.19
223.977	-55.64
224.195	75.43
224.413	32.43
224.631	32.43
224.849	-53.59
225.067	97.96
225.285	79.53
225.503	52.91
225.721	-2.39
225.939	-45.4
226.157	50.86
226.375	124.58
226.592	32.43
226.81	81.58
227.028	114.34
227.246	161.45
227.464	-16.73
227.682	71.34
227.9	5.8
228.117	-12.63
228.335	-10.58
228.553	104.11
228.771	83.63
228.989	48.81
229.206	69.29
229.424	42.67
229.642	34.47
229.86	40.62
230.077	59.05
230.295	-8.53
230.513	-4.44
230.731	18.09
230.948	85.67
231.166	54.95
231.384	-0.34
231.601	57
231.819	85.67
232.037	28.33
232.254	22.19
232.472	79.53
232.689	-14.68
232.907	32.43
233.125	50.86
233.342	42.67
233.56	54.95
233.777	-26.96
233.995	52.91
234.213	52.91
234.43	16.04
234.648	-2.39
234.865	18.09
235.083	57
235.3	48.81
235.518	13.99
235.735	24.23
235.953	22.19
236.17	7.85
236.388	7.85
236.605	32.43
236.822	69.29
237.04	95.91
237.257	-18.77
237.475	28.33
237.692	48.81
237.909	77.48
238.127	65.19
238.344	-14.68
238.562	28.33
238.779	-51.54
238.996	-2.39
239.214	63.15
239.431	9.9
239.648	3.75
239.865	-0.34
240.083	134.82
240.3	63.15
240.517	24.23
240.735	63.15
240.952	40.62
241.169	32.43
241.386	1.71
241.603	36.52
241.821	69.29
242.038	30.38
242.255	118.44
242.472	-0.34
242.689	-6.49
242.907	67.24
243.124	-29.01
243.341	61.1
243.558	54.95
243.775	-57.68
243.992	-12.63
244.209	-12.63
244.426	85.67
244.643	44.71
244.86	-12.63
245.078	-41.3
245.295	34.47
245.512	-31.06
245.729	-6.49
245.946	-29.01
246.163	50.86
246.38	48.81
246.597	28.33
246.814	24.23
247.031	-6.49
247.248	75.43
247.464	52.91
247.681	11.95
247.898	42.67
248.115	26.28
248.332	-20.82
248.549	18.09
248.766	83.63
248.983	85.67
249.2	40.62
249.417	40.62
249.633	-26.96
249.85	71.34
250.067	-16.73
250.284	1.71
250.501	116.39
250.717	71.34
250.934	38.57
251.151	22.19
251.368	-14.68
251.585	83.63
251.801	63.15
252.018	-26.96
252.235	34.47
252.451	16.04
252.668	-2.39
252.885	61.1
253.102	22.19
253.318	65.19
253.535	11.95
253.752	48.81
253.968	57
254.185	48.81
254.401	20.14
254.618	69.29
254.835	22.19
255.051	102.06
255.268	73.39
255.484	28.33
255.701	24.23
255.917	52.91
256.134	-22.87
256.351	3.75
256.567	30.38
256.784	-16.73
257	-22.87
257.217	69.29
257.433	30.38
257.65	42.67
257.866	63.15
258.082	1.71
258.299	52.91
258.515	85.67
258.732	71.34
258.948	-24.92
259.165	-16.73
259.381	44.71
259.597	20.14
259.814	50.86
260.03	48.81
260.246	-0.34
260.463	-35.16
260.679	36.52
260.895	71.34
261.112	-2.39
261.328	1.71
261.544	-18.77
261.761	100.01
261.977	38.57
262.193	11.95
262.409	120.49
262.626	67.24
262.842	7.85
263.058	-45.4
263.274	132.78
263.49	-12.63
263.707	18.09
263.923	44.71
264.139	-35.16
264.355	36.52
264.571	36.52
264.787	13.99
265.004	-51.54
265.22	79.53
265.436	77.48
265.652	-8.53
265.868	36.52
266.084	54.95
266.3	75.43
266.516	-51.54
266.732	67.24
266.948	9.9
267.164	7.85
267.38	54.95
267.596	63.15
267.812	112.3
268.028	100.01
268.244	24.23
268.46	75.43
268.676	3.75
268.892	91.82
269.108	5.8
269.324	-6.49
269.54	-31.06
269.756	124.58
269.972	-31.06
270.188	-61.78
270.403	-31.06
270.619	9.9
270.835	63.15
271.051	22.19
271.267	-0.34
271.483	24.23
271.698	18.09
271.914	83.63
272.13	-18.77
272.346	7.85
272.562	13.99
272.777	16.04
272.993	-8.53
273.209	-16.73
273.425	30.38
273.64	1.71
273.856	52.91
274.072	75.43
274.287	13.99
274.503	48.81
274.719	-31.06
274.934	34.47
275.15	-82.26
275.366	13.99
275.581	11.95
275.797	-74.07
276.012	13.99
276.228	65.19
276.444	32.43
276.659	61.1
276.875	7.85
277.09	7.85
277.306	61.1
277.521	63.15
277.737	11.95
277.952	16.04
278.168	89.77
278.383	-0.34
278.599	-39.25
278.814	26.28
279.03	1.71
279.245	16.04
279.461	42.67
279.676	32.43
279.892	-35.16
280.107	16.04
280.322	-20.82
280.538	-10.58
280.753	-10.58
280.969	75.43
281.184	54.95
281.399	11.95
281.615	48.81
281.83	20.14
282.045	-43.35
282.26	22.19
282.476	-18.77
282.691	102.06
282.906	-69.97
283.122	7.85
283.337	-57.68
283.552	7.85
283.767	-20.82
283.983	-18.77
284.198	26.28
284.413	57
284.628	-49.49
284.843	28.33
285.058	24.23
285.274	59.05
285.489	9.9
285.704	7.85
285.919	69.29
286.134	-14.68
286.349	9.9
286.564	7.85
286.779	89.77
286.995	3.75
287.21	-0.34
287.425	85.67
287.64	-10.58
287.855	46.76
288.07	-16.73
288.285	89.77
288.5	48.81
288.715	20.14
288.93	24.23
289.145	-41.3
289.36	106.15
289.575	24.23
289.79	36.52
290.004	-33.11
290.219	3.75
290.434	-6.49
290.649	50.86
290.864	9.9
291.079	42.67
291.294	36.52
291.509	67.24
291.724	145.06
291.938	30.38
292.153	40.62
292.368	38.57
292.583	-12.63
292.798	104.11
293.012	-0.34
293.227	-33.11
293.442	89.77
293.657	67.24
293.871	34.47
294.086	34.47
294.301	106.15
294.516	65.19
294.73	110.25
294.945	22.19
295.16	-55.64
295.374	95.91
295.589	97.96
295.804	54.95
296.018	40.62
296.233	71.34
296.447	42.67
296.662	73.39
296.877	7.85
297.091	22.19
297.306	61.1
297.52	13.99
297.735	24.23
297.949	-35.16
298.164	7.85
298.378	38.57
298.593	-4.44
298.807	-43.35
299.022	63.15
299.236	71.34
299.451	106.15
299.665	77.48
299.88	-53.59
300.094	-2.39
300.309	42.67
300.523	26.28
300.737	-6.49
300.952	63.15
301.166	18.09
301.381	-12.63
301.595	-47.44
301.809	46.76
302.024	7.85
302.238	32.43
302.452	77.48
302.667	-41.3
302.881	-10.58
303.095	75.43
303.309	81.58
303.524	-57.68
303.738	100.01
303.952	-12.63
304.166	-24.92
304.381	-33.11
304.595	7.85
304.809	-24.92
305.023	85.67
305.237	34.47
305.452	44.71
305.666	11.95
305.88	32.43
306.094	81.58
306.308	44.71
306.522	100.01
306.736	57
306.95	11.95
307.164	73.39
307.379	16.04
307.593	-0.34
307.807	83.63
308.021	102.06
308.235	-41.3
308.449	-14.68
308.663	75.43
308.877	73.39
309.091	65.19
309.305	52.91
309.519	-16.73
309.733	91.82
309.947	-37.2
310.161	71.34
310.374	100.01
310.588	73.39
310.802	36.52
311.016	44.71
311.23	50.86
311.444	-0.34
311.658	46.76
311.872	52.91
312.085	157.35
312.299	42.67
312.513	46.76
312.727	50.86
312.941	22.19
313.154	28.33
313.368	-4.44
313.582	50.86
313.796	32.43
314.009	67.24
314.223	11.95
314.437	95.91
314.651	28.33
314.864	54.95
315.078	20.14
315.292	26.28
315.505	-31.06
315.719	-18.77
315.933	-51.54
316.146	-18.77
316.36	-10.58
316.573	59.05
316.787	9.9
317.001	44.71
317.214	-59.73
317.428	26.28
317.641	-29.01
317.855	11.95
318.068	22.19
318.282	-14.68
318.495	118.44
318.709	22.19
318.922	-2.39
319.136	9.9
319.349	104.11
319.563	3.75
319.776	38.57
319.99	-6.49
320.203	67.24
320.417	18.09
320.63	1.71
320.843	95.91
321.057	32.43
321.27	50.86
321.483	59.05
321.697	87.72
321.91	54.95
322.124	-12.63
322.337	30.38
322.55	20.14
322.763	-63.83
322.977	50.86
323.19	32.43
323.403	32.43
323.617	67.24
323.83	59.05
324.043	-33.11
324.256	122.54
324.469	24.23
324.683	46.76
324.896	75.43
325.109	34.47
325.322	-65.88
325.535	48.81
325.748	46.76
325.962	20.14
326.175	-24.92
326.388	50.86
326.601	114.34
326.814	79.53
327.027	81.58
327.24	54.95
327.453	13.99
327.666	-14.68
327.879	32.43
328.092	87.72
328.305	54.95
328.518	-47.44
328.731	57
328.944	3.75
329.157	-22.87
329.37	-37.2
329.583	42.67
329.796	89.77
330.009	-22.87
330.222	42.67
330.435	-16.73
330.648	69.29
330.861	69.29
331.073	20.14
331.286	13.99
331.499	89.77
331.712	26.28
331.925	16.04
332.138	-4.44
332.35	87.72
332.563	59.05
332.776	57
332.989	69.29
333.202	16.04
333.414	40.62
333.627	36.52
333.84	-24.92
334.053	3.75
334.265	9.9
334.478	63.15
334.691	-22.87
334.903	34.47
335.116	-0.34
335.329	36.52
335.541	32.43
335.754	95.91
335.966	16.04
336.179	-8.53
336.392	16.04
336.604	40.62
336.817	77.48
337.029	-33.11
337.242	-0.34
337.454	65.19
337.667	26.28
337.88	122.54
338.092	59.05
338.305	73.39
338.517	13.99
338.729	85.67
338.942	157.35
339.154	57
339.367	30.38
339.579	22.19
339.792	-35.16
340.004	-4.44
340.217	20.14
340.429	22.19
340.641	57
340.854	11.95
341.066	-24.92
341.278	85.67
341.491	75.43
341.703	93.87
341.915	-35.16
342.128	40.62
342.34	-26.96
342.552	-0.34
342.764	-14.68
342.977	44.71
343.189	97.96
343.401	81.58
343.613	44.71
343.826	3.75
344.038	36.52
344.25	81.58
344.462	44.71
344.674	73.39
344.886	52.91
345.099	16.04
345.311	44.71
345.523	-14.68
345.735	-45.4
345.947	77.48
346.159	9.9
346.371	20.14
346.583	-20.82
346.795	83.63
347.007	124.58
347.219	65.19
347.431	36.52
347.643	34.47
347.855	67.24
348.067	83.63
348.279	11.95
348.491	28.33
348.703	54.95
348.915	-16.73
349.127	36.52
349.339	69.29
349.551	-0.34
349.763	32.43
349.975	-106.84
350.187	61.1
350.399	52.91
350.61	75.43
350.822	-63.83
351.034	108.2
351.246	61.1
351.458	124.58
351.669	3.75
351.881	52.91
352.093	-2.39
352.305	57
352.517	48.81
352.728	102.06
352.94	26.28
353.152	102.06
353.363	54.95
353.575	34.47
353.787	104.11
353.999	46.76
354.21	114.34
354.422	57
354.633	30.38
354.845	34.47
355.057	42.67
355.268	85.67
355.48	40.62
355.692	13.99
355.903	57
356.115	20.14
356.326	24.23
356.538	40.62
356.749	89.77
356.961	50.86
357.172	65.19
357.384	-33.11
357.595	147.11
357.807	-10.58
358.018	11.95
358.23	-29.01
358.441	67.24
358.653	44.71
358.864	57
359.075	11.95
359.287	87.72
359.498	24.23
359.709	3.75
359.921	34.47
360.132	46.76
360.344	75.43
360.555	32.43
360.766	-6.49
360.977	-29.01
361.189	38.57
361.4	18.09
361.611	34.47
361.823	134.82
362.034	30.38
362.245	-47.44
362.456	42.67
362.667	-24.92
362.879	100.01
363.09	-18.77
363.301	42.67
363.512	26.28
363.723	-55.64
363.935	54.95
364.146	85.67
364.357	18.09
364.568	57
364.779	-22.87
364.99	171.69
365.201	44.71
365.412	126.63
365.623	-16.73
365.834	46.76
366.045	22.19
366.256	-8.53
366.467	104.11
366.678	48.81
366.889	9.9
367.1	3.75
367.311	-35.16
367.522	59.05
367.733	48.81
367.944	71.34
368.155	5.8
368.366	69.29
368.577	102.06
368.788	16.04
368.999	-8.53
369.209	24.23
369.42	81.58
369.631	128.68
369.842	28.33
370.053	34.47
370.264	85.67
370.474	28.33
370.685	7.85
370.896	18.09
371.107	-8.53
371.317	73.39
371.528	11.95
371.739	97.96
371.95	93.87
372.16	11.95
372.371	-10.58
372.582	-51.54
372.792	42.67
373.003	59.05
373.214	63.15
373.424	48.81
373.635	-14.68
373.846	26.28
374.056	83.63
374.267	13.99
374.477	1.71
374.688	40.62
374.898	-24.92
375.109	26.28
375.319	-4.44
375.53	89.77
375.74	26.28
375.951	81.58
376.161	-2.39
376.372	54.95
376.582	122.54
376.793	52.91
377.003	54.95
377.214	44.71
377.424	-31.06
377.635	118.44
377.845	34.47
378.055	114.34
378.266	46.76
378.476	9.9
378.686	9.9
378.897	36.52
379.107	67.24
379.317	22.19
379.528	52.91
379.738	52.91
379.948	97.96
380.158	112.3
380.369	30.38
380.579	79.53
380.789	36.52
380.999	102.06
381.21	91.82
381.42	100.01
381.63	42.67
381.84	13.99
382.05	38.57
382.261	100.01
382.471	40.62
382.681	7.85
382.891	165.54
383.101	79.53
383.311	40.62
383.521	65.19
383.731	75.43
383.941	52.91
384.151	46.76
384.361	42.67
384.571	112.3
384.781	54.95
384.991	91.82
385.201	104.11
385.411	83.63
385.621	59.05
385.831	63.15
386.041	75.43
386.251	52.91
386.461	44.71
386.671	40.62
386.881	102.06
387.091	122.54
387.301	75.43
387.511	24.23
387.72	112.3
387.93	85.67
388.14	5.8
388.35	11.95
388.56	128.68
388.769	18.09
388.979	24.23
389.189	75.43
389.399	42.67
389.609	40.62
389.818	59.05
390.028	54.95
390.238	128.68
390.447	-0.34
390.657	69.29
390.867	38.57
391.076	89.77
391.286	59.05
391.496	73.39
391.705	11.95
391.915	13.99
392.125	87.72
392.334	69.29
392.544	104.11
392.753	-16.73
392.963	-18.77
393.172	73.39
393.382	-0.34
393.591	87.72
393.801	52.91
394.01	155.3
394.22	165.54
394.429	16.04
394.639	97.96
394.848	69.29
395.058	63.15
395.267	79.53
395.477	63.15
395.686	102.06
395.895	136.87
396.105	200.36
396.314	87.72
396.524	28.33
396.733	59.05
396.942	112.3
397.152	145.06
397.361	69.29
397.57	138.92
397.78	118.44
397.989	118.44
398.198	147.11
398.407	104.11
398.617	69.29
398.826	87.72
399.035	42.67
399.244	32.43
399.453	57
399.663	132.78
399.872	102.06
400.081	93.87
400.29	100.01
400.499	61.1
400.708	97.96
400.917	126.63
401.127	102.06
401.336	65.19
401.545	143.02
401.754	102.06
401.963	71.34
402.172	118.44
402.381	11.95
402.59	26.28
402.799	118.44
403.008	118.44
403.217	169.64
403.426	106.15
403.635	85.67
403.844	122.54
404.053	112.3
404.262	112.3
404.471	147.11
404.68	145.06
404.888	108.2
405.097	100.01
405.306	118.44
405.515	153.26
405.724	159.4
405.933	120.49
406.142	171.69
406.35	132.78
406.559	134.82
406.768	157.35
406.977	190.12
407.185	210.6
407.394	181.93
407.603	183.98
407.812	188.07
408.02	212.65
408.229	177.83
408.438	71.34
408.646	231.08
408.855	210.6
409.064	255.65
409.272	206.5
409.481	308.9
409.69	183.98
409.898	196.26
410.107	280.23
410.315	267.94
410.524	286.37
410.733	321.19
410.941	229.03
411.15	294.57
411.358	317.09
411.567	313
411.775	304.81
411.984	282.28
412.192	315.05
412.401	343.72
412.609	372.39
412.818	376.48
413.026	372.39
413.234	474.79
413.443	333.48
413.651	396.96
413.86	482.98
414.068	468.64
414.276	513.7
414.485	460.45
414.693	544.42
414.901	616.1
415.11	519.84
415.318	493.22
415.526	573.09
415.734	618.15
415.943	638.62
416.151	566.95
416.359	614.05
416.567	734.88
416.776	706.21
416.984	708.26
417.192	833.18
417.4	743.07
417.608	769.69
417.817	810.65
418.025	824.99
418.233	1017.5
418.441	794.27
418.649	966.3
418.857	968.35
419.065	1048.22
419.273	1015.45
419.481	1068.7
419.689	1113.75
419.897	1164.95
420.105	1210.01
420.313	1353.37
420.521	1316.5
420.729	1293.97
420.937	1306.26
421.145	1296.02
421.353	1496.72
421.561	1611.41
421.769	1549.97
421.977	1541.78
422.185	1615.51
422.393	1701.52
422.601	1777.3
422.809	1810.06
423.017	1814.16
423.224	1867.41
423.432	2010.76
423.64	1980.04
423.848	2154.12
424.056	2061.96
424.263	2178.7
424.471	2283.14
424.679	2252.42
424.887	2485.89
425.094	2539.14
425.302	2455.17
425.51	2561.67
425.718	2733.7
425.925	2754.18
426.133	2754.18
426.341	2946.69
426.548	3131
426.756	3116.67
426.964	3151.48
427.171	3393.14
427.379	3505.78
427.586	3481.21
427.794	3628.66
428.001	3782.26
428.209	3855.98
428.417	3698.29
428.624	4210.28
428.832	4044.4
429.039	4181.61
429.247	4099.69
429.454	4540.01
429.662	4802.15
429.869	4566.63
430.076	4808.29
430.284	4718.18
430.491	5043.81
430.699	5217.88
430.906	5181.02
431.114	5260.89
431.321	5496.41
431.528	5523.03
431.736	5799.51
431.943	5994.06
432.15	5903.95
432.358	6008.4
432.565	6344.27
432.772	6417.99
432.979	6608.45
433.187	6770.24
433.394	6837.83
433.601	7169.6
433.808	7462.46
434.016	7394.87
434.223	7501.37
434.43	8048.18
434.637	7798.32
434.844	8449.58
435.052	8539.69
435.259	8613.42
435.466	8697.38
435.673	8570.41
435.88	9109.02
436.087	9561.62
436.294	9612.82
436.501	9254.43
436.708	9606.68
436.915	9745.94
437.122	10210.83
437.329	10167.82
437.537	10542.6
437.743	10663.43
437.95	10653.19
438.157	11230.72
438.364	11855.35
438.571	11761.14
438.778	11728.38
438.985	13022.69
439.192	12127.73
439.399	12830.18
439.606	12158.45
439.813	13338.08
440.02	13917.65
440.227	13807.06
440.433	13536.73
440.64	13921.75
440.847	13827.54
441.054	14190.03
441.261	15224.26
441.467	14945.73
441.674	15085
441.881	15744.44
442.088	16061.88
442.294	15756.73
442.501	16295.35
442.708	16442.8
442.914	17018.28
443.121	17819.03
443.328	17309.09
443.534	18722.19
443.741	17892.76
443.948	17905.05
444.154	19205.51
444.361	19246.47
444.568	19023.24
444.774	19205.51
444.981	19414.4
445.187	20219.25
445.394	20766.06
445.6	20430.19
445.807	22441.3
446.013	21400.93
446.22	22097.24
446.426	22764.88
446.633	22957.39
446.839	24057.15
447.046	22789.45
447.252	24196.41
447.459	24231.22
447.665	23960.89
447.871	25054.51
448.078	26533.14
448.284	25290.02
448.491	25830.69
448.697	26737.94
448.903	26862.86
449.11	27157.77
449.316	26922.26
449.522	27454.73
449.728	28400.89
449.935	28454.14
450.141	28196.09
450.347	29271.28
450.553	27868.42
450.76	28093.69
450.966	28949.74
451.172	28880.11
451.378	29891.81
451.584	29015.28
451.791	29986.02
451.997	29805.8
452.203	30371.04
452.409	30209.25
452.615	30121.18
452.821	29013.23
453.027	28445.94
453.233	30270.68
453.44	29007.09
453.646	29009.14
453.852	28996.85
454.058	29684.97
454.264	28749.04
454.47	29818.08
454.676	28433.66
454.882	29889.76
455.088	27397.38
455.294	27675.91
455.5	28101.89
455.705	28148.99
455.911	26823.95
456.117	26438.94
456.323	26041.63
456.529	24825.14
456.735	25826.59
456.941	25287.98
457.147	24657.2
457.352	24120.63
457.558	23606.59
457.764	23948.61
457.97	23459.14
458.176	22814.03
458.381	22756.69
458.587	21591.39
458.793	21751.13
458.999	20501.87
459.204	22125.91
459.41	21448.04
459.616	20032.89
459.821	20168.05
460.027	20028.79
460.233	19488.13
460.438	18750.86
460.644	18660.75
460.85	18054.55
461.055	17722.78
461.261	17765.79
461.466	16410.03
461.672	15760.83
461.878	16684.46
462.083	15750.59
462.289	15424.96
462.494	15085
462.7	14634.44
462.905	14095.83
463.111	14663.11
463.316	14929.35
463.522	14499.28
463.727	14392.78
463.932	14425.55
464.138	14376.4
464.343	14249.43
464.549	13909.46
464.754	14456.27
464.959	14251.47
465.165	14181.84
465.37	13628.89
465.575	13196.77
465.781	13874.65
465.986	14042.58
466.191	13393.37
466.397	12983.78
466.602	12516.84
466.807	13016.55
467.012	12996.07
