Data from USB4F104151__99__12-24-58-967.txt Node

Date: Fri Mar 14 12:24:58 EDT 2025
User: louis
Spectrometer: USB4F10415
Trigger mode: 4
Integration Time (sec): 3.500000E-2
Scans to average: 1
Electric dark correction enabled: true
Nonlinearity correction enabled: false
Boxcar width: 0
XAxis mode: Wavelengths
Number of Pixels in Spectrum: 3648
>>>>>Begin Spectral Data<<<<<
178.204	-173.22
178.424	-173.22
178.644	-173.22
178.864	-183.46
179.084	-158.89
179.304	2.9
179.524	-21.67
179.744	13.14
179.964	33.62
180.184	66.39
180.404	21.33
180.624	-36.01
180.844	-56.49
181.064	-29.87
181.283	11.09
181.503	9.05
181.723	-13.48
181.943	-70.83
182.163	95.06
182.383	-54.44
182.602	88.92
182.822	15.19
183.042	0.85
183.262	-62.63
183.482	-56.49
183.701	39.76
183.921	62.29
184.141	-130.22
184.361	97.11
184.58	80.72
184.8	66.39
185.02	47.96
185.239	47.96
185.459	103.25
185.679	23.38
185.898	-81.07
186.118	15.19
186.338	45.91
186.557	19.29
186.777	4.95
186.997	66.39
187.216	66.39
187.436	21.33
187.655	19.29
187.875	127.83
188.095	74.58
188.314	-17.58
188.534	33.62
188.753	-38.06
188.973	-54.44
189.192	78.68
189.412	50
189.631	45.91
189.851	-17.58
190.07	21.33
190.29	-19.63
190.509	72.53
190.729	13.14
190.948	101.2
191.168	113.49
191.387	66.39
191.607	-83.11
191.826	41.81
192.045	90.96
192.265	13.14
192.484	13.14
192.704	21.33
192.923	86.87
193.142	74.58
193.362	66.39
193.581	74.58
193.8	33.62
194.02	9.05
194.239	15.19
194.458	56.15
194.678	56.15
194.897	21.33
195.116	15.19
195.335	11.09
195.555	0.85
195.774	31.57
195.993	150.36
196.212	29.52
196.432	-48.3
196.651	-38.06
196.87	-25.77
197.089	107.35
197.308	19.29
197.528	64.34
197.747	-36.01
197.966	-5.29
198.185	117.59
198.404	-48.3
198.623	21.33
198.842	62.29
199.062	19.29
199.281	62.29
199.5	80.72
199.719	-11.43
199.938	47.96
200.157	50
200.376	29.52
200.595	82.77
200.814	19.29
201.033	13.14
201.252	101.2
201.471	2.9
201.69	37.72
201.909	64.34
202.128	23.38
202.347	-7.34
202.566	41.81
202.785	47.96
203.004	-48.3
203.223	88.92
203.442	152.4
203.661	0.85
203.879	47.96
204.098	33.62
204.317	66.39
204.536	54.1
204.755	27.48
204.974	-27.82
205.193	4.95
205.411	111.44
205.63	13.14
205.849	76.63
206.068	90.96
206.287	39.76
206.505	50
206.724	-7.34
206.943	86.87
207.162	25.43
207.381	-7.34
207.599	74.58
207.818	50
208.037	23.38
208.255	7
208.474	117.59
208.693	125.78
208.911	25.43
209.13	43.86
209.349	-52.39
209.567	-27.82
209.786	35.67
210.005	68.44
210.223	27.48
210.442	-48.3
210.661	47.96
210.879	131.92
211.098	21.33
211.316	50
211.535	31.57
211.753	60.24
211.972	70.48
212.191	13.14
212.409	58.2
212.628	101.2
212.846	29.52
213.065	-13.48
213.283	119.64
213.502	47.96
213.72	41.81
213.938	11.09
214.157	-1.19
214.375	31.57
214.594	9.05
214.812	109.4
215.031	99.16
215.249	70.48
215.467	-5.29
215.686	47.96
215.904	35.67
216.122	41.81
216.341	54.1
216.559	23.38
216.778	84.82
216.996	187.22
217.214	19.29
217.432	56.15
217.651	0.85
217.869	13.14
218.087	31.57
218.306	33.62
218.524	60.24
218.742	-21.67
218.96	2.9
219.179	52.05
219.397	45.91
219.615	133.97
219.833	41.81
220.051	-31.91
220.27	41.81
220.488	-13.48
220.706	56.15
220.924	72.53
221.142	4.95
221.36	29.52
221.578	-42.15
221.796	27.48
222.015	-7.34
222.233	11.09
222.451	101.2
222.669	-33.96
222.887	131.92
223.105	0.85
223.323	-15.53
223.541	54.1
223.759	13.14
223.977	-29.87
224.195	35.67
224.413	138.07
224.631	97.11
224.849	99.16
225.067	50
225.285	11.09
225.503	-3.24
225.721	-17.58
225.939	29.52
226.157	99.16
226.375	113.49
226.592	-38.06
226.81	-13.48
227.028	72.53
227.246	78.68
227.464	17.24
227.682	43.86
227.9	52.05
228.117	9.05
228.335	56.15
228.553	52.05
228.771	138.07
228.989	52.05
229.206	35.67
229.424	-3.24
229.642	70.48
229.86	4.95
230.077	-5.29
230.295	4.95
230.513	41.81
230.731	66.39
230.948	41.81
231.166	78.68
231.384	-3.24
231.601	-9.39
231.819	72.53
232.037	-25.77
232.254	-36.01
232.472	-72.87
232.689	33.62
232.907	-3.24
233.125	-7.34
233.342	27.48
233.56	72.53
233.777	58.2
233.995	11.09
234.213	47.96
234.43	-15.53
234.648	15.19
234.865	37.72
235.083	111.44
235.3	29.52
235.518	52.05
235.735	62.29
235.953	93.01
236.17	41.81
236.388	-7.34
236.605	37.72
236.822	64.34
237.04	35.67
237.257	43.86
237.475	-89.26
237.692	52.05
237.909	-33.96
238.127	37.72
238.344	-5.29
238.562	60.24
238.779	-66.73
238.996	4.95
239.214	-5.29
239.431	-17.58
239.648	7
239.865	90.96
240.083	19.29
240.3	-11.43
240.517	-21.67
240.735	-38.06
240.952	93.01
241.169	70.48
241.386	-13.48
241.603	-60.59
241.821	-44.2
242.038	66.39
242.255	11.09
242.472	-83.11
242.689	-68.78
242.907	80.72
243.124	2.9
243.341	-3.24
243.558	37.72
243.775	-5.29
243.992	-44.2
244.209	90.96
244.426	111.44
244.643	111.44
244.86	60.24
245.078	86.87
245.295	21.33
245.512	31.57
245.729	31.57
245.946	84.82
246.163	41.81
246.38	52.05
246.597	50
246.814	-5.29
247.031	0.85
247.248	15.19
247.464	41.81
247.681	-1.19
247.898	33.62
248.115	62.29
248.332	17.24
248.549	113.49
248.766	31.57
248.983	90.96
249.2	113.49
249.417	72.53
249.633	-23.72
249.85	31.57
250.067	27.48
250.284	58.2
250.501	29.52
250.717	33.62
250.934	-9.39
251.151	62.29
251.368	-46.25
251.585	7
251.801	117.59
252.018	-11.43
252.235	62.29
252.451	41.81
252.668	-19.63
252.885	60.24
253.102	70.48
253.318	-23.72
253.535	-25.77
253.752	-27.82
253.968	13.14
254.185	-19.63
254.401	23.38
254.618	31.57
254.835	7
255.051	121.68
255.268	47.96
255.484	97.11
255.701	33.62
255.917	17.24
256.134	-19.63
256.351	68.44
256.567	19.29
256.784	23.38
257	11.09
257.217	60.24
257.433	64.34
257.65	21.33
257.866	78.68
258.082	-29.87
258.299	13.14
258.515	56.15
258.732	23.38
258.948	2.9
259.165	-44.2
259.381	15.19
259.597	41.81
259.814	39.76
260.03	-23.72
260.246	109.4
260.463	29.52
260.679	37.72
260.895	52.05
261.112	25.43
261.328	-38.06
261.544	-21.67
261.761	60.24
261.977	-7.34
262.193	-7.34
262.409	-9.39
262.626	58.2
262.842	93.01
263.058	25.43
263.274	88.92
263.49	47.96
263.707	31.57
263.923	121.68
264.139	-5.29
264.355	41.81
264.571	101.2
264.787	31.57
265.004	43.86
265.22	7
265.436	84.82
265.652	21.33
265.868	15.19
266.084	-29.87
266.3	-1.19
266.516	47.96
266.732	95.06
266.948	-9.39
267.164	-9.39
267.38	41.81
267.596	29.52
267.812	54.1
268.028	78.68
268.244	-25.77
268.46	21.33
268.676	15.19
268.892	54.1
269.108	25.43
269.324	90.96
269.54	-25.77
269.756	66.39
269.972	-42.15
270.188	17.24
270.403	23.38
270.619	56.15
270.835	17.24
271.051	88.92
271.267	25.43
271.483	15.19
271.698	86.87
271.914	70.48
272.13	19.29
272.346	-27.82
272.562	50
272.777	66.39
272.993	-25.77
273.209	-40.11
273.425	47.96
273.64	70.48
273.856	84.82
274.072	-11.43
274.287	2.9
274.503	-5.29
274.719	15.19
274.934	21.33
275.15	-56.49
275.366	41.81
275.581	-46.25
275.797	56.15
276.012	25.43
276.228	33.62
276.444	31.57
276.659	74.58
276.875	50
277.09	-19.63
277.306	-38.06
277.521	23.38
277.737	78.68
277.952	56.15
278.168	80.72
278.383	9.05
278.599	56.15
278.814	43.86
279.03	7
279.245	31.57
279.461	13.14
279.676	-56.49
279.892	-5.29
280.107	13.14
280.322	9.05
280.538	56.15
280.753	-5.29
280.969	29.52
281.184	15.19
281.399	64.34
281.615	37.72
281.83	78.68
282.045	-1.19
282.26	72.53
282.476	35.67
282.691	37.72
282.906	39.76
283.122	25.43
283.337	11.09
283.552	111.44
283.767	-81.07
283.983	58.2
284.198	11.09
284.413	-42.15
284.628	-58.54
284.843	35.67
285.058	23.38
285.274	23.38
285.489	-15.53
285.704	-1.19
285.919	58.2
286.134	9.05
286.349	-15.53
286.564	9.05
286.779	101.2
286.995	25.43
287.21	-11.43
287.425	23.38
287.64	35.67
287.855	-27.82
288.07	23.38
288.285	60.24
288.5	37.72
288.715	31.57
288.93	33.62
289.145	-13.48
289.36	142.16
289.575	62.29
289.79	43.86
290.004	-52.39
290.219	54.1
290.434	47.96
290.649	33.62
290.864	37.72
291.079	27.48
291.294	64.34
291.509	13.14
291.724	15.19
291.938	27.48
292.153	-19.63
292.368	-11.43
292.583	39.76
292.798	47.96
293.012	13.14
293.227	33.62
293.442	19.29
293.657	80.72
293.871	109.4
294.086	54.1
294.301	80.72
294.516	70.48
294.73	76.63
294.945	15.19
295.16	29.52
295.374	47.96
295.589	103.25
295.804	2.9
296.018	4.95
296.233	78.68
296.447	39.76
296.662	-27.82
296.877	90.96
297.091	-19.63
297.306	25.43
297.52	-38.06
297.735	19.29
297.949	58.2
298.164	68.44
298.378	13.14
298.593	56.15
298.807	-5.29
299.022	64.34
299.236	41.81
299.451	9.05
299.665	56.15
299.88	47.96
300.094	52.05
300.309	84.82
300.523	-1.19
300.737	15.19
300.952	54.1
301.166	-1.19
301.381	29.52
301.595	7
301.809	88.92
302.024	68.44
302.238	31.57
302.452	47.96
302.667	-5.29
302.881	58.2
303.095	19.29
303.309	37.72
303.524	121.68
303.738	-25.77
303.952	11.09
304.166	54.1
304.381	15.19
304.595	-29.87
304.809	4.95
305.023	56.15
305.237	-38.06
305.452	11.09
305.666	35.67
305.88	9.05
306.094	64.34
306.308	29.52
306.522	50
306.736	27.48
306.95	56.15
307.164	29.52
307.379	15.19
307.593	109.4
307.807	82.77
308.021	52.05
308.235	58.2
308.449	27.48
308.663	-60.59
308.877	136.02
309.091	-64.68
309.305	103.25
309.519	-17.58
309.733	103.25
309.947	-29.87
310.161	-21.67
310.374	123.73
310.588	41.81
310.802	74.58
311.016	2.9
311.23	105.3
311.444	23.38
311.658	23.38
311.872	119.64
312.085	43.86
312.299	13.14
312.513	60.24
312.727	0.85
312.941	29.52
313.154	66.39
313.368	-7.34
313.582	-36.01
313.796	19.29
314.009	19.29
314.223	93.01
314.437	93.01
314.651	99.16
314.864	31.57
315.078	103.25
315.292	-58.54
315.505	-21.67
315.719	56.15
315.933	72.53
316.146	-38.06
316.36	9.05
316.573	74.58
316.787	84.82
317.001	25.43
317.214	-58.54
317.428	37.72
317.641	21.33
317.855	25.43
318.068	4.95
318.282	66.39
318.495	174.93
318.709	43.86
318.922	-7.34
319.136	29.52
319.349	-1.19
319.563	78.68
319.776	-15.53
319.99	56.15
320.203	58.2
320.417	45.91
320.63	37.72
320.843	154.45
321.057	4.95
321.27	37.72
321.483	70.48
321.697	62.29
321.91	50
322.124	33.62
322.337	52.05
322.55	19.29
322.763	-23.72
322.977	31.57
323.19	88.92
323.403	144.21
323.617	144.21
323.83	117.59
324.043	90.96
324.256	17.24
324.469	-27.82
324.683	72.53
324.896	37.72
325.109	50
325.322	64.34
325.535	17.24
325.748	64.34
325.962	47.96
326.175	-1.19
326.388	23.38
326.601	47.96
326.814	66.39
327.027	35.67
327.24	105.3
327.453	58.2
327.666	19.29
327.879	84.82
328.092	31.57
328.305	68.44
328.518	-64.68
328.731	27.48
328.944	-3.24
329.157	88.92
329.37	-23.72
329.583	90.96
329.796	47.96
330.009	-7.34
330.222	39.76
330.435	50
330.648	54.1
330.861	56.15
331.073	62.29
331.286	0.85
331.499	31.57
331.712	56.15
331.925	19.29
332.138	27.48
332.35	74.58
332.563	-9.39
332.776	23.38
332.989	64.34
333.202	29.52
333.414	9.05
333.627	127.83
333.84	13.14
334.053	68.44
334.265	-40.11
334.478	76.63
334.691	15.19
334.903	78.68
335.116	-66.73
335.329	50
335.541	60.24
335.754	127.83
335.966	27.48
336.179	-40.11
336.392	-1.19
336.604	21.33
336.817	11.09
337.029	54.1
337.242	78.68
337.454	66.39
337.667	25.43
337.88	62.29
338.092	-29.87
338.305	76.63
338.517	13.14
338.729	80.72
338.942	95.06
339.154	-23.72
339.367	-11.43
339.579	41.81
339.792	-48.3
340.004	76.63
340.217	21.33
340.429	62.29
340.641	-7.34
340.854	-21.67
341.066	25.43
341.278	62.29
341.491	74.58
341.703	-29.87
341.915	62.29
342.128	19.29
342.34	70.48
342.552	37.72
342.764	52.05
342.977	23.38
343.189	41.81
343.401	58.2
343.613	-25.77
343.826	23.38
344.038	-48.3
344.25	62.29
344.462	39.76
344.674	84.82
344.886	35.67
345.099	-17.58
345.311	43.86
345.523	19.29
345.735	68.44
345.947	47.96
346.159	43.86
346.371	60.24
346.583	95.06
346.795	97.11
347.007	45.91
347.219	-9.39
347.431	-15.53
347.643	70.48
347.855	43.86
348.067	154.45
348.279	21.33
348.491	29.52
348.703	23.38
348.915	41.81
349.127	39.76
349.339	0.85
349.551	11.09
349.763	23.38
349.975	117.59
350.187	80.72
350.399	62.29
350.61	84.82
350.822	7
351.034	66.39
351.246	72.53
351.458	45.91
351.669	-7.34
351.881	119.64
352.093	68.44
352.305	88.92
352.517	99.16
352.728	41.81
352.94	93.01
353.152	95.06
353.363	23.38
353.575	33.62
353.787	39.76
353.999	47.96
354.21	86.87
354.422	50
354.633	27.48
354.845	66.39
355.057	31.57
355.268	76.63
355.48	131.92
355.692	-7.34
355.903	25.43
356.115	47.96
356.326	19.29
356.538	74.58
356.749	62.29
356.961	29.52
357.172	90.96
357.384	-31.91
357.595	74.58
357.807	90.96
358.018	45.91
358.23	31.57
358.441	80.72
358.653	78.68
358.864	45.91
359.075	-19.63
359.287	-3.24
359.498	90.96
359.709	70.48
359.921	-13.48
360.132	19.29
360.344	-19.63
360.555	50
360.766	-3.24
360.977	25.43
361.189	76.63
361.4	33.62
361.611	66.39
361.823	111.44
362.034	-11.43
362.245	-11.43
362.456	115.54
362.667	43.86
362.879	62.29
363.09	-7.34
363.301	-15.53
363.512	23.38
363.723	33.62
363.935	56.15
364.146	56.15
364.357	54.1
364.568	99.16
364.779	41.81
364.99	66.39
365.201	41.81
365.412	37.72
365.623	-1.19
365.834	4.95
366.045	95.06
366.256	21.33
366.467	78.68
366.678	31.57
366.889	50
367.1	4.95
367.311	37.72
367.522	15.19
367.733	-19.63
367.944	33.62
368.155	66.39
368.366	35.67
368.577	39.76
368.788	58.2
368.999	21.33
369.209	54.1
369.42	93.01
369.631	111.44
369.842	84.82
370.053	2.9
370.264	113.49
370.474	47.96
370.685	50
370.896	21.33
371.107	99.16
371.317	70.48
371.528	-23.72
371.739	88.92
371.95	84.82
372.16	103.25
372.371	4.95
372.582	-62.63
372.792	-3.24
373.003	11.09
373.214	-1.19
373.424	72.53
373.635	-42.15
373.846	72.53
374.056	27.48
374.267	33.62
374.477	17.24
374.688	17.24
374.898	-3.24
375.109	97.11
375.319	107.35
375.53	23.38
375.74	25.43
375.951	-15.53
376.161	64.34
376.372	62.29
376.582	-13.48
376.793	78.68
377.003	13.14
377.214	52.05
377.424	7
377.635	-1.19
377.845	74.58
378.055	-3.24
378.266	60.24
378.476	60.24
378.686	93.01
378.897	9.05
379.107	86.87
379.317	39.76
379.528	-27.82
379.738	62.29
379.948	50
380.158	101.2
380.369	50
380.579	70.48
380.789	56.15
380.999	162.64
381.21	27.48
381.42	90.96
381.63	78.68
381.84	45.91
382.05	113.49
382.261	109.4
382.471	109.4
382.681	-81.07
382.891	84.82
383.101	52.05
383.311	50
383.521	52.05
383.731	-5.29
383.941	80.72
384.151	47.96
384.361	31.57
384.571	97.11
384.781	-19.63
384.991	74.58
385.201	138.07
385.411	37.72
385.621	86.87
385.831	27.48
386.041	-15.53
386.251	27.48
386.461	101.2
386.671	64.34
386.881	113.49
387.091	84.82
387.301	56.15
387.511	99.16
387.72	50
387.93	25.43
388.14	-7.34
388.35	86.87
388.56	129.88
388.769	90.96
388.979	41.81
389.189	86.87
389.399	9.05
389.609	70.48
389.818	136.02
390.028	47.96
390.238	29.52
390.447	43.86
390.657	41.81
390.867	37.72
391.076	-15.53
391.286	97.11
391.496	58.2
391.705	90.96
391.915	172.88
392.125	58.2
392.334	74.58
392.544	111.44
392.753	43.86
392.963	103.25
393.172	50
393.382	90.96
393.591	76.63
393.801	0.85
394.01	50
394.22	76.63
394.429	60.24
394.639	76.63
394.848	150.36
395.058	109.4
395.267	37.72
395.477	111.44
395.686	70.48
395.895	103.25
396.105	140.12
396.314	45.91
396.524	152.4
396.733	125.78
396.942	144.21
397.152	76.63
397.361	160.59
397.57	99.16
397.78	52.05
397.989	68.44
398.198	170.83
398.407	101.2
398.617	97.11
398.826	82.77
399.035	109.4
399.244	160.59
399.453	125.78
399.663	140.12
399.872	101.2
400.081	29.52
400.29	88.92
400.499	17.24
400.708	54.1
400.917	146.26
401.127	129.88
401.336	23.38
401.545	144.21
401.754	148.31
401.963	148.31
402.172	78.68
402.381	-3.24
402.59	97.11
402.799	129.88
403.008	164.69
403.217	115.54
403.426	140.12
403.635	140.12
403.844	144.21
404.053	131.92
404.262	121.68
404.471	138.07
404.68	164.69
404.888	97.11
405.097	121.68
405.306	115.54
405.515	201.55
405.724	150.36
405.933	158.55
406.142	187.22
406.35	168.79
406.559	162.64
406.768	207.7
406.977	195.41
407.185	193.36
407.394	185.17
407.603	131.92
407.812	189.27
408.02	262.99
408.229	154.45
408.438	217.94
408.646	222.03
408.855	226.13
409.064	219.99
409.272	244.56
409.481	187.22
409.69	209.75
409.898	203.6
410.107	287.57
410.315	283.47
410.524	224.08
410.733	326.48
410.941	228.18
411.15	336.72
411.358	240.47
411.567	377.68
411.775	346.96
411.984	291.66
412.192	394.06
412.401	416.59
412.609	346.96
412.818	422.73
413.026	457.55
413.234	383.82
413.443	408.4
413.651	443.21
413.86	480.08
414.068	543.57
414.276	545.61
414.485	465.74
414.693	506.7
414.901	621.39
415.11	514.89
415.318	584.52
415.526	607.05
415.734	752.46
415.943	668.49
416.151	748.36
416.359	660.3
416.567	693.07
416.776	699.21
416.984	822.09
417.192	883.53
417.4	824.14
417.608	854.86
417.817	861
418.025	832.33
418.233	1084.23
418.441	1035.08
418.649	897.86
418.857	1020.74
419.065	1022.79
419.273	942.92
419.481	1182.53
419.689	1217.35
419.897	1250.11
420.105	1239.87
420.313	1319.75
420.521	1436.48
420.729	1434.43
420.937	1440.58
421.145	1487.68
421.353	1631.04
421.561	1614.65
421.769	1731.39
421.977	1727.29
422.185	1803.07
422.393	1780.54
422.601	2040.63
422.809	1876.79
423.017	1983.29
423.224	2110.26
423.432	2233.14
423.64	2059.06
423.848	2345.78
424.056	2186.04
424.263	2358.07
424.471	2362.16
424.679	2401.07
424.887	2665.26
425.094	2741.04
425.302	2683.69
425.51	2685.74
425.718	2825
425.925	2986.79
426.133	2913.06
426.341	3263.27
426.548	3312.42
426.756	3365.67
426.964	3324.71
427.171	3504.93
427.379	3541.79
427.586	3709.72
427.794	3885.85
428.001	3912.47
428.209	4176.66
428.417	4102.93
428.624	4446.99
428.832	4569.87
429.039	4277.01
429.247	4418.32
429.454	4811.53
429.662	4997.9
429.869	4772.62
430.076	5171.97
430.284	4961.03
430.491	5174.02
430.699	5458.69
430.906	5374.72
431.114	5581.57
431.321	5649.15
431.528	5882.62
431.736	6050.55
431.943	6388.47
432.15	6298.36
432.358	6466.29
432.565	6863.6
432.772	6689.52
432.979	7201.51
433.187	7215.85
433.394	7252.71
433.601	7903.96
433.808	7584.48
434.016	7666.4
434.223	7959.26
434.43	8581.84
434.637	8397.53
434.844	8983.24
435.052	9040.59
435.259	8970.96
435.466	9173.71
435.673	8829.65
435.88	9579.2
436.087	10119.87
436.294	10179.26
436.501	9906.88
436.708	10109.63
436.915	10605.24
437.122	10891.95
437.329	10646.19
437.537	10961.58
437.743	11379.37
437.95	11330.22
438.157	11838.11
438.364	12216.99
438.571	12137.12
438.778	12294.81
438.985	13843.07
439.192	12882.58
439.399	13320.84
439.606	13075.09
439.813	13761.16
440.02	14684.79
440.227	14611.06
440.433	14176.89
440.64	14705.27
440.847	14828.15
441.054	15102.57
441.261	15929.95
441.467	15604.33
441.674	16134.75
441.881	16894.55
442.088	16478.81
442.294	16499.29
442.501	17052.24
442.708	17310.29
442.914	17979.97
443.121	18727.48
443.328	18244.16
443.534	19352.11
443.741	19241.52
443.948	18874.93
444.154	20228.64
444.361	20273.7
444.568	20154.91
444.774	19952.16
444.981	20427.29
445.187	20961.81
445.394	21891.59
445.6	21592.59
445.807	23597.55
446.013	22854.14
446.22	23095.8
446.426	24351.2
446.633	24250.85
446.839	25129.43
447.046	23859.69
447.252	25375.19
447.459	25283.03
447.665	25453.01
447.871	26710.46
448.078	27644.34
448.284	26139.08
448.491	27277.75
448.697	27752.88
448.903	28555.68
449.11	29055.39
449.316	28111.27
449.522	28613.02
449.728	29677.97
449.935	29639.06
450.141	29772.18
450.347	30482.82
450.553	29182.36
450.76	29741.46
450.966	30890.37
451.172	30351.75
451.378	31314.3
451.584	30716.29
451.791	31490.42
451.997	31082.88
452.203	31750.51
452.409	31713.65
452.615	31566.2
452.821	30527.88
453.027	30155.15
453.233	31996.27
453.44	30558.6
453.646	31123.83
453.852	30894.46
454.058	31705.46
454.264	30151.05
454.47	31353.21
454.676	29905.29
454.882	31334.78
455.088	28352.93
455.294	28979.61
455.5	29411.73
455.705	29962.64
455.911	28410.28
456.117	27918.76
456.323	27697.58
456.529	26212.81
456.735	27345.33
456.941	26526.14
457.147	26286.53
457.352	25278.93
457.558	25180.63
457.764	25330.13
457.97	24846.81
458.176	24279.52
458.381	24275.43
458.587	22964.73
458.793	23165.43
458.999	22069.76
459.204	23405.04
459.41	22678.01
459.616	21244.43
459.821	21158.42
460.027	21099.03
460.233	20605.47
460.438	19499.56
460.644	19843.62
460.85	18952.76
461.055	19001.91
461.261	18608.7
461.466	17252.94
461.672	16857.68
461.878	17939.01
462.083	16855.64
462.289	16280.16
462.494	16314.97
462.7	15649.38
462.905	15317.61
463.111	15712.87
463.316	15649.38
463.522	15532.65
463.727	15440.49
463.932	15340.14
464.138	15428.2
464.343	15368.81
464.549	15112.81
464.754	15307.37
464.959	15266.41
465.165	15196.78
465.37	14502.52
465.575	13984.38
465.781	14656.12
465.986	14742.13
466.191	14260.86
466.397	13822.59
466.602	13226.64
466.807	13703.81
467.012	13650.57
467.218	13681.28
467.423	13429.38
467.628	13470.34
467.833	14330.49
