Data from USB4F104151__98__12-24-58-686.txt Node

Date: Fri Mar 14 12:24:58 EDT 2025
User: louis
Spectrometer: USB4F10415
Trigger mode: 4
Integration Time (sec): 3.500000E-2
Scans to average: 1
Electric dark correction enabled: true
Nonlinearity correction enabled: false
Boxcar width: 0
XAxis mode: Wavelengths
Number of Pixels in Spectrum: 3648
>>>>>Begin Spectral Data<<<<<
178.204	-146.09
178.424	-146.09
178.644	-146.09
178.864	-113.32
179.084	-125.61
179.304	-72.36
179.524	1.37
179.744	-27.31
179.964	-10.92
180.184	73.04
180.404	62.8
180.624	-2.73
180.844	50.52
181.064	-70.31
181.283	-47.79
181.503	-0.68
181.723	44.37
181.943	7.51
182.163	77.14
182.383	32.08
182.602	62.8
182.822	122.2
183.042	32.08
183.262	32.08
183.482	97.62
183.701	5.46
183.921	56.66
184.141	-45.74
184.361	54.61
184.58	32.08
184.8	-10.92
185.02	23.89
185.239	56.66
185.459	50.52
185.679	91.48
185.898	-37.55
186.118	68.95
186.338	3.41
186.557	120.15
186.777	-4.78
186.997	-12.97
187.216	-47.79
187.436	136.53
187.655	-15.02
187.875	66.9
188.095	1.37
188.314	36.18
188.534	62.8
188.753	-25.26
188.973	142.68
189.192	79.19
189.412	40.28
189.631	50.52
189.851	64.85
190.07	40.28
190.29	-51.88
190.509	68.95
190.729	-72.36
190.948	23.89
191.168	140.63
191.387	56.66
191.607	32.08
191.826	60.76
192.045	64.85
192.265	-0.68
192.484	27.99
192.704	73.04
192.923	-31.4
193.142	124.24
193.362	142.68
193.581	136.53
193.8	87.38
194.02	73.04
194.239	36.18
194.458	5.46
194.678	27.99
194.897	64.85
195.116	38.23
195.335	17.75
195.555	56.66
195.774	60.76
195.993	81.24
196.212	126.29
196.432	-19.11
196.651	44.37
196.87	42.32
197.089	85.33
197.308	38.23
197.528	66.9
197.747	-21.16
197.966	-27.31
198.185	116.05
198.404	-19.11
198.623	46.42
198.842	71
199.062	83.28
199.281	62.8
199.5	5.46
199.719	50.52
199.938	118.1
200.157	48.47
200.376	103.76
200.595	58.71
200.814	-10.92
201.033	75.09
201.252	58.71
201.471	103.76
201.69	114
201.909	128.34
202.128	30.04
202.347	48.47
202.566	85.33
202.785	34.13
203.004	11.61
203.223	138.58
203.442	75.09
203.661	101.72
203.879	21.85
204.098	44.37
204.317	66.9
204.536	95.57
204.755	3.41
204.974	101.72
205.193	17.75
205.411	120.15
205.63	68.95
205.849	62.8
206.068	7.51
206.287	38.23
206.505	-17.07
206.724	73.04
206.943	-17.07
207.162	85.33
207.381	71
207.599	44.37
207.818	-10.92
208.037	27.99
208.255	66.9
208.474	-4.78
208.693	9.56
208.911	87.38
209.13	54.61
209.349	83.28
209.567	93.52
209.786	118.1
210.005	36.18
210.223	32.08
210.442	15.7
210.661	-12.97
210.879	5.46
211.098	91.48
211.316	44.37
211.535	116.05
211.753	52.56
211.972	23.89
212.191	-8.87
212.409	116.05
212.628	36.18
212.846	44.37
213.065	15.7
213.283	46.42
213.502	-21.16
213.72	-4.78
213.938	-29.35
214.157	42.32
214.375	23.89
214.594	48.47
214.812	122.2
215.031	38.23
215.249	17.75
215.467	-17.07
215.686	81.24
215.904	1.37
216.122	11.61
216.341	85.33
216.559	66.9
216.778	116.05
216.996	54.61
217.214	13.65
217.432	3.41
217.651	21.85
217.869	21.85
218.087	71
218.306	-2.73
218.524	19.8
218.742	30.04
218.96	36.18
219.179	-4.78
219.397	38.23
219.615	99.67
219.833	25.94
220.051	-60.07
220.27	15.7
220.488	71
220.706	36.18
220.924	85.33
221.142	42.32
221.36	5.46
221.578	101.72
221.796	91.48
222.015	42.32
222.233	36.18
222.451	97.62
222.669	-41.64
222.887	36.18
223.105	-12.97
223.323	15.7
223.541	15.7
223.759	93.52
223.977	73.04
224.195	73.04
224.413	52.56
224.631	73.04
224.849	44.37
225.067	142.68
225.285	68.95
225.503	75.09
225.721	-45.74
225.939	93.52
226.157	48.47
226.375	103.76
226.592	32.08
226.81	-62.12
227.028	165.2
227.246	109.91
227.464	30.04
227.682	95.57
227.9	93.52
228.117	23.89
228.335	21.85
228.553	30.04
228.771	40.28
228.989	97.62
229.206	50.52
229.424	-33.45
229.642	44.37
229.86	5.46
230.077	73.04
230.295	7.51
230.513	93.52
230.731	58.71
230.948	130.39
231.166	118.1
231.384	79.19
231.601	-25.26
231.819	66.9
232.037	40.28
232.254	60.76
232.472	60.76
232.689	1.37
232.907	25.94
233.125	73.04
233.342	-21.16
233.56	19.8
233.777	46.42
233.995	23.89
234.213	66.9
234.43	32.08
234.648	5.46
234.865	71
235.083	116.05
235.3	40.28
235.518	146.77
235.735	42.32
235.953	25.94
236.17	38.23
236.388	71
236.605	19.8
236.822	87.38
237.04	109.91
237.257	99.67
237.475	42.32
237.692	64.85
237.909	93.52
238.127	27.99
238.344	38.23
238.562	81.24
238.779	-33.45
238.996	107.86
239.214	54.61
239.431	30.04
239.648	25.94
239.865	130.39
240.083	32.08
240.3	23.89
240.517	-21.16
240.735	99.67
240.952	-6.83
241.169	25.94
241.386	105.81
241.603	-29.35
241.821	-27.31
242.038	40.28
242.255	93.52
242.472	48.47
242.689	56.66
242.907	27.99
243.124	3.41
243.341	1.37
243.558	15.7
243.775	-12.97
243.992	-0.68
244.209	99.67
244.426	46.42
244.643	132.44
244.86	-39.59
245.078	120.15
245.295	107.86
245.512	34.13
245.729	101.72
245.946	44.37
246.163	77.14
246.38	-6.83
246.597	5.46
246.814	30.04
247.031	40.28
247.248	27.99
247.464	5.46
247.681	23.89
247.898	60.76
248.115	60.76
248.332	34.13
248.549	101.72
248.766	140.63
248.983	75.09
249.2	36.18
249.417	132.44
249.633	68.95
249.85	30.04
250.067	15.7
250.284	87.38
250.501	66.9
250.717	85.33
250.934	25.94
251.151	34.13
251.368	50.52
251.585	15.7
251.801	9.56
252.018	1.37
252.235	75.09
252.451	-62.12
252.668	5.46
252.885	91.48
253.102	44.37
253.318	17.75
253.535	9.56
253.752	56.66
253.968	52.56
254.185	-66.22
254.401	54.61
254.618	27.99
254.835	-19.11
255.051	97.62
255.268	42.32
255.484	17.75
255.701	54.61
255.917	9.56
256.134	52.56
256.351	93.52
256.567	46.42
256.784	48.47
257	-33.45
257.217	23.89
257.433	30.04
257.65	105.81
257.866	95.57
258.082	17.75
258.299	17.75
258.515	32.08
258.732	5.46
258.948	1.37
259.165	30.04
259.381	38.23
259.597	-49.83
259.814	48.47
260.03	-43.69
260.246	-21.16
260.463	68.95
260.679	64.85
260.895	81.24
261.112	87.38
261.328	40.28
261.544	124.24
261.761	103.76
261.977	1.37
262.193	-12.97
262.409	60.76
262.626	103.76
262.842	101.72
263.058	-27.31
263.274	25.94
263.49	13.65
263.707	54.61
263.923	85.33
264.139	71
264.355	21.85
264.571	142.68
264.787	71
265.004	68.95
265.22	66.9
265.436	52.56
265.652	48.47
265.868	91.48
266.084	-31.4
266.3	116.05
266.516	-60.07
266.732	73.04
266.948	66.9
267.164	25.94
267.38	71
267.596	38.23
267.812	128.34
268.028	34.13
268.244	75.09
268.46	85.33
268.676	44.37
268.892	38.23
269.108	36.18
269.324	77.14
269.54	-29.35
269.756	56.66
269.972	-49.83
270.188	71
270.403	-21.16
270.619	-8.87
270.835	83.28
271.051	114
271.267	99.67
271.483	34.13
271.698	52.56
271.914	38.23
272.13	68.95
272.346	48.47
272.562	66.9
272.777	114
272.993	46.42
273.209	46.42
273.425	-2.73
273.64	93.52
273.856	-2.73
274.072	15.7
274.287	25.94
274.503	52.56
274.719	58.71
274.934	42.32
275.15	46.42
275.366	19.8
275.581	73.04
275.797	27.99
276.012	68.95
276.228	64.85
276.444	32.08
276.659	105.81
276.875	120.15
277.09	60.76
277.306	7.51
277.521	103.76
277.737	75.09
277.952	87.38
278.168	116.05
278.383	27.99
278.599	19.8
278.814	32.08
279.03	81.24
279.245	116.05
279.461	79.19
279.676	71
279.892	126.29
280.107	15.7
280.322	32.08
280.538	79.19
280.753	107.86
280.969	-12.97
281.184	50.52
281.399	11.61
281.615	23.89
281.83	-8.87
282.045	68.95
282.26	73.04
282.476	5.46
282.691	95.57
282.906	62.8
283.122	75.09
283.337	-0.68
283.552	34.13
283.767	83.28
283.983	62.8
284.198	25.94
284.413	19.8
284.628	-17.07
284.843	93.52
285.058	64.85
285.274	9.56
285.489	13.65
285.704	36.18
285.919	32.08
286.134	42.32
286.349	23.89
286.564	-60.07
286.779	148.82
286.995	7.51
287.21	27.99
287.425	21.85
287.64	1.37
287.855	97.62
288.07	73.04
288.285	64.85
288.5	36.18
288.715	109.91
288.93	-17.07
289.145	-27.31
289.36	60.76
289.575	-4.78
289.79	103.76
290.004	-49.83
290.219	95.57
290.434	-39.59
290.649	17.75
290.864	111.96
291.079	23.89
291.294	32.08
291.509	66.9
291.724	32.08
291.938	-29.35
292.153	54.61
292.368	48.47
292.583	81.24
292.798	15.7
293.012	66.9
293.227	19.8
293.442	19.8
293.657	-2.73
293.871	93.52
294.086	5.46
294.301	89.43
294.516	89.43
294.73	66.9
294.945	-4.78
295.16	68.95
295.374	68.95
295.589	75.09
295.804	-10.92
296.018	54.61
296.233	95.57
296.447	48.47
296.662	27.99
296.877	128.34
297.091	58.71
297.306	30.04
297.52	7.51
297.735	42.32
297.949	3.41
298.164	9.56
298.378	11.61
298.593	93.52
298.807	62.8
299.022	60.76
299.236	66.9
299.451	3.41
299.665	17.75
299.88	54.61
300.094	71
300.309	-27.31
300.523	75.09
300.737	85.33
300.952	11.61
301.166	-51.88
301.381	73.04
301.595	85.33
301.809	27.99
302.024	32.08
302.238	62.8
302.452	50.52
302.667	-2.73
302.881	101.72
303.095	50.52
303.309	85.33
303.524	-17.07
303.738	101.72
303.952	-17.07
304.166	89.43
304.381	68.95
304.595	107.86
304.809	-12.97
305.023	-29.35
305.237	54.61
305.452	81.24
305.666	107.86
305.88	89.43
306.094	56.66
306.308	75.09
306.522	-33.45
306.736	83.28
306.95	1.37
307.164	25.94
307.379	68.95
307.593	79.19
307.807	34.13
308.021	64.85
308.235	93.52
308.449	9.56
308.663	150.87
308.877	142.68
309.091	-21.16
309.305	38.23
309.519	-51.88
309.733	83.28
309.947	-31.4
310.161	111.96
310.374	58.71
310.588	44.37
310.802	15.7
311.016	15.7
311.23	107.86
311.444	46.42
311.658	56.66
311.872	109.91
312.085	105.81
312.299	38.23
312.513	23.89
312.727	32.08
312.941	58.71
313.154	54.61
313.368	40.28
313.582	62.8
313.796	101.72
314.009	17.75
314.223	73.04
314.437	21.85
314.651	89.43
314.864	50.52
315.078	85.33
315.292	19.8
315.505	13.65
315.719	-15.02
315.933	48.47
316.146	99.67
316.36	60.76
316.573	85.33
316.787	144.72
317.001	109.91
317.214	-12.97
317.428	7.51
317.641	36.18
317.855	75.09
318.068	132.44
318.282	118.1
318.495	93.52
318.709	-6.83
318.922	101.72
319.136	62.8
319.349	83.28
319.563	75.09
319.776	38.23
319.99	11.61
320.203	85.33
320.417	25.94
320.63	52.56
320.843	73.04
321.057	101.72
321.27	58.71
321.483	40.28
321.697	142.68
321.91	93.52
322.124	75.09
322.337	81.24
322.55	89.43
322.763	42.32
322.977	56.66
323.19	-31.4
323.403	-4.78
323.617	109.91
323.83	118.1
324.043	-49.83
324.256	3.41
324.469	75.09
324.683	50.52
324.896	19.8
325.109	122.2
325.322	42.32
325.535	58.71
325.748	60.76
325.962	120.15
326.175	97.62
326.388	-6.83
326.601	99.67
326.814	40.28
327.027	46.42
327.24	105.81
327.453	13.65
327.666	44.37
327.879	11.61
328.092	85.33
328.305	-2.73
328.518	54.61
328.731	17.75
328.944	128.34
329.157	60.76
329.37	34.13
329.583	79.19
329.796	187.73
330.009	62.8
330.222	81.24
330.435	25.94
330.648	50.52
330.861	54.61
331.073	68.95
331.286	111.96
331.499	60.76
331.712	48.47
331.925	11.61
332.138	50.52
332.35	64.85
332.563	-37.55
332.776	120.15
332.989	-19.11
333.202	73.04
333.414	68.95
333.627	54.61
333.84	107.86
334.053	85.33
334.265	44.37
334.478	124.24
334.691	62.8
334.903	34.13
335.116	-12.97
335.329	11.61
335.541	120.15
335.754	89.43
335.966	77.14
336.179	-10.92
336.392	15.7
336.604	54.61
336.817	81.24
337.029	17.75
337.242	21.85
337.454	-12.97
337.667	111.96
337.88	54.61
338.092	62.8
338.305	23.89
338.517	50.52
338.729	60.76
338.942	103.76
339.154	3.41
339.367	46.42
339.579	116.05
339.792	52.56
340.004	103.76
340.217	60.76
340.429	77.14
340.641	5.46
340.854	68.95
341.066	9.56
341.278	62.8
341.491	97.62
341.703	114
341.915	48.47
342.128	19.8
342.34	56.66
342.552	75.09
342.764	75.09
342.977	48.47
343.189	101.72
343.401	107.86
343.613	21.85
343.826	13.65
344.038	66.9
344.25	66.9
344.462	101.72
344.674	-6.83
344.886	71
345.099	27.99
345.311	77.14
345.523	56.66
345.735	42.32
345.947	68.95
346.159	93.52
346.371	77.14
346.583	32.08
346.795	130.39
347.007	21.85
347.219	132.44
347.431	34.13
347.643	40.28
347.855	34.13
348.067	60.76
348.279	42.32
348.491	66.9
348.703	103.76
348.915	9.56
349.127	52.56
349.339	60.76
349.551	54.61
349.763	52.56
349.975	99.67
350.187	132.44
350.399	60.76
350.61	-6.83
350.822	-21.16
351.034	83.28
351.246	34.13
351.458	87.38
351.669	50.52
351.881	52.56
352.093	118.1
352.305	62.8
352.517	83.28
352.728	58.71
352.94	21.85
353.152	36.18
353.363	66.9
353.575	60.76
353.787	38.23
353.999	73.04
354.21	60.76
354.422	19.8
354.633	107.86
354.845	46.42
355.057	58.71
355.268	73.04
355.48	42.32
355.692	15.7
355.903	71
356.115	81.24
356.326	3.41
356.538	89.43
356.749	93.52
356.961	103.76
357.172	50.52
357.384	99.67
357.595	75.09
357.807	150.87
358.018	15.7
358.23	130.39
358.441	173.39
358.653	60.76
358.864	87.38
359.075	71
359.287	38.23
359.498	60.76
359.709	60.76
359.921	62.8
360.132	77.14
360.344	9.56
360.555	66.9
360.766	30.04
360.977	83.28
361.189	60.76
361.4	5.46
361.611	75.09
361.823	93.52
362.034	97.62
362.245	83.28
362.456	58.71
362.667	38.23
362.879	44.37
363.09	85.33
363.301	146.77
363.512	93.52
363.723	58.71
363.935	-6.83
364.146	27.99
364.357	23.89
364.568	85.33
364.779	-4.78
364.99	87.38
365.201	-4.78
365.412	103.76
365.623	17.75
365.834	91.48
366.045	73.04
366.256	77.14
366.467	85.33
366.678	19.8
366.889	56.66
367.1	114
367.311	161.11
367.522	75.09
367.733	136.53
367.944	89.43
368.155	66.9
368.366	73.04
368.577	134.48
368.788	128.34
368.999	66.9
369.209	73.04
369.42	97.62
369.631	93.52
369.842	111.96
370.053	50.52
370.264	142.68
370.474	66.9
370.685	66.9
370.896	73.04
371.107	97.62
371.317	-21.16
371.528	15.7
371.739	77.14
371.95	116.05
372.16	-0.68
372.371	-4.78
372.582	13.65
372.792	38.23
373.003	3.41
373.214	50.52
373.424	142.68
373.635	44.37
373.846	157.01
374.056	50.52
374.267	95.57
374.477	7.51
374.688	32.08
374.898	62.8
375.109	79.19
375.319	64.85
375.53	89.43
375.74	95.57
375.951	79.19
376.161	120.15
376.372	116.05
376.582	1.37
376.793	107.86
377.003	1.37
377.214	44.37
377.424	93.52
377.635	7.51
377.845	48.47
378.055	75.09
378.266	25.94
378.476	58.71
378.686	1.37
378.897	87.38
379.107	101.72
379.317	40.28
379.528	46.42
379.738	25.94
379.948	107.86
380.158	87.38
380.369	73.04
380.579	83.28
380.789	79.19
380.999	93.52
381.21	89.43
381.42	81.24
381.63	-43.69
381.84	105.81
382.05	64.85
382.261	58.71
382.471	120.15
382.681	87.38
382.891	136.53
383.101	46.42
383.311	48.47
383.521	9.56
383.731	130.39
383.941	130.39
384.151	60.76
384.361	95.57
384.571	97.62
384.781	52.56
384.991	154.96
385.201	177.49
385.411	85.33
385.621	85.33
385.831	99.67
386.041	-2.73
386.251	103.76
386.461	85.33
386.671	-6.83
386.881	101.72
387.091	91.48
387.301	99.67
387.511	93.52
387.72	140.63
387.93	103.76
388.14	32.08
388.35	83.28
388.56	109.91
388.769	3.41
388.979	64.85
389.189	77.14
389.399	50.52
389.609	122.2
389.818	154.96
390.028	58.71
390.238	105.81
390.447	124.24
390.657	42.32
390.867	27.99
391.076	27.99
391.286	107.86
391.496	75.09
391.705	85.33
391.915	91.48
392.125	77.14
392.334	-45.74
392.544	75.09
392.753	46.42
392.963	23.89
393.172	19.8
393.382	124.24
393.591	93.52
393.801	95.57
394.01	87.38
394.22	124.24
394.429	109.91
394.639	58.71
394.848	60.76
395.058	73.04
395.267	114
395.477	111.96
395.686	134.48
395.895	212.31
396.105	273.75
396.314	79.19
396.524	21.85
396.733	17.75
396.942	118.1
397.152	134.48
397.361	152.92
397.57	40.28
397.78	159.06
397.989	116.05
398.198	134.48
398.407	105.81
398.617	138.58
398.826	103.76
399.035	130.39
399.244	73.04
399.453	144.72
399.663	93.52
399.872	66.9
400.081	9.56
400.29	218.45
400.499	122.2
400.708	179.54
400.917	-8.87
401.127	75.09
401.336	73.04
401.545	146.77
401.754	224.59
401.963	120.15
402.172	44.37
402.381	36.18
402.59	103.76
402.799	122.2
403.008	171.35
403.217	128.34
403.426	140.63
403.635	140.63
403.844	58.71
404.053	152.92
404.262	107.86
404.471	204.11
404.68	161.11
404.888	157.01
405.097	132.44
405.306	175.44
405.515	181.59
405.724	177.49
405.933	206.16
406.142	169.3
406.35	173.39
406.559	200.02
406.768	144.72
406.977	185.68
407.185	204.11
407.394	267.6
407.603	175.44
407.812	193.87
408.02	306.51
408.229	202.07
408.438	275.79
408.646	126.29
408.855	202.07
409.064	333.14
409.272	296.27
409.481	265.55
409.69	234.83
409.898	292.18
410.107	283.99
410.315	302.42
410.524	304.46
410.733	288.08
410.941	283.99
411.15	294.22
411.358	345.42
411.567	341.33
411.775	355.66
411.984	359.76
412.192	396.62
412.401	404.82
412.609	443.73
412.818	525.65
413.026	398.67
413.234	460.11
413.443	501.07
413.651	482.64
413.86	482.64
414.068	482.64
414.276	566.6
414.485	462.16
414.693	558.41
414.901	621.9
415.11	607.56
415.318	634.19
415.526	601.42
415.734	712.01
415.943	666.96
416.151	783.69
416.359	759.11
416.567	812.36
416.776	714.06
416.984	847.18
417.192	859.46
417.4	881.99
417.608	826.7
417.817	902.47
418.025	1015.11
418.233	1078.6
418.441	1021.25
418.649	984.39
418.857	1137.99
419.065	1037.64
419.273	1152.32
419.481	1203.52
419.689	1262.91
419.897	1375.55
420.105	1271.11
420.313	1320.26
420.521	1353.02
420.729	1361.22
420.937	1400.13
421.145	1463.62
421.353	1572.16
421.561	1692.99
421.769	1631.55
421.977	1795.39
422.185	1652.03
422.393	1824.06
422.601	2049.33
422.809	1932.6
423.017	2006.33
423.224	2047.29
423.432	2114.87
423.64	2164.02
423.848	2290.99
424.056	2280.75
424.263	2397.49
424.471	2534.7
424.679	2360.63
424.887	2458.93
425.094	2796.84
425.302	2596.14
425.51	2866.47
425.718	2921.77
425.925	2925.86
426.133	2977.06
426.341	3208.48
426.548	3249.44
426.756	3263.78
426.964	3409.19
427.171	3454.24
427.379	3581.21
427.586	3620.13
427.794	3757.34
428.001	3919.13
428.209	4136.21
428.417	4111.64
428.624	4384.02
428.832	4482.32
429.039	4404.5
429.247	4435.22
429.454	4867.34
429.662	5059.85
429.869	4826.38
430.076	5063.94
430.284	4959.5
430.491	5074.18
430.699	5444.87
430.906	5532.93
431.114	5524.74
431.321	6040.83
431.528	5844.22
431.736	6280.44
431.943	6448.37
432.15	6460.66
432.358	6474.99
432.565	6839.53
432.772	6798.57
432.979	7128.3
433.187	7390.44
433.394	7359.72
433.601	7767.26
433.808	7752.93
434.016	7642.34
434.223	7967.96
434.43	8604.88
434.637	8389.85
434.844	8905.93
435.052	9004.24
435.259	9088.2
435.466	9137.35
435.673	8965.32
435.88	9686.21
436.087	10353.85
436.294	10327.22
436.501	9870.53
436.708	10038.46
436.915	10507.44
437.122	10892.46
437.329	10945.71
437.537	11338.92
437.743	11396.26
437.95	11101.36
438.157	11805.86
438.364	12358.81
438.571	12352.66
438.778	12346.52
438.985	13544.58
439.192	13008.01
439.399	13460.62
439.606	12936.34
439.813	13741.19
440.02	14558.33
440.227	14470.26
440.433	14201.98
440.64	14861.43
440.847	14453.88
441.054	15232.11
441.261	16059.49
441.467	16000.1
441.674	16211.04
441.881	16817.24
442.088	16718.93
442.294	16528.47
442.501	16985.17
442.708	17265.74
442.914	18132.03
443.121	19002.42
443.328	18240.58
443.534	19637.29
443.741	19135.54
443.948	18721.85
444.154	20106.27
444.361	20061.22
444.568	19936.29
444.774	19899.43
444.981	20626.46
445.187	21175.31
445.394	21818.38
445.6	21683.21
445.807	23653.36
446.013	22621.18
446.22	23233.52
446.426	24155.11
446.633	24310.75
446.839	25062.36
447.046	24277.99
447.252	25273.3
447.459	25506.77
447.665	25246.68
447.871	26237.89
448.078	27743.15
448.284	26063.82
448.491	26909.63
448.697	28543.91
448.903	28429.22
449.11	28740.51
449.316	28390.31
449.522	28717.98
449.728	29586.32
449.935	29576.08
450.141	29866.89
450.347	30176.14
450.553	29504.4
450.76	29907.85
450.966	30800.77
451.172	30399.37
451.378	31105.91
451.584	30561.15
451.791	31665.01
451.997	31329.14
452.203	31730.55
452.409	31757.17
452.615	31900.53
452.821	30567.3
453.027	29987.72
453.233	31798.13
453.44	30563.2
453.646	30884.73
453.852	31247.22
454.058	31415.16
454.264	30421.89
454.47	31591.28
454.676	30399.37
454.882	31234.94
455.088	28887.96
455.294	29127.58
455.5	29586.32
455.705	29606.8
455.911	28591.01
456.117	28154.79
456.323	27939.76
456.529	26332.1
456.735	27356.08
456.941	27005.88
457.147	26301.38
457.352	25736.14
457.558	24951.77
457.764	25617.36
457.97	24871.9
458.176	24333.28
458.381	24142.82
458.587	22979.57
458.793	22871.03
458.999	22029.32
459.204	23239.67
459.41	22705.15
459.616	21138.45
459.821	21154.83
460.027	21373.97
460.233	20755.48
460.438	19743.78
460.644	19872.81
460.85	19260.46
461.055	18629.69
461.261	18842.68
461.466	17296.46
461.672	16768.09
461.878	17867.84
462.083	16987.22
462.289	16456.79
462.494	16157.79
462.7	15250.54
462.905	15271.02
463.111	15791.2
463.316	15830.12
463.522	15357.03
463.727	15305.84
463.932	15438.95
464.138	15109.23
464.343	15346.8
464.549	14795.89
464.754	15330.41
464.959	15117.42
465.165	15086.7
465.37	14445.69
465.575	14017.66
465.781	14777.46
465.986	14474.36
466.191	14236.8
466.397	13753.48
466.602	13104.27
466.807	13833.35
467.012	13796.48
467.218	13698.18
467.423	13358.22
