Data from USB4F104151__23__12-23-33-052.txt Node

Date: Fri Mar 14 12:23:33 EDT 2025
User: louis
Spectrometer: USB4F10415
Trigger mode: 4
Integration Time (sec): 3.500000E-2
Scans to average: 1
Electric dark correction enabled: true
Nonlinearity correction enabled: false
Boxcar width: 0
XAxis mode: Wavelengths
Number of Pixels in Spectrum: 3648
>>>>>Begin Spectral Data<<<<<
178.204	-125.61
178.424	-125.61
178.644	-125.61
178.864	-176.81
179.084	-162.47
179.304	32.08
179.524	-4.78
179.744	-21.16
179.964	21.85
180.184	-15.02
180.404	-33.45
180.624	7.51
180.844	25.94
181.064	-70.31
181.283	19.8
181.503	40.28
181.723	-2.73
181.943	-72.36
182.163	87.38
182.383	-35.5
182.602	21.85
182.822	15.7
183.042	11.61
183.262	5.46
183.482	13.65
183.701	50.52
183.921	93.52
184.141	21.85
184.361	50.52
184.58	25.94
184.8	114
185.02	46.42
185.239	79.19
185.459	-53.93
185.679	9.56
185.898	-58.03
186.118	44.37
186.338	71
186.557	52.56
186.777	-31.4
186.997	-6.83
187.216	58.71
187.436	95.57
187.655	154.96
187.875	58.71
188.095	-0.68
188.314	42.32
188.534	107.86
188.753	46.42
188.973	52.56
189.192	32.08
189.412	60.76
189.631	27.99
189.851	56.66
190.07	122.2
190.29	3.41
190.509	40.28
190.729	38.23
190.948	66.9
191.168	120.15
191.387	-29.35
191.607	-37.55
191.826	-58.03
192.045	15.7
192.265	68.95
192.484	11.61
192.704	-4.78
192.923	-4.78
193.142	130.39
193.362	132.44
193.581	85.33
193.8	58.71
194.02	36.18
194.239	-2.73
194.458	21.85
194.678	46.42
194.897	36.18
195.116	-0.68
195.335	64.85
195.555	36.18
195.774	-0.68
195.993	34.13
196.212	64.85
196.432	-4.78
196.651	-27.31
196.87	25.94
197.089	89.43
197.308	42.32
197.528	30.04
197.747	-41.64
197.966	-17.07
198.185	42.32
198.404	-33.45
198.623	89.43
198.842	91.48
199.062	19.8
199.281	36.18
199.5	5.46
199.719	7.51
199.938	9.56
200.157	68.95
200.376	7.51
200.595	9.56
200.814	7.51
201.033	5.46
201.252	1.37
201.471	-49.83
201.69	7.51
201.909	-8.87
202.128	81.24
202.347	52.56
202.566	25.94
202.785	-62.12
203.004	-43.69
203.223	81.24
203.442	46.42
203.661	-29.35
203.879	3.41
204.098	62.8
204.317	-60.07
204.536	23.89
204.755	19.8
204.974	-25.26
205.193	17.75
205.411	103.76
205.63	44.37
205.849	48.47
206.068	5.46
206.287	-33.45
206.505	44.37
206.724	62.8
206.943	-8.87
207.162	19.8
207.381	19.8
207.599	-10.92
207.818	7.51
208.037	93.52
208.255	52.56
208.474	111.96
208.693	17.75
208.911	9.56
209.13	42.32
209.349	40.28
209.567	-4.78
209.786	109.91
210.005	15.7
210.223	75.09
210.442	-19.11
210.661	40.28
210.879	-49.83
211.098	54.61
211.316	77.14
211.535	64.85
211.753	38.23
211.972	42.32
212.191	50.52
212.409	3.41
212.628	75.09
212.846	-29.35
213.065	93.52
213.283	107.86
213.502	-6.83
213.72	9.56
213.938	38.23
214.157	58.71
214.375	25.94
214.594	34.13
214.812	19.8
215.031	40.28
215.249	42.32
215.467	58.71
215.686	89.43
215.904	54.61
216.122	-10.92
216.341	52.56
216.559	99.67
216.778	64.85
216.996	46.42
217.214	40.28
217.432	-8.87
217.651	36.18
217.869	62.8
218.087	64.85
218.306	50.52
218.524	17.75
218.742	-0.68
218.96	71
219.179	-86.7
219.397	-2.73
219.615	142.68
219.833	25.94
220.051	15.7
220.27	89.43
220.488	85.33
220.706	-8.87
220.924	21.85
221.142	54.61
221.36	50.52
221.578	62.8
221.796	-23.21
222.015	44.37
222.233	-58.03
222.451	81.24
222.669	-12.97
222.887	83.28
223.105	17.75
223.323	48.47
223.541	38.23
223.759	64.85
223.977	-68.27
224.195	85.33
224.413	34.13
224.631	58.71
224.849	42.32
225.067	150.87
225.285	-10.92
225.503	-29.35
225.721	-60.07
225.939	3.41
226.157	56.66
226.375	154.96
226.592	52.56
226.81	50.52
227.028	40.28
227.246	114
227.464	13.65
227.682	23.89
227.9	44.37
228.117	-55.98
228.335	-51.88
228.553	-6.83
228.771	17.75
228.989	79.19
229.206	-27.31
229.424	30.04
229.642	32.08
229.86	-37.55
230.077	40.28
230.295	32.08
230.513	15.7
230.731	91.48
230.948	107.86
231.166	81.24
231.384	23.89
231.601	42.32
231.819	17.75
232.037	3.41
232.254	-53.93
232.472	44.37
232.689	-0.68
232.907	23.89
233.125	52.56
233.342	3.41
233.56	27.99
233.777	46.42
233.995	-8.87
234.213	52.56
234.43	17.75
234.648	-23.21
234.865	-43.69
235.083	130.39
235.3	42.32
235.518	36.18
235.735	68.95
235.953	50.52
236.17	-27.31
236.388	-2.73
236.605	-39.59
236.822	40.28
237.04	30.04
237.257	-8.87
237.475	-8.87
237.692	46.42
237.909	32.08
238.127	64.85
238.344	3.41
238.562	-41.64
238.779	-27.31
238.996	21.85
239.214	-12.97
239.431	68.95
239.648	32.08
239.865	68.95
240.083	87.38
240.3	-10.92
240.517	-4.78
240.735	54.61
240.952	52.56
241.169	56.66
241.386	-35.5
241.603	68.95
241.821	-21.16
242.038	68.95
242.255	79.19
242.472	-41.64
242.689	-10.92
242.907	-17.07
243.124	17.75
243.341	32.08
243.558	-6.83
243.775	-10.92
243.992	13.65
244.209	-8.87
244.426	89.43
244.643	52.56
244.86	-19.11
245.078	95.57
245.295	32.08
245.512	64.85
245.729	11.61
245.946	50.52
246.163	3.41
246.38	50.52
246.597	73.04
246.814	42.32
247.031	77.14
247.248	25.94
247.464	44.37
247.681	23.89
247.898	75.09
248.115	91.48
248.332	7.51
248.549	85.33
248.766	105.81
248.983	71
249.2	9.56
249.417	89.43
249.633	-0.68
249.85	-6.83
250.067	3.41
250.284	-17.07
250.501	27.99
250.717	40.28
250.934	1.37
251.151	99.67
251.368	-39.59
251.585	21.85
251.801	107.86
252.018	-29.35
252.235	85.33
252.451	-33.45
252.668	-17.07
252.885	42.32
253.102	62.8
253.318	-8.87
253.535	-37.55
253.752	-10.92
253.968	36.18
254.185	21.85
254.401	15.7
254.618	21.85
254.835	-43.69
255.051	71
255.268	95.57
255.484	111.96
255.701	21.85
255.917	30.04
256.134	5.46
256.351	109.91
256.567	42.32
256.784	21.85
257	44.37
257.217	114
257.433	-25.26
257.65	32.08
257.866	36.18
258.082	-31.4
258.299	-41.64
258.515	34.13
258.732	54.61
258.948	36.18
259.165	-25.26
259.381	-35.5
259.597	66.9
259.814	40.28
260.03	1.37
260.246	-0.68
260.463	5.46
260.679	27.99
260.895	9.56
261.112	56.66
261.328	60.76
261.544	-58.03
261.761	42.32
261.977	-6.83
262.193	11.61
262.409	54.61
262.626	27.99
262.842	19.8
263.058	-12.97
263.274	19.8
263.49	-25.26
263.707	114
263.923	48.47
264.139	-27.31
264.355	-19.11
264.571	95.57
264.787	81.24
265.004	36.18
265.22	7.51
265.436	40.28
265.652	7.51
265.868	17.75
266.084	9.56
266.3	40.28
266.516	-58.03
266.732	54.61
266.948	15.7
267.164	95.57
267.38	85.33
267.596	-29.35
267.812	99.67
268.028	3.41
268.244	101.72
268.46	44.37
268.676	73.04
268.892	1.37
269.108	-19.11
269.324	5.46
269.54	17.75
269.756	58.71
269.972	-21.16
270.188	-4.78
270.403	30.04
270.619	1.37
270.835	48.47
271.051	36.18
271.267	54.61
271.483	9.56
271.698	40.28
271.914	-23.21
272.13	54.61
272.346	27.99
272.562	58.71
272.777	19.8
272.993	30.04
273.209	5.46
273.425	75.09
273.64	42.32
273.856	107.86
274.072	11.61
274.287	-10.92
274.503	23.89
274.719	68.95
274.934	-27.31
275.15	62.8
275.366	-33.45
275.581	36.18
275.797	75.09
276.012	32.08
276.228	34.13
276.444	25.94
276.659	-15.02
276.875	3.41
277.09	9.56
277.306	19.8
277.521	-25.26
277.737	38.23
277.952	1.37
278.168	9.56
278.383	85.33
278.599	30.04
278.814	23.89
279.03	46.42
279.245	95.57
279.461	3.41
279.676	42.32
279.892	-119.46
280.107	-29.35
280.322	-6.83
280.538	50.52
280.753	21.85
280.969	66.9
281.184	-4.78
281.399	60.76
281.615	13.65
281.83	81.24
282.045	21.85
282.26	27.99
282.476	52.56
282.691	75.09
282.906	38.23
283.122	1.37
283.337	-0.68
283.552	75.09
283.767	27.99
283.983	68.95
284.198	44.37
284.413	50.52
284.628	-35.5
284.843	15.7
285.058	25.94
285.274	34.13
285.489	9.56
285.704	19.8
285.919	-27.31
286.134	-21.16
286.349	81.24
286.564	9.56
286.779	114
286.995	25.94
287.21	-41.64
287.425	17.75
287.64	17.75
287.855	38.23
288.07	-10.92
288.285	64.85
288.5	85.33
288.715	32.08
288.93	-10.92
289.145	-17.07
289.36	40.28
289.575	54.61
289.79	-49.83
290.004	-10.92
290.219	79.19
290.434	-15.02
290.649	7.51
290.864	15.7
291.079	71
291.294	48.47
291.509	30.04
291.724	81.24
291.938	19.8
292.153	79.19
292.368	32.08
292.583	-27.31
292.798	122.2
293.012	56.66
293.227	52.56
293.442	42.32
293.657	87.38
293.871	-15.02
294.086	19.8
294.301	66.9
294.516	148.82
294.73	-6.83
294.945	25.94
295.16	38.23
295.374	34.13
295.589	136.53
295.804	-58.03
296.018	13.65
296.233	21.85
296.447	7.51
296.662	11.61
296.877	62.8
297.091	19.8
297.306	93.52
297.52	58.71
297.735	44.37
297.949	-6.83
298.164	-10.92
298.378	60.76
298.593	75.09
298.807	32.08
299.022	-31.4
299.236	46.42
299.451	-45.74
299.665	-12.97
299.88	91.48
300.094	1.37
300.309	56.66
300.523	21.85
300.737	36.18
300.952	-64.17
301.166	126.29
301.381	42.32
301.595	1.37
301.809	44.37
302.024	48.47
302.238	-31.4
302.452	13.65
302.667	5.46
302.881	71
303.095	71
303.309	87.38
303.524	-10.92
303.738	75.09
303.952	23.89
304.166	11.61
304.381	-4.78
304.595	118.1
304.809	13.65
305.023	44.37
305.237	-53.93
305.452	52.56
305.666	54.61
305.88	19.8
306.094	50.52
306.308	97.62
306.522	38.23
306.736	7.51
306.95	79.19
307.164	73.04
307.379	34.13
307.593	52.56
307.807	48.47
308.021	42.32
308.235	44.37
308.449	23.89
308.663	58.71
308.877	101.72
309.091	48.47
309.305	50.52
309.519	-45.74
309.733	75.09
309.947	-2.73
310.161	42.32
310.374	44.37
310.588	5.46
310.802	7.51
311.016	54.61
311.23	3.41
311.444	46.42
311.658	48.47
311.872	83.28
312.085	79.19
312.299	50.52
312.513	91.48
312.727	71
312.941	54.61
313.154	42.32
313.368	25.94
313.582	36.18
313.796	68.95
314.009	-6.83
314.223	60.76
314.437	81.24
314.651	19.8
314.864	97.62
315.078	-21.16
315.292	21.85
315.505	-33.45
315.719	27.99
315.933	21.85
316.146	1.37
316.36	-0.68
316.573	68.95
316.787	60.76
317.001	93.52
317.214	-96.94
317.428	111.96
317.641	-45.74
317.855	-10.92
318.068	42.32
318.282	-27.31
318.495	95.57
318.709	64.85
318.922	32.08
319.136	40.28
319.349	64.85
319.563	42.32
319.776	-27.31
319.99	-12.97
320.203	64.85
320.417	-4.78
320.63	68.95
320.843	73.04
321.057	17.75
321.27	-6.83
321.483	56.66
321.697	54.61
321.91	-27.31
322.124	-47.79
322.337	11.61
322.55	-31.4
322.763	40.28
322.977	-15.02
323.19	5.46
323.403	7.51
323.617	71
323.83	83.28
324.043	15.7
324.256	-0.68
324.469	27.99
324.683	36.18
324.896	-0.68
325.109	5.46
325.322	34.13
325.535	48.47
325.748	46.42
325.962	71
326.175	23.89
326.388	58.71
326.601	30.04
326.814	36.18
327.027	1.37
327.24	21.85
327.453	11.61
327.666	30.04
327.879	19.8
328.092	93.52
328.305	13.65
328.518	-2.73
328.731	56.66
328.944	60.76
329.157	-19.11
329.37	17.75
329.583	93.52
329.796	77.14
330.009	17.75
330.222	93.52
330.435	105.81
330.648	3.41
330.861	36.18
331.073	75.09
331.286	83.28
331.499	23.89
331.712	-8.87
331.925	27.99
332.138	-33.45
332.35	101.72
332.563	-41.64
332.776	-0.68
332.989	7.51
333.202	36.18
333.414	15.7
333.627	81.24
333.84	-53.93
334.053	-15.02
334.265	3.41
334.478	-74.41
334.691	17.75
334.903	-8.87
335.116	23.89
335.329	27.99
335.541	-2.73
335.754	48.47
335.966	40.28
336.179	-0.68
336.392	89.43
336.604	83.28
336.817	-19.11
337.029	1.37
337.242	-2.73
337.454	46.42
337.667	79.19
337.88	68.95
338.092	1.37
338.305	58.71
338.517	-6.83
338.729	71
338.942	66.9
339.154	-33.45
339.367	-43.69
339.579	36.18
339.792	9.56
340.004	21.85
340.217	34.13
340.429	-29.35
340.641	-37.55
340.854	25.94
341.066	13.65
341.278	73.04
341.491	73.04
341.703	73.04
341.915	5.46
342.128	68.95
342.34	87.38
342.552	-17.07
342.764	11.61
342.977	40.28
343.189	56.66
343.401	73.04
343.613	34.13
343.826	71
344.038	-23.21
344.25	79.19
344.462	-43.69
344.674	68.95
344.886	-86.7
345.099	68.95
345.311	42.32
345.523	13.65
345.735	-37.55
345.947	-4.78
346.159	-25.26
346.371	40.28
346.583	23.89
346.795	87.38
347.007	-58.03
347.219	25.94
347.431	-17.07
347.643	130.39
347.855	44.37
348.067	52.56
348.279	-41.64
348.491	73.04
348.703	42.32
348.915	60.76
349.127	27.99
349.339	23.89
349.551	7.51
349.763	62.8
349.975	30.04
350.187	48.47
350.399	13.65
350.61	1.37
350.822	48.47
351.034	-23.21
351.246	56.66
351.458	-2.73
351.669	42.32
351.881	101.72
352.093	38.23
352.305	71
352.517	73.04
352.728	27.99
352.94	-53.93
353.152	48.47
353.363	9.56
353.575	40.28
353.787	-8.87
353.999	9.56
354.21	66.9
354.422	-78.51
354.633	38.23
354.845	3.41
355.057	15.7
355.268	66.9
355.48	-4.78
355.692	-15.02
355.903	-37.55
356.115	40.28
356.326	3.41
356.538	83.28
356.749	85.33
356.961	73.04
357.172	11.61
357.384	-0.68
357.595	138.58
357.807	116.05
358.018	62.8
358.23	73.04
358.441	58.71
358.653	-2.73
358.864	58.71
359.075	-17.07
359.287	40.28
359.498	120.15
359.709	13.65
359.921	-19.11
360.132	85.33
360.344	15.7
360.555	15.7
360.766	62.8
360.977	38.23
361.189	34.13
361.4	25.94
361.611	32.08
361.823	36.18
362.034	-23.21
362.245	42.32
362.456	30.04
362.667	38.23
362.879	3.41
363.09	44.37
363.301	27.99
363.512	81.24
363.723	-45.74
363.935	-2.73
364.146	87.38
364.357	-15.02
364.568	36.18
364.779	38.23
364.99	126.29
365.201	44.37
365.412	40.28
365.623	-8.87
365.834	50.52
366.045	101.72
366.256	25.94
366.467	40.28
366.678	3.41
366.889	-12.97
367.1	23.89
367.311	64.85
367.522	9.56
367.733	36.18
367.944	21.85
368.155	13.65
368.366	13.65
368.577	87.38
368.788	64.85
368.999	9.56
369.209	19.8
369.42	128.34
369.631	83.28
369.842	167.25
370.053	126.29
370.264	-2.73
370.474	73.04
370.685	27.99
370.896	83.28
371.107	89.43
371.317	64.85
371.528	32.08
371.739	42.32
371.95	30.04
372.16	66.9
372.371	-23.21
372.582	-23.21
372.792	85.33
373.003	-6.83
373.214	54.61
373.424	44.37
373.635	11.61
373.846	36.18
374.056	36.18
374.267	83.28
374.477	40.28
374.688	30.04
374.898	68.95
375.109	13.65
375.319	-4.78
375.53	75.09
375.74	-15.02
375.951	-0.68
376.161	56.66
376.372	40.28
376.582	15.7
376.793	38.23
377.003	-10.92
377.214	32.08
377.424	-2.73
377.635	32.08
377.845	21.85
378.055	44.37
378.266	52.56
378.476	27.99
378.686	66.9
378.897	83.28
379.107	62.8
379.317	89.43
379.528	40.28
379.738	81.24
379.948	-12.97
380.158	73.04
380.369	120.15
380.579	68.95
380.789	-25.26
380.999	25.94
381.21	83.28
381.42	150.87
381.63	-12.97
381.84	83.28
382.05	32.08
382.261	1.37
382.471	-37.55
382.681	1.37
382.891	60.76
383.101	11.61
383.311	15.7
383.521	-33.45
383.731	75.09
383.941	64.85
384.151	75.09
384.361	34.13
384.571	58.71
384.781	126.29
384.991	116.05
385.201	91.48
385.411	97.62
385.621	42.32
385.831	46.42
386.041	87.38
386.251	3.41
386.461	64.85
386.671	64.85
386.881	62.8
387.091	17.75
387.301	21.85
387.511	17.75
387.72	5.46
387.93	46.42
388.14	-2.73
388.35	97.62
388.56	126.29
388.769	75.09
388.979	62.8
389.189	1.37
389.399	50.52
389.609	50.52
389.818	71
390.028	54.61
390.238	75.09
390.447	60.76
390.657	25.94
390.867	40.28
391.076	91.48
391.286	73.04
391.496	9.56
391.705	9.56
391.915	48.47
392.125	142.68
392.334	9.56
392.544	107.86
392.753	60.76
392.963	44.37
393.172	23.89
393.382	48.47
393.591	77.14
393.801	27.99
394.01	58.71
394.22	27.99
394.429	64.85
394.639	111.96
394.848	64.85
395.058	27.99
395.267	27.99
395.477	71
395.686	130.39
395.895	81.24
396.105	122.2
396.314	-15.02
396.524	81.24
396.733	109.91
396.942	15.7
397.152	167.25
397.361	126.29
397.57	71
397.78	-29.35
397.989	89.43
398.198	77.14
398.407	46.42
398.617	50.52
398.826	105.81
399.035	136.53
399.244	32.08
399.453	52.56
399.663	91.48
399.872	128.34
400.081	42.32
400.29	128.34
400.499	58.71
400.708	97.62
400.917	38.23
401.127	-0.68
401.336	81.24
401.545	146.77
401.754	150.87
401.963	93.52
402.172	114
402.381	62.8
402.59	44.37
402.799	89.43
403.008	99.67
403.217	97.62
403.426	138.58
403.635	83.28
403.844	85.33
404.053	68.95
404.262	107.86
404.471	60.76
404.68	71
404.888	171.35
405.097	64.85
405.306	152.92
405.515	93.52
405.724	105.81
405.933	116.05
406.142	279.89
406.35	197.97
406.559	177.49
406.768	177.49
406.977	132.44
407.185	206.16
407.394	183.63
407.603	132.44
407.812	197.97
408.02	214.35
408.229	212.31
408.438	210.26
408.646	132.44
408.855	126.29
409.064	232.79
409.272	154.96
409.481	277.84
409.69	150.87
409.898	105.81
410.107	197.97
410.315	214.35
410.524	197.97
410.733	230.74
410.941	318.8
411.15	247.12
411.358	292.18
411.567	378.19
411.775	298.32
411.984	308.56
412.192	255.31
412.401	290.13
412.609	398.67
412.818	404.82
413.026	382.29
413.234	427.34
413.443	408.91
413.651	404.82
413.86	413.01
414.068	425.29
414.276	480.59
414.485	503.12
414.693	519.5
414.901	556.36
415.11	488.78
415.318	558.41
415.526	646.48
415.734	613.71
415.943	560.46
416.151	646.48
416.359	562.51
416.567	640.33
416.776	589.13
416.984	779.59
417.192	712.01
417.4	726.35
417.608	755.02
417.817	720.2
418.025	843.08
418.233	925
418.441	871.75
418.649	935.24
418.857	998.73
419.065	1072.45
419.273	890.18
419.481	976.2
419.689	1086.79
419.897	1060.17
420.105	1185.09
420.313	1221.95
420.521	1201.48
420.729	1260.87
420.937	1207.62
421.145	1381.7
421.353	1383.74
421.561	1465.66
421.769	1520.96
421.977	1543.49
422.185	1553.73
422.393	1549.63
422.601	1721.66
422.809	1627.45
423.017	1776.95
423.224	1803.58
423.432	1869.11
423.64	1805.63
423.848	2166.07
424.056	1994.04
424.263	2168.12
424.471	2078.01
424.679	2331.95
424.887	2252.08
425.094	2417.97
425.302	2415.92
425.51	2403.63
425.718	2649.39
425.925	2495.79
426.133	2706.73
426.341	2952.49
426.548	2911.53
426.756	2917.67
426.964	2864.43
427.171	3185.96
427.379	3339.55
427.586	3312.93
427.794	3388.71
428.001	3554.59
428.209	3743
428.417	3595.55
428.624	3849.5
428.832	3847.45
429.039	3773.72
429.247	4044.06
429.454	4367.63
429.662	4566.29
429.869	4418.83
430.076	4558.1
430.284	4433.17
430.491	4623.63
430.699	5010.7
430.906	4855.05
431.114	5072.14
431.321	5289.22
431.528	5283.08
431.736	5723.39
431.943	5891.32
432.15	5580.03
432.358	5729.53
432.565	6034.68
432.772	6051.07
432.979	6491.38
433.187	6536.43
433.394	6642.93
433.601	6956.27
433.808	6913.26
434.016	6952.17
434.223	7322.85
434.43	7658.72
434.637	7470.31
434.844	7900.38
435.052	8154.33
435.259	8025.31
435.466	8144.09
435.673	8123.61
435.88	8725.71
436.087	8994
436.294	9170.12
436.501	8828.11
436.708	9051.34
436.915	9303.24
437.122	9866.43
437.329	9751.74
437.537	10179.77
437.743	10319.03
437.95	9989.31
438.157	10706.1
438.364	11037.87
438.571	10884.27
438.778	11015.34
438.985	12321.95
439.192	11594.92
439.399	12106.91
439.606	11877.54
439.813	12536.98
440.02	13247.63
440.227	13042.83
440.433	12606.61
440.64	13227.15
440.847	13128.84
441.054	13751.43
441.261	14320.76
441.467	14224.51
441.674	14529.66
441.881	14910.58
442.088	14908.53
442.294	15096.94
442.501	15150.19
442.708	15381.61
442.914	16057.44
443.121	16804.95
443.328	16583.77
443.534	17632.33
443.741	17079.38
443.948	16987.22
444.154	18148.42
444.361	18121.79
444.568	18367.55
444.774	18248.77
444.981	18181.18
445.187	18973.75
445.394	19878.95
445.6	19303.47
445.807	21478.41
446.013	20526.11
446.22	20907.03
446.426	22023.17
446.633	21797.9
446.839	22713.34
447.046	21853.19
447.252	22885.37
447.459	22952.95
447.665	22649.85
447.871	24191.97
448.078	24734.68
448.284	23837.67
448.491	24132.58
448.697	25093.08
448.903	25994.18
449.11	25664.46
449.316	25420.75
449.522	26020.81
449.728	26540.99
449.935	26936.25
450.141	26807.23
450.347	27386.8
450.553	26575.81
450.76	27128.76
450.966	27990.95
451.172	27593.65
451.378	28052.39
451.584	27847.6
451.791	28095.4
451.997	28498.85
452.203	28517.28
452.409	28781.47
452.615	28638.11
452.821	27610.03
453.027	27493.3
453.233	28504.99
453.44	27687.85
453.646	27919.28
453.852	28165.03
454.058	28335.01
454.264	27214.77
454.47	28144.55
454.676	27077.56
454.882	27890.6
455.088	25697.23
455.294	26164.17
455.5	26647.49
455.705	26907.58
455.911	25895.88
456.117	25334.74
456.323	25029.59
456.529	23673.84
456.735	24609.76
456.941	23858.15
457.147	23456.75
457.352	22903.8
457.558	22631.42
457.764	22852.6
457.97	22127.62
458.176	21824.52
458.381	21797.9
458.587	20565.02
458.793	20380.7
458.999	19592.23
459.204	20995.09
459.41	20311.07
459.616	18641.98
459.821	18994.23
460.027	18934.84
460.233	18474.04
460.438	17654.86
460.644	18082.88
460.85	17224.78
461.055	16634.97
461.261	16831.57
461.466	15565.93
461.672	15164.53
461.878	16049.25
462.083	14947.44
462.289	14478.46
462.494	14699.64
462.7	13792.39
462.905	13524.1
463.111	14181.5
463.316	14255.23
463.522	13902.98
463.727	13896.83
463.932	13757.57
464.138	13642.89
464.343	13614.21
464.549	13167.76
464.754	13839.49
464.959	13491.34
465.165	13558.92
465.37	12952.72
465.575	12721.3
465.781	13018.25
465.986	13229.2
466.191	12706.96
466.397	12561.56
466.602	11744.42
466.807	12086.43
467.012	12375.19
467.218	12264.6
467.423	12172.44
467.628	12162.2
467.833	12608.66
468.038	12072.09
468.244	12076.19
468.449	12356.76
