Data from USB4F104151__77__13-06-07-599.txt Node

Date: Fri Mar 14 13:06:07 EDT 2025
User: louis
Spectrometer: USB4F10415
Trigger mode: 4
Integration Time (sec): 4.000000E-2
Scans to average: 1
Electric dark correction enabled: true
Nonlinearity correction enabled: false
Boxcar width: 0
XAxis mode: Wavelengths
Number of Pixels in Spectrum: 3648
>>>>>Begin Spectral Data<<<<<
178.204	-149.5
178.424	-149.5
178.644	-149.5
178.864	-182.27
179.084	-139.26
179.304	2.05
179.524	-18.43
179.744	-14.34
179.964	102.4
180.184	24.58
180.404	47.1
180.624	28.67
180.844	-38.91
181.064	-65.53
181.283	-16.38
181.503	-40.96
181.723	-10.24
181.943	2.05
182.163	100.35
182.383	51.2
182.602	102.4
182.822	96.25
183.042	-16.38
183.262	-26.62
183.482	38.91
183.701	-18.43
183.921	28.67
184.141	65.54
184.361	43.01
184.58	53.25
184.8	24.58
185.02	55.3
185.239	-4.1
185.459	8.19
185.679	-55.3
185.898	-18.43
186.118	53.25
186.338	34.82
186.557	88.06
186.777	92.16
186.997	18.43
187.216	-10.24
187.436	98.3
187.655	22.53
187.875	92.16
188.095	28.67
188.314	120.83
188.534	67.58
188.753	12.29
188.973	40.96
189.192	49.15
189.412	51.2
189.631	20.48
189.851	67.58
190.07	129.02
190.29	22.53
190.509	53.25
190.729	51.2
190.948	63.49
191.168	153.6
191.387	129.02
191.607	24.58
191.826	86.01
192.045	-6.14
192.265	32.77
192.484	6.14
192.704	47.1
192.923	-10.24
193.142	98.3
193.362	73.73
193.581	61.44
193.8	69.63
194.02	45.06
194.239	26.62
194.458	47.1
194.678	73.73
194.897	20.48
195.116	6.14
195.335	49.15
195.555	40.96
195.774	-88.06
195.993	0
196.212	83.97
196.432	-67.58
196.651	2.05
196.87	14.34
197.089	219.13
197.308	98.3
197.528	40.96
197.747	-32.77
197.966	108.54
198.185	75.77
198.404	4.1
198.623	30.72
198.842	22.53
199.062	51.2
199.281	14.34
199.5	34.82
199.719	45.06
199.938	26.62
200.157	61.44
200.376	32.77
200.595	-4.1
200.814	47.1
201.033	0
201.252	61.44
201.471	30.72
201.69	22.53
201.909	75.77
202.128	28.67
202.347	61.44
202.566	-12.29
202.785	-10.24
203.004	32.77
203.223	98.3
203.442	16.38
203.661	38.91
203.879	51.2
204.098	112.64
204.317	22.53
204.536	88.06
204.755	12.29
204.974	30.72
205.193	43.01
205.411	57.34
205.63	131.07
205.849	22.53
206.068	4.1
206.287	4.1
206.505	16.38
206.724	55.3
206.943	6.14
207.162	14.34
207.381	26.62
207.599	20.48
207.818	10.24
208.037	51.2
208.255	59.39
208.474	2.05
208.693	67.58
208.911	-2.05
209.13	112.64
209.349	110.59
209.567	40.96
209.786	47.1
210.005	-49.15
210.223	90.11
210.442	-28.67
210.661	75.77
210.879	92.16
211.098	0
211.316	38.91
211.535	53.25
211.753	79.87
211.972	47.1
212.191	8.19
212.409	16.38
212.628	53.25
212.846	16.38
213.065	86.01
213.283	67.58
213.502	-12.29
213.72	79.87
213.938	88.06
214.157	79.87
214.375	-30.72
214.594	104.45
214.812	92.16
215.031	73.73
215.249	22.53
215.467	-16.38
215.686	-12.29
215.904	114.69
216.122	59.39
216.341	47.1
216.559	57.34
216.778	106.49
216.996	106.49
217.214	45.06
217.432	59.39
217.651	53.25
217.869	71.68
218.087	18.43
218.306	49.15
218.524	69.63
218.742	22.53
218.96	2.05
219.179	20.48
219.397	129.02
219.615	88.06
219.833	49.15
220.051	38.91
220.27	69.63
220.488	92.16
220.706	45.06
220.924	26.62
221.142	0
221.36	102.4
221.578	32.77
221.796	47.1
222.015	-8.19
222.233	-10.24
222.451	122.88
222.669	36.86
222.887	129.02
223.105	26.62
223.323	47.1
223.541	16.38
223.759	59.39
223.977	-2.05
224.195	122.88
224.413	53.25
224.631	20.48
224.849	73.73
225.067	145.41
225.285	47.1
225.503	-16.38
225.721	-90.11
225.939	-24.58
226.157	20.48
226.375	133.12
226.592	-10.24
226.81	100.35
227.028	83.97
227.246	114.69
227.464	24.58
227.682	118.78
227.9	36.86
228.117	75.77
228.335	-6.14
228.553	24.58
228.771	71.68
228.989	124.93
229.206	18.43
229.424	8.19
229.642	-20.48
229.86	-83.97
230.077	32.77
230.295	26.62
230.513	69.63
230.731	100.35
230.948	59.39
231.166	18.43
231.384	-12.29
231.601	-55.3
231.819	114.69
232.037	36.86
232.254	-2.05
232.472	102.4
232.689	-6.14
232.907	100.35
233.125	16.38
233.342	0
233.56	22.53
233.777	16.38
233.995	36.86
234.213	126.97
234.43	-18.43
234.648	30.72
234.865	-6.14
235.083	83.97
235.3	26.62
235.518	96.25
235.735	143.36
235.953	47.1
236.17	77.82
236.388	79.87
236.605	10.24
236.822	28.67
237.04	122.88
237.257	67.58
237.475	6.14
237.692	47.1
237.909	47.1
238.127	43.01
238.344	2.05
238.562	49.15
238.779	-18.43
238.996	-32.77
239.214	4.1
239.431	55.3
239.648	32.77
239.865	59.39
240.083	6.14
240.3	86.01
240.517	30.72
240.735	28.67
240.952	92.16
241.169	22.53
241.386	-16.38
241.603	36.86
241.821	38.91
242.038	-6.14
242.255	45.06
242.472	-59.39
242.689	94.21
242.907	65.54
243.124	24.58
243.341	28.67
243.558	40.96
243.775	-2.05
243.992	-65.53
244.209	53.25
244.426	167.93
244.643	47.1
244.86	24.58
245.078	43.01
245.295	26.62
245.512	24.58
245.729	73.73
245.946	-12.29
246.163	22.53
246.38	53.25
246.597	-10.24
246.814	51.2
247.031	-53.25
247.248	-14.34
247.464	43.01
247.681	83.97
247.898	4.1
248.115	45.06
248.332	57.34
248.549	20.48
248.766	147.45
248.983	75.77
249.2	129.02
249.417	47.1
249.633	-12.29
249.85	53.25
250.067	163.84
250.284	59.39
250.501	47.1
250.717	-30.72
250.934	-22.53
251.151	34.82
251.368	2.05
251.585	22.53
251.801	49.15
252.018	-55.3
252.235	67.58
252.451	-8.19
252.668	20.48
252.885	47.1
253.102	0
253.318	65.54
253.535	-12.29
253.752	-24.58
253.968	-2.05
254.185	-18.43
254.401	34.82
254.618	67.58
254.835	12.29
255.051	40.96
255.268	57.34
255.484	51.2
255.701	26.62
255.917	61.44
256.134	-20.48
256.351	32.77
256.567	63.49
256.784	22.53
257	45.06
257.217	47.1
257.433	32.77
257.65	88.06
257.866	94.21
258.082	40.96
258.299	83.97
258.515	102.4
258.732	-26.62
258.948	88.06
259.165	63.49
259.381	-16.38
259.597	24.58
259.814	22.53
260.03	116.73
260.246	63.49
260.463	16.38
260.679	81.92
260.895	63.49
261.112	131.07
261.328	-59.39
261.544	16.38
261.761	40.96
261.977	-6.14
262.193	49.15
262.409	30.72
262.626	106.49
262.842	22.53
263.058	-6.14
263.274	-4.1
263.49	96.25
263.707	122.88
263.923	-6.14
264.139	-26.62
264.355	6.14
264.571	28.67
264.787	24.58
265.004	114.69
265.22	-49.15
265.436	12.29
265.652	100.35
265.868	36.86
266.084	20.48
266.3	71.68
266.516	22.53
266.732	10.24
266.948	18.43
267.164	26.62
267.38	47.1
267.596	88.06
267.812	139.26
268.028	38.91
268.244	65.54
268.46	22.53
268.676	75.77
268.892	67.58
269.108	16.38
269.324	-73.73
269.54	30.72
269.756	120.83
269.972	45.06
270.188	51.2
270.403	47.1
270.619	28.67
270.835	88.06
271.051	63.49
271.267	-51.2
271.483	34.82
271.698	96.25
271.914	40.96
272.13	47.1
272.346	63.49
272.562	90.11
272.777	45.06
272.993	30.72
273.209	6.14
273.425	6.14
273.64	-38.91
273.856	116.73
274.072	43.01
274.287	10.24
274.503	67.58
274.719	28.67
274.934	10.24
275.15	-45.06
275.366	77.82
275.581	-45.06
275.797	45.06
276.012	30.72
276.228	75.77
276.444	16.38
276.659	24.58
276.875	-57.34
277.09	6.14
277.306	53.25
277.521	43.01
277.737	43.01
277.952	77.82
278.168	-6.14
278.383	2.05
278.599	-16.38
278.814	65.54
279.03	43.01
279.245	172.03
279.461	6.14
279.676	28.67
279.892	0
280.107	10.24
280.322	24.58
280.538	57.34
280.753	57.34
280.969	38.91
281.184	32.77
281.399	26.62
281.615	-10.24
281.83	67.58
282.045	-20.48
282.26	16.38
282.476	4.1
282.691	55.3
282.906	57.34
283.122	67.58
283.337	-6.14
283.552	34.82
283.767	-22.53
283.983	43.01
284.198	32.77
284.413	120.83
284.628	-30.72
284.843	43.01
285.058	83.97
285.274	-26.62
285.489	-18.43
285.704	102.4
285.919	-20.48
286.134	-75.77
286.349	20.48
286.564	40.96
286.779	73.73
286.995	-12.29
287.21	-20.48
287.425	-26.62
287.64	-69.63
287.855	63.49
288.07	-49.15
288.285	43.01
288.5	30.72
288.715	73.73
288.93	-8.19
289.145	8.19
289.36	24.58
289.575	59.39
289.79	96.25
290.004	65.54
290.219	141.31
290.434	0
290.649	24.58
290.864	79.87
291.079	-14.34
291.294	-16.38
291.509	-8.19
291.724	-22.53
291.938	10.24
292.153	43.01
292.368	30.72
292.583	24.58
292.798	-6.14
293.012	86.01
293.227	28.67
293.442	-34.82
293.657	12.29
293.871	124.93
294.086	67.58
294.301	129.02
294.516	61.44
294.73	-53.25
294.945	8.19
295.16	32.77
295.374	16.38
295.589	122.88
295.804	32.77
296.018	16.38
296.233	126.97
296.447	169.98
296.662	57.34
296.877	63.49
297.091	6.14
297.306	51.2
297.52	-12.29
297.735	34.82
297.949	40.96
298.164	118.78
298.378	38.91
298.593	14.34
298.807	-28.67
299.022	49.15
299.236	129.02
299.451	45.06
299.665	8.19
299.88	16.38
300.094	-18.43
300.309	-12.29
300.523	20.48
300.737	-14.34
300.952	26.62
301.166	24.58
301.381	34.82
301.595	-8.19
301.809	0
302.024	24.58
302.238	12.29
302.452	73.73
302.667	100.35
302.881	114.69
303.095	34.82
303.309	69.63
303.524	61.44
303.738	-12.29
303.952	-2.05
304.166	83.97
304.381	-10.24
304.595	38.91
304.809	-38.91
305.023	75.77
305.237	18.43
305.452	26.62
305.666	88.06
305.88	94.21
306.094	145.41
306.308	69.63
306.522	112.64
306.736	24.58
306.95	0
307.164	2.05
307.379	100.35
307.593	96.25
307.807	129.02
308.021	135.17
308.235	79.87
308.449	34.82
308.663	8.19
308.877	96.25
309.091	16.38
309.305	43.01
309.519	-22.53
309.733	83.97
309.947	-24.58
310.161	79.87
310.374	116.73
310.588	94.21
310.802	40.96
311.016	30.72
311.23	77.82
311.444	43.01
311.658	38.91
311.872	40.96
312.085	71.68
312.299	67.58
312.513	30.72
312.727	75.77
312.941	-65.53
313.154	55.3
313.368	34.82
313.582	96.25
313.796	-43.01
314.009	32.77
314.223	73.73
314.437	106.49
314.651	18.43
314.864	32.77
315.078	38.91
315.292	-4.1
315.505	24.58
315.719	116.73
315.933	79.87
316.146	55.3
316.36	-6.14
316.573	96.25
316.787	122.88
317.001	47.1
317.214	-4.1
317.428	51.2
317.641	-2.05
317.855	6.14
318.068	71.68
318.282	-6.14
318.495	106.49
318.709	131.07
318.922	65.54
319.136	90.11
319.349	122.88
319.563	-16.38
319.776	77.82
319.99	-22.53
320.203	79.87
320.417	55.3
320.63	45.06
320.843	137.21
321.057	8.19
321.27	16.38
321.483	51.2
321.697	32.77
321.91	38.91
322.124	2.05
322.337	-28.67
322.55	-28.67
322.763	30.72
322.977	8.19
323.19	28.67
323.403	-53.25
323.617	38.91
323.83	118.78
324.043	22.53
324.256	108.54
324.469	-40.96
324.683	2.05
324.896	22.53
325.109	4.1
325.322	28.67
325.535	71.68
325.748	77.82
325.962	49.15
326.175	22.53
326.388	88.06
326.601	67.58
326.814	10.24
327.027	104.45
327.24	112.64
327.453	-34.82
327.666	45.06
327.879	38.91
328.092	53.25
328.305	79.87
328.518	14.34
328.731	6.14
328.944	32.77
329.157	59.39
329.37	43.01
329.583	139.26
329.796	137.21
330.009	4.1
330.222	118.78
330.435	98.3
330.648	65.54
330.861	53.25
331.073	59.39
331.286	30.72
331.499	32.77
331.712	0
331.925	-2.05
332.138	122.88
332.35	67.58
332.563	-6.14
332.776	83.97
332.989	-4.1
333.202	2.05
333.414	61.44
333.627	86.01
333.84	55.3
334.053	8.19
334.265	36.86
334.478	26.62
334.691	47.1
334.903	32.77
335.116	47.1
335.329	94.21
335.541	126.97
335.754	75.77
335.966	61.44
336.179	55.3
336.392	22.53
336.604	-4.1
336.817	75.77
337.029	69.63
337.242	8.19
337.454	65.54
337.667	-2.05
337.88	92.16
338.092	65.54
338.305	104.45
338.517	10.24
338.729	26.62
338.942	73.73
339.154	-61.44
339.367	-6.14
339.579	145.41
339.792	-28.67
340.004	67.58
340.217	-2.05
340.429	104.45
340.641	24.58
340.854	34.82
341.066	32.77
341.278	65.54
341.491	57.34
341.703	69.63
341.915	47.1
342.128	45.06
342.34	153.6
342.552	-10.24
342.764	51.2
342.977	-51.2
343.189	59.39
343.401	55.3
343.613	-2.05
343.826	43.01
344.038	69.63
344.25	34.82
344.462	-18.43
344.674	22.53
344.886	53.25
345.099	98.3
345.311	38.91
345.523	34.82
345.735	61.44
345.947	108.54
346.159	-18.43
346.371	12.29
346.583	43.01
346.795	108.54
347.007	43.01
347.219	-30.72
347.431	26.62
347.643	81.92
347.855	14.34
348.067	79.87
348.279	32.77
348.491	18.43
348.703	94.21
348.915	86.01
349.127	34.82
349.339	94.21
349.551	65.54
349.763	69.63
349.975	51.2
350.187	108.54
350.399	36.86
350.61	65.54
350.822	-14.34
351.034	22.53
351.246	67.58
351.458	59.39
351.669	98.3
351.881	110.59
352.093	53.25
352.305	75.77
352.517	8.19
352.728	155.65
352.94	30.72
353.152	24.58
353.363	18.43
353.575	43.01
353.787	133.12
353.999	38.91
354.21	100.35
354.422	2.05
354.633	51.2
354.845	55.3
355.057	38.91
355.268	30.72
355.48	14.34
355.692	-18.43
355.903	-16.38
356.115	22.53
356.326	-45.06
356.538	129.02
356.749	43.01
356.961	102.4
357.172	98.3
357.384	34.82
357.595	165.89
357.807	55.3
358.018	36.86
358.23	28.67
358.441	149.5
358.653	112.64
358.864	-30.72
359.075	14.34
359.287	71.68
359.498	139.26
359.709	-32.77
359.921	106.49
360.132	75.77
360.344	88.06
360.555	-26.62
360.766	40.96
360.977	81.92
361.189	81.92
361.4	18.43
361.611	155.65
361.823	147.45
362.034	53.25
362.245	-10.24
362.456	26.62
362.667	4.1
362.879	57.34
363.09	49.15
363.301	112.64
363.512	106.49
363.723	-6.14
363.935	55.3
364.146	75.77
364.357	10.24
364.568	49.15
364.779	8.19
364.99	131.07
365.201	2.05
365.412	165.89
365.623	6.14
365.834	96.25
366.045	75.77
366.256	32.77
366.467	69.63
366.678	18.43
366.889	133.12
367.1	73.73
367.311	47.1
367.522	38.91
367.733	43.01
367.944	22.53
368.155	24.58
368.366	34.82
368.577	92.16
368.788	124.93
368.999	43.01
369.209	63.49
369.42	161.79
369.631	108.54
369.842	63.49
370.053	4.1
370.264	65.54
370.474	28.67
370.685	51.2
370.896	47.1
371.107	106.49
371.317	59.39
371.528	-18.43
371.739	135.17
371.95	126.97
372.16	81.92
372.371	-36.86
372.582	20.48
372.792	90.11
373.003	40.96
373.214	28.67
373.424	96.25
373.635	77.82
373.846	49.15
374.056	71.68
374.267	-16.38
374.477	96.25
374.688	24.58
374.898	86.01
375.109	96.25
375.319	174.08
375.53	98.3
375.74	45.06
375.951	30.72
376.161	137.21
376.372	163.84
376.582	61.44
376.793	47.1
377.003	34.82
377.214	-36.86
377.424	90.11
377.635	22.53
377.845	36.86
378.055	26.62
378.266	40.96
378.476	65.54
378.686	88.06
378.897	4.1
379.107	77.82
379.317	86.01
379.528	73.73
379.738	73.73
379.948	36.86
380.158	102.4
380.369	34.82
380.579	14.34
380.789	75.77
380.999	108.54
381.21	71.68
381.42	135.17
381.63	24.58
381.84	73.73
382.05	92.16
382.261	32.77
382.471	55.3
382.681	131.07
382.891	112.64
383.101	96.25
383.311	30.72
383.521	-2.05
383.731	133.12
383.941	34.82
384.151	69.63
384.361	63.49
384.571	106.49
384.781	137.21
384.991	151.55
385.201	165.89
385.411	55.3
385.621	96.25
385.831	90.11
386.041	75.77
386.251	12.29
386.461	83.97
386.671	6.14
386.881	96.25
387.091	96.25
387.301	100.35
387.511	63.49
387.72	59.39
387.93	118.78
388.14	112.64
388.35	104.45
388.56	108.54
388.769	104.45
388.979	151.55
389.189	28.67
389.399	61.44
389.609	155.65
389.818	106.49
390.028	141.31
390.238	169.98
390.447	26.62
390.657	81.92
390.867	94.21
391.076	20.48
391.286	102.4
391.496	90.11
391.705	-20.48
391.915	122.88
392.125	163.84
392.334	57.34
392.544	196.61
392.753	79.87
392.963	57.34
393.172	110.59
393.382	45.06
393.591	137.21
393.801	120.83
394.01	92.16
394.22	73.73
394.429	114.69
394.639	30.72
394.848	108.54
395.058	71.68
395.267	83.97
395.477	196.61
395.686	153.6
395.895	143.36
396.105	165.89
396.314	116.73
396.524	110.59
396.733	120.83
396.942	114.69
397.152	55.3
397.361	112.64
397.57	53.25
397.78	65.54
397.989	137.21
398.198	186.37
398.407	120.83
398.617	124.93
398.826	129.02
399.035	65.54
399.244	145.41
399.453	83.97
399.663	79.87
399.872	147.45
400.081	81.92
400.29	116.73
400.499	176.13
400.708	102.4
400.917	106.49
401.127	59.39
401.336	116.73
401.545	147.45
401.754	169.98
401.963	145.41
402.172	92.16
402.381	106.49
402.59	129.02
402.799	83.97
403.008	61.44
403.217	79.87
403.426	110.59
403.635	133.12
403.844	153.6
404.053	165.89
404.262	157.69
404.471	188.41
404.68	231.42
404.888	106.49
405.097	190.46
405.306	212.99
405.515	186.37
405.724	215.04
405.933	188.41
406.142	178.17
406.35	272.38
406.559	253.95
406.768	251.9
406.977	266.24
407.185	149.5
407.394	239.61
407.603	270.33
407.812	210.94
408.02	339.96
408.229	245.76
408.438	247.8
408.646	210.94
408.855	223.23
409.064	327.67
409.272	229.37
409.481	356.35
409.69	296.96
409.898	253.95
410.107	311.29
410.315	344.06
410.524	376.83
410.733	442.36
410.941	335.87
411.15	393.21
411.358	423.93
411.567	489.46
411.775	471.03
411.984	432.12
412.192	579.58
412.401	526.33
412.609	425.98
412.818	534.52
413.026	618.49
413.234	608.25
413.443	528.38
413.651	509.94
413.86	620.53
414.068	636.92
414.276	718.84
414.485	747.51
414.693	780.28
414.901	724.98
415.11	729.08
415.318	692.21
415.526	831.48
415.734	913.39
415.943	813.04
416.151	911.35
416.359	882.67
416.567	901.11
416.776	935.92
416.984	1056.75
417.192	1091.57
417.4	972.79
417.608	993.26
417.817	1132.53
418.025	1144.81
418.233	1267.69
418.441	1214.45
418.649	1253.36
418.857	1363.95
419.065	1472.49
419.273	1390.57
419.481	1482.73
419.689	1525.74
419.897	1611.75
420.105	1480.68
420.313	1578.98
420.521	1716.2
420.729	1802.21
420.937	1775.59
421.145	1789.92
421.353	1935.33
421.561	2111.46
421.769	2070.5
421.977	2088.93
422.185	2222.05
422.393	2271.2
422.601	2383.84
422.809	2271.2
423.017	2457.56
423.224	2486.23
423.432	2697.17
423.64	2643.93
423.848	2801.62
424.056	2818.01
424.263	3096.53
424.471	3123.15
424.679	3018.71
424.887	3252.17
425.094	3430.35
425.302	3366.86
425.51	3387.34
425.718	3686.34
425.925	3704.78
426.133	3905.48
426.341	3944.39
426.548	4196.29
426.756	4210.62
426.964	4216.77
427.171	4446.14
427.379	4556.73
427.586	4767.67
427.794	4806.58
428.001	5081.01
428.209	5384.11
428.417	5169.07
428.624	5740.46
428.832	5621.67
429.039	5584.81
429.247	5570.47
429.454	5994.4
429.662	6549.4
429.869	6016.93
430.076	6473.63
430.284	6219.68
430.491	6645.66
430.699	7077.78
430.906	7061.4
431.114	6993.81
431.321	7309.2
431.528	7561.1
431.736	7960.45
431.943	8273.79
432.15	8179.59
432.358	8288.13
432.565	8765.31
432.772	8476.54
432.979	9045.88
433.187	9197.43
433.394	9195.38
433.601	9867.11
433.808	9918.31
434.016	9830.25
434.223	10364.77
434.43	10940.25
434.637	10704.73
434.844	11278.16
435.052	11536.21
435.259	11521.87
435.466	11751.24
435.673	11380.56
435.88	12289.86
436.087	12980.03
436.294	12625.73
436.501	12508.99
436.708	12771.13
436.915	13385.52
437.122	13856.56
437.329	13604.66
437.537	14137.13
437.743	14413.6
437.95	14487.33
438.157	15249.18
438.364	15519.51
438.571	15419.16
438.778	15671.06
438.985	17170.17
439.192	16850.69
439.399	17000.19
439.606	16809.73
439.813	17716.98
440.02	19017.44
440.227	18208.49
440.433	18179.82
440.64	18798.31
440.847	18609.89
441.054	19236.57
441.261	20233.93
441.467	20129.48
441.674	20547.27
441.881	21360.31
442.088	21337.79
442.294	21042.88
442.501	21792.44
442.708	22222.51
442.914	23031.46
443.121	24006.29
443.328	23395.99
443.534	25003.65
443.741	24370.83
443.948	23901.84
444.154	25583.23
444.361	25632.38
444.568	25661.05
444.774	25888.37
444.981	25716.34
445.187	26852.97
445.394	28048.98
445.6	27680.35
445.807	30244.4
446.013	28757.58
446.22	29429.31
446.426	30385.71
446.633	31026.73
446.839	32130.58
447.046	30533.17
447.252	32552.46
447.459	32439.83
447.665	32566.8
447.871	33965.56
448.078	35442.15
448.284	33238.53
448.491	34233.85
448.697	36015.58
448.903	36384.21
449.11	36640.21
449.316	36126.17
449.522	36492.76
449.728	37586.37
449.935	37891.52
450.141	37578.18
450.347	38708.66
450.553	37785.02
450.76	38190.52
450.966	39540.13
451.172	39232.94
451.378	40021.41
451.584	39173.55
451.791	39947.68
451.997	40064.41
452.203	40879.5
452.409	40904.08
452.615	40684.95
452.821	39142.83
453.027	39019.95
453.233	40856.98
453.44	39411.11
453.646	39267.75
453.852	39910.82
454.058	40576.4
454.264	39191.98
454.47	40164.76
454.676	39015.85
454.882	40643.99
455.088	37367.24
455.294	37717.44
455.5	38448.57
455.705	38718.9
455.911	37012.94
456.117	36228.57
456.323	35735.01
456.529	34121.21
456.735	35554.79
456.941	34631.15
457.147	33979.9
457.352	33179.14
457.558	32507.41
457.764	32720.4
457.97	32413.2
458.176	31682.08
458.381	31501.86
458.587	29836.86
458.793	30082.61
458.999	28315.22
459.204	30541.36
459.41	29873.72
459.616	27739.74
459.821	27879
460.027	27682.39
460.233	27221.6
460.438	25763.45
460.644	25966.2
460.85	24821.38
461.055	24358.54
461.261	24360.59
461.466	22476.46
461.672	21939.89
461.878	23701.14
462.083	21923.51
462.289	21673.65
462.494	21118.65
462.7	20117.2
462.905	19805.91
463.111	20348.62
463.316	20534.98
463.522	19805.91
463.727	20203.21
463.932	19924.69
464.138	19742.42
464.343	20027.09
464.549	19281.63
464.754	19984.08
464.959	19977.94
465.165	19537.62
465.37	18683.62
465.575	18247.4
465.781	18814.69
465.986	18945.76
466.191	18716.39
466.397	17884.91
466.602	17207.03
466.807	17966.83
