Data from USB4F104151__39__13-05-06-966.txt Node

Date: Fri Mar 14 13:05:06 EDT 2025
User: louis
Spectrometer: USB4F10415
Trigger mode: 4
Integration Time (sec): 4.000000E-2
Scans to average: 1
Electric dark correction enabled: true
Nonlinearity correction enabled: false
Boxcar width: 0
XAxis mode: Wavelengths
Number of Pixels in Spectrum: 3648
>>>>>Begin Spectral Data<<<<<
178.204	-90.96
178.424	-90.96
178.644	-90.96
178.864	-209.75
179.084	-170.83
179.304	70.83
179.524	-4.95
179.744	-17.24
179.964	5.29
180.184	74.92
180.404	-25.43
180.624	52.39
180.844	-52.05
181.064	-76.63
181.283	27.82
181.503	-27.48
181.723	-27.48
181.943	31.91
182.163	134.31
182.383	27.82
182.602	89.26
182.822	140.46
183.042	85.16
183.262	36.01
183.482	50.35
183.701	64.68
183.921	52.39
184.141	62.63
184.361	115.88
184.58	48.3
184.8	42.15
185.02	-4.95
185.239	148.65
185.459	52.39
185.679	150.7
185.898	-9.05
186.118	136.36
186.338	44.2
186.557	23.72
186.777	25.77
186.997	58.54
187.216	21.67
187.436	130.22
187.655	113.83
187.875	103.59
188.095	36.01
188.314	95.4
188.534	74.92
188.753	15.53
188.973	111.78
189.192	58.54
189.412	115.88
189.631	99.5
189.851	87.21
190.07	111.78
190.29	27.82
190.509	52.39
190.729	119.98
190.948	54.44
191.168	212.14
191.387	83.11
191.607	89.26
191.826	3.24
192.045	97.45
192.265	62.63
192.484	85.16
192.704	17.58
192.923	58.54
193.142	185.51
193.362	119.98
193.581	107.69
193.8	33.96
194.02	91.31
194.239	29.87
194.458	72.87
194.678	173.22
194.897	72.87
195.116	68.78
195.335	76.97
195.555	83.11
195.774	36.01
195.993	58.54
196.212	25.77
196.432	-17.24
196.651	111.78
196.87	60.59
197.089	193.7
197.308	74.92
197.528	74.92
197.747	44.2
197.966	85.16
198.185	-9.05
198.404	50.35
198.623	117.93
198.842	91.31
199.062	156.84
199.281	122.02
199.5	72.87
199.719	197.8
199.938	64.68
200.157	50.35
200.376	130.22
200.595	91.31
200.814	89.26
201.033	66.73
201.252	52.39
201.471	17.58
201.69	52.39
201.909	93.35
202.128	76.97
202.347	83.11
202.566	105.64
202.785	91.31
203.004	-13.14
203.223	201.9
203.442	81.07
203.661	62.63
203.879	31.91
204.098	89.26
204.317	19.63
204.536	97.45
204.755	25.77
204.974	95.4
205.193	15.53
205.411	171.18
205.63	89.26
205.849	56.49
206.068	-37.72
206.287	70.83
206.505	83.11
206.724	48.3
206.943	3.24
207.162	48.3
207.381	56.49
207.599	91.31
207.818	158.89
208.037	64.68
208.255	9.39
208.474	56.49
208.693	136.36
208.911	19.63
209.13	70.83
209.349	36.01
209.567	40.11
209.786	132.26
210.005	126.12
210.223	46.25
210.442	23.72
210.661	52.39
210.879	23.72
211.098	115.88
211.316	-7
211.535	25.77
211.753	48.3
211.972	44.2
212.191	52.39
212.409	76.97
212.628	126.12
212.846	44.2
213.065	99.5
213.283	74.92
213.502	48.3
213.72	68.78
213.938	48.3
214.157	5.29
214.375	130.22
214.594	81.07
214.812	111.78
215.031	91.31
215.249	23.72
215.467	27.82
215.686	140.46
215.904	162.98
216.122	-11.09
216.341	95.4
216.559	64.68
216.778	50.35
216.996	81.07
217.214	56.49
217.432	-9.05
217.651	124.07
217.869	54.44
218.087	40.11
218.306	154.79
218.524	48.3
218.742	101.55
218.96	85.16
219.179	42.15
219.397	-25.43
219.615	122.02
219.833	56.49
220.051	79.02
220.27	126.12
220.488	17.58
220.706	52.39
220.924	85.16
221.142	58.54
221.36	107.69
221.578	48.3
221.796	58.54
222.015	15.53
222.233	11.43
222.451	132.26
222.669	81.07
222.887	117.93
223.105	58.54
223.323	40.11
223.541	97.45
223.759	64.68
223.977	52.39
224.195	113.83
224.413	122.02
224.631	113.83
224.849	38.06
225.067	185.51
225.285	-21.33
225.503	56.49
225.721	-31.57
225.939	29.87
226.157	91.31
226.375	105.64
226.592	72.87
226.81	9.39
227.028	185.51
227.246	101.55
227.464	93.35
227.682	56.49
227.9	111.78
228.117	54.44
228.335	31.91
228.553	9.39
228.771	-17.24
228.989	81.07
229.206	95.4
229.424	-13.14
229.642	-29.52
229.86	40.11
230.077	140.46
230.295	115.88
230.513	66.73
230.731	134.31
230.948	66.73
231.166	146.6
231.384	56.49
231.601	23.72
231.819	107.69
232.037	13.48
232.254	3.24
232.472	42.15
232.689	9.39
232.907	154.79
233.125	85.16
233.342	85.16
233.56	23.72
233.777	17.58
233.995	21.67
234.213	119.98
234.43	97.45
234.648	-17.24
234.865	72.87
235.083	83.11
235.3	50.35
235.518	113.83
235.735	97.45
235.953	95.4
236.17	48.3
236.388	76.97
236.605	-0.85
236.822	132.26
237.04	91.31
237.257	52.39
237.475	-13.14
237.692	152.74
237.909	89.26
238.127	58.54
238.344	-19.29
238.562	130.22
238.779	85.16
238.996	15.53
239.214	3.24
239.431	85.16
239.648	40.11
239.865	117.93
240.083	76.97
240.3	9.39
240.517	-74.58
240.735	74.92
240.952	95.4
241.169	83.11
241.386	44.2
241.603	72.87
241.821	13.48
242.038	117.93
242.255	87.21
242.472	9.39
242.689	72.87
242.907	156.84
243.124	62.63
243.341	128.17
243.558	79.02
243.775	60.59
243.992	-52.05
244.209	31.91
244.426	83.11
244.643	113.83
244.86	48.3
245.078	134.31
245.295	138.41
245.512	93.35
245.729	74.92
245.946	31.91
246.163	79.02
246.38	54.44
246.597	109.74
246.814	70.83
247.031	70.83
247.248	89.26
247.464	126.12
247.681	72.87
247.898	76.97
248.115	25.77
248.332	48.3
248.549	81.07
248.766	132.26
248.983	46.25
249.2	83.11
249.417	128.17
249.633	68.78
249.85	148.65
250.067	-9.05
250.284	58.54
250.501	156.84
250.717	52.39
250.934	60.59
251.151	124.07
251.368	27.82
251.585	68.78
251.801	54.44
252.018	-33.62
252.235	99.5
252.451	13.48
252.668	83.11
252.885	105.64
253.102	38.06
253.318	13.48
253.535	23.72
253.752	81.07
253.968	89.26
254.185	62.63
254.401	115.88
254.618	124.07
254.835	68.78
255.051	136.36
255.268	97.45
255.484	54.44
255.701	58.54
255.917	13.48
256.134	99.5
256.351	74.92
256.567	15.53
256.784	103.59
257	27.82
257.217	79.02
257.433	132.26
257.65	93.35
257.866	138.41
258.082	62.63
258.299	19.63
258.515	68.78
258.732	9.39
258.948	48.3
259.165	36.01
259.381	48.3
259.597	140.46
259.814	62.63
260.03	40.11
260.246	46.25
260.463	113.83
260.679	62.63
260.895	107.69
261.112	68.78
261.328	36.01
261.544	-17.24
261.761	193.7
261.977	81.07
262.193	70.83
262.409	68.78
262.626	91.31
262.842	46.25
263.058	52.39
263.274	7.34
263.49	40.11
263.707	87.21
263.923	74.92
264.139	25.77
264.355	85.16
264.571	70.83
264.787	56.49
265.004	95.4
265.22	76.97
265.436	21.67
265.652	64.68
265.868	48.3
266.084	48.3
266.3	146.6
266.516	91.31
266.732	-9.05
266.948	-17.24
267.164	66.73
267.38	107.69
267.596	146.6
267.812	148.65
268.028	25.77
268.244	40.11
268.46	54.44
268.676	17.58
268.892	99.5
269.108	-39.76
269.324	13.48
269.54	27.82
269.756	126.12
269.972	48.3
270.188	62.63
270.403	-17.24
270.619	56.49
270.835	33.96
271.051	-13.14
271.267	-23.38
271.483	38.06
271.698	103.59
271.914	58.54
272.13	89.26
272.346	36.01
272.562	85.16
272.777	74.92
272.993	111.78
273.209	40.11
273.425	54.44
273.64	46.25
273.856	105.64
274.072	-4.95
274.287	70.83
274.503	60.59
274.719	105.64
274.934	122.02
275.15	7.34
275.366	117.93
275.581	13.48
275.797	138.41
276.012	-64.34
276.228	48.3
276.444	50.35
276.659	130.22
276.875	-31.57
277.09	64.68
277.306	44.2
277.521	19.63
277.737	11.43
277.952	95.4
278.168	87.21
278.383	97.45
278.599	33.96
278.814	58.54
279.03	66.73
279.245	93.35
279.461	23.72
279.676	91.31
279.892	85.16
280.107	-17.24
280.322	66.73
280.538	27.82
280.753	119.98
280.969	21.67
281.184	31.91
281.399	146.6
281.615	89.26
281.83	42.15
282.045	40.11
282.26	91.31
282.476	50.35
282.691	83.11
282.906	56.49
283.122	40.11
283.337	85.16
283.552	140.46
283.767	33.96
283.983	89.26
284.198	62.63
284.413	70.83
284.628	97.45
284.843	74.92
285.058	115.88
285.274	74.92
285.489	99.5
285.704	70.83
285.919	56.49
286.134	-33.62
286.349	50.35
286.564	23.72
286.779	105.64
286.995	25.77
287.21	11.43
287.425	38.06
287.64	74.92
287.855	150.7
288.07	-0.85
288.285	113.83
288.5	142.5
288.715	105.64
288.93	33.96
289.145	-45.91
289.36	101.55
289.575	27.82
289.79	40.11
290.004	68.78
290.219	70.83
290.434	89.26
290.649	-39.76
290.864	15.53
291.079	-9.05
291.294	56.49
291.509	64.68
291.724	19.63
291.938	36.01
292.153	29.87
292.368	66.73
292.583	64.68
292.798	79.02
293.012	150.7
293.227	89.26
293.442	27.82
293.657	5.29
293.871	70.83
294.086	19.63
294.301	54.44
294.516	72.87
294.73	101.55
294.945	40.11
295.16	27.82
295.374	109.74
295.589	122.02
295.804	72.87
296.018	48.3
296.233	89.26
296.447	76.97
296.662	42.15
296.877	165.03
297.091	87.21
297.306	79.02
297.52	42.15
297.735	70.83
297.949	-0.85
298.164	83.11
298.378	85.16
298.593	21.67
298.807	-17.24
299.022	11.43
299.236	15.53
299.451	140.46
299.665	-9.05
299.88	52.39
300.094	89.26
300.309	3.24
300.523	109.74
300.737	42.15
300.952	124.07
301.166	25.77
301.381	15.53
301.595	48.3
301.809	46.25
302.024	23.72
302.238	-7
302.452	173.22
302.667	83.11
302.881	99.5
303.095	58.54
303.309	60.59
303.524	15.53
303.738	95.4
303.952	87.21
304.166	119.98
304.381	52.39
304.595	130.22
304.809	48.3
305.023	68.78
305.237	62.63
305.452	74.92
305.666	81.07
305.88	85.16
306.094	105.64
306.308	11.43
306.522	91.31
306.736	81.07
306.95	99.5
307.164	64.68
307.379	1.19
307.593	154.79
307.807	54.44
308.021	58.54
308.235	76.97
308.449	23.72
308.663	15.53
308.877	122.02
309.091	85.16
309.305	42.15
309.519	-2.9
309.733	72.87
309.947	60.59
310.161	93.35
310.374	109.74
310.588	87.21
310.802	93.35
311.016	62.63
311.23	48.3
311.444	105.64
311.658	72.87
311.872	70.83
312.085	132.26
312.299	117.93
312.513	144.55
312.727	79.02
312.941	31.91
313.154	33.96
313.368	72.87
313.582	42.15
313.796	89.26
314.009	36.01
314.223	52.39
314.437	119.98
314.651	7.34
314.864	-0.85
315.078	-2.9
315.292	85.16
315.505	15.53
315.719	60.59
315.933	52.39
316.146	60.59
316.36	29.87
316.573	107.69
316.787	48.3
317.001	87.21
317.214	56.49
317.428	74.92
317.641	25.77
317.855	33.96
318.068	40.11
318.282	162.98
318.495	177.32
318.709	103.59
318.922	76.97
319.136	7.34
319.349	124.07
319.563	40.11
319.776	76.97
319.99	-25.43
320.203	93.35
320.417	138.41
320.63	136.36
320.843	72.87
321.057	42.15
321.27	25.77
321.483	70.83
321.697	167.08
321.91	17.58
322.124	52.39
322.337	56.49
322.55	46.25
322.763	50.35
322.977	101.55
323.19	66.73
323.403	89.26
323.617	58.54
323.83	101.55
324.043	89.26
324.256	146.6
324.469	62.63
324.683	93.35
324.896	-25.43
325.109	81.07
325.322	-39.76
325.535	130.22
325.748	167.08
325.962	95.4
326.175	89.26
326.388	83.11
326.601	91.31
326.814	103.59
327.027	85.16
327.24	156.84
327.453	17.58
327.666	38.06
327.879	113.83
328.092	109.74
328.305	46.25
328.518	31.91
328.731	46.25
328.944	117.93
329.157	107.69
329.37	50.35
329.583	171.18
329.796	122.02
330.009	60.59
330.222	134.31
330.435	115.88
330.648	83.11
330.861	105.64
331.073	50.35
331.286	74.92
331.499	83.11
331.712	103.59
331.925	25.77
332.138	111.78
332.35	130.22
332.563	79.02
332.776	31.91
332.989	68.78
333.202	89.26
333.414	99.5
333.627	23.72
333.84	64.68
334.053	70.83
334.265	50.35
334.478	-9.05
334.691	31.91
334.903	56.49
335.116	-50
335.329	19.63
335.541	105.64
335.754	111.78
335.966	52.39
336.179	83.11
336.392	40.11
336.604	48.3
336.817	115.88
337.029	81.07
337.242	40.11
337.454	113.83
337.667	83.11
337.88	158.89
338.092	-9.05
338.305	23.72
338.517	17.58
338.729	154.79
338.942	83.11
339.154	31.91
339.367	27.82
339.579	87.21
339.792	-11.09
340.004	124.07
340.217	48.3
340.429	111.78
340.641	64.68
340.854	105.64
341.066	81.07
341.278	122.02
341.491	122.02
341.703	109.74
341.915	72.87
342.128	52.39
342.34	81.07
342.552	31.91
342.764	148.65
342.977	62.63
343.189	76.97
343.401	97.45
343.613	91.31
343.826	40.11
344.038	81.07
344.25	105.64
344.462	27.82
344.674	31.91
344.886	-15.19
345.099	119.98
345.311	33.96
345.523	128.17
345.735	9.39
345.947	74.92
346.159	150.7
346.371	132.26
346.583	31.91
346.795	56.49
347.007	7.34
347.219	99.5
347.431	142.5
347.643	197.8
347.855	91.31
348.067	134.31
348.279	64.68
348.491	97.45
348.703	107.69
348.915	-2.9
349.127	38.06
349.339	103.59
349.551	60.59
349.763	46.25
349.975	99.5
350.187	107.69
350.399	101.55
350.61	130.22
350.822	3.24
351.034	105.64
351.246	64.68
351.458	40.11
351.669	103.59
351.881	113.83
352.093	85.16
352.305	130.22
352.517	91.31
352.728	64.68
352.94	122.02
353.152	60.59
353.363	40.11
353.575	68.78
353.787	146.6
353.999	93.35
354.21	117.93
354.422	91.31
354.633	33.96
354.845	101.55
355.057	146.6
355.268	72.87
355.48	99.5
355.692	91.31
355.903	91.31
356.115	31.91
356.326	-11.09
356.538	169.13
356.749	91.31
356.961	134.31
357.172	107.69
357.384	-15.19
357.595	119.98
357.807	70.83
358.018	87.21
358.23	46.25
358.441	138.41
358.653	11.43
358.864	107.69
359.075	19.63
359.287	142.5
359.498	162.98
359.709	7.34
359.921	85.16
360.132	25.77
360.344	107.69
360.555	107.69
360.766	103.59
360.977	62.63
361.189	79.02
361.4	113.83
361.611	91.31
361.823	146.6
362.034	122.02
362.245	-13.14
362.456	119.98
362.667	167.08
362.879	113.83
363.09	140.46
363.301	33.96
363.512	62.63
363.723	15.53
363.935	83.11
364.146	85.16
364.357	115.88
364.568	97.45
364.779	62.63
364.99	95.4
365.201	11.43
365.412	119.98
365.623	42.15
365.834	105.64
366.045	72.87
366.256	107.69
366.467	91.31
366.678	142.5
366.889	31.91
367.1	126.12
367.311	154.79
367.522	-9.05
367.733	103.59
367.944	154.79
368.155	44.2
368.366	146.6
368.577	76.97
368.788	160.94
368.999	44.2
369.209	74.92
369.42	199.85
369.631	156.84
369.842	130.22
370.053	40.11
370.264	117.93
370.474	79.02
370.685	70.83
370.896	103.59
371.107	185.51
371.317	146.6
371.528	70.83
371.739	193.7
371.95	148.65
372.16	115.88
372.371	38.06
372.582	128.17
372.792	87.21
373.003	101.55
373.214	27.82
373.424	81.07
373.635	91.31
373.846	111.78
374.056	126.12
374.267	74.92
374.477	56.49
374.688	29.87
374.898	91.31
375.109	144.55
375.319	173.22
375.53	81.07
375.74	91.31
375.951	122.02
376.161	134.31
376.372	105.64
376.582	33.96
376.793	48.3
377.003	95.4
377.214	93.35
377.424	93.35
377.635	-11.09
377.845	56.49
378.055	158.89
378.266	29.87
378.476	91.31
378.686	130.22
378.897	146.6
379.107	132.26
379.317	181.42
379.528	76.97
379.738	126.12
379.948	72.87
380.158	52.39
380.369	66.73
380.579	97.45
380.789	83.11
380.999	68.78
381.21	103.59
381.42	124.07
381.63	72.87
381.84	165.03
382.05	81.07
382.261	126.12
382.471	144.55
382.681	107.69
382.891	89.26
383.101	132.26
383.311	15.53
383.521	56.49
383.731	101.55
383.941	93.35
384.151	85.16
384.361	97.45
384.571	146.6
384.781	46.25
384.991	83.11
385.201	130.22
385.411	140.46
385.621	160.94
385.831	72.87
386.041	191.66
386.251	52.39
386.461	109.74
386.671	185.51
386.881	97.45
387.091	154.79
387.301	91.31
387.511	79.02
387.72	74.92
387.93	107.69
388.14	46.25
388.35	72.87
388.56	132.26
388.769	95.4
388.979	107.69
389.189	60.59
389.399	79.02
389.609	171.18
389.818	93.35
390.028	113.83
390.238	173.22
390.447	9.39
390.657	85.16
390.867	50.35
391.076	144.55
391.286	124.07
391.496	89.26
391.705	156.84
391.915	95.4
392.125	85.16
392.334	99.5
392.544	152.74
392.753	76.97
392.963	66.73
393.172	169.13
393.382	21.67
393.591	201.9
393.801	101.55
394.01	158.89
394.22	193.7
394.429	179.37
394.639	62.63
394.848	134.31
395.058	130.22
395.267	156.84
395.477	189.61
395.686	113.83
395.895	203.94
396.105	173.22
396.314	142.5
396.524	113.83
396.733	175.27
396.942	232.62
397.152	177.32
397.361	150.7
397.57	33.96
397.78	144.55
397.989	79.02
398.198	169.13
398.407	154.79
398.617	105.64
398.826	183.46
399.035	119.98
399.244	111.78
399.453	126.12
399.663	124.07
399.872	150.7
400.081	183.46
400.29	214.18
400.499	60.59
400.708	203.94
400.917	152.74
401.127	126.12
401.336	140.46
401.545	150.7
401.754	150.7
401.963	126.12
402.172	136.36
402.381	113.83
402.59	113.83
402.799	68.78
403.008	148.65
403.217	126.12
403.426	203.94
403.635	101.55
403.844	189.61
404.053	230.57
404.262	179.37
404.471	255.14
404.68	230.57
404.888	199.85
405.097	177.32
405.306	236.71
405.515	185.51
405.724	187.56
405.933	226.47
406.142	220.33
406.35	160.94
406.559	253.09
406.768	257.19
406.977	341.16
407.185	246.95
407.394	238.76
407.603	185.51
407.812	265.38
408.02	363.69
408.229	285.86
408.438	242.85
408.646	292.01
408.855	251.05
409.064	267.43
409.272	380.07
409.481	351.4
409.69	312.49
409.898	353.45
410.107	349.35
410.315	312.49
410.524	302.25
410.733	466.08
410.941	468.13
411.15	464.04
411.358	373.92
411.567	494.76
411.775	480.42
411.984	408.74
412.192	541.86
412.401	449.7
412.609	533.67
412.818	601.25
413.026	584.87
413.234	552.1
413.443	642.21
413.651	603.3
413.86	595.11
414.068	756.9
414.276	724.13
414.485	705.7
414.693	812.19
414.901	834.72
415.11	705.7
415.318	734.37
415.526	771.23
415.734	810.14
415.943	863.39
416.151	894.11
416.359	939.16
416.567	990.36
416.776	992.41
416.984	1064.09
417.192	1062.04
417.4	1041.56
417.608	1006.75
417.817	1113.24
418.025	1213.59
418.233	1264.79
418.441	1170.58
418.649	1281.18
418.857	1453.2
419.065	1369.24
419.273	1356.95
419.481	1494.16
419.689	1602.71
419.897	1643.67
420.105	1670.29
420.313	1709.2
420.521	1733.78
420.729	1815.69
420.937	1840.27
421.145	1870.99
421.353	1934.48
421.561	2030.73
421.769	2045.07
421.977	2102.41
422.185	2184.33
422.393	2430.09
422.601	2423.94
422.809	2378.89
423.017	2491.52
423.224	2522.24
423.432	2563.2
423.64	2616.45
423.848	2903.17
424.056	2794.62
424.263	3042.43
424.471	3005.56
424.679	2937.98
424.887	3247.23
425.094	3288.18
425.302	3333.24
425.51	3505.27
425.718	3556.47
425.925	3669.11
426.133	3906.67
426.341	4050.03
426.548	3951.73
426.756	4082.8
426.964	4267.11
427.171	4308.07
427.379	4670.56
427.586	4559.97
427.794	4645.99
428.001	4949.09
428.209	5102.68
428.417	5178.46
428.624	5502.04
428.832	5440.6
429.039	5479.51
429.247	5428.31
429.454	5807.19
429.662	6452.3
429.869	5966.93
430.076	6288.46
430.284	6114.38
430.491	6499.4
430.699	6812.74
430.906	6917.19
431.114	6831.17
431.321	7214.14
431.528	7232.57
431.736	7697.46
431.943	7928.88
432.15	7990.32
432.358	7932.98
432.565	8412.2
432.772	8250.41
432.979	8809.51
433.187	8936.48
433.394	9135.14
433.601	9573.4
433.808	9858.07
434.016	9534.49
434.223	9903.12
434.43	10624.01
434.637	10314.77
434.844	10945.54
435.052	11156.48
435.259	11066.37
435.466	11392
435.673	11310.08
435.88	11727.86
436.087	12334.06
436.294	12555.24
436.501	12213.23
436.708	12499.95
436.915	13085.67
437.122	13460.45
437.329	13530.08
437.537	13931.48
437.743	14191.57
437.95	14105.56
438.157	14691.27
438.364	15201.22
438.571	15320
438.778	15498.17
438.985	16688.04
439.192	16006.07
439.399	16509.87
439.606	16227.25
439.813	17071.01
440.02	18350.99
440.227	17828.76
440.433	17843.1
440.64	18371.47
440.847	18031.51
441.054	18482.06
441.261	19596.16
441.467	19571.58
441.674	20128.63
441.881	20837.23
442.088	20716.4
442.294	20587.38
442.501	20925.29
442.708	21607.26
442.914	22397.78
443.121	23370.57
443.328	22715.22
443.534	24382.26
443.741	23565.12
443.948	23036.75
444.154	25084.72
444.361	24935.21
444.568	25039.66
444.774	25105.2
444.981	25230.12
445.187	25916.19
445.394	27278.09
445.6	26659.6
445.807	29291.24
446.013	28459.77
446.22	28838.64
446.426	29702.89
446.633	30083.81
446.839	31050.45
447.046	30032.61
447.252	31335.12
447.459	31224.53
447.665	31556.3
447.871	32733.88
448.078	34038.44
448.284	32570.04
448.491	33778.34
448.697	34833.05
448.903	35351.18
449.11	35852.94
449.316	35228.31
449.522	35705.48
449.728	36432.51
449.935	36694.65
450.141	36936.31
450.347	37646.96
450.553	36518.53
450.76	37309.04
450.966	38249.06
451.172	38058.6
451.378	38238.82
451.584	37827.18
451.791	38808.15
451.997	38797.91
452.203	38986.33
452.409	39635.53
452.615	39756.36
452.821	37468.78
453.027	37646.96
453.233	39295.57
453.44	37927.53
453.646	38085.22
453.852	38462.05
454.058	39187.03
454.264	38240.87
454.47	39203.41
454.676	37808.75
454.882	38867.55
455.088	35818.12
455.294	36508.29
455.5	36522.62
455.705	37337.71
455.911	35639.95
456.117	35197.59
456.323	34560.67
456.529	32877.24
456.735	33854.12
456.941	33284.78
457.147	33022.64
457.352	31965.89
457.558	31580.87
457.764	31761.09
457.97	30755.54
458.176	30169.82
458.381	30393.05
458.587	28941.04
458.793	28965.62
458.999	27298.57
459.204	29498.09
459.41	28269.31
459.616	26686.23
459.821	26471.19
460.027	26247.96
460.233	25946.91
460.438	24728.37
460.644	25097
460.85	23927.61
461.055	23540.55
461.261	23190.34
461.466	21674.85
461.672	21087.08
461.878	22307.67
462.083	21154.66
462.289	20327.28
462.494	20527.99
462.7	19450.75
462.905	18807.69
463.111	19678.08
463.316	19768.19
463.522	19176.33
463.727	19209.09
463.932	19428.23
464.138	18930.57
464.343	19205
464.549	18527.12
464.754	19184.52
464.959	18805.64
465.165	18922.38
