Data from USB4F104151__12__13-04-22-292.txt Node

Date: Fri Mar 14 13:04:22 EDT 2025
User: louis
Spectrometer: USB4F10415
Trigger mode: 4
Integration Time (sec): 4.000000E-2
Scans to average: 1
Electric dark correction enabled: true
Nonlinearity correction enabled: false
Boxcar width: 0
XAxis mode: Wavelengths
Number of Pixels in Spectrum: 3648
>>>>>Begin Spectral Data<<<<<
178.204	-157.01
178.424	-157.01
178.644	-157.01
178.864	-167.25
179.084	-234.83
179.304	8.87
179.524	-34.13
179.744	-36.18
179.964	94.89
180.184	17.07
180.404	15.02
180.624	-27.99
180.844	-23.89
181.064	-40.28
181.283	47.79
181.503	-64.85
181.723	43.69
181.943	-93.52
182.163	88.75
182.383	-7.51
182.602	70.31
182.822	94.89
183.042	78.51
183.262	55.98
183.482	35.5
183.701	33.45
183.921	66.22
184.141	-66.9
184.361	78.51
184.58	31.4
184.8	62.12
185.02	139.94
185.239	15.02
185.459	80.55
185.679	-46.42
185.898	-23.89
186.118	45.74
186.338	23.21
186.557	146.09
186.777	64.17
186.997	15.02
187.216	66.22
187.436	148.14
187.655	53.93
187.875	23.21
188.095	8.87
188.314	64.17
188.534	144.04
188.753	64.17
188.973	64.17
189.192	-19.8
189.412	55.98
189.631	80.55
189.851	29.35
190.07	66.22
190.29	-19.8
190.509	8.87
190.729	117.42
190.948	47.79
191.168	279.21
191.387	88.75
191.607	6.83
191.826	80.55
192.045	-34.13
192.265	35.5
192.484	80.55
192.704	70.31
192.923	-62.8
193.142	60.07
193.362	133.8
193.581	68.27
193.8	35.5
194.02	137.9
194.239	17.07
194.458	37.55
194.678	33.45
194.897	23.21
195.116	53.93
195.335	68.27
195.555	80.55
195.774	111.27
195.993	41.64
196.212	49.83
196.432	68.27
196.651	21.16
196.87	37.55
197.089	121.51
197.308	19.11
197.528	90.79
197.747	25.26
197.966	60.07
198.185	70.31
198.404	45.74
198.623	33.45
198.842	74.41
199.062	68.27
199.281	86.7
199.5	103.08
199.719	66.22
199.938	76.46
200.157	135.85
200.376	43.69
200.595	70.31
200.814	35.5
201.033	6.83
201.252	27.31
201.471	64.17
201.69	131.75
201.909	-15.7
202.128	64.17
202.347	45.74
202.566	74.41
202.785	-17.75
203.004	-1.37
203.223	53.93
203.442	29.35
203.661	31.4
203.879	51.88
204.098	49.83
204.317	-56.66
204.536	92.84
204.755	-1.37
204.974	72.36
205.193	55.98
205.411	166.57
205.63	103.08
205.849	-19.8
206.068	74.41
206.287	29.35
206.505	8.87
206.724	-23.89
206.943	51.88
207.162	25.26
207.381	92.84
207.599	45.74
207.818	4.78
208.037	25.26
208.255	68.27
208.474	119.46
208.693	62.12
208.911	35.5
209.13	33.45
209.349	47.79
209.567	-1.37
209.786	117.42
210.005	121.51
210.223	-9.56
210.442	-32.08
210.661	37.55
210.879	-13.65
211.098	58.03
211.316	33.45
211.535	127.66
211.753	17.07
211.972	62.12
212.191	12.97
212.409	41.64
212.628	-50.52
212.846	92.84
213.065	6.83
213.283	84.65
213.502	4.78
213.72	8.87
213.938	31.4
214.157	-17.75
214.375	78.51
214.594	53.93
214.812	70.31
215.031	-3.41
215.249	39.59
215.467	66.22
215.686	127.66
215.904	62.12
216.122	-3.41
216.341	92.84
216.559	90.79
216.778	29.35
216.996	37.55
217.214	29.35
217.432	31.4
217.651	-19.8
217.869	64.17
218.087	25.26
218.306	12.97
218.524	90.79
218.742	-9.56
218.96	47.79
219.179	53.93
219.397	123.56
219.615	92.84
219.833	113.32
220.051	0.68
220.27	68.27
220.488	49.83
220.706	119.46
220.924	-19.8
221.142	-9.56
221.36	29.35
221.578	10.92
221.796	51.88
222.015	39.59
222.233	17.07
222.451	43.69
222.669	-44.37
222.887	92.84
223.105	-34.13
223.323	21.16
223.541	37.55
223.759	-3.41
223.977	31.4
224.195	62.12
224.413	58.03
224.631	51.88
224.849	31.4
225.067	105.13
225.285	0.68
225.503	37.55
225.721	-19.8
225.939	4.78
226.157	10.92
226.375	172.71
226.592	-9.56
226.81	90.79
227.028	121.51
227.246	60.07
227.464	96.94
227.682	88.75
227.9	-32.08
228.117	66.22
228.335	23.21
228.553	-40.28
228.771	51.88
228.989	80.55
229.206	37.55
229.424	47.79
229.642	25.26
229.86	55.98
230.077	135.85
230.295	58.03
230.513	133.8
230.731	117.42
230.948	88.75
231.166	152.23
231.384	4.78
231.601	4.78
231.819	144.04
232.037	27.31
232.254	86.7
232.472	12.97
232.689	12.97
232.907	86.7
233.125	21.16
233.342	4.78
233.56	-5.46
233.777	2.73
233.995	39.59
234.213	135.85
234.43	86.7
234.648	39.59
234.865	19.11
235.083	12.97
235.3	35.5
235.518	29.35
235.735	96.94
235.953	70.31
236.17	49.83
236.388	17.07
236.605	15.02
236.822	111.27
237.04	107.18
237.257	53.93
237.475	80.55
237.692	86.7
237.909	51.88
238.127	-25.94
238.344	41.64
238.562	47.79
238.779	2.73
238.996	-32.08
239.214	70.31
239.431	78.51
239.648	6.83
239.865	39.59
240.083	94.89
240.3	2.73
240.517	-13.65
240.735	15.02
240.952	109.22
241.169	62.12
241.386	70.31
241.603	78.51
241.821	29.35
242.038	45.74
242.255	58.03
242.472	86.7
242.689	-1.37
242.907	111.27
243.124	21.16
243.341	51.88
243.558	4.78
243.775	-15.7
243.992	-44.37
244.209	107.18
244.426	125.61
244.643	49.83
244.86	-9.56
245.078	84.65
245.295	62.12
245.512	33.45
245.729	-60.76
245.946	103.08
246.163	86.7
246.38	62.12
246.597	51.88
246.814	6.83
247.031	121.51
247.248	74.41
247.464	-9.56
247.681	103.08
247.898	-25.94
248.115	123.56
248.332	62.12
248.549	55.98
248.766	98.99
248.983	45.74
249.2	-79.19
249.417	47.79
249.633	29.35
249.85	27.31
250.067	43.69
250.284	58.03
250.501	53.93
250.717	68.27
250.934	31.4
251.151	47.79
251.368	84.65
251.585	107.18
251.801	84.65
252.018	37.55
252.235	101.03
252.451	-38.23
252.668	33.45
252.885	117.42
253.102	51.88
253.318	78.51
253.535	51.88
253.752	31.4
253.968	37.55
254.185	-3.41
254.401	31.4
254.618	-9.56
254.835	0.68
255.051	78.51
255.268	96.94
255.484	78.51
255.701	62.12
255.917	31.4
256.134	12.97
256.351	88.75
256.567	-52.56
256.784	15.02
257	-11.61
257.217	25.26
257.433	70.31
257.65	66.22
257.866	41.64
258.082	8.87
258.299	-60.76
258.515	55.98
258.732	90.79
258.948	19.11
259.165	-64.85
259.381	31.4
259.597	74.41
259.814	41.64
260.03	29.35
260.246	25.26
260.463	137.9
260.679	31.4
260.895	8.87
261.112	62.12
261.328	41.64
261.544	55.98
261.761	152.23
261.977	-1.37
262.193	-27.99
262.409	15.02
262.626	55.98
262.842	82.6
263.058	55.98
263.274	62.12
263.49	37.55
263.707	111.27
263.923	88.75
264.139	-17.75
264.355	10.92
264.571	103.08
264.787	53.93
265.004	107.18
265.22	-19.8
265.436	62.12
265.652	39.59
265.868	64.17
266.084	21.16
266.3	86.7
266.516	0.68
266.732	58.03
266.948	78.51
267.164	80.55
267.38	37.55
267.596	27.31
267.812	115.37
268.028	60.07
268.244	55.98
268.46	45.74
268.676	41.64
268.892	72.36
269.108	4.78
269.324	21.16
269.54	4.78
269.756	2.73
269.972	37.55
270.188	72.36
270.403	12.97
270.619	68.27
270.835	23.21
271.051	53.93
271.267	-5.46
271.483	21.16
271.698	19.11
271.914	-9.56
272.13	-1.37
272.346	-7.51
272.562	17.07
272.777	-27.99
272.993	29.35
273.209	0.68
273.425	15.02
273.64	-62.8
273.856	43.69
274.072	51.88
274.287	-3.41
274.503	62.12
274.719	39.59
274.934	111.27
275.15	37.55
275.366	2.73
275.581	19.11
275.797	92.84
276.012	78.51
276.228	47.79
276.444	31.4
276.659	84.65
276.875	-27.99
277.09	-68.95
277.306	4.78
277.521	6.83
277.737	35.5
277.952	0.68
278.168	109.22
278.383	144.04
278.599	35.5
278.814	41.64
279.03	12.97
279.245	49.83
279.461	33.45
279.676	78.51
279.892	-64.85
280.107	-25.94
280.322	10.92
280.538	39.59
280.753	-68.95
280.969	70.31
281.184	-3.41
281.399	98.99
281.615	119.46
281.83	43.69
282.045	66.22
282.26	111.27
282.476	-11.61
282.691	15.02
282.906	37.55
283.122	121.51
283.337	0.68
283.552	90.79
283.767	8.87
283.983	37.55
284.198	12.97
284.413	152.23
284.628	-32.08
284.843	27.31
285.058	92.84
285.274	19.11
285.489	0.68
285.704	121.51
285.919	31.4
286.134	12.97
286.349	10.92
286.564	64.17
286.779	129.7
286.995	47.79
287.21	-71
287.425	39.59
287.64	10.92
287.855	98.99
288.07	8.87
288.285	90.79
288.5	96.94
288.715	12.97
288.93	43.69
289.145	-27.99
289.36	35.5
289.575	-42.32
289.79	103.08
290.004	37.55
290.219	90.79
290.434	72.36
290.649	37.55
290.864	-7.51
291.079	25.26
291.294	47.79
291.509	15.02
291.724	98.99
291.938	27.31
292.153	19.11
292.368	-30.04
292.583	82.6
292.798	70.31
293.012	25.26
293.227	82.6
293.442	-7.51
293.657	166.57
293.871	111.27
294.086	-15.7
294.301	86.7
294.516	92.84
294.73	27.31
294.945	2.73
295.16	96.94
295.374	88.75
295.589	90.79
295.804	43.69
296.018	37.55
296.233	150.18
296.447	53.93
296.662	58.03
296.877	152.23
297.091	64.17
297.306	105.13
297.52	103.08
297.735	-3.41
297.949	72.36
298.164	31.4
298.378	70.31
298.593	74.41
298.807	-5.46
299.022	64.17
299.236	70.31
299.451	76.46
299.665	96.94
299.88	-50.52
300.094	101.03
300.309	74.41
300.523	6.83
300.737	58.03
300.952	55.98
301.166	64.17
301.381	-30.04
301.595	37.55
301.809	12.97
302.024	45.74
302.238	-46.42
302.452	86.7
302.667	55.98
302.881	105.13
303.095	31.4
303.309	58.03
303.524	2.73
303.738	55.98
303.952	-3.41
304.166	82.6
304.381	10.92
304.595	62.12
304.809	33.45
305.023	-68.95
305.237	-17.75
305.452	27.31
305.666	121.51
305.88	119.46
306.094	27.31
306.308	4.78
306.522	94.89
306.736	8.87
306.95	88.75
307.164	37.55
307.379	-75.09
307.593	90.79
307.807	27.31
308.021	117.42
308.235	74.41
308.449	-9.56
308.663	19.11
308.877	205.48
309.091	60.07
309.305	82.6
309.519	21.16
309.733	51.88
309.947	-50.52
310.161	47.79
310.374	33.45
310.588	47.79
310.802	15.02
311.016	37.55
311.23	90.79
311.444	12.97
311.658	109.22
311.872	70.31
312.085	105.13
312.299	62.12
312.513	78.51
312.727	74.41
312.941	31.4
313.154	45.74
313.368	80.55
313.582	27.31
313.796	31.4
314.009	55.98
314.223	58.03
314.437	15.02
314.651	88.75
314.864	-30.04
315.078	39.59
315.292	-3.41
315.505	51.88
315.719	80.55
315.933	98.99
316.146	19.11
316.36	-19.8
316.573	84.65
316.787	6.83
317.001	37.55
317.214	0.68
317.428	80.55
317.641	35.5
317.855	72.36
318.068	21.16
318.282	-7.51
318.495	98.99
318.709	-27.99
318.922	55.98
319.136	96.94
319.349	60.07
319.563	23.21
319.776	80.55
319.99	43.69
320.203	33.45
320.417	27.31
320.63	70.31
320.843	139.94
321.057	47.79
321.27	94.89
321.483	123.56
321.697	144.04
321.91	58.03
322.124	70.31
322.337	53.93
322.55	37.55
322.763	17.07
322.977	58.03
323.19	-58.71
323.403	70.31
323.617	66.22
323.83	62.12
324.043	72.36
324.256	62.12
324.469	12.97
324.683	98.99
324.896	39.59
325.109	-17.75
325.322	78.51
325.535	90.79
325.748	31.4
325.962	8.87
326.175	4.78
326.388	29.35
326.601	88.75
326.814	66.22
327.027	101.03
327.24	62.12
327.453	21.16
327.666	119.46
327.879	47.79
328.092	55.98
328.305	49.83
328.518	19.11
328.731	51.88
328.944	121.51
329.157	-13.65
329.37	66.22
329.583	74.41
329.796	101.03
330.009	6.83
330.222	41.64
330.435	31.4
330.648	37.55
330.861	21.16
331.073	146.09
331.286	113.32
331.499	41.64
331.712	4.78
331.925	-3.41
332.138	86.7
332.35	47.79
332.563	19.11
332.776	88.75
332.989	21.16
333.202	47.79
333.414	0.68
333.627	19.11
333.84	-11.61
334.053	-7.51
334.265	27.31
334.478	55.98
334.691	74.41
334.903	27.31
335.116	25.26
335.329	4.78
335.541	86.7
335.754	27.31
335.966	82.6
336.179	19.11
336.392	80.55
336.604	62.12
336.817	68.27
337.029	12.97
337.242	94.89
337.454	64.17
337.667	25.26
337.88	23.21
338.092	37.55
338.305	78.51
338.517	0.68
338.729	86.7
338.942	72.36
339.154	-3.41
339.367	0.68
339.579	94.89
339.792	-34.13
340.004	37.55
340.217	17.07
340.429	15.02
340.641	58.03
340.854	37.55
341.066	21.16
341.278	76.46
341.491	43.69
341.703	55.98
341.915	-5.46
342.128	25.26
342.34	41.64
342.552	94.89
342.764	45.74
342.977	146.09
343.189	70.31
343.401	139.94
343.613	21.16
343.826	51.88
344.038	27.31
344.25	88.75
344.462	-5.46
344.674	103.08
344.886	72.36
345.099	62.12
345.311	-3.41
345.523	64.17
345.735	-15.7
345.947	96.94
346.159	101.03
346.371	-1.37
346.583	78.51
346.795	170.66
347.007	21.16
347.219	68.27
347.431	17.07
347.643	17.07
347.855	17.07
348.067	156.33
348.279	2.73
348.491	45.74
348.703	37.55
348.915	101.03
349.127	23.21
349.339	21.16
349.551	-23.89
349.763	107.18
349.975	0.68
350.187	92.84
350.399	70.31
350.61	70.31
350.822	31.4
351.034	64.17
351.246	-15.7
351.458	-3.41
351.669	160.42
351.881	107.18
352.093	111.27
352.305	90.79
352.517	156.33
352.728	76.46
352.94	49.83
353.152	37.55
353.363	-9.56
353.575	29.35
353.787	64.17
353.999	62.12
354.21	127.66
354.422	4.78
354.633	96.94
354.845	82.6
355.057	21.16
355.268	53.93
355.48	127.66
355.692	-34.13
355.903	45.74
356.115	33.45
356.326	4.78
356.538	70.31
356.749	-17.75
356.961	64.17
357.172	72.36
357.384	72.36
357.595	131.75
357.807	45.74
358.018	58.03
358.23	39.59
358.441	152.23
358.653	62.12
358.864	-34.13
359.075	35.5
359.287	74.41
359.498	113.32
359.709	74.41
359.921	74.41
360.132	45.74
360.344	82.6
360.555	39.59
360.766	125.61
360.977	4.78
361.189	60.07
361.4	47.79
361.611	78.51
361.823	72.36
362.034	47.79
362.245	-17.75
362.456	68.27
362.667	88.75
362.879	39.59
363.09	25.26
363.301	105.13
363.512	86.7
363.723	25.26
363.935	6.83
364.146	64.17
364.357	76.46
364.568	8.87
364.779	0.68
364.99	80.55
365.201	41.64
365.412	88.75
365.623	-27.99
365.834	6.83
366.045	37.55
366.256	47.79
366.467	129.7
366.678	15.02
366.889	131.75
367.1	21.16
367.311	92.84
367.522	12.97
367.733	19.11
367.944	78.51
368.155	6.83
368.366	101.03
368.577	80.55
368.788	29.35
368.999	78.51
369.209	49.83
369.42	39.59
369.631	107.18
369.842	70.31
370.053	39.59
370.264	144.04
370.474	-13.65
370.685	33.45
370.896	51.88
371.107	64.17
371.317	-25.94
371.528	53.93
371.739	125.61
371.95	33.45
372.16	45.74
372.371	35.5
372.582	12.97
372.792	66.22
373.003	101.03
373.214	-7.51
373.424	137.9
373.635	23.21
373.846	66.22
374.056	53.93
374.267	25.26
374.477	80.55
374.688	41.64
374.898	74.41
375.109	-5.46
375.319	53.93
375.53	66.22
375.74	123.56
375.951	113.32
376.161	76.46
376.372	19.11
376.582	43.69
376.793	41.64
377.003	74.41
377.214	-32.08
377.424	101.03
377.635	60.07
377.845	17.07
378.055	86.7
378.266	21.16
378.476	62.12
378.686	41.64
378.897	64.17
379.107	58.03
379.317	17.07
379.528	72.36
379.738	103.08
379.948	12.97
380.158	74.41
380.369	35.5
380.579	109.22
380.789	107.18
380.999	174.76
381.21	119.46
381.42	144.04
381.63	29.35
381.84	12.97
382.05	76.46
382.261	76.46
382.471	103.08
382.681	-11.61
382.891	94.89
383.101	64.17
383.311	12.97
383.521	60.07
383.731	80.55
383.941	8.87
384.151	111.27
384.361	37.55
384.571	82.6
384.781	80.55
384.991	123.56
385.201	135.85
385.411	115.37
385.621	23.21
385.831	8.87
386.041	15.02
386.251	23.21
386.461	12.97
386.671	80.55
386.881	37.55
387.091	90.79
387.301	72.36
387.511	101.03
387.72	55.98
387.93	80.55
388.14	39.59
388.35	51.88
388.56	66.22
388.769	47.79
388.979	111.27
389.189	17.07
389.399	62.12
389.609	90.79
389.818	74.41
390.028	101.03
390.238	103.08
390.447	113.32
390.657	125.61
390.867	60.07
391.076	19.11
391.286	156.33
391.496	70.31
391.705	45.74
391.915	146.09
392.125	105.13
392.334	62.12
392.544	39.59
392.753	-71
392.963	105.13
393.172	88.75
393.382	-23.89
393.591	168.62
393.801	51.88
394.01	129.7
394.22	86.7
394.429	74.41
394.639	47.79
394.848	98.99
395.058	39.59
395.267	127.66
395.477	90.79
395.686	82.6
395.895	127.66
396.105	178.86
396.314	121.51
396.524	6.83
396.733	72.36
396.942	121.51
397.152	103.08
397.361	139.94
397.57	199.34
397.78	135.85
397.989	80.55
398.198	158.38
398.407	94.89
398.617	111.27
398.826	105.13
399.035	125.61
399.244	150.18
399.453	103.08
399.663	55.98
399.872	131.75
400.081	117.42
400.29	162.47
400.499	80.55
400.708	70.31
400.917	80.55
401.127	119.46
401.336	55.98
401.545	172.71
401.754	92.84
401.963	113.32
402.172	66.22
402.381	96.94
402.59	51.88
402.799	86.7
403.008	107.18
403.217	72.36
403.426	185
403.635	37.55
403.844	8.87
404.053	195.24
404.262	144.04
404.471	135.85
404.68	137.9
404.888	144.04
405.097	139.94
405.306	146.09
405.515	135.85
405.724	121.51
405.933	193.19
406.142	152.23
406.35	144.04
406.559	209.58
406.768	197.29
406.977	219.82
407.185	197.29
407.394	195.24
407.603	90.79
407.812	221.86
408.02	250.53
408.229	172.71
408.438	236.2
408.646	164.52
408.855	162.47
409.064	228.01
409.272	205.48
409.481	230.06
409.69	238.25
409.898	238.25
410.107	275.11
410.315	359.08
410.524	228.01
410.733	289.45
410.941	332.45
411.15	299.69
411.358	311.97
411.567	352.93
411.775	189.1
411.984	330.41
412.192	260.77
412.401	363.17
412.609	381.6
412.818	361.13
413.026	342.69
413.234	410.28
413.443	422.56
413.651	418.47
413.86	428.71
414.068	490.15
414.276	596.64
414.485	438.95
414.693	484
414.901	602.79
415.11	598.69
415.318	510.63
415.526	551.59
415.734	598.69
415.943	594.59
416.151	670.37
416.359	656.03
416.567	666.27
416.776	692.9
416.984	627.36
417.192	783.01
417.4	713.38
417.608	768.67
417.817	838.3
418.025	826.01
418.233	889.5
418.441	856.73
418.649	817.82
418.857	1016.48
419.065	1024.67
419.273	969.37
419.481	963.23
419.689	1055.39
419.897	1071.77
420.105	1172.12
420.313	1260.18
420.521	1311.38
420.729	1280.66
420.937	1233.56
421.145	1303.19
421.353	1264.28
421.561	1477.27
421.769	1360.53
421.977	1553.04
422.185	1602.19
422.393	1645.2
422.601	1786.51
422.809	1594
423.017	1651.35
423.224	1825.42
423.432	1860.24
423.64	1856.14
423.848	2105.99
424.056	1983.12
424.263	2163.34
424.471	2163.34
424.679	2278.02
424.887	2419.33
425.094	2380.42
425.302	2370.18
425.51	2499.2
425.718	2605.7
425.925	2577.03
426.133	2654.85
426.341	2898.56
426.548	2904.7
426.756	2974.33
426.964	2943.61
427.171	3099.26
427.379	3175.03
427.586	3175.03
427.794	3308.15
428.001	3580.53
428.209	3748.47
428.417	3742.32
428.624	3959.41
428.832	3912.3
429.039	3873.39
429.247	3873.39
429.454	4330.09
429.662	4588.13
429.869	4223.59
430.076	4637.28
430.284	4538.98
430.491	4600.42
430.699	4864.61
430.906	4858.46
431.114	5016.16
431.321	5253.72
431.528	5272.15
431.736	5648.98
431.943	5921.36
432.15	5802.58
432.358	5675.6
432.565	6187.6
432.772	5917.26
432.979	6328.91
433.187	6527.56
433.394	6591.05
433.601	6937.15
433.808	6828.61
434.016	6787.65
434.223	7152.19
434.43	7549.5
434.637	7490.1
434.844	7995.95
435.052	8223.28
435.259	8112.69
435.466	8114.73
435.673	8120.88
435.88	8565.29
436.087	9050.66
436.294	9105.95
436.501	8608.3
436.708	9222.69
436.915	9087.52
437.122	9751.06
437.329	9814.55
437.537	10097.17
437.743	9974.29
437.95	9939.47
438.157	10570.25
438.364	10969.6
438.571	10961.41
438.778	10820.1
438.985	12024.31
439.192	11538.94
439.399	11856.37
439.606	11569.66
439.813	12401.13
440.02	13085.15
440.227	12614.12
440.433	12732.9
440.64	13193.7
440.847	13011.43
441.054	13316.58
441.261	14387.66
441.467	13959.64
441.674	14381.52
441.881	15139.27
442.088	14770.63
442.294	14938.57
442.501	15159.75
442.708	15530.43
442.914	16118.2
443.121	16759.21
443.328	16187.83
443.534	17199.52
443.741	17078.69
443.948	16677.29
444.154	17809.82
444.361	17924.51
444.568	18002.33
444.774	18000.28
444.981	18264.47
445.187	18657.68
445.394	19708.29
445.6	19288.45
445.807	21352.8
446.013	20238.71
446.22	20609.39
446.426	21361
446.633	21723.49
446.839	22446.42
447.046	21311.85
447.252	22927.69
447.459	22962.51
447.665	22813.01
447.871	23644.48
448.078	24836.4
448.284	23306.57
448.491	23990.59
448.697	25239.85
448.903	25506.09
449.11	25764.13
449.316	25319.72
449.522	25790.75
449.728	26677.52
449.935	26984.72
450.141	26542.36
450.347	27058.45
450.553	26708.24
450.76	26949.9
450.966	27498.76
451.172	27533.57
451.378	28190.97
451.584	27554.05
451.791	27986.18
451.997	28326.14
452.203	28911.86
452.409	28580.09
452.615	28612.85
452.821	27396.36
453.027	26923.28
453.233	28694.77
453.44	27472.14
453.646	27668.74
453.852	28096.77
454.058	28459.26
454.264	27449.61
454.47	28227.84
454.676	27416.84
454.882	28487.93
455.088	26100
455.294	26593.56
455.5	26859.79
455.705	26915.09
455.911	25829.66
456.117	25211.18
456.323	25516.33
456.529	23855.42
456.735	24725.81
456.941	24342.84
457.147	23765.31
457.352	22896.97
457.558	22780.24
457.764	23026
457.97	22573.39
458.176	22002.01
458.381	21924.19
458.587	20984.17
458.793	20865.39
458.999	19872.12
459.204	20930.92
459.41	20502.9
459.616	19218.82
459.821	19239.3
460.027	19218.82
460.233	18848.14
460.438	18090.39
460.644	18102.68
460.85	17420.7
461.055	17291.68
461.261	16982.44
461.466	15720.89
461.672	15288.77
461.878	16320.95
462.083	15282.63
462.289	14911.94
462.494	14672.33
462.7	14383.57
462.905	13795.8
463.111	14275.02
463.316	14293.46
463.522	13994.45
463.727	14031.32
463.932	14240.21
464.138	13898.2
464.343	13873.62
464.549	13509.08
464.754	13744.6
464.959	13916.63
465.165	13636.06
465.37	13146.59
465.575	12718.57
465.781	13072.87
465.986	13171.17
466.191	12853.73
466.397	12851.69
466.602	12034.55
466.807	12401.13
467.012	12644.84
467.218	12583.4
467.423	12243.44
