Data from USB4F104151__58__13-05-41-281.txt Node

Date: Fri Mar 14 13:05:41 EDT 2025
User: louis
Spectrometer: USB4F10415
Trigger mode: 4
Integration Time (sec): 4.000000E-2
Scans to average: 1
Electric dark correction enabled: true
Nonlinearity correction enabled: false
Boxcar width: 0
XAxis mode: Wavelengths
Number of Pixels in Spectrum: 3648
>>>>>Begin Spectral Data<<<<<
178.204	-129.36
178.424	-129.36
178.644	-129.36
178.864	-258.39
179.084	-100.69
179.304	-33.11
179.524	22.19
179.744	44.71
179.964	40.62
180.184	-16.73
180.404	13.99
180.624	46.76
180.844	-47.44
181.064	-31.06
181.283	11.95
181.503	-69.97
181.723	18.09
181.943	-37.2
182.163	108.2
182.383	5.8
182.602	95.91
182.822	-10.58
183.042	71.34
183.262	40.62
183.482	30.38
183.701	-18.77
183.921	22.19
184.141	-4.44
184.361	104.11
184.58	32.43
184.8	65.19
185.02	50.86
185.239	83.63
185.459	-39.25
185.679	22.19
185.898	-35.16
186.118	57
186.338	79.53
186.557	54.95
186.777	-0.34
186.997	61.1
187.216	20.14
187.436	59.05
187.655	22.19
187.875	140.97
188.095	11.95
188.314	83.63
188.534	126.63
188.753	9.9
188.973	42.67
189.192	73.39
189.412	32.43
189.631	13.99
189.851	16.04
190.07	42.67
190.29	-18.77
190.509	46.76
190.729	40.62
190.948	128.68
191.168	118.44
191.387	65.19
191.607	-18.77
191.826	5.8
192.045	26.28
192.265	24.23
192.484	77.48
192.704	28.33
192.923	40.62
193.142	73.39
193.362	34.47
193.581	128.68
193.8	71.34
194.02	59.05
194.239	20.14
194.458	52.91
194.678	5.8
194.897	-41.3
195.116	153.26
195.335	52.91
195.555	38.57
195.774	-16.73
195.993	81.58
196.212	71.34
196.432	36.52
196.651	13.99
196.87	-16.73
197.089	163.5
197.308	136.87
197.528	128.68
197.747	-14.68
197.966	93.87
198.185	132.78
198.404	79.53
198.623	59.05
198.842	106.15
199.062	65.19
199.281	28.33
199.5	1.71
199.719	145.06
199.938	102.06
200.157	73.39
200.376	95.91
200.595	73.39
200.814	52.91
201.033	54.95
201.252	75.43
201.471	1.71
201.69	1.71
201.909	75.43
202.128	54.95
202.347	59.05
202.566	26.28
202.785	13.99
203.004	18.09
203.223	57
203.442	79.53
203.661	5.8
203.879	26.28
204.098	89.77
204.317	7.85
204.536	11.95
204.755	54.95
204.974	122.54
205.193	40.62
205.411	102.06
205.63	112.3
205.849	69.29
206.068	40.62
206.287	16.04
206.505	61.1
206.724	42.67
206.943	73.39
207.162	11.95
207.381	40.62
207.599	-8.53
207.818	44.71
208.037	5.8
208.255	-55.64
208.474	9.9
208.693	73.39
208.911	-67.92
209.13	44.71
209.349	-2.39
209.567	65.19
209.786	13.99
210.005	93.87
210.223	36.52
210.442	-43.35
210.661	34.47
210.879	97.96
211.098	24.23
211.316	-29.01
211.535	52.91
211.753	85.67
211.972	-20.82
212.191	13.99
212.409	87.72
212.628	61.1
212.846	-18.77
213.065	114.34
213.283	63.15
213.502	34.47
213.72	5.8
213.938	1.71
214.157	36.52
214.375	136.87
214.594	42.67
214.812	89.77
215.031	106.15
215.249	7.85
215.467	40.62
215.686	79.53
215.904	28.33
216.122	28.33
216.341	122.54
216.559	34.47
216.778	97.96
216.996	-10.58
217.214	-55.64
217.432	30.38
217.651	16.04
217.869	-2.39
218.087	63.15
218.306	-4.44
218.524	71.34
218.742	50.86
218.96	36.52
219.179	75.43
219.397	50.86
219.615	128.68
219.833	71.34
220.051	44.71
220.27	95.91
220.488	50.86
220.706	71.34
220.924	104.11
221.142	5.8
221.36	50.86
221.578	54.95
221.796	63.15
222.015	7.85
222.233	54.95
222.451	69.29
222.669	77.48
222.887	120.49
223.105	5.8
223.323	106.15
223.541	1.71
223.759	81.58
223.977	-8.53
224.195	104.11
224.413	81.58
224.631	112.3
224.849	7.85
225.067	163.5
225.285	26.28
225.503	-10.58
225.721	-57.68
225.939	40.62
226.157	57
226.375	179.88
226.592	34.47
226.81	38.57
227.028	79.53
227.246	138.92
227.464	22.19
227.682	102.06
227.9	97.96
228.117	93.87
228.335	52.91
228.553	-37.2
228.771	65.19
228.989	73.39
229.206	95.91
229.424	38.57
229.642	-12.63
229.86	13.99
230.077	128.68
230.295	30.38
230.513	54.95
230.731	61.1
230.948	104.11
231.166	11.95
231.384	57
231.601	100.01
231.819	83.63
232.037	13.99
232.254	22.19
232.472	67.24
232.689	44.71
232.907	112.3
233.125	13.99
233.342	5.8
233.56	46.76
233.777	-65.88
233.995	11.95
234.213	104.11
234.43	40.62
234.648	-6.49
234.865	18.09
235.083	71.34
235.3	44.71
235.518	100.01
235.735	120.49
235.953	104.11
236.17	-6.49
236.388	63.15
236.605	46.76
236.822	147.11
237.04	42.67
237.257	83.63
237.475	50.86
237.692	149.16
237.909	22.19
238.127	48.81
238.344	120.49
238.562	79.53
238.779	13.99
238.996	-26.96
239.214	28.33
239.431	112.3
239.648	-14.68
239.865	169.64
240.083	18.09
240.3	40.62
240.517	7.85
240.735	54.95
240.952	124.58
241.169	32.43
241.386	63.15
241.603	-12.63
241.821	52.91
242.038	104.11
242.255	71.34
242.472	-18.77
242.689	30.38
242.907	79.53
243.124	32.43
243.341	59.05
243.558	71.34
243.775	36.52
243.992	9.9
244.209	89.77
244.426	22.19
244.643	124.58
244.86	5.8
245.078	124.58
245.295	28.33
245.512	126.63
245.729	-8.53
245.946	63.15
246.163	100.01
246.38	85.67
246.597	9.9
246.814	63.15
247.031	73.39
247.248	69.29
247.464	32.43
247.681	100.01
247.898	11.95
248.115	100.01
248.332	79.53
248.549	91.82
248.766	63.15
248.983	71.34
249.2	67.24
249.417	63.15
249.633	-6.49
249.85	97.96
250.067	1.71
250.284	71.34
250.501	79.53
250.717	13.99
250.934	3.75
251.151	52.91
251.368	28.33
251.585	18.09
251.801	59.05
252.018	32.43
252.235	42.67
252.451	-14.68
252.668	5.8
252.885	97.96
253.102	87.72
253.318	81.58
253.535	-45.4
253.752	44.71
253.968	52.91
254.185	65.19
254.401	52.91
254.618	71.34
254.835	5.8
255.051	108.2
255.268	50.86
255.484	38.57
255.701	-39.25
255.917	87.72
256.134	87.72
256.351	20.14
256.567	7.85
256.784	50.86
257	1.71
257.217	36.52
257.433	73.39
257.65	65.19
257.866	87.72
258.082	22.19
258.299	104.11
258.515	89.77
258.732	52.91
258.948	5.8
259.165	179.88
259.381	38.57
259.597	59.05
259.814	59.05
260.03	54.95
260.246	54.95
260.463	57
260.679	54.95
260.895	38.57
261.112	18.09
261.328	-47.44
261.544	1.71
261.761	171.69
261.977	-8.53
262.193	9.9
262.409	48.81
262.626	67.24
262.842	13.99
263.058	3.75
263.274	67.24
263.49	36.52
263.707	87.72
263.923	20.14
264.139	-18.77
264.355	42.67
264.571	95.91
264.787	9.9
265.004	40.62
265.22	24.23
265.436	5.8
265.652	57
265.868	77.48
266.084	-2.39
266.3	26.28
266.516	48.81
266.732	-4.44
266.948	38.57
267.164	79.53
267.38	71.34
267.596	52.91
267.812	177.83
268.028	1.71
268.244	9.9
268.46	26.28
268.676	26.28
268.892	112.3
269.108	-12.63
269.324	-6.49
269.54	-4.44
269.756	108.2
269.972	-14.68
270.188	-29.01
270.403	65.19
270.619	79.53
270.835	69.29
271.051	161.45
271.267	46.76
271.483	63.15
271.698	95.91
271.914	91.82
272.13	34.47
272.346	61.1
272.562	20.14
272.777	138.92
272.993	22.19
273.209	7.85
273.425	32.43
273.64	-72.02
273.856	-6.49
274.072	3.75
274.287	7.85
274.503	3.75
274.719	26.28
274.934	-2.39
275.15	-90.45
275.366	42.67
275.581	13.99
275.797	40.62
276.012	63.15
276.228	63.15
276.444	-2.39
276.659	46.76
276.875	40.62
277.09	63.15
277.306	-8.53
277.521	102.06
277.737	50.86
277.952	79.53
278.168	52.91
278.383	112.3
278.599	34.47
278.814	9.9
279.03	-35.16
279.245	38.57
279.461	57
279.676	102.06
279.892	-10.58
280.107	38.57
280.322	30.38
280.538	85.67
280.753	42.67
280.969	120.49
281.184	40.62
281.399	71.34
281.615	97.96
281.83	65.19
282.045	-10.58
282.26	73.39
282.476	89.77
282.691	61.1
282.906	42.67
283.122	40.62
283.337	46.76
283.552	40.62
283.767	50.86
283.983	40.62
284.198	34.47
284.413	159.4
284.628	26.28
284.843	48.81
285.058	-0.34
285.274	40.62
285.489	65.19
285.704	95.91
285.919	28.33
286.134	-2.39
286.349	46.76
286.564	108.2
286.779	67.24
286.995	-0.34
287.21	-18.77
287.425	61.1
287.64	24.23
287.855	34.47
288.07	5.8
288.285	122.54
288.5	22.19
288.715	57
288.93	9.9
289.145	20.14
289.36	75.43
289.575	69.29
289.79	97.96
290.004	61.1
290.219	44.71
290.434	44.71
290.649	48.81
290.864	9.9
291.079	26.28
291.294	116.39
291.509	-18.77
291.724	30.38
291.938	54.95
292.153	124.58
292.368	20.14
292.583	87.72
292.798	77.48
293.012	100.01
293.227	65.19
293.442	95.91
293.657	36.52
293.871	48.81
294.086	22.19
294.301	67.24
294.516	116.39
294.73	57
294.945	73.39
295.16	16.04
295.374	130.73
295.589	87.72
295.804	22.19
296.018	100.01
296.233	104.11
296.447	145.06
296.662	7.85
296.877	155.3
297.091	44.71
297.306	122.54
297.52	89.77
297.735	28.33
297.949	-2.39
298.164	44.71
298.378	52.91
298.593	32.43
298.807	-22.87
299.022	71.34
299.236	61.1
299.451	24.23
299.665	-8.53
299.88	77.48
300.094	97.96
300.309	5.8
300.523	26.28
300.737	24.23
300.952	100.01
301.166	79.53
301.381	-0.34
301.595	87.72
301.809	50.86
302.024	-35.16
302.238	-8.53
302.452	136.87
302.667	18.09
302.881	104.11
303.095	97.96
303.309	22.19
303.524	36.52
303.738	71.34
303.952	36.52
304.166	85.67
304.381	73.39
304.595	179.88
304.809	-16.73
305.023	110.25
305.237	75.43
305.452	18.09
305.666	-41.3
305.88	75.43
306.094	112.3
306.308	13.99
306.522	71.34
306.736	54.95
306.95	50.86
307.164	18.09
307.379	34.47
307.593	155.3
307.807	71.34
308.021	69.29
308.235	97.96
308.449	-43.35
308.663	13.99
308.877	104.11
309.091	67.24
309.305	106.15
309.519	-12.63
309.733	63.15
309.947	-14.68
310.161	61.1
310.374	52.91
310.588	77.48
310.802	-14.68
311.016	54.95
311.23	-43.35
311.444	-26.96
311.658	32.43
311.872	75.43
312.085	87.72
312.299	-22.87
312.513	32.43
312.727	73.39
312.941	-43.35
313.154	38.57
313.368	46.76
313.582	63.15
313.796	132.78
314.009	-22.87
314.223	104.11
314.437	73.39
314.651	59.05
314.864	54.95
315.078	95.91
315.292	24.23
315.505	48.81
315.719	104.11
315.933	32.43
316.146	48.81
316.36	9.9
316.573	138.92
316.787	83.63
317.001	114.34
317.214	63.15
317.428	54.95
317.641	79.53
317.855	-16.73
318.068	48.81
318.282	100.01
318.495	145.06
318.709	11.95
318.922	-29.01
319.136	75.43
319.349	112.3
319.563	-0.34
319.776	124.58
319.99	26.28
320.203	81.58
320.417	-2.39
320.63	73.39
320.843	186.02
321.057	24.23
321.27	3.75
321.483	63.15
321.697	161.45
321.91	110.25
322.124	114.34
322.337	57
322.55	1.71
322.763	75.43
322.977	81.58
323.19	-8.53
323.403	32.43
323.617	40.62
323.83	130.73
324.043	54.95
324.256	46.76
324.469	73.39
324.683	149.16
324.896	22.19
325.109	1.71
325.322	26.28
325.535	85.67
325.748	46.76
325.962	71.34
326.175	-6.49
326.388	169.64
326.601	128.68
326.814	-22.87
327.027	69.29
327.24	81.58
327.453	-14.68
327.666	138.92
327.879	106.15
328.092	71.34
328.305	91.82
328.518	24.23
328.731	97.96
328.944	52.91
329.157	40.62
329.37	97.96
329.583	71.34
329.796	95.91
330.009	13.99
330.222	114.34
330.435	91.82
330.648	67.24
330.861	128.68
331.073	54.95
331.286	100.01
331.499	71.34
331.712	16.04
331.925	11.95
332.138	26.28
332.35	106.15
332.563	44.71
332.776	5.8
332.989	-24.92
333.202	42.67
333.414	120.49
333.627	38.57
333.84	48.81
334.053	11.95
334.265	54.95
334.478	5.8
334.691	38.57
334.903	69.29
335.116	18.09
335.329	63.15
335.541	30.38
335.754	59.05
335.966	69.29
336.179	102.06
336.392	77.48
336.604	36.52
336.817	81.58
337.029	63.15
337.242	32.43
337.454	155.3
337.667	-2.39
337.88	65.19
338.092	32.43
338.305	91.82
338.517	108.2
338.729	77.48
338.942	108.2
339.154	38.57
339.367	38.57
339.579	-10.58
339.792	46.76
340.004	54.95
340.217	11.95
340.429	40.62
340.641	46.76
340.854	69.29
341.066	26.28
341.278	179.88
341.491	151.21
341.703	50.86
341.915	24.23
342.128	48.81
342.34	85.67
342.552	54.95
342.764	65.19
342.977	52.91
343.189	36.52
343.401	-4.44
343.613	26.28
343.826	30.38
344.038	13.99
344.25	126.63
344.462	46.76
344.674	50.86
344.886	65.19
345.099	32.43
345.311	89.77
345.523	5.8
345.735	40.62
345.947	46.76
346.159	106.15
346.371	61.1
346.583	-10.58
346.795	95.91
347.007	5.8
347.219	89.77
347.431	40.62
347.643	63.15
347.855	34.47
348.067	155.3
348.279	128.68
348.491	87.72
348.703	116.39
348.915	13.99
349.127	-6.49
349.339	59.05
349.551	30.38
349.763	59.05
349.975	30.38
350.187	104.11
350.399	130.73
350.61	50.86
350.822	18.09
351.034	106.15
351.246	32.43
351.458	65.19
351.669	95.91
351.881	30.38
352.093	157.35
352.305	24.23
352.517	54.95
352.728	81.58
352.94	34.47
353.152	38.57
353.363	87.72
353.575	63.15
353.787	85.67
353.999	16.04
354.21	95.91
354.422	-20.82
354.633	61.1
354.845	100.01
355.057	3.75
355.268	22.19
355.48	136.87
355.692	34.47
355.903	30.38
356.115	50.86
356.326	-53.59
356.538	40.62
356.749	110.25
356.961	93.87
357.172	-4.44
357.384	-24.92
357.595	147.11
357.807	38.57
358.018	46.76
358.23	30.38
358.441	153.26
358.653	87.72
358.864	73.39
359.075	112.3
359.287	95.91
359.498	83.63
359.709	20.14
359.921	75.43
360.132	124.58
360.344	54.95
360.555	93.87
360.766	104.11
360.977	28.33
361.189	93.87
361.4	-4.44
361.611	120.49
361.823	87.72
362.034	85.67
362.245	16.04
362.456	69.29
362.667	100.01
362.879	5.8
363.09	59.05
363.301	-0.34
363.512	67.24
363.723	50.86
363.935	69.29
364.146	-26.96
364.357	69.29
364.568	97.96
364.779	48.81
364.99	116.39
365.201	42.67
365.412	85.67
365.623	22.19
365.834	130.73
366.045	71.34
366.256	132.78
366.467	83.63
366.678	-8.53
366.889	106.15
367.1	104.11
367.311	202.41
367.522	46.76
367.733	208.55
367.944	87.72
368.155	50.86
368.366	67.24
368.577	69.29
368.788	149.16
368.999	-35.16
369.209	1.71
369.42	73.39
369.631	198.31
369.842	54.95
370.053	75.43
370.264	59.05
370.474	22.19
370.685	-2.39
370.896	1.71
371.107	83.63
371.317	48.81
371.528	38.57
371.739	83.63
371.95	81.58
372.16	30.38
372.371	-4.44
372.582	57
372.792	83.63
373.003	44.71
373.214	50.86
373.424	30.38
373.635	67.24
373.846	87.72
374.056	136.87
374.267	54.95
374.477	81.58
374.688	65.19
374.898	46.76
375.109	77.48
375.319	83.63
375.53	34.47
375.74	130.73
375.951	65.19
376.161	124.58
376.372	54.95
376.582	-10.58
376.793	128.68
377.003	71.34
377.214	81.58
377.424	102.06
377.635	42.67
377.845	48.81
378.055	147.11
378.266	32.43
378.476	46.76
378.686	-0.34
378.897	93.87
379.107	67.24
379.317	138.92
379.528	57
379.738	100.01
379.948	-0.34
380.158	112.3
380.369	34.47
380.579	46.76
380.789	-10.58
380.999	120.49
381.21	147.11
381.42	114.34
381.63	24.23
381.84	104.11
382.05	59.05
382.261	97.96
382.471	83.63
382.681	38.57
382.891	212.65
383.101	59.05
383.311	50.86
383.521	42.67
383.731	91.82
383.941	151.21
384.151	161.45
384.361	61.1
384.571	73.39
384.781	93.87
384.991	128.68
385.201	157.35
385.411	83.63
385.621	40.62
385.831	75.43
386.041	63.15
386.251	57
386.461	136.87
386.671	95.91
386.881	79.53
387.091	71.34
387.301	54.95
387.511	69.29
387.72	87.72
387.93	54.95
388.14	-49.49
388.35	95.91
388.56	112.3
388.769	100.01
388.979	38.57
389.189	22.19
389.399	44.71
389.609	79.53
389.818	59.05
390.028	38.57
390.238	93.87
390.447	59.05
390.657	73.39
390.867	128.68
391.076	143.02
391.286	48.81
391.496	18.09
391.705	59.05
391.915	95.91
392.125	122.54
392.334	30.38
392.544	132.78
392.753	122.54
392.963	-4.44
393.172	81.58
393.382	22.19
393.591	153.26
393.801	79.53
394.01	153.26
394.22	124.58
394.429	110.25
394.639	106.15
394.848	57
395.058	157.35
395.267	83.63
395.477	136.87
395.686	145.06
395.895	145.06
396.105	282.28
396.314	108.2
396.524	89.77
396.733	108.2
396.942	143.02
397.152	54.95
397.361	134.82
397.57	128.68
397.78	95.91
397.989	126.63
398.198	206.5
398.407	151.21
398.617	134.82
398.826	128.68
399.035	97.96
399.244	175.78
399.453	106.15
399.663	157.35
399.872	114.34
400.081	65.19
400.29	181.93
400.499	116.39
400.708	218.79
400.917	132.78
401.127	100.01
401.336	138.92
401.545	237.22
401.754	163.5
401.963	91.82
402.172	114.34
402.381	104.11
402.59	108.2
402.799	171.69
403.008	233.13
403.217	132.78
403.426	165.54
403.635	126.63
403.844	91.82
404.053	118.44
404.262	63.15
404.471	220.84
404.68	116.39
404.888	186.02
405.097	192.17
405.306	130.73
405.515	202.41
405.724	179.88
405.933	194.22
406.142	214.7
406.35	229.03
406.559	177.83
406.768	173.74
406.977	298.66
407.185	229.03
407.394	224.94
407.603	171.69
407.812	235.18
408.02	296.61
408.229	284.33
408.438	210.6
408.646	177.83
408.855	235.18
409.064	302.76
409.272	255.65
409.481	335.53
409.69	366.25
409.898	366.25
410.107	315.05
410.315	356.01
410.524	300.71
410.733	345.77
410.941	325.29
411.15	429.73
411.358	480.93
411.567	495.27
411.775	466.6
411.984	538.27
412.192	550.56
412.401	462.5
412.609	597.67
412.818	607.91
413.026	595.62
413.234	655.01
413.443	609.95
413.651	550.56
413.86	661.15
414.068	652.96
414.276	589.47
414.485	648.86
414.693	781.98
414.901	726.69
415.11	792.22
415.318	741.02
415.526	788.13
415.734	851.61
415.943	874.14
416.151	958.11
416.359	935.58
416.567	1009.31
416.776	1017.5
416.984	1050.27
417.192	1130.14
417.4	999.07
417.608	1107.61
417.817	1142.43
418.025	1218.2
418.233	1388.18
418.441	1277.59
418.649	1283.74
418.857	1472.15
419.065	1463.96
419.273	1521.3
419.481	1541.78
419.689	1592.98
419.897	1588.88
420.105	1623.7
420.313	1779.34
420.521	1826.45
420.729	1902.22
420.937	1992.33
421.145	1894.03
421.353	2061.96
421.561	2225.8
421.769	2217.61
421.977	2367.11
422.185	2383.49
422.393	2299.53
422.601	2637.44
422.809	2596.48
423.017	2500.23
423.224	2797.18
423.432	2840.19
423.64	2807.42
423.848	3069.56
424.056	3022.46
424.263	3219.07
424.471	3253.88
424.679	3237.5
424.887	3393.14
425.094	3636.85
425.302	3620.47
425.51	3708.53
425.718	3823.22
425.925	3898.99
426.133	4003.44
426.341	4204.14
426.548	4302.44
426.756	4456.04
426.964	4384.36
427.171	4791.91
427.379	4720.23
427.586	4929.12
427.794	5086.81
428.001	5363.29
428.209	5525.08
428.417	5609.05
428.624	5760.59
428.832	5893.71
429.039	5641.81
429.247	5809.75
429.454	6434.38
429.662	6757.96
429.869	6495.82
430.076	6811.2
430.284	6815.3
430.491	6968.9
430.699	7319.1
430.906	7390.78
431.114	7384.63
431.321	7673.4
431.528	7673.4
431.736	8265.26
431.943	8605.22
432.15	8447.53
432.358	8635.94
432.565	9119.26
432.772	8941.09
432.979	9608.73
433.187	9594.39
433.394	9760.28
433.601	10384.91
433.808	10427.92
434.016	10348.04
434.223	10690.06
434.43	11273.73
434.637	11116.03
434.844	11865.59
435.052	12092.91
435.259	12180.98
435.466	12080.63
435.673	12086.77
435.88	12760.55
436.087	13342.18
436.294	13653.47
436.501	13137.38
436.708	13452.77
436.915	14015.96
437.122	14583.24
437.329	14652.88
437.537	15087.04
437.743	15279.55
437.95	15113.67
438.157	16094.65
438.364	16393.65
438.571	16428.46
438.778	16256.43
438.985	18060.7
439.192	17159.59
439.399	17816.99
439.606	17243.56
439.813	18339.22
440.02	19398.02
440.227	19281.28
440.433	19096.97
440.64	19613.06
440.847	19453.31
441.054	20245.88
441.261	21329.25
441.467	20845.93
441.674	21458.28
441.881	22467.92
442.088	22125.91
442.294	22064.47
442.501	22949.2
442.708	23248.2
442.914	23829.82
443.121	25105.71
443.328	24345.91
443.534	26287.39
443.741	25251.11
443.948	25199.91
444.154	27073.81
444.361	26412.31
444.568	26815.76
444.774	26809.62
444.981	27090.19
445.187	27936
445.394	28964.08
445.6	28908.79
445.807	31864
446.013	30092.51
446.22	30909.65
446.426	32117.95
446.633	32144.58
446.839	33379.5
447.046	31931.59
447.252	34016.42
447.459	33930.4
447.665	33930.4
447.871	35417.23
448.078	36627.58
448.284	34798.74
448.491	36105.35
448.697	37262.45
448.903	37928.04
449.11	38276.19
449.316	37489.77
449.522	38425.7
449.728	39244.88
449.935	39504.98
450.141	39656.53
450.347	40567.87
450.553	39255.12
450.76	39750.73
450.966	41423.92
451.172	40647.74
451.378	41434.16
451.584	40936.51
451.791	41733.17
451.997	41720.88
452.203	42515.49
452.409	42775.58
452.615	42339.36
452.821	40703.04
453.027	40383.55
453.233	42390.56
453.44	41131.06
453.646	40959.03
453.852	41659.44
454.058	42337.32
454.264	41006.14
454.47	41741.36
454.676	40666.17
454.882	42069.03
455.088	38730.84
455.294	39074.9
455.5	39359.57
455.705	40006.73
455.911	38845.53
456.117	37764.2
456.323	37135.48
456.529	35513.48
456.735	37028.98
456.941	36193.41
457.147	35720.33
457.352	34198.69
457.558	34223.26
457.764	34569.37
457.97	33682.6
458.176	32994.48
458.381	32879.8
458.587	31427.79
458.793	31184.08
458.999	29809.89
459.204	31583.43
459.41	30923.99
459.616	28853.49
459.821	29031.66
460.027	28611.83
460.233	27706.63
460.438	26995.98
460.644	26873.1
460.85	25935.13
461.055	25564.45
461.261	25427.24
461.466	23461.19
461.672	22809.93
461.878	24149.31
462.083	22455.64
462.289	22406.48
462.494	22127.96
462.7	21351.78
462.905	20200.82
463.111	21042.54
463.316	21626.21
463.522	20839.79
463.727	20788.59
463.932	21063.02
464.138	20690.29
464.343	20665.71
464.549	20264.31
464.754	20923.76
464.959	20534.64
465.165	20342.13
465.37	19717.5
465.575	19062.15
465.781	19842.43
465.986	19815.8
466.191	19115.4
466.397	18810.25
466.602	17880.47
466.807	18785.68
