Data from USB4F104151__67__13-05-57-601.txt Node

Date: Fri Mar 14 13:05:57 EDT 2025
User: louis
Spectrometer: USB4F10415
Trigger mode: 4
Integration Time (sec): 4.000000E-2
Scans to average: 1
Electric dark correction enabled: true
Nonlinearity correction enabled: false
Boxcar width: 0
XAxis mode: Wavelengths
Number of Pixels in Spectrum: 3648
>>>>>Begin Spectral Data<<<<<
178.204	-197.29
178.424	-197.29
178.644	-197.29
178.864	-260.77
179.084	-96.94
179.304	-33.45
179.524	-72.36
179.744	17.75
179.964	46.42
180.184	17.75
180.404	17.75
180.624	64.85
180.844	-55.98
181.064	9.56
181.283	25.94
181.503	-55.98
181.723	17.75
181.943	-27.31
182.163	38.23
182.383	-84.65
182.602	-37.55
182.822	79.19
183.042	-35.5
183.262	-58.03
183.482	-33.45
183.701	-60.07
183.921	30.04
184.141	48.47
184.361	-25.26
184.58	-6.83
184.8	23.89
185.02	23.89
185.239	25.94
185.459	-60.07
185.679	48.47
185.898	-10.92
186.118	17.75
186.338	-17.07
186.557	15.7
186.777	5.46
186.997	-58.03
187.216	73.04
187.436	140.63
187.655	38.23
187.875	-31.4
188.095	11.61
188.314	89.43
188.534	46.42
188.753	-53.93
188.973	-27.31
189.192	111.96
189.412	66.9
189.631	15.7
189.851	38.23
190.07	58.71
190.29	-8.87
190.509	-35.5
190.729	19.8
190.948	68.95
191.168	124.24
191.387	50.52
191.607	15.7
191.826	40.28
192.045	5.46
192.265	27.99
192.484	-10.92
192.704	-17.07
192.923	11.61
193.142	128.34
193.362	58.71
193.581	111.96
193.8	-6.83
194.02	48.47
194.239	36.18
194.458	34.13
194.678	-53.93
194.897	60.76
195.116	21.85
195.335	-111.27
195.555	11.61
195.774	9.56
195.993	-23.21
196.212	-15.02
196.432	15.7
196.651	30.04
196.87	19.8
197.089	54.61
197.308	99.67
197.528	27.99
197.747	-60.07
197.966	32.08
198.185	54.61
198.404	13.65
198.623	32.08
198.842	48.47
199.062	3.41
199.281	103.76
199.5	7.51
199.719	11.61
199.938	9.56
200.157	71
200.376	60.76
200.595	68.95
200.814	-6.83
201.033	21.85
201.252	32.08
201.471	38.23
201.69	-2.73
201.909	17.75
202.128	116.05
202.347	23.89
202.566	21.85
202.785	-19.11
203.004	-19.11
203.223	185.68
203.442	42.32
203.661	-29.35
203.879	9.56
204.098	91.48
204.317	38.23
204.536	58.71
204.755	15.7
204.974	21.85
205.193	81.24
205.411	128.34
205.63	21.85
205.849	25.94
206.068	-33.45
206.287	21.85
206.505	111.96
206.724	95.57
206.943	-8.87
207.162	5.46
207.381	-19.11
207.599	-37.55
207.818	68.95
208.037	-49.83
208.255	32.08
208.474	38.23
208.693	46.42
208.911	17.75
209.13	66.9
209.349	-25.26
209.567	97.62
209.786	105.81
210.005	73.04
210.223	17.75
210.442	36.18
210.661	30.04
210.879	64.85
211.098	17.75
211.316	-74.41
211.535	71
211.753	-0.68
211.972	68.95
212.191	50.52
212.409	34.13
212.628	68.95
212.846	-33.45
213.065	140.63
213.283	9.56
213.502	-2.73
213.72	-70.31
213.938	120.15
214.157	15.7
214.375	30.04
214.594	-0.68
214.812	27.99
215.031	-15.02
215.249	-6.83
215.467	-21.16
215.686	36.18
215.904	83.28
216.122	38.23
216.341	44.37
216.559	56.66
216.778	60.76
216.996	68.95
217.214	9.56
217.432	21.85
217.651	-12.97
217.869	15.7
218.087	25.94
218.306	17.75
218.524	95.57
218.742	3.41
218.96	5.46
219.179	32.08
219.397	40.28
219.615	204.11
219.833	27.99
220.051	73.04
220.27	21.85
220.488	152.91
220.706	-10.92
220.924	11.61
221.142	-0.68
221.36	64.85
221.578	44.37
221.796	13.65
222.015	75.09
222.233	-43.69
222.451	81.24
222.669	17.75
222.887	-2.73
223.105	-74.41
223.323	40.28
223.541	-8.87
223.759	5.46
223.977	-12.97
224.195	89.43
224.413	87.38
224.631	40.28
224.849	25.94
225.067	46.42
225.285	23.89
225.503	-8.87
225.721	-66.22
225.939	-35.5
226.157	71
226.375	91.48
226.592	46.42
226.81	-17.07
227.028	-27.31
227.246	75.09
227.464	30.04
227.682	40.28
227.9	87.38
228.117	36.18
228.335	13.65
228.553	23.89
228.771	79.19
228.989	73.04
229.206	19.8
229.424	60.76
229.642	17.75
229.86	-49.83
230.077	128.34
230.295	25.94
230.513	144.72
230.731	48.47
230.948	58.71
231.166	99.67
231.384	-2.73
231.601	34.13
231.819	64.85
232.037	-8.87
232.254	-27.31
232.472	46.42
232.689	-2.73
232.907	-2.73
233.125	30.04
233.342	48.47
233.56	-90.79
233.777	13.65
233.995	1.37
234.213	134.48
234.43	-0.68
234.648	9.56
234.865	1.37
235.083	-41.64
235.3	15.7
235.518	-6.83
235.735	32.08
235.953	79.19
236.17	9.56
236.388	-27.31
236.605	56.66
236.822	58.71
237.04	60.76
237.257	13.65
237.475	-41.64
237.692	-8.87
237.909	11.61
238.127	-21.16
238.344	-35.5
238.562	105.81
238.779	-29.35
238.996	-66.22
239.214	-17.07
239.431	111.96
239.648	91.48
239.865	87.38
240.083	89.43
240.3	54.61
240.517	-23.21
240.735	3.41
240.952	3.41
241.169	64.85
241.386	-17.07
241.603	-21.16
241.821	-17.07
242.038	-4.78
242.255	25.94
242.472	7.51
242.689	38.23
242.907	34.13
243.124	5.46
243.341	42.32
243.558	13.65
243.775	1.37
243.992	-19.11
244.209	-37.55
244.426	116.05
244.643	-27.31
244.86	42.32
245.078	21.85
245.295	91.48
245.512	-10.92
245.729	-68.27
245.946	13.65
246.163	-35.5
246.38	-6.83
246.597	3.41
246.814	25.94
247.031	11.61
247.248	-21.16
247.464	21.85
247.681	48.47
247.898	-51.88
248.115	66.9
248.332	-31.4
248.549	50.52
248.766	-15.02
248.983	87.38
249.2	5.46
249.417	38.23
249.633	36.18
249.85	95.57
250.067	-0.68
250.284	32.08
250.501	40.28
250.717	62.8
250.934	-12.97
251.151	66.9
251.368	7.51
251.585	56.66
251.801	15.7
252.018	-33.45
252.235	25.94
252.451	-10.92
252.668	44.37
252.885	109.91
253.102	48.47
253.318	-2.73
253.535	-125.61
253.752	75.09
253.968	-64.17
254.185	-27.31
254.401	-51.88
254.618	46.42
254.835	-21.16
255.051	109.91
255.268	71
255.484	56.66
255.701	-23.21
255.917	25.94
256.134	3.41
256.351	46.42
256.567	-21.16
256.784	58.71
257	21.85
257.217	32.08
257.433	56.66
257.65	83.28
257.866	34.13
258.082	-17.07
258.299	40.28
258.515	54.61
258.732	-21.16
258.948	-6.83
259.165	25.94
259.381	40.28
259.597	46.42
259.814	34.13
260.03	36.18
260.246	-35.5
260.463	120.15
260.679	68.95
260.895	23.89
261.112	13.65
261.328	-2.73
261.544	79.19
261.761	95.57
261.977	50.52
262.193	30.04
262.409	-15.02
262.626	3.41
262.842	25.94
263.058	-25.26
263.274	48.47
263.49	17.75
263.707	66.9
263.923	11.61
264.139	-58.03
264.355	38.23
264.571	15.7
264.787	-19.11
265.004	21.85
265.22	13.65
265.436	-58.03
265.652	27.99
265.868	42.32
266.084	-70.31
266.3	-19.11
266.516	-43.69
266.732	-29.35
266.948	7.51
267.164	-0.68
267.38	62.8
267.596	13.65
267.812	93.52
268.028	95.57
268.244	36.18
268.46	-6.83
268.676	30.04
268.892	-17.07
269.108	9.56
269.324	-31.4
269.54	9.56
269.756	64.85
269.972	-49.83
270.188	15.7
270.403	3.41
270.619	54.61
270.835	15.7
271.051	19.8
271.267	-41.64
271.483	17.75
271.698	21.85
271.914	81.24
272.13	15.7
272.346	44.37
272.562	48.47
272.777	60.76
272.993	-31.4
273.209	25.94
273.425	60.76
273.64	5.46
273.856	73.04
274.072	7.51
274.287	19.8
274.503	52.56
274.719	13.65
274.934	-23.21
275.15	-29.35
275.366	38.23
275.581	46.42
275.797	1.37
276.012	58.71
276.228	15.7
276.444	58.71
276.659	105.81
276.875	23.89
277.09	13.65
277.306	52.56
277.521	9.56
277.737	-21.16
277.952	50.52
278.168	44.37
278.383	-10.92
278.599	75.09
278.814	-0.68
279.03	73.04
279.245	40.28
279.461	75.09
279.676	120.15
279.892	60.76
280.107	25.94
280.322	-53.93
280.538	-21.16
280.753	5.46
280.969	-0.68
281.184	62.8
281.399	79.19
281.615	40.28
281.83	46.42
282.045	-19.11
282.26	-49.83
282.476	-51.88
282.691	66.9
282.906	27.99
283.122	-33.45
283.337	25.94
283.552	75.09
283.767	36.18
283.983	87.38
284.198	50.52
284.413	38.23
284.628	-58.03
284.843	66.9
285.058	62.8
285.274	40.28
285.489	-0.68
285.704	48.47
285.919	66.9
286.134	5.46
286.349	17.75
286.564	19.8
286.779	38.23
286.995	-27.31
287.21	-49.83
287.425	54.61
287.64	103.76
287.855	-39.59
288.07	5.46
288.285	83.28
288.5	3.41
288.715	52.56
288.93	79.19
289.145	-39.59
289.36	42.32
289.575	38.23
289.79	30.04
290.004	32.08
290.219	118.1
290.434	-72.36
290.649	-10.92
290.864	36.18
291.079	-49.83
291.294	15.7
291.509	-10.92
291.724	5.46
291.938	-19.11
292.153	-12.97
292.368	13.65
292.583	5.46
292.798	62.8
293.012	52.56
293.227	25.94
293.442	23.89
293.657	30.04
293.871	46.42
294.086	13.65
294.301	13.65
294.516	111.96
294.73	56.66
294.945	-49.83
295.16	-27.31
295.374	68.95
295.589	79.19
295.804	25.94
296.018	32.08
296.233	95.57
296.447	64.85
296.662	-6.83
296.877	75.09
297.091	68.95
297.306	-8.87
297.52	-4.78
297.735	-8.87
297.949	52.56
298.164	157.01
298.378	-10.92
298.593	-8.87
298.807	-19.11
299.022	-2.73
299.236	60.76
299.451	42.32
299.665	83.28
299.88	1.37
300.094	40.28
300.309	21.85
300.523	52.56
300.737	-8.87
300.952	42.32
301.166	38.23
301.381	34.13
301.595	58.71
301.809	-27.31
302.024	32.08
302.238	48.47
302.452	71
302.667	62.8
302.881	54.61
303.095	140.63
303.309	1.37
303.524	15.7
303.738	54.61
303.952	34.13
304.166	93.52
304.381	-98.99
304.595	75.09
304.809	-27.31
305.023	-2.73
305.237	38.23
305.452	21.85
305.666	73.04
305.88	64.85
306.094	77.14
306.308	111.96
306.522	38.23
306.736	54.61
306.95	32.08
307.164	-19.11
307.379	9.56
307.593	105.81
307.807	40.28
308.021	46.42
308.235	114
308.449	13.65
308.663	79.19
308.877	58.71
309.091	75.09
309.305	-31.4
309.519	5.46
309.733	142.68
309.947	42.32
310.161	48.47
310.374	50.52
310.588	1.37
310.802	-33.45
311.016	66.9
311.23	48.47
311.444	9.56
311.658	30.04
311.872	54.61
312.085	46.42
312.299	89.43
312.513	120.15
312.727	81.24
312.941	-33.45
313.154	50.52
313.368	66.9
313.582	34.13
313.796	11.61
314.009	87.38
314.223	-8.87
314.437	136.53
314.651	50.52
314.864	54.61
315.078	30.04
315.292	32.08
315.505	38.23
315.719	38.23
315.933	79.19
316.146	19.8
316.36	25.94
316.573	101.72
316.787	36.18
317.001	30.04
317.214	99.67
317.428	118.1
317.641	75.09
317.855	-0.68
318.068	38.23
318.282	46.42
318.495	68.95
318.709	32.08
318.922	54.61
319.136	152.91
319.349	89.43
319.563	42.32
319.776	-8.87
319.99	-53.93
320.203	87.38
320.417	3.41
320.63	75.09
320.843	122.2
321.057	34.13
321.27	97.62
321.483	13.65
321.697	38.23
321.91	13.65
322.124	-2.73
322.337	95.57
322.55	-25.26
322.763	71
322.977	-19.11
323.19	11.61
323.403	116.05
323.617	36.18
323.83	3.41
324.043	34.13
324.256	95.57
324.469	5.46
324.683	111.96
324.896	95.57
325.109	-23.21
325.322	52.56
325.535	95.57
325.748	54.61
325.962	38.23
326.175	62.8
326.388	64.85
326.601	42.32
326.814	-2.73
327.027	5.46
327.24	81.24
327.453	7.51
327.666	25.94
327.879	62.8
328.092	60.76
328.305	-21.16
328.518	44.37
328.731	40.28
328.944	19.8
329.157	60.76
329.37	83.28
329.583	124.24
329.796	87.38
330.009	-12.97
330.222	9.56
330.435	75.09
330.648	5.46
330.861	-43.69
331.073	50.52
331.286	15.7
331.499	38.23
331.712	52.56
331.925	56.66
332.138	52.56
332.35	118.1
332.563	17.75
332.776	83.28
332.989	46.42
333.202	32.08
333.414	19.8
333.627	-27.31
333.84	-17.07
334.053	114
334.265	34.13
334.478	1.37
334.691	-2.73
334.903	46.42
335.116	60.76
335.329	66.9
335.541	13.65
335.754	91.48
335.966	13.65
336.179	21.85
336.392	56.66
336.604	73.04
336.817	52.56
337.029	46.42
337.242	54.61
337.454	50.52
337.667	3.41
337.88	62.8
338.092	36.18
338.305	52.56
338.517	23.89
338.729	46.42
338.942	89.43
339.154	-31.4
339.367	9.56
339.579	44.37
339.792	48.47
340.004	71
340.217	-6.83
340.429	38.23
340.641	38.23
340.854	-68.27
341.066	5.46
341.278	105.81
341.491	38.23
341.703	-25.26
341.915	32.08
342.128	89.43
342.34	-2.73
342.552	83.28
342.764	19.8
342.977	30.04
343.189	25.94
343.401	21.85
343.613	-27.31
343.826	-0.68
344.038	9.56
344.25	71
344.462	71
344.674	13.65
344.886	25.94
345.099	105.81
345.311	77.14
345.523	-15.02
345.735	-33.45
345.947	118.1
346.159	68.95
346.371	5.46
346.583	91.48
346.795	109.91
347.007	40.28
347.219	79.19
347.431	46.42
347.643	109.91
347.855	34.13
348.067	56.66
348.279	1.37
348.491	27.99
348.703	30.04
348.915	-19.11
349.127	-10.92
349.339	48.47
349.551	48.47
349.763	116.05
349.975	-33.45
350.187	105.81
350.399	111.96
350.61	54.61
350.822	-23.21
351.034	40.28
351.246	13.65
351.458	44.37
351.669	73.04
351.881	68.95
352.093	206.16
352.305	71
352.517	21.85
352.728	116.05
352.94	32.08
353.152	83.28
353.363	77.14
353.575	-6.83
353.787	89.43
353.999	52.56
354.21	111.96
354.422	46.42
354.633	-0.68
354.845	42.32
355.057	73.04
355.268	34.13
355.48	71
355.692	-19.11
355.903	64.85
356.115	3.41
356.326	-8.87
356.538	126.29
356.749	40.28
356.961	79.19
357.172	48.47
357.384	-15.02
357.595	124.24
357.807	62.8
358.018	13.65
358.23	79.19
358.441	136.53
358.653	13.65
358.864	83.28
359.075	60.76
359.287	30.04
359.498	95.57
359.709	71
359.921	81.24
360.132	46.42
360.344	93.52
360.555	48.47
360.766	-10.92
360.977	-8.87
361.189	54.61
361.4	5.46
361.611	54.61
361.823	56.66
362.034	154.96
362.245	-8.87
362.456	30.04
362.667	-10.92
362.879	34.13
363.09	58.71
363.301	56.66
363.512	11.61
363.723	23.89
363.935	42.32
364.146	34.13
364.357	130.39
364.568	79.19
364.779	17.75
364.99	111.96
365.201	13.65
365.412	202.07
365.623	-23.21
365.834	36.18
366.045	-10.92
366.256	54.61
366.467	60.76
366.678	-23.21
366.889	105.81
367.1	56.66
367.311	64.85
367.522	-43.69
367.733	19.8
367.944	17.75
368.155	42.32
368.366	73.04
368.577	75.09
368.788	118.1
368.999	5.46
369.209	34.13
369.42	105.81
369.631	161.11
369.842	97.62
370.053	11.61
370.264	30.04
370.474	97.62
370.685	42.32
370.896	56.66
371.107	122.2
371.317	105.81
371.528	68.95
371.739	71
371.95	-21.16
372.16	107.86
372.371	15.7
372.582	-35.5
372.792	64.85
373.003	23.89
373.214	75.09
373.424	62.8
373.635	-10.92
373.846	128.34
374.056	54.61
374.267	146.77
374.477	79.19
374.688	48.47
374.898	91.48
375.109	52.56
375.319	79.19
375.53	34.13
375.74	21.85
375.951	30.04
376.161	81.24
376.372	146.77
376.582	58.71
376.793	122.2
377.003	-2.73
377.214	-27.31
377.424	124.24
377.635	56.66
377.845	-10.92
378.055	99.67
378.266	56.66
378.476	62.8
378.686	23.89
378.897	97.62
379.107	144.72
379.317	23.89
379.528	38.23
379.738	19.8
379.948	30.04
380.158	89.43
380.369	71
380.579	81.24
380.789	30.04
380.999	73.04
381.21	79.19
381.42	89.43
381.63	36.18
381.84	167.25
382.05	124.24
382.261	77.14
382.471	73.04
382.681	30.04
382.891	99.67
383.101	30.04
383.311	-41.64
383.521	111.96
383.731	91.48
383.941	103.76
384.151	109.91
384.361	56.66
384.571	73.04
384.781	79.19
384.991	126.29
385.201	146.77
385.411	95.57
385.621	116.05
385.831	111.96
386.041	71
386.251	93.52
386.461	83.28
386.671	54.61
386.881	25.94
387.091	38.23
387.301	81.24
387.511	73.04
387.72	64.85
387.93	99.67
388.14	-82.6
388.35	19.8
388.56	142.68
388.769	118.1
388.979	73.04
389.189	34.13
389.399	134.48
389.609	99.67
389.818	105.81
390.028	62.8
390.238	56.66
390.447	15.7
390.657	89.43
390.867	97.62
391.076	58.71
391.286	46.42
391.496	46.42
391.705	62.8
391.915	144.72
392.125	171.35
392.334	36.18
392.544	91.48
392.753	93.52
392.963	62.8
393.172	126.29
393.382	54.61
393.591	183.63
393.801	23.89
394.01	148.82
394.22	114
394.429	27.99
394.639	-0.68
394.848	46.42
395.058	62.8
395.267	89.43
395.477	134.48
395.686	83.28
395.895	222.55
396.105	210.26
396.314	83.28
396.524	132.44
396.733	114
396.942	187.73
397.152	208.21
397.361	136.53
397.57	77.14
397.78	111.96
397.989	159.06
398.198	245.07
398.407	132.44
398.617	122.2
398.826	75.09
399.035	122.2
399.244	116.05
399.453	154.96
399.663	134.48
399.872	154.96
400.081	120.15
400.29	140.63
400.499	130.39
400.708	195.92
400.917	122.2
401.127	144.72
401.336	87.38
401.545	216.4
401.754	130.39
401.963	183.63
402.172	91.48
402.381	73.04
402.59	81.24
402.799	175.44
403.008	134.48
403.217	161.11
403.426	128.34
403.635	93.52
403.844	214.35
404.053	195.92
404.262	204.11
404.471	238.93
404.68	191.83
404.888	130.39
405.097	116.05
405.306	169.3
405.515	187.73
405.724	177.49
405.933	243.03
406.142	247.12
406.35	238.93
406.559	140.63
406.768	202.07
406.977	324.94
407.185	191.83
407.394	300.37
407.603	185.68
407.812	251.22
408.02	372.05
408.229	222.55
408.438	335.18
408.646	228.69
408.855	228.69
409.064	300.37
409.272	349.52
409.481	349.52
409.69	349.52
409.898	351.57
410.107	423.25
410.315	449.87
410.524	398.67
410.733	464.21
410.941	392.53
411.15	507.21
411.358	447.82
411.567	476.49
411.775	456.01
411.984	552.27
412.192	533.84
412.401	462.16
412.609	660.81
412.818	709.96
413.026	636.24
413.234	548.17
413.443	660.81
413.651	693.58
413.86	705.87
414.068	765.26
414.276	894.28
414.485	750.92
414.693	939.34
414.901	1013.06
415.11	892.23
415.318	916.81
415.526	912.71
415.734	970.05
415.943	1107.27
416.151	1213.76
416.359	1142.08
416.567	1129.8
416.776	1228.1
416.984	1246.53
417.192	1346.88
417.4	1344.83
417.608	1271.11
417.817	1357.12
418.025	1375.55
418.233	1492.29
418.441	1494.33
418.649	1488.19
418.857	1715.52
419.065	1735.99
419.273	1856.82
419.481	1838.39
419.689	1889.59
419.897	1942.84
420.105	1998.13
420.313	2084.15
420.521	2186.55
420.729	2202.93
420.937	2227.51
421.145	2227.51
421.353	2471.22
421.561	2495.79
421.769	2577.71
421.977	2788.65
422.185	2659.63
422.393	2956.58
422.601	3104.04
422.809	3058.98
423.017	3046.69
423.224	3280.16
423.432	3482.91
423.64	3208.48
423.848	3702.04
424.056	3556.64
424.263	3609.89
424.471	3863.83
424.679	4060.44
424.887	4209.94
425.094	4224.28
425.302	4330.77
425.51	4408.59
425.718	4666.64
425.925	4603.15
426.133	4877.58
426.341	5238.02
426.548	5141.77
426.756	5287.17
426.964	5215.49
427.171	5707.01
427.379	5823.74
427.586	6016.25
427.794	6071.54
428.001	6415.6
428.209	6763.76
428.417	6520.05
428.624	6782.19
428.832	7124.2
429.039	6825.2
429.247	7003.37
429.454	7740.64
429.662	8174.81
429.869	7576.8
430.076	8439
430.284	7906.52
430.491	8416.47
430.699	8950.99
430.906	8719.57
431.114	8953.04
431.321	9280.71
431.528	9465.03
431.736	9774.27
431.943	10368.18
432.15	9919.68
432.358	10169.53
432.565	10656.95
432.772	10882.22
432.979	11361.45
433.187	11773.09
433.394	11617.44
433.601	12473.49
433.808	12545.17
434.016	12334.23
434.223	12792.98
434.43	13558.92
434.637	13477
434.844	14093.44
435.052	14646.39
435.259	14290.04
435.466	14709.88
435.673	14263.42
435.88	15506.54
436.087	16061.54
436.294	16188.51
436.501	16039.01
436.708	16098.4
436.915	16737.37
437.122	17560.65
437.329	17427.53
437.537	17976.39
437.743	18365.5
437.95	18299.97
438.157	18893.88
438.364	19768.36
438.571	19538.99
438.778	19928.1
438.985	21388.3
439.192	20771.86
439.399	21574.67
439.606	20855.83
439.813	22377.47
440.02	23389.17
440.227	23112.69
440.433	22873.08
440.64	23712.75
440.847	23387.12
441.054	23630.83
441.261	25885.64
441.467	25179.09
441.674	25828.3
441.881	27095.99
442.088	26608.58
442.294	26250.18
442.501	27175.86
442.708	28085.16
442.914	29080.47
443.121	30135.18
443.328	29367.19
443.534	31249.27
443.741	30667.65
443.948	30102.41
444.154	32316.26
444.361	32258.92
444.568	32248.68
444.774	32271.21
444.981	32840.54
445.187	33297.24
445.394	35363.64
445.6	34669.38
445.807	38308.62
446.013	36588.33
446.22	37104.42
446.426	38535.95
446.633	38826.76
446.839	40084.21
447.046	38810.37
447.252	40635.11
447.459	40614.63
447.665	40782.57
447.871	42296.02
448.078	43903.67
448.284	41642.71
448.491	42898.12
448.697	45068.97
448.903	45494.94
449.11	45556.38
449.316	44966.57
449.522	45912.73
449.728	47166.09
449.935	47135.37
450.141	47327.88
450.347	48482.93
450.553	47141.51
450.76	47669.89
450.966	49316.45
451.172	48587.38
451.378	50014.81
451.584	48988.78
451.791	50242.13
451.997	50117.21
452.203	50512.47
452.409	50733.65
452.615	50373.2
452.821	49224.29
453.027	48181.88
453.233	50938.44
453.44	49181.29
453.646	49433.19
453.852	49803.87
454.058	50399.83
454.264	48740.97
454.47	50029.15
454.676	48702.06
454.882	50297.43
455.088	46074.52
455.294	46664.33
455.5	47450.75
455.705	48181.88
455.911	45896.35
456.117	45210.28
456.323	44599.98
456.529	42603.21
456.735	44303.03
456.941	42918.6
457.147	42642.12
457.352	41323.23
457.558	40801
457.764	40665.83
457.97	39955.19
458.176	39473.91
458.381	39625.46
458.587	37223.2
458.793	37264.16
458.999	35668.79
459.204	37823.25
459.41	36950.82
459.616	34513.73
459.821	34923.33
460.027	34341.71
460.233	33661.78
460.438	32230.25
460.644	32600.93
460.85	30788.48
461.055	30409.61
461.261	30610.31
461.466	28277.67
461.672	27591.6
461.878	29393.81
462.083	27427.76
462.289	27089.85
462.494	26766.27
462.7	25646.03
462.905	24873.95
463.111	25766.86
463.316	25506.77
463.522	24892.38
463.727	24919
463.932	25373.65
464.138	24550.37
464.343	25209.81
464.549	24083.43
464.754	24941.53
464.959	24376.29
465.165	24511.46
465.37	23579.63
465.575	23065.59
465.781	23925.74
465.986	24046.57
466.191	23393.26
466.397	22455.29
466.602	21650.44
