Data from USB4F104151__3__13-04-07-772.txt Node

Date: Fri Mar 14 13:04:07 EDT 2025
User: louis
Spectrometer: USB4F10415
Trigger mode: 4
Integration Time (sec): 4.000000E-2
Scans to average: 1
Electric dark correction enabled: true
Nonlinearity correction enabled: false
Boxcar width: 0
XAxis mode: Wavelengths
Number of Pixels in Spectrum: 3648
>>>>>Begin Spectral Data<<<<<
178.204	-204.8
178.424	-204.8
178.644	-204.8
178.864	-147.45
179.084	-143.36
179.304	2.05
179.524	-24.58
179.744	8.19
179.964	92.16
180.184	-8.19
180.404	90.11
180.624	-22.53
180.844	0
181.064	-71.68
181.283	6.14
181.503	-63.49
181.723	-8.19
181.943	-16.38
182.163	77.82
182.383	26.62
182.602	104.45
182.822	-16.38
183.042	-6.14
183.262	24.58
183.482	38.91
183.701	57.34
183.921	-10.24
184.141	24.58
184.361	83.97
184.58	59.39
184.8	18.43
185.02	-43.01
185.239	51.2
185.459	79.87
185.679	75.77
185.898	-69.63
186.118	73.73
186.338	-38.91
186.557	100.35
186.777	-10.24
186.997	45.06
187.216	2.05
187.436	77.82
187.655	30.72
187.875	63.49
188.095	16.38
188.314	55.3
188.534	167.93
188.753	20.48
188.973	20.48
189.192	77.82
189.412	-10.24
189.631	55.3
189.851	-6.14
190.07	90.11
190.29	-20.48
190.509	-18.43
190.729	-63.49
190.948	65.54
191.168	190.46
191.387	32.77
191.607	22.53
191.826	38.91
192.045	12.29
192.265	36.86
192.484	38.91
192.704	38.91
192.923	-81.92
193.142	94.21
193.362	71.68
193.581	81.92
193.8	-10.24
194.02	57.34
194.239	-10.24
194.458	32.77
194.678	-8.19
194.897	47.1
195.116	30.72
195.335	-18.43
195.555	22.53
195.774	-2.05
195.993	59.39
196.212	26.62
196.432	32.77
196.651	6.14
196.87	-38.91
197.089	83.97
197.308	28.67
197.528	110.59
197.747	96.25
197.966	40.96
198.185	88.06
198.404	-6.14
198.623	77.82
198.842	63.49
199.062	47.1
199.281	67.58
199.5	36.86
199.719	30.72
199.938	51.2
200.157	90.11
200.376	26.62
200.595	24.58
200.814	-2.05
201.033	59.39
201.252	92.16
201.471	22.53
201.69	36.86
201.909	73.73
202.128	55.3
202.347	98.3
202.566	2.05
202.785	20.48
203.004	20.48
203.223	61.44
203.442	57.34
203.661	24.58
203.879	4.1
204.098	53.25
204.317	-36.86
204.536	34.82
204.755	55.3
204.974	16.38
205.193	83.97
205.411	202.75
205.63	79.87
205.849	-12.29
206.068	16.38
206.287	-30.72
206.505	53.25
206.724	32.77
206.943	67.58
207.162	14.34
207.381	45.06
207.599	14.34
207.818	14.34
208.037	90.11
208.255	73.73
208.474	88.06
208.693	108.54
208.911	-8.19
209.13	86.01
209.349	47.1
209.567	30.72
209.786	57.34
210.005	77.82
210.223	-8.19
210.442	-12.29
210.661	55.3
210.879	0
211.098	38.91
211.316	51.2
211.535	104.45
211.753	32.77
211.972	90.11
212.191	51.2
212.409	102.4
212.628	108.54
212.846	14.34
213.065	79.87
213.283	79.87
213.502	-6.14
213.72	59.39
213.938	40.96
214.157	55.3
214.375	61.44
214.594	30.72
214.812	26.62
215.031	38.91
215.249	40.96
215.467	71.68
215.686	88.06
215.904	180.22
216.122	14.34
216.341	151.55
216.559	34.82
216.778	18.43
216.996	73.73
217.214	77.82
217.432	24.58
217.651	-12.29
217.869	20.48
218.087	51.2
218.306	90.11
218.524	36.86
218.742	8.19
218.96	47.1
219.179	26.62
219.397	-14.34
219.615	100.35
219.833	14.34
220.051	-10.24
220.27	116.73
220.488	57.34
220.706	-2.05
220.924	8.19
221.142	65.54
221.36	47.1
221.578	65.54
221.796	30.72
222.015	47.1
222.233	-36.86
222.451	77.82
222.669	-40.96
222.887	53.25
223.105	26.62
223.323	49.15
223.541	40.96
223.759	98.3
223.977	63.49
224.195	83.97
224.413	16.38
224.631	36.86
224.849	8.19
225.067	114.69
225.285	86.01
225.503	-22.53
225.721	-40.96
225.939	112.64
226.157	34.82
226.375	282.62
226.592	8.19
226.81	67.58
227.028	38.91
227.246	120.83
227.464	75.77
227.682	57.34
227.9	43.01
228.117	102.4
228.335	22.53
228.553	88.06
228.771	98.3
228.989	18.43
229.206	36.86
229.424	34.82
229.642	53.25
229.86	18.43
230.077	30.72
230.295	53.25
230.513	135.17
230.731	-2.05
230.948	90.11
231.166	67.58
231.384	45.06
231.601	-4.1
231.819	71.68
232.037	22.53
232.254	22.53
232.472	61.44
232.689	-51.2
232.907	83.97
233.125	-51.2
233.342	36.86
233.56	24.58
233.777	34.82
233.995	14.34
234.213	55.3
234.43	71.68
234.648	110.59
234.865	-67.58
235.083	71.68
235.3	34.82
235.518	133.12
235.735	116.73
235.953	47.1
236.17	8.19
236.388	-24.58
236.605	43.01
236.822	165.89
237.04	28.67
237.257	45.06
237.475	79.87
237.692	12.29
237.909	22.53
238.127	0
238.344	36.86
238.562	55.3
238.779	43.01
238.996	57.34
239.214	-4.1
239.431	104.45
239.648	-43.01
239.865	51.2
240.083	-18.43
240.3	47.1
240.517	-22.53
240.735	-8.19
240.952	40.96
241.169	30.72
241.386	8.19
241.603	49.15
241.821	-38.91
242.038	63.49
242.255	104.45
242.472	-4.1
242.689	8.19
242.907	73.73
243.124	-26.62
243.341	32.77
243.558	-16.38
243.775	40.96
243.992	-47.1
244.209	24.58
244.426	139.26
244.643	57.34
244.86	86.01
245.078	53.25
245.295	26.62
245.512	-2.05
245.729	-30.72
245.946	8.19
246.163	63.49
246.38	53.25
246.597	-6.14
246.814	18.43
247.031	38.91
247.248	75.77
247.464	8.19
247.681	18.43
247.898	77.82
248.115	49.15
248.332	53.25
248.549	83.97
248.766	129.02
248.983	79.87
249.2	0
249.417	26.62
249.633	26.62
249.85	24.58
250.067	16.38
250.284	61.44
250.501	63.49
250.717	14.34
250.934	14.34
251.151	26.62
251.368	-14.34
251.585	34.82
251.801	20.48
252.018	63.49
252.235	71.68
252.451	-75.77
252.668	24.58
252.885	61.44
253.102	34.82
253.318	14.34
253.535	-28.67
253.752	38.91
253.968	-4.1
254.185	18.43
254.401	12.29
254.618	-88.06
254.835	-28.67
255.051	108.54
255.268	-24.58
255.484	40.96
255.701	26.62
255.917	12.29
256.134	112.64
256.351	0
256.567	12.29
256.784	55.3
257	-40.96
257.217	71.68
257.433	96.25
257.65	71.68
257.866	98.3
258.082	-14.34
258.299	-8.19
258.515	104.45
258.732	53.25
258.948	43.01
259.165	28.67
259.381	-20.48
259.597	26.62
259.814	18.43
260.03	-53.25
260.246	81.92
260.463	83.97
260.679	22.53
260.895	10.24
261.112	108.54
261.328	6.14
261.544	-65.53
261.761	129.02
261.977	-71.68
262.193	38.91
262.409	81.92
262.626	137.21
262.842	30.72
263.058	55.3
263.274	75.77
263.49	57.34
263.707	49.15
263.923	83.97
264.139	45.06
264.355	4.1
264.571	106.49
264.787	-92.16
265.004	43.01
265.22	63.49
265.436	8.19
265.652	12.29
265.868	36.86
266.084	10.24
266.3	67.58
266.516	-51.2
266.732	32.77
266.948	6.14
267.164	57.34
267.38	26.62
267.596	65.54
267.812	110.59
268.028	112.64
268.244	34.82
268.46	18.43
268.676	-20.48
268.892	0
269.108	-8.19
269.324	-8.19
269.54	-30.72
269.756	24.58
269.972	-2.05
270.188	10.24
270.403	-18.43
270.619	8.19
270.835	94.21
271.051	0
271.267	20.48
271.483	55.3
271.698	30.72
271.914	49.15
272.13	92.16
272.346	4.1
272.562	-30.72
272.777	16.38
272.993	24.58
273.209	6.14
273.425	98.3
273.64	-8.19
273.856	67.58
274.072	34.82
274.287	-4.1
274.503	79.87
274.719	55.3
274.934	65.54
275.15	-53.25
275.366	28.67
275.581	-6.14
275.797	94.21
276.012	4.1
276.228	61.44
276.444	77.82
276.659	69.63
276.875	2.05
277.09	10.24
277.306	-10.24
277.521	141.31
277.737	-61.44
277.952	38.91
278.168	126.97
278.383	57.34
278.599	34.82
278.814	45.06
279.03	28.67
279.245	40.96
279.461	38.91
279.676	47.1
279.892	-32.77
280.107	26.62
280.322	36.86
280.538	83.97
280.753	-40.96
280.969	16.38
281.184	-10.24
281.399	94.21
281.615	92.16
281.83	20.48
282.045	-22.53
282.26	-8.19
282.476	-6.14
282.691	83.97
282.906	81.92
283.122	-61.44
283.337	28.67
283.552	53.25
283.767	-28.67
283.983	86.01
284.198	88.06
284.413	92.16
284.628	-10.24
284.843	163.84
285.058	43.01
285.274	22.53
285.489	-30.72
285.704	71.68
285.919	-2.05
286.134	45.06
286.349	61.44
286.564	24.58
286.779	100.35
286.995	57.34
287.21	-2.05
287.425	102.4
287.64	12.29
287.855	79.87
288.07	28.67
288.285	104.45
288.5	98.3
288.715	30.72
288.93	-32.77
289.145	57.34
289.36	104.45
289.575	47.1
289.79	24.58
290.004	100.35
290.219	96.25
290.434	-18.43
290.649	32.77
290.864	0
291.079	2.05
291.294	10.24
291.509	26.62
291.724	45.06
291.938	-14.34
292.153	61.44
292.368	16.38
292.583	22.53
292.798	71.68
293.012	22.53
293.227	102.4
293.442	92.16
293.657	96.25
293.871	73.73
294.086	-6.14
294.301	133.12
294.516	77.82
294.73	0
294.945	-8.19
295.16	92.16
295.374	110.59
295.589	18.43
295.804	-63.49
296.018	47.1
296.233	104.45
296.447	45.06
296.662	-20.48
296.877	-32.77
297.091	32.77
297.306	51.2
297.52	38.91
297.735	96.25
297.949	16.38
298.164	135.17
298.378	-30.72
298.593	-4.1
298.807	12.29
299.022	55.3
299.236	104.45
299.451	24.58
299.665	22.53
299.88	4.1
300.094	-10.24
300.309	-6.14
300.523	14.34
300.737	49.15
300.952	8.19
301.166	65.54
301.381	26.62
301.595	57.34
301.809	26.62
302.024	18.43
302.238	-6.14
302.452	104.45
302.667	-14.34
302.881	59.39
303.095	59.39
303.309	6.14
303.524	4.1
303.738	49.15
303.952	-14.34
304.166	-4.1
304.381	-18.43
304.595	116.73
304.809	2.05
305.023	71.68
305.237	59.39
305.452	71.68
305.666	40.96
305.88	102.4
306.094	10.24
306.308	47.1
306.522	40.96
306.736	-20.48
306.95	24.58
307.164	61.44
307.379	18.43
307.593	51.2
307.807	28.67
308.021	0
308.235	75.77
308.449	30.72
308.663	-40.96
308.877	94.21
309.091	49.15
309.305	10.24
309.519	-49.15
309.733	131.07
309.947	-26.62
310.161	51.2
310.374	57.34
310.588	90.11
310.802	4.1
311.016	-6.14
311.23	57.34
311.444	2.05
311.658	22.53
311.872	139.26
312.085	69.63
312.299	161.79
312.513	-22.53
312.727	47.1
312.941	83.97
313.154	40.96
313.368	57.34
313.582	98.3
313.796	-2.05
314.009	38.91
314.223	110.59
314.437	49.15
314.651	77.82
314.864	2.05
315.078	-6.14
315.292	-14.34
315.505	-10.24
315.719	8.19
315.933	55.3
316.146	14.34
316.36	-18.43
316.573	53.25
316.787	98.3
317.001	57.34
317.214	-47.1
317.428	40.96
317.641	16.38
317.855	4.1
318.068	73.73
318.282	6.14
318.495	114.69
318.709	145.41
318.922	24.58
319.136	34.82
319.349	43.01
319.563	51.2
319.776	43.01
319.99	-61.44
320.203	18.43
320.417	32.77
320.63	47.1
320.843	155.65
321.057	-30.72
321.27	8.19
321.483	32.77
321.697	79.87
321.91	-10.24
322.124	88.06
322.337	20.48
322.55	-40.96
322.763	-34.82
322.977	90.11
323.19	16.38
323.403	55.3
323.617	49.15
323.83	51.2
324.043	-30.72
324.256	26.62
324.469	-53.25
324.683	-14.34
324.896	20.48
325.109	10.24
325.322	10.24
325.535	88.06
325.748	2.05
325.962	14.34
326.175	71.68
326.388	63.49
326.601	106.49
326.814	47.1
327.027	18.43
327.24	137.21
327.453	-16.38
327.666	14.34
327.879	61.44
328.092	40.96
328.305	45.06
328.518	47.1
328.731	38.91
328.944	163.84
329.157	43.01
329.37	57.34
329.583	57.34
329.796	98.3
330.009	-14.34
330.222	20.48
330.435	122.88
330.648	-2.05
330.861	77.82
331.073	38.91
331.286	102.4
331.499	88.06
331.712	24.58
331.925	90.11
332.138	47.1
332.35	8.19
332.563	-4.1
332.776	88.06
332.989	28.67
333.202	16.38
333.414	28.67
333.627	55.3
333.84	94.21
334.053	26.62
334.265	14.34
334.478	16.38
334.691	20.48
334.903	16.38
335.116	8.19
335.329	45.06
335.541	22.53
335.754	163.84
335.966	-30.72
336.179	6.14
336.392	6.14
336.604	36.86
336.817	2.05
337.029	104.45
337.242	90.11
337.454	65.54
337.667	114.69
337.88	92.16
338.092	4.1
338.305	36.86
338.517	67.58
338.729	-4.1
338.942	110.59
339.154	-40.96
339.367	-22.53
339.579	88.06
339.792	34.82
340.004	92.16
340.217	53.25
340.429	32.77
340.641	20.48
340.854	59.39
341.066	20.48
341.278	83.97
341.491	129.02
341.703	57.34
341.915	20.48
342.128	67.58
342.34	28.67
342.552	32.77
342.764	98.3
342.977	110.59
343.189	26.62
343.401	10.24
343.613	53.25
343.826	98.3
344.038	-49.15
344.25	40.96
344.462	73.73
344.674	14.34
344.886	86.01
345.099	47.1
345.311	4.1
345.523	34.82
345.735	-55.3
345.947	108.54
346.159	26.62
346.371	4.1
346.583	71.68
346.795	96.25
347.007	-20.48
347.219	63.49
347.431	83.97
347.643	79.87
347.855	63.49
348.067	24.58
348.279	-16.38
348.491	71.68
348.703	-45.06
348.915	73.73
349.127	71.68
349.339	51.2
349.551	-24.58
349.763	59.39
349.975	55.3
350.187	114.69
350.399	133.12
350.61	28.67
350.822	-57.34
351.034	-30.72
351.246	51.2
351.458	40.96
351.669	114.69
351.881	116.73
352.093	75.77
352.305	92.16
352.517	100.35
352.728	106.49
352.94	10.24
353.152	131.07
353.363	-38.91
353.575	88.06
353.787	49.15
353.999	22.53
354.21	116.73
354.422	73.73
354.633	10.24
354.845	24.58
355.057	14.34
355.268	51.2
355.48	92.16
355.692	-32.77
355.903	38.91
356.115	-18.43
356.326	-12.29
356.538	98.3
356.749	59.39
356.961	110.59
357.172	57.34
357.384	-2.05
357.595	112.64
357.807	0
358.018	8.19
358.23	112.64
358.441	100.35
358.653	100.35
358.864	71.68
359.075	40.96
359.287	30.72
359.498	24.58
359.709	79.87
359.921	137.21
360.132	32.77
360.344	86.01
360.555	71.68
360.766	83.97
360.977	-26.62
361.189	38.91
361.4	26.62
361.611	180.22
361.823	0
362.034	86.01
362.245	-14.34
362.456	4.1
362.667	45.06
362.879	-30.72
363.09	34.82
363.301	38.91
363.512	81.92
363.723	51.2
363.935	57.34
364.146	71.68
364.357	43.01
364.568	14.34
364.779	-63.49
364.99	40.96
365.201	-20.48
365.412	114.69
365.623	-43.01
365.834	22.53
366.045	26.62
366.256	-10.24
366.467	6.14
366.678	40.96
366.889	55.3
367.1	14.34
367.311	102.4
367.522	53.25
367.733	145.41
367.944	137.21
368.155	14.34
368.366	73.73
368.577	61.44
368.788	118.78
368.999	-10.24
369.209	18.43
369.42	94.21
369.631	131.07
369.842	40.96
370.053	24.58
370.264	88.06
370.474	83.97
370.685	69.63
370.896	73.73
371.107	92.16
371.317	51.2
371.528	94.21
371.739	16.38
371.95	55.3
372.16	192.51
372.371	51.2
372.582	26.62
372.792	133.12
373.003	55.3
373.214	75.77
373.424	94.21
373.635	38.91
373.846	112.64
374.056	90.11
374.267	75.77
374.477	86.01
374.688	81.92
374.898	12.29
375.109	22.53
375.319	2.05
375.53	65.54
375.74	86.01
375.951	30.72
376.161	63.49
376.372	129.02
376.582	12.29
376.793	-32.77
377.003	6.14
377.214	28.67
377.424	24.58
377.635	90.11
377.845	-57.34
378.055	180.22
378.266	6.14
378.476	71.68
378.686	12.29
378.897	61.44
379.107	22.53
379.317	43.01
379.528	73.73
379.738	86.01
379.948	10.24
380.158	32.77
380.369	24.58
380.579	90.11
380.789	30.72
380.999	65.54
381.21	49.15
381.42	120.83
381.63	71.68
381.84	108.54
382.05	65.54
382.261	67.58
382.471	30.72
382.681	73.73
382.891	75.77
383.101	81.92
383.311	8.19
383.521	98.3
383.731	94.21
383.941	90.11
384.151	24.58
384.361	106.49
384.571	71.68
384.781	129.02
384.991	106.49
385.201	102.4
385.411	153.6
385.621	43.01
385.831	-28.67
386.041	47.1
386.251	45.06
386.461	-10.24
386.671	12.29
386.881	155.65
387.091	71.68
387.301	98.3
387.511	92.16
387.72	16.38
387.93	133.12
388.14	18.43
388.35	51.2
388.56	106.49
388.769	55.3
388.979	14.34
389.189	-32.77
389.399	12.29
389.609	108.54
389.818	110.59
390.028	38.91
390.238	96.25
390.447	22.53
390.657	47.1
390.867	38.91
391.076	47.1
391.286	120.83
391.496	100.35
391.705	-8.19
391.915	86.01
392.125	10.24
392.334	92.16
392.544	198.65
392.753	61.44
392.963	4.1
393.172	4.1
393.382	79.87
393.591	98.3
393.801	47.1
394.01	75.77
394.22	43.01
394.429	108.54
394.639	36.86
394.848	55.3
395.058	118.78
395.267	63.49
395.477	133.12
395.686	96.25
395.895	161.79
396.105	149.5
396.314	79.87
396.524	145.41
396.733	63.49
396.942	94.21
397.152	112.64
397.361	139.26
397.57	40.96
397.78	102.4
397.989	145.41
398.198	131.07
398.407	40.96
398.617	96.25
398.826	98.3
399.035	61.44
399.244	139.26
399.453	59.39
399.663	4.1
399.872	147.45
400.081	73.73
400.29	110.59
400.499	63.49
400.708	96.25
400.917	133.12
401.127	55.3
401.336	90.11
401.545	98.3
401.754	145.41
401.963	40.96
402.172	55.3
402.381	96.25
402.59	114.69
402.799	86.01
403.008	118.78
403.217	83.97
403.426	204.8
403.635	79.87
403.844	155.65
404.053	139.26
404.262	124.93
404.471	204.8
404.68	131.07
404.888	137.21
405.097	129.02
405.306	169.98
405.515	212.99
405.724	100.35
405.933	161.79
406.142	147.45
406.35	180.22
406.559	172.03
406.768	133.12
406.977	276.48
407.185	137.21
407.394	215.04
407.603	133.12
407.812	204.8
408.02	221.18
408.229	182.27
408.438	260.09
408.646	192.51
408.855	204.8
409.064	235.52
409.272	172.03
409.481	221.18
409.69	272.38
409.898	253.95
410.107	284.67
410.315	368.63
410.524	217.08
410.733	325.63
410.941	358.39
411.15	360.44
411.358	405.5
411.567	356.35
411.775	376.83
411.984	360.44
412.192	456.7
412.401	475.13
412.609	487.42
412.818	479.22
413.026	524.28
413.234	514.04
413.443	610.29
413.651	475.13
413.86	524.28
414.068	630.77
414.276	661.49
414.485	598.01
414.693	665.59
414.901	669.69
415.11	686.07
415.318	684.02
415.526	751.6
415.734	837.62
415.943	800.76
416.151	804.85
416.359	811
416.567	727.03
416.776	878.58
416.984	866.29
417.192	940.02
417.4	894.96
417.608	933.87
417.817	966.64
418.025	1046.51
418.233	1103.86
418.441	1013.74
418.649	1163.25
418.857	1228.78
419.065	1198.06
419.273	1200.11
419.481	1222.64
419.689	1382.38
419.897	1363.95
420.105	1538.02
420.313	1548.26
420.521	1576.94
420.729	1578.98
420.937	1712.1
421.145	1681.38
421.353	1718.25
421.561	1900.52
421.769	1884.13
421.977	1949.67
422.185	1996.77
422.393	2066.4
422.601	2142.18
422.809	2236.38
423.017	2238.43
423.224	2236.38
423.432	2523.1
423.64	2398.17
423.848	2627.54
424.056	2566.1
424.263	2727.89
424.471	2731.99
424.679	2871.25
424.887	2932.69
425.094	3162.06
425.302	3203.02
425.51	3131.34
425.718	3323.85
425.925	3246.03
426.133	3504.07
426.341	3663.82
426.548	3796.93
426.756	3647.43
426.964	3704.78
427.171	4175.81
427.379	4200.38
427.586	4339.65
427.794	4394.94
428.001	4476.86
428.209	4734.9
428.417	4743.1
428.624	5009.33
428.832	5042.1
429.039	5089.2
429.247	4980.66
429.454	5633.96
429.662	5937.06
429.869	5599.15
430.076	6000.55
430.284	5760.94
430.491	6098.85
430.699	6387.61
430.906	6262.69
431.114	6385.57
431.321	6739.87
431.528	6698.91
431.736	7137.17
431.943	7505.81
432.15	7194.51
432.358	7389.07
432.565	7903.11
432.772	7655.31
432.979	8017.8
433.187	8277.89
433.394	8658.81
433.601	8908.66
433.808	8935.29
434.016	8910.71
434.223	9230.2
434.43	10139.49
434.637	9664.36
434.844	10274.66
435.052	10501.98
435.259	10139.49
435.466	10440.54
435.673	10403.68
435.88	10942.3
436.087	11706.19
436.294	11784.01
436.501	11611.98
436.708	11607.89
436.915	12019.53
437.122	12568.38
437.329	12396.35
437.537	12977.98
437.743	13150.01
437.95	13170.49
438.157	13807.41
438.364	14151.46
438.571	14264.1
438.778	14214.95
438.985	15398.68
439.192	15007.51
439.399	15494.93
439.606	15144.73
439.813	15838.99
440.02	16776.96
440.227	17018.62
440.433	16414.47
440.64	17073.92
440.847	16729.86
441.054	17301.24
441.261	18530.02
441.467	18167.53
441.674	18732.77
441.881	19363.54
442.088	19248.86
442.294	19162.84
442.501	19723.99
442.708	20145.87
442.914	20670.15
443.121	22011.57
443.328	21124.8
443.534	22691.49
443.741	22042.29
443.948	21714.61
444.154	23393.95
444.361	23236.25
444.568	23285.4
444.774	23301.79
444.981	23703.19
445.187	24379.02
445.394	25355.9
445.6	24811.14
445.807	27502.17
446.013	26117.75
446.22	26947.17
446.426	27719.26
446.633	27999.83
446.839	29085.25
447.046	27643.48
447.252	29288
447.459	29271.62
447.665	29230.66
447.871	30752.3
448.078	31897.11
448.284	30563.89
448.491	31477.28
448.697	32615.95
448.903	33037.83
449.11	33275.4
449.316	32716.3
449.522	33494.53
449.728	34211.32
449.935	34508.27
450.141	34121.21
450.347	34911.72
450.553	34059.77
450.76	34465.27
450.966	35741.15
451.172	35364.32
451.378	36197.85
451.584	35284.45
451.791	36558.29
451.997	36066.78
452.203	36732.37
452.409	36799.95
452.615	36711.89
452.821	35452.39
453.027	34950.63
453.233	37086.67
453.44	35378.66
453.646	35548.64
453.852	35923.42
454.058	36206.04
454.264	35325.41
454.47	36462.04
454.676	35202.53
454.882	36124.12
455.088	33240.58
455.294	33467.91
455.5	34145.78
455.705	34604.53
455.911	33216.01
456.117	32577.04
456.323	32118.29
456.529	30367.28
456.735	31821.34
456.941	31004.2
457.147	30635.56
457.352	29328.96
457.558	29134.4
457.764	29175.36
457.97	28624.46
458.176	28048.98
458.381	27766.36
458.587	26674.79
458.793	26465.9
458.999	25202.3
459.204	26832.49
459.41	26508.91
459.616	24479.37
459.821	24528.52
460.027	24673.93
460.233	23729.81
460.438	22619.81
460.644	22937.25
460.85	22050.48
461.055	21444.28
461.261	21761.72
461.466	20133.58
461.672	19291.87
461.878	20582.09
462.083	19318.49
462.289	18964.19
462.494	18765.54
462.7	17880.82
462.905	17653.49
463.111	18259.69
463.316	18456.29
463.522	17823.47
463.727	17741.55
463.932	17981.17
464.138	17643.25
464.343	17630.96
464.549	17327.86
464.754	17657.59
464.959	17524.47
465.165	17352.44
465.37	16576.26
465.575	16404.23
465.781	16883.45
465.986	17256.18
466.191	16615.17
466.397	16000.78
466.602	15515.41
466.807	15920.91
467.012	16029.45
467.218	16047.88
467.423	15570.71
467.628	15859.47
