Data from USB4F104151__51__13-05-33-923.txt Node

Date: Fri Mar 14 13:05:33 EDT 2025
User: louis
Spectrometer: USB4F10415
Trigger mode: 4
Integration Time (sec): 4.000000E-2
Scans to average: 1
Electric dark correction enabled: true
Nonlinearity correction enabled: false
Boxcar width: 0
XAxis mode: Wavelengths
Number of Pixels in Spectrum: 3648
>>>>>Begin Spectral Data<<<<<
178.204	-111.96
178.424	-111.96
178.644	-111.96
178.864	-214.35
179.084	-202.07
179.304	23.21
179.524	2.73
179.744	35.5
179.964	51.88
180.184	19.11
180.404	43.69
180.624	-42.32
180.844	12.97
181.064	-101.72
181.283	-9.56
181.503	-32.08
181.723	-3.41
181.943	-5.46
182.163	117.42
182.383	-3.41
182.602	150.18
182.822	94.89
183.042	4.78
183.262	29.35
183.482	64.17
183.701	51.88
183.921	82.6
184.141	19.11
184.361	68.27
184.58	113.32
184.8	15.02
185.02	80.55
185.239	162.47
185.459	96.94
185.679	-9.56
185.898	-13.65
186.118	103.08
186.338	25.26
186.557	111.27
186.777	15.02
186.997	4.78
187.216	-11.61
187.436	41.64
187.655	31.4
187.875	90.79
188.095	21.16
188.314	170.66
188.534	37.55
188.753	37.55
188.973	45.74
189.192	121.51
189.412	53.93
189.631	-40.28
189.851	12.97
190.07	107.18
190.29	-38.23
190.509	25.26
190.729	49.83
190.948	76.46
191.168	246.44
191.387	101.03
191.607	49.83
191.826	12.97
192.045	51.88
192.265	45.74
192.484	135.85
192.704	66.22
192.923	37.55
193.142	113.32
193.362	58.03
193.581	55.98
193.8	25.26
194.02	133.8
194.239	29.35
194.458	103.08
194.678	15.02
194.897	33.45
195.116	-1.37
195.335	105.13
195.555	39.59
195.774	117.42
195.993	96.94
196.212	60.07
196.432	70.31
196.651	6.83
196.87	53.93
197.089	160.42
197.308	78.51
197.528	70.31
197.747	51.88
197.966	109.23
198.185	141.99
198.404	-5.46
198.623	82.6
198.842	84.65
199.062	74.41
199.281	37.55
199.5	-46.42
199.719	62.12
199.938	76.46
200.157	70.31
200.376	82.6
200.595	62.12
200.814	74.41
201.033	72.36
201.252	76.46
201.471	43.69
201.69	129.7
201.909	139.94
202.128	111.27
202.347	94.89
202.566	43.69
202.785	-21.84
203.004	84.65
203.223	144.04
203.442	41.64
203.661	-34.13
203.879	101.03
204.098	158.38
204.317	10.92
204.536	21.16
204.755	90.79
204.974	127.66
205.193	4.78
205.411	158.38
205.63	80.55
205.849	76.46
206.068	-7.51
206.287	35.5
206.505	117.42
206.724	49.83
206.943	92.84
207.162	-54.61
207.381	29.35
207.599	37.55
207.818	62.12
208.037	19.11
208.255	148.14
208.474	96.94
208.693	19.11
208.911	4.78
209.13	131.75
209.349	62.12
209.567	101.03
209.786	125.61
210.005	101.03
210.223	103.08
210.442	-38.23
210.661	-27.99
210.879	82.6
211.098	17.07
211.316	129.7
211.535	129.7
211.753	-36.18
211.972	92.84
212.191	0.68
212.409	35.5
212.628	49.83
212.846	86.7
213.065	90.79
213.283	96.94
213.502	12.97
213.72	60.07
213.938	-17.75
214.157	6.83
214.375	43.69
214.594	113.32
214.812	98.99
215.031	103.08
215.249	2.73
215.467	31.4
215.686	82.6
215.904	129.7
216.122	68.27
216.341	109.23
216.559	27.31
216.778	141.99
216.996	101.03
217.214	43.69
217.432	6.83
217.651	29.35
217.869	64.17
218.087	45.74
218.306	10.92
218.524	109.23
218.742	60.07
218.96	101.03
219.179	76.46
219.397	45.74
219.615	103.08
219.833	68.27
220.051	15.02
220.27	146.09
220.488	92.84
220.706	76.46
220.924	111.27
221.142	-5.46
221.36	8.87
221.578	37.55
221.796	45.74
222.015	98.99
222.233	94.89
222.451	64.17
222.669	4.78
222.887	94.89
223.105	-44.37
223.323	49.83
223.541	-11.61
223.759	60.07
223.977	8.87
224.195	117.42
224.413	43.69
224.631	103.08
224.849	29.35
225.067	133.8
225.285	21.16
225.503	27.31
225.721	-1.37
225.939	29.35
226.157	33.45
226.375	131.75
226.592	35.5
226.81	109.23
227.028	141.99
227.246	168.62
227.464	86.7
227.682	129.7
227.9	45.74
228.117	60.07
228.335	55.98
228.553	8.87
228.771	10.92
228.989	8.87
229.206	8.87
229.424	68.27
229.642	92.84
229.86	-1.37
230.077	55.98
230.295	29.35
230.513	133.8
230.731	53.93
230.948	117.42
231.166	109.23
231.384	2.73
231.601	45.74
231.819	94.89
232.037	53.93
232.254	29.35
232.472	113.32
232.689	21.16
232.907	105.13
233.125	-81.24
233.342	12.97
233.56	25.26
233.777	15.02
233.995	-17.75
234.213	146.09
234.43	64.17
234.648	-19.8
234.865	49.83
235.083	6.83
235.3	45.74
235.518	125.61
235.735	121.51
235.953	127.66
236.17	37.55
236.388	98.99
236.605	98.99
236.822	109.23
237.04	55.98
237.257	47.79
237.475	-1.37
237.692	45.74
237.909	66.22
238.127	82.6
238.344	103.08
238.562	51.88
238.779	51.88
238.996	33.45
239.214	55.98
239.431	221.86
239.648	70.31
239.865	78.51
240.083	76.46
240.3	12.97
240.517	29.35
240.735	45.74
240.952	96.94
241.169	88.75
241.386	115.37
241.603	82.6
241.821	10.92
242.038	115.37
242.255	92.84
242.472	76.46
242.689	29.35
242.907	148.14
243.124	10.92
243.341	125.61
243.558	10.92
243.775	53.93
243.992	29.35
244.209	8.87
244.426	152.23
244.643	4.78
244.86	23.21
245.078	101.03
245.295	74.41
245.512	43.69
245.729	-5.46
245.946	64.17
246.163	6.83
246.38	76.46
246.597	35.5
246.814	55.98
247.031	88.75
247.248	86.7
247.464	35.5
247.681	53.93
247.898	68.27
248.115	127.66
248.332	76.46
248.549	103.08
248.766	107.18
248.983	70.31
249.2	55.98
249.417	68.27
249.633	139.94
249.85	76.46
250.067	90.79
250.284	115.37
250.501	96.94
250.717	86.7
250.934	-85.33
251.151	49.83
251.368	121.51
251.585	72.36
251.801	-13.65
252.018	-38.23
252.235	68.27
252.451	-34.13
252.668	111.27
252.885	96.94
253.102	80.55
253.318	72.36
253.535	115.37
253.752	-11.61
253.968	17.07
254.185	-9.56
254.401	39.59
254.618	113.32
254.835	51.88
255.051	74.41
255.268	68.27
255.484	55.98
255.701	10.92
255.917	51.88
256.134	21.16
256.351	35.5
256.567	15.02
256.784	-5.46
257	-27.99
257.217	68.27
257.433	76.46
257.65	68.27
257.866	90.79
258.082	12.97
258.299	31.4
258.515	139.94
258.732	37.55
258.948	23.21
259.165	-30.04
259.381	17.07
259.597	27.31
259.814	12.97
260.03	55.98
260.246	4.78
260.463	68.27
260.679	125.61
260.895	64.17
261.112	68.27
261.328	-3.41
261.544	-1.37
261.761	121.51
261.977	10.92
262.193	31.4
262.409	92.84
262.626	66.22
262.842	64.17
263.058	51.88
263.274	12.97
263.49	72.36
263.707	-1.37
263.923	70.31
264.139	-11.61
264.355	96.94
264.571	170.66
264.787	107.18
265.004	101.03
265.22	25.26
265.436	109.23
265.652	21.16
265.868	70.31
266.084	39.59
266.3	41.64
266.516	-64.85
266.732	74.41
266.948	49.83
267.164	64.17
267.38	92.84
267.596	127.66
267.812	80.55
268.028	-13.65
268.244	31.4
268.46	70.31
268.676	60.07
268.892	78.51
269.108	51.88
269.324	43.69
269.54	45.74
269.756	68.27
269.972	66.22
270.188	68.27
270.403	4.78
270.619	6.83
270.835	47.79
271.051	70.31
271.267	10.92
271.483	74.41
271.698	58.03
271.914	92.84
272.13	68.27
272.346	25.26
272.562	129.7
272.777	86.7
272.993	66.22
273.209	109.23
273.425	49.83
273.64	-1.37
273.856	12.97
274.072	107.18
274.287	37.55
274.503	72.36
274.719	92.84
274.934	45.74
275.15	70.31
275.366	47.79
275.581	29.35
275.797	58.03
276.012	103.08
276.228	64.17
276.444	105.13
276.659	35.5
276.875	10.92
277.09	92.84
277.306	64.17
277.521	43.69
277.737	113.32
277.952	37.55
278.168	64.17
278.383	68.27
278.599	25.26
278.814	121.51
279.03	37.55
279.245	76.46
279.461	-3.41
279.676	131.75
279.892	88.75
280.107	-48.47
280.322	-25.94
280.538	72.36
280.753	43.69
280.969	53.93
281.184	80.55
281.399	88.75
281.615	70.31
281.83	90.79
282.045	19.11
282.26	62.12
282.476	49.83
282.691	-11.61
282.906	-21.84
283.122	64.17
283.337	19.11
283.552	117.42
283.767	15.02
283.983	111.27
284.198	109.23
284.413	92.84
284.628	-56.66
284.843	43.69
285.058	78.51
285.274	72.36
285.489	60.07
285.704	37.55
285.919	103.08
286.134	135.85
286.349	-11.61
286.564	-13.65
286.779	160.42
286.995	55.98
287.21	-11.61
287.425	117.42
287.64	60.07
287.855	82.6
288.07	-38.23
288.285	64.17
288.5	111.27
288.715	37.55
288.93	115.37
289.145	76.46
289.36	117.42
289.575	27.31
289.79	-3.41
290.004	51.88
290.219	51.88
290.434	29.35
290.649	78.51
290.864	12.97
291.079	-3.41
291.294	19.11
291.509	29.35
291.724	-25.94
291.938	-25.94
292.153	96.94
292.368	-40.28
292.583	64.17
292.798	101.03
293.012	94.89
293.227	64.17
293.442	70.31
293.657	58.03
293.871	117.42
294.086	94.89
294.301	98.99
294.516	49.83
294.73	15.02
294.945	0.68
295.16	8.87
295.374	62.12
295.589	90.79
295.804	123.56
296.018	55.98
296.233	58.03
296.447	51.88
296.662	53.93
296.877	74.41
297.091	80.55
297.306	80.55
297.52	29.35
297.735	96.94
297.949	62.12
298.164	2.73
298.378	39.59
298.593	2.73
298.807	23.21
299.022	19.11
299.236	109.23
299.451	62.12
299.665	113.32
299.88	62.12
300.094	82.6
300.309	37.55
300.523	82.6
300.737	15.02
300.952	27.31
301.166	76.46
301.381	8.87
301.595	4.78
301.809	27.31
302.024	47.79
302.238	45.74
302.452	33.45
302.667	49.83
302.881	94.89
303.095	27.31
303.309	76.46
303.524	80.55
303.738	6.83
303.952	12.97
304.166	84.65
304.381	15.02
304.595	82.6
304.809	15.02
305.023	96.94
305.237	53.93
305.452	29.35
305.666	6.83
305.88	-38.23
306.094	121.51
306.308	70.31
306.522	141.99
306.736	39.59
306.95	70.31
307.164	37.55
307.379	12.97
307.593	137.9
307.807	51.88
308.021	17.07
308.235	2.73
308.449	21.16
308.663	-5.46
308.877	162.47
309.091	0.68
309.305	115.37
309.519	10.92
309.733	66.22
309.947	58.03
310.161	60.07
310.374	84.65
310.588	96.94
310.802	-21.84
311.016	111.27
311.23	4.78
311.444	66.22
311.658	53.93
311.872	31.4
312.085	43.69
312.299	113.32
312.513	51.88
312.727	2.73
312.941	-21.84
313.154	39.59
313.368	37.55
313.582	74.41
313.796	21.16
314.009	12.97
314.223	105.13
314.437	109.23
314.651	-7.51
314.864	-21.84
315.078	53.93
315.292	53.93
315.505	80.55
315.719	31.4
315.933	45.74
316.146	12.97
316.36	29.35
316.573	49.83
316.787	72.36
317.001	45.74
317.214	31.4
317.428	55.98
317.641	-3.41
317.855	37.55
318.068	103.08
318.282	6.83
318.495	53.93
318.709	37.55
318.922	53.93
319.136	98.99
319.349	72.36
319.563	29.35
319.776	29.35
319.99	-75.09
320.203	60.07
320.417	98.99
320.63	94.89
320.843	133.8
321.057	84.65
321.27	109.23
321.483	58.03
321.697	152.23
321.91	72.36
322.124	45.74
322.337	19.11
322.55	105.13
322.763	113.32
322.977	35.5
323.19	86.7
323.403	86.7
323.617	43.69
323.83	43.69
324.043	35.5
324.256	68.27
324.469	31.4
324.683	-9.56
324.896	-9.56
325.109	10.92
325.322	41.64
325.535	88.75
325.748	88.75
325.962	-1.37
326.175	115.37
326.388	146.09
326.601	33.45
326.814	41.64
327.027	94.89
327.24	121.51
327.453	-7.51
327.666	-34.13
327.879	64.17
328.092	92.84
328.305	45.74
328.518	64.17
328.731	103.08
328.944	121.51
329.157	82.6
329.37	21.16
329.583	37.55
329.796	115.37
330.009	-7.51
330.222	68.27
330.435	111.27
330.648	119.46
330.861	111.27
331.073	39.59
331.286	64.17
331.499	76.46
331.712	43.69
331.925	72.36
332.138	86.7
332.35	170.66
332.563	27.31
332.776	82.6
332.989	-30.04
333.202	121.51
333.414	72.36
333.627	-13.65
333.84	109.23
334.053	25.26
334.265	29.35
334.478	121.51
334.691	144.04
334.903	84.65
335.116	-19.8
335.329	43.69
335.541	148.14
335.754	78.51
335.966	12.97
336.179	47.79
336.392	62.12
336.604	96.94
336.817	35.5
337.029	-11.61
337.242	-13.65
337.454	72.36
337.667	21.16
337.88	125.61
338.092	86.7
338.305	27.31
338.517	41.64
338.729	90.79
338.942	53.93
339.154	39.59
339.367	33.45
339.579	125.61
339.792	55.98
340.004	101.03
340.217	58.03
340.429	66.22
340.641	-48.47
340.854	53.93
341.066	88.75
341.278	172.71
341.491	215.72
341.703	141.99
341.915	27.31
342.128	133.8
342.34	70.31
342.552	21.16
342.764	60.07
342.977	53.93
343.189	31.4
343.401	103.08
343.613	15.02
343.826	-11.61
344.038	-19.8
344.25	29.35
344.462	72.36
344.674	33.45
344.886	60.07
345.099	12.97
345.311	125.61
345.523	45.74
345.735	45.74
345.947	68.27
346.159	101.03
346.371	37.55
346.583	31.4
346.795	174.76
347.007	19.11
347.219	70.31
347.431	25.26
347.643	101.03
347.855	25.26
348.067	90.79
348.279	-17.75
348.491	37.55
348.703	98.99
348.915	111.27
349.127	35.5
349.339	35.5
349.551	80.55
349.763	10.92
349.975	12.97
350.187	68.27
350.399	154.28
350.61	86.7
350.822	84.65
351.034	64.17
351.246	105.13
351.458	43.69
351.669	72.36
351.881	92.84
352.093	168.62
352.305	60.07
352.517	70.31
352.728	119.46
352.94	88.75
353.152	137.9
353.363	33.45
353.575	111.27
353.787	129.7
353.999	12.97
354.21	127.66
354.422	84.65
354.633	37.55
354.845	160.42
355.057	33.45
355.268	84.65
355.48	76.46
355.692	64.17
355.903	232.1
356.115	2.73
356.326	-38.23
356.538	96.94
356.749	150.18
356.961	152.23
357.172	23.21
357.384	10.92
357.595	148.14
357.807	53.93
358.018	45.74
358.23	86.7
358.441	166.57
358.653	76.46
358.864	43.69
359.075	109.23
359.287	39.59
359.498	78.51
359.709	47.79
359.921	0.68
360.132	103.08
360.344	29.35
360.555	25.26
360.766	101.03
360.977	15.02
361.189	119.46
361.4	70.31
361.611	53.93
361.823	92.84
362.034	70.31
362.245	29.35
362.456	84.65
362.667	45.74
362.879	43.69
363.09	37.55
363.301	88.75
363.512	37.55
363.723	62.12
363.935	86.7
364.146	53.93
364.357	60.07
364.568	94.89
364.779	-5.46
364.99	55.98
365.201	-46.42
365.412	150.18
365.623	-50.52
365.834	78.51
366.045	152.23
366.256	109.23
366.467	117.42
366.678	4.78
366.889	88.75
367.1	23.21
367.311	127.66
367.522	4.78
367.733	31.4
367.944	98.99
368.155	51.88
368.366	74.41
368.577	101.03
368.788	53.93
368.999	-17.75
369.209	131.75
369.42	230.06
369.631	82.6
369.842	-5.46
370.053	43.69
370.264	141.99
370.474	47.79
370.685	121.51
370.896	60.07
371.107	141.99
371.317	96.94
371.528	96.94
371.739	133.8
371.95	60.07
372.16	55.98
372.371	-15.7
372.582	43.69
372.792	117.42
373.003	39.59
373.214	51.88
373.424	152.23
373.635	27.31
373.846	119.46
374.056	133.8
374.267	-1.37
374.477	92.84
374.688	15.02
374.898	131.75
375.109	58.03
375.319	76.46
375.53	146.09
375.74	88.75
375.951	84.65
376.161	119.46
376.372	86.7
376.582	70.31
376.793	35.5
377.003	111.27
377.214	55.98
377.424	60.07
377.635	68.27
377.845	60.07
378.055	101.03
378.266	94.89
378.476	64.17
378.686	84.65
378.897	55.98
379.107	55.98
379.317	152.23
379.528	51.88
379.738	127.66
379.948	33.45
380.158	60.07
380.369	107.18
380.579	103.08
380.789	-3.41
380.999	166.57
381.21	105.13
381.42	119.46
381.63	68.27
381.84	150.18
382.05	70.31
382.261	115.37
382.471	64.17
382.681	37.55
382.891	174.76
383.101	12.97
383.311	78.51
383.521	51.88
383.731	76.46
383.941	109.23
384.151	117.42
384.361	47.79
384.571	43.69
384.781	90.79
384.991	135.85
385.201	92.84
385.411	66.22
385.621	103.08
385.831	39.59
386.041	64.17
386.251	37.55
386.461	152.23
386.671	90.79
386.881	62.12
387.091	58.03
387.301	119.46
387.511	76.46
387.72	103.08
387.93	113.32
388.14	12.97
388.35	78.51
388.56	84.65
388.769	101.03
388.979	78.51
389.189	19.11
389.399	68.27
389.609	78.51
389.818	137.9
390.028	160.42
390.238	94.89
390.447	43.69
390.657	70.31
390.867	94.89
391.076	53.93
391.286	107.18
391.496	74.41
391.705	86.7
391.915	139.94
392.125	107.18
392.334	53.93
392.544	105.13
392.753	-9.56
392.963	35.5
393.172	76.46
393.382	101.03
393.591	146.09
393.801	78.51
394.01	105.13
394.22	139.94
394.429	66.22
394.639	90.79
394.848	92.84
395.058	17.07
395.267	92.84
395.477	84.65
395.686	12.97
395.895	168.62
396.105	141.99
396.314	103.08
396.524	127.66
396.733	74.41
396.942	174.76
397.152	131.75
397.361	164.52
397.57	37.55
397.78	131.75
397.989	139.94
398.198	176.81
398.407	96.94
398.617	86.7
398.826	129.7
399.035	121.51
399.244	98.99
399.453	90.79
399.663	92.84
399.872	125.61
400.081	84.65
400.29	211.62
400.499	172.71
400.708	125.61
400.917	31.4
401.127	174.76
401.336	76.46
401.545	121.51
401.754	162.47
401.963	182.95
402.172	150.18
402.381	146.09
402.59	154.28
402.799	133.8
403.008	25.26
403.217	127.66
403.426	168.62
403.635	64.17
403.844	109.23
404.053	60.07
404.262	101.03
404.471	176.81
404.68	86.7
404.888	162.47
405.097	156.33
405.306	176.81
405.515	187.05
405.724	131.75
405.933	221.86
406.142	121.51
406.35	242.34
406.559	232.1
406.768	199.34
406.977	260.77
407.185	201.38
407.394	213.67
407.603	148.14
407.812	225.96
408.02	256.68
408.229	178.86
408.438	174.76
408.646	215.72
408.855	293.54
409.064	307.88
409.272	207.53
409.481	252.58
409.69	203.43
409.898	240.3
410.107	328.36
410.315	402.08
410.524	279.21
410.733	359.08
410.941	322.21
411.15	391.84
411.358	389.8
411.567	383.65
411.775	381.6
411.984	381.6
412.192	412.32
412.401	402.08
412.609	395.94
412.818	514.72
413.026	461.48
413.234	461.48
413.443	453.28
413.651	484
413.86	449.19
414.068	606.88
414.276	570.02
414.485	586.4
414.693	627.36
414.901	785.05
415.11	647.84
415.318	615.07
415.526	668.32
415.734	629.41
415.943	694.94
416.151	789.15
416.359	676.51
416.567	801.44
416.776	780.96
416.984	893.6
417.192	934.56
417.4	789.15
417.608	854.69
417.817	836.25
418.025	938.65
418.233	1077.91
418.441	971.42
418.649	1012.38
418.857	1096.35
419.065	1108.63
419.273	1141.4
419.481	1061.53
419.689	1241.75
419.897	1305.24
420.105	1391.25
420.313	1342.1
420.521	1426.07
420.729	1385.11
420.937	1383.06
421.145	1512.08
421.353	1655.44
421.561	1608.34
421.769	1749.65
421.977	1731.22
422.185	1802.9
422.393	1817.23
422.601	1995.4
422.809	1981.07
423.017	2056.84
423.224	1974.92
423.432	2177.67
423.64	2204.3
423.848	2273.93
424.056	2278.02
424.263	2460.29
424.471	2435.72
424.679	2419.33
424.887	2540.16
425.094	2798.21
425.302	2822.78
425.51	2808.45
425.718	3058.3
425.925	3000.96
426.133	2970.24
426.341	3320.44
426.548	3203.71
426.756	3338.87
426.964	3385.98
427.171	3474.04
427.379	3639.92
427.586	3775.09
427.794	3891.82
428.001	4043.37
428.209	4176.49
428.417	4188.78
428.624	4510.31
428.832	4334.18
429.039	4346.47
429.247	4444.77
429.454	4663.91
429.662	5223
429.869	4721.25
430.076	5067.36
430.284	5147.23
430.491	5343.83
430.699	5413.46
430.906	5421.66
431.114	5751.38
431.321	5786.19
431.528	5974.61
431.736	6376.01
431.943	6492.74
432.15	6386.25
432.358	6365.77
432.565	6847.04
432.772	6681.16
432.979	7207.48
433.187	7295.55
433.394	7408.19
433.601	7655.99
433.808	8069.68
434.016	7875.12
434.223	8182.32
434.43	8593.96
434.637	8475.18
434.844	8999.46
435.052	9153.06
435.259	9085.47
435.466	9382.43
435.673	9097.76
435.88	9689.62
436.087	10363.4
436.294	10275.34
436.501	10011.15
436.708	10371.6
436.915	10633.74
437.122	10955.27
437.329	10992.13
437.537	11262.46
437.743	11397.63
437.95	11577.85
438.157	11874.81
438.364	12530.16
438.571	12419.57
438.778	12505.58
438.985	13664.73
439.192	12954.08
439.399	13611.48
439.606	13384.16
439.813	13760.98
440.02	14848.46
440.227	14629.32
440.433	14711.24
440.64	15071.68
440.847	14670.28
441.054	15225.28
441.261	16228.79
441.467	15944.12
441.674	16189.88
441.881	16751.02
442.088	16951.72
442.294	16732.59
442.501	17232.29
442.708	17457.57
442.914	18342.29
443.121	18993.54
443.328	18258.32
443.534	19759.49
443.741	19288.45
443.948	18835.85
444.154	20357.49
444.361	20148.6
444.568	20388.21
444.774	20502.9
444.981	20742.51
445.187	21227.88
445.394	22204.76
445.6	21817.69
445.807	24144.19
446.013	23089.48
446.22	23370.05
446.426	24357.17
446.633	24697.14
446.839	25284.9
447.046	24480.05
447.252	25723.17
447.459	25844
447.665	25708.83
447.871	26833.17
448.078	28084.48
448.284	26814.74
448.491	27365.64
448.697	28461.3
448.903	29237.48
449.11	29016.3
449.316	28619
449.522	29010.16
449.728	29765.86
449.935	29964.51
450.141	30226.65
450.347	30918.87
450.553	29935.84
450.76	30499.03
450.966	31350.99
451.172	30931.15
451.378	31748.29
451.584	31299.79
451.791	31983.81
451.997	32133.31
452.203	32618.68
452.409	32676.02
452.615	32270.53
452.821	30931.15
453.027	31146.19
453.233	32503.99
453.44	31332.56
453.646	31770.82
453.852	32176.32
454.058	32479.42
454.264	31111.38
454.47	32520.38
454.676	31156.43
454.882	32495.8
455.088	29429.99
455.294	29911.27
455.5	30501.08
455.705	31076.56
455.911	29944.03
456.117	28934.39
456.323	28420.35
456.529	27142.41
456.735	28719.35
456.941	27701.51
457.147	27476.23
457.352	26323.22
457.558	25964.83
457.764	25952.54
457.97	25776.42
458.176	25047.34
458.381	25461.03
458.587	24002.88
458.793	24127.8
458.999	22739.28
459.204	24387.89
459.41	23755.07
459.616	22284.63
459.821	22184.28
460.027	21899.61
460.233	21637.47
460.438	20701.55
460.644	20867.44
460.85	19790.2
461.055	19595.65
461.261	19380.61
461.466	18270.61
461.672	17682.84
461.878	18639.25
462.083	17351.07
462.289	17181.09
462.494	16789.93
462.7	16210.36
462.905	15866.3
463.111	16361.91
463.316	16343.47
463.522	15960.5
463.727	15968.69
463.932	16093.62
464.138	15786.43
464.343	15743.42
464.549	15415.74
464.754	15827.39
464.959	15544.77
465.165	15657.4
465.37	15061.44
465.575	14690.76
465.781	14963.14
465.986	15301.06
