Data from USB4F104151__31__13-04-50-368.txt Node

Date: Fri Mar 14 13:04:50 EDT 2025
User: louis
Spectrometer: USB4F10415
Trigger mode: 4
Integration Time (sec): 4.000000E-2
Scans to average: 1
Electric dark correction enabled: true
Nonlinearity correction enabled: false
Boxcar width: 0
XAxis mode: Wavelengths
Number of Pixels in Spectrum: 3648
>>>>>Begin Spectral Data<<<<<
178.204	-167.93
178.424	-167.93
178.644	-167.93
178.864	-180.22
179.084	-190.46
179.304	38.91
179.524	20.48
179.744	-18.43
179.964	28.67
180.184	-40.96
180.404	-26.62
180.624	-4.1
180.844	8.19
181.064	-69.63
181.283	-28.67
181.503	12.29
181.723	79.87
181.943	-32.77
182.163	59.39
182.383	-12.29
182.602	45.06
182.822	77.82
183.042	0
183.262	-12.29
183.482	-2.05
183.701	-69.63
183.921	65.54
184.141	-12.29
184.361	55.3
184.58	8.19
184.8	-34.82
185.02	16.38
185.239	67.58
185.459	88.06
185.679	77.82
185.898	-28.67
186.118	157.69
186.338	71.68
186.557	59.39
186.777	-69.63
186.997	141.31
187.216	30.72
187.436	36.86
187.655	49.15
187.875	16.38
188.095	20.48
188.314	65.54
188.534	57.34
188.753	-4.1
188.973	51.2
189.192	106.49
189.412	129.02
189.631	16.38
189.851	51.2
190.07	57.34
190.29	-57.34
190.509	38.91
190.729	16.38
190.948	59.39
191.168	194.56
191.387	120.83
191.607	22.53
191.826	24.58
192.045	34.82
192.265	-22.53
192.484	34.82
192.704	38.91
192.923	-12.29
193.142	169.98
193.362	49.15
193.581	20.48
193.8	36.86
194.02	118.78
194.239	36.86
194.458	83.97
194.678	71.68
194.897	-26.62
195.116	0
195.335	102.4
195.555	43.01
195.774	100.35
195.993	32.77
196.212	4.1
196.432	22.53
196.651	0
196.87	24.58
197.089	96.25
197.308	71.68
197.528	-22.53
197.747	-61.44
197.966	86.01
198.185	71.68
198.404	-51.2
198.623	120.83
198.842	38.91
199.062	108.54
199.281	34.82
199.5	6.14
199.719	75.77
199.938	77.82
200.157	139.26
200.376	65.54
200.595	143.36
200.814	-2.05
201.033	28.67
201.252	139.26
201.471	28.67
201.69	114.69
201.909	40.96
202.128	28.67
202.347	63.49
202.566	38.91
202.785	-65.53
203.004	30.72
203.223	102.4
203.442	49.15
203.661	-40.96
203.879	55.3
204.098	22.53
204.317	61.44
204.536	110.59
204.755	55.3
204.974	69.63
205.193	4.1
205.411	120.83
205.63	43.01
205.849	43.01
206.068	47.1
206.287	16.38
206.505	65.54
206.724	47.1
206.943	47.1
207.162	2.05
207.381	81.92
207.599	75.77
207.818	36.86
208.037	22.53
208.255	28.67
208.474	71.68
208.693	12.29
208.911	4.1
209.13	69.63
209.349	45.06
209.567	32.77
209.786	32.77
210.005	24.58
210.223	47.1
210.442	14.34
210.661	73.73
210.879	34.82
211.098	2.05
211.316	71.68
211.535	57.34
211.753	61.44
211.972	53.25
212.191	28.67
212.409	20.48
212.628	55.3
212.846	36.86
213.065	114.69
213.283	30.72
213.502	59.39
213.72	57.34
213.938	38.91
214.157	-18.43
214.375	90.11
214.594	12.29
214.812	114.69
215.031	45.06
215.249	40.96
215.467	14.34
215.686	22.53
215.904	12.29
216.122	-16.38
216.341	114.69
216.559	22.53
216.778	75.77
216.996	112.64
217.214	34.82
217.432	-59.39
217.651	63.49
217.869	26.62
218.087	83.97
218.306	-2.05
218.524	14.34
218.742	-22.53
218.96	86.01
219.179	55.3
219.397	0
219.615	63.49
219.833	20.48
220.051	16.38
220.27	92.16
220.488	26.62
220.706	8.19
220.924	6.14
221.142	45.06
221.36	40.96
221.578	0
221.796	-4.1
222.015	24.58
222.233	120.83
222.451	120.83
222.669	28.67
222.887	47.1
223.105	0
223.323	-4.1
223.541	53.25
223.759	61.44
223.977	45.06
224.195	40.96
224.413	57.34
224.631	8.19
224.849	63.49
225.067	92.16
225.285	14.34
225.503	-53.25
225.721	-73.73
225.939	12.29
226.157	34.82
226.375	172.03
226.592	-49.15
226.81	24.58
227.028	38.91
227.246	98.3
227.464	75.77
227.682	65.54
227.9	59.39
228.117	40.96
228.335	59.39
228.553	38.91
228.771	2.05
228.989	69.63
229.206	38.91
229.424	20.48
229.642	-26.62
229.86	-10.24
230.077	69.63
230.295	53.25
230.513	49.15
230.731	69.63
230.948	126.97
231.166	94.21
231.384	45.06
231.601	14.34
231.819	96.25
232.037	-10.24
232.254	28.67
232.472	65.54
232.689	30.72
232.907	96.25
233.125	22.53
233.342	34.82
233.56	-16.38
233.777	59.39
233.995	-49.15
234.213	43.01
234.43	34.82
234.648	34.82
234.865	6.14
235.083	43.01
235.3	49.15
235.518	12.29
235.735	108.54
235.953	63.49
236.17	53.25
236.388	47.1
236.605	104.45
236.822	118.78
237.04	51.2
237.257	73.73
237.475	43.01
237.692	55.3
237.909	59.39
238.127	-14.34
238.344	55.3
238.562	55.3
238.779	-14.34
238.996	-32.77
239.214	26.62
239.431	90.11
239.648	83.97
239.865	43.01
240.083	65.54
240.3	73.73
240.517	24.58
240.735	51.2
240.952	135.17
241.169	126.97
241.386	38.91
241.603	-2.05
241.821	34.82
242.038	122.88
242.255	0
242.472	43.01
242.689	49.15
242.907	77.82
243.124	-4.1
243.341	40.96
243.558	-8.19
243.775	-16.38
243.992	-12.29
244.209	40.96
244.426	73.73
244.643	75.77
244.86	49.15
245.078	69.63
245.295	32.77
245.512	34.82
245.729	-32.77
245.946	53.25
246.163	49.15
246.38	86.01
246.597	10.24
246.814	102.4
247.031	40.96
247.248	79.87
247.464	77.82
247.681	57.34
247.898	90.11
248.115	28.67
248.332	-28.67
248.549	81.92
248.766	88.06
248.983	65.54
249.2	51.2
249.417	110.59
249.633	28.67
249.85	18.43
250.067	4.1
250.284	69.63
250.501	57.34
250.717	147.45
250.934	32.77
251.151	65.54
251.368	43.01
251.585	63.49
251.801	45.06
252.018	12.29
252.235	75.77
252.451	34.82
252.668	38.91
252.885	40.96
253.102	47.1
253.318	28.67
253.535	0
253.752	92.16
253.968	-26.62
254.185	-24.58
254.401	55.3
254.618	24.58
254.835	-12.29
255.051	139.26
255.268	32.77
255.484	40.96
255.701	14.34
255.917	55.3
256.134	4.1
256.351	47.1
256.567	8.19
256.784	49.15
257	8.19
257.217	69.63
257.433	90.11
257.65	94.21
257.866	32.77
258.082	-22.53
258.299	-26.62
258.515	135.17
258.732	55.3
258.948	20.48
259.165	69.63
259.381	16.38
259.597	192.51
259.814	49.15
260.03	-24.58
260.246	69.63
260.463	69.63
260.679	90.11
260.895	40.96
261.112	57.34
261.328	57.34
261.544	-12.29
261.761	116.73
261.977	-6.14
262.193	57.34
262.409	71.68
262.626	28.67
262.842	4.1
263.058	36.86
263.274	88.06
263.49	94.21
263.707	71.68
263.923	100.35
264.139	10.24
264.355	30.72
264.571	49.15
264.787	38.91
265.004	36.86
265.22	32.77
265.436	28.67
265.652	90.11
265.868	53.25
266.084	-8.19
266.3	20.48
266.516	-18.43
266.732	96.25
266.948	65.54
267.164	12.29
267.38	47.1
267.596	61.44
267.812	184.32
268.028	2.05
268.244	43.01
268.46	77.82
268.676	110.59
268.892	102.4
269.108	-6.14
269.324	-24.58
269.54	0
269.756	75.77
269.972	36.86
270.188	18.43
270.403	-43.01
270.619	83.97
270.835	47.1
271.051	-16.38
271.267	92.16
271.483	92.16
271.698	36.86
271.914	65.54
272.13	63.49
272.346	49.15
272.562	20.48
272.777	61.44
272.993	32.77
273.209	43.01
273.425	28.67
273.64	63.49
273.856	81.92
274.072	63.49
274.287	6.14
274.503	69.63
274.719	49.15
274.934	45.06
275.15	-61.44
275.366	86.01
275.581	-47.1
275.797	30.72
276.012	90.11
276.228	34.82
276.444	49.15
276.659	100.35
276.875	75.77
277.09	0
277.306	65.54
277.521	51.2
277.737	-6.14
277.952	49.15
278.168	59.39
278.383	61.44
278.599	53.25
278.814	38.91
279.03	96.25
279.245	49.15
279.461	-22.53
279.676	-12.29
279.892	16.38
280.107	-4.1
280.322	-12.29
280.538	69.63
280.753	-8.19
280.969	61.44
281.184	14.34
281.399	124.93
281.615	-22.53
281.83	49.15
282.045	24.58
282.26	0
282.476	86.01
282.691	137.21
282.906	102.4
283.122	77.82
283.337	26.62
283.552	20.48
283.767	-4.1
283.983	77.82
284.198	4.1
284.413	59.39
284.628	-24.58
284.843	8.19
285.058	77.82
285.274	-30.72
285.489	-16.38
285.704	108.54
285.919	-4.1
286.134	77.82
286.349	-2.05
286.564	8.19
286.779	108.54
286.995	110.59
287.21	77.82
287.425	102.4
287.64	8.19
287.855	12.29
288.07	-63.49
288.285	57.34
288.5	79.87
288.715	4.1
288.93	12.29
289.145	24.58
289.36	92.16
289.575	-38.91
289.79	-4.1
290.004	47.1
290.219	100.35
290.434	-34.82
290.649	122.88
290.864	36.86
291.079	63.49
291.294	47.1
291.509	102.4
291.724	-69.63
291.938	-36.86
292.153	96.25
292.368	24.58
292.583	-6.14
292.798	120.83
293.012	-8.19
293.227	57.34
293.442	-10.24
293.657	98.3
293.871	63.49
294.086	40.96
294.301	69.63
294.516	71.68
294.73	67.58
294.945	47.1
295.16	55.3
295.374	65.54
295.589	69.63
295.804	83.97
296.018	43.01
296.233	114.69
296.447	16.38
296.662	-16.38
296.877	104.45
297.091	-10.24
297.306	49.15
297.52	69.63
297.735	6.14
297.949	0
298.164	55.3
298.378	49.15
298.593	-4.1
298.807	16.38
299.022	30.72
299.236	55.3
299.451	65.54
299.665	4.1
299.88	57.34
300.094	79.87
300.309	61.44
300.523	10.24
300.737	36.86
300.952	69.63
301.166	106.49
301.381	26.62
301.595	-81.92
301.809	69.63
302.024	53.25
302.238	-55.3
302.452	110.59
302.667	-12.29
302.881	104.45
303.095	104.45
303.309	120.83
303.524	4.1
303.738	61.44
303.952	-32.77
304.166	-16.38
304.381	-53.25
304.595	98.3
304.809	14.34
305.023	43.01
305.237	-28.67
305.452	-47.1
305.666	67.58
305.88	112.64
306.094	88.06
306.308	73.73
306.522	129.02
306.736	83.97
306.95	104.45
307.164	22.53
307.379	118.78
307.593	86.01
307.807	61.44
308.021	126.97
308.235	59.39
308.449	-26.62
308.663	53.25
308.877	135.17
309.091	61.44
309.305	43.01
309.519	-14.34
309.733	69.63
309.947	30.72
310.161	96.25
310.374	47.1
310.588	96.25
310.802	26.62
311.016	32.77
311.23	96.25
311.444	8.19
311.658	83.97
311.872	45.06
312.085	116.73
312.299	36.86
312.513	139.26
312.727	88.06
312.941	30.72
313.154	45.06
313.368	10.24
313.582	104.45
313.796	122.88
314.009	114.69
314.223	90.11
314.437	112.64
314.651	-4.1
314.864	-10.24
315.078	10.24
315.292	-24.58
315.505	34.82
315.719	71.68
315.933	47.1
316.146	-12.29
316.36	-59.39
316.573	34.82
316.787	69.63
317.001	24.58
317.214	36.86
317.428	24.58
317.641	-26.62
317.855	24.58
318.068	81.92
318.282	30.72
318.495	57.34
318.709	38.91
318.922	-4.1
319.136	94.21
319.349	45.06
319.563	14.34
319.776	61.44
319.99	-20.48
320.203	77.82
320.417	73.73
320.63	34.82
320.843	169.98
321.057	18.43
321.27	47.1
321.483	86.01
321.697	77.82
321.91	71.68
322.124	110.59
322.337	-24.58
322.55	26.62
322.763	79.87
322.977	-28.67
323.19	-24.58
323.403	69.63
323.617	106.49
323.83	141.31
324.043	-51.2
324.256	18.43
324.469	-79.87
324.683	131.07
324.896	-10.24
325.109	86.01
325.322	-40.96
325.535	100.35
325.748	149.5
325.962	43.01
326.175	51.2
326.388	108.54
326.601	94.21
326.814	38.91
327.027	55.3
327.24	79.87
327.453	-20.48
327.666	77.82
327.879	94.21
328.092	98.3
328.305	30.72
328.518	-28.67
328.731	18.43
328.944	49.15
329.157	34.82
329.37	53.25
329.583	104.45
329.796	129.02
330.009	81.92
330.222	135.17
330.435	26.62
330.648	143.36
330.861	65.54
331.073	110.59
331.286	67.58
331.499	28.67
331.712	-8.19
331.925	63.49
332.138	55.3
332.35	112.64
332.563	14.34
332.776	86.01
332.989	8.19
333.202	-28.67
333.414	63.49
333.627	65.54
333.84	69.63
334.053	69.63
334.265	28.67
334.478	20.48
334.691	90.11
334.903	6.14
335.116	-10.24
335.329	20.48
335.541	71.68
335.754	110.59
335.966	-12.29
336.179	77.82
336.392	36.86
336.604	24.58
336.817	71.68
337.029	43.01
337.242	32.77
337.454	77.82
337.667	79.87
337.88	126.97
338.092	-14.34
338.305	61.44
338.517	-26.62
338.729	116.73
338.942	124.93
339.154	-12.29
339.367	51.2
339.579	36.86
339.792	20.48
340.004	106.49
340.217	49.15
340.429	67.58
340.641	77.82
340.854	14.34
341.066	45.06
341.278	49.15
341.491	143.36
341.703	53.25
341.915	67.58
342.128	65.54
342.34	65.54
342.552	71.68
342.764	63.49
342.977	118.78
343.189	55.3
343.401	118.78
343.613	-57.34
343.826	53.25
344.038	-2.05
344.25	47.1
344.462	-14.34
344.674	61.44
344.886	65.54
345.099	104.45
345.311	75.77
345.523	100.35
345.735	-2.05
345.947	45.06
346.159	92.16
346.371	22.53
346.583	57.34
346.795	73.73
347.007	65.54
347.219	75.77
347.431	75.77
347.643	81.92
347.855	94.21
348.067	139.26
348.279	-40.96
348.491	69.63
348.703	77.82
348.915	-28.67
349.127	49.15
349.339	73.73
349.551	69.63
349.763	96.25
349.975	77.82
350.187	79.87
350.399	163.84
350.61	28.67
350.822	45.06
351.034	135.17
351.246	159.74
351.458	147.45
351.669	61.44
351.881	98.3
352.093	143.36
352.305	38.91
352.517	88.06
352.728	174.08
352.94	129.02
353.152	57.34
353.363	49.15
353.575	108.54
353.787	106.49
353.999	26.62
354.21	100.35
354.422	36.86
354.633	8.19
354.845	141.31
355.057	67.58
355.268	57.34
355.48	106.49
355.692	12.29
355.903	24.58
356.115	-67.58
356.326	-49.15
356.538	114.69
356.749	88.06
356.961	153.6
357.172	-26.62
357.384	98.3
357.595	118.78
357.807	-4.1
358.018	55.3
358.23	53.25
358.441	69.63
358.653	120.83
358.864	-10.24
359.075	14.34
359.287	79.87
359.498	88.06
359.709	96.25
359.921	63.49
360.132	59.39
360.344	24.58
360.555	51.2
360.766	83.97
360.977	-14.34
361.189	81.92
361.4	108.54
361.611	163.84
361.823	67.58
362.034	43.01
362.245	47.1
362.456	34.82
362.667	34.82
362.879	16.38
363.09	69.63
363.301	4.1
363.512	28.67
363.723	-12.29
363.935	69.63
364.146	32.77
364.357	86.01
364.568	86.01
364.779	53.25
364.99	131.07
365.201	36.86
365.412	118.78
365.623	-47.1
365.834	77.82
366.045	47.1
366.256	30.72
366.467	102.4
366.678	88.06
366.889	79.87
367.1	43.01
367.311	92.16
367.522	4.1
367.733	65.54
367.944	55.3
368.155	36.86
368.366	86.01
368.577	188.41
368.788	100.35
368.999	75.77
369.209	51.2
369.42	116.73
369.631	100.35
369.842	86.01
370.053	45.06
370.264	98.3
370.474	8.19
370.685	0
370.896	-4.1
371.107	126.97
371.317	163.84
371.528	24.58
371.739	88.06
371.95	120.83
372.16	100.35
372.371	53.25
372.582	36.86
372.792	69.63
373.003	122.88
373.214	104.45
373.424	126.97
373.635	77.82
373.846	90.11
374.056	55.3
374.267	118.78
374.477	63.49
374.688	49.15
374.898	34.82
375.109	79.87
375.319	69.63
375.53	194.56
375.74	110.59
375.951	36.86
376.161	71.68
376.372	61.44
376.582	0
376.793	73.73
377.003	34.82
377.214	45.06
377.424	163.84
377.635	-22.53
377.845	-8.19
378.055	83.97
378.266	40.96
378.476	12.29
378.686	96.25
378.897	43.01
379.107	6.14
379.317	75.77
379.528	65.54
379.738	112.64
379.948	32.77
380.158	116.73
380.369	61.44
380.579	59.39
380.789	69.63
380.999	77.82
381.21	114.69
381.42	131.07
381.63	53.25
381.84	45.06
382.05	98.3
382.261	141.31
382.471	26.62
382.681	36.86
382.891	61.44
383.101	30.72
383.311	43.01
383.521	-20.48
383.731	133.12
383.941	118.78
384.151	94.21
384.361	53.25
384.571	24.58
384.781	38.91
384.991	141.31
385.201	180.22
385.411	32.77
385.621	96.25
385.831	90.11
386.041	49.15
386.251	86.01
386.461	49.15
386.671	167.93
386.881	114.69
387.091	32.77
387.301	110.59
387.511	126.97
387.72	122.88
387.93	120.83
388.14	92.16
388.35	131.07
388.56	61.44
388.769	10.24
388.979	81.92
389.189	83.97
389.399	77.82
389.609	149.5
389.818	104.45
390.028	47.1
390.238	102.4
390.447	94.21
390.657	49.15
390.867	73.73
391.076	-4.1
391.286	126.97
391.496	71.68
391.705	47.1
391.915	159.74
392.125	118.78
392.334	151.55
392.544	178.17
392.753	104.45
392.963	26.62
393.172	163.84
393.382	69.63
393.591	131.07
393.801	100.35
394.01	190.46
394.22	126.97
394.429	90.11
394.639	32.77
394.848	38.91
395.058	77.82
395.267	18.43
395.477	90.11
395.686	149.5
395.895	98.3
396.105	202.75
396.314	69.63
396.524	131.07
396.733	124.93
396.942	225.28
397.152	147.45
397.361	122.88
397.57	147.45
397.78	67.58
397.989	186.37
398.198	172.03
398.407	96.25
398.617	194.56
398.826	135.17
399.035	96.25
399.244	176.13
399.453	186.37
399.663	116.73
399.872	178.17
400.081	98.3
400.29	241.66
400.499	151.55
400.708	141.31
400.917	167.93
401.127	122.88
401.336	126.97
401.545	202.75
401.754	131.07
401.963	167.93
402.172	153.6
402.381	110.59
402.59	169.98
402.799	206.84
403.008	210.94
403.217	155.65
403.426	114.69
403.635	151.55
403.844	176.13
404.053	176.13
404.262	110.59
404.471	268.28
404.68	239.61
404.888	206.84
405.097	126.97
405.306	145.41
405.515	256
405.724	167.93
405.933	223.23
406.142	151.55
406.35	253.95
406.559	212.99
406.768	145.41
406.977	233.47
407.185	243.71
407.394	204.8
407.603	204.8
407.812	280.57
408.02	315.39
408.229	301.05
408.438	256
408.646	217.08
408.855	299
409.064	282.62
409.272	309.24
409.481	356.35
409.69	333.82
409.898	286.72
410.107	366.59
410.315	428.03
410.524	362.49
410.733	423.93
410.941	368.63
411.15	446.46
411.358	495.61
411.567	546.81
411.775	536.57
411.984	540.66
412.192	624.63
412.401	520.18
412.609	573.43
412.818	581.62
413.026	663.54
413.234	706.55
413.443	641.01
413.651	724.98
413.86	675.83
414.068	692.21
414.276	749.56
414.485	727.03
414.693	808.95
414.901	856.05
415.11	813.04
415.318	841.72
415.526	935.92
415.734	950.26
415.943	923.63
416.151	1030.13
416.359	1015.79
416.567	1019.89
416.776	1089.52
416.984	1263.6
417.192	1241.07
417.4	1060.85
417.608	1142.77
417.817	1277.93
418.025	1411.05
418.233	1388.52
418.441	1363.95
418.649	1476.59
418.857	1460.2
419.065	1699.81
419.273	1484.78
419.481	1621.99
419.689	1708.01
419.897	1855.46
420.105	1937.38
420.313	1863.65
420.521	1918.95
420.729	2021.35
420.937	1998.82
421.145	2074.59
421.353	2277.34
421.561	2277.34
421.769	2306.01
421.977	2447.32
422.185	2445.27
422.393	2609.11
422.601	2734.04
422.809	2783.19
423.017	2777.05
423.224	2830.29
423.432	3117.01
423.64	3121.1
423.848	3233.74
424.056	3282.89
424.263	3616.71
424.471	3368.91
424.679	3592.14
424.887	3819.46
425.094	3854.28
425.302	3751.88
425.51	3913.67
425.718	4167.62
425.925	4165.57
426.133	4366.27
426.341	4388.8
426.548	4763.58
426.756	4837.3
426.964	4870.07
427.171	5283.76
427.379	5142.45
427.586	5375.92
427.794	5423.02
428.001	5687.21
428.209	5904.29
428.417	5873.57
428.624	6205.35
428.832	6303.65
429.039	6303.65
429.247	6426.53
429.454	6961.05
429.662	7425.93
429.869	6938.52
430.076	7260.05
430.284	7112.6
430.491	7460.75
430.699	7905.16
430.906	7677.83
431.114	7825.29
431.321	8396.67
431.528	8263.55
431.736	8871.8
431.943	9410.42
432.15	8976.25
432.358	9361.27
432.565	9854.83
432.772	9736.04
432.979	10307.43
433.187	10487.65
433.394	10293.09
433.601	11229.01
433.808	11237.2
434.016	11032.41
434.223	11462.48
434.43	12078.92
434.637	12011.34
434.844	12846.91
435.052	13250.36
435.259	12975.93
435.466	13086.52
435.673	12990.27
435.88	13938.48
436.087	14700.32
436.294	14309.16
436.501	14303.01
436.708	14366.5
436.915	14888.73
437.122	15900.43
437.329	15314.71
437.537	16168.71
437.743	16662.27
437.95	16285.45
438.157	17188.6
438.364	17520.37
438.571	17682.16
438.778	17755.89
438.985	19424.98
439.192	18632.42
439.399	19152.6
439.606	18872.03
439.813	19984.08
440.02	21006.02
440.227	20889.28
440.433	20672.2
440.64	21145.28
440.847	21120.7
441.054	21892.79
441.261	22845.09
441.467	22859.43
441.674	23115.42
441.881	24049.3
442.088	23821.97
442.294	23772.82
442.501	24542.86
442.708	25032.32
442.914	25980.53
443.121	26836.58
443.328	26410.6
443.534	28280.4
443.741	27178.59
443.948	26934.88
444.154	29232.71
444.361	28937.8
444.568	29036.1
444.774	29177.41
444.981	29191.75
445.187	30246.45
445.394	31514.14
445.6	30834.22
445.807	34008.57
446.013	32906.76
446.22	32937.48
446.426	34592.24
446.633	35098.09
446.839	36068.83
447.046	34498.03
447.252	36543.95
447.459	36550.1
447.665	36500.95
447.871	37940.67
448.078	39452.07
448.284	37744.06
448.491	38942.13
448.697	40629.65
448.903	40873.36
449.11	40844.69
449.316	40734.1
449.522	41495.94
449.728	42358.14
449.935	42673.52
450.141	42542.45
450.347	43799.91
450.553	42069.37
450.76	42671.48
450.966	43937.12
451.172	43881.83
451.378	44713.3
451.584	43650.41
451.791	44850.52
451.997	45116.75
452.203	45681.99
452.409	45768.01
452.615	45243.73
452.821	43865.44
453.027	43472.23
453.233	45329.74
453.44	44053.86
453.646	44432.73
453.852	44440.92
454.058	45692.23
454.264	43828.58
454.47	44934.48
454.676	43679.08
454.882	44799.32
455.088	41315.72
455.294	42120.57
455.5	42743.16
455.705	43142.51
455.911	41526.66
456.117	40555.93
456.323	40101.28
456.529	37815.74
456.735	39919.01
456.941	38530.48
457.147	38235.58
457.352	36922.83
457.558	36365.78
457.764	36810.19
457.97	36056.54
458.176	35038.7
458.381	35149.29
458.587	33689.09
458.793	33377.79
458.999	31850.01
459.204	33963.51
459.41	32980.49
459.616	30666.28
459.821	30922.28
460.027	30654
460.233	30447.15
460.438	28780.1
460.644	28911.17
460.85	27760.22
461.055	27557.47
461.261	27180.64
461.466	25241.21
461.672	24530.57
461.878	25939.57
462.083	24450.7
462.289	23897.75
462.494	23686.81
462.7	22517.42
462.905	22054.58
463.111	22890.15
463.316	22703.78
463.522	22283.95
463.727	22519.46
463.932	22431.4
464.138	22503.08
464.343	22505.13
464.549	21636.79
464.754	22154.93
464.959	22167.21
465.165	22085.29
465.37	21151.42
465.575	20309.71
465.781	21360.31
465.986	21651.13
466.191	20719.3
466.397	20127.44
466.602	19424.98
