Data from USB4F104151__33__13-04-51-168.txt Node

Date: Fri Mar 14 13:04:51 EDT 2025
User: louis
Spectrometer: USB4F10415
Trigger mode: 4
Integration Time (sec): 4.000000E-2
Scans to average: 1
Electric dark correction enabled: true
Nonlinearity correction enabled: false
Boxcar width: 0
XAxis mode: Wavelengths
Number of Pixels in Spectrum: 3648
>>>>>Begin Spectral Data<<<<<
178.204	-232.96
178.424	-232.96
178.644	-232.96
178.864	-163.33
179.084	-187.9
179.304	-24.06
179.524	2.56
179.744	-9.73
179.964	-46.59
180.184	16.9
180.404	78.33
180.624	4.61
180.844	14.85
181.064	-77.31
181.283	-1.54
181.503	12.8
181.723	29.18
181.943	-34.3
182.163	68.09
182.383	55.81
182.602	72.19
182.822	123.39
183.042	119.29
183.262	-3.58
183.482	74.24
183.701	20.99
183.921	66.05
184.141	20.99
184.361	43.52
184.58	39.42
184.8	72.19
185.02	121.34
185.239	133.63
185.459	31.23
185.679	-54.78
185.898	-71.17
186.118	70.14
186.338	-3.58
186.557	23.04
186.777	31.23
186.997	12.8
187.216	-38.4
187.436	117.25
187.655	51.71
187.875	82.43
188.095	59.9
188.314	94.72
188.534	90.62
188.753	-1.54
188.973	90.62
189.192	35.33
189.412	51.71
189.631	12.8
189.851	43.52
190.07	33.28
190.29	115.2
190.509	-60.93
190.729	12.8
190.948	92.67
191.168	203.26
191.387	74.24
191.607	-22.02
191.826	49.66
192.045	55.81
192.265	94.72
192.484	37.38
192.704	49.66
192.923	53.76
193.142	160.25
193.362	96.77
193.581	31.23
193.8	39.42
194.02	16.9
194.239	51.71
194.458	23.04
194.678	41.47
194.897	51.71
195.116	88.57
195.335	115.2
195.555	51.71
195.774	74.24
195.993	43.52
196.212	35.33
196.432	-17.92
196.651	-5.63
196.87	-7.68
197.089	119.29
197.308	66.05
197.528	111.1
197.747	-62.98
197.966	10.75
198.185	135.68
198.404	-38.4
198.623	41.47
198.842	84.48
199.062	25.09
199.281	51.71
199.5	45.57
199.719	-15.87
199.938	41.47
200.157	94.72
200.376	59.9
200.595	125.44
200.814	51.71
201.033	-30.21
201.252	111.1
201.471	70.14
201.69	104.96
201.909	39.42
202.128	20.99
202.347	96.77
202.566	35.33
202.785	66.05
203.004	-32.26
203.223	57.86
203.442	0.51
203.661	2.56
203.879	16.9
204.098	104.96
204.317	0.51
204.536	115.2
204.755	33.28
204.974	72.19
205.193	14.85
205.411	137.73
205.63	129.53
205.849	31.23
206.068	98.81
206.287	-17.92
206.505	23.04
206.724	-48.64
206.943	-9.73
207.162	-17.92
207.381	35.33
207.599	57.86
207.818	39.42
208.037	94.72
208.255	68.09
208.474	25.09
208.693	98.81
208.911	51.71
209.13	33.28
209.349	41.47
209.567	80.38
209.786	51.71
210.005	43.52
210.223	57.86
210.442	-5.63
210.661	47.62
210.879	-28.16
211.098	92.67
211.316	43.52
211.535	168.45
211.753	70.14
211.972	72.19
212.191	72.19
212.409	47.62
212.628	39.42
212.846	-54.78
213.065	66.05
213.283	139.77
213.502	27.14
213.72	72.19
213.938	39.42
214.157	-24.06
214.375	23.04
214.594	-42.5
214.812	74.24
215.031	-28.16
215.249	10.75
215.467	33.28
215.686	27.14
215.904	96.77
216.122	66.05
216.341	104.96
216.559	82.43
216.778	82.43
216.996	47.62
217.214	-22.02
217.432	33.28
217.651	16.9
217.869	53.76
218.087	31.23
218.306	16.9
218.524	55.81
218.742	-34.3
218.96	94.72
219.179	49.66
219.397	18.94
219.615	98.81
219.833	23.04
220.051	61.95
220.27	10.75
220.488	66.05
220.706	76.29
220.924	37.38
221.142	31.23
221.36	-34.3
221.578	88.57
221.796	90.62
222.015	33.28
222.233	20.99
222.451	47.62
222.669	55.81
222.887	-28.16
223.105	33.28
223.323	8.7
223.541	23.04
223.759	68.09
223.977	47.62
224.195	49.66
224.413	127.49
224.631	49.66
224.849	80.38
225.067	76.29
225.285	16.9
225.503	68.09
225.721	-24.06
225.939	41.47
226.157	49.66
226.375	129.53
226.592	-26.11
226.81	4.61
227.028	115.2
227.246	158.21
227.464	12.8
227.682	47.62
227.9	109.05
228.117	43.52
228.335	14.85
228.553	47.62
228.771	-36.35
228.989	47.62
229.206	55.81
229.424	4.61
229.642	59.9
229.86	-50.69
230.077	51.71
230.295	31.23
230.513	55.81
230.731	6.66
230.948	119.29
231.166	139.77
231.384	-26.11
231.601	-24.06
231.819	94.72
232.037	45.57
232.254	27.14
232.472	-42.5
232.689	47.62
232.907	113.15
233.125	39.42
233.342	2.56
233.56	41.47
233.777	-1.54
233.995	61.95
234.213	82.43
234.43	39.42
234.648	-40.45
234.865	45.57
235.083	51.71
235.3	53.76
235.518	57.86
235.735	68.09
235.953	51.71
236.17	16.9
236.388	92.67
236.605	64
236.822	145.92
237.04	90.62
237.257	-7.68
237.475	-1.54
237.692	64
237.909	117.25
238.127	45.57
238.344	33.28
238.562	53.76
238.779	-7.68
238.996	31.23
239.214	16.9
239.431	29.18
239.648	39.42
239.865	14.85
240.083	37.38
240.3	41.47
240.517	39.42
240.735	68.09
240.952	33.28
241.169	150.01
241.386	37.38
241.603	49.66
241.821	59.9
242.038	41.47
242.255	66.05
242.472	20.99
242.689	74.24
242.907	43.52
243.124	8.7
243.341	51.71
243.558	29.18
243.775	-24.06
243.992	4.61
244.209	29.18
244.426	104.96
244.643	49.66
244.86	31.23
245.078	27.14
245.295	43.52
245.512	59.9
245.729	-48.64
245.946	27.14
246.163	23.04
246.38	96.77
246.597	92.67
246.814	47.62
247.031	100.86
247.248	47.62
247.464	72.19
247.681	61.95
247.898	80.38
248.115	39.42
248.332	55.81
248.549	53.76
248.766	131.58
248.983	88.57
249.2	12.8
249.417	45.57
249.633	39.42
249.85	10.75
250.067	94.72
250.284	55.81
250.501	123.39
250.717	43.52
250.934	6.66
251.151	16.9
251.368	84.48
251.585	98.81
251.801	16.9
252.018	51.71
252.235	57.86
252.451	-7.68
252.668	16.9
252.885	84.48
253.102	-42.5
253.318	12.8
253.535	53.76
253.752	37.38
253.968	-3.58
254.185	4.61
254.401	39.42
254.618	23.04
254.835	12.8
255.051	51.71
255.268	66.05
255.484	6.66
255.701	92.67
255.917	55.81
256.134	2.56
256.351	76.29
256.567	39.42
256.784	27.14
257	-36.35
257.217	-9.73
257.433	25.09
257.65	10.75
257.866	92.67
258.082	-42.5
258.299	29.18
258.515	135.68
258.732	25.09
258.948	27.14
259.165	29.18
259.381	23.04
259.597	84.48
259.814	90.62
260.03	59.9
260.246	-73.21
260.463	107.01
260.679	80.38
260.895	59.9
261.112	41.47
261.328	14.85
261.544	55.81
261.761	119.29
261.977	88.57
262.193	51.71
262.409	29.18
262.626	6.66
262.842	14.85
263.058	-1.54
263.274	-17.92
263.49	20.99
263.707	72.19
263.923	43.52
264.139	-9.73
264.355	18.94
264.571	25.09
264.787	-9.73
265.004	104.96
265.22	31.23
265.436	57.86
265.652	47.62
265.868	64
266.084	-83.45
266.3	25.09
266.516	-1.54
266.732	94.72
266.948	43.52
267.164	80.38
267.38	41.47
267.596	47.62
267.812	121.34
268.028	72.19
268.244	6.66
268.46	55.81
268.676	18.94
268.892	80.38
269.108	8.7
269.324	23.04
269.54	45.57
269.756	39.42
269.972	-50.69
270.188	-24.06
270.403	80.38
270.619	-24.06
270.835	66.05
271.051	-5.63
271.267	37.38
271.483	-1.54
271.698	129.53
271.914	66.05
272.13	-17.92
272.346	84.48
272.562	-48.64
272.777	123.39
272.993	-42.5
273.209	23.04
273.425	16.9
273.64	0.51
273.856	-3.58
274.072	8.7
274.287	18.94
274.503	66.05
274.719	39.42
274.934	88.57
275.15	-24.06
275.366	64
275.581	-34.3
275.797	107.01
276.012	8.7
276.228	0.51
276.444	68.09
276.659	39.42
276.875	-1.54
277.09	35.33
277.306	-11.78
277.521	53.76
277.737	80.38
277.952	137.73
278.168	82.43
278.383	18.94
278.599	104.96
278.814	98.81
279.03	27.14
279.245	104.96
279.461	51.71
279.676	33.28
279.892	-52.74
280.107	64
280.322	53.76
280.538	20.99
280.753	18.94
280.969	66.05
281.184	115.2
281.399	141.82
281.615	41.47
281.83	82.43
282.045	-26.11
282.26	43.52
282.476	70.14
282.691	49.66
282.906	115.2
283.122	-36.35
283.337	16.9
283.552	72.19
283.767	18.94
283.983	47.62
284.198	20.99
284.413	205.31
284.628	29.18
284.843	123.39
285.058	84.48
285.274	-1.54
285.489	-32.26
285.704	68.09
285.919	-9.73
286.134	47.62
286.349	76.29
286.564	14.85
286.779	100.86
286.995	47.62
287.21	98.81
287.425	31.23
287.64	55.81
287.855	55.81
288.07	45.57
288.285	-7.68
288.5	61.95
288.715	66.05
288.93	20.99
289.145	-5.63
289.36	86.53
289.575	-15.87
289.79	35.33
290.004	25.09
290.219	82.43
290.434	59.9
290.649	2.56
290.864	23.04
291.079	12.8
291.294	111.1
291.509	139.77
291.724	33.28
291.938	-30.21
292.153	102.91
292.368	23.04
292.583	82.43
292.798	35.33
293.012	68.09
293.227	41.47
293.442	-44.54
293.657	109.05
293.871	156.16
294.086	31.23
294.301	80.38
294.516	16.9
294.73	-13.82
294.945	18.94
295.16	55.81
295.374	64
295.589	33.28
295.804	25.09
296.018	10.75
296.233	109.05
296.447	0.51
296.662	27.14
296.877	10.75
297.091	80.38
297.306	33.28
297.52	51.71
297.735	80.38
297.949	57.86
298.164	-32.26
298.378	8.7
298.593	51.71
298.807	59.9
299.022	25.09
299.236	57.86
299.451	76.29
299.665	66.05
299.88	23.04
300.094	98.81
300.309	0.51
300.523	102.91
300.737	-54.78
300.952	72.19
301.166	123.39
301.381	35.33
301.595	16.9
301.809	33.28
302.024	51.71
302.238	-1.54
302.452	49.66
302.667	55.81
302.881	137.73
303.095	70.14
303.309	14.85
303.524	-17.92
303.738	-9.73
303.952	20.99
304.166	6.66
304.381	-46.59
304.595	47.62
304.809	51.71
305.023	55.81
305.237	-36.35
305.452	25.09
305.666	182.78
305.88	31.23
306.094	47.62
306.308	61.95
306.522	23.04
306.736	107.01
306.95	-36.35
307.164	137.73
307.379	96.77
307.593	57.86
307.807	98.81
308.021	-5.63
308.235	74.24
308.449	33.28
308.663	35.33
308.877	92.67
309.091	12.8
309.305	55.81
309.519	-40.45
309.733	68.09
309.947	-9.73
310.161	49.66
310.374	35.33
310.588	98.81
310.802	14.85
311.016	23.04
311.23	-5.63
311.444	-17.92
311.658	-65.02
311.872	47.62
312.085	102.91
312.299	145.92
312.513	94.72
312.727	51.71
312.941	43.52
313.154	86.53
313.368	55.81
313.582	39.42
313.796	10.75
314.009	88.57
314.223	76.29
314.437	100.86
314.651	49.66
314.864	-34.3
315.078	55.81
315.292	-22.02
315.505	55.81
315.719	8.7
315.933	8.7
316.146	0.51
316.36	74.24
316.573	10.75
316.787	166.4
317.001	156.16
317.214	-36.35
317.428	33.28
317.641	20.99
317.855	43.52
318.068	55.81
318.282	74.24
318.495	137.73
318.709	-5.63
318.922	51.71
319.136	117.25
319.349	129.53
319.563	31.23
319.776	29.18
319.99	6.66
320.203	23.04
320.417	-7.68
320.63	82.43
320.843	45.57
321.057	45.57
321.27	82.43
321.483	59.9
321.697	55.81
321.91	33.28
322.124	49.66
322.337	-75.26
322.55	39.42
322.763	2.56
322.977	109.05
323.19	39.42
323.403	-9.73
323.617	76.29
323.83	49.66
324.043	2.56
324.256	72.19
324.469	0.51
324.683	90.62
324.896	29.18
325.109	84.48
325.322	41.47
325.535	55.81
325.748	59.9
325.962	-60.93
326.175	59.9
326.388	121.34
326.601	94.72
326.814	123.39
327.027	43.52
327.24	18.94
327.453	-5.63
327.666	82.43
327.879	102.91
328.092	47.62
328.305	123.39
328.518	-3.58
328.731	18.94
328.944	84.48
329.157	25.09
329.37	129.53
329.583	82.43
329.796	100.86
330.009	0.51
330.222	61.95
330.435	37.38
330.648	25.09
330.861	33.28
331.073	31.23
331.286	100.86
331.499	45.57
331.712	76.29
331.925	16.9
332.138	-19.97
332.35	115.2
332.563	18.94
332.776	90.62
332.989	39.42
333.202	16.9
333.414	25.09
333.627	33.28
333.84	61.95
334.053	78.33
334.265	-24.06
334.478	31.23
334.691	-5.63
334.903	39.42
335.116	20.99
335.329	-13.82
335.541	27.14
335.754	168.45
335.966	8.7
336.179	31.23
336.392	33.28
336.604	72.19
336.817	23.04
337.029	23.04
337.242	33.28
337.454	51.71
337.667	78.33
337.88	190.97
338.092	31.23
338.305	78.33
338.517	31.23
338.729	133.63
338.942	107.01
339.154	-75.26
339.367	27.14
339.579	68.09
339.792	20.99
340.004	68.09
340.217	55.81
340.429	84.48
340.641	33.28
340.854	104.96
341.066	45.57
341.278	39.42
341.491	72.19
341.703	66.05
341.915	18.94
342.128	64
342.34	41.47
342.552	29.18
342.764	31.23
342.977	35.33
343.189	31.23
343.401	53.76
343.613	51.71
343.826	31.23
344.038	-38.4
344.25	90.62
344.462	20.99
344.674	135.68
344.886	29.18
345.099	80.38
345.311	55.81
345.523	16.9
345.735	-13.82
345.947	51.71
346.159	45.57
346.371	6.66
346.583	100.86
346.795	100.86
347.007	45.57
347.219	72.19
347.431	84.48
347.643	94.72
347.855	14.85
348.067	61.95
348.279	74.24
348.491	51.71
348.703	-1.54
348.915	-54.78
349.127	-17.92
349.339	88.57
349.551	14.85
349.763	39.42
349.975	82.43
350.187	147.97
350.399	123.39
350.61	61.95
350.822	78.33
351.034	68.09
351.246	35.33
351.458	113.15
351.669	37.38
351.881	-11.78
352.093	55.81
352.305	47.62
352.517	76.29
352.728	84.48
352.94	39.42
353.152	104.96
353.363	66.05
353.575	39.42
353.787	115.2
353.999	-15.87
354.21	53.76
354.422	16.9
354.633	16.9
354.845	74.24
355.057	-7.68
355.268	61.95
355.48	143.87
355.692	-42.5
355.903	94.72
356.115	-32.26
356.326	-9.73
356.538	109.05
356.749	84.48
356.961	139.77
357.172	53.76
357.384	20.99
357.595	135.68
357.807	74.24
358.018	117.25
358.23	-7.68
358.441	16.9
358.653	84.48
358.864	25.09
359.075	76.29
359.287	51.71
359.498	152.06
359.709	55.81
359.921	113.15
360.132	90.62
360.344	82.43
360.555	59.9
360.766	23.04
360.977	86.53
361.189	82.43
361.4	49.66
361.611	100.86
361.823	111.1
362.034	57.86
362.245	29.18
362.456	70.14
362.667	53.76
362.879	31.23
363.09	6.66
363.301	31.23
363.512	70.14
363.723	6.66
363.935	49.66
364.146	53.76
364.357	41.47
364.568	76.29
364.779	-15.87
364.99	-15.87
365.201	25.09
365.412	147.97
365.623	-56.83
365.834	16.9
366.045	41.47
366.256	70.14
366.467	49.66
366.678	47.62
366.889	8.7
367.1	-3.58
367.311	109.05
367.522	57.86
367.733	121.34
367.944	25.09
368.155	35.33
368.366	43.52
368.577	186.88
368.788	107.01
368.999	102.91
369.209	29.18
369.42	88.57
369.631	154.11
369.842	31.23
370.053	41.47
370.264	107.01
370.474	39.42
370.685	121.34
370.896	107.01
371.107	84.48
371.317	23.04
371.528	0.51
371.739	104.96
371.95	25.09
372.16	123.39
372.371	94.72
372.582	0.51
372.792	70.14
373.003	61.95
373.214	139.77
373.424	35.33
373.635	78.33
373.846	141.82
374.056	143.87
374.267	74.24
374.477	64
374.688	41.47
374.898	158.21
375.109	55.81
375.319	49.66
375.53	109.05
375.74	53.76
375.951	74.24
376.161	57.86
376.372	96.77
376.582	47.62
376.793	43.52
377.003	72.19
377.214	37.38
377.424	-1.54
377.635	-7.68
377.845	20.99
378.055	113.15
378.266	78.33
378.476	59.9
378.686	88.57
378.897	176.64
379.107	121.34
379.317	25.09
379.528	-1.54
379.738	137.73
379.948	23.04
380.158	59.9
380.369	2.56
380.579	74.24
380.789	88.57
380.999	94.72
381.21	168.45
381.42	123.39
381.63	66.05
381.84	57.86
382.05	115.2
382.261	74.24
382.471	115.2
382.681	55.81
382.891	170.49
383.101	59.9
383.311	68.09
383.521	-7.68
383.731	102.91
383.941	86.53
384.151	107.01
384.361	107.01
384.571	107.01
384.781	90.62
384.991	154.11
385.201	158.21
385.411	39.42
385.621	88.57
385.831	109.05
386.041	-15.87
386.251	14.85
386.461	129.53
386.671	72.19
386.881	64
387.091	80.38
387.301	147.97
387.511	94.72
387.72	107.01
387.93	57.86
388.14	-97.79
388.35	-1.54
388.56	145.92
388.769	147.97
388.979	86.53
389.189	33.28
389.399	147.97
389.609	57.86
389.818	141.82
390.028	84.48
390.238	109.05
390.447	66.05
390.657	115.2
390.867	113.15
391.076	-22.02
391.286	45.57
391.496	84.48
391.705	59.9
391.915	80.38
392.125	84.48
392.334	33.28
392.544	47.62
392.753	80.38
392.963	-5.63
393.172	72.19
393.382	115.2
393.591	129.53
393.801	90.62
394.01	133.63
394.22	129.53
394.429	121.34
394.639	59.9
394.848	152.06
395.058	23.04
395.267	45.57
395.477	72.19
395.686	107.01
395.895	246.27
396.105	201.21
396.314	127.49
396.524	66.05
396.733	90.62
396.942	123.39
397.152	156.16
397.361	137.73
397.57	98.81
397.78	158.21
397.989	135.68
398.198	195.07
398.407	121.34
398.617	182.78
398.826	104.96
399.035	178.69
399.244	174.59
399.453	168.45
399.663	233.98
399.872	154.11
400.081	92.67
400.29	150.01
400.499	145.92
400.708	176.64
400.917	100.86
401.127	158.21
401.336	88.57
401.545	246.27
401.754	164.35
401.963	135.68
402.172	119.29
402.381	129.53
402.59	80.38
402.799	129.53
403.008	195.07
403.217	180.73
403.426	164.35
403.635	174.59
403.844	186.88
404.053	178.69
404.262	115.2
404.471	188.93
404.68	227.84
404.888	174.59
405.097	172.54
405.306	145.92
405.515	188.93
405.724	215.55
405.933	283.13
406.142	197.12
406.35	203.26
406.559	266.75
406.768	287.23
406.977	207.36
407.185	201.21
407.394	225.79
407.603	154.11
407.812	180.73
408.02	367.1
408.229	236.03
408.438	297.47
408.646	293.37
408.855	209.4
409.064	293.37
409.272	320
409.481	322.04
409.69	330.23
409.898	322.04
410.107	371.19
410.315	479.74
410.524	285.18
410.733	557.56
410.941	377.34
411.15	547.32
411.358	504.31
411.567	522.74
411.775	451.07
411.984	532.98
412.192	535.03
412.401	573.94
412.609	535.03
412.818	688.63
413.026	569.85
413.234	602.61
413.443	629.24
413.651	680.44
413.86	705.01
414.068	758.26
414.276	872.95
414.485	655.86
414.693	739.83
414.901	899.57
415.11	938.48
415.318	891.38
415.526	788.98
415.734	944.63
415.943	963.06
416.151	1028.59
416.359	924.15
416.567	1063.41
416.776	1114.61
416.984	1147.37
417.192	1235.44
417.4	1161.71
417.608	1196.53
417.817	1143.28
418.025	1300.97
418.233	1513.96
418.441	1321.45
418.649	1509.86
418.857	1546.73
419.065	1604.07
419.273	1628.65
419.481	1733.09
419.689	1782.24
419.897	1757.67
420.105	1788.39
420.313	1915.36
420.521	1948.13
420.729	2005.47
420.937	2085.34
421.145	2267.61
421.353	2236.89
421.561	2476.51
421.769	2359.77
421.977	2517.47
422.185	2464.22
422.393	2720.21
422.601	2660.82
422.809	2787.8
423.017	2795.99
423.224	2912.72
423.432	2986.45
423.64	3158.48
423.848	3385.8
424.056	3123.66
424.263	3516.87
424.471	3443.15
424.679	3455.44
424.887	3774.92
425.094	3836.36
425.302	3989.96
425.51	4055.49
425.718	4221.38
425.925	4204.99
426.133	4182.46
426.341	4573.63
426.548	4784.57
426.756	4630.97
426.964	4803
427.171	5132.72
427.379	5202.35
427.586	5351.85
427.794	5585.32
428.001	5874.09
428.209	5988.77
428.417	5908.9
428.624	6355.36
428.832	6363.55
429.039	6373.79
429.247	6367.65
429.454	6961.56
429.662	7414.16
429.869	6982.04
430.076	7610.76
430.284	7342.48
430.491	7594.38
430.699	7936.39
430.906	8083.84
431.114	8133
431.321	8587.64
431.528	8606.08
431.736	9064.82
431.943	9462.13
432.15	9195.89
432.358	9433.46
432.565	9869.67
432.772	9783.66
432.979	10238.31
433.187	10508.64
433.394	10473.82
433.601	11168.09
433.808	11364.69
434.016	11057.5
434.223	12061
434.43	12423.49
434.637	12073.29
434.844	12937.53
435.052	13162.81
435.259	12998.97
435.466	13138.23
435.673	13142.33
435.88	13746.48
436.087	14612.77
436.294	14598.43
436.501	14471.46
436.708	14489.89
436.915	14944.54
437.122	15882.51
437.329	15694.1
437.537	16374.02
437.743	16797.95
437.95	16498.95
438.157	17225.98
438.364	17774.83
438.571	17744.11
438.778	17660.15
438.985	19790.03
439.192	18981.09
439.399	19448.02
439.606	19030.24
439.813	20224.2
440.02	21383.35
440.227	20936.9
440.433	20664.52
440.64	21696.69
440.847	21315.77
441.054	21924.02
441.261	23216.29
441.467	23146.65
441.674	23617.69
441.881	24268.94
442.088	23908.5
442.294	24322.19
442.501	24608.9
442.708	25276.54
442.914	25899.12
443.121	27215.97
443.328	26204.27
443.534	28467.28
443.741	28041.3
443.948	27261.02
444.154	29679.68
444.361	29263.94
444.568	29182.02
444.774	29405.25
444.981	29712.44
445.187	30603.31
445.394	31475.74
445.6	31555.61
445.807	34138.1
446.013	32673.81
446.22	33339.4
446.426	34965.48
446.633	34858.99
446.839	36261.85
447.046	34627.57
447.252	36714.45
447.459	36796.37
447.665	36734.93
447.871	38313.91
448.078	40073.12
448.284	37799.87
448.491	39036.84
448.697	40597.4
448.903	41426.82
449.11	41303.95
449.316	40759.19
449.522	41711.49
449.728	42342.27
449.935	43024.24
450.141	42966.9
450.347	44058.46
450.553	42497.91
450.76	43439.98
450.966	44719.96
451.172	44322.65
451.378	45489.99
451.584	44521.3
451.791	45590.34
451.997	45467.47
452.203	46108.48
452.409	46409.53
452.615	46057.28
452.821	44343.13
453.027	44023.65
453.233	46030.66
453.44	44142.43
453.646	44945.23
453.852	45184.85
454.058	45672.26
454.264	43927.39
454.47	45289.29
454.676	44027.74
454.882	46309.18
455.088	41797.51
455.294	42442.62
455.5	43110.25
455.705	43454.31
455.911	41699.2
456.117	41383.82
456.323	40667.03
456.529	38825.9
456.735	40050.59
456.941	38989.74
457.147	38055.87
457.352	37906.37
457.558	36939.72
457.764	36894.67
457.97	36311
458.176	35395.56
458.381	35577.83
458.587	33746.94
458.793	33994.75
458.999	32167.96
459.204	34545.65
459.41	33261.57
459.616	31268.9
459.821	31279.14
460.027	31154.21
460.233	30634.03
460.438	28840.01
460.644	29515.84
460.85	27947.09
461.055	27750.49
461.261	27674.71
461.466	25219.2
461.672	24637.58
461.878	26628.2
462.083	24649.86
462.289	24139.92
462.494	24131.73
462.7	22763.68
462.905	22442.15
463.111	23230.62
463.316	23013.54
463.522	22702.25
463.727	22915.23
463.932	22515.88
464.138	22460.59
464.343	22718.63
464.549	21833.91
464.754	22761.64
464.959	22382.76
465.165	21862.58
465.37	20895.94
465.575	20668.61
465.781	21551.29
465.986	21684.41
466.191	20887.75
466.397	20484.3
466.602	19493.08
