Data from USB4F104151__79__13-06-08-439.txt Node

Date: Fri Mar 14 13:06:08 EDT 2025
User: louis
Spectrometer: USB4F10415
Trigger mode: 4
Integration Time (sec): 4.000000E-2
Scans to average: 1
Electric dark correction enabled: true
Nonlinearity correction enabled: false
Boxcar width: 0
XAxis mode: Wavelengths
Number of Pixels in Spectrum: 3648
>>>>>Begin Spectral Data<<<<<
178.204	-156.67
178.424	-156.67
178.644	-156.67
178.864	-150.53
179.084	-183.29
179.304	-21.5
179.524	-15.36
179.744	78.85
179.964	11.26
180.184	-1.02
180.404	-41.98
180.624	27.65
180.844	-7.17
181.064	-41.98
181.283	1.02
181.503	23.55
181.723	-13.31
181.943	-74.75
182.163	150.53
182.383	44.03
182.602	37.89
182.822	68.61
183.042	70.65
183.262	17.41
183.482	62.46
183.701	48.13
183.921	41.98
184.141	-3.07
184.361	76.8
184.58	121.85
184.8	41.98
185.02	54.27
185.239	123.9
185.459	-9.22
185.679	5.12
185.898	-74.75
186.118	64.51
186.338	23.55
186.557	68.61
186.777	-23.55
186.997	31.74
187.216	25.6
187.436	115.71
187.655	78.85
187.875	91.13
188.095	19.46
188.314	97.28
188.534	119.81
188.753	29.7
188.973	9.22
189.192	50.18
189.412	21.5
189.631	31.74
189.851	76.8
190.07	87.04
190.29	-50.18
190.509	91.13
190.729	46.08
190.948	146.43
191.168	228.35
191.387	17.41
191.607	56.32
191.826	66.56
192.045	74.75
192.265	-7.17
192.484	7.17
192.704	72.7
192.923	-21.5
193.142	179.2
193.362	68.61
193.581	138.24
193.8	66.56
194.02	19.46
194.239	54.27
194.458	97.28
194.678	3.07
194.897	-7.17
195.116	48.13
195.335	-5.12
195.555	56.32
195.774	33.79
195.993	89.09
196.212	23.55
196.432	41.98
196.651	39.94
196.87	103.42
197.089	177.15
197.308	72.7
197.528	23.55
197.747	-37.89
197.966	-19.46
198.185	60.42
198.404	27.65
198.623	84.99
198.842	66.56
199.062	121.85
199.281	132.09
199.5	7.17
199.719	7.17
199.938	123.9
200.157	78.85
200.376	91.13
200.595	39.94
200.814	107.52
201.033	21.5
201.252	115.71
201.471	56.32
201.69	144.38
201.909	48.13
202.128	39.94
202.347	33.79
202.566	68.61
202.785	-5.12
203.004	1.02
203.223	119.81
203.442	91.13
203.661	72.7
203.879	33.79
204.098	113.66
204.317	17.41
204.536	142.33
204.755	39.94
204.974	80.89
205.193	19.46
205.411	150.53
205.63	158.72
205.849	50.18
206.068	-54.27
206.287	15.36
206.505	-25.6
206.724	-87.04
206.943	48.13
207.162	62.46
207.381	29.7
207.599	33.79
207.818	97.28
208.037	-1.02
208.255	9.22
208.474	27.65
208.693	93.18
208.911	58.37
209.13	84.99
209.349	84.99
209.567	95.23
209.786	80.89
210.005	123.9
210.223	11.26
210.442	31.74
210.661	136.19
210.879	115.71
211.098	82.94
211.316	41.98
211.535	66.56
211.753	74.75
211.972	25.6
212.191	35.84
212.409	80.89
212.628	82.94
212.846	17.41
213.065	121.85
213.283	46.08
213.502	3.07
213.72	66.56
213.938	121.85
214.157	82.94
214.375	101.37
214.594	19.46
214.812	60.42
215.031	50.18
215.249	-9.22
215.467	1.02
215.686	74.75
215.904	160.77
216.122	9.22
216.341	70.65
216.559	78.85
216.778	113.66
216.996	50.18
217.214	-41.98
217.432	-7.17
217.651	64.51
217.869	33.79
218.087	31.74
218.306	27.65
218.524	74.75
218.742	17.41
218.96	50.18
219.179	64.51
219.397	37.89
219.615	82.94
219.833	76.8
220.051	1.02
220.27	132.09
220.488	50.18
220.706	76.8
220.924	-21.5
221.142	-9.22
221.36	64.51
221.578	23.55
221.796	58.37
222.015	37.89
222.233	46.08
222.451	142.33
222.669	41.98
222.887	64.51
223.105	-13.31
223.323	21.5
223.541	-41.98
223.759	60.42
223.977	78.85
224.195	134.14
224.413	72.7
224.631	89.09
224.849	70.65
225.067	183.29
225.285	41.98
225.503	52.22
225.721	27.65
225.939	58.37
226.157	41.98
226.375	144.38
226.592	9.22
226.81	72.7
227.028	89.09
227.246	89.09
227.464	15.36
227.682	89.09
227.9	146.43
228.117	82.94
228.335	64.51
228.553	105.47
228.771	121.85
228.989	101.37
229.206	64.51
229.424	29.7
229.642	84.99
229.86	-52.22
230.077	76.8
230.295	48.13
230.513	33.79
230.731	148.48
230.948	107.52
231.166	39.94
231.384	-3.07
231.601	-99.33
231.819	144.38
232.037	78.85
232.254	41.98
232.472	-7.17
232.689	-1.02
232.907	62.46
233.125	-17.41
233.342	-41.98
233.56	54.27
233.777	-21.5
233.995	-1.02
234.213	148.48
234.43	107.52
234.648	74.75
234.865	103.42
235.083	66.56
235.3	44.03
235.518	109.57
235.735	70.65
235.953	148.48
236.17	113.66
236.388	35.84
236.605	1.02
236.822	113.66
237.04	99.33
237.257	44.03
237.475	39.94
237.692	27.65
237.909	19.46
238.127	19.46
238.344	103.42
238.562	103.42
238.779	-39.94
238.996	1.02
239.214	54.27
239.431	56.32
239.648	19.46
239.865	64.51
240.083	113.66
240.3	101.37
240.517	74.75
240.735	48.13
240.952	130.05
241.169	109.57
241.386	87.04
241.603	-41.98
241.821	7.17
242.038	50.18
242.255	82.94
242.472	-5.12
242.689	103.42
242.907	95.23
243.124	105.47
243.341	23.55
243.558	-17.41
243.775	33.79
243.992	-68.61
244.209	76.8
244.426	82.94
244.643	13.31
244.86	25.6
245.078	44.03
245.295	64.51
245.512	60.42
245.729	-17.41
245.946	123.9
246.163	64.51
246.38	35.84
246.597	103.42
246.814	46.08
247.031	-21.5
247.248	136.19
247.464	70.65
247.681	11.26
247.898	-15.36
248.115	166.91
248.332	-25.6
248.549	105.47
248.766	187.39
248.983	107.52
249.2	130.05
249.417	76.8
249.633	23.55
249.85	125.95
250.067	72.7
250.284	109.57
250.501	58.37
250.717	95.23
250.934	-35.84
251.151	31.74
251.368	-29.7
251.585	31.74
251.801	35.84
252.018	41.98
252.235	97.28
252.451	7.17
252.668	13.31
252.885	95.23
253.102	-31.74
253.318	52.22
253.535	-17.41
253.752	44.03
253.968	89.09
254.185	3.07
254.401	89.09
254.618	9.22
254.835	58.37
255.051	146.43
255.268	89.09
255.484	52.22
255.701	87.04
255.917	89.09
256.134	15.36
256.351	21.5
256.567	-25.6
256.784	46.08
257	80.89
257.217	66.56
257.433	89.09
257.65	-15.36
257.866	11.26
258.082	15.36
258.299	9.22
258.515	109.57
258.732	31.74
258.948	99.33
259.165	70.65
259.381	-1.02
259.597	27.65
259.814	52.22
260.03	35.84
260.246	33.79
260.463	39.94
260.679	138.24
260.895	68.61
261.112	46.08
261.328	132.09
261.544	64.51
261.761	132.09
261.977	-44.03
262.193	54.27
262.409	91.13
262.626	70.65
262.842	-17.41
263.058	46.08
263.274	74.75
263.49	52.22
263.707	132.09
263.923	82.94
264.139	-23.55
264.355	-23.55
264.571	130.05
264.787	44.03
265.004	134.14
265.22	39.94
265.436	15.36
265.652	1.02
265.868	82.94
266.084	-5.12
266.3	39.94
266.516	3.07
266.732	62.46
266.948	9.22
267.164	31.74
267.38	35.84
267.596	173.05
267.812	111.61
268.028	21.5
268.244	46.08
268.46	37.89
268.676	66.56
268.892	121.85
269.108	72.7
269.324	-5.12
269.54	66.56
269.756	66.56
269.972	-17.41
270.188	3.07
270.403	64.51
270.619	44.03
270.835	60.42
271.051	19.46
271.267	25.6
271.483	64.51
271.698	80.89
271.914	64.51
272.13	89.09
272.346	64.51
272.562	78.85
272.777	130.05
272.993	31.74
273.209	3.07
273.425	1.02
273.64	39.94
273.856	146.43
274.072	66.56
274.287	-7.17
274.503	56.32
274.719	103.42
274.934	-1.02
275.15	62.46
275.366	-58.37
275.581	-17.41
275.797	74.75
276.012	52.22
276.228	50.18
276.444	19.46
276.659	119.81
276.875	-11.26
277.09	39.94
277.306	3.07
277.521	33.79
277.737	37.89
277.952	103.42
278.168	58.37
278.383	121.85
278.599	37.89
278.814	-3.07
279.03	62.46
279.245	62.46
279.461	70.65
279.676	93.18
279.892	15.36
280.107	33.79
280.322	15.36
280.538	27.65
280.753	54.27
280.969	41.98
281.184	27.65
281.399	123.9
281.615	35.84
281.83	17.41
282.045	7.17
282.26	-25.6
282.476	56.32
282.691	64.51
282.906	132.09
283.122	48.13
283.337	9.22
283.552	95.23
283.767	13.31
283.983	44.03
284.198	89.09
284.413	46.08
284.628	74.75
284.843	15.36
285.058	111.61
285.274	44.03
285.489	-9.22
285.704	74.75
285.919	21.5
286.134	48.13
286.349	-15.36
286.564	52.22
286.779	97.28
286.995	91.13
287.21	27.65
287.425	76.8
287.64	27.65
287.855	125.95
288.07	31.74
288.285	82.94
288.5	97.28
288.715	56.32
288.93	31.74
289.145	-1.02
289.36	93.18
289.575	109.57
289.79	101.37
290.004	115.71
290.219	166.91
290.434	31.74
290.649	74.75
290.864	46.08
291.079	46.08
291.294	39.94
291.509	23.55
291.724	54.27
291.938	3.07
292.153	107.52
292.368	9.22
292.583	121.85
292.798	121.85
293.012	-9.22
293.227	35.84
293.442	82.94
293.657	50.18
293.871	80.89
294.086	56.32
294.301	130.05
294.516	138.24
294.73	150.53
294.945	3.07
295.16	97.28
295.374	72.7
295.589	52.22
295.804	35.84
296.018	60.42
296.233	123.9
296.447	82.94
296.662	-91.13
296.877	15.36
297.091	93.18
297.306	25.6
297.52	33.79
297.735	15.36
297.949	82.94
298.164	113.66
298.378	74.75
298.593	-7.17
298.807	91.13
299.022	99.33
299.236	54.27
299.451	11.26
299.665	72.7
299.88	19.46
300.094	82.94
300.309	68.61
300.523	56.32
300.737	39.94
300.952	-50.18
301.166	50.18
301.381	27.65
301.595	7.17
301.809	74.75
302.024	74.75
302.238	-11.26
302.452	125.95
302.667	72.7
302.881	93.18
303.095	64.51
303.309	58.37
303.524	35.84
303.738	72.7
303.952	31.74
304.166	68.61
304.381	-70.65
304.595	68.61
304.809	31.74
305.023	105.47
305.237	27.65
305.452	80.89
305.666	103.42
305.88	70.65
306.094	140.29
306.308	70.65
306.522	64.51
306.736	33.79
306.95	93.18
307.164	82.94
307.379	3.07
307.593	70.65
307.807	58.37
308.021	121.85
308.235	44.03
308.449	-27.65
308.663	33.79
308.877	130.05
309.091	60.42
309.305	117.76
309.519	-74.75
309.733	121.85
309.947	-15.36
310.161	128
310.374	107.52
310.588	33.79
310.802	50.18
311.016	23.55
311.23	93.18
311.444	44.03
311.658	50.18
311.872	97.28
312.085	87.04
312.299	56.32
312.513	66.56
312.727	9.22
312.941	-9.22
313.154	60.42
313.368	72.7
313.582	91.13
313.796	60.42
314.009	64.51
314.223	31.74
314.437	74.75
314.651	134.14
314.864	80.89
315.078	60.42
315.292	93.18
315.505	35.84
315.719	105.47
315.933	95.23
316.146	-15.36
316.36	11.26
316.573	54.27
316.787	68.61
317.001	27.65
317.214	25.6
317.428	128
317.641	-13.31
317.855	107.52
318.068	-11.26
318.282	48.13
318.495	128
318.709	128
318.922	21.5
319.136	121.85
319.349	82.94
319.563	76.8
319.776	66.56
319.99	15.36
320.203	130.05
320.417	89.09
320.63	97.28
320.843	121.85
321.057	58.37
321.27	17.41
321.483	64.51
321.697	107.52
321.91	76.8
322.124	82.94
322.337	99.33
322.55	-19.46
322.763	82.94
322.977	130.05
323.19	74.75
323.403	13.31
323.617	52.22
323.83	140.29
324.043	62.46
324.256	76.8
324.469	19.46
324.683	74.75
324.896	39.94
325.109	76.8
325.322	1.02
325.535	35.84
325.748	109.57
325.962	-5.12
326.175	78.85
326.388	166.91
326.601	154.62
326.814	97.28
327.027	95.23
327.24	95.23
327.453	-78.85
327.666	80.89
327.879	173.05
328.092	70.65
328.305	166.91
328.518	50.18
328.731	66.56
328.944	82.94
329.157	101.37
329.37	70.65
329.583	80.89
329.796	140.29
330.009	48.13
330.222	166.91
330.435	89.09
330.648	87.04
330.861	91.13
331.073	31.74
331.286	95.23
331.499	27.65
331.712	-7.17
331.925	13.31
332.138	97.28
332.35	64.51
332.563	46.08
332.776	121.85
332.989	-21.5
333.202	46.08
333.414	95.23
333.627	33.79
333.84	134.14
334.053	23.55
334.265	60.42
334.478	19.46
334.691	44.03
334.903	52.22
335.116	37.89
335.329	39.94
335.541	60.42
335.754	160.77
335.966	-9.22
336.179	-7.17
336.392	48.13
336.604	66.56
336.817	115.71
337.029	41.98
337.242	58.37
337.454	74.75
337.667	50.18
337.88	150.53
338.092	80.89
338.305	60.42
338.517	35.84
338.729	74.75
338.942	95.23
339.154	-3.07
339.367	7.17
339.579	97.28
339.792	60.42
340.004	103.42
340.217	35.84
340.429	117.76
340.641	-11.26
340.854	27.65
341.066	11.26
341.278	134.14
341.491	146.43
341.703	25.6
341.915	37.89
342.128	150.53
342.34	76.8
342.552	21.5
342.764	74.75
342.977	-27.65
343.189	54.27
343.401	89.09
343.613	56.32
343.826	70.65
344.038	19.46
344.25	125.95
344.462	84.99
344.674	48.13
344.886	123.9
345.099	17.41
345.311	111.61
345.523	128
345.735	5.12
345.947	25.6
346.159	48.13
346.371	68.61
346.583	80.89
346.795	207.87
347.007	101.37
347.219	82.94
347.431	97.28
347.643	107.52
347.855	87.04
348.067	148.48
348.279	50.18
348.491	97.28
348.703	177.15
348.915	64.51
349.127	68.61
349.339	37.89
349.551	27.65
349.763	80.89
349.975	142.33
350.187	99.33
350.399	115.71
350.61	52.22
350.822	31.74
351.034	87.04
351.246	21.5
351.458	19.46
351.669	123.9
351.881	74.75
352.093	39.94
352.305	107.52
352.517	72.7
352.728	148.48
352.94	72.7
353.152	111.61
353.363	15.36
353.575	31.74
353.787	171.01
353.999	171.01
354.21	66.56
354.422	60.42
354.633	-19.46
354.845	66.56
355.057	93.18
355.268	80.89
355.48	25.6
355.692	72.7
355.903	-50.18
356.115	-25.6
356.326	48.13
356.538	121.85
356.749	82.94
356.961	144.38
357.172	89.09
357.384	74.75
357.595	132.09
357.807	60.42
358.018	109.57
358.23	80.89
358.441	89.09
358.653	89.09
358.864	84.99
359.075	101.37
359.287	62.46
359.498	74.75
359.709	56.32
359.921	54.27
360.132	138.24
360.344	82.94
360.555	82.94
360.766	84.99
360.977	52.22
361.189	109.57
361.4	82.94
361.611	117.76
361.823	168.96
362.034	70.65
362.245	56.32
362.456	113.66
362.667	115.71
362.879	87.04
363.09	62.46
363.301	48.13
363.512	64.51
363.723	82.94
363.935	9.22
364.146	154.62
364.357	15.36
364.568	64.51
364.779	66.56
364.99	107.52
365.201	15.36
365.412	125.95
365.623	-21.5
365.834	84.99
366.045	72.7
366.256	78.85
366.467	74.75
366.678	162.81
366.889	33.79
367.1	64.51
367.311	46.08
367.522	48.13
367.733	101.37
367.944	82.94
368.155	39.94
368.366	84.99
368.577	21.5
368.788	146.43
368.999	46.08
369.209	50.18
369.42	181.25
369.631	203.77
369.842	39.94
370.053	64.51
370.264	91.13
370.474	31.74
370.685	99.33
370.896	29.7
371.107	121.85
371.317	58.37
371.528	23.55
371.739	99.33
371.95	39.94
372.16	107.52
372.371	44.03
372.582	-27.65
372.792	146.43
373.003	31.74
373.214	-7.17
373.424	158.72
373.635	21.5
373.846	130.05
374.056	11.26
374.267	31.74
374.477	68.61
374.688	11.26
374.898	54.27
375.109	68.61
375.319	11.26
375.53	152.57
375.74	82.94
375.951	48.13
376.161	84.99
376.372	171.01
376.582	19.46
376.793	72.7
377.003	54.27
377.214	41.98
377.424	87.04
377.635	99.33
377.845	68.61
378.055	72.7
378.266	31.74
378.476	33.79
378.686	142.33
378.897	115.71
379.107	93.18
379.317	78.85
379.528	121.85
379.738	117.76
379.948	52.22
380.158	87.04
380.369	62.46
380.579	160.77
380.789	39.94
380.999	156.67
381.21	58.37
381.42	74.75
381.63	54.27
381.84	128
382.05	54.27
382.261	87.04
382.471	62.46
382.681	105.47
382.891	156.67
383.101	111.61
383.311	62.46
383.521	115.71
383.731	105.47
383.941	97.28
384.151	99.33
384.361	91.13
384.571	9.22
384.781	35.84
384.991	156.67
385.201	140.29
385.411	76.8
385.621	72.7
385.831	76.8
386.041	50.18
386.251	25.6
386.461	82.94
386.671	162.81
386.881	84.99
387.091	66.56
387.301	123.9
387.511	35.84
387.72	121.85
387.93	103.42
388.14	78.85
388.35	80.89
388.56	154.62
388.769	171.01
388.979	97.28
389.189	41.98
389.399	107.52
389.609	113.66
389.818	121.85
390.028	66.56
390.238	78.85
390.447	33.79
390.657	89.09
390.867	62.46
391.076	158.72
391.286	121.85
391.496	46.08
391.705	58.37
391.915	181.25
392.125	99.33
392.334	39.94
392.544	117.76
392.753	109.57
392.963	-21.5
393.172	48.13
393.382	74.75
393.591	199.68
393.801	56.32
394.01	211.96
394.22	105.47
394.429	64.51
394.639	136.19
394.848	113.66
395.058	119.81
395.267	185.34
395.477	89.09
395.686	91.13
395.895	160.77
396.105	181.25
396.314	97.28
396.524	109.57
396.733	46.08
396.942	154.62
397.152	175.1
397.361	189.44
397.57	132.09
397.78	148.48
397.989	146.43
398.198	259.07
398.407	56.32
398.617	76.8
398.826	76.8
399.035	89.09
399.244	201.72
399.453	91.13
399.663	166.91
399.872	130.05
400.081	117.76
400.29	207.87
400.499	91.13
400.708	179.2
400.917	89.09
401.127	130.05
401.336	39.94
401.545	160.77
401.754	177.15
401.963	130.05
402.172	189.44
402.381	66.56
402.59	197.63
402.799	148.48
403.008	183.29
403.217	150.53
403.426	154.62
403.635	80.89
403.844	177.15
404.053	82.94
404.262	97.28
404.471	248.83
404.68	224.25
404.888	240.64
405.097	121.85
405.306	203.77
405.515	203.77
405.724	158.72
405.933	267.26
406.142	216.06
406.35	246.78
406.559	214.01
406.768	230.4
406.977	338.94
407.185	214.01
407.394	254.97
407.603	152.57
407.812	254.97
408.02	273.4
408.229	291.84
408.438	252.92
408.646	248.83
408.855	228.35
409.064	285.69
409.272	353.27
409.481	353.27
409.69	308.22
409.898	300.03
410.107	361.47
410.315	400.38
410.524	351.23
410.733	293.88
410.941	381.95
411.15	445.43
411.358	398.33
411.567	396.28
411.775	437.24
411.984	519.16
412.192	465.91
412.401	465.91
412.609	519.16
412.818	568.31
413.026	533.5
413.234	494.58
413.443	553.98
413.651	527.35
413.86	650.23
414.068	705.53
414.276	717.81
414.485	715.77
414.693	760.82
414.901	814.07
415.11	750.58
415.318	754.68
415.526	809.97
415.734	840.69
415.943	857.07
416.151	912.37
416.359	932.85
416.567	959.47
416.776	949.23
416.984	973.81
417.192	1158.13
417.4	1041.39
417.608	1047.54
417.817	1063.92
418.025	1156.08
418.233	1315.82
418.441	1131.5
418.649	1328.11
418.857	1430.51
419.065	1496.04
419.273	1291.24
419.481	1461.23
419.689	1553.38
419.897	1571.82
420.105	1526.76
420.313	1670.12
420.521	1788.9
420.729	1827.81
420.937	1858.53
421.145	1856.48
421.353	1965.03
421.561	2055.14
421.769	2182.11
421.977	2104.29
422.185	2137.06
422.393	2225.12
422.601	2436.06
422.809	2417.63
423.017	2499.55
423.224	2493.4
423.432	2698.2
423.64	2704.34
423.848	2943.96
424.056	2843.6
424.263	3079.12
424.471	3062.74
424.679	3195.86
424.887	3312.59
425.094	3357.64
425.302	3408.84
425.51	3566.54
425.718	3802.05
425.925	3697.61
426.133	3826.63
426.341	4086.72
426.548	4318.14
426.756	4203.46
426.964	4459.45
427.171	4424.64
427.379	4555.71
427.586	4846.52
427.794	4725.69
428.001	5211.06
428.209	5385.13
428.417	5311.41
428.624	5579.69
428.832	5551.02
429.039	5618.6
429.247	5659.56
429.454	6153.12
429.662	6470.56
429.869	6167.46
430.076	6509.47
430.284	6359.97
430.491	6671.26
430.699	6921.11
430.906	6998.93
431.114	7093.14
431.321	7275.41
431.528	7496.59
431.736	8117.12
431.943	8291.2
432.15	7949.19
432.358	8323.97
432.565	8747.9
432.772	8534.91
432.979	9044.85
433.187	9233.27
433.394	9184.12
433.601	9991.02
433.808	9939.82
434.016	9708.4
434.223	10251.11
434.43	10799.96
434.637	10472.29
434.844	11301.72
435.052	11494.22
435.259	11623.25
435.466	11682.64
435.673	11502.42
435.88	12294.98
436.087	13042.49
436.294	12823.36
436.501	12667.71
436.708	12847.93
436.915	13382.45
437.122	13974.31
437.329	13921.07
437.537	14320.42
437.743	14578.47
437.95	14535.46
438.157	15141.66
438.364	15622.93
438.571	15420.18
438.778	15872.78
438.985	17208.06
439.192	16534.28
439.399	16970.49
439.606	16755.46
439.813	17490.68
440.02	18662.12
440.227	18547.43
440.433	18356.97
440.64	18936.54
440.847	18854.62
441.054	19145.44
441.261	20378.31
441.467	20134.6
441.674	20474.57
441.881	21287.61
442.088	21287.61
442.294	21170.88
442.501	21840.56
442.708	22287.02
442.914	23055.01
443.121	23857.81
443.328	23276.19
443.534	24951.43
443.741	24031.89
443.948	23816.85
444.154	25901.68
444.361	25651.83
444.568	25842.29
444.774	25776.76
444.981	26032.75
445.187	26899.05
445.394	27910.74
445.6	27720.28
445.807	30337.59
446.013	28820.04
446.22	29346.37
446.426	30628.4
446.633	30921.26
446.839	31681.05
447.046	30900.78
447.252	32279.06
447.459	32471.57
447.665	32449.04
447.871	33683.97
448.078	35254.76
448.284	34017.78
448.491	34793.97
448.697	35629.54
448.903	36518.35
449.11	36743.63
449.316	36176.34
449.522	36497.88
449.728	37593.54
449.935	37892.54
450.141	37372.36
450.347	39074.22
450.553	37870.01
450.76	38066.62
450.966	39549.35
451.172	39127.47
451.378	39991.71
451.584	39000.49
451.791	40227.23
451.997	39741.86
452.203	40976.78
452.409	40837.52
452.615	40636.82
452.821	38848.94
453.027	39000.49
453.233	41081.23
453.44	39522.72
453.646	39346.6
453.852	39811.49
454.058	40118.68
454.264	39139.75
454.47	40372.63
454.676	39057.84
454.882	40708.5
455.088	37091.79
455.294	37523.91
455.5	38119.87
455.705	38658.48
455.911	37132.75
456.117	36207.06
456.323	36141.53
456.529	34314.74
456.735	35748.32
456.941	34550.26
457.147	34216.44
457.352	33225.22
457.558	32717.32
457.764	33006.09
457.97	32186.9
458.176	31201.83
458.381	31590.94
458.587	30151.22
458.793	30278.19
458.999	28375.63
459.204	30394.93
459.41	29364.8
459.616	27452
459.821	27550.3
460.027	27654.75
460.233	26991.2
460.438	25698.94
460.644	26249.84
460.85	24730.25
461.055	24625.8
461.261	24349.32
461.466	22928.03
461.672	21988.02
461.878	23579.29
462.083	22067.89
462.289	21795.51
462.494	21158.59
462.7	20601.54
462.905	19839.7
463.111	20734.66
463.316	20454.09
463.522	20056.78
463.727	20136.65
463.932	20308.68
464.138	19948.24
464.343	19776.21
464.549	19755.73
464.754	20128.46
464.959	19636.95
465.165	19833.55
465.37	18825.95
465.575	18352.87
465.781	19110.62
465.986	19337.94
