Data from USB4F104151__27__13-04-46-648.txt Node

Date: Fri Mar 14 13:04:46 EDT 2025
User: louis
Spectrometer: USB4F10415
Trigger mode: 4
Integration Time (sec): 4.000000E-2
Scans to average: 1
Electric dark correction enabled: true
Nonlinearity correction enabled: false
Boxcar width: 0
XAxis mode: Wavelengths
Number of Pixels in Spectrum: 3648
>>>>>Begin Spectral Data<<<<<
178.204	-169.64
178.424	-169.64
178.644	-169.64
178.864	-247.46
179.084	-218.79
179.304	-18.09
179.524	14.68
179.744	10.58
179.964	-46.76
180.184	39.25
180.404	-13.99
180.624	-20.14
180.844	-11.95
181.064	0.34
181.283	41.3
181.503	26.96
181.723	-22.19
181.943	-5.8
182.163	106.84
182.383	37.2
182.602	102.74
182.822	115.03
183.042	63.83
183.262	0.34
183.482	-28.33
183.701	29.01
183.921	26.96
184.141	10.58
184.361	131.41
184.58	94.55
184.8	16.73
185.02	-9.9
185.239	63.83
185.459	31.06
185.679	14.68
185.898	-16.04
186.118	98.64
186.338	-11.95
186.557	67.92
186.777	43.35
186.997	108.88
187.216	92.5
187.436	121.17
187.655	67.92
187.875	88.4
188.095	20.82
188.314	121.17
188.534	110.93
188.753	-1.71
188.973	110.93
189.192	76.12
189.412	94.55
189.631	33.11
189.851	-30.38
190.07	121.17
190.29	139.6
190.509	-77.48
190.729	-3.75
190.948	86.36
191.168	211.28
191.387	86.36
191.607	41.3
191.826	43.35
192.045	41.3
192.265	59.73
192.484	49.49
192.704	94.55
192.923	-22.19
193.142	108.88
193.362	8.53
193.581	104.79
193.8	98.64
194.02	98.64
194.239	26.96
194.458	61.78
194.678	39.25
194.897	10.58
195.116	94.55
195.335	29.01
195.555	121.17
195.774	43.35
195.993	84.31
196.212	78.16
196.432	33.11
196.651	26.96
196.87	12.63
197.089	74.07
197.308	86.36
197.528	29.01
197.747	26.96
197.966	53.59
198.185	84.31
198.404	6.49
198.623	86.36
198.842	59.73
199.062	96.6
199.281	88.4
199.5	16.73
199.719	110.93
199.938	84.31
200.157	108.88
200.376	121.17
200.595	84.31
200.814	16.73
201.033	49.49
201.252	33.11
201.471	121.17
201.69	74.07
201.909	129.36
202.128	80.21
202.347	141.65
202.566	43.35
202.785	49.49
203.004	31.06
203.223	96.6
203.442	18.77
203.661	33.11
203.879	59.73
204.098	90.45
204.317	-20.14
204.536	47.44
204.755	59.73
204.974	74.07
205.193	96.6
205.411	168.27
205.63	51.54
205.849	55.64
206.068	63.83
206.287	76.12
206.505	65.88
206.724	88.4
206.943	-28.33
207.162	35.16
207.381	26.96
207.599	8.53
207.818	102.74
208.037	-5.8
208.255	88.4
208.474	31.06
208.693	26.96
208.911	119.12
209.13	117.08
209.349	20.82
209.567	100.69
209.786	80.21
210.005	96.6
210.223	102.74
210.442	-61.1
210.661	78.16
210.879	92.5
211.098	47.44
211.316	63.83
211.535	74.07
211.753	41.3
211.972	33.11
212.191	18.77
212.409	26.96
212.628	57.68
212.846	43.35
213.065	61.78
213.283	53.59
213.502	10.58
213.72	47.44
213.938	69.97
214.157	35.16
214.375	145.75
214.594	78.16
214.812	135.51
215.031	76.12
215.249	72.02
215.467	33.11
215.686	166.23
215.904	76.12
216.122	67.92
216.341	41.3
216.559	78.16
216.778	4.44
216.996	63.83
217.214	-20.14
217.432	72.02
217.651	16.73
217.869	100.69
218.087	121.17
218.306	-22.19
218.524	0.34
218.742	29.01
218.96	61.78
219.179	-36.52
219.397	55.64
219.615	135.51
219.833	86.36
220.051	69.97
220.27	170.32
220.488	145.75
220.706	24.92
220.924	78.16
221.142	35.16
221.36	-13.99
221.578	22.87
221.796	86.36
222.015	96.6
222.233	53.59
222.451	151.89
222.669	59.73
222.887	76.12
223.105	4.44
223.323	59.73
223.541	59.73
223.759	127.32
223.977	76.12
224.195	100.69
224.413	84.31
224.631	88.4
224.849	49.49
225.067	37.2
225.285	22.87
225.503	26.96
225.721	-3.75
225.939	18.77
226.157	119.12
226.375	155.99
226.592	0.34
226.81	22.87
227.028	84.31
227.246	207.19
227.464	2.39
227.682	51.54
227.9	135.51
228.117	-7.85
228.335	90.45
228.553	29.01
228.771	43.35
228.989	26.96
229.206	10.58
229.424	20.82
229.642	8.53
229.86	51.54
230.077	112.98
230.295	67.92
230.513	29.01
230.731	69.97
230.948	127.32
231.166	59.73
231.384	-38.57
231.601	57.68
231.819	162.13
232.037	76.12
232.254	-18.09
232.472	43.35
232.689	18.77
232.907	69.97
233.125	14.68
233.342	-1.71
233.56	117.08
233.777	12.63
233.995	51.54
234.213	84.31
234.43	69.97
234.648	76.12
234.865	-20.14
235.083	82.26
235.3	74.07
235.518	84.31
235.735	92.5
235.953	117.08
236.17	84.31
236.388	45.4
236.605	-5.8
236.822	137.56
237.04	63.83
237.257	63.83
237.475	51.54
237.692	67.92
237.909	53.59
238.127	45.4
238.344	-7.85
238.562	96.6
238.779	88.4
238.996	12.63
239.214	20.82
239.431	86.36
239.648	-18.09
239.865	65.88
240.083	123.22
240.3	76.12
240.517	-24.23
240.735	-22.19
240.952	84.31
241.169	119.12
241.386	51.54
241.603	86.36
241.821	20.82
242.038	33.11
242.255	43.35
242.472	-22.19
242.689	51.54
242.907	76.12
243.124	88.4
243.341	-22.19
243.558	-38.57
243.775	-34.47
243.992	-7.85
244.209	115.03
244.426	151.89
244.643	100.69
244.86	-7.85
245.078	104.79
245.295	72.02
245.512	26.96
245.729	110.93
245.946	155.99
246.163	-7.85
246.38	29.01
246.597	37.2
246.814	117.08
247.031	8.53
247.248	65.88
247.464	96.6
247.681	74.07
247.898	149.84
248.115	119.12
248.332	39.25
248.549	55.64
248.766	153.94
248.983	117.08
249.2	18.77
249.417	8.53
249.633	74.07
249.85	43.35
250.067	-26.28
250.284	35.16
250.501	88.4
250.717	86.36
250.934	33.11
251.151	-18.09
251.368	57.68
251.585	61.78
251.801	43.35
252.018	37.2
252.235	153.94
252.451	18.77
252.668	10.58
252.885	31.06
253.102	59.73
253.318	31.06
253.535	47.44
253.752	20.82
253.968	84.31
254.185	31.06
254.401	35.16
254.618	84.31
254.835	26.96
255.051	121.17
255.268	35.16
255.484	55.64
255.701	67.92
255.917	65.88
256.134	-34.47
256.351	74.07
256.567	43.35
256.784	112.98
257	14.68
257.217	78.16
257.433	53.59
257.65	47.44
257.866	78.16
258.082	31.06
258.299	-67.24
258.515	67.92
258.732	31.06
258.948	80.21
259.165	39.25
259.381	-13.99
259.597	158.03
259.814	0.34
260.03	37.2
260.246	117.08
260.463	61.78
260.679	100.69
260.895	86.36
261.112	94.55
261.328	22.87
261.544	63.83
261.761	194.9
261.977	72.02
262.193	16.73
262.409	86.36
262.626	137.56
262.842	82.26
263.058	4.44
263.274	125.27
263.49	69.97
263.707	51.54
263.923	31.06
264.139	26.96
264.355	69.97
264.571	119.12
264.787	162.13
265.004	76.12
265.22	55.64
265.436	80.21
265.652	35.16
265.868	51.54
266.084	57.68
266.3	-22.19
266.516	10.58
266.732	88.4
266.948	65.88
267.164	74.07
267.38	-22.19
267.596	69.97
267.812	162.13
268.028	92.5
268.244	14.68
268.46	98.64
268.676	-50.86
268.892	26.96
269.108	26.96
269.324	-44.71
269.54	-5.8
269.756	84.31
269.972	16.73
270.188	14.68
270.403	-71.34
270.619	76.12
270.835	112.98
271.051	47.44
271.267	51.54
271.483	18.77
271.698	47.44
271.914	20.82
272.13	47.44
272.346	59.73
272.562	96.6
272.777	108.88
272.993	16.73
273.209	55.64
273.425	100.69
273.64	-20.14
273.856	84.31
274.072	-3.75
274.287	-20.14
274.503	69.97
274.719	55.64
274.934	4.44
275.15	0.34
275.366	-3.75
275.581	63.83
275.797	31.06
276.012	0.34
276.228	26.96
276.444	76.12
276.659	123.22
276.875	16.73
277.09	72.02
277.306	67.92
277.521	86.36
277.737	74.07
277.952	96.6
278.168	84.31
278.383	-38.57
278.599	20.82
278.814	137.56
279.03	43.35
279.245	78.16
279.461	76.12
279.676	88.4
279.892	-13.99
280.107	-3.75
280.322	29.01
280.538	10.58
280.753	29.01
280.969	78.16
281.184	4.44
281.399	86.36
281.615	61.78
281.83	141.65
282.045	22.87
282.26	76.12
282.476	6.49
282.691	57.68
282.906	20.82
283.122	84.31
283.337	-34.47
283.552	98.64
283.767	2.39
283.983	92.5
284.198	29.01
284.413	41.3
284.628	-7.85
284.843	102.74
285.058	121.17
285.274	10.58
285.489	33.11
285.704	131.41
285.919	29.01
286.134	47.44
286.349	26.96
286.564	76.12
286.779	110.93
286.995	43.35
287.21	-24.23
287.425	82.26
287.64	-7.85
287.855	43.35
288.07	2.39
288.285	53.59
288.5	80.21
288.715	14.68
288.93	-5.8
289.145	37.2
289.36	121.17
289.575	33.11
289.79	102.74
290.004	22.87
290.219	176.47
290.434	16.73
290.649	43.35
290.864	16.73
291.079	55.64
291.294	115.03
291.509	8.53
291.724	53.59
291.938	80.21
292.153	123.22
292.368	26.96
292.583	39.25
292.798	20.82
293.012	24.92
293.227	45.4
293.442	16.73
293.657	102.74
293.871	45.4
294.086	96.6
294.301	108.88
294.516	41.3
294.73	45.4
294.945	69.97
295.16	43.35
295.374	98.64
295.589	125.27
295.804	43.35
296.018	-5.8
296.233	90.45
296.447	20.82
296.662	35.16
296.877	88.4
297.091	80.21
297.306	47.44
297.52	12.63
297.735	12.63
297.949	43.35
298.164	26.96
298.378	72.02
298.593	72.02
298.807	26.96
299.022	4.44
299.236	57.68
299.451	35.16
299.665	-5.8
299.88	74.07
300.094	24.92
300.309	-3.75
300.523	127.32
300.737	41.3
300.952	72.02
301.166	39.25
301.381	22.87
301.595	10.58
301.809	76.12
302.024	72.02
302.238	2.39
302.452	78.16
302.667	61.78
302.881	24.92
303.095	100.69
303.309	29.01
303.524	78.16
303.738	127.32
303.952	61.78
304.166	57.68
304.381	18.77
304.595	141.65
304.809	29.01
305.023	59.73
305.237	33.11
305.452	16.73
305.666	63.83
305.88	92.5
306.094	88.4
306.308	20.82
306.522	96.6
306.736	35.16
306.95	80.21
307.164	61.78
307.379	53.59
307.593	53.59
307.807	112.98
308.021	82.26
308.235	102.74
308.449	47.44
308.663	49.49
308.877	63.83
309.091	112.98
309.305	104.79
309.519	12.63
309.733	133.46
309.947	88.4
310.161	96.6
310.374	49.49
310.588	84.31
310.802	53.59
311.016	65.88
311.23	35.16
311.444	53.59
311.658	39.25
311.872	84.31
312.085	168.27
312.299	141.65
312.513	61.78
312.727	55.64
312.941	35.16
313.154	24.92
313.368	61.78
313.582	76.12
313.796	55.64
314.009	43.35
314.223	102.74
314.437	67.92
314.651	104.79
314.864	61.78
315.078	-18.09
315.292	14.68
315.505	59.73
315.719	100.69
315.933	8.53
316.146	39.25
316.36	20.82
316.573	176.47
316.787	94.55
317.001	86.36
317.214	35.16
317.428	158.03
317.641	80.21
317.855	12.63
318.068	65.88
318.282	53.59
318.495	147.8
318.709	59.73
318.922	61.78
319.136	78.16
319.349	108.88
319.563	14.68
319.776	47.44
319.99	72.02
320.203	67.92
320.417	127.32
320.63	115.03
320.843	129.36
321.057	39.25
321.27	86.36
321.483	22.87
321.697	129.36
321.91	74.07
322.124	141.65
322.337	78.16
322.55	-44.71
322.763	39.25
322.977	0.34
323.19	-28.33
323.403	29.01
323.617	61.78
323.83	131.41
324.043	-22.19
324.256	65.88
324.469	39.25
324.683	76.12
324.896	-9.9
325.109	41.3
325.322	61.78
325.535	33.11
325.748	61.78
325.962	41.3
326.175	43.35
326.388	47.44
326.601	76.12
326.814	4.44
327.027	106.84
327.24	217.43
327.453	29.01
327.666	86.36
327.879	149.84
328.092	76.12
328.305	61.78
328.518	119.12
328.731	94.55
328.944	51.54
329.157	55.64
329.37	59.73
329.583	86.36
329.796	104.79
330.009	6.49
330.222	18.77
330.435	90.45
330.648	100.69
330.861	39.25
331.073	41.3
331.286	69.97
331.499	26.96
331.712	12.63
331.925	67.92
332.138	90.45
332.35	98.64
332.563	29.01
332.776	115.03
332.989	39.25
333.202	49.49
333.414	24.92
333.627	22.87
333.84	45.4
334.053	-7.85
334.265	78.16
334.478	-1.71
334.691	53.59
334.903	92.5
335.116	0.34
335.329	35.16
335.541	41.3
335.754	92.5
335.966	6.49
336.179	31.06
336.392	45.4
336.604	61.78
336.817	84.31
337.029	67.92
337.242	112.98
337.454	-7.85
337.667	4.44
337.88	98.64
338.092	78.16
338.305	67.92
338.517	74.07
338.729	96.6
338.942	22.87
339.154	14.68
339.367	57.68
339.579	20.82
339.792	76.12
340.004	100.69
340.217	61.78
340.429	18.77
340.641	53.59
340.854	51.54
341.066	55.64
341.278	92.5
341.491	119.12
341.703	-5.8
341.915	-32.43
342.128	67.92
342.34	72.02
342.552	49.49
342.764	102.74
342.977	37.2
343.189	24.92
343.401	98.64
343.613	-11.95
343.826	2.39
344.038	2.39
344.25	35.16
344.462	14.68
344.674	145.75
344.886	37.2
345.099	59.73
345.311	65.88
345.523	51.54
345.735	22.87
345.947	84.31
346.159	-5.8
346.371	76.12
346.583	67.92
346.795	53.59
347.007	39.25
347.219	100.69
347.431	49.49
347.643	88.4
347.855	-20.14
348.067	127.32
348.279	96.6
348.491	74.07
348.703	67.92
348.915	104.79
349.127	35.16
349.339	37.2
349.551	69.97
349.763	53.59
349.975	76.12
350.187	55.64
350.399	127.32
350.61	92.5
350.822	-7.85
351.034	74.07
351.246	61.78
351.458	104.79
351.669	57.68
351.881	108.88
352.093	94.55
352.305	78.16
352.517	92.5
352.728	72.02
352.94	127.32
353.152	112.98
353.363	-63.15
353.575	96.6
353.787	119.12
353.999	127.32
354.21	135.51
354.422	35.16
354.633	96.6
354.845	18.77
355.057	96.6
355.268	59.73
355.48	74.07
355.692	98.64
355.903	98.64
356.115	16.73
356.326	-5.8
356.538	133.46
356.749	100.69
356.961	12.63
357.172	22.87
357.384	139.6
357.595	201.04
357.807	74.07
358.018	104.79
358.23	74.07
358.441	139.6
358.653	67.92
358.864	47.44
359.075	24.92
359.287	43.35
359.498	41.3
359.709	18.77
359.921	63.83
360.132	29.01
360.344	61.78
360.555	57.68
360.766	94.55
360.977	80.21
361.189	90.45
361.4	45.4
361.611	119.12
361.823	145.75
362.034	65.88
362.245	47.44
362.456	94.55
362.667	137.56
362.879	53.59
363.09	65.88
363.301	92.5
363.512	102.74
363.723	65.88
363.935	51.54
364.146	141.65
364.357	74.07
364.568	100.69
364.779	10.58
364.99	176.47
365.201	86.36
365.412	72.02
365.623	-18.09
365.834	53.59
366.045	43.35
366.256	69.97
366.467	102.74
366.678	43.35
366.889	26.96
367.1	4.44
367.311	33.11
367.522	37.2
367.733	98.64
367.944	86.36
368.155	82.26
368.366	63.83
368.577	65.88
368.788	110.93
368.999	59.73
369.209	45.4
369.42	252.24
369.631	209.23
369.842	31.06
370.053	102.74
370.264	96.6
370.474	-11.95
370.685	59.73
370.896	63.83
371.107	110.93
371.317	98.64
371.528	63.83
371.739	57.68
371.95	96.6
372.16	133.46
372.371	-13.99
372.582	55.64
372.792	43.35
373.003	84.31
373.214	102.74
373.424	-28.33
373.635	-18.09
373.846	198.99
374.056	33.11
374.267	39.25
374.477	51.54
374.688	131.41
374.898	45.4
375.109	151.89
375.319	115.03
375.53	110.93
375.74	155.99
375.951	57.68
376.161	80.21
376.372	100.69
376.582	69.97
376.793	47.44
377.003	69.97
377.214	31.06
377.424	104.79
377.635	10.58
377.845	80.21
378.055	94.55
378.266	16.73
378.476	59.73
378.686	47.44
378.897	72.02
379.107	59.73
379.317	76.12
379.528	37.2
379.738	106.84
379.948	18.77
380.158	74.07
380.369	49.49
380.579	53.59
380.789	12.63
380.999	86.36
381.21	184.66
381.42	207.19
381.63	-5.8
381.84	88.4
382.05	41.3
382.261	106.84
382.471	106.84
382.681	12.63
382.891	112.98
383.101	88.4
383.311	-11.95
383.521	98.64
383.731	100.69
383.941	72.02
384.151	94.55
384.361	90.45
384.571	90.45
384.781	43.35
384.991	59.73
385.201	178.51
385.411	51.54
385.621	121.17
385.831	80.21
386.041	35.16
386.251	67.92
386.461	92.5
386.671	67.92
386.881	16.73
387.091	104.79
387.301	94.55
387.511	80.21
387.72	88.4
387.93	117.08
388.14	37.2
388.35	100.69
388.56	115.03
388.769	139.6
388.979	72.02
389.189	53.59
389.399	141.65
389.609	102.74
389.818	96.6
390.028	96.6
390.238	100.69
390.447	31.06
390.657	57.68
390.867	55.64
391.076	43.35
391.286	143.7
391.496	88.4
391.705	121.17
391.915	186.71
392.125	188.75
392.334	123.22
392.544	139.6
392.753	102.74
392.963	131.41
393.172	31.06
393.382	117.08
393.591	248.15
393.801	37.2
394.01	168.27
394.22	133.46
394.429	76.12
394.639	110.93
394.848	92.5
395.058	102.74
395.267	102.74
395.477	37.2
395.686	125.27
395.895	162.13
396.105	139.6
396.314	123.22
396.524	129.36
396.733	76.12
396.942	151.89
397.152	211.28
397.361	176.47
397.57	145.75
397.78	158.03
397.989	127.32
398.198	168.27
398.407	117.08
398.617	100.69
398.826	72.02
399.035	119.12
399.244	176.47
399.453	110.93
399.663	155.99
399.872	141.65
400.081	123.22
400.29	211.28
400.499	31.06
400.708	176.47
400.917	129.36
401.127	131.41
401.336	182.61
401.545	170.32
401.754	176.47
401.963	176.47
402.172	188.75
402.381	137.56
402.59	141.65
402.799	102.74
403.008	149.84
403.217	213.33
403.426	174.42
403.635	92.5
403.844	160.08
404.053	141.65
404.262	149.84
404.471	264.53
404.68	295.25
404.888	219.47
405.097	172.37
405.306	160.08
405.515	217.43
405.724	203.09
405.933	121.17
406.142	162.13
406.35	280.91
406.559	100.69
406.768	176.47
406.977	270.67
407.185	203.09
407.394	264.53
407.603	207.19
407.812	174.42
408.02	282.96
408.229	209.23
408.438	233.81
408.646	235.86
408.855	282.96
409.064	309.58
409.272	315.73
409.481	242
409.69	313.68
409.898	274.77
410.107	317.78
410.315	346.45
410.524	280.91
410.733	360.78
410.941	319.82
411.15	389.46
411.358	424.27
411.567	463.18
411.775	338.26
411.984	373.07
412.192	411.98
412.401	397.65
412.609	506.19
412.818	543.05
413.026	495.95
413.234	538.96
413.443	526.67
413.651	530.77
413.86	600.4
414.068	622.92
414.276	710.99
414.485	688.46
414.693	702.79
414.901	708.94
415.11	713.03
415.318	706.89
415.526	743.75
415.734	770.38
415.943	803.15
416.151	919.88
416.359	817.48
416.567	874.82
416.776	919.88
416.984	952.65
417.192	1091.91
417.4	936.26
417.608	901.45
417.817	958.79
418.025	1116.48
418.233	1210.69
418.441	1173.83
418.649	1214.79
418.857	1290.56
419.065	1286.47
419.273	1276.23
419.481	1378.62
419.689	1337.66
419.897	1446.21
420.105	1501.5
420.313	1546.56
420.521	1599.8
420.729	1624.38
420.937	1653.05
421.145	1786.17
421.353	1835.32
421.561	1927.48
421.769	1993.01
421.977	1974.58
422.185	1956.15
422.393	2111.8
422.601	2289.97
422.809	2201.91
423.017	2224.44
423.224	2302.26
423.432	2523.44
423.64	2410.8
423.848	2615.6
424.056	2613.55
424.263	2744.62
424.471	2795.82
424.679	2771.24
424.887	3090.73
425.094	3082.53
425.302	3195.17
425.51	3189.03
425.718	3330.34
425.925	3354.91
426.133	3436.83
426.341	3729.69
426.548	3875.1
426.756	3875.1
426.964	3862.81
427.171	4057.37
427.379	4131.09
427.586	4258.07
427.794	4524.3
428.001	4624.65
428.209	4790.54
428.417	4800.78
428.624	5105.93
428.832	5134.6
429.039	5122.31
429.247	4985.1
429.454	5591.3
429.662	5835
429.869	5599.49
430.076	5984.51
430.284	5691.65
430.491	5814.52
430.699	6471.92
430.906	6226.17
431.114	6361.33
431.321	6656.24
431.528	6873.32
431.736	7272.68
431.943	7590.11
432.15	7348.45
432.358	7530.72
432.565	8163.54
432.772	7813.34
432.979	8362.2
433.187	8380.63
433.394	8380.63
433.601	8947.92
433.808	9087.18
434.016	8943.82
434.223	9251.02
434.43	9857.21
434.637	9869.5
434.844	10213.56
435.052	10518.71
435.259	10467.51
435.466	10709.17
435.673	10399.93
435.88	11131.05
436.087	11708.58
436.294	11716.77
436.501	11647.14
436.708	11667.62
436.915	12183.71
437.122	12814.48
437.329	12529.81
437.537	12976.27
437.743	13191.31
437.95	13070.48
438.157	13854.85
438.364	14135.42
438.571	14190.72
438.778	14340.22
438.985	15779.94
439.192	15014
439.399	15362.15
439.606	15294.57
439.813	16066.66
440.02	17320.01
440.227	16564.31
440.433	16609.37
440.64	17051.73
440.847	17023.06
441.054	17576.01
441.261	18518.07
441.467	18315.33
441.674	18827.32
441.881	19284.02
442.088	19138.61
442.294	19181.62
442.501	19662.89
442.708	20041.76
442.914	20748.31
443.121	21909.51
443.328	21022.74
443.534	22630.4
443.741	21952.52
443.948	21516.3
444.154	23326.71
444.361	23126
444.568	23494.64
444.774	23549.93
444.981	23973.86
445.187	24496.1
445.394	25231.32
445.6	25036.76
445.807	28006.31
446.013	26468.29
446.22	26701.76
446.426	27852.72
446.633	28266.41
446.839	29314.97
447.046	27803.57
447.252	29198.23
447.459	29327.25
447.665	29443.99
447.871	30672.77
448.078	31864.69
448.284	30359.43
448.491	31418.23
448.697	32341.86
448.903	32773.99
449.11	33122.14
449.316	32612.2
449.522	33441.62
449.728	34826.05
449.935	34570.05
450.141	34037.58
450.347	35438.39
450.553	34115.4
450.76	34615.11
450.966	35845.94
451.172	35383.1
451.378	36118.32
451.584	35493.69
451.791	36513.58
451.997	36323.12
452.203	37011.23
452.409	37074.72
452.615	36998.94
452.821	35678
453.027	35544.89
453.233	36886.31
453.44	35524.41
453.646	36226.86
453.852	36233
454.058	36976.42
454.264	35465.02
454.47	36323.12
454.676	35551.03
454.882	36792.1
455.088	33939.28
455.294	34082.64
455.5	34723.65
455.705	35233.6
455.911	34041.68
456.117	33298.27
456.323	32794.46
456.529	30889.85
456.735	32368.49
456.941	31459.19
457.147	31100.79
457.352	30093.19
457.558	29769.62
457.764	30023.56
457.97	29538.19
458.176	28401.57
458.381	28632.99
458.587	27555.76
458.793	27201.46
458.999	26107.85
459.204	27733.93
459.41	27135.93
459.616	25257.94
459.821	25245.65
460.027	24987.61
460.233	24340.45
460.438	23455.73
460.644	23324.66
460.85	22501.37
461.055	22280.19
461.261	21919.75
461.466	20181.03
461.672	19965.99
461.878	21190.67
462.083	20035.62
462.289	19281.97
462.494	19257.39
462.7	18151.49
462.905	18141.25
463.111	18597.95
463.316	18718.78
463.522	18481.21
463.727	18378.81
463.932	18313.28
464.138	17967.17
464.343	18122.82
464.549	17545.29
464.754	18219.07
464.959	17987.65
465.165	17608.78
465.37	17272.91
465.575	16652.38
465.781	17383.5
465.986	17453.13
466.191	16906.32
466.397	16308.32
