Data from USB4F104151__41__13-05-15-645.txt Node

Date: Fri Mar 14 13:05:15 EDT 2025
User: louis
Spectrometer: USB4F10415
Trigger mode: 4
Integration Time (sec): 4.000000E-2
Scans to average: 1
Electric dark correction enabled: true
Nonlinearity correction enabled: false
Boxcar width: 0
XAxis mode: Wavelengths
Number of Pixels in Spectrum: 3648
>>>>>Begin Spectral Data<<<<<
178.204	-156.5
178.424	-156.5
178.644	-156.5
178.864	-174.93
179.084	-158.55
179.304	-50
179.524	5.29
179.744	-25.43
179.964	42.15
180.184	-50
180.404	11.43
180.624	74.92
180.844	1.19
181.064	-15.19
181.283	17.58
181.503	-17.24
181.723	5.29
181.943	-72.53
182.163	64.68
182.383	-17.24
182.602	7.34
182.822	-29.52
183.042	91.31
183.262	-29.52
183.482	74.92
183.701	27.82
183.921	42.15
184.141	-35.67
184.361	13.48
184.58	33.96
184.8	3.24
185.02	-0.85
185.239	60.59
185.459	-17.24
185.679	33.96
185.898	72.87
186.118	58.54
186.338	64.68
186.557	46.25
186.777	-0.85
186.997	-17.24
187.216	29.87
187.436	134.31
187.655	48.3
187.875	54.44
188.095	17.58
188.314	-13.14
188.534	36.01
188.753	-50
188.973	54.44
189.192	152.74
189.412	19.63
189.631	-31.57
189.851	19.63
190.07	91.31
190.29	-45.91
190.509	38.06
190.729	5.29
190.948	23.72
191.168	201.9
191.387	40.11
191.607	40.11
191.826	60.59
192.045	-11.09
192.265	40.11
192.484	60.59
192.704	38.06
192.923	-129.88
193.142	109.74
193.362	-7
193.581	50.35
193.8	38.06
194.02	31.91
194.239	27.82
194.458	68.78
194.678	3.24
194.897	-0.85
195.116	1.19
195.335	64.68
195.555	103.59
195.774	40.11
195.993	99.5
196.212	-45.91
196.432	-15.19
196.651	5.29
196.87	79.02
197.089	119.98
197.308	117.93
197.528	19.63
197.747	-68.44
197.966	31.91
198.185	148.65
198.404	-68.44
198.623	126.12
198.842	46.25
199.062	70.83
199.281	42.15
199.5	-13.14
199.719	19.63
199.938	93.35
200.157	-33.62
200.376	74.92
200.595	64.68
200.814	62.63
201.033	-13.14
201.252	-15.19
201.471	40.11
201.69	5.29
201.909	46.25
202.128	72.87
202.347	52.39
202.566	-25.43
202.785	7.34
203.004	-9.05
203.223	160.94
203.442	54.44
203.661	-19.29
203.879	9.39
204.098	72.87
204.317	-25.43
204.536	21.67
204.755	25.77
204.974	105.64
205.193	-2.9
205.411	144.55
205.63	44.2
205.849	60.59
206.068	68.78
206.287	42.15
206.505	109.74
206.724	-4.95
206.943	13.48
207.162	-7
207.381	5.29
207.599	23.72
207.818	-9.05
208.037	-31.57
208.255	46.25
208.474	3.24
208.693	-17.24
208.911	38.06
209.13	33.96
209.349	17.58
209.567	36.01
209.786	87.21
210.005	-33.62
210.223	54.44
210.442	5.29
210.661	1.19
210.879	-0.85
211.098	42.15
211.316	87.21
211.535	-11.09
211.753	21.67
211.972	38.06
212.191	50.35
212.409	-29.52
212.628	68.78
212.846	66.73
213.065	52.39
213.283	68.78
213.502	-39.76
213.72	105.64
213.938	-43.86
214.157	-11.09
214.375	44.2
214.594	79.02
214.812	58.54
215.031	23.72
215.249	1.19
215.467	17.58
215.686	111.78
215.904	105.64
216.122	-17.24
216.341	13.48
216.559	-21.33
216.778	42.15
216.996	66.73
217.214	21.67
217.432	36.01
217.651	-39.76
217.869	48.3
218.087	-4.95
218.306	-0.85
218.524	122.02
218.742	-29.52
218.96	29.87
219.179	52.39
219.397	21.67
219.615	42.15
219.833	15.53
220.051	1.19
220.27	46.25
220.488	29.87
220.706	13.48
220.924	-19.29
221.142	-60.24
221.36	66.73
221.578	21.67
221.796	19.63
222.015	76.97
222.233	3.24
222.451	107.69
222.669	-39.76
222.887	48.3
223.105	23.72
223.323	33.96
223.541	52.39
223.759	36.01
223.977	-41.81
224.195	62.63
224.413	66.73
224.631	13.48
224.849	3.24
225.067	25.77
225.285	7.34
225.503	7.34
225.721	-7
225.939	23.72
226.157	19.63
226.375	95.4
226.592	-7
226.81	60.59
227.028	52.39
227.246	76.97
227.464	-7
227.682	-13.14
227.9	70.83
228.117	36.01
228.335	101.55
228.553	-15.19
228.771	1.19
228.989	11.43
229.206	70.83
229.424	33.96
229.642	17.58
229.86	-60.24
230.077	99.5
230.295	27.82
230.513	64.68
230.731	42.15
230.948	95.4
231.166	113.83
231.384	-29.52
231.601	21.67
231.819	56.49
232.037	-54.1
232.254	-2.9
232.472	7.34
232.689	5.29
232.907	29.87
233.125	-7
233.342	-43.86
233.56	-17.24
233.777	68.78
233.995	38.06
234.213	79.02
234.43	21.67
234.648	5.29
234.865	-13.14
235.083	60.59
235.3	79.02
235.518	64.68
235.735	99.5
235.953	79.02
236.17	66.73
236.388	40.11
236.605	85.16
236.822	97.45
237.04	76.97
237.257	15.53
237.475	-19.29
237.692	62.63
237.909	-2.9
238.127	40.11
238.344	54.44
238.562	29.87
238.779	-54.1
238.996	13.48
239.214	103.59
239.431	72.87
239.648	-47.96
239.865	29.87
240.083	29.87
240.3	-11.09
240.517	9.39
240.735	-35.67
240.952	79.02
241.169	85.16
241.386	-13.14
241.603	-0.85
241.821	-52.05
242.038	27.82
242.255	56.49
242.472	-25.43
242.689	29.87
242.907	15.53
243.124	-11.09
243.341	-2.9
243.558	36.01
243.775	-27.48
243.992	-31.57
244.209	5.29
244.426	111.78
244.643	81.07
244.86	7.34
245.078	50.35
245.295	48.3
245.512	33.96
245.729	-50
245.946	31.91
246.163	128.17
246.38	46.25
246.597	42.15
246.814	13.48
247.031	29.87
247.248	-39.76
247.464	72.87
247.681	29.87
247.898	1.19
248.115	-25.43
248.332	-17.24
248.549	-7
248.766	83.11
248.983	134.31
249.2	89.26
249.417	52.39
249.633	-2.9
249.85	79.02
250.067	72.87
250.284	25.77
250.501	40.11
250.717	54.44
250.934	-50
251.151	11.43
251.368	40.11
251.585	15.53
251.801	21.67
252.018	-2.9
252.235	66.73
252.451	-15.19
252.668	1.19
252.885	105.64
253.102	42.15
253.318	97.45
253.535	-11.09
253.752	-7
253.968	17.58
254.185	11.43
254.401	13.48
254.618	-19.29
254.835	62.63
255.051	72.87
255.268	15.53
255.484	54.44
255.701	-17.24
255.917	29.87
256.134	-0.85
256.351	76.97
256.567	-82.77
256.784	40.11
257	13.48
257.217	-19.29
257.433	25.77
257.65	46.25
257.866	31.91
258.082	-2.9
258.299	-2.9
258.515	29.87
258.732	-41.81
258.948	29.87
259.165	93.35
259.381	56.49
259.597	23.72
259.814	-56.15
260.03	21.67
260.246	46.25
260.463	52.39
260.679	50.35
260.895	7.34
261.112	3.24
261.328	38.06
261.544	-47.96
261.761	85.16
261.977	38.06
262.193	-23.38
262.409	46.25
262.626	91.31
262.842	-0.85
263.058	7.34
263.274	-0.85
263.49	40.11
263.707	-39.76
263.923	7.34
264.139	-80.72
264.355	83.11
264.571	42.15
264.787	-2.9
265.004	-19.29
265.22	-11.09
265.436	44.2
265.652	-35.67
265.868	29.87
266.084	-2.9
266.3	33.96
266.516	5.29
266.732	13.48
266.948	64.68
267.164	66.73
267.38	72.87
267.596	74.92
267.812	113.83
268.028	27.82
268.244	5.29
268.46	1.19
268.676	5.29
268.892	91.31
269.108	17.58
269.324	-43.86
269.54	-9.05
269.756	119.98
269.972	-80.72
270.188	-0.85
270.403	9.39
270.619	29.87
270.835	-17.24
271.051	-17.24
271.267	-19.29
271.483	27.82
271.698	81.07
271.914	9.39
272.13	23.72
272.346	-7
272.562	33.96
272.777	87.21
272.993	23.72
273.209	11.43
273.425	62.63
273.64	29.87
273.856	62.63
274.072	64.68
274.287	17.58
274.503	-9.05
274.719	66.73
274.934	1.19
275.15	-125.78
275.366	-15.19
275.581	-13.14
275.797	72.87
276.012	21.67
276.228	54.44
276.444	48.3
276.659	105.64
276.875	29.87
277.09	58.54
277.306	21.67
277.521	13.48
277.737	-21.33
277.952	50.35
278.168	64.68
278.383	70.83
278.599	19.63
278.814	15.53
279.03	-7
279.245	64.68
279.461	1.19
279.676	72.87
279.892	-11.09
280.107	-58.2
280.322	-70.48
280.538	33.96
280.753	13.48
280.969	40.11
281.184	11.43
281.399	101.55
281.615	-0.85
281.83	46.25
282.045	13.48
282.26	-9.05
282.476	25.77
282.691	3.24
282.906	17.58
283.122	56.49
283.337	74.92
283.552	1.19
283.767	44.2
283.983	140.46
284.198	27.82
284.413	128.17
284.628	-15.19
284.843	36.01
285.058	56.49
285.274	109.74
285.489	44.2
285.704	48.3
285.919	19.63
286.134	-31.57
286.349	74.92
286.564	60.59
286.779	64.68
286.995	54.44
287.21	-25.43
287.425	7.34
287.64	-68.44
287.855	29.87
288.07	-23.38
288.285	62.63
288.5	52.39
288.715	66.73
288.93	25.77
289.145	19.63
289.36	38.06
289.575	-29.52
289.79	85.16
290.004	15.53
290.219	72.87
290.434	36.01
290.649	5.29
290.864	-9.05
291.079	66.73
291.294	54.44
291.509	-19.29
291.724	23.72
291.938	-4.95
292.153	48.3
292.368	13.48
292.583	3.24
292.798	52.39
293.012	91.31
293.227	81.07
293.442	27.82
293.657	58.54
293.871	124.07
294.086	46.25
294.301	109.74
294.516	23.72
294.73	13.48
294.945	-76.63
295.16	36.01
295.374	95.4
295.589	42.15
295.804	-50
296.018	-11.09
296.233	103.59
296.447	101.55
296.662	-0.85
296.877	38.06
297.091	58.54
297.306	-25.43
297.52	62.63
297.735	44.2
297.949	7.34
298.164	56.49
298.378	50.35
298.593	33.96
298.807	-37.72
299.022	1.19
299.236	42.15
299.451	40.11
299.665	66.73
299.88	25.77
300.094	-11.09
300.309	29.87
300.523	79.02
300.737	29.87
300.952	25.77
301.166	81.07
301.381	21.67
301.595	-11.09
301.809	62.63
302.024	-41.81
302.238	19.63
302.452	95.4
302.667	-17.24
302.881	117.93
303.095	83.11
303.309	54.44
303.524	-25.43
303.738	-27.48
303.952	40.11
304.166	38.06
304.381	-105.3
304.595	124.07
304.809	27.82
305.023	-7
305.237	-7
305.452	38.06
305.666	15.53
305.88	29.87
306.094	48.3
306.308	122.02
306.522	89.26
306.736	83.11
306.95	15.53
307.164	23.72
307.379	64.68
307.593	56.49
307.807	1.19
308.021	87.21
308.235	-17.24
308.449	13.48
308.663	97.45
308.877	130.22
309.091	-4.95
309.305	-7
309.519	-17.24
309.733	70.83
309.947	-37.72
310.161	48.3
310.374	46.25
310.588	38.06
310.802	17.58
311.016	1.19
311.23	9.39
311.444	-2.9
311.658	11.43
311.872	15.53
312.085	54.44
312.299	56.49
312.513	70.83
312.727	72.87
312.941	-41.81
313.154	23.72
313.368	31.91
313.582	5.29
313.796	50.35
314.009	40.11
314.223	83.11
314.437	42.15
314.651	38.06
314.864	23.72
315.078	-39.76
315.292	-21.33
315.505	31.91
315.719	70.83
315.933	-43.86
316.146	13.48
316.36	25.77
316.573	52.39
316.787	25.77
317.001	7.34
317.214	-17.24
317.428	38.06
317.641	64.68
317.855	-23.38
318.068	58.54
318.282	38.06
318.495	97.45
318.709	29.87
318.922	19.63
319.136	-11.09
319.349	25.77
319.563	-31.57
319.776	46.25
319.99	-33.62
320.203	15.53
320.417	38.06
320.63	44.2
320.843	38.06
321.057	-11.09
321.27	31.91
321.483	40.11
321.697	13.48
321.91	50.35
322.124	52.39
322.337	101.55
322.55	7.34
322.763	48.3
322.977	-9.05
323.19	33.96
323.403	-27.48
323.617	40.11
323.83	79.02
324.043	58.54
324.256	42.15
324.469	-21.33
324.683	7.34
324.896	17.58
325.109	58.54
325.322	44.2
325.535	-23.38
325.748	62.63
325.962	-2.9
326.175	66.73
326.388	62.63
326.601	9.39
326.814	-62.29
327.027	52.39
327.24	46.25
327.453	-64.34
327.666	64.68
327.879	79.02
328.092	54.44
328.305	3.24
328.518	97.45
328.731	42.15
328.944	54.44
329.157	46.25
329.37	58.54
329.583	107.69
329.796	107.69
330.009	1.19
330.222	64.68
330.435	38.06
330.648	1.19
330.861	-25.43
331.073	81.07
331.286	105.64
331.499	-17.24
331.712	52.39
331.925	13.48
332.138	11.43
332.35	72.87
332.563	-0.85
332.776	58.54
332.989	-27.48
333.202	38.06
333.414	42.15
333.627	44.2
333.84	42.15
334.053	-31.57
334.265	11.43
334.478	-17.24
334.691	42.15
334.903	107.69
335.116	40.11
335.329	46.25
335.541	66.73
335.754	74.92
335.966	1.19
336.179	46.25
336.392	29.87
336.604	21.67
336.817	87.21
337.029	-31.57
337.242	-17.24
337.454	25.77
337.667	-27.48
337.88	36.01
338.092	58.54
338.305	-7
338.517	62.63
338.729	40.11
338.942	60.59
339.154	29.87
339.367	5.29
339.579	70.83
339.792	42.15
340.004	87.21
340.217	-4.95
340.429	44.2
340.641	17.58
340.854	-35.67
341.066	-54.1
341.278	128.17
341.491	54.44
341.703	25.77
341.915	11.43
342.128	74.92
342.34	-31.57
342.552	-47.96
342.764	23.72
342.977	64.68
343.189	68.78
343.401	72.87
343.613	1.19
343.826	15.53
344.038	-17.24
344.25	40.11
344.462	-11.09
344.674	128.17
344.886	-0.85
345.099	54.44
345.311	60.59
345.523	40.11
345.735	9.39
345.947	79.02
346.159	9.39
346.371	-35.67
346.583	-43.86
346.795	56.49
347.007	122.02
347.219	19.63
347.431	29.87
347.643	72.87
347.855	36.01
348.067	64.68
348.279	-23.38
348.491	25.77
348.703	-7
348.915	17.58
349.127	-39.76
349.339	44.2
349.551	-2.9
349.763	76.97
349.975	119.98
350.187	-13.14
350.399	138.41
350.61	13.48
350.822	9.39
351.034	27.82
351.246	56.49
351.458	21.67
351.669	144.55
351.881	119.98
352.093	52.39
352.305	74.92
352.517	-19.29
352.728	1.19
352.94	27.82
353.152	46.25
353.363	-13.14
353.575	83.11
353.787	111.78
353.999	85.16
354.21	60.59
354.422	7.34
354.633	42.15
354.845	87.21
355.057	-72.53
355.268	1.19
355.48	74.92
355.692	-9.05
355.903	25.77
356.115	5.29
356.326	40.11
356.538	33.96
356.749	54.44
356.961	83.11
357.172	140.46
357.384	13.48
357.595	105.64
357.807	-43.86
358.018	40.11
358.23	-54.1
358.441	107.69
358.653	70.83
358.864	64.68
359.075	-4.95
359.287	58.54
359.498	3.24
359.709	60.59
359.921	19.63
360.132	72.87
360.344	68.78
360.555	23.72
360.766	107.69
360.977	97.45
361.189	62.63
361.4	-15.19
361.611	29.87
361.823	46.25
362.034	-19.29
362.245	21.67
362.456	46.25
362.667	70.83
362.879	5.29
363.09	-0.85
363.301	40.11
363.512	46.25
363.723	-19.29
363.935	62.63
364.146	95.4
364.357	3.24
364.568	33.96
364.779	-27.48
364.99	158.89
365.201	-13.14
365.412	93.35
365.623	-33.62
365.834	50.35
366.045	40.11
366.256	5.29
366.467	124.07
366.678	9.39
366.889	72.87
367.1	42.15
367.311	29.87
367.522	31.91
367.733	17.58
367.944	-2.9
368.155	-19.29
368.366	74.92
368.577	107.69
368.788	29.87
368.999	5.29
369.209	111.78
369.42	169.13
369.631	171.18
369.842	17.58
370.053	-13.14
370.264	140.46
370.474	3.24
370.685	-15.19
370.896	5.29
371.107	173.22
371.317	38.06
371.528	38.06
371.739	70.83
371.95	68.78
372.16	23.72
372.371	29.87
372.582	60.59
372.792	85.16
373.003	70.83
373.214	5.29
373.424	29.87
373.635	21.67
373.846	111.78
374.056	38.06
374.267	54.44
374.477	130.22
374.688	119.98
374.898	74.92
375.109	79.02
375.319	-21.33
375.53	50.35
375.74	27.82
375.951	3.24
376.161	62.63
376.372	70.83
376.582	15.53
376.793	21.67
377.003	19.63
377.214	17.58
377.424	11.43
377.635	29.87
377.845	36.01
378.055	95.4
378.266	15.53
378.476	17.58
378.686	124.07
378.897	54.44
379.107	42.15
379.317	85.16
379.528	144.55
379.738	72.87
379.948	52.39
380.158	42.15
380.369	68.78
380.579	111.78
380.789	103.59
380.999	52.39
381.21	109.74
381.42	81.07
381.63	81.07
381.84	46.25
382.05	38.06
382.261	119.98
382.471	93.35
382.681	5.29
382.891	91.31
383.101	76.97
383.311	17.58
383.521	-27.48
383.731	97.45
383.941	89.26
384.151	105.64
384.361	33.96
384.571	50.35
384.781	3.24
384.991	62.63
385.201	122.02
385.411	5.29
385.621	60.59
385.831	21.67
386.041	-4.95
386.251	31.91
386.461	42.15
386.671	-27.48
386.881	95.4
387.091	95.4
387.301	103.59
387.511	44.2
387.72	81.07
387.93	56.49
388.14	5.29
388.35	54.44
388.56	36.01
388.769	76.97
388.979	64.68
389.189	79.02
389.399	87.21
389.609	76.97
389.818	-15.19
390.028	46.25
390.238	109.74
390.447	1.19
390.657	70.83
390.867	40.11
391.076	-52.05
391.286	74.92
391.496	87.21
391.705	42.15
391.915	79.02
392.125	111.78
392.334	74.92
392.544	62.63
392.753	122.02
392.963	-2.9
393.172	83.11
393.382	38.06
393.591	165.03
393.801	-27.48
394.01	103.59
394.22	83.11
394.429	1.19
394.639	103.59
394.848	132.26
395.058	107.69
395.267	103.59
395.477	-17.24
395.686	89.26
395.895	87.21
396.105	134.31
396.314	70.83
396.524	31.91
396.733	56.49
396.942	79.02
397.152	115.88
397.361	136.36
397.57	68.78
397.78	58.54
397.989	68.78
398.198	189.61
398.407	36.01
398.617	40.11
398.826	46.25
399.035	193.7
399.244	132.26
399.453	15.53
399.663	128.17
399.872	62.63
400.081	56.49
400.29	154.79
400.499	119.98
400.708	103.59
400.917	44.2
401.127	40.11
401.336	25.77
401.545	111.78
401.754	64.68
401.963	119.98
402.172	160.94
402.381	21.67
402.59	132.26
402.799	154.79
403.008	146.6
403.217	158.89
403.426	165.03
403.635	111.78
403.844	169.13
404.053	117.93
404.262	122.02
404.471	169.13
404.68	185.51
404.888	111.78
405.097	132.26
405.306	169.13
405.515	214.18
405.724	165.03
405.933	156.84
406.142	113.83
406.35	193.7
406.559	201.9
406.768	179.37
406.977	246.95
407.185	201.9
407.394	310.44
407.603	152.74
407.812	162.98
408.02	165.03
408.229	222.38
408.438	199.85
408.646	156.84
408.855	193.7
409.064	226.47
409.272	193.7
409.481	230.57
409.69	257.19
409.898	251.05
410.107	240.81
410.315	353.45
410.524	218.28
410.733	359.59
410.941	328.87
411.15	326.82
411.358	461.99
411.567	343.21
411.775	414.88
411.984	343.21
412.192	513.19
412.401	445.6
412.609	494.76
412.818	449.7
413.026	466.08
413.234	521.38
413.443	533.67
413.651	504.99
413.86	490.66
414.068	517.28
414.276	677.02
414.485	609.44
414.693	607.39
414.901	726.18
415.11	646.3
415.318	623.78
415.526	603.3
415.734	748.7
415.943	789.66
416.151	818.33
416.359	748.7
416.567	791.71
416.776	804
416.984	1016.99
417.192	1062.04
417.4	922.78
417.608	926.88
417.817	937.12
418.025	1078.43
418.233	1232.02
418.441	1105.05
418.649	1053.85
418.857	1195.16
419.065	1305.75
419.273	1174.68
419.481	1254.55
419.689	1479.83
419.897	1402.01
420.105	1434.77
420.313	1488.02
420.521	1555.6
420.729	1645.71
420.937	1637.52
421.145	1651.86
421.353	1862.8
421.561	1862.8
421.769	1844.37
421.977	2010.25
422.185	2032.78
422.393	2000.01
422.601	2190.47
422.809	2116.75
423.017	2241.67
423.224	2266.25
423.432	2339.97
423.64	2434.18
423.848	2530.44
424.056	2444.42
424.263	2770.05
424.471	2667.65
424.679	2796.67
424.887	2999.42
425.094	2987.13
425.302	3050.62
425.51	2972.8
425.718	3245.18
425.925	3210.36
426.133	3396.73
426.341	3601.52
426.548	3701.87
426.756	3896.43
426.964	3865.71
427.171	3974.25
427.379	4088.94
427.586	4052.08
427.794	4346.98
428.001	4658.28
428.209	4758.63
428.417	4611.17
428.624	4938.85
428.832	5055.58
429.039	4863.07
429.247	4871.26
429.454	5559.38
429.662	5702.74
429.869	5325.91
430.076	5794.9
430.284	5616.72
430.491	5885.01
430.699	6335.56
430.906	6310.99
431.114	6333.51
431.321	6493.26
431.528	6671.43
431.736	7138.37
431.943	7515.19
432.15	6974.53
432.358	7306.3
432.565	7719.99
432.772	7656.5
432.979	8051.76
433.187	8137.77
433.394	8264.75
433.601	8858.66
433.808	8881.19
434.016	8707.11
434.223	9110.56
434.43	9819.16
434.637	9464.86
434.844	10026
435.052	10476.55
435.259	10433.55
435.466	10243.09
435.673	10261.52
435.88	10886.15
436.087	11373.57
436.294	11543.55
436.501	11082.75
436.708	11412.48
436.915	11815.93
437.122	12362.73
437.329	12424.17
437.537	12678.12
437.743	12907.49
437.95	12970.98
438.157	13628.38
438.364	13933.53
438.571	14011.35
438.778	14164.95
438.985	15250.37
439.192	14898.12
439.399	15197.12
439.606	15045.57
439.813	15475.65
440.02	16823.21
440.227	16260.02
440.433	16270.26
440.64	16968.62
440.847	16651.18
441.054	17066.92
441.261	18447.25
441.467	17965.98
441.674	18477.97
441.881	19010.44
442.088	19284.87
442.294	18920.33
442.501	19452.8
442.708	19747.71
442.914	20376.44
443.121	21361.51
443.328	20689.77
443.534	22063.96
443.741	21523.3
443.948	21197.67
444.154	23001.93
444.361	22895.44
444.568	23153.48
444.774	22989.64
444.981	23374.66
445.187	24329.02
445.394	25060.14
445.6	24359.73
445.807	26766.1
446.013	25908
446.22	26217.24
446.426	27423.5
446.633	27859.71
446.839	28281.6
447.046	27380.49
447.252	29014.77
447.459	29004.53
447.665	28975.86
447.871	30356.19
448.078	31392.46
448.284	30147.29
448.491	30657.24
448.697	32207.55
448.903	32682.68
449.11	32647.86
449.316	31969.99
449.522	32774.84
449.728	33546.92
449.935	33858.21
450.141	33923.75
450.347	34996.88
450.553	33493.68
450.76	34085.54
450.966	34951.83
451.172	35078.8
451.378	35660.43
451.584	34960.02
451.791	36072.07
451.997	36168.32
452.203	36473.47
452.409	36782.71
452.615	36283.01
452.821	35314.32
453.027	34523.8
453.233	36629.12
453.44	35031.7
453.646	35523.21
453.852	35787.4
454.058	36438.65
454.264	34919.06
454.47	36188.8
454.676	35052.18
454.882	36231.81
455.088	33272.49
455.294	33522.35
455.5	34431.65
455.705	34519.71
455.911	33331.89
456.117	32885.43
456.323	32119.49
456.529	30100.19
456.735	31855.3
456.941	31199.95
457.147	30706.39
457.352	29645.54
457.558	29254.38
457.764	29672.17
457.97	28812.02
458.176	28383.99
458.381	28252.92
458.587	26753.81
458.793	27026.19
458.999	25420.58
459.204	27267.85
459.41	26233.63
459.616	24855.34
459.821	24910.64
460.027	24642.35
460.233	24099.64
460.438	23352.13
460.644	23071.56
460.85	21959.52
461.055	22139.74
461.261	21859.17
461.466	20081.53
461.672	19448.71
461.878	20970.35
462.083	19518.34
462.289	19153.8
462.494	19022.73
462.7	18197.4
462.905	17660.83
463.111	18285.46
463.316	18097.05
463.522	18105.24
463.727	17830.81
463.932	17724.32
464.138	17851.29
464.343	17789.85
464.549	17011.62
464.754	17773.47
464.959	17646.49
465.165	17466.27
465.37	16796.59
465.575	16362.42
465.781	16751.53
465.986	16974.76
466.191	16675.76
466.397	16176.05
466.602	15598.52
466.807	15815.61
467.012	16176.05
467.218	16141.24
