Data from USB4F104151__10__13-04-21-410.txt Node

Date: Fri Mar 14 13:04:21 EDT 2025
User: louis
Spectrometer: USB4F10415
Trigger mode: 4
Integration Time (sec): 4.000000E-2
Scans to average: 1
Electric dark correction enabled: true
Nonlinearity correction enabled: false
Boxcar width: 0
XAxis mode: Wavelengths
Number of Pixels in Spectrum: 3648
>>>>>Begin Spectral Data<<<<<
178.204	-135.68
178.424	-135.68
178.644	-135.68
178.864	-182.78
179.084	-188.93
179.304	-33.28
179.524	-43.52
179.744	-8.7
179.964	44.54
180.184	17.92
180.404	5.63
180.624	-27.14
180.844	30.21
181.064	-72.19
181.283	42.5
181.503	-14.85
181.723	58.88
181.943	-2.56
182.163	120.32
182.383	-12.8
182.602	101.89
182.822	79.36
183.042	32.26
183.262	22.02
183.482	-35.33
183.701	48.64
183.921	-10.75
184.141	-27.14
184.361	50.69
184.58	73.21
184.8	89.6
185.02	22.02
185.239	153.09
185.459	15.87
185.679	140.8
185.898	-23.04
186.118	77.31
186.338	67.07
186.557	13.82
186.777	24.06
186.997	-27.14
187.216	42.5
187.436	73.21
187.655	22.02
187.875	34.3
188.095	79.36
188.314	22.02
188.534	40.45
188.753	19.97
188.973	26.11
189.192	54.78
189.412	-10.75
189.631	79.36
189.851	67.07
190.07	142.85
190.29	83.45
190.509	1.54
190.729	7.68
190.948	38.4
191.168	187.9
191.387	81.41
191.607	17.92
191.826	93.69
192.045	50.69
192.265	38.4
192.484	17.92
192.704	62.98
192.923	-4.61
193.142	60.93
193.362	42.5
193.581	95.74
193.8	42.5
194.02	-51.71
194.239	62.98
194.458	132.61
194.678	28.16
194.897	34.3
195.116	79.36
195.335	32.26
195.555	79.36
195.774	73.21
195.993	81.41
196.212	40.45
196.432	9.73
196.651	-23.04
196.87	-8.7
197.089	79.36
197.308	3.58
197.528	40.45
197.747	-39.42
197.966	105.98
198.185	75.26
198.404	87.55
198.623	105.98
198.842	103.93
199.062	19.97
199.281	62.98
199.5	11.78
199.719	116.22
199.938	62.98
200.157	62.98
200.376	177.66
200.595	153.09
200.814	24.06
201.033	40.45
201.252	89.6
201.471	11.78
201.69	50.69
201.909	30.21
202.128	36.35
202.347	42.5
202.566	46.59
202.785	42.5
203.004	54.78
203.223	171.52
203.442	69.12
203.661	-27.14
203.879	17.92
204.098	56.83
204.317	9.73
204.536	108.03
204.755	38.4
204.974	91.65
205.193	69.12
205.411	118.27
205.63	71.17
205.849	93.69
206.068	22.02
206.287	-55.81
206.505	155.13
206.724	26.11
206.943	-39.42
207.162	5.63
207.381	62.98
207.599	36.35
207.818	89.6
208.037	50.69
208.255	56.83
208.474	40.45
208.693	75.26
208.911	93.69
209.13	-0.51
209.349	89.6
209.567	89.6
209.786	65.02
210.005	22.02
210.223	103.93
210.442	-14.85
210.661	81.41
210.879	52.74
211.098	-23.04
211.316	46.59
211.535	67.07
211.753	58.88
211.972	91.65
212.191	36.35
212.409	38.4
212.628	95.74
212.846	-35.33
213.065	126.46
213.283	171.52
213.502	44.54
213.72	38.4
213.938	124.41
214.157	97.79
214.375	136.7
214.594	62.98
214.812	112.13
215.031	17.92
215.249	54.78
215.467	58.88
215.686	28.16
215.904	101.89
216.122	17.92
216.341	26.11
216.559	36.35
216.778	67.07
216.996	97.79
217.214	79.36
217.432	22.02
217.651	-23.04
217.869	71.17
218.087	-2.56
218.306	36.35
218.524	67.07
218.742	54.78
218.96	83.45
219.179	1.54
219.397	-18.94
219.615	65.02
219.833	58.88
220.051	1.54
220.27	108.03
220.488	144.89
220.706	34.3
220.924	-35.33
221.142	89.6
221.36	-0.51
221.578	89.6
221.796	17.92
222.015	38.4
222.233	140.8
222.451	122.37
222.669	-2.56
222.887	54.78
223.105	-39.42
223.323	103.93
223.541	62.98
223.759	89.6
223.977	89.6
224.195	126.46
224.413	79.36
224.631	34.3
224.849	5.63
225.067	67.07
225.285	58.88
225.503	-20.99
225.721	-0.51
225.939	32.26
226.157	65.02
226.375	138.75
226.592	-29.18
226.81	26.11
227.028	116.22
227.246	122.37
227.464	91.65
227.682	79.36
227.9	85.5
228.117	52.74
228.335	7.68
228.553	40.45
228.771	32.26
228.989	48.64
229.206	124.41
229.424	1.54
229.642	-74.24
229.86	30.21
230.077	130.56
230.295	30.21
230.513	136.7
230.731	54.78
230.948	81.41
231.166	124.41
231.384	-4.61
231.601	89.6
231.819	34.3
232.037	42.5
232.254	48.64
232.472	116.22
232.689	-20.99
232.907	157.18
233.125	87.55
233.342	30.21
233.56	54.78
233.777	42.5
233.995	17.92
234.213	105.98
234.43	83.45
234.648	38.4
234.865	24.06
235.083	-35.33
235.3	71.17
235.518	34.3
235.735	108.03
235.953	71.17
236.17	50.69
236.388	48.64
236.605	42.5
236.822	134.65
237.04	81.41
237.257	62.98
237.475	38.4
237.692	26.11
237.909	110.08
238.127	17.92
238.344	85.5
238.562	5.63
238.779	13.82
238.996	-31.23
239.214	32.26
239.431	97.79
239.648	-12.8
239.865	97.79
240.083	112.13
240.3	40.45
240.517	19.97
240.735	-43.52
240.952	165.37
241.169	81.41
241.386	93.69
241.603	17.92
241.821	32.26
242.038	32.26
242.255	124.41
242.472	19.97
242.689	44.54
242.907	114.17
243.124	65.02
243.341	13.82
243.558	-0.51
243.775	-8.7
243.992	-10.75
244.209	30.21
244.426	85.5
244.643	91.65
244.86	34.3
245.078	62.98
245.295	24.06
245.512	71.17
245.729	-51.71
245.946	99.84
246.163	81.41
246.38	75.26
246.597	69.12
246.814	9.73
247.031	77.31
247.248	112.13
247.464	44.54
247.681	7.68
247.898	77.31
248.115	28.16
248.332	42.5
248.549	77.31
248.766	89.6
248.983	122.37
249.2	24.06
249.417	-18.94
249.633	-35.33
249.85	91.65
250.067	65.02
250.284	91.65
250.501	56.83
250.717	56.83
250.934	22.02
251.151	32.26
251.368	42.5
251.585	1.54
251.801	44.54
252.018	-27.14
252.235	83.45
252.451	-70.14
252.668	108.03
252.885	71.17
253.102	38.4
253.318	13.82
253.535	13.82
253.752	38.4
253.968	-14.85
254.185	-27.14
254.401	40.45
254.618	65.02
254.835	-0.51
255.051	120.32
255.268	136.7
255.484	15.87
255.701	95.74
255.917	91.65
256.134	26.11
256.351	-16.9
256.567	-0.51
256.784	79.36
257	-10.75
257.217	44.54
257.433	34.3
257.65	83.45
257.866	108.03
258.082	-82.43
258.299	-0.51
258.515	110.08
258.732	-8.7
258.948	-68.09
259.165	40.45
259.381	75.26
259.597	89.6
259.814	65.02
260.03	103.93
260.246	54.78
260.463	13.82
260.679	40.45
260.895	153.09
261.112	71.17
261.328	77.31
261.544	-66.05
261.761	103.93
261.977	-2.56
262.193	32.26
262.409	22.02
262.626	122.37
262.842	73.21
263.058	44.54
263.274	9.73
263.49	75.26
263.707	165.37
263.923	67.07
264.139	28.16
264.355	65.02
264.571	79.36
264.787	-8.7
265.004	85.5
265.22	17.92
265.436	-0.51
265.652	24.06
265.868	34.3
266.084	-18.94
266.3	93.69
266.516	62.98
266.732	3.58
266.948	105.98
267.164	62.98
267.38	103.93
267.596	50.69
267.812	67.07
268.028	60.93
268.244	-27.14
268.46	116.22
268.676	-16.9
268.892	32.26
269.108	-8.7
269.324	-16.9
269.54	-41.47
269.756	42.5
269.972	-59.9
270.188	79.36
270.403	67.07
270.619	58.88
270.835	52.74
271.051	24.06
271.267	19.97
271.483	79.36
271.698	-0.51
271.914	7.68
272.13	69.12
272.346	30.21
272.562	17.92
272.777	95.74
272.993	26.11
273.209	42.5
273.425	83.45
273.64	22.02
273.856	46.59
274.072	22.02
274.287	73.21
274.503	26.11
274.719	50.69
274.934	32.26
275.15	26.11
275.366	22.02
275.581	-53.76
275.797	36.35
276.012	77.31
276.228	19.97
276.444	-47.62
276.659	128.51
276.875	-29.18
277.09	69.12
277.306	28.16
277.521	87.55
277.737	1.54
277.952	38.4
278.168	91.65
278.383	9.73
278.599	87.55
278.814	83.45
279.03	79.36
279.245	5.63
279.461	67.07
279.676	110.08
279.892	-37.38
280.107	-10.75
280.322	46.59
280.538	103.93
280.753	97.79
280.969	48.64
281.184	62.98
281.399	87.55
281.615	58.88
281.83	46.59
282.045	42.5
282.26	30.21
282.476	-12.8
282.691	77.31
282.906	9.73
283.122	95.74
283.337	-35.33
283.552	136.7
283.767	-6.66
283.983	101.89
284.198	38.4
284.413	58.88
284.628	-109.05
284.843	62.98
285.058	65.02
285.274	46.59
285.489	60.93
285.704	62.98
285.919	11.78
286.134	32.26
286.349	30.21
286.564	71.17
286.779	83.45
286.995	52.74
287.21	93.69
287.425	105.98
287.64	7.68
287.855	50.69
288.07	-8.7
288.285	163.33
288.5	124.41
288.715	34.3
288.93	-10.75
289.145	13.82
289.36	71.17
289.575	19.97
289.79	62.98
290.004	-37.38
290.219	62.98
290.434	44.54
290.649	11.78
290.864	81.41
291.079	56.83
291.294	50.69
291.509	22.02
291.724	32.26
291.938	44.54
292.153	79.36
292.368	19.97
292.583	54.78
292.798	-8.7
293.012	54.78
293.227	89.6
293.442	91.65
293.657	95.74
293.871	175.61
294.086	81.41
294.301	73.21
294.516	112.13
294.73	17.92
294.945	38.4
295.16	46.59
295.374	62.98
295.589	83.45
295.804	-33.28
296.018	50.69
296.233	93.69
296.447	32.26
296.662	28.16
296.877	114.17
297.091	46.59
297.306	22.02
297.52	87.55
297.735	42.5
297.949	13.82
298.164	46.59
298.378	58.88
298.593	81.41
298.807	46.59
299.022	24.06
299.236	38.4
299.451	15.87
299.665	15.87
299.88	24.06
300.094	126.46
300.309	-2.56
300.523	28.16
300.737	9.73
300.952	87.55
301.166	50.69
301.381	-47.62
301.595	77.31
301.809	17.92
302.024	5.63
302.238	-12.8
302.452	120.32
302.667	-8.7
302.881	163.33
303.095	130.56
303.309	58.88
303.524	-37.38
303.738	7.68
303.952	24.06
304.166	165.37
304.381	-78.33
304.595	97.79
304.809	46.59
305.023	22.02
305.237	-29.18
305.452	-33.28
305.666	44.54
305.88	38.4
306.094	60.93
306.308	-31.23
306.522	46.59
306.736	24.06
306.95	60.93
307.164	22.02
307.379	32.26
307.593	136.7
307.807	36.35
308.021	42.5
308.235	56.83
308.449	-51.71
308.663	-8.7
308.877	105.98
309.091	48.64
309.305	-8.7
309.519	-45.57
309.733	93.69
309.947	-53.76
310.161	30.21
310.374	62.98
310.588	130.56
310.802	17.92
311.016	65.02
311.23	79.36
311.444	-2.56
311.658	19.97
311.872	105.98
312.085	17.92
312.299	42.5
312.513	108.03
312.727	-2.56
312.941	60.93
313.154	52.74
313.368	36.35
313.582	83.45
313.796	50.69
314.009	-8.7
314.223	56.83
314.437	116.22
314.651	99.84
314.864	11.78
315.078	52.74
315.292	-2.56
315.505	1.54
315.719	32.26
315.933	52.74
316.146	9.73
316.36	11.78
316.573	83.45
316.787	93.69
317.001	79.36
317.214	30.21
317.428	24.06
317.641	-55.81
317.855	17.92
318.068	-2.56
318.282	-8.7
318.495	46.59
318.709	128.51
318.922	30.21
319.136	87.55
319.349	65.02
319.563	-25.09
319.776	77.31
319.99	24.06
320.203	9.73
320.417	24.06
320.63	56.83
320.843	126.46
321.057	58.88
321.27	19.97
321.483	24.06
321.697	108.03
321.91	50.69
322.124	97.79
322.337	-2.56
322.55	11.78
322.763	79.36
322.977	99.84
323.19	40.45
323.403	79.36
323.617	44.54
323.83	140.8
324.043	32.26
324.256	-6.66
324.469	26.11
324.683	105.98
324.896	-16.9
325.109	52.74
325.322	-0.51
325.535	34.3
325.748	26.11
325.962	-8.7
326.175	56.83
326.388	95.74
326.601	130.56
326.814	13.82
327.027	83.45
327.24	171.52
327.453	-20.99
327.666	50.69
327.879	122.37
328.092	101.89
328.305	122.37
328.518	75.26
328.731	-35.33
328.944	-4.61
329.157	77.31
329.37	7.68
329.583	108.03
329.796	85.5
330.009	22.02
330.222	81.41
330.435	108.03
330.648	54.78
330.861	83.45
331.073	40.45
331.286	38.4
331.499	85.5
331.712	-47.62
331.925	9.73
332.138	22.02
332.35	157.18
332.563	22.02
332.776	38.4
332.989	-10.75
333.202	60.93
333.414	65.02
333.627	89.6
333.84	-49.66
334.053	-39.42
334.265	26.11
334.478	11.78
334.691	126.46
334.903	34.3
335.116	-2.56
335.329	22.02
335.541	-23.04
335.754	24.06
335.966	-10.75
336.179	60.93
336.392	-29.18
336.604	67.07
336.817	71.17
337.029	7.68
337.242	13.82
337.454	67.07
337.667	26.11
337.88	71.17
338.092	99.84
338.305	-10.75
338.517	19.97
338.729	93.69
338.942	71.17
339.154	17.92
339.367	-39.42
339.579	83.45
339.792	-14.85
340.004	46.59
340.217	50.69
340.429	65.02
340.641	-10.75
340.854	-25.09
341.066	24.06
341.278	93.69
341.491	87.55
341.703	79.36
341.915	52.74
342.128	54.78
342.34	-16.9
342.552	-57.86
342.764	-10.75
342.977	-0.51
343.189	-2.56
343.401	89.6
343.613	38.4
343.826	15.87
344.038	5.63
344.25	48.64
344.462	-37.38
344.674	112.13
344.886	91.65
345.099	26.11
345.311	36.35
345.523	99.84
345.735	-33.28
345.947	85.5
346.159	22.02
346.371	60.93
346.583	130.56
346.795	71.17
347.007	-10.75
347.219	-0.51
347.431	85.5
347.643	36.35
347.855	5.63
348.067	30.21
348.279	7.68
348.491	40.45
348.703	30.21
348.915	22.02
349.127	13.82
349.339	60.93
349.551	-39.42
349.763	77.31
349.975	38.4
350.187	46.59
350.399	44.54
350.61	75.26
350.822	79.36
351.034	44.54
351.246	52.74
351.458	97.79
351.669	44.54
351.881	71.17
352.093	15.87
352.305	38.4
352.517	36.35
352.728	97.79
352.94	24.06
353.152	30.21
353.363	42.5
353.575	95.74
353.787	114.17
353.999	93.69
354.21	67.07
354.422	40.45
354.633	22.02
354.845	42.5
355.057	38.4
355.268	58.88
355.48	71.17
355.692	42.5
355.903	60.93
356.115	54.78
356.326	-51.71
356.538	13.82
356.749	103.93
356.961	87.55
357.172	3.58
357.384	1.54
357.595	151.04
357.807	38.4
358.018	32.26
358.23	38.4
358.441	89.6
358.653	73.21
358.864	91.65
359.075	81.41
359.287	1.54
359.498	34.3
359.709	38.4
359.921	-10.75
360.132	-2.56
360.344	9.73
360.555	-53.76
360.766	-16.9
360.977	17.92
361.189	157.18
361.4	1.54
361.611	89.6
361.823	32.26
362.034	42.5
362.245	67.07
362.456	13.82
362.667	36.35
362.879	54.78
363.09	50.69
363.301	40.45
363.512	124.41
363.723	60.93
363.935	30.21
364.146	95.74
364.357	13.82
364.568	130.56
364.779	-10.75
364.99	75.26
365.201	60.93
365.412	81.41
365.623	-0.51
365.834	71.17
366.045	42.5
366.256	44.54
366.467	54.78
366.678	-6.66
366.889	-59.9
367.1	75.26
367.311	67.07
367.522	-66.05
367.733	50.69
367.944	62.98
368.155	28.16
368.366	79.36
368.577	95.74
368.788	114.17
368.999	26.11
369.209	-23.04
369.42	124.41
369.631	194.05
369.842	73.21
370.053	83.45
370.264	73.21
370.474	13.82
370.685	91.65
370.896	42.5
371.107	54.78
371.317	93.69
371.528	91.65
371.739	40.45
371.95	136.7
372.16	32.26
372.371	-2.56
372.582	-2.56
372.792	138.75
373.003	44.54
373.214	56.83
373.424	75.26
373.635	-12.8
373.846	124.41
374.056	-2.56
374.267	28.16
374.477	24.06
374.688	38.4
374.898	52.74
375.109	112.13
375.319	46.59
375.53	128.51
375.74	126.46
375.951	24.06
376.161	22.02
376.372	126.46
376.582	42.5
376.793	79.36
377.003	48.64
377.214	69.12
377.424	116.22
377.635	-29.18
377.845	17.92
378.055	126.46
378.266	-12.8
378.476	32.26
378.686	134.65
378.897	83.45
379.107	50.69
379.317	65.02
379.528	26.11
379.738	79.36
379.948	40.45
380.158	136.7
380.369	24.06
380.579	44.54
380.789	81.41
380.999	13.82
381.21	114.17
381.42	140.8
381.63	28.16
381.84	48.64
382.05	62.98
382.261	108.03
382.471	79.36
382.681	60.93
382.891	132.61
383.101	67.07
383.311	9.73
383.521	71.17
383.731	95.74
383.941	130.56
384.151	65.02
384.361	54.78
384.571	30.21
384.781	54.78
384.991	81.41
385.201	138.75
385.411	-10.75
385.621	112.13
385.831	146.94
386.041	62.98
386.251	122.37
386.461	151.04
386.671	-31.23
386.881	126.46
387.091	15.87
387.301	118.27
387.511	60.93
387.72	136.7
387.93	71.17
388.14	32.26
388.35	13.82
388.56	122.37
388.769	52.74
388.979	110.08
389.189	15.87
389.399	91.65
389.609	52.74
389.818	146.94
390.028	146.94
390.238	17.92
390.447	-8.7
390.657	56.83
390.867	46.59
391.076	5.63
391.286	-0.51
391.496	48.64
391.705	40.45
391.915	73.21
392.125	91.65
392.334	105.98
392.544	91.65
392.753	13.82
392.963	108.03
393.172	-10.75
393.382	89.6
393.591	140.8
393.801	42.5
394.01	136.7
394.22	91.65
394.429	112.13
394.639	62.98
394.848	50.69
395.058	15.87
395.267	73.21
395.477	112.13
395.686	181.76
395.895	105.98
396.105	204.28
396.314	79.36
396.524	97.79
396.733	161.28
396.942	65.02
397.152	112.13
397.361	140.8
397.57	75.26
397.78	62.98
397.989	65.02
398.198	171.52
398.407	22.02
398.617	60.93
398.826	167.42
399.035	50.69
399.244	97.79
399.453	83.45
399.663	114.17
399.872	183.81
400.081	73.21
400.29	138.75
400.499	40.45
400.708	112.13
400.917	83.45
401.127	71.17
401.336	157.18
401.545	194.05
401.754	126.46
401.963	124.41
402.172	93.69
402.381	73.21
402.59	97.79
402.799	122.37
403.008	138.75
403.217	151.04
403.426	110.08
403.635	62.98
403.844	118.27
404.053	71.17
404.262	83.45
404.471	130.56
404.68	153.09
404.888	105.98
405.097	120.32
405.306	140.8
405.515	128.51
405.724	75.26
405.933	130.56
406.142	165.37
406.35	171.52
406.559	99.84
406.768	93.69
406.977	196.09
407.185	148.99
407.394	95.74
407.603	99.84
407.812	173.57
408.02	202.24
408.229	202.24
408.438	140.8
408.646	161.28
408.855	181.76
409.064	196.09
409.272	206.33
409.481	235
409.69	218.62
409.898	181.76
410.107	210.43
410.315	259.58
410.524	278.01
410.733	255.48
410.941	269.82
411.15	214.52
411.358	376.31
411.567	343.55
411.775	392.7
411.984	316.92
412.192	357.88
412.401	329.21
412.609	382.46
412.818	396.79
413.026	474.62
413.234	361.98
413.443	421.37
413.651	392.7
413.86	464.38
414.068	458.23
414.276	548.34
414.485	441.85
414.693	515.58
414.901	544.25
415.11	605.69
415.318	493.05
415.526	515.58
415.734	542.2
415.943	570.87
416.151	638.45
416.359	628.21
416.567	669.17
416.776	650.74
416.984	714.23
417.192	734.71
417.4	824.82
417.608	669.17
417.817	734.71
418.025	765.43
418.233	970.23
418.441	808.44
418.649	869.87
418.857	1025.52
419.065	931.31
419.273	892.4
419.481	972.27
419.689	1197.55
419.897	1111.54
420.105	1089.01
420.313	1150.45
420.521	1193.45
420.729	1261.04
420.937	1314.28
421.145	1228.27
421.353	1375.72
421.561	1369.58
421.769	1428.97
421.977	1469.93
422.185	1385.96
422.393	1629.67
422.601	1678.82
422.809	1652.2
423.017	1668.58
423.224	1687.01
423.432	1842.66
423.64	1891.81
423.848	1902.05
424.056	1922.53
424.263	2112.99
424.471	2098.66
424.679	2266.59
424.887	2235.87
425.094	2268.64
425.302	2356.7
425.51	2506.2
425.718	2541.02
425.925	2608.6
426.133	2690.52
426.341	2694.61
426.548	2880.98
426.756	2936.28
426.964	2948.56
427.171	3069.39
427.379	3206.61
427.586	3208.66
427.794	3440.08
428.001	3493.32
428.209	3708.36
428.417	3595.72
428.624	3907.01
428.832	3763.65
429.039	3747.27
429.247	3786.18
429.454	4144.58
429.662	4486.59
429.869	4152.77
430.076	4631.99
430.284	4189.63
430.491	4595.13
430.699	4750.78
430.906	4767.16
431.114	4758.97
431.321	5057.97
431.528	5254.58
431.736	5520.81
431.943	5559.72
432.15	5467.56
432.358	5625.26
432.565	6122.91
432.772	5825.96
432.979	6378.91
433.187	6356.38
433.394	6315.42
433.601	6890.9
433.808	6882.71
434.016	6745.5
434.223	7126.42
434.43	7493.01
434.637	7396.75
434.844	7714.19
435.052	7875.98
435.259	7837.06
435.466	8048.01
435.673	7816.58
435.88	8494.46
436.087	8639.87
436.294	8824.19
436.501	8609.15
436.708	8869.24
436.915	9147.76
437.122	9606.51
437.329	9543.02
437.537	9788.78
437.743	9971.05
437.95	10018.15
438.157	10437.98
438.364	10634.59
438.571	10581.34
438.778	10653.02
438.985	11689.29
439.192	11365.71
439.399	11775.31
439.606	11367.76
439.813	12047.69
440.02	12989.75
440.227	12698.94
440.433	12492.1
440.64	12961.08
440.847	12821.82
441.054	12930.36
441.261	14353.7
441.467	13851.95
441.674	13950.25
441.881	14636.32
442.088	14433.57
442.294	14245.16
442.501	14892.32
442.708	15058.2
442.914	15705.36
443.121	16356.61
443.328	15842.57
443.534	17343.74
443.741	16555.27
443.948	16250.12
444.154	17523.96
444.361	17636.59
444.568	17603.83
444.774	17865.97
444.981	17734.9
445.187	18267.37
445.394	19053.79
445.6	18828.51
445.807	20638.92
446.013	19985.62
446.22	20305.1
446.426	21021.89
446.633	21013.7
446.839	22049.97
447.046	20796.61
447.252	22365.35
447.459	22107.31
447.665	22375.59
447.871	23151.77
448.078	24442
448.284	23102.62
448.491	23970.96
448.697	24714.37
448.903	25019.52
449.11	25515.13
449.316	24728.71
449.522	25314.43
449.728	26301.55
449.935	26020.98
450.141	26203.25
450.347	26864.74
450.553	25851
450.76	26426.48
450.966	27182.18
451.172	26780.78
451.378	27655.26
451.584	27085.92
451.791	27685.98
451.997	27577.44
452.203	27724.89
452.409	28238.93
452.615	28087.38
452.821	27087.97
453.027	26537.07
453.233	28185.68
453.44	26928.23
453.646	27124.83
453.852	27239.52
454.058	27780.18
454.264	26897.51
454.47	27481.18
454.676	26868.84
454.882	28222.55
455.088	25287.81
455.294	25785.46
455.5	26066.03
455.705	26412.14
455.911	25191.55
456.117	24878.21
456.323	24587.4
456.529	23338.14
456.735	24095.89
456.941	23657.62
457.147	23186.59
457.352	22789.28
457.558	22678.69
457.764	22518.95
457.97	21978.29
458.176	21216.44
458.381	21312.7
458.587	20389.06
458.793	20458.7
458.999	19346.65
459.204	21019.84
459.41	20301
459.616	19227.87
459.821	19135.71
460.027	18732.26
460.233	18609.38
460.438	17452.28
460.644	17884.4
460.85	17028.35
461.055	16563.46
461.261	16475.4
461.466	15463.7
461.672	14941.47
461.878	15805.71
462.083	14877.98
462.289	14456.1
462.494	14314.79
462.7	13796.65
462.905	13600.05
463.111	13917.48
463.316	13919.53
463.522	13737.26
463.727	13651.25
463.932	13704.49
464.138	13428.02
464.343	13714.73
464.549	13176.12
464.754	13579.57
464.959	13647.15
465.165	13526.32
465.37	12932.41
465.575	12483.91
465.781	12778.81
465.986	13024.57
466.191	12412.23
466.397	12193.09
466.602	11717.97
466.807	12150.09
467.012	12232.01
467.218	12350.79
