Data from USB4F104151__32__13-04-50-767.txt Node

Date: Fri Mar 14 13:04:50 EDT 2025
User: louis
Spectrometer: USB4F10415
Trigger mode: 4
Integration Time (sec): 4.000000E-2
Scans to average: 1
Electric dark correction enabled: true
Nonlinearity correction enabled: false
Boxcar width: 0
XAxis mode: Wavelengths
Number of Pixels in Spectrum: 3648
>>>>>Begin Spectral Data<<<<<
178.204	-91.82
178.424	-91.82
178.644	-91.82
178.864	-198.31
179.084	-163.5
179.304	-24.23
179.524	45.4
179.744	-24.23
179.964	84.31
180.184	-5.8
180.404	2.39
180.624	26.96
180.844	22.87
181.064	-16.04
181.283	-38.57
181.503	-63.15
181.723	-9.9
181.943	-28.33
182.163	84.31
182.383	-13.99
182.602	67.92
182.822	67.92
183.042	65.88
183.262	76.12
183.482	-36.52
183.701	49.49
183.921	2.39
184.141	-36.52
184.361	16.73
184.58	92.5
184.8	16.73
185.02	57.68
185.239	112.98
185.459	24.92
185.679	108.88
185.898	41.3
186.118	33.11
186.338	-7.85
186.557	92.5
186.777	-16.04
186.997	29.01
187.216	74.07
187.436	162.13
187.655	49.49
187.875	102.74
188.095	45.4
188.314	51.54
188.534	67.92
188.753	18.77
188.973	137.56
189.192	22.87
189.412	24.92
189.631	49.49
189.851	117.08
190.07	37.2
190.29	-3.75
190.509	16.73
190.729	2.39
190.948	106.84
191.168	160.08
191.387	90.45
191.607	33.11
191.826	51.54
192.045	110.93
192.265	16.73
192.484	24.92
192.704	43.35
192.923	43.35
193.142	123.22
193.362	24.92
193.581	94.55
193.8	65.88
194.02	80.21
194.239	67.92
194.458	84.31
194.678	-32.43
194.897	74.07
195.116	51.54
195.335	51.54
195.555	61.78
195.774	-16.04
195.993	72.02
196.212	80.21
196.432	82.26
196.651	16.73
196.87	43.35
197.089	127.32
197.308	108.88
197.528	86.36
197.747	-9.9
197.966	41.3
198.185	166.23
198.404	41.3
198.623	37.2
198.842	65.88
199.062	88.4
199.281	88.4
199.5	8.53
199.719	37.2
199.938	94.55
200.157	92.5
200.376	59.73
200.595	76.12
200.814	47.44
201.033	94.55
201.252	98.64
201.471	53.59
201.69	137.56
201.909	92.5
202.128	78.16
202.347	117.08
202.566	29.01
202.785	29.01
203.004	-7.85
203.223	213.33
203.442	80.21
203.661	53.59
203.879	53.59
204.098	106.84
204.317	51.54
204.536	96.6
204.755	43.35
204.974	55.64
205.193	49.49
205.411	160.08
205.63	90.45
205.849	106.84
206.068	57.68
206.287	67.92
206.505	112.98
206.724	76.12
206.943	20.82
207.162	-13.99
207.381	76.12
207.599	43.35
207.818	49.49
208.037	47.44
208.255	45.4
208.474	41.3
208.693	74.07
208.911	115.03
209.13	98.64
209.349	115.03
209.567	47.44
209.786	151.89
210.005	90.45
210.223	35.16
210.442	-36.52
210.661	14.68
210.879	80.21
211.098	90.45
211.316	41.3
211.535	59.73
211.753	47.44
211.972	94.55
212.191	35.16
212.409	59.73
212.628	55.64
212.846	41.3
213.065	18.77
213.283	174.42
213.502	24.92
213.72	-3.75
213.938	49.49
214.157	33.11
214.375	166.23
214.594	4.44
214.812	47.44
215.031	41.3
215.249	57.68
215.467	96.6
215.686	104.79
215.904	90.45
216.122	29.01
216.341	55.64
216.559	49.49
216.778	76.12
216.996	86.36
217.214	74.07
217.432	35.16
217.651	61.78
217.869	51.54
218.087	69.97
218.306	-57
218.524	39.25
218.742	39.25
218.96	29.01
219.179	16.73
219.397	96.6
219.615	164.18
219.833	117.08
220.051	2.39
220.27	164.18
220.488	137.56
220.706	8.53
220.924	74.07
221.142	94.55
221.36	76.12
221.578	51.54
221.796	37.2
222.015	115.03
222.233	76.12
222.451	137.56
222.669	63.83
222.887	49.49
223.105	43.35
223.323	24.92
223.541	18.77
223.759	108.88
223.977	-13.99
224.195	45.4
224.413	53.59
224.631	82.26
224.849	61.78
225.067	96.6
225.285	26.96
225.503	4.44
225.721	-9.9
225.939	35.16
226.157	92.5
226.375	55.64
226.592	43.35
226.81	-28.33
227.028	67.92
227.246	78.16
227.464	16.73
227.682	16.73
227.9	158.03
228.117	26.96
228.335	-18.09
228.553	20.82
228.771	-13.99
228.989	51.54
229.206	37.2
229.424	8.53
229.642	51.54
229.86	57.68
230.077	33.11
230.295	117.08
230.513	96.6
230.731	76.12
230.948	63.83
231.166	61.78
231.384	-36.52
231.601	80.21
231.819	92.5
232.037	90.45
232.254	22.87
232.472	53.59
232.689	63.83
232.907	49.49
233.125	2.39
233.342	53.59
233.56	-7.85
233.777	-22.19
233.995	59.73
234.213	127.32
234.43	49.49
234.648	8.53
234.865	33.11
235.083	69.97
235.3	69.97
235.518	180.56
235.735	78.16
235.953	24.92
236.17	18.77
236.388	26.96
236.605	39.25
236.822	135.51
237.04	141.65
237.257	74.07
237.475	22.87
237.692	86.36
237.909	10.58
238.127	37.2
238.344	65.88
238.562	78.16
238.779	-16.04
238.996	-65.19
239.214	133.46
239.431	49.49
239.648	127.32
239.865	67.92
240.083	20.82
240.3	72.02
240.517	33.11
240.735	115.03
240.952	82.26
241.169	22.87
241.386	108.88
241.603	26.96
241.821	39.25
242.038	82.26
242.255	88.4
242.472	57.68
242.689	-16.04
242.907	74.07
243.124	86.36
243.341	98.64
243.558	6.49
243.775	0.34
243.992	-5.8
244.209	14.68
244.426	129.36
244.643	155.99
244.86	100.69
245.078	74.07
245.295	80.21
245.512	4.44
245.729	20.82
245.946	108.88
246.163	110.93
246.38	14.68
246.597	137.56
246.814	74.07
247.031	12.63
247.248	8.53
247.464	86.36
247.681	80.21
247.898	49.49
248.115	51.54
248.332	16.73
248.549	151.89
248.766	74.07
248.983	65.88
249.2	102.74
249.417	96.6
249.633	82.26
249.85	67.92
250.067	18.77
250.284	86.36
250.501	80.21
250.717	127.32
250.934	-18.09
251.151	67.92
251.368	76.12
251.585	-26.28
251.801	-16.04
252.018	-48.81
252.235	49.49
252.451	65.88
252.668	76.12
252.885	84.31
253.102	123.22
253.318	45.4
253.535	33.11
253.752	-24.23
253.968	39.25
254.185	37.2
254.401	55.64
254.618	84.31
254.835	-50.86
255.051	172.37
255.268	24.92
255.484	63.83
255.701	100.69
255.917	141.65
256.134	33.11
256.351	10.58
256.567	55.64
256.784	10.58
257	-24.23
257.217	112.98
257.433	47.44
257.65	84.31
257.866	84.31
258.082	49.49
258.299	8.53
258.515	22.87
258.732	55.64
258.948	98.64
259.165	65.88
259.381	-36.52
259.597	117.08
259.814	14.68
260.03	33.11
260.246	59.73
260.463	100.69
260.679	6.49
260.895	55.64
261.112	94.55
261.328	4.44
261.544	37.2
261.761	131.41
261.977	-46.76
262.193	29.01
262.409	51.54
262.626	139.6
262.842	86.36
263.058	108.88
263.274	125.27
263.49	39.25
263.707	61.78
263.923	51.54
264.139	-11.95
264.355	53.59
264.571	147.8
264.787	39.25
265.004	80.21
265.22	6.49
265.436	18.77
265.652	20.82
265.868	35.16
266.084	29.01
266.3	61.78
266.516	20.82
266.732	119.12
266.948	45.4
267.164	45.4
267.38	110.93
267.596	57.68
267.812	92.5
268.028	76.12
268.244	31.06
268.46	-22.19
268.676	-7.85
268.892	76.12
269.108	-71.34
269.324	4.44
269.54	6.49
269.756	65.88
269.972	37.2
270.188	0.34
270.403	18.77
270.619	4.44
270.835	108.88
271.051	18.77
271.267	115.03
271.483	16.73
271.698	69.97
271.914	92.5
272.13	96.6
272.346	33.11
272.562	-13.99
272.777	94.55
272.993	12.63
273.209	0.34
273.425	106.84
273.64	0.34
273.856	110.93
274.072	8.53
274.287	35.16
274.503	88.4
274.719	106.84
274.934	18.77
275.15	29.01
275.366	123.22
275.581	-30.38
275.797	67.92
276.012	33.11
276.228	18.77
276.444	49.49
276.659	51.54
276.875	16.73
277.09	47.44
277.306	33.11
277.521	43.35
277.737	-7.85
277.952	135.51
278.168	92.5
278.383	143.7
278.599	26.96
278.814	63.83
279.03	37.2
279.245	139.6
279.461	92.5
279.676	6.49
279.892	-7.85
280.107	2.39
280.322	69.97
280.538	168.27
280.753	63.83
280.969	88.4
281.184	0.34
281.399	69.97
281.615	74.07
281.83	76.12
282.045	67.92
282.26	-13.99
282.476	90.45
282.691	78.16
282.906	35.16
283.122	24.92
283.337	33.11
283.552	100.69
283.767	10.58
283.983	72.02
284.198	53.59
284.413	96.6
284.628	6.49
284.843	82.26
285.058	90.45
285.274	108.88
285.489	51.54
285.704	55.64
285.919	-9.9
286.134	76.12
286.349	69.97
286.564	51.54
286.779	96.6
286.995	94.55
287.21	-26.28
287.425	53.59
287.64	35.16
287.855	55.64
288.07	12.63
288.285	78.16
288.5	26.96
288.715	117.08
288.93	37.2
289.145	-13.99
289.36	158.03
289.575	69.97
289.79	20.82
290.004	80.21
290.219	26.96
290.434	102.74
290.649	18.77
290.864	72.02
291.079	86.36
291.294	176.47
291.509	88.4
291.724	29.01
291.938	174.42
292.153	55.64
292.368	-20.14
292.583	43.35
292.798	131.41
293.012	100.69
293.227	110.93
293.442	37.2
293.657	80.21
293.871	61.78
294.086	57.68
294.301	61.78
294.516	90.45
294.73	108.88
294.945	-18.09
295.16	24.92
295.374	80.21
295.589	35.16
295.804	-32.43
296.018	49.49
296.233	33.11
296.447	39.25
296.662	24.92
296.877	78.16
297.091	41.3
297.306	96.6
297.52	78.16
297.735	31.06
297.949	90.45
298.164	88.4
298.378	121.17
298.593	-9.9
298.807	69.97
299.022	123.22
299.236	180.56
299.451	94.55
299.665	63.83
299.88	12.63
300.094	41.3
300.309	76.12
300.523	74.07
300.737	69.97
300.952	115.03
301.166	16.73
301.381	-13.99
301.595	33.11
301.809	92.5
302.024	8.53
302.238	51.54
302.452	123.22
302.667	2.39
302.881	141.65
303.095	119.12
303.309	98.64
303.524	22.87
303.738	16.73
303.952	26.96
304.166	35.16
304.381	-28.33
304.595	112.98
304.809	24.92
305.023	129.36
305.237	12.63
305.452	-59.05
305.666	72.02
305.88	121.17
306.094	110.93
306.308	106.84
306.522	110.93
306.736	88.4
306.95	6.49
307.164	141.65
307.379	102.74
307.593	82.26
307.807	123.22
308.021	65.88
308.235	106.84
308.449	-59.05
308.663	2.39
308.877	217.43
309.091	61.78
309.305	90.45
309.519	33.11
309.733	127.32
309.947	16.73
310.161	180.56
310.374	215.38
310.588	57.68
310.802	-18.09
311.016	-22.19
311.23	55.64
311.444	82.26
311.658	61.78
311.872	51.54
312.085	166.23
312.299	127.32
312.513	94.55
312.727	121.17
312.941	-30.38
313.154	98.64
313.368	51.54
313.582	41.3
313.796	78.16
314.009	76.12
314.223	82.26
314.437	41.3
314.651	53.59
314.864	65.88
315.078	59.73
315.292	110.93
315.505	78.16
315.719	69.97
315.933	123.22
316.146	90.45
316.36	-44.71
316.573	143.7
316.787	98.64
317.001	145.75
317.214	33.11
317.428	106.84
317.641	59.73
317.855	26.96
318.068	63.83
318.282	76.12
318.495	149.84
318.709	76.12
318.922	51.54
319.136	121.17
319.349	100.69
319.563	117.08
319.776	16.73
319.99	10.58
320.203	45.4
320.417	53.59
320.63	139.6
320.843	151.89
321.057	78.16
321.27	55.64
321.483	33.11
321.697	106.84
321.91	45.4
322.124	49.49
322.337	145.75
322.55	26.96
322.763	76.12
322.977	37.2
323.19	39.25
323.403	10.58
323.617	61.78
323.83	82.26
324.043	139.6
324.256	131.41
324.469	2.39
324.683	110.93
324.896	65.88
325.109	90.45
325.322	82.26
325.535	84.31
325.748	98.64
325.962	104.79
326.175	35.16
326.388	84.31
326.601	115.03
326.814	94.55
327.027	110.93
327.24	123.22
327.453	90.45
327.666	98.64
327.879	86.36
328.092	123.22
328.305	98.64
328.518	43.35
328.731	35.16
328.944	137.56
329.157	84.31
329.37	49.49
329.583	112.98
329.796	49.49
330.009	41.3
330.222	94.55
330.435	16.73
330.648	43.35
330.861	61.78
331.073	26.96
331.286	115.03
331.499	35.16
331.712	35.16
331.925	86.36
332.138	106.84
332.35	61.78
332.563	33.11
332.776	131.41
332.989	41.3
333.202	47.44
333.414	98.64
333.627	72.02
333.84	98.64
334.053	31.06
334.265	16.73
334.478	76.12
334.691	96.6
334.903	41.3
335.116	-22.19
335.329	-50.86
335.541	63.83
335.754	98.64
335.966	61.78
336.179	47.44
336.392	6.49
336.604	24.92
336.817	117.08
337.029	121.17
337.242	37.2
337.454	121.17
337.667	29.01
337.88	53.59
338.092	67.92
338.305	67.92
338.517	2.39
338.729	-9.9
338.942	123.22
339.154	41.3
339.367	98.64
339.579	92.5
339.792	49.49
340.004	110.93
340.217	166.23
340.429	45.4
340.641	96.6
340.854	20.82
341.066	65.88
341.278	104.79
341.491	143.7
341.703	67.92
341.915	-7.85
342.128	104.79
342.34	49.49
342.552	57.68
342.764	51.54
342.977	59.73
343.189	149.84
343.401	80.21
343.613	47.44
343.826	108.88
344.038	57.68
344.25	49.49
344.462	49.49
344.674	82.26
344.886	57.68
345.099	168.27
345.311	86.36
345.523	26.96
345.735	-34.47
345.947	74.07
346.159	98.64
346.371	8.53
346.583	-18.09
346.795	74.07
347.007	65.88
347.219	123.22
347.431	80.21
347.643	119.12
347.855	-7.85
348.067	133.46
348.279	-52.91
348.491	22.87
348.703	125.27
348.915	41.3
349.127	20.82
349.339	53.59
349.551	121.17
349.763	100.69
349.975	51.54
350.187	51.54
350.399	129.36
350.61	82.26
350.822	24.92
351.034	106.84
351.246	61.78
351.458	0.34
351.669	80.21
351.881	125.27
352.093	121.17
352.305	49.49
352.517	-3.75
352.728	147.8
352.94	149.84
353.152	92.5
353.363	33.11
353.575	129.36
353.787	168.27
353.999	139.6
354.21	108.88
354.422	-22.19
354.633	55.64
354.845	110.93
355.057	57.68
355.268	55.64
355.48	84.31
355.692	29.01
355.903	98.64
356.115	65.88
356.326	-11.95
356.538	188.75
356.749	82.26
356.961	74.07
357.172	67.92
357.384	18.77
357.595	178.51
357.807	57.68
358.018	59.73
358.23	45.4
358.441	119.12
358.653	33.11
358.864	100.69
359.075	84.31
359.287	37.2
359.498	67.92
359.709	33.11
359.921	6.49
360.132	80.21
360.344	20.82
360.555	47.44
360.766	51.54
360.977	53.59
361.189	49.49
361.4	108.88
361.611	82.26
361.823	174.42
362.034	41.3
362.245	45.4
362.456	84.31
362.667	29.01
362.879	14.68
363.09	123.22
363.301	29.01
363.512	100.69
363.723	84.31
363.935	-3.75
364.146	82.26
364.357	57.68
364.568	59.73
364.779	41.3
364.99	166.23
365.201	57.68
365.412	149.84
365.623	10.58
365.834	65.88
366.045	106.84
366.256	74.07
366.467	121.17
366.678	115.03
366.889	82.26
367.1	84.31
367.311	108.88
367.522	59.73
367.733	131.41
367.944	94.55
368.155	35.16
368.366	69.97
368.577	166.23
368.788	92.5
368.999	49.49
369.209	100.69
369.42	110.93
369.631	123.22
369.842	37.2
370.053	41.3
370.264	131.41
370.474	2.39
370.685	96.6
370.896	33.11
371.107	158.03
371.317	67.92
371.528	41.3
371.739	0.34
371.95	129.36
372.16	98.64
372.371	2.39
372.582	108.88
372.792	178.51
373.003	57.68
373.214	76.12
373.424	90.45
373.635	49.49
373.846	166.23
374.056	106.84
374.267	129.36
374.477	117.08
374.688	55.64
374.898	74.07
375.109	84.31
375.319	94.55
375.53	170.32
375.74	49.49
375.951	182.61
376.161	69.97
376.372	135.51
376.582	47.44
376.793	135.51
377.003	-7.85
377.214	86.36
377.424	35.16
377.635	88.4
377.845	96.6
378.055	186.71
378.266	47.44
378.476	84.31
378.686	39.25
378.897	51.54
379.107	129.36
379.317	115.03
379.528	59.73
379.738	141.65
379.948	20.82
380.158	117.08
380.369	69.97
380.579	164.18
380.789	12.63
380.999	102.74
381.21	84.31
381.42	180.56
381.63	6.49
381.84	98.64
382.05	98.64
382.261	135.51
382.471	158.03
382.681	57.68
382.891	86.36
383.101	22.87
383.311	82.26
383.521	90.45
383.731	131.41
383.941	74.07
384.151	119.12
384.361	78.16
384.571	98.64
384.781	33.11
384.991	176.47
385.201	166.23
385.411	131.41
385.621	158.03
385.831	143.7
386.041	86.36
386.251	112.98
386.461	112.98
386.671	115.03
386.881	110.93
387.091	12.63
387.301	127.32
387.511	74.07
387.72	119.12
387.93	207.19
388.14	127.32
388.35	123.22
388.56	176.47
388.769	82.26
388.979	35.16
389.189	-26.28
389.399	92.5
389.609	135.51
389.818	188.75
390.028	164.18
390.238	53.59
390.447	78.16
390.657	151.89
390.867	115.03
391.076	45.4
391.286	100.69
391.496	84.31
391.705	67.92
391.915	166.23
392.125	117.08
392.334	149.84
392.544	135.51
392.753	61.78
392.963	92.5
393.172	158.03
393.382	57.68
393.591	178.51
393.801	63.83
394.01	211.28
394.22	139.6
394.429	209.23
394.639	176.47
394.848	119.12
395.058	94.55
395.267	178.51
395.477	125.27
395.686	139.6
395.895	174.42
396.105	201.04
396.314	166.23
396.524	112.98
396.733	108.88
396.942	192.85
397.152	133.46
397.361	135.51
397.57	131.41
397.78	168.27
397.989	100.69
398.198	127.32
398.407	100.69
398.617	106.84
398.826	170.32
399.035	147.8
399.244	231.76
399.453	176.47
399.663	125.27
399.872	196.95
400.081	88.4
400.29	174.42
400.499	49.49
400.708	172.37
400.917	190.8
401.127	213.33
401.336	160.08
401.545	239.95
401.754	237.91
401.963	205.14
402.172	129.36
402.381	137.56
402.59	174.42
402.799	141.65
403.008	172.37
403.217	108.88
403.426	223.57
403.635	49.49
403.844	209.23
404.053	188.75
404.262	137.56
404.471	225.62
404.68	162.13
404.888	145.75
405.097	176.47
405.306	248.15
405.515	229.71
405.724	172.37
405.933	299.34
406.142	250.19
406.35	262.48
406.559	252.24
406.768	262.48
406.977	307.54
407.185	264.53
407.394	235.86
407.603	282.96
407.812	270.67
408.02	336.21
408.229	239.95
408.438	272.72
408.646	285.01
408.855	336.21
409.064	282.96
409.272	278.87
409.481	321.87
409.69	383.31
409.898	368.98
410.107	307.54
410.315	401.74
410.524	438.61
410.733	389.46
410.941	436.56
411.15	532.81
411.358	483.66
411.567	541.01
411.775	493.9
411.984	495.95
412.192	559.44
412.401	426.32
412.609	616.78
412.818	676.17
413.026	696.65
413.234	633.16
413.443	692.55
413.651	706.89
413.86	698.7
414.068	692.55
414.276	805.19
414.485	758.09
414.693	840.01
414.901	887.11
415.11	876.87
415.318	825.67
415.526	893.26
415.734	960.84
415.943	1012.04
416.151	1091.91
416.359	979.27
416.567	979.27
416.776	1012.04
416.984	1179.97
417.192	1257.79
417.4	1206.59
417.608	1184.07
417.817	1225.03
418.025	1440.06
418.233	1419.58
418.441	1313.09
418.649	1470.78
418.857	1542.46
419.065	1648.96
419.273	1608
419.481	1603.9
419.689	1618.24
419.897	1880.38
420.105	1853.75
420.313	1950.01
420.521	1970.49
420.729	1958.2
420.937	2017.59
421.145	2255.15
421.353	2283.83
421.561	2310.45
421.769	2539.82
421.977	2572.59
422.185	2402.61
422.393	2599.21
422.601	2724.14
422.809	2763.05
423.017	2746.67
423.224	2916.65
423.432	3166.5
423.64	3037.48
423.848	3318.05
424.056	3373.35
424.263	3352.87
424.471	3383.59
424.679	3612.96
424.887	3662.11
425.094	3838.23
425.302	3948.83
425.51	4047.13
425.718	4170.01
425.925	4256.02
426.133	4307.22
426.341	4632.85
426.548	4950.28
426.756	4759.82
426.964	4913.42
427.171	5155.08
427.379	5222.66
427.586	5431.55
427.794	5501.19
428.001	5777.66
428.209	6021.37
428.417	5937.4
428.624	6365.43
428.832	6263.03
429.039	6490.35
429.247	6303.99
429.454	6990.06
429.662	7428.32
429.869	7082.22
430.076	7377.12
430.284	7254.25
430.491	7520.48
430.699	7999.71
430.906	8024.28
431.114	8007.9
431.321	8288.47
431.528	8521.94
431.736	9236.68
431.943	9525.44
432.15	9162.95
432.358	9343.17
432.565	9971.9
432.772	9797.82
432.979	10424.5
433.187	10365.11
433.394	10547.38
433.601	11249.83
433.808	11376.81
434.016	11190.44
434.223	11577.51
434.43	12509.33
434.637	12206.24
434.844	12867.73
435.052	13074.57
435.259	13095.05
435.466	13361.29
435.673	13277.32
435.88	13783.17
436.087	14753.91
436.294	14749.81
436.501	14252.16
436.708	14387.32
436.915	15243.37
437.122	15683.69
437.329	15876.2
437.537	16277.6
437.743	16369.76
437.95	16318.56
438.157	17205.33
438.364	17883.2
438.571	17838.15
438.778	17956.93
438.985	19705.9
439.192	19025.97
439.399	19558.44
439.606	19085.36
439.813	20344.86
440.02	21272.59
440.227	20828.18
440.433	20682.78
440.64	21401.61
440.847	21151.76
441.054	21782.54
441.261	23158.77
441.467	22816.76
441.674	23289.84
441.881	24154.08
442.088	24156.13
442.294	24102.89
442.501	24700.89
442.708	25198.55
442.914	26171.33
443.121	27475.89
443.328	26716.09
443.534	28549.03
443.741	27320.24
443.948	27260.85
444.154	29142.94
444.361	29466.52
444.568	29185.94
444.774	29235.1
444.981	29298.58
445.187	30410.63
445.394	31727.47
445.6	31434.61
445.807	34488.14
446.013	32898.91
446.22	33466.2
446.426	34455.37
446.633	34920.26
446.839	36482.86
447.046	34803.52
447.252	36874.02
447.459	37037.86
447.665	36699.94
447.871	38123.28
448.078	40134.38
448.284	38037.26
448.491	39194.37
448.697	40337.13
448.903	41234.14
449.11	41205.47
449.316	40838.89
449.522	41459.42
449.728	42473.17
449.935	43060.93
450.141	42897.09
450.347	43695.8
450.553	42716.87
450.76	43359.94
450.966	44433.07
451.172	44076.72
451.378	45239.97
451.584	43861.69
451.791	45690.52
451.997	45440.67
452.203	45971.1
452.409	46302.87
452.615	45758.11
452.821	44064.44
453.027	43454.14
453.233	45717.15
453.44	44420.78
453.646	44768.94
453.852	45168.29
454.058	45442.72
454.264	44582.57
454.47	45676.19
454.676	44060.34
454.882	45270.69
455.088	41653.98
455.294	42235.6
455.5	43155.14
455.705	43562.68
455.911	41608.92
456.117	41144.03
456.323	40558.31
456.529	38399.76
456.735	40054.51
456.941	39190.27
457.147	38459.15
457.352	37213.98
457.558	36855.59
457.764	36896.55
457.97	36325.16
458.176	35411.77
458.381	35475.26
458.587	33824.59
458.793	33816.4
458.999	32040.81
459.204	34479.94
459.41	33251.16
459.616	31072.12
459.821	31389.56
460.027	31233.91
460.233	30484.36
460.438	29224.86
460.644	29069.21
460.85	28014.51
461.055	27240.37
461.261	27520.95
461.466	25280.47
461.672	24592.35
461.878	26488.77
462.083	24756.19
462.289	24182.76
462.494	23904.23
462.7	22900.73
462.905	22128.64
463.111	23009.27
463.316	23277.55
463.522	22339.58
463.727	22591.48
463.932	22611.96
464.138	22358.02
464.343	22487.04
464.549	21749.77
464.754	22319.1
464.959	22145.03
465.165	22106.12
465.37	21350.42
465.575	20637.72
