Data from USB4F104151__18__13-04-31-250.txt Node

Date: Fri Mar 14 13:04:31 EDT 2025
User: louis
Spectrometer: USB4F10415
Trigger mode: 4
Integration Time (sec): 4.000000E-2
Scans to average: 1
Electric dark correction enabled: true
Nonlinearity correction enabled: false
Boxcar width: 0
XAxis mode: Wavelengths
Number of Pixels in Spectrum: 3648
>>>>>Begin Spectral Data<<<<<
178.204	-189.27
178.424	-189.27
178.644	-189.27
178.864	-172.88
179.084	-176.98
179.304	-4.95
179.524	13.48
179.744	-11.09
179.964	48.3
180.184	25.77
180.404	-56.15
180.624	38.06
180.844	-29.52
181.064	-115.54
181.283	29.87
181.503	-9.05
181.723	70.83
181.943	-90.96
182.163	79.02
182.383	29.87
182.602	134.31
182.822	81.07
183.042	-19.29
183.262	76.97
183.482	54.44
183.701	-25.43
183.921	-2.9
184.141	-4.95
184.361	72.87
184.58	-19.29
184.8	15.53
185.02	48.3
185.239	99.5
185.459	-41.81
185.679	107.69
185.898	-0.85
186.118	70.83
186.338	33.96
186.557	105.64
186.777	3.24
186.997	48.3
187.216	64.68
187.436	105.64
187.655	3.24
187.875	48.3
188.095	9.39
188.314	48.3
188.534	128.17
188.753	-50
188.973	122.02
189.192	60.59
189.412	1.19
189.631	42.15
189.851	5.29
190.07	144.55
190.29	60.59
190.509	31.91
190.729	15.53
190.948	83.11
191.168	201.9
191.387	79.02
191.607	48.3
191.826	50.35
192.045	13.48
192.265	95.4
192.484	66.73
192.704	-35.67
192.923	-86.87
193.142	169.13
193.362	124.07
193.581	136.36
193.8	17.58
194.02	128.17
194.239	38.06
194.458	-54.1
194.678	-2.9
194.897	44.2
195.116	23.72
195.335	27.82
195.555	87.21
195.774	60.59
195.993	50.35
196.212	21.67
196.432	-27.48
196.651	31.91
196.87	-39.76
197.089	119.98
197.308	48.3
197.528	62.63
197.747	-33.62
197.966	72.87
198.185	128.17
198.404	99.5
198.623	15.53
198.842	-39.76
199.062	91.31
199.281	68.78
199.5	54.44
199.719	44.2
199.938	154.79
200.157	87.21
200.376	93.35
200.595	68.78
200.814	128.17
201.033	3.24
201.252	50.35
201.471	48.3
201.69	48.3
201.909	38.06
202.128	62.63
202.347	91.31
202.566	101.55
202.785	-11.09
203.004	-4.95
203.223	107.69
203.442	68.78
203.661	13.48
203.879	72.87
204.098	83.11
204.317	-15.19
204.536	89.26
204.755	52.39
204.974	40.11
205.193	-4.95
205.411	124.07
205.63	46.25
205.849	101.55
206.068	60.59
206.287	7.34
206.505	-58.2
206.724	46.25
206.943	21.67
207.162	-11.09
207.381	-39.76
207.599	21.67
207.818	62.63
208.037	19.63
208.255	23.72
208.474	83.11
208.693	-11.09
208.911	-15.19
209.13	64.68
209.349	48.3
209.567	54.44
209.786	46.25
210.005	5.29
210.223	40.11
210.442	-17.24
210.661	-7
210.879	-13.14
211.098	1.19
211.316	42.15
211.535	-27.48
211.753	81.07
211.972	115.88
212.191	-9.05
212.409	-4.95
212.628	42.15
212.846	-37.72
213.065	79.02
213.283	115.88
213.502	-2.9
213.72	136.36
213.938	-11.09
214.157	-13.14
214.375	89.26
214.594	36.01
214.812	46.25
215.031	70.83
215.249	-2.9
215.467	7.34
215.686	72.87
215.904	99.5
216.122	25.77
216.341	99.5
216.559	70.83
216.778	76.97
216.996	85.16
217.214	89.26
217.432	27.82
217.651	15.53
217.869	13.48
218.087	50.35
218.306	38.06
218.524	79.02
218.742	-7
218.96	38.06
219.179	44.2
219.397	-19.29
219.615	99.5
219.833	128.17
220.051	-11.09
220.27	95.4
220.488	138.41
220.706	54.44
220.924	54.44
221.142	54.44
221.36	44.2
221.578	23.72
221.796	-43.86
222.015	17.58
222.233	-13.14
222.451	19.63
222.669	-17.24
222.887	40.11
223.105	11.43
223.323	-0.85
223.541	-13.14
223.759	83.11
223.977	-11.09
224.195	185.51
224.413	38.06
224.631	54.44
224.849	117.93
225.067	177.32
225.285	-2.9
225.503	-41.81
225.721	-27.48
225.939	29.87
226.157	19.63
226.375	142.5
226.592	-11.09
226.81	-4.95
227.028	83.11
227.246	56.49
227.464	15.53
227.682	21.67
227.9	-37.72
228.117	93.35
228.335	81.07
228.553	54.44
228.771	66.73
228.989	79.02
229.206	11.43
229.424	38.06
229.642	-41.81
229.86	-2.9
230.077	81.07
230.295	46.25
230.513	13.48
230.731	81.07
230.948	101.55
231.166	58.54
231.384	31.91
231.601	1.19
231.819	60.59
232.037	15.53
232.254	-23.38
232.472	76.97
232.689	21.67
232.907	152.74
233.125	-2.9
233.342	-19.29
233.56	1.19
233.777	-4.95
233.995	97.45
234.213	119.98
234.43	81.07
234.648	5.29
234.865	64.68
235.083	76.97
235.3	60.59
235.518	83.11
235.735	105.64
235.953	87.21
236.17	11.43
236.388	-21.33
236.605	87.21
236.822	1.19
237.04	85.16
237.257	9.39
237.475	62.63
237.692	103.59
237.909	105.64
238.127	33.96
238.344	36.01
238.562	72.87
238.779	21.67
238.996	-82.77
239.214	11.43
239.431	83.11
239.648	29.87
239.865	76.97
240.083	54.44
240.3	25.77
240.517	5.29
240.735	-4.95
240.952	64.68
241.169	93.35
241.386	85.16
241.603	-56.15
241.821	56.49
242.038	70.83
242.255	109.74
242.472	19.63
242.689	48.3
242.907	48.3
243.124	54.44
243.341	-39.76
243.558	-47.96
243.775	38.06
243.992	1.19
244.209	58.54
244.426	171.18
244.643	31.91
244.86	23.72
245.078	46.25
245.295	87.21
245.512	19.63
245.729	-17.24
245.946	115.88
246.163	95.4
246.38	99.5
246.597	9.39
246.814	-9.05
247.031	29.87
247.248	11.43
247.464	89.26
247.681	99.5
247.898	46.25
248.115	38.06
248.332	11.43
248.549	76.97
248.766	117.93
248.983	70.83
249.2	72.87
249.417	171.18
249.633	42.15
249.85	142.5
250.067	-19.29
250.284	70.83
250.501	60.59
250.717	29.87
250.934	40.11
251.151	11.43
251.368	-2.9
251.585	99.5
251.801	93.35
252.018	13.48
252.235	50.35
252.451	-15.19
252.668	44.2
252.885	52.39
253.102	40.11
253.318	95.4
253.535	13.48
253.752	36.01
253.968	9.39
254.185	-33.62
254.401	23.72
254.618	58.54
254.835	40.11
255.051	171.18
255.268	89.26
255.484	31.91
255.701	103.59
255.917	5.29
256.134	-72.53
256.351	81.07
256.567	-11.09
256.784	21.67
257	11.43
257.217	62.63
257.433	38.06
257.65	62.63
257.866	64.68
258.082	-39.76
258.299	-41.81
258.515	91.31
258.732	38.06
258.948	36.01
259.165	-7
259.381	15.53
259.597	83.11
259.814	3.24
260.03	62.63
260.246	54.44
260.463	1.19
260.679	62.63
260.895	19.63
261.112	15.53
261.328	17.58
261.544	17.58
261.761	154.79
261.977	25.77
262.193	46.25
262.409	52.39
262.626	54.44
262.842	81.07
263.058	-29.52
263.274	56.49
263.49	132.26
263.707	89.26
263.923	56.49
264.139	-35.67
264.355	62.63
264.571	72.87
264.787	54.44
265.004	56.49
265.22	70.83
265.436	21.67
265.652	13.48
265.868	46.25
266.084	7.34
266.3	103.59
266.516	91.31
266.732	46.25
266.948	-35.67
267.164	31.91
267.38	68.78
267.596	33.96
267.812	56.49
268.028	31.91
268.244	-9.05
268.46	40.11
268.676	1.19
268.892	62.63
269.108	76.97
269.324	25.77
269.54	19.63
269.756	52.39
269.972	36.01
270.188	46.25
270.403	25.77
270.619	-19.29
270.835	56.49
271.051	19.63
271.267	62.63
271.483	58.54
271.698	72.87
271.914	23.72
272.13	66.73
272.346	17.58
272.562	72.87
272.777	122.02
272.993	7.34
273.209	-9.05
273.425	25.77
273.64	-86.87
273.856	52.39
274.072	1.19
274.287	-72.53
274.503	54.44
274.719	74.92
274.934	117.93
275.15	-27.48
275.366	72.87
275.581	5.29
275.797	7.34
276.012	-23.38
276.228	-35.67
276.444	85.16
276.659	124.07
276.875	21.67
277.09	99.5
277.306	-0.85
277.521	66.73
277.737	-43.86
277.952	79.02
278.168	66.73
278.383	23.72
278.599	48.3
278.814	50.35
279.03	44.2
279.245	46.25
279.461	54.44
279.676	119.98
279.892	44.2
280.107	46.25
280.322	11.43
280.538	50.35
280.753	33.96
280.969	95.4
281.184	1.19
281.399	70.83
281.615	115.88
281.83	62.63
282.045	48.3
282.26	-9.05
282.476	144.55
282.691	-9.05
282.906	-9.05
283.122	36.01
283.337	-50
283.552	52.39
283.767	74.92
283.983	95.4
284.198	15.53
284.413	9.39
284.628	62.63
284.843	64.68
285.058	62.63
285.274	15.53
285.489	60.59
285.704	70.83
285.919	36.01
286.134	13.48
286.349	42.15
286.564	9.39
286.779	105.64
286.995	58.54
287.21	33.96
287.425	25.77
287.64	46.25
287.855	132.26
288.07	-31.57
288.285	111.78
288.5	54.44
288.715	64.68
288.93	48.3
289.145	-7
289.36	42.15
289.575	17.58
289.79	46.25
290.004	23.72
290.219	101.55
290.434	-52.05
290.649	7.34
290.864	21.67
291.079	58.54
291.294	74.92
291.509	5.29
291.724	46.25
291.938	56.49
292.153	40.11
292.368	13.48
292.583	138.41
292.798	126.12
293.012	5.29
293.227	83.11
293.442	-4.95
293.657	58.54
293.871	58.54
294.086	83.11
294.301	113.83
294.516	58.54
294.73	56.49
294.945	-17.24
295.16	13.48
295.374	93.35
295.589	29.87
295.804	-41.81
296.018	23.72
296.233	95.4
296.447	62.63
296.662	7.34
296.877	138.41
297.091	87.21
297.306	23.72
297.52	119.98
297.735	111.78
297.949	72.87
298.164	58.54
298.378	-37.72
298.593	5.29
298.807	-7
299.022	-11.09
299.236	119.98
299.451	38.06
299.665	17.58
299.88	107.69
300.094	132.26
300.309	-0.85
300.523	72.87
300.737	29.87
300.952	72.87
301.166	46.25
301.381	-52.05
301.595	46.25
301.809	38.06
302.024	17.58
302.238	-29.52
302.452	31.91
302.667	31.91
302.881	58.54
303.095	101.55
303.309	72.87
303.524	-47.96
303.738	-4.95
303.952	5.29
304.166	105.64
304.381	-39.76
304.595	70.83
304.809	31.91
305.023	48.3
305.237	52.39
305.452	33.96
305.666	103.59
305.88	122.02
306.094	140.46
306.308	62.63
306.522	60.59
306.736	21.67
306.95	5.29
307.164	29.87
307.379	70.83
307.593	138.41
307.807	36.01
308.021	38.06
308.235	46.25
308.449	-25.43
308.663	5.29
308.877	142.5
309.091	58.54
309.305	42.15
309.519	-15.19
309.733	128.17
309.947	-23.38
310.161	17.58
310.374	76.97
310.588	171.18
310.802	50.35
311.016	17.58
311.23	97.45
311.444	-4.95
311.658	91.31
311.872	89.26
312.085	62.63
312.299	42.15
312.513	58.54
312.727	109.74
312.941	3.24
313.154	60.59
313.368	3.24
313.582	36.01
313.796	99.5
314.009	76.97
314.223	91.31
314.437	64.68
314.651	122.02
314.864	50.35
315.078	40.11
315.292	21.67
315.505	46.25
315.719	115.88
315.933	146.6
316.146	-58.2
316.36	42.15
316.573	83.11
316.787	5.29
317.001	81.07
317.214	-17.24
317.428	1.19
317.641	-21.33
317.855	48.3
318.068	21.67
318.282	25.77
318.495	128.17
318.709	48.3
318.922	76.97
319.136	158.89
319.349	126.12
319.563	-25.43
319.776	44.2
319.99	40.11
320.203	136.36
320.417	38.06
320.63	124.07
320.843	113.83
321.057	128.17
321.27	13.48
321.483	54.44
321.697	103.59
321.91	122.02
322.124	42.15
322.337	5.29
322.55	-7
322.763	62.63
322.977	-39.76
323.19	13.48
323.403	27.82
323.617	128.17
323.83	74.92
324.043	29.87
324.256	89.26
324.469	-37.72
324.683	15.53
324.896	62.63
325.109	7.34
325.322	-74.58
325.535	144.55
325.748	87.21
325.962	7.34
326.175	23.72
326.388	62.63
326.601	138.41
326.814	60.59
327.027	97.45
327.24	97.45
327.453	-11.09
327.666	154.79
327.879	105.64
328.092	95.4
328.305	81.07
328.518	72.87
328.731	85.16
328.944	-11.09
329.157	64.68
329.37	44.2
329.583	66.73
329.796	79.02
330.009	-37.72
330.222	9.39
330.435	95.4
330.648	87.21
330.861	-11.09
331.073	97.45
331.286	72.87
331.499	72.87
331.712	13.48
331.925	27.82
332.138	60.59
332.35	177.32
332.563	17.58
332.776	132.26
332.989	15.53
333.202	95.4
333.414	79.02
333.627	46.25
333.84	-2.9
334.053	56.49
334.265	5.29
334.478	33.96
334.691	13.48
334.903	25.77
335.116	81.07
335.329	87.21
335.541	48.3
335.754	109.74
335.966	46.25
336.179	9.39
336.392	38.06
336.604	42.15
336.817	60.59
337.029	11.43
337.242	-4.95
337.454	38.06
337.667	60.59
337.88	70.83
338.092	64.68
338.305	113.83
338.517	27.82
338.729	105.64
338.942	91.31
339.154	-41.81
339.367	25.77
339.579	113.83
339.792	87.21
340.004	158.89
340.217	48.3
340.429	19.63
340.641	33.96
340.854	-17.24
341.066	-37.72
341.278	79.02
341.491	158.89
341.703	46.25
341.915	79.02
342.128	66.73
342.34	-0.85
342.552	101.55
342.764	21.67
342.977	79.02
343.189	23.72
343.401	83.11
343.613	-39.76
343.826	130.22
344.038	-39.76
344.25	99.5
344.462	89.26
344.674	50.35
344.886	76.97
345.099	103.59
345.311	89.26
345.523	113.83
345.735	5.29
345.947	54.44
346.159	9.39
346.371	89.26
346.583	29.87
346.795	136.36
347.007	-0.85
347.219	122.02
347.431	-15.19
347.643	87.21
347.855	-31.57
348.067	62.63
348.279	-13.14
348.491	58.54
348.703	99.5
348.915	48.3
349.127	74.92
349.339	103.59
349.551	44.2
349.763	15.53
349.975	105.64
350.187	81.07
350.399	119.98
350.61	15.53
350.822	3.24
351.034	38.06
351.246	44.2
351.458	40.11
351.669	64.68
351.881	58.54
352.093	68.78
352.305	210.09
352.517	105.64
352.728	44.2
352.94	27.82
353.152	91.31
353.363	58.54
353.575	44.2
353.787	117.93
353.999	70.83
354.21	144.55
354.422	58.54
354.633	-2.9
354.845	95.4
355.057	48.3
355.268	-4.95
355.48	138.41
355.692	29.87
355.903	44.2
356.115	25.77
356.326	36.01
356.538	89.26
356.749	122.02
356.961	99.5
357.172	5.29
357.384	56.49
357.595	134.31
357.807	46.25
358.018	66.73
358.23	50.35
358.441	85.16
358.653	40.11
358.864	42.15
359.075	7.34
359.287	140.46
359.498	136.36
359.709	56.49
359.921	66.73
360.132	70.83
360.344	5.29
360.555	25.77
360.766	142.5
360.977	-17.24
361.189	38.06
361.4	62.63
361.611	44.2
361.823	119.98
362.034	64.68
362.245	-41.81
362.456	1.19
362.667	91.31
362.879	54.44
363.09	31.91
363.301	62.63
363.512	152.74
363.723	31.91
363.935	3.24
364.146	62.63
364.357	91.31
364.568	93.35
364.779	29.87
364.99	101.55
365.201	11.43
365.412	169.13
365.623	7.34
365.834	70.83
366.045	40.11
366.256	60.59
366.467	21.67
366.678	31.91
366.889	23.72
367.1	29.87
367.311	64.68
367.522	101.55
367.733	38.06
367.944	48.3
368.155	58.54
368.366	99.5
368.577	101.55
368.788	97.45
368.999	76.97
369.209	70.83
369.42	179.37
369.631	189.61
369.842	13.48
370.053	-11.09
370.264	124.07
370.474	95.4
370.685	60.59
370.896	-4.95
371.107	124.07
371.317	48.3
371.528	52.39
371.739	79.02
371.95	99.5
372.16	17.58
372.371	-23.38
372.582	50.35
372.792	83.11
373.003	62.63
373.214	50.35
373.424	95.4
373.635	60.59
373.846	50.35
374.056	109.74
374.267	103.59
374.477	-0.85
374.688	19.63
374.898	38.06
375.109	79.02
375.319	23.72
375.53	101.55
375.74	154.79
375.951	160.94
376.161	79.02
376.372	169.13
376.582	50.35
376.793	138.41
377.003	58.54
377.214	23.72
377.424	62.63
377.635	-2.9
377.845	-13.14
378.055	54.44
378.266	1.19
378.476	42.15
378.686	119.98
378.897	89.26
379.107	33.96
379.317	105.64
379.528	62.63
379.738	119.98
379.948	13.48
380.158	128.17
380.369	46.25
380.579	50.35
380.789	-4.95
380.999	117.93
381.21	48.3
381.42	97.45
381.63	48.3
381.84	124.07
382.05	62.63
382.261	122.02
382.471	107.69
382.681	21.67
382.891	40.11
383.101	99.5
383.311	70.83
383.521	70.83
383.731	115.88
383.941	117.93
384.151	87.21
384.361	64.68
384.571	115.88
384.781	66.73
384.991	160.94
385.201	58.54
385.411	48.3
385.621	89.26
385.831	89.26
386.041	117.93
386.251	126.12
386.461	105.64
386.671	85.16
386.881	95.4
387.091	101.55
387.301	103.59
387.511	91.31
387.72	56.49
387.93	3.24
388.14	50.35
388.35	54.44
388.56	119.98
388.769	128.17
388.979	70.83
389.189	1.19
389.399	134.31
389.609	85.16
389.818	103.59
390.028	64.68
390.238	72.87
390.447	85.16
390.657	29.87
390.867	103.59
391.076	103.59
391.286	138.41
391.496	66.73
391.705	81.07
391.915	119.98
392.125	111.78
392.334	119.98
392.544	177.32
392.753	56.49
392.963	58.54
393.172	140.46
393.382	154.79
393.591	195.75
393.801	46.25
394.01	144.55
394.22	64.68
394.429	103.59
394.639	74.92
394.848	113.83
395.058	107.69
395.267	91.31
395.477	54.44
395.686	152.74
395.895	165.03
396.105	197.8
396.314	148.65
396.524	95.4
396.733	115.88
396.942	48.3
397.152	91.31
397.361	144.55
397.57	101.55
397.78	136.36
397.989	144.55
398.198	136.36
398.407	31.91
398.617	111.78
398.826	156.84
399.035	162.98
399.244	142.5
399.453	81.07
399.663	122.02
399.872	224.42
400.081	99.5
400.29	165.03
400.499	177.32
400.708	181.42
400.917	187.56
401.127	128.17
401.336	124.07
401.545	242.85
401.754	187.56
401.963	201.9
402.172	201.9
402.381	76.97
402.59	177.32
402.799	154.79
403.008	66.73
403.217	218.28
403.426	183.46
403.635	148.65
403.844	126.12
404.053	130.22
404.262	105.64
404.471	234.66
404.68	224.42
404.888	167.08
405.097	212.14
405.306	210.09
405.515	177.32
405.724	177.32
405.933	232.62
406.142	210.09
406.35	312.49
406.559	257.19
406.768	205.99
406.977	277.67
407.185	218.28
407.394	253.09
407.603	296.1
407.812	226.47
408.02	300.2
408.229	349.35
408.438	232.62
408.646	199.85
408.855	357.54
409.064	324.77
409.272	386.21
409.481	318.63
409.69	308.39
409.898	369.83
410.107	429.22
410.315	416.93
410.524	292.01
410.733	455.84
410.941	365.73
411.15	449.7
411.358	453.8
411.567	498.85
411.775	537.76
411.984	468.13
412.192	582.82
412.401	570.53
412.609	642.21
412.818	580.77
413.026	586.91
413.234	611.49
413.443	574.63
413.651	656.54
413.86	652.45
414.068	713.89
414.276	799.9
414.485	703.65
414.693	832.67
414.901	887.97
415.11	781.47
415.318	836.77
415.526	853.15
415.734	926.88
415.943	1006.75
416.151	1051.8
416.359	922.78
416.567	1008.8
416.776	1045.66
416.984	1197.21
417.192	1232.02
417.4	1168.54
417.608	1111.19
417.817	1139.87
418.025	1393.81
418.233	1449.11
418.441	1348.76
418.649	1361.05
418.857	1442.96
419.065	1617.04
419.273	1524.88
419.481	1522.84
419.689	1717.39
419.897	1758.35
420.105	1789.07
420.313	1827.98
420.521	1866.89
420.729	2012.3
420.937	2104.46
421.145	2100.36
421.353	2198.67
421.561	2182.28
421.769	2350.21
421.977	2477.19
422.185	2530.44
422.393	2577.54
422.601	2659.46
422.809	2798.72
423.017	2657.41
423.224	2878.59
423.432	2991.23
423.64	3161.21
423.848	3286.14
424.056	3253.37
424.263	3521.65
424.471	3439.73
424.679	3454.07
424.887	3685.49
425.094	3832.94
425.302	3894.38
425.51	3949.68
425.718	4068.46
425.925	4203.63
426.133	4314.22
426.341	4402.28
426.548	4664.42
426.756	4650.08
426.964	4697.19
427.171	5102.68
427.379	5141.6
427.586	5299.29
427.794	5499.99
428.001	5768.27
428.209	5878.86
428.417	5864.53
428.624	6413.38
428.832	6229.07
429.039	6294.6
429.247	6073.42
429.454	6595.65
429.662	7253.05
429.869	6837.31
430.076	7294.01
430.284	7064.64
430.491	7291.96
430.699	7851.06
430.906	7973.94
431.114	7865.39
431.321	8305.71
431.528	8494.12
431.736	8803.36
431.943	9329.69
432.15	9229.34
432.358	9227.29
432.565	9765.91
432.772	9559.06
432.979	10093.58
433.187	10325.01
433.394	10142.74
433.601	10945.54
433.808	11072.51
434.016	11267.07
434.223	11373.57
434.43	12168.18
434.637	11877.37
434.844	12688.36
435.052	12958.69
435.259	12803.05
435.466	13032.42
435.673	12915.69
435.88	13679.58
436.087	14615.5
436.294	14207.95
436.501	13974.49
436.708	14191.57
436.915	14945.22
437.122	15563.71
437.329	15356.86
437.537	16081.85
437.743	16087.99
437.95	16118.71
438.157	16886.7
438.364	17617.82
438.571	17707.93
438.778	17597.34
438.985	19164.04
439.192	18365.33
439.399	19090.31
439.606	18529.17
439.813	19737.47
440.02	20945.77
440.227	20358
440.433	20288.37
440.64	21166.95
440.847	20923.24
441.054	21314.41
441.261	23165.77
441.467	22518.61
441.674	23300.94
441.881	23843.65
442.088	24070.97
442.294	23401.29
442.501	24062.78
442.708	24640.31
442.914	25477.93
443.121	26499.86
443.328	25795.36
443.534	27742.98
443.741	27130.64
443.948	26741.52
444.154	28881.65
444.361	28664.57
444.568	28848.88
444.774	29025.01
444.981	28969.71
445.187	30079.71
445.394	31310.54
445.6	30962.39
445.807	33721
446.013	32318.14
446.22	33114.8
446.426	34189.98
446.633	34585.24
446.839	35627.66
447.046	34060.96
447.252	36027.01
447.459	36221.57
447.665	36067.97
447.871	37972.58
448.078	39352.91
448.284	37321.33
448.491	38568.54
448.697	39979.59
448.903	40743.48
449.11	40448.58
449.316	40282.69
449.522	40880.7
449.728	42162.73
449.935	42437.16
450.141	42156.58
450.347	43231.77
450.553	41935.4
450.76	42502.69
450.966	43702.8
451.172	43397.65
451.378	44089.87
451.584	43704.85
451.791	45074.94
451.997	44495.36
452.203	45296.12
452.409	45703.67
452.615	45259.26
452.821	43536.91
453.027	43010.59
453.233	45373.94
453.44	43829.77
453.646	44079.63
453.852	44327.43
454.058	45193.72
454.264	43866.64
454.47	44644.87
454.676	43596.31
454.882	45249.02
455.088	41359.92
455.294	41814.57
455.5	42381.86
455.705	42648.1
455.911	41333.3
456.117	40385.09
456.323	40125
456.529	37757.55
456.735	39531.09
456.941	38204
457.147	37931.62
457.352	36860.54
457.558	36057.73
457.764	36467.33
457.97	35799.69
458.176	35189.39
458.381	34880.15
458.587	33473.2
458.793	33428.14
458.999	31464.14
459.204	33747.62
459.41	32836.28
459.616	30489.31
459.821	30810.84
460.027	30397.15
460.233	30319.32
460.438	28441.34
460.644	28971.76
460.85	27292.43
461.055	27071.25
461.261	27284.23
461.466	25144.11
461.672	24439.61
461.878	25887.52
462.083	24322.87
462.289	23743.3
462.494	23515.97
462.7	22715.22
462.905	22238.04
463.111	22899.53
463.316	22770.51
463.522	22520.66
463.727	22332.25
463.932	22418.26
464.138	21947.23
464.343	22322.01
464.549	21637.98
464.754	21967.71
464.959	22057.82
465.165	21594.98
465.37	20833.13
465.575	20286.33
465.781	21250.92
465.986	21373.8
466.191	20394.87
466.397	20095.86
