Data from USB4F104151__17__13-04-30-929.txt Node

Date: Fri Mar 14 13:04:30 EDT 2025
User: louis
Spectrometer: USB4F10415
Trigger mode: 4
Integration Time (sec): 4.000000E-2
Scans to average: 1
Electric dark correction enabled: true
Nonlinearity correction enabled: false
Boxcar width: 0
XAxis mode: Wavelengths
Number of Pixels in Spectrum: 3648
>>>>>Begin Spectral Data<<<<<
178.204	-177.49
178.424	-177.49
178.644	-177.49
178.864	-167.25
179.084	-175.44
179.304	0.68
179.524	-11.61
179.744	25.26
179.964	33.45
180.184	-58.71
180.404	27.31
180.624	55.98
180.844	-46.42
181.064	-1.37
181.283	-7.51
181.503	-60.76
181.723	43.69
181.943	10.92
182.163	150.18
182.383	55.98
182.602	27.31
182.822	51.88
183.042	84.65
183.262	-9.56
183.482	43.69
183.701	47.79
183.921	94.89
184.141	25.26
184.361	6.83
184.58	29.35
184.8	107.18
185.02	90.79
185.239	80.55
185.459	55.98
185.679	60.07
185.898	-68.95
186.118	35.5
186.338	15.02
186.557	72.36
186.777	-15.7
186.997	29.35
187.216	31.4
187.436	92.84
187.655	109.23
187.875	27.31
188.095	-17.75
188.314	119.46
188.534	123.56
188.753	-3.41
188.973	121.51
189.192	94.89
189.412	37.55
189.631	101.03
189.851	96.94
190.07	51.88
190.29	-13.65
190.509	78.51
190.729	23.21
190.948	156.33
191.168	225.96
191.387	12.97
191.607	35.5
191.826	76.46
192.045	12.97
192.265	101.03
192.484	39.59
192.704	60.07
192.923	4.78
193.142	92.84
193.362	27.31
193.581	105.13
193.8	70.31
194.02	80.55
194.239	15.02
194.458	88.75
194.678	12.97
194.897	-5.46
195.116	80.55
195.335	25.26
195.555	19.11
195.774	15.02
195.993	103.08
196.212	23.21
196.432	17.07
196.651	82.6
196.87	-15.7
197.089	103.08
197.308	131.75
197.528	64.17
197.747	8.87
197.966	84.65
198.185	146.09
198.404	2.73
198.623	23.21
198.842	8.87
199.062	94.89
199.281	113.32
199.5	6.83
199.719	94.89
199.938	60.07
200.157	86.7
200.376	29.35
200.595	49.83
200.814	78.51
201.033	12.97
201.252	66.22
201.471	88.75
201.69	84.65
201.909	-11.61
202.128	125.61
202.347	92.84
202.566	53.93
202.785	-3.41
203.004	10.92
203.223	90.79
203.442	35.5
203.661	45.74
203.879	103.08
204.098	78.51
204.317	8.87
204.536	43.69
204.755	47.79
204.974	43.69
205.193	76.46
205.411	170.66
205.63	78.51
205.849	84.65
206.068	68.27
206.287	4.78
206.505	68.27
206.724	113.32
206.943	105.13
207.162	-13.65
207.381	82.6
207.599	66.22
207.818	19.11
208.037	55.98
208.255	101.03
208.474	78.51
208.693	47.79
208.911	58.03
209.13	117.42
209.349	160.42
209.567	64.17
209.786	60.07
210.005	45.74
210.223	70.31
210.442	-40.28
210.661	92.84
210.879	15.02
211.098	66.22
211.316	51.88
211.535	109.23
211.753	47.79
211.972	86.7
212.191	109.23
212.409	47.79
212.628	37.55
212.846	84.65
213.065	62.12
213.283	84.65
213.502	33.45
213.72	74.41
213.938	10.92
214.157	90.79
214.375	19.11
214.594	23.21
214.812	141.99
215.031	-34.13
215.249	78.51
215.467	27.31
215.686	4.78
215.904	162.47
216.122	37.55
216.341	117.42
216.559	39.59
216.778	148.14
216.996	17.07
217.214	43.69
217.432	94.89
217.651	27.31
217.869	39.59
218.087	37.55
218.306	37.55
218.524	109.23
218.742	-34.13
218.96	76.46
219.179	86.7
219.397	53.93
219.615	158.38
219.833	60.07
220.051	53.93
220.27	45.74
220.488	66.22
220.706	96.94
220.924	53.93
221.142	-21.84
221.36	78.51
221.578	27.31
221.796	72.36
222.015	27.31
222.233	4.78
222.451	121.51
222.669	21.16
222.887	103.08
223.105	117.42
223.323	68.27
223.541	-27.99
223.759	156.33
223.977	10.92
224.195	41.64
224.413	31.4
224.631	33.45
224.849	111.27
225.067	144.04
225.285	74.41
225.503	53.93
225.721	-11.61
225.939	41.64
226.157	17.07
226.375	146.09
226.592	45.74
226.81	60.07
227.028	84.65
227.246	158.38
227.464	101.03
227.682	86.7
227.9	98.99
228.117	113.32
228.335	92.84
228.553	47.79
228.771	66.22
228.989	92.84
229.206	98.99
229.424	-3.41
229.642	94.89
229.86	4.78
230.077	70.31
230.295	62.12
230.513	-1.37
230.731	51.88
230.948	92.84
231.166	129.7
231.384	41.64
231.601	4.78
231.819	82.6
232.037	58.03
232.254	-77.14
232.472	12.97
232.689	8.87
232.907	35.5
233.125	31.4
233.342	82.6
233.56	6.83
233.777	19.11
233.995	55.98
234.213	137.9
234.43	39.59
234.648	21.16
234.865	103.08
235.083	96.94
235.3	8.87
235.518	45.74
235.735	94.89
235.953	141.99
236.17	70.31
236.388	74.41
236.605	45.74
236.822	64.17
237.04	166.57
237.257	92.84
237.475	21.16
237.692	84.65
237.909	27.31
238.127	-25.94
238.344	109.23
238.562	51.88
238.779	43.69
238.996	39.59
239.214	-9.56
239.431	64.17
239.648	-9.56
239.865	66.22
240.083	31.4
240.3	15.02
240.517	21.16
240.735	45.74
240.952	125.61
241.169	92.84
241.386	72.36
241.603	43.69
241.821	86.7
242.038	129.7
242.255	127.66
242.472	-34.13
242.689	105.13
242.907	45.74
243.124	64.17
243.341	101.03
243.558	-58.71
243.775	33.45
243.992	-3.41
244.209	45.74
244.426	154.28
244.643	133.8
244.86	103.08
245.078	21.16
245.295	53.93
245.512	33.45
245.729	37.55
245.946	-5.46
246.163	70.31
246.38	53.93
246.597	15.02
246.814	4.78
247.031	92.84
247.248	70.31
247.464	15.02
247.681	25.26
247.898	-13.65
248.115	82.6
248.332	49.83
248.549	96.94
248.766	137.9
248.983	90.79
249.2	35.5
249.417	84.65
249.633	19.11
249.85	131.75
250.067	19.11
250.284	31.4
250.501	103.08
250.717	101.03
250.934	23.21
251.151	60.07
251.368	29.35
251.585	101.03
251.801	15.02
252.018	17.07
252.235	105.13
252.451	80.55
252.668	55.98
252.885	53.93
253.102	-3.41
253.318	84.65
253.535	111.27
253.752	37.55
253.968	39.59
254.185	25.26
254.401	19.11
254.618	121.51
254.835	29.35
255.051	80.55
255.268	29.35
255.484	29.35
255.701	62.12
255.917	105.13
256.134	-38.23
256.351	47.79
256.567	21.16
256.784	92.84
257	-13.65
257.217	133.8
257.433	41.64
257.65	-3.41
257.866	119.46
258.082	-42.32
258.299	115.37
258.515	60.07
258.732	2.73
258.948	27.31
259.165	17.07
259.381	58.03
259.597	88.75
259.814	47.79
260.03	-7.51
260.246	55.98
260.463	43.69
260.679	101.03
260.895	64.17
261.112	37.55
261.328	60.07
261.544	53.93
261.761	135.85
261.977	29.35
262.193	-21.84
262.409	70.31
262.626	127.66
262.842	117.42
263.058	-7.51
263.274	86.7
263.49	53.93
263.707	94.89
263.923	146.09
264.139	23.21
264.355	117.42
264.571	103.08
264.787	78.51
265.004	105.13
265.22	37.55
265.436	49.83
265.652	68.27
265.868	2.73
266.084	35.5
266.3	70.31
266.516	-27.99
266.732	21.16
266.948	64.17
267.164	43.69
267.38	98.99
267.596	49.83
267.812	107.18
268.028	84.65
268.244	31.4
268.46	96.94
268.676	55.98
268.892	96.94
269.108	31.4
269.324	45.74
269.54	-11.61
269.756	55.98
269.972	-23.89
270.188	-5.46
270.403	29.35
270.619	4.78
270.835	49.83
271.051	94.89
271.267	37.55
271.483	70.31
271.698	76.46
271.914	125.61
272.13	53.93
272.346	176.81
272.562	25.26
272.777	68.27
272.993	58.03
273.209	27.31
273.425	53.93
273.64	10.92
273.856	96.94
274.072	19.11
274.287	39.59
274.503	78.51
274.719	4.78
274.934	2.73
275.15	60.07
275.366	78.51
275.581	70.31
275.797	82.6
276.012	19.11
276.228	51.88
276.444	-11.61
276.659	45.74
276.875	45.74
277.09	62.12
277.306	94.89
277.521	74.41
277.737	12.97
277.952	53.93
278.168	2.73
278.383	27.31
278.599	2.73
278.814	78.51
279.03	90.79
279.245	127.66
279.461	90.79
279.676	76.46
279.892	19.11
280.107	76.46
280.322	70.31
280.538	68.27
280.753	-44.37
280.969	45.74
281.184	43.69
281.399	111.27
281.615	-17.75
281.83	8.87
282.045	19.11
282.26	-15.7
282.476	119.46
282.691	152.23
282.906	111.27
283.122	53.93
283.337	23.21
283.552	15.02
283.767	60.07
283.983	6.83
284.198	12.97
284.413	96.94
284.628	76.46
284.843	33.45
285.058	117.42
285.274	60.07
285.489	-9.56
285.704	78.51
285.919	27.31
286.134	0.68
286.349	135.85
286.564	23.21
286.779	172.71
286.995	41.64
287.21	45.74
287.425	21.16
287.64	51.88
287.855	37.55
288.07	-27.99
288.285	51.88
288.5	53.93
288.715	109.23
288.93	146.09
289.145	68.27
289.36	74.41
289.575	37.55
289.79	101.03
290.004	72.36
290.219	90.79
290.434	96.94
290.649	31.4
290.864	76.46
291.079	23.21
291.294	55.98
291.509	47.79
291.724	60.07
291.938	45.74
292.153	82.6
292.368	4.78
292.583	103.08
292.798	62.12
293.012	29.35
293.227	49.83
293.442	6.83
293.657	131.75
293.871	78.51
294.086	31.4
294.301	119.46
294.516	66.22
294.73	139.94
294.945	21.16
295.16	51.88
295.374	127.66
295.589	109.23
295.804	-1.37
296.018	103.08
296.233	86.7
296.447	103.08
296.662	21.16
296.877	176.81
297.091	90.79
297.306	-9.56
297.52	115.37
297.735	-11.61
297.949	33.45
298.164	133.8
298.378	68.27
298.593	58.03
298.807	53.93
299.022	86.7
299.236	66.22
299.451	19.11
299.665	76.46
299.88	47.79
300.094	105.13
300.309	101.03
300.523	27.31
300.737	43.69
300.952	49.83
301.166	109.23
301.381	-9.56
301.595	21.16
301.809	-5.46
302.024	66.22
302.238	-36.18
302.452	150.18
302.667	111.27
302.881	96.94
303.095	64.17
303.309	31.4
303.524	60.07
303.738	-11.61
303.952	29.35
304.166	53.93
304.381	15.02
304.595	109.23
304.809	43.69
305.023	78.51
305.237	0.68
305.452	101.03
305.666	150.18
305.88	133.8
306.094	53.93
306.308	37.55
306.522	84.65
306.736	111.27
306.95	101.03
307.164	55.98
307.379	58.03
307.593	98.99
307.807	96.94
308.021	35.5
308.235	86.7
308.449	-3.41
308.663	41.64
308.877	125.61
309.091	6.83
309.305	33.45
309.519	-54.61
309.733	150.18
309.947	60.07
310.161	84.65
310.374	82.6
310.588	12.97
310.802	74.41
311.016	-13.65
311.23	33.45
311.444	39.59
311.658	27.31
311.872	101.03
312.085	88.75
312.299	129.7
312.513	92.84
312.727	68.27
312.941	43.69
313.154	23.21
313.368	74.41
313.582	29.35
313.796	27.31
314.009	58.03
314.223	107.18
314.437	74.41
314.651	60.07
314.864	-38.23
315.078	80.55
315.292	-5.46
315.505	-23.89
315.719	150.18
315.933	64.17
316.146	74.41
316.36	4.78
316.573	94.89
316.787	39.59
317.001	58.03
317.214	8.87
317.428	27.31
317.641	35.5
317.855	49.83
318.068	60.07
318.282	21.16
318.495	76.46
318.709	109.23
318.922	117.42
319.136	55.98
319.349	182.95
319.563	60.07
319.776	27.31
319.99	-11.61
320.203	68.27
320.417	47.79
320.63	137.9
320.843	162.47
321.057	60.07
321.27	96.94
321.483	92.84
321.697	82.6
321.91	105.13
322.124	43.69
322.337	78.51
322.55	72.36
322.763	125.61
322.977	27.31
323.19	29.35
323.403	51.88
323.617	94.89
323.83	119.46
324.043	35.5
324.256	111.27
324.469	51.88
324.683	76.46
324.896	19.11
325.109	131.75
325.322	15.02
325.535	55.98
325.748	172.71
325.962	82.6
326.175	43.69
326.388	58.03
326.601	158.38
326.814	88.75
327.027	80.55
327.24	113.32
327.453	35.5
327.666	84.65
327.879	109.23
328.092	133.8
328.305	121.51
328.518	12.97
328.731	-42.32
328.944	29.35
329.157	101.03
329.37	88.75
329.583	195.24
329.796	103.08
330.009	72.36
330.222	113.32
330.435	0.68
330.648	82.6
330.861	101.03
331.073	86.7
331.286	19.11
331.499	64.17
331.712	45.74
331.925	78.51
332.138	43.69
332.35	62.12
332.563	72.36
332.776	72.36
332.989	23.21
333.202	51.88
333.414	25.26
333.627	84.65
333.84	8.87
334.053	25.26
334.265	8.87
334.478	53.93
334.691	80.55
334.903	101.03
335.116	2.73
335.329	64.17
335.541	96.94
335.754	182.95
335.966	27.31
336.179	66.22
336.392	103.08
336.604	78.51
336.817	66.22
337.029	86.7
337.242	92.84
337.454	117.42
337.667	35.5
337.88	19.11
338.092	127.66
338.305	64.17
338.517	12.97
338.729	105.13
338.942	152.23
339.154	45.74
339.367	64.17
339.579	119.46
339.792	51.88
340.004	182.95
340.217	45.74
340.429	109.23
340.641	-25.94
340.854	51.88
341.066	60.07
341.278	107.18
341.491	60.07
341.703	137.9
341.915	43.69
342.128	92.84
342.34	31.4
342.552	45.74
342.764	109.23
342.977	-56.66
343.189	62.12
343.401	82.6
343.613	15.02
343.826	8.87
344.038	127.66
344.25	62.12
344.462	84.65
344.674	53.93
344.886	-5.46
345.099	66.22
345.311	96.94
345.523	35.5
345.735	101.03
345.947	94.89
346.159	125.61
346.371	109.23
346.583	41.64
346.795	111.27
347.007	55.98
347.219	53.93
347.431	0.68
347.643	94.89
347.855	53.93
348.067	139.94
348.279	2.73
348.491	0.68
348.703	139.94
348.915	41.64
349.127	86.7
349.339	68.27
349.551	58.03
349.763	-19.8
349.975	60.07
350.187	33.45
350.399	115.37
350.61	76.46
350.822	25.26
351.034	92.84
351.246	76.46
351.458	98.99
351.669	94.89
351.881	41.64
352.093	84.65
352.305	72.36
352.517	168.62
352.728	125.61
352.94	-3.41
353.152	101.03
353.363	51.88
353.575	78.51
353.787	133.8
353.999	72.36
354.21	160.42
354.422	29.35
354.633	88.75
354.845	27.31
355.057	164.52
355.268	101.03
355.48	166.57
355.692	2.73
355.903	101.03
356.115	90.79
356.326	49.83
356.538	150.18
356.749	90.79
356.961	164.52
357.172	2.73
357.384	51.88
357.595	135.85
357.807	12.97
358.018	-11.61
358.23	90.79
358.441	215.72
358.653	53.93
358.864	66.22
359.075	10.92
359.287	60.07
359.498	103.08
359.709	119.46
359.921	45.74
360.132	60.07
360.344	51.88
360.555	-23.89
360.766	15.02
360.977	78.51
361.189	68.27
361.4	27.31
361.611	125.61
361.823	127.66
362.034	101.03
362.245	-3.41
362.456	90.79
362.667	113.32
362.879	27.31
363.09	101.03
363.301	98.99
363.512	127.66
363.723	8.87
363.935	74.41
364.146	76.46
364.357	103.08
364.568	96.94
364.779	78.51
364.99	113.32
365.201	45.74
365.412	152.23
365.623	60.07
365.834	84.65
366.045	84.65
366.256	146.09
366.467	133.8
366.678	82.6
366.889	86.7
367.1	37.55
367.311	72.36
367.522	51.88
367.733	84.65
367.944	92.84
368.155	31.4
368.366	123.56
368.577	154.28
368.788	76.46
368.999	58.03
369.209	92.84
369.42	213.67
369.631	103.08
369.842	133.8
370.053	33.45
370.264	135.85
370.474	115.37
370.685	101.03
370.896	29.35
371.107	125.61
371.317	111.27
371.528	60.07
371.739	141.99
371.95	117.42
372.16	131.75
372.371	49.83
372.582	96.94
372.792	-34.13
373.003	98.99
373.214	111.27
373.424	137.9
373.635	-54.61
373.846	92.84
374.056	103.08
374.267	137.9
374.477	111.27
374.688	35.5
374.898	107.18
375.109	72.36
375.319	197.29
375.53	125.61
375.74	135.85
375.951	27.31
376.161	84.65
376.372	209.58
376.582	109.23
376.793	103.08
377.003	58.03
377.214	-17.75
377.424	74.41
377.635	101.03
377.845	15.02
378.055	146.09
378.266	103.08
378.476	66.22
378.686	123.56
378.897	119.46
379.107	109.23
379.317	43.69
379.528	-17.75
379.738	119.46
379.948	51.88
380.158	139.94
380.369	70.31
380.579	101.03
380.789	82.6
380.999	80.55
381.21	115.37
381.42	180.9
381.63	66.22
381.84	86.7
382.05	96.94
382.261	76.46
382.471	146.09
382.681	92.84
382.891	164.52
383.101	135.85
383.311	80.55
383.521	8.87
383.731	111.27
383.941	68.27
384.151	70.31
384.361	68.27
384.571	103.08
384.781	115.37
384.991	78.51
385.201	111.27
385.411	101.03
385.621	94.89
385.831	101.03
386.041	35.5
386.251	90.79
386.461	109.23
386.671	101.03
386.881	101.03
387.091	141.99
387.301	90.79
387.511	115.37
387.72	84.65
387.93	172.71
388.14	103.08
388.35	164.52
388.56	90.79
388.769	187.05
388.979	146.09
389.189	58.03
389.399	113.32
389.609	135.85
389.818	76.46
390.028	135.85
390.238	41.64
390.447	78.51
390.657	119.46
390.867	80.55
391.076	76.46
391.286	103.08
391.496	51.88
391.705	47.79
391.915	92.84
392.125	141.99
392.334	115.37
392.544	191.14
392.753	154.28
392.963	29.35
393.172	31.4
393.382	35.5
393.591	148.14
393.801	117.42
394.01	123.56
394.22	113.32
394.429	103.08
394.639	72.36
394.848	117.42
395.058	127.66
395.267	109.23
395.477	141.99
395.686	197.29
395.895	121.51
396.105	232.1
396.314	121.51
396.524	86.7
396.733	88.75
396.942	119.46
397.152	98.99
397.361	154.28
397.57	164.52
397.78	154.28
397.989	119.46
398.198	146.09
398.407	111.27
398.617	129.7
398.826	154.28
399.035	84.65
399.244	80.55
399.453	74.41
399.663	207.53
399.872	72.36
400.081	137.9
400.29	201.38
400.499	127.66
400.708	180.9
400.917	133.8
401.127	135.85
401.336	197.29
401.545	260.77
401.754	182.95
401.963	221.86
402.172	162.47
402.381	162.47
402.59	129.7
402.799	60.07
403.008	195.24
403.217	121.51
403.426	146.09
403.635	129.7
403.844	228.01
404.053	166.57
404.262	201.38
404.471	258.73
404.68	96.94
404.888	223.91
405.097	223.91
405.306	113.32
405.515	154.28
405.724	223.91
405.933	209.58
406.142	332.45
406.35	275.11
406.559	205.48
406.768	236.2
406.977	371.37
407.185	287.4
407.394	273.06
407.603	232.1
407.812	260.77
408.02	301.73
408.229	361.13
408.438	291.49
408.646	230.06
408.855	318.12
409.064	293.54
409.272	365.22
409.481	371.37
409.69	361.13
409.898	359.08
410.107	422.56
410.315	395.94
410.524	404.13
410.733	400.04
410.941	469.67
411.15	465.57
411.358	471.72
411.567	520.87
411.775	520.87
411.984	580.26
412.192	559.78
412.401	510.63
412.609	496.29
412.818	514.72
413.026	600.74
413.234	576.16
413.443	649.89
413.651	594.59
413.86	629.41
414.068	658.08
414.276	737.95
414.485	686.75
414.693	836.25
414.901	961.18
415.11	869.02
415.318	889.5
415.526	873.12
415.734	969.37
415.943	932.51
416.151	912.03
416.359	920.22
416.567	1137.31
416.776	1155.74
416.984	1190.55
417.192	1159.83
417.4	1215.13
417.608	1208.98
417.817	1219.22
418.025	1374.87
418.233	1424.02
418.441	1249.94
418.649	1387.16
418.857	1559.19
419.065	1491.6
419.273	1587.86
419.481	1632.91
419.689	1749.65
419.897	1788.56
420.105	1872.53
420.313	1825.42
420.521	1991.31
420.729	1987.21
420.937	2097.8
421.145	2044.56
421.353	2192.01
421.561	2339.46
421.769	2232.97
421.977	2577.03
422.185	2427.53
422.393	2665.09
422.601	2806.4
422.809	2835.07
423.017	2849.41
423.224	2947.71
423.432	3009.15
423.64	2929.28
423.848	3369.59
424.056	3246.71
424.263	3414.65
424.471	3471.99
424.679	3558
424.887	3656.31
425.094	3803.76
425.302	3809.9
425.51	4070
425.718	4129.39
425.925	4211.31
426.133	4262.51
426.341	4579.94
426.548	4657.76
426.756	4745.83
426.964	4774.5
427.171	5042.78
427.379	5237.34
427.586	5169.76
427.794	5411.42
428.001	5769.81
428.209	5966.42
428.417	5876.31
428.624	6328.91
428.832	6373.96
429.039	6124.11
429.247	6193.74
429.454	6738.5
429.662	7311.93
429.869	6902.34
430.076	7318.08
430.284	7010.88
430.491	7455.29
430.699	7916.08
430.906	7834.16
431.114	7848.5
431.321	8294.96
431.528	8360.49
431.736	8823.33
431.943	9409.05
432.15	9011.75
432.358	9251.36
432.565	9902.61
432.772	9568.79
432.979	10228.24
433.187	10244.62
433.394	10422.8
433.601	10985.99
433.808	11491.84
434.016	10834.44
434.223	11448.83
434.43	12249.58
434.637	11938.29
434.844	12696.04
435.052	13132.26
435.259	12909.03
435.466	12949.99
435.673	12720.62
435.88	13738.46
436.087	14467.53
436.294	14463.44
436.501	14103
436.708	14479.82
436.915	14705.1
437.122	15602.11
437.329	15266.24
437.537	15913.4
437.743	16288.18
437.95	16128.44
438.157	17066.41
438.364	17502.62
438.571	17322.4
438.778	17576.35
438.985	19290.5
439.192	18256.28
439.399	18995.59
439.606	18620.81
439.813	20033.91
440.02	20791.66
440.227	20638.06
440.433	20502.9
440.64	21041.51
440.847	21000.55
441.054	21391.72
441.261	22858.06
441.467	22696.27
441.674	23036.24
441.881	24172.86
442.088	23882.05
442.294	23529.8
442.501	24088.89
442.708	24785.2
442.914	25479.46
443.121	26536.21
443.328	25821.47
443.534	27930.88
443.741	27083.02
443.948	26730.77
444.154	28842.23
444.361	28526.84
444.568	28831.99
444.774	28881.14
444.981	29014.26
445.187	30001.38
445.394	31414.48
445.6	30730.45
445.807	33767.59
446.013	32616.63
446.22	33147.06
446.426	34261.15
446.633	34850.97
446.839	35831.94
447.046	34332.83
447.252	36225.15
447.459	36233.35
447.665	36524.16
447.871	37523.57
448.078	39045.21
448.284	37660.78
448.491	38275.17
448.697	40325.19
448.903	40431.68
449.11	40480.83
449.316	40431.68
449.522	40767.55
449.728	41832.49
449.935	42450.98
450.141	42256.42
450.347	43061.27
450.553	41910.32
450.76	42649.63
450.966	44101.64
451.172	43323.41
451.378	44466.18
451.584	43614.23
451.791	44621.83
451.997	44783.62
452.203	45443.06
452.409	45381.62
452.615	44746.75
452.821	43595.79
453.027	43165.72
453.233	45275.13
453.44	43976.72
453.646	44120.07
453.852	44296.2
454.058	45180.92
454.264	43606.03
454.47	44689.41
454.676	43417.62
454.882	45119.48
455.088	41230.39
455.294	41832.49
455.5	42115.11
455.705	43143.19
455.911	41670.7
456.117	40556.61
456.323	39979.08
456.529	38115.43
456.735	39870.54
456.941	38705.24
457.147	37757.03
457.352	36890.74
457.558	36526.21
457.764	36393.09
457.97	35510.41
458.176	35244.18
458.381	34984.08
458.587	33179.82
458.793	33351.85
458.999	31543.5
459.204	34031.78
459.41	33085.62
459.616	30722.26
459.821	30859.48
460.027	30562.52
460.233	30056.67
460.438	28821.75
460.644	29155.57
460.85	27748.61
461.055	27230.48
461.261	27427.08
461.466	24961.33
461.672	24224.06
461.878	26073.37
462.083	24518.96
462.289	23757.12
462.494	23791.94
462.7	22911.31
462.905	22208.86
463.111	22870.35
463.316	22882.64
463.522	22286.68
463.727	22409.56
463.932	22155.61
464.138	22030.68
464.343	21971.29
464.549	21281.13
464.754	22184.28
464.959	21819.74
465.165	21887.32
465.37	20930.92
