Data from USB4F104151__22__13-04-40-289.txt Node

Date: Fri Mar 14 13:04:40 EDT 2025
User: louis
Spectrometer: USB4F10415
Trigger mode: 4
Integration Time (sec): 4.000000E-2
Scans to average: 1
Electric dark correction enabled: true
Nonlinearity correction enabled: false
Boxcar width: 0
XAxis mode: Wavelengths
Number of Pixels in Spectrum: 3648
>>>>>Begin Spectral Data<<<<<
178.204	-129.88
178.424	-129.88
178.644	-129.88
178.864	-86.87
179.084	-150.36
179.304	-35.67
179.524	54.44
179.744	-64.34
179.964	44.2
180.184	33.96
180.404	7.34
180.624	-29.52
180.844	7.34
181.064	-58.2
181.283	-37.72
181.503	36.01
181.723	42.15
181.943	23.72
182.163	148.65
182.383	54.44
182.602	97.45
182.822	103.59
183.042	29.87
183.262	46.25
183.482	19.63
183.701	52.39
183.921	138.41
184.141	25.77
184.361	109.74
184.58	91.31
184.8	52.39
185.02	72.87
185.239	68.78
185.459	7.34
185.679	68.78
185.898	-68.44
186.118	62.63
186.338	85.16
186.557	101.55
186.777	21.67
186.997	19.63
187.216	46.25
187.436	97.45
187.655	23.72
187.875	138.41
188.095	109.74
188.314	83.11
188.534	83.11
188.753	68.78
188.973	72.87
189.192	142.5
189.412	50.35
189.631	64.68
189.851	76.97
190.07	21.67
190.29	62.63
190.509	42.15
190.729	38.06
190.948	122.02
191.168	222.38
191.387	89.26
191.607	36.01
191.826	36.01
192.045	44.2
192.265	-4.95
192.484	70.83
192.704	11.43
192.923	25.77
193.142	169.13
193.362	60.59
193.581	107.69
193.8	93.35
194.02	99.5
194.239	56.49
194.458	87.21
194.678	58.54
194.897	87.21
195.116	29.87
195.335	38.06
195.555	105.64
195.774	27.82
195.993	70.83
196.212	105.64
196.432	60.59
196.651	52.39
196.87	83.11
197.089	173.22
197.308	126.12
197.528	68.78
197.747	3.24
197.966	68.78
198.185	85.16
198.404	46.25
198.623	87.21
198.842	46.25
199.062	103.59
199.281	101.55
199.5	56.49
199.719	122.02
199.938	70.83
200.157	27.82
200.376	103.59
200.595	46.25
200.814	3.24
201.033	54.44
201.252	122.02
201.471	72.87
201.69	115.88
201.909	76.97
202.128	15.53
202.347	85.16
202.566	122.02
202.785	-0.85
203.004	31.91
203.223	183.46
203.442	5.29
203.661	11.43
203.879	29.87
204.098	21.67
204.317	1.19
204.536	54.44
204.755	46.25
204.974	81.07
205.193	107.69
205.411	70.83
205.63	111.78
205.849	46.25
206.068	97.45
206.287	-31.57
206.505	-13.14
206.724	68.78
206.943	23.72
207.162	97.45
207.381	38.06
207.599	1.19
207.818	50.35
208.037	130.22
208.255	21.67
208.474	27.82
208.693	58.54
208.911	40.11
209.13	56.49
209.349	146.6
209.567	68.78
209.786	91.31
210.005	58.54
210.223	5.29
210.442	-4.95
210.661	95.4
210.879	-29.52
211.098	64.68
211.316	81.07
211.535	-31.57
211.753	62.63
211.972	140.46
212.191	81.07
212.409	36.01
212.628	126.12
212.846	19.63
213.065	72.87
213.283	152.74
213.502	74.92
213.72	19.63
213.938	52.39
214.157	113.83
214.375	99.5
214.594	126.12
214.812	70.83
215.031	109.74
215.249	27.82
215.467	68.78
215.686	-27.48
215.904	126.12
216.122	50.35
216.341	126.12
216.559	60.59
216.778	128.17
216.996	144.55
217.214	31.91
217.432	21.67
217.651	58.54
217.869	103.59
218.087	83.11
218.306	52.39
218.524	130.22
218.742	19.63
218.96	70.83
219.179	-9.05
219.397	58.54
219.615	85.16
219.833	115.88
220.051	-0.85
220.27	93.35
220.488	101.55
220.706	64.68
220.924	109.74
221.142	42.15
221.36	42.15
221.578	48.3
221.796	36.01
222.015	89.26
222.233	68.78
222.451	150.7
222.669	68.78
222.887	74.92
223.105	68.78
223.323	11.43
223.541	13.48
223.759	103.59
223.977	-52.05
224.195	89.26
224.413	19.63
224.631	29.87
224.849	15.53
225.067	109.74
225.285	103.59
225.503	52.39
225.721	-4.95
225.939	68.78
226.157	103.59
226.375	148.65
226.592	-0.85
226.81	-2.9
227.028	136.36
227.246	142.5
227.464	70.83
227.682	60.59
227.9	70.83
228.117	79.02
228.335	17.58
228.553	38.06
228.771	93.35
228.989	52.39
229.206	93.35
229.424	56.49
229.642	27.82
229.86	19.63
230.077	76.97
230.295	72.87
230.513	117.93
230.731	36.01
230.948	56.49
231.166	64.68
231.384	38.06
231.601	21.67
231.819	124.07
232.037	76.97
232.254	33.96
232.472	17.58
232.689	68.78
232.907	103.59
233.125	13.48
233.342	85.16
233.56	62.63
233.777	27.82
233.995	79.02
234.213	158.89
234.43	109.74
234.648	23.72
234.865	11.43
235.083	64.68
235.3	36.01
235.518	142.5
235.735	152.74
235.953	62.63
236.17	7.34
236.388	46.25
236.605	93.35
236.822	21.67
237.04	187.56
237.257	60.59
237.475	9.39
237.692	13.48
237.909	25.77
238.127	70.83
238.344	79.02
238.562	38.06
238.779	15.53
238.996	11.43
239.214	58.54
239.431	85.16
239.648	52.39
239.865	52.39
240.083	99.5
240.3	27.82
240.517	54.44
240.735	60.59
240.952	124.07
241.169	81.07
241.386	70.83
241.603	29.87
241.821	21.67
242.038	36.01
242.255	122.02
242.472	11.43
242.689	62.63
242.907	93.35
243.124	93.35
243.341	48.3
243.558	-50
243.775	119.98
243.992	19.63
244.209	21.67
244.426	128.17
244.643	38.06
244.86	5.29
245.078	93.35
245.295	13.48
245.512	64.68
245.729	27.82
245.946	146.6
246.163	109.74
246.38	97.45
246.597	72.87
246.814	66.73
247.031	-2.9
247.248	87.21
247.464	-0.85
247.681	128.17
247.898	21.67
248.115	85.16
248.332	48.3
248.549	126.12
248.766	130.22
248.983	105.64
249.2	44.2
249.417	62.63
249.633	74.92
249.85	29.87
250.067	68.78
250.284	-4.95
250.501	103.59
250.717	99.5
250.934	40.11
251.151	40.11
251.368	21.67
251.585	70.83
251.801	99.5
252.018	-43.86
252.235	40.11
252.451	23.72
252.668	9.39
252.885	83.11
253.102	60.59
253.318	27.82
253.535	56.49
253.752	62.63
253.968	29.87
254.185	-0.85
254.401	36.01
254.618	124.07
254.835	79.02
255.051	216.23
255.268	58.54
255.484	23.72
255.701	103.59
255.917	93.35
256.134	89.26
256.351	85.16
256.567	50.35
256.784	54.44
257	-13.14
257.217	64.68
257.433	62.63
257.65	91.31
257.866	76.97
258.082	23.72
258.299	21.67
258.515	70.83
258.732	50.35
258.948	70.83
259.165	99.5
259.381	58.54
259.597	68.78
259.814	-7
260.03	-17.24
260.246	52.39
260.463	205.99
260.679	48.3
260.895	105.64
261.112	81.07
261.328	13.48
261.544	48.3
261.761	169.13
261.977	52.39
262.193	19.63
262.409	70.83
262.626	124.07
262.842	64.68
263.058	11.43
263.274	66.73
263.49	162.98
263.707	122.02
263.923	68.78
264.139	-9.05
264.355	93.35
264.571	68.78
264.787	89.26
265.004	23.72
265.22	25.77
265.436	109.74
265.652	9.39
265.868	152.74
266.084	66.73
266.3	52.39
266.516	-9.05
266.732	42.15
266.948	83.11
267.164	-37.72
267.38	76.97
267.596	122.02
267.812	128.17
268.028	31.91
268.244	29.87
268.46	76.97
268.676	21.67
268.892	81.07
269.108	-62.29
269.324	44.2
269.54	-52.05
269.756	115.88
269.972	52.39
270.188	19.63
270.403	-35.67
270.619	46.25
270.835	87.21
271.051	44.2
271.267	68.78
271.483	81.07
271.698	29.87
271.914	29.87
272.13	76.97
272.346	-23.38
272.562	58.54
272.777	83.11
272.993	113.83
273.209	21.67
273.425	72.87
273.64	169.13
273.856	79.02
274.072	40.11
274.287	38.06
274.503	103.59
274.719	58.54
274.934	66.73
275.15	19.63
275.366	56.49
275.581	-2.9
275.797	76.97
276.012	60.59
276.228	7.34
276.444	54.44
276.659	101.55
276.875	54.44
277.09	56.49
277.306	79.02
277.521	74.92
277.737	122.02
277.952	27.82
278.168	72.87
278.383	44.2
278.599	95.4
278.814	130.22
279.03	52.39
279.245	83.11
279.461	-13.14
279.676	85.16
279.892	89.26
280.107	15.53
280.322	85.16
280.538	-4.95
280.753	62.63
280.969	62.63
281.184	27.82
281.399	136.36
281.615	56.49
281.83	117.93
282.045	27.82
282.26	-4.95
282.476	21.67
282.691	99.5
282.906	40.11
283.122	85.16
283.337	11.43
283.552	142.5
283.767	64.68
283.983	150.7
284.198	95.4
284.413	72.87
284.628	117.93
284.843	76.97
285.058	93.35
285.274	29.87
285.489	76.97
285.704	52.39
285.919	56.49
286.134	40.11
286.349	101.55
286.564	99.5
286.779	105.64
286.995	54.44
287.21	62.63
287.425	107.69
287.64	44.2
287.855	68.78
288.07	13.48
288.285	29.87
288.5	85.16
288.715	52.39
288.93	27.82
289.145	76.97
289.36	40.11
289.575	128.17
289.79	97.45
290.004	44.2
290.219	89.26
290.434	64.68
290.649	60.59
290.864	36.01
291.079	-23.38
291.294	171.18
291.509	76.97
291.724	76.97
291.938	23.72
292.153	107.69
292.368	11.43
292.583	-58.2
292.798	64.68
293.012	48.3
293.227	62.63
293.442	85.16
293.657	68.78
293.871	138.41
294.086	21.67
294.301	136.36
294.516	95.4
294.73	25.77
294.945	48.3
295.16	122.02
295.374	134.31
295.589	101.55
295.804	9.39
296.018	79.02
296.233	70.83
296.447	54.44
296.662	-13.14
296.877	72.87
297.091	23.72
297.306	11.43
297.52	54.44
297.735	9.39
297.949	109.74
298.164	74.92
298.378	46.25
298.593	27.82
298.807	62.63
299.022	119.98
299.236	101.55
299.451	27.82
299.665	79.02
299.88	48.3
300.094	-19.29
300.309	60.59
300.523	101.55
300.737	85.16
300.952	64.68
301.166	44.2
301.381	85.16
301.595	33.96
301.809	62.63
302.024	40.11
302.238	7.34
302.452	38.06
302.667	27.82
302.881	113.83
303.095	56.49
303.309	48.3
303.524	60.59
303.738	99.5
303.952	5.29
304.166	76.97
304.381	-9.05
304.595	89.26
304.809	117.93
305.023	66.73
305.237	27.82
305.452	85.16
305.666	85.16
305.88	113.83
306.094	95.4
306.308	79.02
306.522	111.78
306.736	95.4
306.95	64.68
307.164	81.07
307.379	44.2
307.593	103.59
307.807	68.78
308.021	50.35
308.235	154.79
308.449	48.3
308.663	-0.85
308.877	81.07
309.091	89.26
309.305	119.98
309.519	7.34
309.733	101.55
309.947	46.25
310.161	89.26
310.374	72.87
310.588	70.83
310.802	25.77
311.016	-29.52
311.23	97.45
311.444	29.87
311.658	60.59
311.872	27.82
312.085	44.2
312.299	68.78
312.513	81.07
312.727	150.7
312.941	50.35
313.154	56.49
313.368	91.31
313.582	76.97
313.796	-15.19
314.009	40.11
314.223	136.36
314.437	38.06
314.651	54.44
314.864	76.97
315.078	68.78
315.292	52.39
315.505	46.25
315.719	25.77
315.933	15.53
316.146	76.97
316.36	-11.09
316.573	93.35
316.787	60.59
317.001	56.49
317.214	70.83
317.428	66.73
317.641	91.31
317.855	66.73
318.068	66.73
318.282	60.59
318.495	136.36
318.709	126.12
318.922	9.39
319.136	158.89
319.349	126.12
319.563	85.16
319.776	79.02
319.99	60.59
320.203	79.02
320.417	154.79
320.63	76.97
320.843	95.4
321.057	68.78
321.27	25.77
321.483	79.02
321.697	158.89
321.91	17.58
322.124	85.16
322.337	70.83
322.55	13.48
322.763	44.2
322.977	-7
323.19	60.59
323.403	52.39
323.617	95.4
323.83	44.2
324.043	27.82
324.256	85.16
324.469	83.11
324.683	38.06
324.896	124.07
325.109	19.63
325.322	54.44
325.535	70.83
325.748	113.83
325.962	48.3
326.175	56.49
326.388	48.3
326.601	128.17
326.814	23.72
327.027	52.39
327.24	-2.9
327.453	40.11
327.666	72.87
327.879	154.79
328.092	119.98
328.305	33.96
328.518	-2.9
328.731	81.07
328.944	31.91
329.157	64.68
329.37	5.29
329.583	111.78
329.796	142.5
330.009	29.87
330.222	119.98
330.435	134.31
330.648	136.36
330.861	117.93
331.073	85.16
331.286	79.02
331.499	72.87
331.712	93.35
331.925	115.88
332.138	113.83
332.35	130.22
332.563	7.34
332.776	140.46
332.989	72.87
333.202	-17.24
333.414	74.92
333.627	13.48
333.84	36.01
334.053	93.35
334.265	46.25
334.478	-21.33
334.691	60.59
334.903	33.96
335.116	15.53
335.329	79.02
335.541	64.68
335.754	126.12
335.966	46.25
336.179	111.78
336.392	54.44
336.604	-0.85
336.817	101.55
337.029	79.02
337.242	29.87
337.454	87.21
337.667	68.78
337.88	167.08
338.092	13.48
338.305	109.74
338.517	31.91
338.729	119.98
338.942	111.78
339.154	31.91
339.367	89.26
339.579	89.26
339.792	25.77
340.004	70.83
340.217	87.21
340.429	60.59
340.641	11.43
340.854	38.06
341.066	79.02
341.278	126.12
341.491	109.74
341.703	109.74
341.915	9.39
342.128	83.11
342.34	109.74
342.552	70.83
342.764	85.16
342.977	46.25
343.189	56.49
343.401	74.92
343.613	-4.95
343.826	21.67
344.038	-23.38
344.25	124.07
344.462	42.15
344.674	52.39
344.886	23.72
345.099	58.54
345.311	15.53
345.523	44.2
345.735	9.39
345.947	134.31
346.159	15.53
346.371	40.11
346.583	87.21
346.795	101.55
347.007	38.06
347.219	44.2
347.431	13.48
347.643	31.91
347.855	25.77
348.067	197.8
348.279	46.25
348.491	101.55
348.703	62.63
348.915	52.39
349.127	23.72
349.339	95.4
349.551	115.88
349.763	68.78
349.975	25.77
350.187	74.92
350.399	117.93
350.61	103.59
350.822	79.02
351.034	44.2
351.246	85.16
351.458	44.2
351.669	111.78
351.881	146.6
352.093	101.55
352.305	122.02
352.517	58.54
352.728	136.36
352.94	62.63
353.152	119.98
353.363	42.15
353.575	85.16
353.787	103.59
353.999	19.63
354.21	132.26
354.422	111.78
354.633	3.24
354.845	62.63
355.057	142.5
355.268	70.83
355.48	25.77
355.692	79.02
355.903	31.91
356.115	70.83
356.326	81.07
356.538	68.78
356.749	46.25
356.961	152.74
357.172	99.5
357.384	21.67
357.595	220.33
357.807	17.58
358.018	21.67
358.23	72.87
358.441	109.74
358.653	142.5
358.864	99.5
359.075	-7
359.287	154.79
359.498	93.35
359.709	122.02
359.921	29.87
360.132	117.93
360.344	-0.85
360.555	70.83
360.766	93.35
360.977	46.25
361.189	52.39
361.4	44.2
361.611	66.73
361.823	126.12
362.034	85.16
362.245	15.53
362.456	126.12
362.667	99.5
362.879	48.3
363.09	29.87
363.301	103.59
363.512	81.07
363.723	68.78
363.935	79.02
364.146	115.88
364.357	140.46
364.568	111.78
364.779	44.2
364.99	150.7
365.201	76.97
365.412	126.12
365.623	-29.52
365.834	54.44
366.045	87.21
366.256	64.68
366.467	62.63
366.678	-25.43
366.889	38.06
367.1	11.43
367.311	99.5
367.522	48.3
367.733	152.74
367.944	136.36
368.155	91.31
368.366	109.74
368.577	122.02
368.788	111.78
368.999	66.73
369.209	103.59
369.42	128.17
369.631	119.98
369.842	91.31
370.053	48.3
370.264	122.02
370.474	58.54
370.685	93.35
370.896	93.35
371.107	119.98
371.317	58.54
371.528	13.48
371.739	101.55
371.95	46.25
372.16	21.67
372.371	91.31
372.582	111.78
372.792	68.78
373.003	85.16
373.214	56.49
373.424	60.59
373.635	5.29
373.846	54.44
374.056	21.67
374.267	105.64
374.477	113.83
374.688	105.64
374.898	103.59
375.109	160.94
375.319	93.35
375.53	105.64
375.74	109.74
375.951	81.07
376.161	83.11
376.372	103.59
376.582	79.02
376.793	111.78
377.003	91.31
377.214	54.44
377.424	105.64
377.635	97.45
377.845	-19.29
378.055	150.7
378.266	29.87
378.476	-19.29
378.686	74.92
378.897	9.39
379.107	113.83
379.317	81.07
379.528	19.63
379.738	103.59
379.948	74.92
380.158	17.58
380.369	-2.9
380.579	111.78
380.789	115.88
380.999	165.03
381.21	173.22
381.42	142.5
381.63	17.58
381.84	101.55
382.05	154.79
382.261	103.59
382.471	83.11
382.681	81.07
382.891	105.64
383.101	136.36
383.311	40.11
383.521	117.93
383.731	109.74
383.941	76.97
384.151	60.59
384.361	97.45
384.571	101.55
384.781	134.31
384.991	117.93
385.201	175.27
385.411	115.88
385.621	140.46
385.831	128.17
386.041	44.2
386.251	140.46
386.461	167.08
386.671	11.43
386.881	91.31
387.091	68.78
387.301	169.13
387.511	93.35
387.72	89.26
387.93	40.11
388.14	79.02
388.35	85.16
388.56	79.02
388.769	103.59
388.979	128.17
389.189	7.34
389.399	173.22
389.609	146.6
389.818	173.22
390.028	177.32
390.238	124.07
390.447	-35.67
390.657	138.41
390.867	152.74
391.076	11.43
391.286	21.67
391.496	142.5
391.705	89.26
391.915	128.17
392.125	126.12
392.334	68.78
392.544	154.79
392.753	119.98
392.963	1.19
393.172	95.4
393.382	79.02
393.591	185.51
393.801	91.31
394.01	87.21
394.22	167.08
394.429	119.98
394.639	68.78
394.848	138.41
395.058	119.98
395.267	-19.29
395.477	158.89
395.686	76.97
395.895	244.9
396.105	193.7
396.314	193.7
396.524	130.22
396.733	111.78
396.942	99.5
397.152	130.22
397.361	130.22
397.57	81.07
397.78	95.4
397.989	126.12
398.198	203.94
398.407	76.97
398.617	101.55
398.826	193.7
399.035	158.89
399.244	177.32
399.453	144.55
399.663	128.17
399.872	142.5
400.081	64.68
400.29	175.27
400.499	79.02
400.708	136.36
400.917	122.02
401.127	95.4
401.336	105.64
401.545	193.7
401.754	95.4
401.963	183.46
402.172	148.65
402.381	85.16
402.59	169.13
402.799	122.02
403.008	189.61
403.217	117.93
403.426	126.12
403.635	150.7
403.844	169.13
404.053	105.64
404.262	142.5
404.471	208.04
404.68	160.94
404.888	171.18
405.097	165.03
405.306	208.04
405.515	236.71
405.724	191.66
405.933	234.66
406.142	199.85
406.35	310.44
406.559	203.94
406.768	152.74
406.977	249
407.185	199.85
407.394	191.66
407.603	167.08
407.812	220.33
408.02	314.53
408.229	234.66
408.438	175.27
408.646	210.09
408.855	287.91
409.064	292.01
409.272	232.62
409.481	298.15
409.69	195.75
409.898	287.91
410.107	308.39
410.315	365.73
410.524	261.29
410.733	304.29
410.941	279.72
411.15	320.68
411.358	378.02
411.567	459.94
411.775	437.41
411.984	517.28
412.192	494.76
412.401	406.69
412.609	480.42
412.818	474.28
413.026	550.05
413.234	466.08
413.443	572.58
413.651	478.37
413.86	562.34
414.068	593.06
414.276	629.92
414.485	568.48
414.693	588.96
414.901	752.8
415.11	715.94
415.318	736.42
415.526	674.98
415.734	773.28
415.943	726.18
416.151	765.09
416.359	818.33
416.567	779.42
416.776	885.92
416.984	939.16
417.192	904.35
417.4	920.73
417.608	1004.7
417.817	988.32
418.025	941.21
418.233	1236.12
418.441	1105.05
418.649	1133.72
418.857	1166.49
419.065	1270.94
419.273	1207.45
419.481	1225.88
419.689	1438.87
419.897	1330.33
420.105	1424.53
420.313	1533.08
420.521	1512.6
420.729	1543.32
420.937	1619.09
421.145	1539.22
421.353	1719.44
421.561	1862.8
421.769	1885.33
421.977	2002.06
422.185	1914
422.393	2016.4
422.601	2190.47
422.809	2112.65
423.017	2106.51
423.224	2327.69
423.432	2350.21
423.64	2430.09
423.848	2569.35
424.056	2503.81
424.263	2708.61
424.471	2759.81
424.679	2706.56
424.887	2894.97
425.094	2929.79
425.302	2956.41
425.51	3095.68
425.718	3167.35
425.925	3255.42
426.133	3320.95
426.341	3656.82
426.548	3648.63
426.756	3693.68
426.964	3683.44
427.171	3980.4
427.379	4007.02
427.586	4101.23
427.794	4144.24
428.001	4344.94
428.209	4549.73
428.417	4574.31
428.624	5039.2
428.832	4844.64
429.039	4793.44
429.247	4944.99
429.454	5323.87
429.662	5688.4
429.869	5305.43
430.076	5606.49
430.284	5538.9
430.491	5774.42
430.699	6188.11
430.906	6165.58
431.114	5979.22
431.321	6523.98
431.528	6419.53
431.736	7029.82
431.943	7285.82
432.15	6835.27
432.358	6999.1
432.565	7642.17
432.772	7500.86
432.979	7791.67
433.187	8168.49
433.394	8221.74
433.601	8592.42
433.808	8625.19
434.016	8457.26
434.223	9208.86
434.43	9509.91
434.637	9266.21
434.844	9948.18
435.052	10157.07
435.259	10095.63
435.466	10021.91
435.673	9901.08
435.88	10732.55
436.087	11277.31
436.294	11320.32
436.501	11015.17
436.708	11316.22
436.915	11230.21
437.122	12123.12
437.329	12012.53
437.537	12579.82
437.743	12489.71
437.95	12524.52
438.157	13259.74
438.364	13450.21
438.571	13564.89
438.778	13562.84
438.985	14908.36
439.192	14457.81
439.399	14769.1
439.606	14453.71
439.813	15231.94
440.02	16481.2
440.227	15879.1
440.433	15862.71
440.64	16268.21
440.847	16380.85
441.054	16792.49
441.261	17664.93
441.467	17697.69
441.674	17929.11
441.881	18348.95
442.088	18434.96
442.294	18371.47
442.501	18656.14
442.708	19194.76
442.914	20122.49
443.121	20902.76
443.328	20358
443.534	21893.98
443.741	21179.24
443.948	20734.83
444.154	22190.94
444.361	21951.32
444.568	22481.75
444.774	22231.9
444.981	22819.66
445.187	23563.08
445.394	24367.93
445.6	23950.14
445.807	26299.16
446.013	24884.01
446.22	25768.74
446.426	26637.08
446.633	27067.15
446.839	27753.22
447.046	26645.27
447.252	28211.96
447.459	28132.09
447.665	27996.93
447.871	29293.29
448.078	30667.48
448.284	29156.08
448.491	30155.49
448.697	30978.77
448.903	31582.92
449.11	31953.6
449.316	31087.31
449.522	31857.35
449.728	32934.58
449.935	33098.42
450.141	33348.27
450.347	34028.2
450.553	32426.68
450.76	33272.49
450.966	34165.41
451.172	34118.31
451.378	34689.69
451.584	34144.93
451.791	35240.59
451.997	34984.6
452.203	35099.28
452.409	35607.18
452.615	35248.78
452.821	33901.22
453.027	33753.77
453.233	35625.61
453.44	33966.76
453.646	34736.79
453.852	34785.94
454.058	35240.59
454.264	34183.84
454.47	34984.6
454.676	34271.9
454.882	35504.78
455.088	32150.21
455.294	32588.47
455.5	33530.54
455.705	33585.83
455.911	32348.86
456.117	31881.92
456.323	31228.62
456.529	29762.28
456.735	31089.36
456.941	30411.48
457.147	29623.01
457.352	29068.02
457.558	28705.52
457.764	28762.87
457.97	27849.47
458.176	27251.47
458.381	27435.78
458.587	25905.95
458.793	25756.45
458.999	24732.47
459.204	26553.11
459.41	25766.69
459.616	24175.42
459.821	24064.83
460.027	23579.46
460.233	23417.67
460.438	22315.86
460.644	22481.75
460.85	21492.58
461.055	21097.32
461.261	21033.83
461.466	19485.57
461.672	19108.74
461.878	20452.21
462.083	18733.96
462.289	18811.79
462.494	18430.87
462.7	17408.93
462.905	17079.21
463.111	17779.61
463.316	17865.63
463.522	17507.23
463.727	17630.11
463.932	17560.48
464.138	17060.77
464.343	17320.87
464.549	16915.37
464.754	17288.1
464.959	16952.23
465.165	17001.38
465.37	16458.67
465.575	15913.91
465.781	16827.31
465.986	16608.17
