Data from USB4F104151__90__13-06-21-316.txt Node

Date: Fri Mar 14 13:06:21 EDT 2025
User: louis
Spectrometer: USB4F10415
Trigger mode: 4
Integration Time (sec): 4.000000E-2
Scans to average: 1
Electric dark correction enabled: true
Nonlinearity correction enabled: false
Boxcar width: 0
XAxis mode: Wavelengths
Number of Pixels in Spectrum: 3648
>>>>>Begin Spectral Data<<<<<
178.204	-177.49
178.424	-177.49
178.644	-177.49
178.864	-128.34
179.084	-218.45
179.304	-38.23
179.524	-21.84
179.744	39.59
179.964	103.08
180.184	10.92
180.404	31.4
180.624	-21.84
180.844	-48.47
181.064	-68.95
181.283	43.69
181.503	-62.8
181.723	33.45
181.943	35.5
182.163	96.94
182.383	0.68
182.602	2.73
182.822	107.18
183.042	-40.28
183.262	-25.94
183.482	2.73
183.701	53.93
183.921	53.93
184.141	-7.51
184.361	31.4
184.58	53.93
184.8	92.84
185.02	-17.75
185.239	148.14
185.459	-7.51
185.679	139.94
185.898	6.83
186.118	8.87
186.338	8.87
186.557	88.75
186.777	-1.37
186.997	27.31
187.216	-17.75
187.436	43.69
187.655	10.92
187.875	94.89
188.095	23.21
188.314	119.46
188.534	80.55
188.753	62.12
188.973	45.74
189.192	180.9
189.412	64.17
189.631	10.92
189.851	80.55
190.07	117.42
190.29	-1.37
190.509	-13.65
190.729	23.21
190.948	66.22
191.168	148.14
191.387	64.17
191.607	-17.75
191.826	41.64
192.045	58.03
192.265	35.5
192.484	64.17
192.704	25.26
192.923	-42.32
193.142	107.18
193.362	55.98
193.581	8.87
193.8	35.5
194.02	125.61
194.239	37.55
194.458	47.79
194.678	25.26
194.897	41.64
195.116	-9.56
195.335	35.5
195.555	84.65
195.774	33.45
195.993	107.18
196.212	31.4
196.432	98.99
196.651	-44.37
196.87	62.12
197.089	111.27
197.308	37.55
197.528	47.79
197.747	-30.04
197.966	101.03
198.185	119.46
198.404	125.61
198.623	113.32
198.842	74.41
199.062	68.27
199.281	31.4
199.5	80.55
199.719	6.83
199.938	109.23
200.157	62.12
200.376	-42.32
200.595	117.42
200.814	55.98
201.033	35.5
201.252	119.46
201.471	8.87
201.69	70.31
201.909	55.98
202.128	117.42
202.347	-1.37
202.566	-13.65
202.785	-11.61
203.004	66.22
203.223	101.03
203.442	86.7
203.661	-40.28
203.879	78.51
204.098	35.5
204.317	-17.75
204.536	6.83
204.755	39.59
204.974	33.45
205.193	55.98
205.411	86.7
205.63	109.23
205.849	45.74
206.068	68.27
206.287	64.17
206.505	58.03
206.724	25.26
206.943	6.83
207.162	-9.56
207.381	92.84
207.599	-27.99
207.818	64.17
208.037	-5.46
208.255	76.46
208.474	135.85
208.693	96.94
208.911	23.21
209.13	12.97
209.349	86.7
209.567	98.99
209.786	58.03
210.005	53.93
210.223	33.45
210.442	-21.84
210.661	60.07
210.879	23.21
211.098	80.55
211.316	47.79
211.535	101.03
211.753	33.45
211.972	-38.23
212.191	35.5
212.409	39.59
212.628	-1.37
212.846	-11.61
213.065	39.59
213.283	111.27
213.502	82.6
213.72	-15.7
213.938	60.07
214.157	76.46
214.375	107.18
214.594	-30.04
214.812	49.83
215.031	-27.99
215.249	15.02
215.467	64.17
215.686	92.84
215.904	82.6
216.122	21.16
216.341	88.75
216.559	31.4
216.778	70.31
216.996	94.89
217.214	41.64
217.432	-13.65
217.651	-27.99
217.869	72.36
218.087	35.5
218.306	64.17
218.524	119.46
218.742	21.16
218.96	47.79
219.179	64.17
219.397	43.69
219.615	115.37
219.833	76.46
220.051	2.73
220.27	103.08
220.488	47.79
220.706	55.98
220.924	27.31
221.142	43.69
221.36	58.03
221.578	47.79
221.796	-13.65
222.015	66.22
222.233	23.21
222.451	92.84
222.669	-21.84
222.887	109.23
223.105	-38.23
223.323	66.22
223.541	-48.47
223.759	37.55
223.977	84.65
224.195	37.55
224.413	43.69
224.631	2.73
224.849	2.73
225.067	158.38
225.285	12.97
225.503	35.5
225.721	-81.24
225.939	37.55
226.157	-5.46
226.375	146.09
226.592	2.73
226.81	43.69
227.028	53.93
227.246	96.94
227.464	78.51
227.682	29.35
227.9	10.92
228.117	31.4
228.335	33.45
228.553	60.07
228.771	125.61
228.989	37.55
229.206	80.55
229.424	45.74
229.642	-15.7
229.86	4.78
230.077	168.62
230.295	66.22
230.513	82.6
230.731	-1.37
230.948	62.12
231.166	6.83
231.384	-30.04
231.601	70.31
231.819	105.13
232.037	35.5
232.254	23.21
232.472	43.69
232.689	-3.41
232.907	92.84
233.125	2.73
233.342	-13.65
233.56	58.03
233.777	27.31
233.995	12.97
234.213	96.94
234.43	27.31
234.648	96.94
234.865	-52.56
235.083	51.88
235.3	68.27
235.518	10.92
235.735	10.92
235.953	10.92
236.17	41.64
236.388	2.73
236.605	33.45
236.822	105.13
237.04	68.27
237.257	-32.08
237.475	-27.99
237.692	-3.41
237.909	-68.95
238.127	41.64
238.344	25.26
238.562	37.55
238.779	37.55
238.996	-34.13
239.214	119.46
239.431	70.31
239.648	-5.46
239.865	107.18
240.083	72.36
240.3	35.5
240.517	35.5
240.735	55.98
240.952	129.7
241.169	82.6
241.386	68.27
241.603	43.69
241.821	-66.9
242.038	84.65
242.255	60.07
242.472	0.68
242.689	84.65
242.907	0.68
243.124	41.64
243.341	-5.46
243.558	-21.84
243.775	21.16
243.992	-44.37
244.209	76.46
244.426	144.04
244.643	51.88
244.86	2.73
245.078	53.93
245.295	76.46
245.512	21.16
245.729	64.17
245.946	60.07
246.163	74.41
246.38	64.17
246.597	37.55
246.814	23.21
247.031	-3.41
247.248	60.07
247.464	117.42
247.681	37.55
247.898	25.26
248.115	88.75
248.332	60.07
248.549	6.83
248.766	113.32
248.983	74.41
249.2	33.45
249.417	76.46
249.633	82.6
249.85	51.88
250.067	37.55
250.284	72.36
250.501	74.41
250.717	51.88
250.934	-27.99
251.151	12.97
251.368	60.07
251.585	119.46
251.801	70.31
252.018	-48.47
252.235	82.6
252.451	43.69
252.668	43.69
252.885	113.32
253.102	21.16
253.318	23.21
253.535	-44.37
253.752	-52.56
253.968	66.22
254.185	-44.37
254.401	35.5
254.618	37.55
254.835	4.78
255.051	51.88
255.268	125.61
255.484	31.4
255.701	-3.41
255.917	74.41
256.134	6.83
256.351	55.98
256.567	-5.46
256.784	62.12
257	-60.76
257.217	60.07
257.433	80.55
257.65	41.64
257.866	29.35
258.082	-5.46
258.299	-25.94
258.515	103.08
258.732	53.93
258.948	21.16
259.165	21.16
259.381	39.59
259.597	86.7
259.814	66.22
260.03	76.46
260.246	-1.37
260.463	131.75
260.679	12.97
260.895	86.7
261.112	84.65
261.328	-11.61
261.544	-38.23
261.761	53.93
261.977	15.02
262.193	-30.04
262.409	21.16
262.626	64.17
262.842	76.46
263.058	29.35
263.274	31.4
263.49	72.36
263.707	23.21
263.923	47.79
264.139	-30.04
264.355	19.11
264.571	88.75
264.787	60.07
265.004	84.65
265.22	66.22
265.436	19.11
265.652	-21.84
265.868	53.93
266.084	-15.7
266.3	105.13
266.516	45.74
266.732	111.27
266.948	37.55
267.164	29.35
267.38	64.17
267.596	-19.8
267.812	96.94
268.028	8.87
268.244	29.35
268.46	60.07
268.676	123.56
268.892	154.28
269.108	6.83
269.324	15.02
269.54	17.07
269.756	55.98
269.972	-62.8
270.188	-15.7
270.403	-21.84
270.619	2.73
270.835	92.84
271.051	-17.75
271.267	2.73
271.483	96.94
271.698	43.69
271.914	60.07
272.13	29.35
272.346	0.68
272.562	72.36
272.777	109.23
272.993	10.92
273.209	53.93
273.425	4.78
273.64	-30.04
273.856	72.36
274.072	70.31
274.287	41.64
274.503	-7.51
274.719	74.41
274.934	-17.75
275.15	-27.99
275.366	33.45
275.581	70.31
275.797	23.21
276.012	58.03
276.228	-79.19
276.444	6.83
276.659	103.08
276.875	-5.46
277.09	33.45
277.306	70.31
277.521	117.42
277.737	21.16
277.952	25.26
278.168	-7.51
278.383	0.68
278.599	31.4
278.814	45.74
279.03	-25.94
279.245	45.74
279.461	43.69
279.676	74.41
279.892	25.26
280.107	60.07
280.322	19.11
280.538	115.37
280.753	62.12
280.969	115.37
281.184	96.94
281.399	127.66
281.615	90.79
281.83	78.51
282.045	17.07
282.26	-7.51
282.476	53.93
282.691	70.31
282.906	60.07
283.122	45.74
283.337	-1.37
283.552	51.88
283.767	29.35
283.983	158.38
284.198	27.31
284.413	98.99
284.628	2.73
284.843	68.27
285.058	101.03
285.274	39.59
285.489	27.31
285.704	64.17
285.919	-21.84
286.134	55.98
286.349	37.55
286.564	27.31
286.779	101.03
286.995	4.78
287.21	45.74
287.425	58.03
287.64	10.92
287.855	58.03
288.07	8.87
288.285	29.35
288.5	31.4
288.715	94.89
288.93	23.21
289.145	72.36
289.36	125.61
289.575	-17.75
289.79	39.59
290.004	47.79
290.219	135.85
290.434	15.02
290.649	-13.65
290.864	37.55
291.079	21.16
291.294	60.07
291.509	35.5
291.724	53.93
291.938	21.16
292.153	129.7
292.368	51.88
292.583	-15.7
292.798	86.7
293.012	35.5
293.227	45.74
293.442	47.79
293.657	84.65
293.871	127.66
294.086	51.88
294.301	144.04
294.516	37.55
294.73	76.46
294.945	70.31
295.16	-60.76
295.374	6.83
295.589	66.22
295.804	137.9
296.018	58.03
296.233	53.93
296.447	88.75
296.662	10.92
296.877	35.5
297.091	47.79
297.306	74.41
297.52	25.26
297.735	146.09
297.949	84.65
298.164	19.11
298.378	84.65
298.593	-21.84
298.807	88.75
299.022	17.07
299.236	105.13
299.451	-23.89
299.665	68.27
299.88	27.31
300.094	70.31
300.309	45.74
300.523	72.36
300.737	64.17
300.952	15.02
301.166	23.21
301.381	90.79
301.595	62.12
301.809	72.36
302.024	8.87
302.238	39.59
302.452	62.12
302.667	41.64
302.881	23.21
303.095	82.6
303.309	94.89
303.524	43.69
303.738	70.31
303.952	27.31
304.166	115.37
304.381	19.11
304.595	92.84
304.809	15.02
305.023	55.98
305.237	29.35
305.452	51.88
305.666	60.07
305.88	35.5
306.094	80.55
306.308	41.64
306.522	96.94
306.736	144.04
306.95	86.7
307.164	2.73
307.379	96.94
307.593	68.27
307.807	101.03
308.021	41.64
308.235	41.64
308.449	-25.94
308.663	-56.66
308.877	211.62
309.091	96.94
309.305	84.65
309.519	31.4
309.733	74.41
309.947	41.64
310.161	72.36
310.374	45.74
310.588	55.98
310.802	0.68
311.016	60.07
311.23	113.32
311.444	43.69
311.658	74.41
311.872	53.93
312.085	139.94
312.299	64.17
312.513	82.6
312.727	101.03
312.941	39.59
313.154	64.17
313.368	41.64
313.582	19.11
313.796	41.64
314.009	-5.46
314.223	92.84
314.437	84.65
314.651	35.5
314.864	35.5
315.078	-50.52
315.292	6.83
315.505	2.73
315.719	78.51
315.933	86.7
316.146	-21.84
316.36	53.93
316.573	43.69
316.787	125.61
317.001	123.56
317.214	37.55
317.428	68.27
317.641	2.73
317.855	-7.51
318.068	43.69
318.282	41.64
318.495	64.17
318.709	70.31
318.922	31.4
319.136	141.99
319.349	141.99
319.563	45.74
319.776	70.31
319.99	-3.41
320.203	53.93
320.417	64.17
320.63	51.88
320.843	66.22
321.057	6.83
321.27	19.11
321.483	62.12
321.697	103.08
321.91	-30.04
322.124	35.5
322.337	148.14
322.55	-60.76
322.763	2.73
322.977	62.12
323.19	-23.89
323.403	31.4
323.617	78.51
323.83	127.66
324.043	55.98
324.256	105.13
324.469	-1.37
324.683	29.35
324.896	68.27
325.109	70.31
325.322	27.31
325.535	129.7
325.748	107.18
325.962	10.92
326.175	17.07
326.388	49.83
326.601	35.5
326.814	68.27
327.027	25.26
327.24	150.18
327.453	-36.18
327.666	12.97
327.879	80.55
328.092	21.16
328.305	51.88
328.518	64.17
328.731	49.83
328.944	94.89
329.157	60.07
329.37	45.74
329.583	84.65
329.796	80.55
330.009	39.59
330.222	47.79
330.435	62.12
330.648	146.09
330.861	25.26
331.073	68.27
331.286	80.55
331.499	41.64
331.712	-50.52
331.925	35.5
332.138	-11.61
332.35	68.27
332.563	43.69
332.776	92.84
332.989	0.68
333.202	25.26
333.414	47.79
333.627	43.69
333.84	62.12
334.053	37.55
334.265	88.75
334.478	23.21
334.691	-19.8
334.903	64.17
335.116	37.55
335.329	-19.8
335.541	92.84
335.754	166.57
335.966	2.73
336.179	12.97
336.392	21.16
336.604	47.79
336.817	64.17
337.029	92.84
337.242	64.17
337.454	29.35
337.667	-21.84
337.88	172.71
338.092	43.69
338.305	78.51
338.517	80.55
338.729	33.45
338.942	125.61
339.154	8.87
339.367	35.5
339.579	133.8
339.792	33.45
340.004	39.59
340.217	37.55
340.429	17.07
340.641	19.11
340.854	-19.8
341.066	103.08
341.278	84.65
341.491	19.11
341.703	144.04
341.915	2.73
342.128	113.32
342.34	94.89
342.552	-17.75
342.764	10.92
342.977	4.78
343.189	39.59
343.401	27.31
343.613	23.21
343.826	88.75
344.038	-13.65
344.25	92.84
344.462	-7.51
344.674	60.07
344.886	43.69
345.099	72.36
345.311	78.51
345.523	49.83
345.735	10.92
345.947	55.98
346.159	96.94
346.371	64.17
346.583	-13.65
346.795	62.12
347.007	-44.37
347.219	68.27
347.431	35.5
347.643	111.27
347.855	-7.51
348.067	23.21
348.279	-1.37
348.491	74.41
348.703	41.64
348.915	43.69
349.127	60.07
349.339	88.75
349.551	55.98
349.763	84.65
349.975	109.23
350.187	55.98
350.399	72.36
350.61	62.12
350.822	19.11
351.034	82.6
351.246	64.17
351.458	68.27
351.669	19.11
351.881	105.13
352.093	64.17
352.305	78.51
352.517	35.5
352.728	76.46
352.94	17.07
353.152	207.53
353.363	60.07
353.575	84.65
353.787	125.61
353.999	72.36
354.21	113.32
354.422	88.75
354.633	74.41
354.845	74.41
355.057	21.16
355.268	41.64
355.48	43.69
355.692	-1.37
355.903	29.35
356.115	23.21
356.326	-66.9
356.538	92.84
356.749	53.93
356.961	107.18
357.172	119.46
357.384	60.07
357.595	137.9
357.807	-3.41
358.018	37.55
358.23	23.21
358.441	141.99
358.653	0.68
358.864	49.83
359.075	35.5
359.287	55.98
359.498	101.03
359.709	39.59
359.921	43.69
360.132	33.45
360.344	111.27
360.555	-38.23
360.766	62.12
360.977	55.98
361.189	84.65
361.4	53.93
361.611	76.46
361.823	62.12
362.034	62.12
362.245	-7.51
362.456	62.12
362.667	68.27
362.879	92.84
363.09	-5.46
363.301	119.46
363.512	15.02
363.723	101.03
363.935	66.22
364.146	146.09
364.357	2.73
364.568	41.64
364.779	21.16
364.99	178.86
365.201	90.79
365.412	96.94
365.623	23.21
365.834	2.73
366.045	62.12
366.256	76.46
366.467	41.64
366.678	2.73
366.889	33.45
367.1	31.4
367.311	121.51
367.522	88.75
367.733	43.69
367.944	21.16
368.155	-13.65
368.366	109.23
368.577	80.55
368.788	189.1
368.999	4.78
369.209	62.12
369.42	111.27
369.631	135.85
369.842	53.93
370.053	8.87
370.264	98.99
370.474	55.98
370.685	119.46
370.896	0.68
371.107	152.23
371.317	84.65
371.528	117.42
371.739	131.75
371.95	115.37
372.16	84.65
372.371	-62.8
372.582	45.74
372.792	88.75
373.003	96.94
373.214	10.92
373.424	76.46
373.635	-36.18
373.846	164.52
374.056	27.31
374.267	58.03
374.477	78.51
374.688	19.11
374.898	70.31
375.109	101.03
375.319	25.26
375.53	62.12
375.74	129.7
375.951	66.22
376.161	141.99
376.372	117.42
376.582	21.16
376.793	66.22
377.003	58.03
377.214	27.31
377.424	39.59
377.635	19.11
377.845	49.83
378.055	141.99
378.266	45.74
378.476	39.59
378.686	55.98
378.897	64.17
379.107	101.03
379.317	135.85
379.528	35.5
379.738	119.46
379.948	6.83
380.158	55.98
380.369	-34.13
380.579	94.89
380.789	45.74
380.999	129.7
381.21	88.75
381.42	146.09
381.63	64.17
381.84	94.89
382.05	68.27
382.261	37.55
382.471	150.18
382.681	12.97
382.891	117.42
383.101	43.69
383.311	6.83
383.521	15.02
383.731	60.07
383.941	133.8
384.151	23.21
384.361	12.97
384.571	107.18
384.781	64.17
384.991	160.42
385.201	115.37
385.411	101.03
385.621	131.75
385.831	92.84
386.041	51.88
386.251	62.12
386.461	101.03
386.671	88.75
386.881	78.51
387.091	70.31
387.301	88.75
387.511	33.45
387.72	127.66
387.93	90.79
388.14	127.66
388.35	101.03
388.56	182.95
388.769	58.03
388.979	43.69
389.189	-21.84
389.399	53.93
389.609	131.75
389.818	103.08
390.028	111.27
390.238	92.84
390.447	19.11
390.657	133.8
390.867	58.03
391.076	70.31
391.286	-15.7
391.496	41.64
391.705	43.69
391.915	113.32
392.125	127.66
392.334	98.99
392.544	109.23
392.753	8.87
392.963	109.23
393.172	49.83
393.382	10.92
393.591	158.38
393.801	144.04
394.01	146.09
394.22	115.37
394.429	90.79
394.639	101.03
394.848	86.7
395.058	101.03
395.267	92.84
395.477	96.94
395.686	94.89
395.895	133.8
396.105	234.15
396.314	66.22
396.524	164.52
396.733	109.23
396.942	160.42
397.152	84.65
397.361	101.03
397.57	49.83
397.78	74.41
397.989	180.9
398.198	135.85
398.407	156.33
398.617	62.12
398.826	109.23
399.035	84.65
399.244	139.94
399.453	166.57
399.663	68.27
399.872	88.75
400.081	23.21
400.29	119.46
400.499	117.42
400.708	221.86
400.917	55.98
401.127	141.99
401.336	68.27
401.545	131.75
401.754	129.7
401.963	162.47
402.172	150.18
402.381	113.32
402.59	152.23
402.799	154.28
403.008	156.33
403.217	125.61
403.426	139.94
403.635	105.13
403.844	115.37
404.053	160.42
404.262	117.42
404.471	144.04
404.68	180.9
404.888	160.42
405.097	139.94
405.306	160.42
405.515	275.11
405.724	199.34
405.933	238.25
406.142	182.95
406.35	195.24
406.559	236.2
406.768	152.23
406.977	289.45
407.185	168.62
407.394	228.01
407.603	144.04
407.812	264.87
408.02	354.98
408.229	240.3
408.438	228.01
408.646	178.86
408.855	180.9
409.064	232.1
409.272	281.25
409.481	283.3
409.69	258.73
409.898	258.73
410.107	357.03
410.315	281.25
410.524	309.93
410.733	365.22
410.941	447.14
411.15	428.71
411.358	377.51
411.567	408.23
411.775	379.56
411.984	422.56
412.192	441
412.401	395.94
412.609	467.62
412.818	486.05
413.026	469.67
413.234	527.01
413.443	539.3
413.651	522.91
413.86	621.22
414.068	647.84
414.276	670.37
414.485	674.46
414.693	682.66
414.901	684.7
415.11	637.6
415.318	676.51
415.526	746.14
415.734	834.21
415.943	791.2
416.151	754.34
416.359	801.44
416.567	848.54
416.776	922.27
416.984	963.23
417.192	1002.14
417.4	952.99
417.608	918.17
417.817	979.61
418.025	1079.96
418.233	1135.26
418.441	1075.87
418.649	1116.83
418.857	1243.8
419.065	1313.43
419.273	1198.74
419.481	1424.02
419.689	1473.17
419.897	1403.54
420.105	1475.22
420.313	1632.91
420.521	1594
420.729	1690.26
420.937	1655.44
421.145	1688.21
421.353	1886.86
421.561	1880.72
421.769	1927.82
421.977	1987.21
422.185	1987.21
422.393	2099.85
422.601	2378.37
422.809	2206.35
423.017	2263.69
423.224	2329.22
423.432	2486.92
423.64	2484.87
423.848	2771.58
424.056	2503.3
424.263	2871.93
424.471	2871.93
424.679	2927.23
424.887	2968.19
425.094	3101.31
425.302	3314.3
425.51	3332.73
425.718	3420.79
425.925	3410.55
426.133	3590.77
426.341	3807.86
426.548	3803.76
426.756	3809.9
426.964	3965.55
427.171	4176.49
427.379	4287.08
427.586	4309.61
427.794	4393.58
428.001	4670.05
428.209	4860.51
428.417	4772.45
428.624	5141.08
428.832	5020.25
429.039	5202.52
429.247	4981.34
429.454	5583.45
429.662	5974.61
429.869	5671.51
430.076	6191.69
430.284	5892.69
430.491	5896.78
430.699	6318.67
430.906	6345.29
431.114	6476.36
431.321	6769.22
431.528	6785.6
431.736	7273.02
431.943	7629.37
432.15	7526.97
432.358	7397.95
432.565	8012.34
432.772	7868.98
432.979	8217.13
433.187	8466.99
433.394	8335.92
433.601	9013.79
433.808	8972.83
434.016	9046.56
434.223	9198.11
434.43	9992.72
434.637	9738.77
434.844	10254.86
435.052	10742.28
435.259	10590.73
435.466	10521.1
435.673	10250.77
435.88	10959.36
436.087	11864.57
436.294	11948.53
436.501	11502.08
436.708	11723.26
436.915	12007.92
437.122	12677.61
437.329	12634.6
437.537	12896.74
437.743	13347.29
437.95	13292
438.157	13996.5
438.364	14221.78
438.571	14412.24
438.778	14305.74
438.985	15872.44
439.192	15362.5
439.399	15542.72
439.606	15288.77
439.813	16331.19
440.02	17217.96
440.227	16794.03
440.433	16824.75
440.64	17480.1
440.847	16941.48
441.054	17637.79
441.261	18708.88
441.467	18516.37
441.674	18577.81
441.881	19554.69
442.088	19517.82
442.294	19251.59
442.501	19902.84
442.708	20062.58
442.914	21170.54
443.121	21930.33
443.328	21442.92
443.534	23152.97
443.741	22098.27
443.948	21760.35
444.154	23490.88
444.361	23152.97
444.568	23533.89
444.774	23779.65
444.981	24068.41
445.187	24555.83
445.394	25694.5
445.6	25344.3
445.807	27857.15
446.013	26630.42
446.22	27023.63
446.426	28090.62
446.633	28451.06
446.839	29360.36
447.046	28379.39
447.252	29931.75
447.459	29868.26
447.665	29550.82
447.871	30871.76
448.078	32151.74
448.284	30701.78
448.491	31666.38
448.697	32698.55
448.903	33591.47
449.11	33673.38
449.316	33052.85
449.522	33900.71
449.728	34750.62
449.935	34965.65
450.141	34799.77
450.347	35672.2
450.553	34744.47
450.76	35154.07
450.966	36644.99
451.172	35762.31
451.378	36763.77
451.584	35940.49
451.791	36847.74
451.997	37156.98
452.203	37515.37
452.409	37662.83
452.615	37585.01
452.821	36087.94
453.027	35383.44
453.233	37691.5
453.44	36690.04
453.646	36739.19
453.852	37083.25
454.058	37265.52
454.264	36280.45
454.47	37267.57
454.676	36014.21
454.882	37865.58
455.088	33939.62
455.294	34896.02
455.5	35324.05
455.705	36032.64
455.911	34185.38
456.117	33728.68
456.323	33226.93
456.529	31336.65
456.735	32729.27
456.941	31998.15
457.147	31375.56
457.352	30562.52
457.558	30243.04
457.764	30554.33
457.97	29622.5
458.176	29317.36
458.381	28963.06
458.587	27588.87
458.793	27728.13
458.999	26261.79
459.204	28033.28
459.41	27517.19
459.616	25411.88
459.821	25516.33
460.027	25319.72
460.233	24625.46
460.438	23763.26
460.644	24039.74
460.85	22966.6
461.055	22614.35
461.261	22270.29
461.466	20629.87
461.672	20248.95
461.878	21592.42
462.083	20351.35
462.289	19902.84
462.494	19501.44
462.7	18792.84
462.905	18192.79
463.111	18981.26
463.316	19179.91
463.522	18758.03
463.727	18569.62
463.932	18579.86
464.138	18016.66
464.343	18307.48
464.549	17785.24
464.754	18600.33
464.959	18035.1
465.165	18055.58
465.37	17263.01
465.575	16865.71
465.781	17494.43
465.986	17467.81
466.191	16689.58
466.397	16703.92
