Data from USB4F104151__1__13-04-07-172.txt Node

Date: Fri Mar 14 13:04:07 EDT 2025
User: louis
Spectrometer: USB4F10415
Trigger mode: 4
Integration Time (sec): 4.000000E-2
Scans to average: 1
Electric dark correction enabled: true
Nonlinearity correction enabled: false
Boxcar width: 0
XAxis mode: Wavelengths
Number of Pixels in Spectrum: 3648
>>>>>Begin Spectral Data<<<<<
178.204	-120.32
178.424	-120.32
178.644	-120.32
178.864	-192
179.084	-159.23
179.304	14.85
179.524	45.57
179.744	29.18
179.964	18.94
180.184	55.81
180.404	20.99
180.624	57.86
180.844	-67.07
181.064	-54.78
181.283	2.56
181.503	-52.74
181.723	-71.17
181.943	-38.4
182.163	80.38
182.383	0.51
182.602	100.86
182.822	18.94
183.042	4.61
183.262	-36.35
183.482	23.04
183.701	49.66
183.921	-48.64
184.141	4.61
184.361	53.76
184.58	39.42
184.8	27.14
185.02	64
185.239	55.81
185.459	33.28
185.679	35.33
185.898	10.75
186.118	88.57
186.338	43.52
186.557	80.38
186.777	33.28
186.997	-28.16
187.216	27.14
187.436	164.35
187.655	51.71
187.875	33.28
188.095	-11.78
188.314	82.43
188.534	59.9
188.753	37.38
188.973	92.67
189.192	86.53
189.412	113.15
189.631	10.75
189.851	107.01
190.07	100.86
190.29	4.61
190.509	59.9
190.729	10.75
190.948	47.62
191.168	188.93
191.387	113.15
191.607	49.66
191.826	45.57
192.045	6.66
192.265	37.38
192.484	6.66
192.704	-3.58
192.923	-15.87
193.142	143.87
193.362	68.09
193.581	100.86
193.8	68.09
194.02	78.33
194.239	66.05
194.458	35.33
194.678	2.56
194.897	141.82
195.116	102.91
195.335	76.29
195.555	55.81
195.774	-44.54
195.993	113.15
196.212	-3.58
196.432	-30.21
196.651	12.8
196.87	41.47
197.089	47.62
197.308	41.47
197.528	78.33
197.747	-11.78
197.966	59.9
198.185	80.38
198.404	45.57
198.623	43.52
198.842	66.05
199.062	109.05
199.281	61.95
199.5	59.9
199.719	31.23
199.938	100.86
200.157	59.9
200.376	98.81
200.595	45.57
200.814	12.8
201.033	47.62
201.252	121.34
201.471	-3.58
201.69	86.53
201.909	92.67
202.128	102.91
202.347	72.19
202.566	23.04
202.785	8.7
203.004	49.66
203.223	113.15
203.442	45.57
203.661	33.28
203.879	41.47
204.098	47.62
204.317	-97.79
204.536	43.52
204.755	90.62
204.974	31.23
205.193	12.8
205.411	96.77
205.63	49.66
205.849	61.95
206.068	90.62
206.287	-3.58
206.505	80.38
206.724	18.94
206.943	33.28
207.162	53.76
207.381	51.71
207.599	-38.4
207.818	64
208.037	37.38
208.255	6.66
208.474	51.71
208.693	-5.63
208.911	72.19
209.13	29.18
209.349	104.96
209.567	51.71
209.786	49.66
210.005	98.81
210.223	29.18
210.442	20.99
210.661	-17.92
210.879	92.67
211.098	76.29
211.316	47.62
211.535	14.85
211.753	53.76
211.972	64
212.191	-24.06
212.409	27.14
212.628	10.75
212.846	51.71
213.065	-5.63
213.283	61.95
213.502	76.29
213.72	20.99
213.938	61.95
214.157	16.9
214.375	88.57
214.594	8.7
214.812	59.9
215.031	27.14
215.249	111.1
215.467	109.05
215.686	57.86
215.904	139.77
216.122	-3.58
216.341	107.01
216.559	117.25
216.778	115.2
216.996	70.14
217.214	-13.82
217.432	0.51
217.651	31.23
217.869	-15.87
218.087	59.9
218.306	-22.02
218.524	66.05
218.742	0.51
218.96	61.95
219.179	2.56
219.397	39.42
219.615	47.62
219.833	59.9
220.051	29.18
220.27	92.67
220.488	80.38
220.706	94.72
220.924	35.33
221.142	-17.92
221.36	68.09
221.578	76.29
221.796	68.09
222.015	49.66
222.233	70.14
222.451	53.76
222.669	31.23
222.887	20.99
223.105	-50.69
223.323	51.71
223.541	39.42
223.759	115.2
223.977	70.14
224.195	53.76
224.413	82.43
224.631	39.42
224.849	64
225.067	176.64
225.285	39.42
225.503	64
225.721	-22.02
225.939	57.86
226.157	55.81
226.375	180.73
226.592	8.7
226.81	12.8
227.028	72.19
227.246	92.67
227.464	-11.78
227.682	-24.06
227.9	127.49
228.117	59.9
228.335	4.61
228.553	84.48
228.771	37.38
228.989	88.57
229.206	35.33
229.424	90.62
229.642	53.76
229.86	53.76
230.077	41.47
230.295	66.05
230.513	86.53
230.731	66.05
230.948	59.9
231.166	20.99
231.384	-15.87
231.601	-5.63
231.819	88.57
232.037	10.75
232.254	23.04
232.472	27.14
232.689	59.9
232.907	154.11
233.125	20.99
233.342	-9.73
233.56	27.14
233.777	68.09
233.995	78.33
234.213	113.15
234.43	113.15
234.648	113.15
234.865	-24.06
235.083	33.28
235.3	61.95
235.518	80.38
235.735	39.42
235.953	25.09
236.17	94.72
236.388	45.57
236.605	88.57
236.822	80.38
237.04	96.77
237.257	115.2
237.475	20.99
237.692	98.81
237.909	-7.68
238.127	20.99
238.344	121.34
238.562	84.48
238.779	-9.73
238.996	18.94
239.214	80.38
239.431	96.77
239.648	64
239.865	76.29
240.083	109.05
240.3	29.18
240.517	8.7
240.735	43.52
240.952	72.19
241.169	98.81
241.386	-13.82
241.603	37.38
241.821	6.66
242.038	53.76
242.255	94.72
242.472	20.99
242.689	113.15
242.907	92.67
243.124	-9.73
243.341	29.18
243.558	100.86
243.775	61.95
243.992	-5.63
244.209	64
244.426	115.2
244.643	59.9
244.86	20.99
245.078	45.57
245.295	2.56
245.512	29.18
245.729	18.94
245.946	27.14
246.163	14.85
246.38	94.72
246.597	80.38
246.814	43.52
247.031	45.57
247.248	31.23
247.464	74.24
247.681	14.85
247.898	82.43
248.115	12.8
248.332	0.51
248.549	29.18
248.766	96.77
248.983	98.81
249.2	57.86
249.417	102.91
249.633	-7.68
249.85	33.28
250.067	-3.58
250.284	94.72
250.501	102.91
250.717	72.19
250.934	-46.59
251.151	27.14
251.368	47.62
251.585	12.8
251.801	29.18
252.018	18.94
252.235	98.81
252.451	-36.35
252.668	35.33
252.885	76.29
253.102	35.33
253.318	-34.3
253.535	-9.73
253.752	35.33
253.968	35.33
254.185	-9.73
254.401	-22.02
254.618	84.48
254.835	29.18
255.051	59.9
255.268	82.43
255.484	41.47
255.701	37.38
255.917	23.04
256.134	-58.88
256.351	-7.68
256.567	80.38
256.784	35.33
257	8.7
257.217	147.97
257.433	121.34
257.65	-3.58
257.866	98.81
258.082	10.75
258.299	-17.92
258.515	18.94
258.732	25.09
258.948	20.99
259.165	61.95
259.381	-62.98
259.597	-9.73
259.814	33.28
260.03	47.62
260.246	33.28
260.463	90.62
260.679	109.05
260.895	27.14
261.112	14.85
261.328	78.33
261.544	74.24
261.761	125.44
261.977	-69.12
262.193	47.62
262.409	47.62
262.626	37.38
262.842	35.33
263.058	78.33
263.274	43.52
263.49	-11.78
263.707	74.24
263.923	72.19
264.139	20.99
264.355	41.47
264.571	152.06
264.787	25.09
265.004	133.63
265.22	82.43
265.436	20.99
265.652	8.7
265.868	125.44
266.084	0.51
266.3	100.86
266.516	-15.87
266.732	41.47
266.948	61.95
267.164	12.8
267.38	102.91
267.596	55.81
267.812	166.4
268.028	68.09
268.244	78.33
268.46	20.99
268.676	53.76
268.892	96.77
269.108	14.85
269.324	18.94
269.54	0.51
269.756	150.01
269.972	-11.78
270.188	-32.26
270.403	51.71
270.619	-30.21
270.835	70.14
271.051	35.33
271.267	90.62
271.483	2.56
271.698	-5.63
271.914	125.44
272.13	29.18
272.346	70.14
272.562	70.14
272.777	18.94
272.993	12.8
273.209	10.75
273.425	43.52
273.64	-1.54
273.856	74.24
274.072	-5.63
274.287	29.18
274.503	47.62
274.719	88.57
274.934	92.67
275.15	-30.21
275.366	-11.78
275.581	33.28
275.797	4.61
276.012	74.24
276.228	-26.11
276.444	55.81
276.659	98.81
276.875	88.57
277.09	43.52
277.306	47.62
277.521	100.86
277.737	31.23
277.952	96.77
278.168	59.9
278.383	72.19
278.599	100.86
278.814	4.61
279.03	37.38
279.245	66.05
279.461	100.86
279.676	55.81
279.892	61.95
280.107	-5.63
280.322	80.38
280.538	80.38
280.753	45.57
280.969	78.33
281.184	29.18
281.399	96.77
281.615	10.75
281.83	55.81
282.045	51.71
282.26	-3.58
282.476	20.99
282.691	80.38
282.906	6.66
283.122	18.94
283.337	43.52
283.552	102.91
283.767	18.94
283.983	111.1
284.198	90.62
284.413	18.94
284.628	51.71
284.843	27.14
285.058	119.29
285.274	-15.87
285.489	35.33
285.704	61.95
285.919	4.61
286.134	72.19
286.349	117.25
286.564	64
286.779	20.99
286.995	-13.82
287.21	-56.83
287.425	80.38
287.64	51.71
287.855	59.9
288.07	10.75
288.285	20.99
288.5	66.05
288.715	123.39
288.93	78.33
289.145	47.62
289.36	88.57
289.575	20.99
289.79	16.9
290.004	-9.73
290.219	135.68
290.434	-54.78
290.649	47.62
290.864	45.57
291.079	-9.73
291.294	64
291.509	66.05
291.724	-81.41
291.938	-1.54
292.153	104.96
292.368	4.61
292.583	33.28
292.798	35.33
293.012	8.7
293.227	-11.78
293.442	-28.16
293.657	125.44
293.871	135.68
294.086	4.61
294.301	78.33
294.516	78.33
294.73	43.52
294.945	51.71
295.16	29.18
295.374	33.28
295.589	104.96
295.804	98.81
296.018	23.04
296.233	37.38
296.447	41.47
296.662	76.29
296.877	139.77
297.091	35.33
297.306	2.56
297.52	35.33
297.735	51.71
297.949	55.81
298.164	125.44
298.378	127.49
298.593	8.7
298.807	88.57
299.022	10.75
299.236	119.29
299.451	45.57
299.665	55.81
299.88	-17.92
300.094	86.53
300.309	37.38
300.523	90.62
300.737	10.75
300.952	61.95
301.166	72.19
301.381	-24.06
301.595	10.75
301.809	66.05
302.024	-56.83
302.238	16.9
302.452	29.18
302.667	55.81
302.881	64
303.095	68.09
303.309	27.14
303.524	45.57
303.738	80.38
303.952	45.57
304.166	61.95
304.381	-7.68
304.595	70.14
304.809	70.14
305.023	49.66
305.237	76.29
305.452	78.33
305.666	39.42
305.88	94.72
306.094	29.18
306.308	92.67
306.522	27.14
306.736	8.7
306.95	61.95
307.164	12.8
307.379	23.04
307.593	131.58
307.807	37.38
308.021	96.77
308.235	55.81
308.449	-40.45
308.663	-1.54
308.877	121.34
309.091	57.86
309.305	-11.78
309.519	-65.02
309.733	98.81
309.947	-30.21
310.161	74.24
310.374	113.15
310.588	59.9
310.802	74.24
311.016	39.42
311.23	70.14
311.444	43.52
311.658	104.96
311.872	125.44
312.085	109.05
312.299	102.91
312.513	43.52
312.727	41.47
312.941	-60.93
313.154	47.62
313.368	55.81
313.582	59.9
313.796	39.42
314.009	57.86
314.223	47.62
314.437	53.76
314.651	20.99
314.864	76.29
315.078	20.99
315.292	61.95
315.505	10.75
315.719	45.57
315.933	-17.92
316.146	104.96
316.36	29.18
316.573	123.39
316.787	64
317.001	94.72
317.214	-56.83
317.428	100.86
317.641	45.57
317.855	68.09
318.068	70.14
318.282	70.14
318.495	100.86
318.709	43.52
318.922	113.15
319.136	78.33
319.349	104.96
319.563	10.75
319.776	35.33
319.99	-30.21
320.203	18.94
320.417	53.76
320.63	80.38
320.843	117.25
321.057	43.52
321.27	76.29
321.483	-11.78
321.697	76.29
321.91	37.38
322.124	109.05
322.337	64
322.55	53.76
322.763	59.9
322.977	29.18
323.19	94.72
323.403	43.52
323.617	104.96
323.83	92.67
324.043	-28.16
324.256	80.38
324.469	31.23
324.683	68.09
324.896	-7.68
325.109	27.14
325.322	0.51
325.535	84.48
325.748	31.23
325.962	94.72
326.175	53.76
326.388	6.66
326.601	68.09
326.814	27.14
327.027	49.66
327.24	107.01
327.453	-19.97
327.666	86.53
327.879	55.81
328.092	92.67
328.305	74.24
328.518	37.38
328.731	45.57
328.944	43.52
329.157	72.19
329.37	74.24
329.583	160.25
329.796	4.61
330.009	-38.4
330.222	109.05
330.435	121.34
330.648	45.57
330.861	45.57
331.073	16.9
331.286	29.18
331.499	-46.59
331.712	10.75
331.925	-22.02
332.138	68.09
332.35	92.67
332.563	43.52
332.776	92.67
332.989	6.66
333.202	43.52
333.414	72.19
333.627	41.47
333.84	6.66
334.053	88.57
334.265	64
334.478	41.47
334.691	88.57
334.903	68.09
335.116	57.86
335.329	43.52
335.541	109.05
335.754	104.96
335.966	47.62
336.179	23.04
336.392	59.9
336.604	20.99
336.817	107.01
337.029	35.33
337.242	141.82
337.454	139.77
337.667	51.71
337.88	150.01
338.092	53.76
338.305	29.18
338.517	-3.58
338.729	51.71
338.942	76.29
339.154	47.62
339.367	37.38
339.579	33.28
339.792	-24.06
340.004	51.71
340.217	12.8
340.429	18.94
340.641	53.76
340.854	-5.63
341.066	-32.26
341.278	76.29
341.491	82.43
341.703	78.33
341.915	-44.54
342.128	35.33
342.34	76.29
342.552	47.62
342.764	35.33
342.977	47.62
343.189	45.57
343.401	117.25
343.613	-54.78
343.826	-5.63
344.038	59.9
344.25	76.29
344.462	39.42
344.674	45.57
344.886	27.14
345.099	16.9
345.311	70.14
345.523	23.04
345.735	12.8
345.947	125.44
346.159	2.56
346.371	76.29
346.583	14.85
346.795	174.59
347.007	14.85
347.219	72.19
347.431	31.23
347.643	88.57
347.855	23.04
348.067	104.96
348.279	-52.74
348.491	18.94
348.703	53.76
348.915	23.04
349.127	6.66
349.339	84.48
349.551	20.99
349.763	82.43
349.975	29.18
350.187	143.87
350.399	14.85
350.61	33.28
350.822	59.9
351.034	72.19
351.246	68.09
351.458	43.52
351.669	47.62
351.881	55.81
352.093	131.58
352.305	125.44
352.517	59.9
352.728	37.38
352.94	139.77
353.152	53.76
353.363	20.99
353.575	74.24
353.787	84.48
353.999	94.72
354.21	135.68
354.422	-1.54
354.633	39.42
354.845	43.52
355.057	92.67
355.268	119.29
355.48	57.86
355.692	35.33
355.903	74.24
356.115	-26.11
356.326	27.14
356.538	41.47
356.749	78.33
356.961	119.29
357.172	113.15
357.384	43.52
357.595	102.91
357.807	43.52
358.018	-11.78
358.23	72.19
358.441	150.01
358.653	31.23
358.864	29.18
359.075	2.56
359.287	74.24
359.498	51.71
359.709	109.05
359.921	16.9
360.132	107.01
360.344	43.52
360.555	37.38
360.766	68.09
360.977	-5.63
361.189	92.67
361.4	29.18
361.611	64
361.823	119.29
362.034	92.67
362.245	37.38
362.456	86.53
362.667	100.86
362.879	4.61
363.09	70.14
363.301	55.81
363.512	37.38
363.723	39.42
363.935	51.71
364.146	125.44
364.357	61.95
364.568	55.81
364.779	-7.68
364.99	129.53
365.201	72.19
365.412	53.76
365.623	12.8
365.834	55.81
366.045	92.67
366.256	113.15
366.467	49.66
366.678	53.76
366.889	51.71
367.1	61.95
367.311	29.18
367.522	12.8
367.733	162.3
367.944	4.61
368.155	6.66
368.366	14.85
368.577	96.77
368.788	104.96
368.999	-38.4
369.209	2.56
369.42	127.49
369.631	137.73
369.842	64
370.053	84.48
370.264	129.53
370.474	6.66
370.685	76.29
370.896	37.38
371.107	176.64
371.317	27.14
371.528	2.56
371.739	133.63
371.95	20.99
372.16	76.29
372.371	10.75
372.582	37.38
372.792	80.38
373.003	59.9
373.214	102.91
373.424	115.2
373.635	31.23
373.846	109.05
374.056	66.05
374.267	41.47
374.477	64
374.688	-9.73
374.898	86.53
375.109	104.96
375.319	78.33
375.53	72.19
375.74	51.71
375.951	49.66
376.161	29.18
376.372	143.87
376.582	2.56
376.793	94.72
377.003	57.86
377.214	84.48
377.424	43.52
377.635	94.72
377.845	-34.3
378.055	100.86
378.266	-15.87
378.476	57.86
378.686	94.72
378.897	51.71
379.107	82.43
379.317	59.9
379.528	-3.58
379.738	74.24
379.948	-5.63
380.158	125.44
380.369	68.09
380.579	-5.63
380.789	47.62
380.999	45.57
381.21	27.14
381.42	33.28
381.63	10.75
381.84	131.58
382.05	90.62
382.261	145.92
382.471	104.96
382.681	39.42
382.891	154.11
383.101	31.23
383.311	-24.06
383.521	20.99
383.731	84.48
383.941	29.18
384.151	39.42
384.361	68.09
384.571	109.05
384.781	92.67
384.991	78.33
385.201	129.53
385.411	47.62
385.621	135.68
385.831	86.53
386.041	55.81
386.251	76.29
386.461	135.68
386.671	-44.54
386.881	59.9
387.091	0.51
387.301	10.75
387.511	18.94
387.72	61.95
387.93	127.49
388.14	0.51
388.35	68.09
388.56	180.73
388.769	68.09
388.979	109.05
389.189	131.58
389.399	61.95
389.609	84.48
389.818	145.92
390.028	31.23
390.238	47.62
390.447	90.62
390.657	72.19
390.867	61.95
391.076	31.23
391.286	92.67
391.496	59.9
391.705	49.66
391.915	47.62
392.125	49.66
392.334	59.9
392.544	92.67
392.753	45.57
392.963	6.66
393.172	74.24
393.382	27.14
393.591	176.64
393.801	18.94
394.01	78.33
394.22	133.63
394.429	6.66
394.639	92.67
394.848	141.82
395.058	78.33
395.267	78.33
395.477	10.75
395.686	31.23
395.895	102.91
396.105	176.64
396.314	51.71
396.524	8.7
396.733	41.47
396.942	102.91
397.152	111.1
397.361	168.45
397.57	147.97
397.78	92.67
397.989	68.09
398.198	152.06
398.407	27.14
398.617	90.62
398.826	39.42
399.035	64
399.244	66.05
399.453	51.71
399.663	82.43
399.872	90.62
400.081	-52.74
400.29	111.1
400.499	10.75
400.708	84.48
400.917	127.49
401.127	96.77
401.336	104.96
401.545	180.73
401.754	137.73
401.963	162.3
402.172	98.81
402.381	86.53
402.59	166.4
402.799	94.72
403.008	231.93
403.217	154.11
403.426	68.09
403.635	74.24
403.844	45.57
404.053	150.01
404.262	72.19
404.471	174.59
404.68	137.73
404.888	197.12
405.097	139.77
405.306	137.73
405.515	92.67
405.724	162.3
405.933	115.2
406.142	150.01
406.35	119.29
406.559	217.6
406.768	154.11
406.977	164.35
407.185	168.45
407.394	199.16
407.603	154.11
407.812	205.31
408.02	158.21
408.229	233.98
408.438	201.21
408.646	113.15
408.855	199.16
409.064	334.33
409.272	221.69
409.481	221.69
409.69	137.73
409.898	252.41
410.107	260.6
410.315	289.28
410.524	283.13
410.733	244.22
410.941	289.28
411.15	205.31
411.358	299.52
411.567	412.15
411.775	332.28
411.984	336.38
412.192	377.34
412.401	281.08
412.609	342.52
412.818	315.9
413.026	399.87
413.234	385.53
413.443	440.83
413.651	412.15
413.86	416.25
414.068	512.5
414.276	510.46
414.485	498.17
414.693	461.3
414.901	547.32
415.11	569.85
415.318	543.22
415.526	608.76
415.734	596.47
415.943	619
416.151	610.81
416.359	633.33
416.567	657.91
416.776	623.09
416.984	684.53
417.192	748.02
417.4	696.82
417.608	653.81
417.817	801.27
418.025	864.75
418.233	846.32
418.441	756.21
418.649	907.76
418.857	887.28
419.065	1036.78
419.273	938.48
419.481	1004.02
419.689	1051.12
419.897	1038.83
420.105	1092.08
420.313	1051.12
420.521	1163.76
420.729	1235.44
420.937	1249.77
421.145	1315.31
421.353	1317.36
421.561	1520.1
421.769	1360.36
421.977	1520.1
422.185	1565.16
422.393	1532.39
422.601	1698.28
422.809	1661.41
423.017	1683.94
423.224	1751.53
423.432	1868.26
423.64	1851.88
423.848	2071.01
424.056	1829.35
424.263	2015.71
424.471	2099.68
424.679	2173.41
424.887	2191.84
425.094	2255.33
425.302	2333.15
425.51	2296.28
425.718	2476.51
425.925	2372.06
426.133	2599.38
426.341	2714.07
426.548	2843.09
426.756	2779.61
426.964	2904.53
427.171	3033.55
427.379	3140.05
427.586	3201.49
427.794	3213.77
428.001	3420.62
428.209	3500.49
428.417	3645.9
428.624	3693
428.832	3766.73
429.039	3746.25
429.247	3766.73
429.454	4116.93
429.662	4366.78
429.869	4104.64
430.076	4362.69
430.284	4168.13
430.491	4458.94
430.699	4612.54
430.906	4700.6
431.114	4764.09
431.321	5040.56
431.528	5116.34
431.736	5329.33
431.943	5626.28
432.15	5462.44
432.358	5366.19
432.565	5818.79
432.772	5878.18
432.979	5982.63
433.187	6228.38
433.394	6222.24
433.601	6736.28
433.808	6578.59
434.016	6519.2
434.223	6926.74
434.43	7225.75
434.637	7149.97
434.844	7637.39
435.052	7666.06
435.259	7704.97
435.466	7649.68
435.673	7625.1
435.88	8204.67
436.087	8669.56
436.294	8556.93
436.501	8419.71
436.708	8573.31
436.915	8950.14
437.122	9386.35
437.329	9263.47
437.537	9838.95
437.743	9711.98
437.95	9613.68
438.157	9947.5
438.364	10512.74
438.571	10461.54
438.778	10445.15
438.985	11530.58
439.192	11090.26
439.399	11409.75
439.606	11133.27
439.813	11792.72
440.02	12792.12
440.227	12400.96
440.433	11956.55
440.64	12472.64
440.847	12347.72
441.054	12788.03
441.261	13594.93
441.467	13383.99
441.674	13699.37
441.881	14010.67
442.088	14192.94
442.294	13967.66
442.501	14375.2
442.708	14786.85
442.914	15116.57
443.121	15753.49
443.328	15511.83
443.534	16304.39
443.741	16177.42
443.948	15749.39
444.154	17266.94
444.361	17144.06
444.568	17133.82
444.774	17191.16
444.981	17500.4
445.187	17903.85
445.394	18692.32
445.6	18356.46
445.807	20199.63
446.013	19409.11
446.22	19697.88
446.426	20472.01
446.633	20342.99
446.839	21473.46
447.046	20607.17
447.252	21452.98
447.459	21657.78
447.665	21704.88
447.871	22358.19
448.078	23437.47
448.284	22464.68
448.491	22970.53
448.697	23754.9
448.903	24375.44
449.11	24416.4
449.316	23834.77
449.522	24342.67
449.728	25170.05
449.935	25337.98
450.141	25245.82
450.347	25598.07
450.553	24914.05
450.76	25184.38
450.966	26130.55
451.172	25823.35
451.378	26620.01
451.584	26073.2
451.791	26603.63
451.997	26511.47
452.203	26593.39
452.409	27088.99
452.615	26939.49
452.821	25962.61
453.027	25720.95
453.233	27222.11
453.44	25628.79
453.646	26218.61
453.852	26364.01
454.058	26695.78
454.264	26091.63
454.47	26093.68
454.676	25497.72
454.882	26591.34
455.088	24248.46
455.294	24660.1
455.5	24893.57
455.705	25385.08
455.911	24270.99
456.117	23992.47
456.323	23589.02
456.529	22208.69
456.735	23197.85
456.941	22659.24
457.147	22089.9
457.352	21600.44
457.558	21393.59
457.764	21371.07
457.97	20965.57
458.176	20539.59
458.381	20498.63
458.587	19646.68
458.793	19482.84
458.999	18401.51
459.204	19706.07
459.41	19294.43
459.616	18051.31
459.821	17993.97
460.027	17651.95
460.233	17314.04
460.438	16818.43
460.644	17078.52
460.85	16265.48
461.055	15823.12
461.261	15722.77
461.466	14559.52
461.672	14190.89
461.878	15159.58
462.083	14053.67
462.289	13664.56
462.494	13881.64
462.7	13236.53
462.905	12806.46
463.111	13293.88
463.316	13367.6
463.522	13121.85
463.727	13146.42
463.932	13103.42
464.138	12902.72
464.343	12865.85
464.549	12675.39
464.754	13058.36
464.959	12765.5
465.165	12685.63
465.37	12415.3
465.575	11798.86
465.781	12409.15
465.986	12347.72
466.191	11938.12
466.397	11702.61
466.602	11202.9
466.807	11712.85
467.012	11575.63
467.218	11520.34
467.423	11315.54
467.628	11716.94
