Data from USB4F104151__97__13-06-31-876.txt Node

Date: Fri Mar 14 13:06:31 EDT 2025
User: louis
Spectrometer: USB4F10415
Trigger mode: 4
Integration Time (sec): 4.000000E-2
Scans to average: 1
Electric dark correction enabled: true
Nonlinearity correction enabled: false
Boxcar width: 0
XAxis mode: Wavelengths
Number of Pixels in Spectrum: 3648
>>>>>Begin Spectral Data<<<<<
178.204	-183.46
178.424	-183.46
178.644	-183.46
178.864	-189.61
179.084	-150.7
179.304	-48.3
179.524	-56.49
179.744	31.57
179.964	64.34
180.184	-19.63
180.404	-33.96
180.624	45.91
180.844	23.38
181.064	4.95
181.283	4.95
181.503	-1.19
181.723	-15.53
181.943	-23.72
182.163	70.48
182.383	7
182.602	82.77
182.822	21.33
183.042	144.21
183.262	-5.29
183.482	-42.15
183.701	37.72
183.921	15.19
184.141	60.24
184.361	11.09
184.58	88.92
184.8	23.38
185.02	0.85
185.239	56.15
185.459	43.86
185.679	43.86
185.898	-9.39
186.118	125.78
186.338	95.06
186.557	39.76
186.777	-76.97
186.997	-44.2
187.216	47.96
187.436	41.81
187.655	76.63
187.875	90.96
188.095	-13.48
188.314	66.39
188.534	72.53
188.753	-19.63
188.973	43.86
189.192	95.06
189.412	99.16
189.631	52.05
189.851	50
190.07	60.24
190.29	4.95
190.509	-31.91
190.729	17.24
190.948	86.87
191.168	179.03
191.387	15.19
191.607	-1.19
191.826	-48.3
192.045	52.05
192.265	13.14
192.484	60.24
192.704	-1.19
192.923	-52.39
193.142	123.73
193.362	-19.63
193.581	29.52
193.8	29.52
194.02	76.63
194.239	99.16
194.458	23.38
194.678	-66.73
194.897	19.29
195.116	45.91
195.335	31.57
195.555	-9.39
195.774	70.48
195.993	-13.48
196.212	-40.11
196.432	-9.39
196.651	-54.44
196.87	-29.87
197.089	95.06
197.308	68.44
197.528	21.33
197.747	-29.87
197.966	19.29
198.185	154.45
198.404	39.76
198.623	70.48
198.842	-11.43
199.062	80.72
199.281	82.77
199.5	33.62
199.719	-1.19
199.938	9.05
200.157	105.3
200.376	41.81
200.595	88.92
200.814	29.52
201.033	-7.34
201.252	23.38
201.471	7
201.69	27.48
201.909	86.87
202.128	33.62
202.347	62.29
202.566	17.24
202.785	-1.19
203.004	-23.72
203.223	111.44
203.442	-31.91
203.661	-3.24
203.879	-31.91
204.098	15.19
204.317	-9.39
204.536	84.82
204.755	-25.77
204.974	56.15
205.193	56.15
205.411	133.97
205.63	11.09
205.849	39.76
206.068	45.91
206.287	-3.24
206.505	39.76
206.724	-9.39
206.943	43.86
207.162	70.48
207.381	15.19
207.599	29.52
207.818	37.72
208.037	-1.19
208.255	21.33
208.474	-13.48
208.693	107.35
208.911	-36.01
209.13	56.15
209.349	99.16
209.567	54.1
209.786	4.95
210.005	39.76
210.223	29.52
210.442	-62.63
210.661	97.11
210.879	-11.43
211.098	11.09
211.316	31.57
211.535	45.91
211.753	13.14
211.972	-15.53
212.191	0.85
212.409	31.57
212.628	21.33
212.846	-11.43
213.065	7
213.283	144.21
213.502	23.38
213.72	-40.11
213.938	66.39
214.157	41.81
214.375	115.54
214.594	119.64
214.812	88.92
215.031	-48.3
215.249	25.43
215.467	39.76
215.686	62.29
215.904	52.05
216.122	64.34
216.341	64.34
216.559	47.96
216.778	90.96
216.996	109.4
217.214	19.29
217.432	39.76
217.651	-11.43
217.869	82.77
218.087	66.39
218.306	70.48
218.524	15.19
218.742	58.2
218.96	154.45
219.179	-1.19
219.397	45.91
219.615	176.98
219.833	15.19
220.051	-31.91
220.27	39.76
220.488	60.24
220.706	-1.19
220.924	62.29
221.142	86.87
221.36	7
221.578	37.72
221.796	29.52
222.015	76.63
222.233	31.57
222.451	56.15
222.669	-1.19
222.887	103.25
223.105	-38.06
223.323	45.91
223.541	-7.34
223.759	41.81
223.977	-36.01
224.195	86.87
224.413	86.87
224.631	17.24
224.849	70.48
225.067	64.34
225.285	27.48
225.503	29.52
225.721	-109.74
225.939	15.19
226.157	35.67
226.375	262.99
226.592	11.09
226.81	47.96
227.028	93.01
227.246	146.26
227.464	47.96
227.682	-31.91
227.9	-7.34
228.117	93.01
228.335	68.44
228.553	21.33
228.771	0.85
228.989	15.19
229.206	82.77
229.424	-3.24
229.642	-19.63
229.86	-23.72
230.077	97.11
230.295	-54.44
230.513	45.91
230.731	99.16
230.948	95.06
231.166	64.34
231.384	21.33
231.601	41.81
231.819	25.43
232.037	-21.67
232.254	-17.58
232.472	-23.72
232.689	15.19
232.907	19.29
233.125	-5.29
233.342	95.06
233.56	-7.34
233.777	70.48
233.995	125.78
234.213	78.68
234.43	90.96
234.648	-23.72
234.865	-7.34
235.083	74.58
235.3	-15.53
235.518	66.39
235.735	95.06
235.953	168.79
236.17	11.09
236.388	13.14
236.605	-81.07
236.822	60.24
237.04	58.2
237.257	54.1
237.475	-23.72
237.692	93.01
237.909	-29.87
238.127	66.39
238.344	25.43
238.562	117.59
238.779	-33.96
238.996	-29.87
239.214	9.05
239.431	72.53
239.648	-52.39
239.865	62.29
240.083	70.48
240.3	-31.91
240.517	-44.2
240.735	-29.87
240.952	113.49
241.169	88.92
241.386	109.4
241.603	7
241.821	-31.91
242.038	76.63
242.255	78.68
242.472	7
242.689	84.82
242.907	56.15
243.124	-56.49
243.341	-42.15
243.558	17.24
243.775	47.96
243.992	-27.82
244.209	54.1
244.426	86.87
244.643	72.53
244.86	35.67
245.078	74.58
245.295	21.33
245.512	-21.67
245.729	62.29
245.946	-31.91
246.163	35.67
246.38	35.67
246.597	78.68
246.814	39.76
247.031	88.92
247.248	-5.29
247.464	70.48
247.681	-42.15
247.898	105.3
248.115	117.59
248.332	4.95
248.549	47.96
248.766	111.44
248.983	103.25
249.2	95.06
249.417	144.21
249.633	56.15
249.85	35.67
250.067	7
250.284	37.72
250.501	37.72
250.717	78.68
250.934	-70.83
251.151	19.29
251.368	-33.96
251.585	58.2
251.801	-9.39
252.018	11.09
252.235	95.06
252.451	7
252.668	-36.01
252.885	58.2
253.102	15.19
253.318	0.85
253.535	-70.83
253.752	-44.2
253.968	-9.39
254.185	-70.83
254.401	-50.35
254.618	-9.39
254.835	45.91
255.051	131.92
255.268	66.39
255.484	58.2
255.701	2.9
255.917	82.77
256.134	56.15
256.351	-25.77
256.567	23.38
256.784	37.72
257	15.19
257.217	41.81
257.433	82.77
257.65	50
257.866	74.58
258.082	0.85
258.299	-9.39
258.515	29.52
258.732	17.24
258.948	47.96
259.165	131.92
259.381	29.52
259.597	39.76
259.814	-29.87
260.03	-25.77
260.246	35.67
260.463	88.92
260.679	93.01
260.895	113.49
261.112	82.77
261.328	58.2
261.544	15.19
261.761	119.64
261.977	29.52
262.193	68.44
262.409	23.38
262.626	80.72
262.842	2.9
263.058	-52.39
263.274	95.06
263.49	-9.39
263.707	62.29
263.923	121.68
264.139	-5.29
264.355	11.09
264.571	121.68
264.787	68.44
265.004	39.76
265.22	9.05
265.436	64.34
265.652	72.53
265.868	-15.53
266.084	47.96
266.3	78.68
266.516	-31.91
266.732	74.58
266.948	-33.96
267.164	58.2
267.38	7
267.596	7
267.812	43.86
268.028	95.06
268.244	60.24
268.46	115.54
268.676	-11.43
268.892	70.48
269.108	-19.63
269.324	25.43
269.54	11.09
269.756	103.25
269.972	7
270.188	99.16
270.403	66.39
270.619	-31.91
270.835	50
271.051	125.78
271.267	-3.24
271.483	-17.58
271.698	70.48
271.914	35.67
272.13	37.72
272.346	-19.63
272.562	23.38
272.777	93.01
272.993	29.52
273.209	11.09
273.425	58.2
273.64	37.72
273.856	31.57
274.072	4.95
274.287	-27.82
274.503	115.54
274.719	-25.77
274.934	0.85
275.15	-7.34
275.366	-31.91
275.581	84.82
275.797	7
276.012	60.24
276.228	70.48
276.444	-36.01
276.659	56.15
276.875	-15.53
277.09	-7.34
277.306	-1.19
277.521	56.15
277.737	41.81
277.952	86.87
278.168	33.62
278.383	80.72
278.599	37.72
278.814	103.25
279.03	-11.43
279.245	27.48
279.461	-15.53
279.676	90.96
279.892	-38.06
280.107	-25.77
280.322	21.33
280.538	23.38
280.753	37.72
280.969	45.91
281.184	172.88
281.399	136.02
281.615	37.72
281.83	80.72
282.045	0.85
282.26	-3.24
282.476	29.52
282.691	13.14
282.906	95.06
283.122	21.33
283.337	-1.19
283.552	70.48
283.767	4.95
283.983	97.11
284.198	-13.48
284.413	52.05
284.628	-7.34
284.843	72.53
285.058	45.91
285.274	-1.19
285.489	-36.01
285.704	33.62
285.919	-1.19
286.134	2.9
286.349	-19.63
286.564	11.09
286.779	111.44
286.995	41.81
287.21	-11.43
287.425	45.91
287.64	-27.82
287.855	78.68
288.07	50
288.285	131.92
288.5	154.45
288.715	29.52
288.93	-42.15
289.145	-3.24
289.36	39.76
289.575	9.05
289.79	88.92
290.004	0.85
290.219	86.87
290.434	68.44
290.649	43.86
290.864	21.33
291.079	78.68
291.294	95.06
291.509	54.1
291.724	31.57
291.938	47.96
292.153	21.33
292.368	31.57
292.583	70.48
292.798	-3.24
293.012	60.24
293.227	7
293.442	9.05
293.657	90.96
293.871	156.5
294.086	72.53
294.301	60.24
294.516	105.3
294.73	66.39
294.945	2.9
295.16	66.39
295.374	58.2
295.589	2.9
295.804	7
296.018	58.2
296.233	54.1
296.447	60.24
296.662	-72.87
296.877	103.25
297.091	64.34
297.306	45.91
297.52	-40.11
297.735	45.91
297.949	50
298.164	70.48
298.378	35.67
298.593	-44.2
298.807	23.38
299.022	95.06
299.236	97.11
299.451	52.05
299.665	-15.53
299.88	19.29
300.094	74.58
300.309	13.14
300.523	27.48
300.737	45.91
300.952	-5.29
301.166	13.14
301.381	-1.19
301.595	39.76
301.809	66.39
302.024	-5.29
302.238	56.15
302.452	105.3
302.667	68.44
302.881	144.21
303.095	17.24
303.309	29.52
303.524	50
303.738	45.91
303.952	9.05
304.166	136.02
304.381	-68.78
304.595	60.24
304.809	-68.78
305.023	13.14
305.237	23.38
305.452	-97.45
305.666	62.29
305.88	133.97
306.094	23.38
306.308	107.35
306.522	64.34
306.736	37.72
306.95	25.43
307.164	86.87
307.379	39.76
307.593	52.05
307.807	21.33
308.021	103.25
308.235	97.11
308.449	29.52
308.663	7
308.877	117.59
309.091	29.52
309.305	64.34
309.519	-64.68
309.733	64.34
309.947	-33.96
310.161	95.06
310.374	72.53
310.588	99.16
310.802	31.57
311.016	45.91
311.23	4.95
311.444	62.29
311.658	31.57
311.872	82.77
312.085	60.24
312.299	86.87
312.513	86.87
312.727	-3.24
312.941	37.72
313.154	39.76
313.368	56.15
313.582	76.63
313.796	43.86
314.009	37.72
314.223	66.39
314.437	111.44
314.651	17.24
314.864	78.68
315.078	23.38
315.292	54.1
315.505	17.24
315.719	62.29
315.933	-11.43
316.146	50
316.36	-11.43
316.573	70.48
316.787	31.57
317.001	93.01
317.214	88.92
317.428	29.52
317.641	45.91
317.855	76.63
318.068	29.52
318.282	37.72
318.495	45.91
318.709	76.63
318.922	15.19
319.136	39.76
319.349	41.81
319.563	60.24
319.776	41.81
319.99	-13.48
320.203	56.15
320.417	33.62
320.63	39.76
320.843	140.12
321.057	52.05
321.27	29.52
321.483	52.05
321.697	93.01
321.91	64.34
322.124	144.21
322.337	78.68
322.55	37.72
322.763	56.15
322.977	15.19
323.19	33.62
323.403	-21.67
323.617	56.15
323.83	-7.34
324.043	56.15
324.256	39.76
324.469	17.24
324.683	121.68
324.896	31.57
325.109	25.43
325.322	-68.78
325.535	23.38
325.748	70.48
325.962	4.95
326.175	7
326.388	54.1
326.601	125.78
326.814	95.06
327.027	-1.19
327.24	52.05
327.453	-46.25
327.666	72.53
327.879	23.38
328.092	86.87
328.305	7
328.518	-54.44
328.731	54.1
328.944	-13.48
329.157	56.15
329.37	76.63
329.583	35.67
329.796	176.98
330.009	39.76
330.222	70.48
330.435	70.48
330.648	37.72
330.861	50
331.073	-52.39
331.286	93.01
331.499	58.2
331.712	4.95
331.925	17.24
332.138	17.24
332.35	35.67
332.563	-13.48
332.776	105.3
332.989	74.58
333.202	0.85
333.414	21.33
333.627	78.68
333.84	66.39
334.053	19.29
334.265	-58.54
334.478	88.92
334.691	29.52
334.903	54.1
335.116	15.19
335.329	-11.43
335.541	78.68
335.754	113.49
335.966	33.62
336.179	11.09
336.392	93.01
336.604	23.38
336.817	27.48
337.029	60.24
337.242	50
337.454	64.34
337.667	-36.01
337.88	142.16
338.092	66.39
338.305	119.64
338.517	74.58
338.729	66.39
338.942	113.49
339.154	56.15
339.367	37.72
339.579	50
339.792	29.52
340.004	54.1
340.217	93.01
340.429	111.44
340.641	-23.72
340.854	-38.06
341.066	-13.48
341.278	99.16
341.491	113.49
341.703	54.1
341.915	-3.24
342.128	78.68
342.34	9.05
342.552	7
342.764	2.9
342.977	43.86
343.189	-19.63
343.401	64.34
343.613	-19.63
343.826	4.95
344.038	78.68
344.25	86.87
344.462	23.38
344.674	4.95
344.886	50
345.099	39.76
345.311	0.85
345.523	21.33
345.735	-15.53
345.947	95.06
346.159	86.87
346.371	62.29
346.583	54.1
346.795	82.77
347.007	11.09
347.219	17.24
347.431	39.76
347.643	11.09
347.855	-11.43
348.067	47.96
348.279	52.05
348.491	25.43
348.703	82.77
348.915	103.25
349.127	-56.49
349.339	29.52
349.551	86.87
349.763	90.96
349.975	35.67
350.187	172.88
350.399	138.07
350.61	74.58
350.822	35.67
351.034	105.3
351.246	117.59
351.458	121.68
351.669	54.1
351.881	97.11
352.093	90.96
352.305	90.96
352.517	62.29
352.728	47.96
352.94	140.12
353.152	25.43
353.363	41.81
353.575	31.57
353.787	123.73
353.999	125.78
354.21	50
354.422	-40.11
354.633	15.19
354.845	27.48
355.057	62.29
355.268	33.62
355.48	80.72
355.692	29.52
355.903	78.68
356.115	45.91
356.326	4.95
356.538	56.15
356.749	39.76
356.961	56.15
357.172	70.48
357.384	62.29
357.595	154.45
357.807	150.36
358.018	31.57
358.23	56.15
358.441	39.76
358.653	58.2
358.864	52.05
359.075	80.72
359.287	23.38
359.498	156.5
359.709	41.81
359.921	-27.82
360.132	64.34
360.344	4.95
360.555	64.34
360.766	31.57
360.977	11.09
361.189	101.2
361.4	78.68
361.611	103.25
361.823	50
362.034	103.25
362.245	37.72
362.456	80.72
362.667	68.44
362.879	0.85
363.09	88.92
363.301	107.35
363.512	72.53
363.723	39.76
363.935	43.86
364.146	90.96
364.357	9.05
364.568	88.92
364.779	54.1
364.99	103.25
365.201	15.19
365.412	176.98
365.623	-13.48
365.834	121.68
366.045	37.72
366.256	76.63
366.467	70.48
366.678	29.52
366.889	90.96
367.1	17.24
367.311	70.48
367.522	21.33
367.733	129.88
367.944	72.53
368.155	97.11
368.366	95.06
368.577	138.07
368.788	68.44
368.999	27.48
369.209	35.67
369.42	179.03
369.631	162.64
369.842	72.53
370.053	56.15
370.264	181.07
370.474	41.81
370.685	41.81
370.896	60.24
371.107	127.83
371.317	54.1
371.528	45.91
371.739	80.72
371.95	56.15
372.16	50
372.371	11.09
372.582	88.92
372.792	119.64
373.003	-11.43
373.214	54.1
373.424	29.52
373.635	-7.34
373.846	50
374.056	33.62
374.267	105.3
374.477	60.24
374.688	45.91
374.898	90.96
375.109	90.96
375.319	25.43
375.53	19.29
375.74	148.31
375.951	74.58
376.161	13.14
376.372	170.83
376.582	9.05
376.793	86.87
377.003	9.05
377.214	17.24
377.424	97.11
377.635	115.54
377.845	43.86
378.055	86.87
378.266	62.29
378.476	-11.43
378.686	58.2
378.897	45.91
379.107	99.16
379.317	23.38
379.528	37.72
379.738	123.73
379.948	47.96
380.158	140.12
380.369	70.48
380.579	140.12
380.789	11.09
380.999	115.54
381.21	125.78
381.42	189.27
381.63	29.52
381.84	82.77
382.05	19.29
382.261	127.83
382.471	72.53
382.681	15.19
382.891	56.15
383.101	138.07
383.311	-17.58
383.521	90.96
383.731	181.07
383.941	72.53
384.151	80.72
384.361	103.25
384.571	113.49
384.781	117.59
384.991	123.73
385.201	160.59
385.411	142.16
385.621	136.02
385.831	9.05
386.041	41.81
386.251	50
386.461	86.87
386.671	78.68
386.881	127.83
387.091	95.06
387.301	117.59
387.511	50
387.72	47.96
387.93	203.6
388.14	29.52
388.35	86.87
388.56	127.83
388.769	84.82
388.979	150.36
389.189	23.38
389.399	88.92
389.609	84.82
389.818	101.2
390.028	127.83
390.238	39.76
390.447	33.62
390.657	99.16
390.867	111.44
391.076	23.38
391.286	88.92
391.496	88.92
391.705	82.77
391.915	189.27
392.125	80.72
392.334	52.05
392.544	88.92
392.753	60.24
392.963	111.44
393.172	45.91
393.382	23.38
393.591	172.88
393.801	82.77
394.01	133.97
394.22	111.44
394.429	56.15
394.639	95.06
394.848	103.25
395.058	82.77
395.267	56.15
395.477	170.83
395.686	129.88
395.895	131.92
396.105	162.64
396.314	86.87
396.524	21.33
396.733	11.09
396.942	156.5
397.152	84.82
397.361	215.89
397.57	127.83
397.78	88.92
397.989	146.26
398.198	129.88
398.407	115.54
398.617	105.3
398.826	136.02
399.035	123.73
399.244	158.55
399.453	162.64
399.663	107.35
399.872	136.02
400.081	129.88
400.29	211.79
400.499	29.52
400.708	164.69
400.917	117.59
401.127	123.73
401.336	144.21
401.545	222.03
401.754	209.75
401.963	97.11
402.172	107.35
402.381	119.64
402.59	70.48
402.799	127.83
403.008	232.27
403.217	179.03
403.426	170.83
403.635	131.92
403.844	160.59
404.053	217.94
404.262	119.64
404.471	228.18
404.68	209.75
404.888	203.6
405.097	226.13
405.306	269.14
405.515	244.56
405.724	166.74
405.933	258.9
406.142	269.14
406.35	338.77
406.559	267.09
406.768	265.04
406.977	299.86
407.185	269.14
407.394	332.62
407.603	191.31
407.812	250.71
408.02	389.97
408.229	275.28
408.438	369.49
408.646	273.23
408.855	336.72
409.064	308.05
409.272	383.82
409.481	373.58
409.69	400.21
409.898	303.95
410.107	359.25
410.315	447.31
410.524	381.78
410.733	375.63
410.941	447.31
411.15	463.69
411.358	488.27
411.567	492.37
411.775	572.24
411.984	498.51
412.192	551.76
412.401	510.8
412.609	639.82
412.818	635.72
413.026	549.71
413.234	588.62
413.443	611.15
413.651	731.98
413.86	717.64
414.068	799.56
414.276	826.18
414.485	770.89
414.693	916.3
414.901	906.06
415.11	942.92
415.318	877.38
415.526	930.63
415.734	1000.26
415.943	1207.11
416.151	1055.56
416.359	994.12
416.567	1086.28
416.776	1086.28
416.984	1325.89
417.192	1268.55
417.4	1264.45
417.608	1319.75
417.817	1291.07
418.025	1491.77
418.233	1506.11
418.441	1485.63
418.649	1510.21
418.857	1614.65
419.065	1655.61
419.273	1635.13
419.481	1811.26
419.689	1917.75
419.897	1983.29
420.105	1844.03
420.313	2093.88
420.521	2134.84
420.729	2167.6
420.937	2290.48
421.145	2368.31
421.353	2476.85
421.561	2544.43
421.769	2634.54
421.977	2706.22
422.185	2554.67
422.393	2718.51
422.601	2982.7
422.809	2935.59
423.017	3044.13
423.224	2997.03
423.432	3302.18
423.64	3210.02
423.848	3545.89
424.056	3423.01
424.263	3834.65
424.471	3861.27
424.679	3822.36
424.887	3982.1
425.094	4047.64
425.302	4289.3
425.51	4360.98
425.718	4569.87
425.925	4485.9
426.133	4782.86
426.341	4985.61
426.548	5092.1
426.756	5264.13
426.964	5249.8
427.171	5511.94
427.379	5821.18
427.586	5761.79
427.794	6042.36
428.001	6275.83
428.209	6556.4
428.417	6286.07
428.624	6808.3
428.832	6910.7
429.039	6970.09
429.247	6900.46
429.454	7471.84
429.662	7887.58
429.869	7355.11
430.076	8143.58
430.284	7967.45
430.491	8182.49
430.699	8651.47
430.906	8334.04
431.114	8876.75
431.321	9026.25
431.528	9233.1
431.736	9937.6
431.943	10218.17
432.15	10013.37
432.358	10236.6
432.565	10437.3
432.772	10590.9
432.979	11000.49
433.187	11356.84
433.394	11354.79
433.601	12067.49
433.808	12300.95
434.016	11909.79
434.223	12628.63
434.43	13462.15
434.637	12933.78
434.844	14054.01
435.052	14244.48
435.259	13931.14
435.466	14250.62
435.673	14228.09
435.88	14824.05
436.087	15780.45
436.294	15651.43
436.501	15510.12
436.708	15733.35
436.915	16335.45
437.122	17171.02
437.329	16869.97
437.537	17785.41
437.743	17807.94
437.95	17764.93
438.157	18639.42
438.364	19128.88
438.571	19198.51
438.778	19518
438.985	21318.16
439.192	20472.35
439.399	21006.87
439.606	20576.8
439.813	21467.66
440.02	23261.68
440.227	22217.22
440.433	22505.98
440.64	22974.97
440.847	23106.04
441.054	23724.52
441.261	25190.87
441.467	24963.54
441.674	25387.47
441.881	26169.8
442.088	25944.52
442.294	26063.3
442.501	26780.09
442.708	27279.8
442.914	28256.68
443.121	29505.94
443.328	28594.59
443.534	30482.82
443.741	30015.88
443.948	29241.75
444.154	31541.62
444.361	31316.34
444.568	31672.69
444.774	31515
444.981	31920.49
445.187	33112.41
445.394	34015.57
445.6	34230.6
445.807	37034.27
446.013	35113.28
446.22	35995.95
446.426	37566.74
446.633	37740.82
446.839	38881.54
447.046	37624.09
447.252	39506.17
447.459	39655.67
447.665	39301.37
447.871	41179.36
448.078	43161.79
448.284	41335.01
448.491	41844.95
448.697	43870.39
448.903	44257.46
449.11	44320.95
449.316	44249.27
449.522	44742.83
449.728	45979.8
449.935	46151.83
450.141	46149.78
450.347	47122.57
450.553	45938.84
450.76	46764.17
450.966	47906.94
451.172	47491.2
451.378	48564.34
451.584	47478.91
451.791	48986.22
451.997	49047.66
452.203	49670.24
452.409	49635.42
452.615	49580.13
452.821	47329.41
453.027	47081.61
453.233	49692.77
453.44	47745.15
453.646	48310.39
453.852	48326.77
454.058	49354.85
454.264	48031.86
454.47	49111.14
454.676	47431.81
454.882	48859.24
455.088	45549.73
455.294	46031
455.5	46553.23
455.705	47020.17
455.911	45258.91
456.117	44243.12
456.323	43514.05
456.529	41672.92
456.735	43204.8
456.941	42330.32
457.147	41607.39
457.352	40739.05
457.558	40005.87
457.764	40247.54
457.97	39291.13
458.176	38691.08
458.381	38547.72
458.587	36516.14
458.793	36473.13
458.999	34486.6
459.204	37304.6
459.41	36313.39
459.616	33460.57
459.821	34036.05
460.027	33505.62
460.233	32956.77
460.438	31207.8
460.644	31781.23
460.85	30112.14
461.055	29741.46
461.261	29594
461.466	27795.89
461.672	26685.89
461.878	28658.08
462.083	26882.49
462.289	26206.66
462.494	26005.96
462.7	24797.66
462.905	24410.59
463.111	24996.31
463.316	25178.58
463.522	24179.17
463.727	24467.94
463.932	24670.68
464.138	24250.85
464.343	24304.1
464.549	23556.59
464.754	24289.76
464.959	23968.23
465.165	23927.27
465.37	23116.28
465.575	22512.13
465.781	23089.65
465.986	23495.15
466.191	22649.34
466.397	22360.58
466.602	21090.84
466.807	21613.07
467.012	22084.1
