Data from USB4F104151__7__13-04-11-612.txt Node

Date: Fri Mar 14 13:04:11 EDT 2025
User: louis
Spectrometer: USB4F10415
Trigger mode: 4
Integration Time (sec): 4.000000E-2
Scans to average: 1
Electric dark correction enabled: true
Nonlinearity correction enabled: false
Boxcar width: 0
XAxis mode: Wavelengths
Number of Pixels in Spectrum: 3648
>>>>>Begin Spectral Data<<<<<
178.204	-153.26
178.424	-153.26
178.644	-153.26
178.864	-181.93
179.084	-200.36
179.304	-100.01
179.524	-3.75
179.744	2.39
179.964	53.59
180.184	29.01
180.404	57.68
180.624	4.44
180.844	43.35
181.064	-1.71
181.283	-42.67
181.503	-77.48
181.723	35.16
181.943	-59.05
182.163	72.02
182.383	-30.38
182.602	137.56
182.822	0.34
183.042	49.49
183.262	24.92
183.482	65.88
183.701	-40.62
183.921	26.96
184.141	31.06
184.361	88.4
184.58	43.35
184.8	16.73
185.02	-28.33
185.239	57.68
185.459	-16.04
185.679	65.88
185.898	-91.82
186.118	108.88
186.338	90.45
186.557	61.78
186.777	-34.47
186.997	57.68
187.216	24.92
187.436	-42.67
187.655	-7.85
187.875	26.96
188.095	-44.71
188.314	110.93
188.534	194.9
188.753	51.54
188.973	53.59
189.192	104.79
189.412	41.3
189.631	53.59
189.851	55.64
190.07	72.02
190.29	22.87
190.509	0.34
190.729	26.96
190.948	-11.95
191.168	217.43
191.387	57.68
191.607	24.92
191.826	14.68
192.045	39.25
192.265	22.87
192.484	51.54
192.704	8.53
192.923	-34.47
193.142	131.41
193.362	14.68
193.581	43.35
193.8	45.4
194.02	47.44
194.239	49.49
194.458	69.97
194.678	39.25
194.897	8.53
195.116	-48.81
195.335	74.07
195.555	53.59
195.774	84.31
195.993	-5.8
196.212	-1.71
196.432	-30.38
196.651	10.58
196.87	29.01
197.089	57.68
197.308	133.46
197.528	65.88
197.747	-7.85
197.966	119.12
198.185	88.4
198.404	47.44
198.623	31.06
198.842	90.45
199.062	129.36
199.281	61.78
199.5	78.16
199.719	22.87
199.938	43.35
200.157	41.3
200.376	80.21
200.595	57.68
200.814	35.16
201.033	63.83
201.252	76.12
201.471	55.64
201.69	45.4
201.909	90.45
202.128	-5.8
202.347	-16.04
202.566	53.59
202.785	6.49
203.004	-9.9
203.223	160.08
203.442	82.26
203.661	69.97
203.879	137.56
204.098	47.44
204.317	-11.95
204.536	78.16
204.755	35.16
204.974	65.88
205.193	51.54
205.411	123.22
205.63	106.84
205.849	20.82
206.068	39.25
206.287	4.44
206.505	47.44
206.724	76.12
206.943	6.49
207.162	-7.85
207.381	41.3
207.599	-1.71
207.818	119.12
208.037	-18.09
208.255	8.53
208.474	51.54
208.693	22.87
208.911	22.87
209.13	72.02
209.349	72.02
209.567	78.16
209.786	74.07
210.005	41.3
210.223	49.49
210.442	45.4
210.661	57.68
210.879	31.06
211.098	39.25
211.316	65.88
211.535	92.5
211.753	47.44
211.972	57.68
212.191	63.83
212.409	49.49
212.628	69.97
212.846	4.44
213.065	14.68
213.283	69.97
213.502	-11.95
213.72	33.11
213.938	6.49
214.157	35.16
214.375	6.49
214.594	-18.09
214.812	96.6
215.031	65.88
215.249	-57
215.467	22.87
215.686	-22.19
215.904	104.79
216.122	35.16
216.341	55.64
216.559	74.07
216.778	67.92
216.996	6.49
217.214	10.58
217.432	14.68
217.651	-5.8
217.869	-73.39
218.087	-1.71
218.306	-7.85
218.524	2.39
218.742	-1.71
218.96	57.68
219.179	-1.71
219.397	8.53
219.615	129.36
219.833	80.21
220.051	59.73
220.27	119.12
220.488	92.5
220.706	8.53
220.924	26.96
221.142	67.92
221.36	12.63
221.578	59.73
221.796	121.17
222.015	-3.75
222.233	6.49
222.451	92.5
222.669	29.01
222.887	94.55
223.105	-38.57
223.323	82.26
223.541	10.58
223.759	129.36
223.977	22.87
224.195	160.08
224.413	94.55
224.631	74.07
224.849	33.11
225.067	65.88
225.285	-22.19
225.503	33.11
225.721	14.68
225.939	74.07
226.157	29.01
226.375	209.23
226.592	8.53
226.81	-34.47
227.028	108.88
227.246	135.51
227.464	43.35
227.682	51.54
227.9	45.4
228.117	29.01
228.335	-9.9
228.553	31.06
228.771	6.49
228.989	37.2
229.206	14.68
229.424	43.35
229.642	12.63
229.86	-24.23
230.077	-3.75
230.295	55.64
230.513	141.65
230.731	86.36
230.948	100.69
231.166	53.59
231.384	20.82
231.601	4.44
231.819	65.88
232.037	106.84
232.254	84.31
232.472	49.49
232.689	37.2
232.907	76.12
233.125	10.58
233.342	33.11
233.56	39.25
233.777	-32.43
233.995	22.87
234.213	41.3
234.43	92.5
234.648	57.68
234.865	-9.9
235.083	82.26
235.3	-22.19
235.518	49.49
235.735	100.69
235.953	57.68
236.17	-22.19
236.388	-20.14
236.605	22.87
236.822	112.98
237.04	69.97
237.257	2.39
237.475	-5.8
237.692	6.49
237.909	35.16
238.127	-3.75
238.344	63.83
238.562	63.83
238.779	-22.19
238.996	72.02
239.214	59.73
239.431	115.03
239.648	14.68
239.865	96.6
240.083	39.25
240.3	47.44
240.517	22.87
240.735	-5.8
240.952	26.96
241.169	33.11
241.386	78.16
241.603	-18.09
241.821	74.07
242.038	39.25
242.255	37.2
242.472	51.54
242.689	115.03
242.907	24.92
243.124	4.44
243.341	-32.43
243.558	-26.28
243.775	20.82
243.992	-50.86
244.209	67.92
244.426	90.45
244.643	57.68
244.86	-9.9
245.078	80.21
245.295	63.83
245.512	74.07
245.729	59.73
245.946	47.44
246.163	14.68
246.38	65.88
246.597	63.83
246.814	31.06
247.031	80.21
247.248	59.73
247.464	12.63
247.681	94.55
247.898	31.06
248.115	67.92
248.332	2.39
248.549	63.83
248.766	92.5
248.983	20.82
249.2	-42.67
249.417	72.02
249.633	-20.14
249.85	51.54
250.067	31.06
250.284	53.59
250.501	20.82
250.717	106.84
250.934	-89.77
251.151	41.3
251.368	14.68
251.585	-20.14
251.801	29.01
252.018	-34.47
252.235	76.12
252.451	65.88
252.668	92.5
252.885	31.06
253.102	39.25
253.318	-22.19
253.535	51.54
253.752	106.84
253.968	-34.47
254.185	-1.71
254.401	63.83
254.618	67.92
254.835	16.73
255.051	45.4
255.268	-3.75
255.484	55.64
255.701	-7.85
255.917	78.16
256.134	6.49
256.351	37.2
256.567	-28.33
256.784	35.16
257	-34.47
257.217	65.88
257.433	31.06
257.65	16.73
257.866	37.2
258.082	-7.85
258.299	14.68
258.515	59.73
258.732	74.07
258.948	8.53
259.165	61.78
259.381	-40.62
259.597	96.6
259.814	-50.86
260.03	137.56
260.246	51.54
260.463	82.26
260.679	100.69
260.895	39.25
261.112	12.63
261.328	20.82
261.544	-30.38
261.761	82.26
261.977	-46.76
262.193	10.58
262.409	51.54
262.626	61.78
262.842	117.08
263.058	-9.9
263.274	57.68
263.49	31.06
263.707	31.06
263.923	67.92
264.139	-32.43
264.355	47.44
264.571	41.3
264.787	31.06
265.004	119.12
265.22	-3.75
265.436	31.06
265.652	35.16
265.868	67.92
266.084	8.53
266.3	76.12
266.516	-9.9
266.732	55.64
266.948	24.92
267.164	22.87
267.38	33.11
267.596	80.21
267.812	57.68
268.028	31.06
268.244	-18.09
268.46	63.83
268.676	98.64
268.892	-7.85
269.108	18.77
269.324	33.11
269.54	16.73
269.756	86.36
269.972	-40.62
270.188	-18.09
270.403	-22.19
270.619	22.87
270.835	72.02
271.051	2.39
271.267	92.5
271.483	26.96
271.698	-11.95
271.914	-18.09
272.13	59.73
272.346	31.06
272.562	8.53
272.777	86.36
272.993	57.68
273.209	-9.9
273.425	92.5
273.64	-57
273.856	43.35
274.072	2.39
274.287	10.58
274.503	67.92
274.719	53.59
274.934	4.44
275.15	-3.75
275.366	39.25
275.581	24.92
275.797	14.68
276.012	14.68
276.228	61.78
276.444	-22.19
276.659	31.06
276.875	-7.85
277.09	6.49
277.306	-50.86
277.521	22.87
277.737	67.92
277.952	55.64
278.168	35.16
278.383	47.44
278.599	24.92
278.814	12.63
279.03	35.16
279.245	47.44
279.461	24.92
279.676	139.6
279.892	22.87
280.107	41.3
280.322	-26.28
280.538	-9.9
280.753	10.58
280.969	96.6
281.184	-3.75
281.399	45.4
281.615	14.68
281.83	31.06
282.045	26.96
282.26	-34.47
282.476	39.25
282.691	24.92
282.906	-11.95
283.122	29.01
283.337	31.06
283.552	57.68
283.767	-3.75
283.983	43.35
284.198	29.01
284.413	67.92
284.628	18.77
284.843	47.44
285.058	14.68
285.274	12.63
285.489	-44.71
285.704	100.69
285.919	0.34
286.134	51.54
286.349	119.12
286.564	18.77
286.779	43.35
286.995	43.35
287.21	-1.71
287.425	76.12
287.64	31.06
287.855	0.34
288.07	4.44
288.285	-18.09
288.5	172.37
288.715	72.02
288.93	22.87
289.145	-48.81
289.36	45.4
289.575	84.31
289.79	49.49
290.004	-7.85
290.219	-5.8
290.434	88.4
290.649	0.34
290.864	12.63
291.079	-3.75
291.294	69.97
291.509	82.26
291.724	76.12
291.938	92.5
292.153	55.64
292.368	26.96
292.583	41.3
292.798	88.4
293.012	78.16
293.227	96.6
293.442	53.59
293.657	80.21
293.871	57.68
294.086	80.21
294.301	162.13
294.516	147.8
294.73	-46.76
294.945	-7.85
295.16	18.77
295.374	143.7
295.589	115.03
295.804	24.92
296.018	-57
296.233	4.44
296.447	57.68
296.662	4.44
296.877	74.07
297.091	112.98
297.306	10.58
297.52	20.82
297.735	98.64
297.949	31.06
298.164	129.36
298.378	35.16
298.593	-34.47
298.807	6.49
299.022	39.25
299.236	106.84
299.451	63.83
299.665	-1.71
299.88	47.44
300.094	67.92
300.309	20.82
300.523	18.77
300.737	39.25
300.952	57.68
301.166	80.21
301.381	18.77
301.595	8.53
301.809	8.53
302.024	65.88
302.238	-3.75
302.452	125.27
302.667	82.26
302.881	153.94
303.095	106.84
303.309	-30.38
303.524	2.39
303.738	55.64
303.952	55.64
304.166	65.88
304.381	-11.95
304.595	104.79
304.809	43.35
305.023	108.88
305.237	-18.09
305.452	47.44
305.666	22.87
305.88	108.88
306.094	18.77
306.308	39.25
306.522	80.21
306.736	63.83
306.95	-18.09
307.164	-36.52
307.379	22.87
307.593	76.12
307.807	2.39
308.021	41.3
308.235	139.6
308.449	33.11
308.663	-79.53
308.877	74.07
309.091	125.27
309.305	53.59
309.519	-67.24
309.733	149.84
309.947	-18.09
310.161	47.44
310.374	96.6
310.588	49.49
310.802	31.06
311.016	67.92
311.23	47.44
311.444	2.39
311.658	-73.39
311.872	102.74
312.085	63.83
312.299	72.02
312.513	74.07
312.727	59.73
312.941	98.64
313.154	67.92
313.368	10.58
313.582	53.59
313.796	4.44
314.009	14.68
314.223	53.59
314.437	2.39
314.651	76.12
314.864	-18.09
315.078	29.01
315.292	-1.71
315.505	37.2
315.719	6.49
315.933	35.16
316.146	-34.47
316.36	57.68
316.573	119.12
316.787	51.54
317.001	16.73
317.214	-34.47
317.428	8.53
317.641	67.92
317.855	-20.14
318.068	26.96
318.282	-1.71
318.495	90.45
318.709	117.08
318.922	59.73
319.136	90.45
319.349	147.8
319.563	-28.33
319.776	-24.23
319.99	18.77
320.203	98.64
320.417	63.83
320.63	123.22
320.843	31.06
321.057	-22.19
321.27	86.36
321.483	6.49
321.697	80.21
321.91	16.73
322.124	74.07
322.337	-5.8
322.55	-32.43
322.763	37.2
322.977	8.53
323.19	14.68
323.403	2.39
323.617	45.4
323.83	47.44
324.043	-59.05
324.256	33.11
324.469	22.87
324.683	131.41
324.896	-1.71
325.109	72.02
325.322	35.16
325.535	20.82
325.748	106.84
325.962	45.4
326.175	65.88
326.388	67.92
326.601	88.4
326.814	41.3
327.027	67.92
327.24	104.79
327.453	35.16
327.666	63.83
327.879	61.78
328.092	39.25
328.305	-11.95
328.518	14.68
328.731	31.06
328.944	65.88
329.157	-3.75
329.37	78.16
329.583	33.11
329.796	106.84
330.009	43.35
330.222	47.44
330.435	129.36
330.648	137.56
330.861	4.44
331.073	119.12
331.286	98.64
331.499	31.06
331.712	43.35
331.925	63.83
332.138	47.44
332.35	51.54
332.563	39.25
332.776	125.27
332.989	-87.72
333.202	76.12
333.414	18.77
333.627	43.35
333.84	14.68
334.053	12.63
334.265	82.26
334.478	45.4
334.691	74.07
334.903	121.17
335.116	6.49
335.329	-11.95
335.541	37.2
335.754	86.36
335.966	-28.33
336.179	80.21
336.392	94.55
336.604	29.01
336.817	-7.85
337.029	86.36
337.242	-1.71
337.454	90.45
337.667	24.92
337.88	80.21
338.092	14.68
338.305	-18.09
338.517	24.92
338.729	131.41
338.942	145.75
339.154	26.96
339.367	31.06
339.579	24.92
339.792	18.77
340.004	6.49
340.217	-7.85
340.429	112.98
340.641	-69.29
340.854	6.49
341.066	-34.47
341.278	88.4
341.491	55.64
341.703	39.25
341.915	-7.85
342.128	69.97
342.34	-34.47
342.552	10.58
342.764	63.83
342.977	-18.09
343.189	-7.85
343.401	-42.67
343.613	10.58
343.826	69.97
344.038	2.39
344.25	12.63
344.462	-65.19
344.674	39.25
344.886	55.64
345.099	67.92
345.311	74.07
345.523	55.64
345.735	2.39
345.947	10.58
346.159	41.3
346.371	53.59
346.583	22.87
346.795	123.22
347.007	-18.09
347.219	37.2
347.431	-1.71
347.643	51.54
347.855	41.3
348.067	88.4
348.279	0.34
348.491	76.12
348.703	37.2
348.915	61.78
349.127	-11.95
349.339	8.53
349.551	14.68
349.763	115.03
349.975	10.58
350.187	51.54
350.399	96.6
350.61	41.3
350.822	18.77
351.034	65.88
351.246	67.92
351.458	49.49
351.669	39.25
351.881	110.93
352.093	110.93
352.305	104.79
352.517	72.02
352.728	108.88
352.94	-9.9
353.152	80.21
353.363	-18.09
353.575	35.16
353.787	57.68
353.999	80.21
354.21	18.77
354.422	-28.33
354.633	22.87
354.845	-13.99
355.057	20.82
355.268	2.39
355.48	74.07
355.692	2.39
355.903	-1.71
356.115	-5.8
356.326	8.53
356.538	88.4
356.749	51.54
356.961	78.16
357.172	53.59
357.384	8.53
357.595	112.98
357.807	80.21
358.018	78.16
358.23	74.07
358.441	143.7
358.653	55.64
358.864	29.01
359.075	-7.85
359.287	24.92
359.498	67.92
359.709	35.16
359.921	10.58
360.132	35.16
360.344	2.39
360.555	22.87
360.766	104.79
360.977	29.01
361.189	47.44
361.4	76.12
361.611	117.08
361.823	82.26
362.034	53.59
362.245	-13.99
362.456	63.83
362.667	8.53
362.879	59.73
363.09	2.39
363.301	18.77
363.512	-1.71
363.723	-18.09
363.935	-5.8
364.146	96.6
364.357	18.77
364.568	55.64
364.779	-54.95
364.99	88.4
365.201	20.82
365.412	96.6
365.623	59.73
365.834	20.82
366.045	35.16
366.256	90.45
366.467	82.26
366.678	74.07
366.889	31.06
367.1	49.49
367.311	31.06
367.522	39.25
367.733	26.96
367.944	61.78
368.155	82.26
368.366	14.68
368.577	74.07
368.788	119.12
368.999	-13.99
369.209	43.35
369.42	143.7
369.631	106.84
369.842	55.64
370.053	51.54
370.264	8.53
370.474	41.3
370.685	96.6
370.896	-1.71
371.107	67.92
371.317	55.64
371.528	80.21
371.739	33.11
371.95	78.16
372.16	76.12
372.371	18.77
372.582	39.25
372.792	51.54
373.003	59.73
373.214	35.16
373.424	80.21
373.635	10.58
373.846	168.27
374.056	31.06
374.267	26.96
374.477	86.36
374.688	76.12
374.898	67.92
375.109	133.46
375.319	31.06
375.53	53.59
375.74	49.49
375.951	35.16
376.161	-5.8
376.372	43.35
376.582	-16.04
376.793	121.17
377.003	-46.76
377.214	14.68
377.424	6.49
377.635	92.5
377.845	12.63
378.055	129.36
378.266	67.92
378.476	82.26
378.686	65.88
378.897	49.49
379.107	82.26
379.317	47.44
379.528	63.83
379.738	43.35
379.948	26.96
380.158	84.31
380.369	170.32
380.579	59.73
380.789	69.97
380.999	80.21
381.21	57.68
381.42	98.64
381.63	22.87
381.84	24.92
382.05	63.83
382.261	86.36
382.471	88.4
382.681	-24.23
382.891	76.12
383.101	61.78
383.311	-16.04
383.521	12.63
383.731	57.68
383.941	43.35
384.151	127.32
384.361	41.3
384.571	69.97
384.781	63.83
384.991	94.55
385.201	104.79
385.411	117.08
385.621	84.31
385.831	76.12
386.041	123.22
386.251	76.12
386.461	84.31
386.671	53.59
386.881	0.34
387.091	-24.23
387.301	67.92
387.511	10.58
387.72	43.35
387.93	151.89
388.14	-13.99
388.35	84.31
388.56	20.82
388.769	96.6
388.979	41.3
389.189	22.87
389.399	14.68
389.609	12.63
389.818	80.21
390.028	22.87
390.238	57.68
390.447	-18.09
390.657	63.83
390.867	78.16
391.076	14.68
391.286	8.53
391.496	41.3
391.705	22.87
391.915	82.26
392.125	92.5
392.334	-3.75
392.544	115.03
392.753	88.4
392.963	24.92
393.172	51.54
393.382	39.25
393.591	153.94
393.801	84.31
394.01	164.18
394.22	-26.28
394.429	94.55
394.639	88.4
394.848	37.2
395.058	39.25
395.267	35.16
395.477	12.63
395.686	94.55
395.895	98.64
396.105	135.51
396.314	129.36
396.524	47.44
396.733	108.88
396.942	104.79
397.152	166.23
397.361	178.51
397.57	-5.8
397.78	117.08
397.989	65.88
398.198	131.41
398.407	162.13
398.617	141.65
398.826	65.88
399.035	14.68
399.244	115.03
399.453	123.22
399.663	90.45
399.872	69.97
400.081	55.64
400.29	133.46
400.499	20.82
400.708	112.98
400.917	86.36
401.127	90.45
401.336	47.44
401.545	106.84
401.754	125.27
401.963	145.75
402.172	121.17
402.381	47.44
402.59	112.98
402.799	115.03
403.008	129.36
403.217	41.3
403.426	106.84
403.635	90.45
403.844	115.03
404.053	53.59
404.262	133.46
404.471	244.05
404.68	115.03
404.888	158.03
405.097	162.13
405.306	74.07
405.515	96.6
405.724	72.02
405.933	170.32
406.142	127.32
406.35	186.71
406.559	117.08
406.768	203.09
406.977	162.13
407.185	203.09
407.394	184.66
407.603	129.36
407.812	203.09
408.02	258.39
408.229	225.62
408.438	231.76
408.646	207.19
408.855	201.04
409.064	252.24
409.272	192.85
409.481	182.61
409.69	182.61
409.898	90.45
410.107	237.91
410.315	262.48
410.524	285.01
410.733	172.37
410.941	262.48
411.15	266.58
411.358	373.07
411.567	276.82
411.775	266.58
411.984	360.78
412.192	328.02
412.401	373.07
412.609	399.7
412.818	391.5
413.026	385.36
413.234	473.42
413.443	360.78
413.651	395.6
413.86	448.85
414.068	498
414.276	536.91
414.485	450.89
414.693	498
414.901	526.67
415.11	549.2
415.318	530.77
415.526	596.3
415.734	657.74
415.943	602.44
416.151	702.79
416.359	653.64
416.567	649.55
416.776	690.51
416.984	762.19
417.192	770.38
417.4	780.62
417.608	729.42
417.817	868.68
418.025	817.48
418.233	837.96
418.441	870.73
418.649	885.06
418.857	1012.04
419.065	1067.33
419.273	1018.18
419.481	1026.37
419.689	1171.78
419.897	1075.52
420.105	1220.93
420.313	1233.22
420.521	1306.95
420.729	1364.29
420.937	1280.32
421.145	1352
421.353	1495.36
421.561	1620.28
421.769	1515.84
421.977	1544.51
422.185	1554.75
422.393	1745.21
422.601	1810.75
422.809	1816.89
423.017	1786.17
423.224	1775.93
423.432	1915.19
423.64	1941.82
423.848	2285.87
424.056	2064.69
424.263	2275.63
424.471	2230.58
424.679	2322.74
424.887	2359.6
425.094	2580.78
425.302	2507.06
425.51	2599.21
425.718	2568.49
425.925	2767.15
426.133	2726.19
426.341	2990.38
426.548	3017
426.756	3086.63
426.964	3066.15
427.171	3277.09
427.379	3348.77
427.586	3346.72
427.794	3551.52
428.001	3610.91
428.209	3760.41
428.417	3787.04
428.624	3875.1
428.832	4155.67
429.039	4122.9
429.247	4051.22
429.454	4530.45
429.662	4694.29
429.869	4403.47
430.076	4755.72
430.284	4598.03
430.491	4770.06
430.699	4907.27
430.906	5128.46
431.114	5028.1
431.321	5316.87
431.528	5472.51
431.736	5734.65
431.943	6142.2
432.15	5761.28
432.358	5826.81
432.565	6322.42
432.772	6318.32
432.979	6557.94
433.187	6770.93
433.394	6838.51
433.601	7131.37
433.808	7141.61
434.016	7248.1
434.223	7446.76
434.43	7846.11
434.637	7571.68
434.844	8347.86
435.052	8345.81
435.259	8282.33
435.466	8610
435.673	8229.08
435.88	8945.87
436.087	9451.72
436.294	9181.39
436.501	9355.46
436.708	9277.64
436.915	9683.14
437.122	10086.59
437.329	9902.27
437.537	10463.41
437.743	10748.08
437.95	10707.12
438.157	11133.1
438.364	11346.09
438.571	11413.67
438.778	11612.32
438.985	12495
439.192	12097.69
439.399	12460.18
439.606	12083.36
439.813	13041.81
440.02	13424.78
440.227	13596.81
440.433	13435.02
440.64	13729.92
440.847	13629.57
441.054	13748.36
441.261	14884.98
441.467	14653.56
441.674	14917.75
441.881	15528.04
442.088	15446.12
442.294	15640.68
442.501	15753.32
442.708	16222.3
442.914	16709.72
443.121	17418.32
443.328	16934.99
443.534	18219.07
443.741	17582.15
443.948	17250.38
444.154	18620.47
444.361	18712.63
444.568	18798.65
444.774	18927.67
444.981	19013.68
445.187	19470.38
445.394	20342.81
445.6	20140.07
445.807	22091.78
446.013	21202.96
446.22	21125.14
446.426	22403.07
446.633	22564.86
446.839	23382
447.046	22302.72
447.252	23758.83
447.459	23455.73
447.665	23717.87
447.871	24649.69
448.078	25821.13
448.284	24612.83
448.491	24981.46
448.697	26351.56
448.903	26607.55
449.11	26863.55
449.316	26484.67
449.522	26775.48
449.728	27535.28
449.935	27557.81
450.141	27912.11
450.347	28233.64
450.553	27221.94
450.76	27869.1
450.966	28741.53
451.172	28387.24
451.378	29028.25
451.584	28716.96
451.791	29333.4
451.997	29290.39
452.203	29577.11
452.409	29820.81
452.615	29951.88
452.821	28415.91
453.027	28420
453.233	29869.97
453.44	28905.37
453.646	28719.01
453.852	29450.13
454.058	29591.44
454.264	28565.41
454.47	29196.18
454.676	28614.56
454.882	29294.49
455.088	26824.64
455.294	27260.85
455.5	27910.06
455.705	28293.03
455.911	26963.9
456.117	26589.12
456.323	26380.23
456.529	24870.87
456.735	26009.54
456.941	25108.44
457.147	25063.38
457.352	23922.66
457.558	23721.96
457.764	23840.75
457.97	23441.39
458.176	22679.55
458.381	22898.68
458.587	21807.11
458.793	21702.67
458.999	20498.46
459.204	22026.25
459.41	21540.88
459.616	20129.83
459.821	19845.16
460.027	20078.63
460.233	19408.94
460.438	18581.56
460.644	18800.69
460.85	17901.64
461.055	17682.5
461.261	17776.71
461.466	16263.26
461.672	15808.61
461.878	17041.49
462.083	15992.93
462.289	15655.01
462.494	15204.46
462.7	14600.31
462.905	14299.26
463.111	14741.62
463.316	15081.58
463.522	14805.11
463.727	14628.98
463.932	14487.67
464.138	14219.39
464.343	14694.52
464.549	13967.49
464.754	14682.23
464.959	14233.72
465.165	14205.05
465.37	13588.61
465.575	13277.32
465.781	13774.98
465.986	13885.57
466.191	13578.37
466.397	13136.01
466.602	12425.37
466.807	12935.31
467.012	12953.74
467.218	12814.48
467.423	12703.89
467.628	12728.47
467.833	13310.09
