Data from USB4F104151__66__13-05-57-240.txt Node

Date: Fri Mar 14 13:05:57 EDT 2025
User: louis
Spectrometer: USB4F10415
Trigger mode: 4
Integration Time (sec): 4.000000E-2
Scans to average: 1
Electric dark correction enabled: true
Nonlinearity correction enabled: false
Boxcar width: 0
XAxis mode: Wavelengths
Number of Pixels in Spectrum: 3648
>>>>>Begin Spectral Data<<<<<
178.204	-68.44
178.424	-68.44
178.644	-68.44
178.864	-205.65
179.084	-121.68
179.304	5.29
179.524	15.53
179.744	-21.33
179.964	38.06
180.184	9.39
180.404	48.3
180.624	33.96
180.844	-39.76
181.064	17.58
181.283	-41.81
181.503	-60.24
181.723	-4.95
181.943	-84.82
182.163	124.07
182.383	48.3
182.602	3.24
182.822	72.87
183.042	50.35
183.262	50.35
183.482	-7
183.701	21.67
183.921	62.63
184.141	-7
184.361	-4.95
184.58	105.64
184.8	27.82
185.02	81.07
185.239	19.63
185.459	58.54
185.679	17.58
185.898	-78.68
186.118	58.54
186.338	29.87
186.557	54.44
186.777	7.34
186.997	17.58
187.216	38.06
187.436	46.25
187.655	66.73
187.875	38.06
188.095	29.87
188.314	124.07
188.534	79.02
188.753	15.53
188.973	44.2
189.192	156.84
189.412	128.17
189.631	48.3
189.851	33.96
190.07	54.44
190.29	-2.9
190.509	11.43
190.729	52.39
190.948	-17.24
191.168	165.03
191.387	99.5
191.607	-29.52
191.826	62.63
192.045	48.3
192.265	62.63
192.484	29.87
192.704	-35.67
192.923	13.48
193.142	185.51
193.362	138.41
193.581	56.49
193.8	46.25
194.02	124.07
194.239	117.93
194.458	21.67
194.678	3.24
194.897	40.11
195.116	44.2
195.335	93.35
195.555	72.87
195.774	44.2
195.993	181.42
196.212	99.5
196.432	72.87
196.651	-9.05
196.87	13.48
197.089	117.93
197.308	58.54
197.528	36.01
197.747	33.96
197.966	50.35
198.185	93.35
198.404	1.19
198.623	72.87
198.842	31.91
199.062	97.45
199.281	25.77
199.5	23.72
199.719	109.74
199.938	126.12
200.157	46.25
200.376	54.44
200.595	126.12
200.814	42.15
201.033	13.48
201.252	72.87
201.471	11.43
201.69	124.07
201.909	95.4
202.128	25.77
202.347	91.31
202.566	29.87
202.785	7.34
203.004	-15.19
203.223	122.02
203.442	91.31
203.661	21.67
203.879	62.63
204.098	64.68
204.317	72.87
204.536	54.44
204.755	29.87
204.974	5.29
205.193	128.17
205.411	109.74
205.63	81.07
205.849	62.63
206.068	50.35
206.287	56.49
206.505	23.72
206.724	23.72
206.943	38.06
207.162	-0.85
207.381	72.87
207.599	-13.14
207.818	134.31
208.037	130.22
208.255	95.4
208.474	42.15
208.693	44.2
208.911	58.54
209.13	25.77
209.349	52.39
209.567	58.54
209.786	89.26
210.005	29.87
210.223	58.54
210.442	-56.15
210.661	54.44
210.879	54.44
211.098	-27.48
211.316	97.45
211.535	85.16
211.753	40.11
211.972	60.59
212.191	33.96
212.409	29.87
212.628	19.63
212.846	21.67
213.065	56.49
213.283	89.26
213.502	17.58
213.72	89.26
213.938	101.55
214.157	50.35
214.375	99.5
214.594	17.58
214.812	17.58
215.031	-35.67
215.249	17.58
215.467	115.88
215.686	44.2
215.904	105.64
216.122	9.39
216.341	95.4
216.559	36.01
216.778	81.07
216.996	156.84
217.214	19.63
217.432	25.77
217.651	29.87
217.869	25.77
218.087	-41.81
218.306	74.92
218.524	38.06
218.742	79.02
218.96	89.26
219.179	-11.09
219.397	46.25
219.615	68.78
219.833	46.25
220.051	1.19
220.27	111.78
220.488	99.5
220.706	56.49
220.924	38.06
221.142	44.2
221.36	38.06
221.578	93.35
221.796	66.73
222.015	11.43
222.233	52.39
222.451	93.35
222.669	-88.92
222.887	33.96
223.105	-54.1
223.323	85.16
223.541	-11.09
223.759	-0.85
223.977	70.83
224.195	91.31
224.413	40.11
224.631	52.39
224.849	72.87
225.067	54.44
225.285	-33.62
225.503	-50
225.721	-50
225.939	76.97
226.157	44.2
226.375	140.46
226.592	58.54
226.81	15.53
227.028	50.35
227.246	195.75
227.464	38.06
227.682	72.87
227.9	-13.14
228.117	-15.19
228.335	40.11
228.553	44.2
228.771	103.59
228.989	48.3
229.206	46.25
229.424	-11.09
229.642	17.58
229.86	19.63
230.077	87.21
230.295	7.34
230.513	95.4
230.731	74.92
230.948	146.6
231.166	99.5
231.384	40.11
231.601	-0.85
231.819	97.45
232.037	42.15
232.254	-15.19
232.472	87.21
232.689	7.34
232.907	62.63
233.125	-35.67
233.342	-39.76
233.56	79.02
233.777	33.96
233.995	29.87
234.213	70.83
234.43	89.26
234.648	99.5
234.865	117.93
235.083	23.72
235.3	7.34
235.518	15.53
235.735	124.07
235.953	74.92
236.17	87.21
236.388	46.25
236.605	33.96
236.822	38.06
237.04	48.3
237.257	85.16
237.475	128.17
237.692	105.64
237.909	56.49
238.127	11.43
238.344	130.22
238.562	3.24
238.779	1.19
238.996	1.19
239.214	17.58
239.431	83.11
239.648	25.77
239.865	124.07
240.083	38.06
240.3	87.21
240.517	56.49
240.735	62.63
240.952	36.01
241.169	79.02
241.386	25.77
241.603	79.02
241.821	-2.9
242.038	115.88
242.255	99.5
242.472	54.44
242.689	46.25
242.907	140.46
243.124	29.87
243.341	33.96
243.558	56.49
243.775	-15.19
243.992	58.54
244.209	140.46
244.426	105.64
244.643	124.07
244.86	38.06
245.078	38.06
245.295	46.25
245.512	31.91
245.729	54.44
245.946	54.44
246.163	76.97
246.38	64.68
246.597	23.72
246.814	74.92
247.031	107.69
247.248	15.53
247.464	44.2
247.681	5.29
247.898	87.21
248.115	95.4
248.332	-25.43
248.549	91.31
248.766	132.26
248.983	40.11
249.2	87.21
249.417	46.25
249.633	70.83
249.85	66.73
250.067	36.01
250.284	27.82
250.501	136.36
250.717	46.25
250.934	-9.05
251.151	46.25
251.368	83.11
251.585	50.35
251.801	38.06
252.018	-54.1
252.235	68.78
252.451	13.48
252.668	33.96
252.885	56.49
253.102	42.15
253.318	76.97
253.535	-4.95
253.752	-27.48
253.968	7.34
254.185	27.82
254.401	76.97
254.618	-13.14
254.835	5.29
255.051	56.49
255.268	72.87
255.484	54.44
255.701	74.92
255.917	50.35
256.134	-17.24
256.351	-2.9
256.567	42.15
256.784	48.3
257	-78.68
257.217	58.54
257.433	85.16
257.65	56.49
257.866	95.4
258.082	23.72
258.299	21.67
258.515	99.5
258.732	66.73
258.948	103.59
259.165	70.83
259.381	1.19
259.597	62.63
259.814	3.24
260.03	17.58
260.246	56.49
260.463	107.69
260.679	64.68
260.895	81.07
261.112	134.31
261.328	-23.38
261.544	38.06
261.761	167.08
261.977	38.06
262.193	25.77
262.409	58.54
262.626	31.91
262.842	-2.9
263.058	-2.9
263.274	70.83
263.49	97.45
263.707	58.54
263.923	15.53
264.139	-27.48
264.355	76.97
264.571	171.18
264.787	68.78
265.004	-15.19
265.22	5.29
265.436	-4.95
265.652	-7
265.868	-0.85
266.084	-15.19
266.3	83.11
266.516	21.67
266.732	126.12
266.948	-7
267.164	136.36
267.38	46.25
267.596	54.44
267.812	173.22
268.028	62.63
268.244	9.39
268.46	17.58
268.676	5.29
268.892	111.78
269.108	31.91
269.324	-7
269.54	1.19
269.756	130.22
269.972	-31.57
270.188	15.53
270.403	-52.05
270.619	46.25
270.835	64.68
271.051	70.83
271.267	64.68
271.483	-19.29
271.698	87.21
271.914	62.63
272.13	54.44
272.346	150.7
272.562	76.97
272.777	134.31
272.993	36.01
273.209	36.01
273.425	83.11
273.64	25.77
273.856	89.26
274.072	7.34
274.287	5.29
274.503	154.79
274.719	56.49
274.934	119.98
275.15	40.11
275.366	72.87
275.581	40.11
275.797	7.34
276.012	109.74
276.228	9.39
276.444	111.78
276.659	70.83
276.875	-0.85
277.09	76.97
277.306	42.15
277.521	87.21
277.737	5.29
277.952	21.67
278.168	40.11
278.383	70.83
278.599	97.45
278.814	72.87
279.03	48.3
279.245	70.83
279.461	93.35
279.676	72.87
279.892	-27.48
280.107	25.77
280.322	46.25
280.538	54.44
280.753	19.63
280.969	126.12
281.184	76.97
281.399	81.07
281.615	144.55
281.83	13.48
282.045	31.91
282.26	72.87
282.476	-27.48
282.691	107.69
282.906	50.35
283.122	25.77
283.337	-25.43
283.552	5.29
283.767	91.31
283.983	85.16
284.198	29.87
284.413	70.83
284.628	29.87
284.843	31.91
285.058	40.11
285.274	111.78
285.489	58.54
285.704	154.79
285.919	79.02
286.134	113.83
286.349	29.87
286.564	21.67
286.779	158.89
286.995	38.06
287.21	9.39
287.425	33.96
287.64	21.67
287.855	56.49
288.07	40.11
288.285	124.07
288.5	85.16
288.715	95.4
288.93	-27.48
289.145	7.34
289.36	52.39
289.575	5.29
289.79	91.31
290.004	52.39
290.219	95.4
290.434	23.72
290.649	-19.29
290.864	5.29
291.079	33.96
291.294	21.67
291.509	64.68
291.724	79.02
291.938	42.15
292.153	48.3
292.368	54.44
292.583	42.15
292.798	54.44
293.012	122.02
293.227	40.11
293.442	-23.38
293.657	107.69
293.871	115.88
294.086	60.59
294.301	95.4
294.516	138.41
294.73	21.67
294.945	101.55
295.16	15.53
295.374	76.97
295.589	87.21
295.804	-35.67
296.018	81.07
296.233	13.48
296.447	79.02
296.662	7.34
296.877	87.21
297.091	25.77
297.306	74.92
297.52	21.67
297.735	23.72
297.949	54.44
298.164	46.25
298.378	42.15
298.593	-9.05
298.807	17.58
299.022	27.82
299.236	138.41
299.451	54.44
299.665	21.67
299.88	52.39
300.094	60.59
300.309	23.72
300.523	40.11
300.737	58.54
300.952	-19.29
301.166	60.59
301.381	31.91
301.595	29.87
301.809	7.34
302.024	13.48
302.238	-7
302.452	113.83
302.667	-19.29
302.881	105.64
303.095	48.3
303.309	62.63
303.524	119.98
303.738	60.59
303.952	62.63
304.166	97.45
304.381	-4.95
304.595	103.59
304.809	109.74
305.023	107.69
305.237	7.34
305.452	48.3
305.666	36.01
305.88	70.83
306.094	119.98
306.308	52.39
306.522	115.88
306.736	85.16
306.95	42.15
307.164	48.3
307.379	87.21
307.593	165.03
307.807	46.25
308.021	177.32
308.235	44.2
308.449	-17.24
308.663	40.11
308.877	91.31
309.091	17.58
309.305	40.11
309.519	-9.05
309.733	64.68
309.947	-4.95
310.161	62.63
310.374	91.31
310.588	105.64
310.802	60.59
311.016	62.63
311.23	101.55
311.444	17.58
311.658	-23.38
311.872	79.02
312.085	113.83
312.299	117.93
312.513	97.45
312.727	81.07
312.941	72.87
313.154	7.34
313.368	58.54
313.582	46.25
313.796	48.3
314.009	58.54
314.223	138.41
314.437	62.63
314.651	115.88
314.864	23.72
315.078	-9.05
315.292	13.48
315.505	87.21
315.719	66.73
315.933	23.72
316.146	50.35
316.36	-0.85
316.573	160.94
316.787	42.15
317.001	50.35
317.214	44.2
317.428	81.07
317.641	17.58
317.855	124.07
318.068	48.3
318.282	-15.19
318.495	119.98
318.709	72.87
318.922	74.92
319.136	87.21
319.349	68.78
319.563	40.11
319.776	42.15
319.99	-72.53
320.203	13.48
320.417	9.39
320.63	62.63
320.843	130.22
321.057	62.63
321.27	124.07
321.483	79.02
321.697	95.4
321.91	52.39
322.124	134.31
322.337	48.3
322.55	19.63
322.763	31.91
322.977	95.4
323.19	48.3
323.403	56.49
323.617	36.01
323.83	124.07
324.043	66.73
324.256	52.39
324.469	52.39
324.683	128.17
324.896	46.25
325.109	44.2
325.322	50.35
325.535	103.59
325.748	95.4
325.962	-27.48
326.175	13.48
326.388	38.06
326.601	81.07
326.814	40.11
327.027	76.97
327.24	128.17
327.453	-54.1
327.666	66.73
327.879	126.12
328.092	99.5
328.305	54.44
328.518	31.91
328.731	36.01
328.944	5.29
329.157	48.3
329.37	68.78
329.583	156.84
329.796	107.69
330.009	-19.29
330.222	89.26
330.435	79.02
330.648	42.15
330.861	25.77
331.073	64.68
331.286	83.11
331.499	87.21
331.712	66.73
331.925	7.34
332.138	85.16
332.35	181.42
332.563	17.58
332.776	76.97
332.989	21.67
333.202	54.44
333.414	58.54
333.627	25.77
333.84	25.77
334.053	58.54
334.265	5.29
334.478	64.68
334.691	48.3
334.903	87.21
335.116	-56.15
335.329	36.01
335.541	48.3
335.754	152.74
335.966	17.58
336.179	81.07
336.392	40.11
336.604	21.67
336.817	36.01
337.029	113.83
337.242	48.3
337.454	68.78
337.667	13.48
337.88	62.63
338.092	54.44
338.305	146.6
338.517	3.24
338.729	79.02
338.942	101.55
339.154	29.87
339.367	97.45
339.579	70.83
339.792	-0.85
340.004	111.78
340.217	66.73
340.429	29.87
340.641	-9.05
340.854	31.91
341.066	62.63
341.278	113.83
341.491	101.55
341.703	56.49
341.915	42.15
342.128	79.02
342.34	38.06
342.552	74.92
342.764	31.91
342.977	-0.85
343.189	-9.05
343.401	40.11
343.613	19.63
343.826	48.3
344.038	38.06
344.25	74.92
344.462	-35.67
344.674	74.92
344.886	50.35
345.099	42.15
345.311	160.94
345.523	93.35
345.735	25.77
345.947	58.54
346.159	101.55
346.371	56.49
346.583	58.54
346.795	136.36
347.007	33.96
347.219	169.13
347.431	72.87
347.643	93.35
347.855	81.07
348.067	62.63
348.279	-37.72
348.491	58.54
348.703	99.5
348.915	60.59
349.127	40.11
349.339	83.11
349.551	58.54
349.763	70.83
349.975	38.06
350.187	156.84
350.399	70.83
350.61	124.07
350.822	19.63
351.034	23.72
351.246	46.25
351.458	95.4
351.669	142.5
351.881	44.2
352.093	29.87
352.305	138.41
352.517	87.21
352.728	79.02
352.94	23.72
353.152	113.83
353.363	54.44
353.575	175.27
353.787	119.98
353.999	25.77
354.21	91.31
354.422	17.58
354.633	15.53
354.845	50.35
355.057	38.06
355.268	70.83
355.48	64.68
355.692	23.72
355.903	119.98
356.115	23.72
356.326	13.48
356.538	136.36
356.749	136.36
356.961	95.4
357.172	83.11
357.384	7.34
357.595	87.21
357.807	19.63
358.018	50.35
358.23	89.26
358.441	91.31
358.653	81.07
358.864	79.02
359.075	25.77
359.287	70.83
359.498	91.31
359.709	95.4
359.921	87.21
360.132	79.02
360.344	76.97
360.555	89.26
360.766	103.59
360.977	38.06
361.189	97.45
361.4	58.54
361.611	95.4
361.823	76.97
362.034	79.02
362.245	42.15
362.456	62.63
362.667	91.31
362.879	87.21
363.09	111.78
363.301	66.73
363.512	40.11
363.723	-2.9
363.935	33.96
364.146	27.82
364.357	83.11
364.568	52.39
364.779	11.43
364.99	115.88
365.201	70.83
365.412	142.5
365.623	42.15
365.834	103.59
366.045	68.78
366.256	87.21
366.467	42.15
366.678	107.69
366.889	101.55
367.1	87.21
367.311	193.7
367.522	62.63
367.733	97.45
367.944	103.59
368.155	54.44
368.366	122.02
368.577	74.92
368.788	105.64
368.999	76.97
369.209	42.15
369.42	152.74
369.631	179.37
369.842	138.41
370.053	7.34
370.264	93.35
370.474	11.43
370.685	5.29
370.896	83.11
371.107	119.98
371.317	111.78
371.528	7.34
371.739	97.45
371.95	62.63
372.16	87.21
372.371	105.64
372.582	97.45
372.792	62.63
373.003	62.63
373.214	128.17
373.424	132.26
373.635	79.02
373.846	66.73
374.056	-23.38
374.267	40.11
374.477	27.82
374.688	52.39
374.898	46.25
375.109	52.39
375.319	29.87
375.53	179.37
375.74	33.96
375.951	31.91
376.161	111.78
376.372	156.84
376.582	44.2
376.793	68.78
377.003	62.63
377.214	46.25
377.424	36.01
377.635	99.5
377.845	126.12
378.055	128.17
378.266	74.92
378.476	31.91
378.686	117.93
378.897	122.02
379.107	111.78
379.317	60.59
379.528	103.59
379.738	91.31
379.948	-13.14
380.158	119.98
380.369	56.49
380.579	146.6
380.789	-0.85
380.999	146.6
381.21	72.87
381.42	93.35
381.63	58.54
381.84	50.35
382.05	66.73
382.261	132.26
382.471	130.22
382.681	33.96
382.891	185.51
383.101	105.64
383.311	50.35
383.521	66.73
383.731	7.34
383.941	105.64
384.151	79.02
384.361	138.41
384.571	52.39
384.781	126.12
384.991	130.22
385.201	119.98
385.411	95.4
385.621	93.35
385.831	101.55
386.041	58.54
386.251	89.26
386.461	89.26
386.671	48.3
386.881	111.78
387.091	76.97
387.301	109.74
387.511	29.87
387.72	197.8
387.93	111.78
388.14	68.78
388.35	21.67
388.56	99.5
388.769	124.07
388.979	99.5
389.189	21.67
389.399	66.73
389.609	66.73
389.818	140.46
390.028	150.7
390.238	87.21
390.447	70.83
390.657	81.07
390.867	72.87
391.076	17.58
391.286	81.07
391.496	138.41
391.705	52.39
391.915	115.88
392.125	154.79
392.334	91.31
392.544	152.74
392.753	144.55
392.963	113.83
393.172	105.64
393.382	95.4
393.591	167.08
393.801	85.16
394.01	128.17
394.22	89.26
394.429	66.73
394.639	126.12
394.848	91.31
395.058	79.02
395.267	140.46
395.477	177.32
395.686	91.31
395.895	156.84
396.105	294.05
396.314	148.65
396.524	167.08
396.733	81.07
396.942	144.55
397.152	132.26
397.361	228.52
397.57	117.93
397.78	138.41
397.989	148.65
398.198	242.85
398.407	81.07
398.617	95.4
398.826	111.78
399.035	148.65
399.244	173.22
399.453	119.98
399.663	195.75
399.872	124.07
400.081	150.7
400.29	203.94
400.499	165.03
400.708	165.03
400.917	154.79
401.127	126.12
401.336	113.83
401.545	261.29
401.754	226.47
401.963	138.41
402.172	76.97
402.381	134.31
402.59	144.55
402.799	185.51
403.008	249
403.217	230.57
403.426	244.9
403.635	105.64
403.844	205.99
404.053	169.13
404.262	246.95
404.471	332.97
404.68	191.66
404.888	220.33
405.097	253.09
405.306	267.43
405.515	185.51
405.724	216.23
405.933	255.14
406.142	203.94
406.35	283.81
406.559	283.81
406.768	265.38
406.977	330.92
407.185	292.01
407.394	263.33
407.603	197.8
407.812	326.82
408.02	302.25
408.229	281.77
408.438	296.1
408.646	289.96
408.855	341.16
409.064	322.73
409.272	332.97
409.481	392.36
409.69	332.97
409.898	404.64
410.107	425.12
410.315	408.74
410.524	353.45
410.733	457.89
410.941	439.46
411.15	478.37
411.358	507.04
411.567	568.48
411.775	543.91
411.984	603.3
412.192	545.95
412.401	593.06
412.609	582.82
412.818	629.92
413.026	666.78
413.234	691.36
413.443	732.32
413.651	701.6
413.86	742.56
414.068	822.43
414.276	916.64
414.485	756.9
414.693	783.52
414.901	871.58
415.11	939.16
415.318	887.97
415.526	908.44
415.734	1084.57
415.943	1016.99
416.151	1125.53
416.359	1184.92
416.567	1162.39
416.776	1199.26
416.984	1260.7
417.192	1377.43
417.4	1270.94
417.608	1350.81
417.817	1438.87
418.025	1518.74
418.233	1563.79
418.441	1623.19
418.649	1606.8
418.857	1698.96
419.065	1784.98
419.273	1758.35
419.481	1926.29
419.689	1926.29
419.897	1995.92
420.105	1948.81
420.313	1971.34
420.521	2073.74
420.729	2243.72
420.937	2290.82
421.145	2331.78
421.353	2477.19
421.561	2626.69
421.769	2606.21
421.977	2800.77
422.185	2694.27
422.393	2888.83
422.601	3085.44
422.809	3105.92
423.017	3079.29
423.224	3427.45
423.432	3523.7
423.64	3384.44
423.848	3628.15
424.056	3527.8
424.263	3740.79
424.471	3832.94
424.679	3927.15
424.887	4326.5
425.094	4174.95
425.302	4246.63
425.51	4527.21
425.718	4598.88
425.925	4613.22
426.133	4705.38
426.341	4996.19
426.548	5172.32
426.756	5225.56
426.964	5323.87
427.171	5778.51
427.379	5706.84
427.586	5809.23
427.794	6001.74
428.001	6495.3
428.209	6591.56
428.417	6388.81
428.624	7011.39
428.832	7013.44
429.039	7007.3
429.247	6945.86
429.454	7509.05
429.662	8115.25
429.869	7695.41
430.076	8274.99
430.284	7916.59
430.491	8213.55
430.699	8690.73
430.906	8627.24
431.114	9014.31
431.321	9376.8
431.528	9372.7
431.736	10077.2
431.943	10368.01
432.15	10083.34
432.358	10112.02
432.565	10679.3
432.772	10834.95
432.979	11566.07
433.187	11662.33
433.394	11375.61
433.601	12235.76
433.808	12329.97
434.016	12340.21
434.223	12964.84
434.43	13401.05
434.637	13530.08
434.844	14152.66
435.052	14541.77
435.259	14627.79
435.466	14427.09
435.673	14330.83
435.88	15162.31
436.087	16190.39
436.294	15979.45
436.501	15911.86
436.708	16010.17
436.915	16520.11
437.122	17529.76
437.329	17271.72
437.537	18033.56
437.743	17996.7
437.95	17886.11
438.157	19067.78
438.364	19682.17
438.571	19733.37
438.778	19805.05
438.985	21625.7
439.192	20878.19
439.399	21316.45
439.606	20882.28
439.813	22070.11
440.02	23407.43
440.227	22993.74
440.433	22807.37
440.64	23552.84
440.847	23520.07
441.054	24148.79
441.261	25293.61
441.467	25375.53
441.674	25615.14
441.881	26837.78
442.088	26315.55
442.294	26571.54
442.501	27204.36
442.708	27593.48
442.914	28877.55
443.121	29682.41
443.328	29102.83
443.534	31099.6
443.741	29930.21
443.948	29995.74
444.154	32279.23
444.361	31830.72
444.568	32223.93
444.774	32156.35
444.981	32484.03
445.187	33274.54
445.394	34878.1
445.6	34458.27
445.807	37763.69
446.013	35789.45
446.22	36588.16
446.426	38054.5
446.633	39006.81
446.839	39692.88
447.046	38306.4
447.252	40202.82
447.459	40475.2
447.665	39934.54
447.871	41771.57
448.078	43885.07
448.284	41785.9
448.491	42668.58
448.697	44403.21
448.903	45306.36
449.11	45382.13
449.316	45396.47
449.522	45623.79
449.728	46821.86
449.935	47184.35
450.141	47245.79
450.347	48142.8
450.553	46600.68
450.76	47395.29
450.966	49039.81
451.172	48155.08
451.378	49529.27
451.584	48742.85
451.791	49631.67
451.997	49285.56
452.203	50170.29
452.409	50764.2
452.615	50049.45
452.821	48183.76
453.027	48214.47
453.233	50717.09
453.44	48579.01
453.646	48861.63
453.852	49340.86
454.058	50545.06
454.264	48667.08
454.47	49480.12
454.676	48398.79
454.882	50092.46
455.088	46176.75
455.294	46469.61
455.5	47485.4
455.705	47643.09
455.911	46094.83
456.117	45378.04
456.323	44601.86
456.529	42336.8
456.735	44112.39
456.941	42961.44
457.147	42549.79
457.352	41554.48
457.558	40960.57
457.764	41110.07
457.97	39715.4
458.176	39012.95
458.381	39121.49
458.587	37393.01
458.793	37364.34
458.999	35383.95
459.204	37954.15
459.41	36813.43
459.616	34216.61
459.821	34575
460.027	34425.5
460.233	33747.62
460.438	32160.45
460.644	32152.26
460.85	31206.09
461.055	30247.65
461.261	30210.78
461.466	28166.91
461.672	27151.12
461.878	29205.23
462.083	27294.47
462.289	26385.18
462.494	26419.99
462.7	25393.96
462.905	24548.15
463.111	25830.18
463.316	25674.53
463.522	24859.44
463.727	24875.82
463.932	24832.82
464.138	24605.49
464.343	24892.21
464.549	24013.63
464.754	25101.1
464.959	24560.44
465.165	24597.3
465.37	23477.06
465.575	22598.48
465.781	23905.09
465.986	24281.91
466.191	22946.64
466.397	22719.31
