Data from USB4F104151__86__13-06-19-877.txt Node

Date: Fri Mar 14 13:06:19 EDT 2025
User: louis
Spectrometer: USB4F10415
Trigger mode: 4
Integration Time (sec): 4.000000E-2
Scans to average: 1
Electric dark correction enabled: true
Nonlinearity correction enabled: false
Boxcar width: 0
XAxis mode: Wavelengths
Number of Pixels in Spectrum: 3648
>>>>>Begin Spectral Data<<<<<
178.204	-185
178.424	-185
178.644	-185
178.864	-211.62
179.084	-193.19
179.304	30.04
179.524	-31.4
179.744	-58.03
179.964	38.23
180.184	30.04
180.404	44.37
180.624	-51.88
180.844	58.71
181.064	-27.31
181.283	-15.02
181.503	-35.5
181.723	17.75
181.943	-53.93
182.163	64.85
182.383	13.65
182.602	34.13
182.822	77.14
183.042	21.85
183.262	-35.5
183.482	-19.11
183.701	32.08
183.921	56.66
184.141	-37.55
184.361	46.42
184.58	3.41
184.8	1.37
185.02	30.04
185.239	40.28
185.459	19.8
185.679	-6.83
185.898	-23.21
186.118	1.37
186.338	-8.87
186.557	-35.5
186.777	-45.74
186.997	-55.98
187.216	-55.98
187.436	11.61
187.655	64.85
187.875	111.96
188.095	-6.83
188.314	120.15
188.534	-0.68
188.753	34.13
188.973	5.46
189.192	42.32
189.412	-12.97
189.631	1.37
189.851	-12.97
190.07	103.76
190.29	40.28
190.509	83.28
190.729	73.04
190.948	-2.73
191.168	224.59
191.387	42.32
191.607	3.41
191.826	36.18
192.045	48.47
192.265	58.71
192.484	-8.87
192.704	21.85
192.923	-62.12
193.142	128.34
193.362	23.89
193.581	34.13
193.8	-6.83
194.02	111.96
194.239	-37.55
194.458	-8.87
194.678	38.23
194.897	1.37
195.116	25.94
195.335	15.7
195.555	13.65
195.774	13.65
195.993	42.32
196.212	83.28
196.432	-19.11
196.651	40.28
196.87	25.94
197.089	124.24
197.308	105.81
197.528	93.52
197.747	23.89
197.966	36.18
198.185	79.19
198.404	-58.03
198.623	9.56
198.842	36.18
199.062	75.09
199.281	62.8
199.5	-17.07
199.719	75.09
199.938	95.57
200.157	50.52
200.376	-2.73
200.595	46.42
200.814	-15.02
201.033	30.04
201.252	34.13
201.471	-35.5
201.69	101.72
201.909	17.75
202.128	44.37
202.347	30.04
202.566	30.04
202.785	36.18
203.004	-12.97
203.223	138.58
203.442	27.99
203.661	27.99
203.879	19.8
204.098	21.85
204.317	7.51
204.536	99.67
204.755	36.18
204.974	38.23
205.193	30.04
205.411	30.04
205.63	36.18
205.849	-2.73
206.068	19.8
206.287	-51.88
206.505	83.28
206.724	-31.4
206.943	23.89
207.162	23.89
207.381	81.24
207.599	1.37
207.818	1.37
208.037	-4.78
208.255	9.56
208.474	46.42
208.693	-37.55
208.911	25.94
209.13	-49.83
209.349	40.28
209.567	-6.83
209.786	107.86
210.005	27.99
210.223	48.47
210.442	-88.75
210.661	36.18
210.879	-17.07
211.098	85.33
211.316	17.75
211.535	-21.16
211.753	5.46
211.972	36.18
212.191	-31.4
212.409	-35.5
212.628	58.71
212.846	11.61
213.065	50.52
213.283	157.01
213.502	75.09
213.72	5.46
213.938	38.23
214.157	42.32
214.375	-39.59
214.594	-15.02
214.812	21.85
215.031	-4.78
215.249	21.85
215.467	-0.68
215.686	15.7
215.904	48.47
216.122	46.42
216.341	99.67
216.559	58.71
216.778	93.52
216.996	118.1
217.214	58.71
217.432	46.42
217.651	1.37
217.869	-51.88
218.087	50.52
218.306	-27.31
218.524	44.37
218.742	27.99
218.96	79.19
219.179	-6.83
219.397	5.46
219.615	68.95
219.833	54.61
220.051	9.56
220.27	62.8
220.488	-19.11
220.706	36.18
220.924	58.71
221.142	9.56
221.36	46.42
221.578	21.85
221.796	13.65
222.015	-10.92
222.233	-4.78
222.451	91.48
222.669	50.52
222.887	34.13
223.105	-23.21
223.323	56.66
223.541	1.37
223.759	75.09
223.977	38.23
224.195	99.67
224.413	27.99
224.631	32.08
224.849	23.89
225.067	114
225.285	-29.35
225.503	-90.79
225.721	-43.69
225.939	-23.21
226.157	-41.64
226.375	152.91
226.592	-29.35
226.81	1.37
227.028	91.48
227.246	52.56
227.464	27.99
227.682	42.32
227.9	71
228.117	-6.83
228.335	-6.83
228.553	44.37
228.771	77.14
228.989	62.8
229.206	17.75
229.424	-27.31
229.642	-41.64
229.86	21.85
230.077	83.28
230.295	7.51
230.513	58.71
230.731	42.32
230.948	91.48
231.166	68.95
231.384	25.94
231.601	3.41
231.819	89.43
232.037	48.47
232.254	-127.66
232.472	-29.35
232.689	77.14
232.907	-6.83
233.125	7.51
233.342	-8.87
233.56	46.42
233.777	-49.83
233.995	54.61
234.213	73.04
234.43	50.52
234.648	9.56
234.865	46.42
235.083	95.57
235.3	54.61
235.518	-15.02
235.735	85.33
235.953	58.71
236.17	56.66
236.388	9.56
236.605	107.86
236.822	68.95
237.04	-10.92
237.257	73.04
237.475	-15.02
237.692	-12.97
237.909	71
238.127	-0.68
238.344	32.08
238.562	68.95
238.779	13.65
238.996	-10.92
239.214	21.85
239.431	64.85
239.648	32.08
239.865	30.04
240.083	48.47
240.3	66.9
240.517	3.41
240.735	-15.02
240.952	68.95
241.169	62.8
241.386	48.47
241.603	25.94
241.821	-27.31
242.038	17.75
242.255	52.56
242.472	58.71
242.689	52.56
242.907	52.56
243.124	-0.68
243.341	27.99
243.558	-10.92
243.775	-27.31
243.992	11.61
244.209	9.56
244.426	130.39
244.643	-4.78
244.86	-23.21
245.078	-21.16
245.295	-19.11
245.512	-51.88
245.729	-15.02
245.946	-21.16
246.163	-4.78
246.38	58.71
246.597	114
246.814	27.99
247.031	25.94
247.248	-45.74
247.464	44.37
247.681	23.89
247.898	11.61
248.115	89.43
248.332	-111.27
248.549	62.8
248.766	58.71
248.983	118.1
249.2	85.33
249.417	116.05
249.633	-29.35
249.85	60.76
250.067	25.94
250.284	34.13
250.501	36.18
250.717	34.13
250.934	19.8
251.151	13.65
251.368	-31.4
251.585	-23.21
251.801	-6.83
252.018	-55.98
252.235	30.04
252.451	38.23
252.668	-90.79
252.885	-17.07
253.102	60.76
253.318	3.41
253.535	-6.83
253.752	-19.11
253.968	19.8
254.185	15.7
254.401	-23.21
254.618	38.23
254.835	1.37
255.051	83.28
255.268	81.24
255.484	-35.5
255.701	62.8
255.917	25.94
256.134	42.32
256.351	-58.03
256.567	5.46
256.784	9.56
257	17.75
257.217	-6.83
257.433	85.33
257.65	19.8
257.866	107.86
258.082	-17.07
258.299	17.75
258.515	1.37
258.732	-23.21
258.948	-37.55
259.165	-51.88
259.381	-10.92
259.597	-10.92
259.814	30.04
260.03	38.23
260.246	9.56
260.463	-2.73
260.679	21.85
260.895	3.41
261.112	87.38
261.328	34.13
261.544	-15.02
261.761	154.96
261.977	-64.17
262.193	-45.74
262.409	23.89
262.626	93.52
262.842	-31.4
263.058	44.37
263.274	81.24
263.49	91.48
263.707	52.56
263.923	75.09
264.139	30.04
264.355	19.8
264.571	23.89
264.787	30.04
265.004	144.72
265.22	52.56
265.436	68.95
265.652	-8.87
265.868	-25.26
266.084	-53.93
266.3	81.24
266.516	19.8
266.732	1.37
266.948	15.7
267.164	17.75
267.38	48.47
267.596	19.8
267.812	85.33
268.028	97.62
268.244	34.13
268.46	91.48
268.676	-35.5
268.892	-23.21
269.108	-4.78
269.324	-23.21
269.54	25.94
269.756	48.47
269.972	-45.74
270.188	27.99
270.403	-0.68
270.619	1.37
270.835	17.75
271.051	62.8
271.267	-2.73
271.483	-2.73
271.698	38.23
271.914	-27.31
272.13	-8.87
272.346	-6.83
272.562	34.13
272.777	103.76
272.993	-21.16
273.209	-4.78
273.425	50.52
273.64	13.65
273.856	58.71
274.072	7.51
274.287	-37.55
274.503	19.8
274.719	27.99
274.934	1.37
275.15	9.56
275.366	13.65
275.581	-8.87
275.797	-8.87
276.012	68.95
276.228	54.61
276.444	-31.4
276.659	105.81
276.875	-15.02
277.09	13.65
277.306	25.94
277.521	56.66
277.737	111.96
277.952	36.18
278.168	66.9
278.383	40.28
278.599	3.41
278.814	56.66
279.03	116.05
279.245	52.56
279.461	-72.36
279.676	71
279.892	-29.35
280.107	5.46
280.322	-47.79
280.538	-0.68
280.753	-6.83
280.969	19.8
281.184	-19.11
281.399	13.65
281.615	17.75
281.83	-35.5
282.045	-41.64
282.26	-29.35
282.476	23.89
282.691	38.23
282.906	111.96
283.122	-4.78
283.337	27.99
283.552	75.09
283.767	97.62
283.983	32.08
284.198	9.56
284.413	-10.92
284.628	38.23
284.843	62.8
285.058	140.63
285.274	3.41
285.489	-31.4
285.704	136.53
285.919	30.04
286.134	73.04
286.349	50.52
286.564	-10.92
286.779	58.71
286.995	-35.5
287.21	-29.35
287.425	91.48
287.64	-39.59
287.855	42.32
288.07	-129.7
288.285	5.46
288.5	103.76
288.715	73.04
288.93	23.89
289.145	-29.35
289.36	120.15
289.575	-15.02
289.79	46.42
290.004	-17.07
290.219	42.32
290.434	62.8
290.649	85.33
290.864	-15.02
291.079	17.75
291.294	40.28
291.509	71
291.724	48.47
291.938	30.04
292.153	1.37
292.368	-15.02
292.583	95.57
292.798	62.8
293.012	7.51
293.227	60.76
293.442	75.09
293.657	48.47
293.871	32.08
294.086	5.46
294.301	83.28
294.516	73.04
294.73	13.65
294.945	-12.97
295.16	34.13
295.374	-2.73
295.589	5.46
295.804	-51.88
296.018	15.7
296.233	109.91
296.447	9.56
296.662	-15.02
296.877	75.09
297.091	23.89
297.306	3.41
297.52	-19.11
297.735	105.81
297.949	-51.88
298.164	17.75
298.378	-66.22
298.593	-31.4
298.807	42.32
299.022	-12.97
299.236	103.76
299.451	3.41
299.665	11.61
299.88	-2.73
300.094	-4.78
300.309	50.52
300.523	5.46
300.737	-39.59
300.952	5.46
301.166	7.51
301.381	-53.93
301.595	19.8
301.809	52.56
302.024	-47.79
302.238	-17.07
302.452	58.71
302.667	34.13
302.881	140.63
303.095	15.7
303.309	34.13
303.524	13.65
303.738	95.57
303.952	-29.35
304.166	93.52
304.381	-68.27
304.595	25.94
304.809	46.42
305.023	85.33
305.237	-12.97
305.452	-10.92
305.666	52.56
305.88	68.95
306.094	3.41
306.308	27.99
306.522	60.76
306.736	34.13
306.95	5.46
307.164	23.89
307.379	50.52
307.593	138.58
307.807	75.09
308.021	-12.97
308.235	42.32
308.449	-15.02
308.663	-6.83
308.877	175.44
309.091	9.56
309.305	52.56
309.519	3.41
309.733	81.24
309.947	5.46
310.161	52.56
310.374	73.04
310.588	38.23
310.802	-29.35
311.016	54.61
311.23	50.52
311.444	3.41
311.658	25.94
311.872	66.9
312.085	159.06
312.299	101.72
312.513	114
312.727	-29.35
312.941	-60.07
313.154	60.76
313.368	-21.16
313.582	93.52
313.796	-25.26
314.009	9.56
314.223	1.37
314.437	9.56
314.651	99.67
314.864	17.75
315.078	-15.02
315.292	21.85
315.505	-6.83
315.719	25.94
315.933	-6.83
316.146	19.8
316.36	-4.78
316.573	34.13
316.787	-0.68
317.001	-29.35
317.214	-45.74
317.428	75.09
317.641	46.42
317.855	9.56
318.068	34.13
318.282	7.51
318.495	34.13
318.709	-39.59
318.922	21.85
319.136	83.28
319.349	116.05
319.563	30.04
319.776	73.04
319.99	-43.69
320.203	68.95
320.417	85.33
320.63	77.14
320.843	175.44
321.057	40.28
321.27	38.23
321.483	60.76
321.697	58.71
321.91	13.65
322.124	13.65
322.337	91.48
322.55	66.9
322.763	56.66
322.977	91.48
323.19	-27.31
323.403	-19.11
323.617	83.28
323.83	64.85
324.043	3.41
324.256	-33.45
324.469	-33.45
324.683	48.47
324.896	-41.64
325.109	85.33
325.322	-35.5
325.535	60.76
325.748	58.71
325.962	30.04
326.175	30.04
326.388	-2.73
326.601	116.05
326.814	15.7
327.027	1.37
327.24	71
327.453	-15.02
327.666	19.8
327.879	34.13
328.092	15.7
328.305	-25.26
328.518	-10.92
328.731	-31.4
328.944	56.66
329.157	54.61
329.37	-2.73
329.583	34.13
329.796	116.05
330.009	9.56
330.222	32.08
330.435	-29.35
330.648	11.61
330.861	-8.87
331.073	-17.07
331.286	66.9
331.499	32.08
331.712	42.32
331.925	-4.78
332.138	-6.83
332.35	126.29
332.563	36.18
332.776	52.56
332.989	9.56
333.202	30.04
333.414	-39.59
333.627	5.46
333.84	9.56
334.053	46.42
334.265	27.99
334.478	-21.16
334.691	5.46
334.903	77.14
335.116	23.89
335.329	-15.02
335.541	25.94
335.754	101.72
335.966	-2.73
336.179	83.28
336.392	-86.7
336.604	56.66
336.817	103.76
337.029	77.14
337.242	21.85
337.454	23.89
337.667	77.14
337.88	118.1
338.092	21.85
338.305	-2.73
338.517	-6.83
338.729	21.85
338.942	52.56
339.154	-21.16
339.367	5.46
339.579	-4.78
339.792	34.13
340.004	17.75
340.217	79.19
340.429	11.61
340.641	15.7
340.854	54.61
341.066	-15.02
341.278	99.67
341.491	1.37
341.703	68.95
341.915	23.89
342.128	66.9
342.34	15.7
342.552	-8.87
342.764	95.57
342.977	7.51
343.189	13.65
343.401	64.85
343.613	3.41
343.826	56.66
344.038	5.46
344.25	-12.97
344.462	-51.88
344.674	68.95
344.886	36.18
345.099	62.8
345.311	77.14
345.523	44.37
345.735	-80.55
345.947	38.23
346.159	58.71
346.371	44.37
346.583	-19.11
346.795	99.67
347.007	79.19
347.219	-0.68
347.431	-8.87
347.643	79.19
347.855	1.37
348.067	9.56
348.279	-4.78
348.491	42.32
348.703	34.13
348.915	46.42
349.127	3.41
349.339	-23.21
349.551	19.8
349.763	87.38
349.975	-0.68
350.187	99.67
350.399	23.89
350.61	50.52
350.822	25.94
351.034	-21.16
351.246	36.18
351.458	5.46
351.669	79.19
351.881	60.76
352.093	60.76
352.305	62.8
352.517	38.23
352.728	152.91
352.94	-23.21
353.152	58.71
353.363	-35.5
353.575	56.66
353.787	34.13
353.999	79.19
354.21	93.52
354.422	25.94
354.633	-4.78
354.845	62.8
355.057	32.08
355.268	19.8
355.48	60.76
355.692	34.13
355.903	-27.31
356.115	-2.73
356.326	11.61
356.538	89.43
356.749	87.38
356.961	159.06
357.172	-35.5
357.384	-29.35
357.595	132.44
357.807	17.75
358.018	5.46
358.23	-17.07
358.441	163.15
358.653	32.08
358.864	46.42
359.075	17.75
359.287	13.65
359.498	87.38
359.709	3.41
359.921	42.32
360.132	27.99
360.344	54.61
360.555	97.62
360.766	50.52
360.977	13.65
361.189	68.95
361.4	36.18
361.611	95.57
361.823	144.72
362.034	19.8
362.245	9.56
362.456	15.7
362.667	60.76
362.879	17.75
363.09	62.8
363.301	38.23
363.512	23.89
363.723	25.94
363.935	48.47
364.146	23.89
364.357	-41.64
364.568	75.09
364.779	38.23
364.99	87.38
365.201	-19.11
365.412	101.72
365.623	-4.78
365.834	27.99
366.045	77.14
366.256	36.18
366.467	-33.45
366.678	46.42
366.889	52.56
367.1	19.8
367.311	30.04
367.522	87.38
367.733	56.66
367.944	25.94
368.155	1.37
368.366	75.09
368.577	21.85
368.788	42.32
368.999	32.08
369.209	25.94
369.42	66.9
369.631	214.35
369.842	75.09
370.053	32.08
370.264	87.38
370.474	62.8
370.685	-6.83
370.896	9.56
371.107	66.9
371.317	54.61
371.528	-15.02
371.739	46.42
371.95	91.48
372.16	68.95
372.371	87.38
372.582	13.65
372.792	77.14
373.003	44.37
373.214	3.41
373.424	89.43
373.635	11.61
373.846	116.05
374.056	34.13
374.267	140.63
374.477	52.56
374.688	50.52
374.898	34.13
375.109	-0.68
375.319	124.24
375.53	107.86
375.74	58.71
375.951	-17.07
376.161	66.9
376.372	77.14
376.582	-31.4
376.793	48.47
377.003	62.8
377.214	21.85
377.424	93.52
377.635	64.85
377.845	-17.07
378.055	124.24
378.266	62.8
378.476	9.56
378.686	60.76
378.897	23.89
379.107	52.56
379.317	73.04
379.528	25.94
379.738	105.81
379.948	-4.78
380.158	11.61
380.369	68.95
380.579	75.09
380.789	38.23
380.999	93.52
381.21	15.7
381.42	68.95
381.63	-6.83
381.84	32.08
382.05	54.61
382.261	64.85
382.471	73.04
382.681	-31.4
382.891	66.9
383.101	62.8
383.311	-12.97
383.521	-19.11
383.731	140.63
383.941	-19.11
384.151	21.85
384.361	99.67
384.571	52.56
384.781	99.67
384.991	136.53
385.201	124.24
385.411	75.09
385.621	19.8
385.831	58.71
386.041	27.99
386.251	-25.26
386.461	50.52
386.671	44.37
386.881	95.57
387.091	-0.68
387.301	91.48
387.511	-25.26
387.72	77.14
387.93	58.71
388.14	-35.5
388.35	68.95
388.56	71
388.769	87.38
388.979	52.56
389.189	-45.74
389.399	83.28
389.609	56.66
389.818	89.43
390.028	21.85
390.238	34.13
390.447	-12.97
390.657	50.52
390.867	52.56
391.076	30.04
391.286	95.57
391.496	46.42
391.705	11.61
391.915	81.24
392.125	128.34
392.334	50.52
392.544	91.48
392.753	27.99
392.963	19.8
393.172	91.48
393.382	36.18
393.591	128.34
393.801	19.8
394.01	148.82
394.22	77.14
394.429	71
394.639	91.48
394.848	32.08
395.058	54.61
395.267	103.76
395.477	118.1
395.686	68.95
395.895	66.9
396.105	120.15
396.314	89.43
396.524	111.96
396.733	42.32
396.942	52.56
397.152	42.32
397.361	181.59
397.57	118.1
397.78	36.18
397.989	97.62
398.198	126.29
398.407	124.24
398.617	107.86
398.826	32.08
399.035	5.46
399.244	101.72
399.453	116.05
399.663	75.09
399.872	181.59
400.081	-17.07
400.29	116.05
400.499	97.62
400.708	140.63
400.917	79.19
401.127	95.57
401.336	73.04
401.545	126.29
401.754	114
401.963	134.48
402.172	93.52
402.381	91.48
402.59	68.95
402.799	101.72
403.008	116.05
403.217	107.86
403.426	157.01
403.635	38.23
403.844	189.78
404.053	206.16
404.262	95.57
404.471	240.98
404.68	134.48
404.888	81.24
405.097	124.24
405.306	89.43
405.515	169.3
405.724	144.72
405.933	183.63
406.142	200.02
406.35	228.69
406.559	183.63
406.768	132.44
406.977	275.79
407.185	210.26
407.394	245.07
407.603	202.07
407.812	243.03
408.02	189.78
408.229	251.22
408.438	183.63
408.646	157.01
408.855	288.08
409.064	296.27
409.272	234.83
409.481	230.74
409.69	298.32
409.898	122.2
410.107	286.03
410.315	365.9
410.524	292.18
410.733	306.51
410.941	236.88
411.15	339.28
411.358	333.14
411.567	482.64
411.775	429.39
411.984	386.38
412.192	443.73
412.401	400.72
412.609	525.65
412.818	517.45
413.026	451.92
413.234	554.32
413.443	490.83
413.651	570.7
413.86	505.17
414.068	662.86
414.276	683.34
414.485	585.04
414.693	605.52
414.901	634.19
415.11	626
415.318	693.58
415.526	716.11
415.734	755.02
415.943	791.88
416.151	779.59
416.359	830.79
416.567	826.7
416.776	871.75
416.984	910.66
417.192	957.77
417.4	918.86
417.608	800.07
417.817	982.34
418.025	1193.28
418.233	1129.8
418.441	1109.32
418.649	1181
418.857	1228.1
419.065	1242.43
419.273	1246.53
419.481	1336.64
419.689	1318.21
419.897	1393.98
420.105	1549.63
420.313	1428.8
420.521	1598.78
420.729	1494.33
420.937	1627.45
421.145	1692.99
421.353	1893.69
421.561	1862.97
421.769	2008.37
421.977	2032.95
422.185	1850.68
422.393	2110.77
422.601	2327.86
422.809	2198.84
423.017	2094.39
423.224	2436.4
423.432	2452.78
423.64	2522.41
423.848	2678.06
424.056	2630.96
424.263	2719.02
424.471	2839.85
424.679	2975.02
424.887	2962.73
425.094	3120.42
425.302	3218.72
425.51	3265.83
425.718	3403.04
425.925	3427.62
426.133	3581.21
426.341	3687.71
426.548	3974.42
426.756	3808.54
426.964	3935.51
427.171	4070.68
427.379	4205.85
427.586	4347.15
427.794	4490.51
428.001	4654.35
428.209	4949.26
428.417	4867.34
428.624	5129.48
428.832	5137.67
429.039	4959.5
429.247	5182.73
429.454	5604.61
429.662	6071.54
429.869	5612.8
430.076	5954.81
430.284	5633.28
430.491	6171.9
430.699	6356.21
430.906	6403.32
431.114	6513.91
431.321	6753.52
431.528	6878.44
431.736	7214.31
431.943	7550.18
432.15	7331.05
432.358	7472.36
432.565	7922.91
432.772	7822.56
432.979	8303.83
433.187	8439
433.394	8283.35
433.601	8985.8
433.808	9233.61
434.016	9116.87
434.223	9481.41
434.43	10095.8
434.637	9761.98
434.844	10388.66
435.052	10572.98
435.259	10413.24
435.466	10658.99
435.673	10583.22
435.88	11193.51
436.087	11883.68
436.294	11762.85
436.501	11539.62
436.708	11949.22
436.915	12166.3
437.122	12661.91
437.329	12848.27
437.537	13161.61
437.743	13388.94
437.95	13460.62
438.157	14199.93
438.364	14333.05
438.571	14222.46
438.778	14470.26
438.985	15903.84
439.192	15311.98
439.399	15754.34
439.606	15434.86
439.813	16282.72
440.02	17443.92
440.227	17048.66
440.433	16870.48
440.64	17167.44
440.847	17265.74
441.054	17802.31
441.261	18893.88
441.467	18738.23
441.674	19043.38
441.881	19725.35
442.088	19563.56
442.294	19559.47
442.501	19967.01
442.708	20390.94
442.914	21027.86
443.121	21978.12
443.328	21556.24
443.534	22989.81
443.741	22336.51
443.948	21922.82
444.154	23692.27
444.361	23712.75
444.568	23641.07
444.774	23888.87
444.981	23806.95
445.187	24957.91
445.394	25768.91
445.6	25457.62
445.807	27837.36
446.013	26768.32
446.22	27245.49
446.426	28330.92
446.633	28470.18
446.839	29639.57
447.046	28220.33
447.252	29768.59
447.459	30116.75
447.665	29764.5
447.871	30978.94
448.078	32539.49
448.284	31024
448.491	32025.45
448.697	33243.99
448.903	33649.49
449.11	33864.53
449.316	33274.71
449.522	33825.62
449.728	35216.19
449.935	35074.88
450.141	35169.08
450.347	35887.92
450.553	34788.16
450.76	35593.01
450.966	36457.26
451.172	35996.46
451.378	36844.32
451.584	36002.61
451.791	37184.29
451.997	36698.92
452.203	37724.95
452.409	38079.25
452.615	37772.05
452.821	36383.53
453.027	35963.7
453.233	37944.08
453.44	36442.92
453.646	36543.27
453.852	36946.72
454.058	37806.87
454.264	36367.15
454.47	37581.59
454.676	36344.62
454.882	37788.44
455.088	34327.37
455.294	35025.73
455.5	35328.83
455.705	35840.82
455.911	34331.47
456.117	33913.68
456.323	33211.23
456.529	31572.85
456.735	32791.39
456.941	32160.62
457.147	31689.59
457.352	30774.14
457.558	30286.73
457.764	30753.66
457.97	29957
458.176	29340.57
458.381	29272.98
458.587	28027.82
458.793	27706.29
458.999	26522.56
459.204	28625.82
459.41	27513.78
459.616	25877.45
459.821	25740.24
460.027	25838.54
460.233	25422.8
460.438	23790.57
460.644	23950.31
460.85	23106.55
461.055	22660.09
461.261	22469.63
461.466	21013.52
461.672	20227.1
461.878	21881.86
462.083	20284.45
462.289	19848.23
462.494	19858.47
462.7	18908.21
462.905	18166.85
463.111	19022.9
463.316	18969.65
463.522	18750.52
463.727	18670.65
463.932	18570.3
464.138	18170.94
464.343	18697.27
464.549	17873.99
464.754	18607.16
464.959	18537.53
465.165	18328.64
465.37	17525.83
465.575	16974.93
465.781	17667.14
465.986	17673.29
466.191	17163.34
466.397	16704.6
466.602	15932.51
466.807	16618.58
467.012	16653.4
467.218	16512.09
467.423	16409.69
