Data from USB4F104151__40__13-05-15-285.txt Node

Date: Fri Mar 14 13:05:15 EDT 2025
User: louis
Spectrometer: USB4F10415
Trigger mode: 4
Integration Time (sec): 4.000000E-2
Scans to average: 1
Electric dark correction enabled: true
Nonlinearity correction enabled: false
Boxcar width: 0
XAxis mode: Wavelengths
Number of Pixels in Spectrum: 3648
>>>>>Begin Spectral Data<<<<<
178.204	-139.77
178.424	-139.77
178.644	-139.77
178.864	-197.12
179.084	-158.21
179.304	7.68
179.524	-41.47
179.744	-41.47
179.964	58.88
180.184	-37.38
180.404	30.21
180.624	-35.33
180.844	42.5
181.064	-90.62
181.283	56.83
181.503	17.92
181.723	32.26
181.943	5.63
182.163	40.45
182.383	40.45
182.602	69.12
182.822	95.74
183.042	62.98
183.262	42.5
183.482	34.3
183.701	19.97
183.921	26.11
184.141	-0.51
184.361	95.74
184.58	60.93
184.8	-57.86
185.02	44.54
185.239	91.65
185.459	-8.7
185.679	65.02
185.898	-43.52
186.118	136.7
186.338	50.69
186.557	44.54
186.777	28.16
186.997	56.83
187.216	-23.04
187.436	196.09
187.655	19.97
187.875	26.11
188.095	48.64
188.314	52.74
188.534	146.94
188.753	42.5
188.973	75.26
189.192	52.74
189.412	38.4
189.631	85.5
189.851	85.5
190.07	32.26
190.29	73.21
190.509	-10.75
190.729	103.93
190.948	75.26
191.168	196.09
191.387	56.83
191.607	-27.14
191.826	48.64
192.045	22.02
192.265	48.64
192.484	97.79
192.704	-45.57
192.923	7.68
193.142	157.18
193.362	1.54
193.581	144.89
193.8	13.82
194.02	40.45
194.239	52.74
194.458	-14.85
194.678	52.74
194.897	52.74
195.116	-4.61
195.335	44.54
195.555	52.74
195.774	-14.85
195.993	65.02
196.212	24.06
196.432	13.82
196.651	24.06
196.87	5.63
197.089	194.05
197.308	36.35
197.528	71.17
197.747	-8.7
197.966	-4.61
198.185	34.3
198.404	34.3
198.623	69.12
198.842	81.41
199.062	67.07
199.281	101.89
199.5	97.79
199.719	32.26
199.938	60.93
200.157	32.26
200.376	48.64
200.595	97.79
200.814	50.69
201.033	56.83
201.252	44.54
201.471	-47.62
201.69	101.89
201.909	122.37
202.128	99.84
202.347	81.41
202.566	26.11
202.785	65.02
203.004	1.54
203.223	65.02
203.442	153.09
203.661	-14.85
203.879	-49.66
204.098	28.16
204.317	1.54
204.536	34.3
204.755	40.45
204.974	79.36
205.193	26.11
205.411	101.89
205.63	42.5
205.849	97.79
206.068	60.93
206.287	-0.51
206.505	126.46
206.724	114.17
206.943	24.06
207.162	58.88
207.381	69.12
207.599	126.46
207.818	32.26
208.037	-39.42
208.255	50.69
208.474	116.22
208.693	60.93
208.911	42.5
209.13	36.35
209.349	93.69
209.567	105.98
209.786	81.41
210.005	81.41
210.223	56.83
210.442	17.92
210.661	-12.8
210.879	110.08
211.098	-64
211.316	77.31
211.535	36.35
211.753	42.5
211.972	15.87
212.191	28.16
212.409	48.64
212.628	40.45
212.846	17.92
213.065	110.08
213.283	73.21
213.502	71.17
213.72	48.64
213.938	42.5
214.157	93.69
214.375	26.11
214.594	-37.38
214.812	114.17
215.031	60.93
215.249	-12.8
215.467	28.16
215.686	28.16
215.904	99.84
216.122	36.35
216.341	34.3
216.559	7.68
216.778	54.78
216.996	91.65
217.214	-41.47
217.432	32.26
217.651	-57.86
217.869	40.45
218.087	81.41
218.306	1.54
218.524	17.92
218.742	85.5
218.96	17.92
219.179	48.64
219.397	60.93
219.615	91.65
219.833	52.74
220.051	34.3
220.27	75.26
220.488	58.88
220.706	24.06
220.924	-10.75
221.142	54.78
221.36	46.59
221.578	26.11
221.796	-23.04
222.015	60.93
222.233	19.97
222.451	75.26
222.669	-0.51
222.887	65.02
223.105	69.12
223.323	-4.61
223.541	-4.61
223.759	28.16
223.977	-10.75
224.195	130.56
224.413	112.13
224.631	28.16
224.849	17.92
225.067	120.32
225.285	-25.09
225.503	97.79
225.721	11.78
225.939	19.97
226.157	-10.75
226.375	198.14
226.592	34.3
226.81	-12.8
227.028	105.98
227.246	73.21
227.464	50.69
227.682	56.83
227.9	65.02
228.117	108.03
228.335	75.26
228.553	62.98
228.771	52.74
228.989	83.45
229.206	46.59
229.424	101.89
229.642	24.06
229.86	-41.47
230.077	36.35
230.295	69.12
230.513	110.08
230.731	77.31
230.948	171.52
231.166	136.7
231.384	3.58
231.601	52.74
231.819	71.17
232.037	-49.66
232.254	-4.61
232.472	-20.99
232.689	-14.85
232.907	42.5
233.125	-0.51
233.342	19.97
233.56	-8.7
233.777	42.5
233.995	34.3
234.213	26.11
234.43	-12.8
234.648	-39.42
234.865	95.74
235.083	67.07
235.3	-8.7
235.518	110.08
235.735	65.02
235.953	87.55
236.17	81.41
236.388	73.21
236.605	58.88
236.822	91.65
237.04	85.5
237.257	26.11
237.475	-27.14
237.692	7.68
237.909	-12.8
238.127	44.54
238.344	-20.99
238.562	52.74
238.779	26.11
238.996	-49.66
239.214	-4.61
239.431	122.37
239.648	97.79
239.865	38.4
240.083	81.41
240.3	9.73
240.517	44.54
240.735	17.92
240.952	44.54
241.169	81.41
241.386	83.45
241.603	24.06
241.821	-64
242.038	67.07
242.255	81.41
242.472	9.73
242.689	81.41
242.907	89.6
243.124	91.65
243.341	26.11
243.558	48.64
243.775	-53.76
243.992	-37.38
244.209	42.5
244.426	179.71
244.643	85.5
244.86	28.16
245.078	62.98
245.295	67.07
245.512	28.16
245.729	54.78
245.946	60.93
246.163	148.99
246.38	42.5
246.597	67.07
246.814	-2.56
247.031	44.54
247.248	48.64
247.464	24.06
247.681	151.04
247.898	65.02
248.115	-23.04
248.332	-20.99
248.549	148.99
248.766	52.74
248.983	62.98
249.2	5.63
249.417	24.06
249.633	-10.75
249.85	89.6
250.067	-4.61
250.284	54.78
250.501	69.12
250.717	93.69
250.934	-43.52
251.151	17.92
251.368	75.26
251.585	40.45
251.801	26.11
252.018	-37.38
252.235	134.65
252.451	-16.9
252.668	81.41
252.885	30.21
253.102	-18.94
253.318	50.69
253.535	38.4
253.752	-16.9
253.968	71.17
254.185	-49.66
254.401	48.64
254.618	85.5
254.835	11.78
255.051	130.56
255.268	40.45
255.484	65.02
255.701	32.26
255.917	83.45
256.134	71.17
256.351	105.98
256.567	34.3
256.784	22.02
257	-6.66
257.217	75.26
257.433	32.26
257.65	65.02
257.866	60.93
258.082	13.82
258.299	32.26
258.515	11.78
258.732	97.79
258.948	-61.95
259.165	62.98
259.381	1.54
259.597	-27.14
259.814	40.45
260.03	40.45
260.246	22.02
260.463	83.45
260.679	17.92
260.895	44.54
261.112	97.79
261.328	77.31
261.544	32.26
261.761	120.32
261.977	24.06
262.193	-10.75
262.409	56.83
262.626	65.02
262.842	38.4
263.058	9.73
263.274	122.37
263.49	65.02
263.707	136.7
263.923	-16.9
264.139	3.58
264.355	24.06
264.571	44.54
264.787	60.93
265.004	73.21
265.22	-6.66
265.436	36.35
265.652	19.97
265.868	-23.04
266.084	79.36
266.3	17.92
266.516	9.73
266.732	34.3
266.948	26.11
267.164	-27.14
267.38	56.83
267.596	65.02
267.812	62.98
268.028	7.68
268.244	48.64
268.46	3.58
268.676	40.45
268.892	48.64
269.108	65.02
269.324	7.68
269.54	32.26
269.756	81.41
269.972	-82.43
270.188	-31.23
270.403	19.97
270.619	36.35
270.835	116.22
271.051	17.92
271.267	32.26
271.483	15.87
271.698	69.12
271.914	28.16
272.13	-16.9
272.346	118.27
272.562	30.21
272.777	65.02
272.993	-8.7
273.209	73.21
273.425	32.26
273.64	-2.56
273.856	87.55
274.072	-0.51
274.287	26.11
274.503	40.45
274.719	116.22
274.934	32.26
275.15	65.02
275.366	42.5
275.581	52.74
275.797	83.45
276.012	89.6
276.228	50.69
276.444	-6.66
276.659	-16.9
276.875	-66.05
277.09	105.98
277.306	32.26
277.521	112.13
277.737	7.68
277.952	91.65
278.168	71.17
278.383	1.54
278.599	15.87
278.814	81.41
279.03	15.87
279.245	67.07
279.461	101.89
279.676	130.56
279.892	-41.47
280.107	-16.9
280.322	-59.9
280.538	3.58
280.753	28.16
280.969	73.21
281.184	52.74
281.399	56.83
281.615	17.92
281.83	34.3
282.045	36.35
282.26	24.06
282.476	-31.23
282.691	122.37
282.906	13.82
283.122	97.79
283.337	-4.61
283.552	142.85
283.767	71.17
283.983	89.6
284.198	71.17
284.413	110.08
284.628	32.26
284.843	34.3
285.058	48.64
285.274	60.93
285.489	5.63
285.704	65.02
285.919	108.03
286.134	50.69
286.349	40.45
286.564	13.82
286.779	105.98
286.995	7.68
287.21	-39.42
287.425	30.21
287.64	13.82
287.855	146.94
288.07	-23.04
288.285	67.07
288.5	24.06
288.715	118.27
288.93	26.11
289.145	-10.75
289.36	87.55
289.575	-16.9
289.79	42.5
290.004	58.88
290.219	5.63
290.434	19.97
290.649	19.97
290.864	56.83
291.079	146.94
291.294	36.35
291.509	54.78
291.724	24.06
291.938	44.54
292.153	69.12
292.368	93.69
292.583	54.78
292.798	77.31
293.012	-6.66
293.227	-35.33
293.442	81.41
293.657	40.45
293.871	181.76
294.086	32.26
294.301	105.98
294.516	65.02
294.73	87.55
294.945	34.3
295.16	48.64
295.374	54.78
295.589	124.41
295.804	73.21
296.018	-6.66
296.233	108.03
296.447	71.17
296.662	11.78
296.877	42.5
297.091	85.5
297.306	13.82
297.52	-25.09
297.735	103.93
297.949	5.63
298.164	124.41
298.378	26.11
298.593	-37.38
298.807	60.93
299.022	34.3
299.236	65.02
299.451	87.55
299.665	17.92
299.88	73.21
300.094	9.73
300.309	40.45
300.523	-6.66
300.737	48.64
300.952	65.02
301.166	52.74
301.381	-10.75
301.595	-8.7
301.809	48.64
302.024	-0.51
302.238	28.16
302.452	93.69
302.667	60.93
302.881	46.59
303.095	105.98
303.309	73.21
303.524	38.4
303.738	56.83
303.952	-61.95
304.166	-72.19
304.381	-12.8
304.595	116.22
304.809	13.82
305.023	9.73
305.237	75.26
305.452	89.6
305.666	26.11
305.88	97.79
306.094	67.07
306.308	65.02
306.522	105.98
306.736	122.37
306.95	58.88
307.164	-4.61
307.379	3.58
307.593	130.56
307.807	40.45
308.021	108.03
308.235	91.65
308.449	34.3
308.663	38.4
308.877	159.23
309.091	93.69
309.305	44.54
309.519	28.16
309.733	120.32
309.947	-6.66
310.161	42.5
310.374	34.3
310.588	83.45
310.802	28.16
311.016	65.02
311.23	54.78
311.444	-37.38
311.658	9.73
311.872	134.65
312.085	65.02
312.299	48.64
312.513	73.21
312.727	26.11
312.941	32.26
313.154	38.4
313.368	52.74
313.582	118.27
313.796	7.68
314.009	65.02
314.223	77.31
314.437	101.89
314.651	56.83
314.864	13.82
315.078	67.07
315.292	-16.9
315.505	-29.18
315.719	65.02
315.933	36.35
316.146	24.06
316.36	32.26
316.573	7.68
316.787	44.54
317.001	67.07
317.214	26.11
317.428	91.65
317.641	-33.28
317.855	5.63
318.068	48.64
318.282	-4.61
318.495	32.26
318.709	67.07
318.922	60.93
319.136	175.61
319.349	36.35
319.563	42.5
319.776	9.73
319.99	-10.75
320.203	46.59
320.417	50.69
320.63	73.21
320.843	93.69
321.057	60.93
321.27	44.54
321.483	30.21
321.697	56.83
321.91	91.65
322.124	69.12
322.337	110.08
322.55	-12.8
322.763	1.54
322.977	42.5
323.19	30.21
323.403	40.45
323.617	128.51
323.83	58.88
324.043	-4.61
324.256	91.65
324.469	-29.18
324.683	42.5
324.896	114.17
325.109	-8.7
325.322	-66.05
325.535	118.27
325.748	52.74
325.962	-12.8
326.175	73.21
326.388	32.26
326.601	71.17
326.814	-16.9
327.027	116.22
327.24	175.61
327.453	-12.8
327.666	48.64
327.879	196.09
328.092	46.59
328.305	50.69
328.518	11.78
328.731	93.69
328.944	108.03
329.157	38.4
329.37	48.64
329.583	108.03
329.796	159.23
330.009	15.87
330.222	50.69
330.435	79.36
330.648	85.5
330.861	75.26
331.073	-20.99
331.286	13.82
331.499	85.5
331.712	28.16
331.925	67.07
332.138	67.07
332.35	79.36
332.563	-25.09
332.776	97.79
332.989	67.07
333.202	48.64
333.414	60.93
333.627	-74.24
333.84	65.02
334.053	26.11
334.265	-2.56
334.478	24.06
334.691	40.45
334.903	44.54
335.116	36.35
335.329	67.07
335.541	77.31
335.754	93.69
335.966	-6.66
336.179	85.5
336.392	-6.66
336.604	-8.7
336.817	89.6
337.029	5.63
337.242	60.93
337.454	95.74
337.667	-6.66
337.88	87.55
338.092	120.32
338.305	3.58
338.517	22.02
338.729	42.5
338.942	91.65
339.154	9.73
339.367	62.98
339.579	83.45
339.792	56.83
340.004	48.64
340.217	95.74
340.429	87.55
340.641	65.02
340.854	54.78
341.066	65.02
341.278	46.59
341.491	79.36
341.703	77.31
341.915	46.59
342.128	83.45
342.34	13.82
342.552	17.92
342.764	44.54
342.977	26.11
343.189	77.31
343.401	77.31
343.613	32.26
343.826	103.93
344.038	24.06
344.25	52.74
344.462	69.12
344.674	7.68
344.886	22.02
345.099	32.26
345.311	-39.42
345.523	54.78
345.735	19.97
345.947	91.65
346.159	-51.71
346.371	42.5
346.583	32.26
346.795	175.61
347.007	7.68
347.219	-20.99
347.431	34.3
347.643	105.98
347.855	-53.76
348.067	122.37
348.279	-47.62
348.491	26.11
348.703	87.55
348.915	44.54
349.127	-4.61
349.339	52.74
349.551	-31.23
349.763	24.06
349.975	40.45
350.187	83.45
350.399	69.12
350.61	1.54
350.822	69.12
351.034	91.65
351.246	52.74
351.458	30.21
351.669	24.06
351.881	99.84
352.093	30.21
352.305	65.02
352.517	153.09
352.728	97.79
352.94	48.64
353.152	77.31
353.363	56.83
353.575	62.98
353.787	44.54
353.999	69.12
354.21	159.23
354.422	22.02
354.633	44.54
354.845	85.5
355.057	77.31
355.268	58.88
355.48	52.74
355.692	13.82
355.903	5.63
356.115	60.93
356.326	17.92
356.538	108.03
356.749	73.21
356.961	108.03
357.172	81.41
357.384	1.54
357.595	142.85
357.807	97.79
358.018	28.16
358.23	40.45
358.441	81.41
358.653	134.65
358.864	81.41
359.075	89.6
359.287	40.45
359.498	87.55
359.709	17.92
359.921	28.16
360.132	91.65
360.344	81.41
360.555	83.45
360.766	93.69
360.977	56.83
361.189	151.04
361.4	48.64
361.611	67.07
361.823	122.37
362.034	44.54
362.245	-51.71
362.456	77.31
362.667	105.98
362.879	7.68
363.09	81.41
363.301	142.85
363.512	114.17
363.723	-0.51
363.935	75.26
364.146	62.98
364.357	52.74
364.568	65.02
364.779	13.82
364.99	40.45
365.201	50.69
365.412	114.17
365.623	-10.75
365.834	65.02
366.045	58.88
366.256	122.37
366.467	5.63
366.678	48.64
366.889	22.02
367.1	-33.28
367.311	52.74
367.522	42.5
367.733	56.83
367.944	62.98
368.155	13.82
368.366	99.84
368.577	77.31
368.788	46.59
368.999	75.26
369.209	26.11
369.42	175.61
369.631	122.37
369.842	130.56
370.053	15.87
370.264	97.79
370.474	-4.61
370.685	3.58
370.896	19.97
371.107	110.08
371.317	50.69
371.528	-2.56
371.739	42.5
371.95	48.64
372.16	73.21
372.371	5.63
372.582	83.45
372.792	83.45
373.003	101.89
373.214	24.06
373.424	120.32
373.635	40.45
373.846	75.26
374.056	36.35
374.267	110.08
374.477	101.89
374.688	77.31
374.898	69.12
375.109	105.98
375.319	19.97
375.53	85.5
375.74	155.13
375.951	-0.51
376.161	110.08
376.372	146.94
376.582	15.87
376.793	28.16
377.003	48.64
377.214	48.64
377.424	56.83
377.635	32.26
377.845	65.02
378.055	93.69
378.266	9.73
378.476	97.79
378.686	114.17
378.897	42.5
379.107	44.54
379.317	114.17
379.528	24.06
379.738	81.41
379.948	79.36
380.158	44.54
380.369	75.26
380.579	83.45
380.789	50.69
380.999	52.74
381.21	75.26
381.42	153.09
381.63	-49.66
381.84	126.46
382.05	56.83
382.261	126.46
382.471	114.17
382.681	89.6
382.891	237.05
383.101	73.21
383.311	3.58
383.521	60.93
383.731	134.65
383.941	120.32
384.151	58.88
384.361	65.02
384.571	87.55
384.781	105.98
384.991	208.38
385.201	153.09
385.411	54.78
385.621	62.98
385.831	79.36
386.041	32.26
386.251	71.17
386.461	105.98
386.671	89.6
386.881	-0.51
387.091	73.21
387.301	71.17
387.511	56.83
387.72	122.37
387.93	73.21
388.14	52.74
388.35	42.5
388.56	77.31
388.769	101.89
388.979	101.89
389.189	19.97
389.399	89.6
389.609	103.93
389.818	142.85
390.028	93.69
390.238	71.17
390.447	132.61
390.657	52.74
390.867	50.69
391.076	1.54
391.286	71.17
391.496	120.32
391.705	26.11
391.915	126.46
392.125	103.93
392.334	40.45
392.544	105.98
392.753	130.56
392.963	24.06
393.172	99.84
393.382	-0.51
393.591	181.76
393.801	79.36
394.01	155.13
394.22	85.5
394.429	56.83
394.639	97.79
394.848	138.75
395.058	19.97
395.267	132.61
395.477	69.12
395.686	138.75
395.895	132.61
396.105	97.79
396.314	132.61
396.524	-10.75
396.733	89.6
396.942	103.93
397.152	77.31
397.361	159.23
397.57	93.69
397.78	155.13
397.989	171.52
398.198	148.99
398.407	108.03
398.617	54.78
398.826	134.65
399.035	-4.61
399.244	122.37
399.453	28.16
399.663	83.45
399.872	75.26
400.081	157.18
400.29	128.51
400.499	-12.8
400.708	130.56
400.917	99.84
401.127	165.37
401.336	126.46
401.545	187.9
401.754	83.45
401.963	159.23
402.172	122.37
402.381	167.42
402.59	114.17
402.799	110.08
403.008	187.9
403.217	95.74
403.426	122.37
403.635	89.6
403.844	103.93
404.053	161.28
404.262	99.84
404.471	261.63
404.68	181.76
404.888	122.37
405.097	196.09
405.306	226.81
405.515	239.1
405.724	122.37
405.933	181.76
406.142	208.38
406.35	251.39
406.559	187.9
406.768	169.47
406.977	228.86
407.185	224.76
407.394	173.57
407.603	212.48
407.812	222.72
408.02	171.52
408.229	163.33
408.438	255.48
408.646	247.29
408.855	239.1
409.064	280.06
409.272	204.28
409.481	335.35
409.69	296.44
409.898	263.68
410.107	316.92
410.315	310.78
410.524	290.3
410.733	396.79
410.941	282.11
411.15	380.41
411.358	376.31
411.567	388.6
411.775	368.12
411.984	347.64
412.192	472.57
412.401	468.47
412.609	468.47
412.818	474.62
413.026	423.42
413.234	417.27
413.443	466.42
413.651	507.38
413.86	548.34
414.068	591.35
414.276	617.97
414.485	597.49
414.693	744.95
414.901	785.91
415.11	648.69
415.318	681.46
415.526	736.76
415.734	769.52
415.943	810.48
416.151	828.92
416.359	765.43
416.567	839.16
416.776	865.78
416.984	892.4
417.192	921.07
417.4	888.31
417.608	1074.67
417.817	1084.91
418.025	1066.48
418.233	1211.89
418.441	1074.67
418.649	1146.35
418.857	1201.65
419.065	1240.56
419.273	1246.7
419.481	1265.13
419.689	1310.19
419.897	1416.68
420.105	1431.02
420.313	1449.45
420.521	1568.23
420.729	1410.54
420.937	1703.4
421.145	1633.77
421.353	1748.45
421.561	2016.74
421.769	1861.09
421.977	1973.73
422.185	1938.91
422.393	2022.88
422.601	2158.05
422.809	2221.53
423.017	2094.56
423.224	2338.27
423.432	2436.57
423.64	2293.21
423.848	2700.76
424.056	2571.74
424.263	2727.38
424.471	2760.15
424.679	2803.16
424.887	3001.81
425.094	3014.1
425.302	3108.3
425.51	3196.37
425.718	3276.24
425.925	3302.86
426.133	3493.32
426.341	3659.21
426.548	3841.48
426.756	3771.85
426.964	3751.37
427.171	4003.27
427.379	4279.74
427.586	4058.56
427.794	4351.42
428.001	4472.25
428.209	4767.16
428.417	4691.38
428.624	4990.39
428.832	4931
429.039	4976.05
429.247	4939.19
429.454	5647.79
429.662	5836.2
429.869	5447.08
430.076	5778.86
430.284	5848.49
430.491	5993.89
430.699	6178.21
430.906	6194.59
431.114	6292.9
431.321	6555.04
431.528	6702.49
431.736	7071.12
431.943	7450
432.15	7290.26
432.358	7316.88
432.565	7808.39
432.772	7579.02
432.979	8035.72
433.187	8203.65
433.394	8332.67
433.601	8852.86
433.808	8750.46
434.016	8723.83
434.223	9313.65
434.43	9858.41
434.637	9520.49
434.844	10089.83
435.052	10360.16
435.259	10370.4
435.466	10489.18
435.673	10136.93
435.88	10947.93
436.087	11504.98
436.294	11478.35
436.501	11191.64
436.708	11580.75
436.915	11713.87
437.122	12348.74
437.329	12315.97
437.537	12739.9
437.743	12754.24
437.95	12911.93
438.157	13475.12
438.364	13995.31
438.571	14056.75
438.778	13950.25
438.985	15449.36
439.192	14769.44
439.399	15226.14
439.606	14968.09
439.813	15801.61
440.02	16567.56
440.227	16344.33
440.433	16186.63
440.64	16538.88
440.847	16719.1
441.054	16993.53
441.261	18310.38
441.467	18054.38
441.674	18549.99
441.881	19141.85
442.088	19100.89
442.294	18775.27
442.501	19657.94
442.708	19555.54
442.914	20401.35
443.121	21511.35
443.328	20982.98
443.534	22318.25
443.741	21642.42
443.948	21222.59
444.154	22928.55
444.361	23016.61
444.568	22985.89
444.774	23049.38
444.981	23504.03
445.187	23891.09
445.394	24773.77
445.6	24736.9
445.807	27042.92
446.013	26057.84
446.22	26385.52
446.426	27253.86
446.633	27411.55
446.839	28515.4
447.046	27126.88
447.252	28712.01
447.459	29113.41
447.665	28959.81
447.871	30485.55
448.078	31505.44
448.284	30252.08
448.491	30889
448.697	32003.1
448.903	32605.2
449.11	33039.37
449.316	32033.82
449.522	32547.86
449.728	33864.7
449.935	33819.64
450.141	33803.26
450.347	34515.95
450.553	33334.28
450.76	34235.38
450.966	35396.58
451.172	34554.86
451.378	36023.26
451.584	34946.03
451.791	35843.04
451.997	35836.89
452.203	36283.35
452.409	36496.34
452.615	36522.96
452.821	34817
453.027	34847.72
453.233	36334.55
453.44	35025.9
453.646	35376.1
453.852	35632.1
454.058	36096.99
454.264	35052.52
454.47	35894.24
454.676	34997.23
454.882	36465.62
455.088	32941.07
455.294	33420.29
455.5	34573.3
455.705	34778.09
455.911	33336.32
456.117	32777.23
456.323	32322.58
456.529	30526.51
456.735	32029.72
456.941	31353.89
457.147	30827.56
457.352	29824.06
457.558	29484.09
457.764	29504.57
457.97	28892.23
458.176	28261.46
458.381	28222.55
458.587	26971.24
458.793	26588.27
458.999	25164.93
459.204	27321.44
459.41	26377.33
459.616	24986.75
459.821	25101.44
460.027	24753.29
460.233	23921.81
460.438	23162.01
460.644	23401.63
460.85	22330.54
461.055	22045.87
461.261	21580.98
461.466	20167.88
461.672	19414.23
461.878	20839.62
462.083	19543.25
462.289	19131.61
462.494	18926.82
462.7	18248.94
462.905	17483
463.111	18181.35
463.316	18390.25
463.522	18054.38
463.727	17943.79
463.932	17968.37
464.138	17562.87
464.343	17775.86
464.549	17294.58
464.754	17865.97
464.959	17591.54
465.165	17560.82
465.37	16698.63
465.575	16301.32
465.781	17196.28
465.986	17239.29
466.191	16416.01
466.397	16104.71
466.602	15191.32
466.807	15801.61
