Data from USB4F104151__88__13-06-20-598.txt Node

Date: Fri Mar 14 13:06:20 EDT 2025
User: louis
Spectrometer: USB4F10415
Trigger mode: 4
Integration Time (sec): 4.000000E-2
Scans to average: 1
Electric dark correction enabled: true
Nonlinearity correction enabled: false
Boxcar width: 0
XAxis mode: Wavelengths
Number of Pixels in Spectrum: 3648
>>>>>Begin Spectral Data<<<<<
178.204	-234.83
178.424	-234.83
178.644	-234.83
178.864	-216.4
179.084	-236.88
179.304	-23.89
179.524	6.83
179.744	12.97
179.964	-11.61
180.184	37.55
180.404	25.26
180.624	-19.8
180.844	35.5
181.064	-44.37
181.283	17.07
181.503	-48.47
181.723	12.97
181.943	-38.23
182.163	49.83
182.383	-40.28
182.602	-19.8
182.822	92.84
183.042	12.97
183.262	51.88
183.482	55.98
183.701	-64.85
183.921	2.73
184.141	-58.71
184.361	17.07
184.58	70.31
184.8	6.83
185.02	17.07
185.239	107.18
185.459	6.83
185.679	84.65
185.898	33.45
186.118	39.59
186.338	-1.37
186.557	107.18
186.777	-3.41
186.997	-27.99
187.216	62.12
187.436	55.98
187.655	-17.75
187.875	84.65
188.095	-1.37
188.314	29.35
188.534	80.55
188.753	8.87
188.973	37.55
189.192	135.85
189.412	-11.61
189.631	117.42
189.851	60.07
190.07	111.27
190.29	10.92
190.509	72.36
190.729	8.87
190.948	41.64
191.168	148.14
191.387	84.65
191.607	-21.84
191.826	105.13
192.045	27.31
192.265	41.64
192.484	29.35
192.704	-25.94
192.923	23.21
193.142	47.79
193.362	76.46
193.581	41.64
193.8	4.78
194.02	55.98
194.239	53.93
194.458	76.46
194.678	49.83
194.897	-11.61
195.116	-56.66
195.335	-1.37
195.555	58.03
195.774	25.26
195.993	70.31
196.212	-46.42
196.432	62.12
196.651	17.07
196.87	19.11
197.089	137.9
197.308	27.31
197.528	37.55
197.747	-109.91
197.966	35.5
198.185	80.55
198.404	-75.09
198.623	68.27
198.842	15.02
199.062	43.69
199.281	148.14
199.5	31.4
199.719	23.21
199.938	23.21
200.157	-11.61
200.376	82.6
200.595	82.6
200.814	-87.38
201.033	-13.65
201.252	47.79
201.471	60.07
201.69	119.46
201.909	60.07
202.128	39.59
202.347	94.89
202.566	37.55
202.785	-44.37
203.004	-42.32
203.223	182.95
203.442	51.88
203.661	-56.66
203.879	25.26
204.098	82.6
204.317	-3.41
204.536	21.16
204.755	35.5
204.974	2.73
205.193	74.41
205.411	105.13
205.63	37.55
205.849	15.02
206.068	-7.51
206.287	-52.56
206.505	90.79
206.724	64.17
206.943	-23.89
207.162	29.35
207.381	-3.41
207.599	15.02
207.818	92.84
208.037	64.17
208.255	-23.89
208.474	21.16
208.693	31.4
208.911	-7.51
209.13	-17.75
209.349	31.4
209.567	6.83
209.786	37.55
210.005	70.31
210.223	29.35
210.442	-21.84
210.661	70.31
210.879	45.74
211.098	29.35
211.316	-9.56
211.535	-7.51
211.753	31.4
211.972	-19.8
212.191	10.92
212.409	-48.47
212.628	-19.8
212.846	33.45
213.065	70.31
213.283	98.99
213.502	29.35
213.72	49.83
213.938	0.68
214.157	39.59
214.375	78.51
214.594	49.83
214.812	60.07
215.031	8.87
215.249	-23.89
215.467	66.22
215.686	-1.37
215.904	70.31
216.122	62.12
216.341	62.12
216.559	29.35
216.778	115.37
216.996	78.51
217.214	-11.61
217.432	-30.04
217.651	8.87
217.869	-17.75
218.087	-27.99
218.306	-7.51
218.524	47.79
218.742	37.55
218.96	-46.42
219.179	29.35
219.397	31.4
219.615	152.23
219.833	29.35
220.051	-11.61
220.27	115.37
220.488	47.79
220.706	-5.46
220.924	10.92
221.142	-13.65
221.36	-21.84
221.578	6.83
221.796	33.45
222.015	113.32
222.233	31.4
222.451	33.45
222.669	-56.66
222.887	58.03
223.105	-27.99
223.323	-25.94
223.541	-40.28
223.759	10.92
223.977	-3.41
224.195	49.83
224.413	49.83
224.631	-40.28
224.849	27.31
225.067	88.75
225.285	12.97
225.503	-32.08
225.721	-15.7
225.939	82.6
226.157	80.55
226.375	152.23
226.592	27.31
226.81	43.69
227.028	78.51
227.246	15.02
227.464	55.98
227.682	82.6
227.9	31.4
228.117	86.7
228.335	78.51
228.553	98.99
228.771	27.31
228.989	47.79
229.206	4.78
229.424	29.35
229.642	-1.37
229.86	-44.37
230.077	70.31
230.295	10.92
230.513	27.31
230.731	29.35
230.948	170.66
231.166	62.12
231.384	49.83
231.601	39.59
231.819	39.59
232.037	-5.46
232.254	-7.51
232.472	119.46
232.689	27.31
232.907	-40.28
233.125	127.66
233.342	4.78
233.56	31.4
233.777	70.31
233.995	58.03
234.213	80.55
234.43	49.83
234.648	-11.61
234.865	-62.8
235.083	-34.13
235.3	29.35
235.518	37.55
235.735	17.07
235.953	82.6
236.17	31.4
236.388	33.45
236.605	43.69
236.822	33.45
237.04	94.89
237.257	-50.52
237.475	-30.04
237.692	72.36
237.909	51.88
238.127	21.16
238.344	2.73
238.562	-34.13
238.779	-64.85
238.996	-3.41
239.214	-1.37
239.431	96.94
239.648	-1.37
239.865	119.46
240.083	53.93
240.3	21.16
240.517	-44.37
240.735	47.79
240.952	2.73
241.169	60.07
241.386	88.75
241.603	-7.51
241.821	6.83
242.038	19.11
242.255	45.74
242.472	12.97
242.689	47.79
242.907	103.08
243.124	-9.56
243.341	-15.7
243.558	19.11
243.775	25.26
243.992	-79.19
244.209	62.12
244.426	82.6
244.643	-9.56
244.86	8.87
245.078	-27.99
245.295	66.22
245.512	-3.41
245.729	8.87
245.946	47.79
246.163	19.11
246.38	12.97
246.597	0.68
246.814	47.79
247.031	-42.32
247.248	25.26
247.464	-1.37
247.681	37.55
247.898	53.93
248.115	74.41
248.332	-9.56
248.549	148.14
248.766	135.85
248.983	72.36
249.2	39.59
249.417	82.6
249.633	-25.94
249.85	45.74
250.067	29.35
250.284	-23.89
250.501	-1.37
250.717	121.51
250.934	-32.08
251.151	6.83
251.368	37.55
251.585	86.7
251.801	35.5
252.018	8.87
252.235	70.31
252.451	-75.09
252.668	-21.84
252.885	103.08
253.102	37.55
253.318	-9.56
253.535	45.74
253.752	25.26
253.968	-3.41
254.185	4.78
254.401	33.45
254.618	-40.28
254.835	-7.51
255.051	72.36
255.268	-64.85
255.484	53.93
255.701	72.36
255.917	64.17
256.134	21.16
256.351	78.51
256.567	12.97
256.784	62.12
257	-17.75
257.217	29.35
257.433	78.51
257.65	21.16
257.866	58.03
258.082	-11.61
258.299	4.78
258.515	-5.46
258.732	-9.56
258.948	8.87
259.165	37.55
259.381	19.11
259.597	29.35
259.814	-25.94
260.03	-34.13
260.246	-27.99
260.463	-52.56
260.679	94.89
260.895	53.93
261.112	43.69
261.328	45.74
261.544	-27.99
261.761	94.89
261.977	-50.52
262.193	4.78
262.409	15.02
262.626	-42.32
262.842	62.12
263.058	-1.37
263.274	105.13
263.49	-3.41
263.707	51.88
263.923	92.84
264.139	-27.99
264.355	-25.94
264.571	41.64
264.787	21.16
265.004	53.93
265.22	49.83
265.436	41.64
265.652	-50.52
265.868	125.61
266.084	12.97
266.3	51.88
266.516	66.22
266.732	82.6
266.948	60.07
267.164	-19.8
267.38	82.6
267.596	49.83
267.812	58.03
268.028	37.55
268.244	-15.7
268.46	-11.61
268.676	15.02
268.892	115.37
269.108	-30.04
269.324	-9.56
269.54	-1.37
269.756	15.02
269.972	-9.56
270.188	70.31
270.403	-44.37
270.619	12.97
270.835	-23.89
271.051	86.7
271.267	-48.47
271.483	4.78
271.698	60.07
271.914	29.35
272.13	49.83
272.346	31.4
272.562	21.16
272.777	6.83
272.993	35.5
273.209	2.73
273.425	-40.28
273.64	53.93
273.856	68.27
274.072	-27.99
274.287	-54.61
274.503	-1.37
274.719	82.6
274.934	-32.08
275.15	37.55
275.366	-5.46
275.581	2.73
275.797	-21.84
276.012	-3.41
276.228	6.83
276.444	31.4
276.659	68.27
276.875	-71
277.09	21.16
277.306	-19.8
277.521	47.79
277.737	12.97
277.952	29.35
278.168	141.99
278.383	-32.08
278.599	-3.41
278.814	82.6
279.03	68.27
279.245	96.94
279.461	-19.8
279.676	12.97
279.892	29.35
280.107	19.11
280.322	23.21
280.538	53.93
280.753	-13.65
280.969	82.6
281.184	10.92
281.399	17.07
281.615	-13.65
281.83	23.21
282.045	-42.32
282.26	43.69
282.476	43.69
282.691	27.31
282.906	31.4
283.122	29.35
283.337	53.93
283.552	92.84
283.767	21.16
283.983	166.57
284.198	-1.37
284.413	58.03
284.628	21.16
284.843	21.16
285.058	-5.46
285.274	53.93
285.489	78.51
285.704	64.17
285.919	-30.04
286.134	-3.41
286.349	6.83
286.564	21.16
286.779	66.22
286.995	31.4
287.21	2.73
287.425	107.18
287.64	23.21
287.855	47.79
288.07	-93.52
288.285	-11.61
288.5	96.94
288.715	70.31
288.93	2.73
289.145	-23.89
289.36	78.51
289.575	37.55
289.79	53.93
290.004	15.02
290.219	23.21
290.434	-15.7
290.649	-9.56
290.864	-40.28
291.079	64.17
291.294	-3.41
291.509	-9.56
291.724	-101.72
291.938	6.83
292.153	4.78
292.368	78.51
292.583	29.35
292.798	49.83
293.012	123.56
293.227	0.68
293.442	10.92
293.657	123.56
293.871	115.37
294.086	12.97
294.301	80.55
294.516	49.83
294.73	-105.81
294.945	66.22
295.16	37.55
295.374	148.14
295.589	66.22
295.804	0.68
296.018	49.83
296.233	31.4
296.447	-9.56
296.662	-91.48
296.877	-42.32
297.091	43.69
297.306	25.26
297.52	103.08
297.735	62.12
297.949	-1.37
298.164	27.31
298.378	43.69
298.593	-25.94
298.807	-79.19
299.022	64.17
299.236	62.12
299.451	37.55
299.665	-13.65
299.88	31.4
300.094	33.45
300.309	23.21
300.523	33.45
300.737	15.02
300.952	23.21
301.166	21.16
301.381	72.36
301.595	15.02
301.809	49.83
302.024	-5.46
302.238	-5.46
302.452	45.74
302.667	-32.08
302.881	29.35
303.095	119.46
303.309	78.51
303.524	-46.42
303.738	0.68
303.952	-38.23
304.166	55.98
304.381	-38.23
304.595	62.12
304.809	-42.32
305.023	12.97
305.237	96.94
305.452	10.92
305.666	49.83
305.88	74.41
306.094	62.12
306.308	21.16
306.522	166.57
306.736	17.07
306.95	-42.32
307.164	6.83
307.379	31.4
307.593	127.66
307.807	53.93
308.021	27.31
308.235	96.94
308.449	-13.65
308.663	101.03
308.877	105.13
309.091	27.31
309.305	51.88
309.519	-75.09
309.733	94.89
309.947	25.26
310.161	8.87
310.374	62.12
310.588	76.46
310.802	2.73
311.016	-9.56
311.23	23.21
311.444	-27.99
311.658	6.83
311.872	51.88
312.085	4.78
312.299	23.21
312.513	107.18
312.727	27.31
312.941	-36.18
313.154	-3.41
313.368	6.83
313.582	70.31
313.796	15.02
314.009	-38.23
314.223	-19.8
314.437	-5.46
314.651	29.35
314.864	0.68
315.078	2.73
315.292	19.11
315.505	43.69
315.719	70.31
315.933	86.7
316.146	6.83
316.36	-87.38
316.573	12.97
316.787	70.31
317.001	31.4
317.214	8.87
317.428	66.22
317.641	6.83
317.855	-32.08
318.068	64.17
318.282	0.68
318.495	111.27
318.709	60.07
318.922	98.99
319.136	103.08
319.349	58.03
319.563	39.59
319.776	-7.51
319.99	23.21
320.203	37.55
320.417	55.98
320.63	90.79
320.843	103.08
321.057	105.13
321.27	68.27
321.483	39.59
321.697	70.31
321.91	45.74
322.124	4.78
322.337	158.38
322.55	-34.13
322.763	98.99
322.977	49.83
323.19	33.45
323.403	47.79
323.617	103.08
323.83	29.35
324.043	2.73
324.256	53.93
324.469	25.26
324.683	4.78
324.896	47.79
325.109	49.83
325.322	15.02
325.535	31.4
325.748	37.55
325.962	-58.71
326.175	39.59
326.388	6.83
326.601	27.31
326.814	25.26
327.027	49.83
327.24	60.07
327.453	-56.66
327.666	66.22
327.879	29.35
328.092	35.5
328.305	62.12
328.518	33.45
328.731	-30.04
328.944	58.03
329.157	55.98
329.37	21.16
329.583	135.85
329.796	90.79
330.009	39.59
330.222	60.07
330.435	70.31
330.648	90.79
330.861	53.93
331.073	64.17
331.286	82.6
331.499	-34.13
331.712	2.73
331.925	62.12
332.138	0.68
332.35	80.55
332.563	37.55
332.776	62.12
332.989	-21.84
333.202	53.93
333.414	12.97
333.627	-52.56
333.84	-52.56
334.053	47.79
334.265	-27.99
334.478	-13.65
334.691	49.83
334.903	113.32
335.116	39.59
335.329	4.78
335.541	94.89
335.754	47.79
335.966	-30.04
336.179	68.27
336.392	45.74
336.604	17.07
336.817	49.83
337.029	43.69
337.242	37.55
337.454	58.03
337.667	103.08
337.88	64.17
338.092	129.7
338.305	37.55
338.517	43.69
338.729	62.12
338.942	37.55
339.154	-15.7
339.367	6.83
339.579	74.41
339.792	8.87
340.004	107.18
340.217	27.31
340.429	45.74
340.641	2.73
340.854	-50.52
341.066	-3.41
341.278	8.87
341.491	4.78
341.703	-1.37
341.915	72.36
342.128	37.55
342.34	8.87
342.552	27.31
342.764	-23.89
342.977	45.74
343.189	84.65
343.401	68.27
343.613	-40.28
343.826	23.21
344.038	0.68
344.25	60.07
344.462	17.07
344.674	8.87
344.886	12.97
345.099	66.22
345.311	51.88
345.523	15.02
345.735	-15.7
345.947	53.93
346.159	27.31
346.371	25.26
346.583	78.51
346.795	47.79
347.007	35.5
347.219	25.26
347.431	45.74
347.643	55.98
347.855	-38.23
348.067	-19.8
348.279	-77.14
348.491	98.99
348.703	98.99
348.915	43.69
349.127	8.87
349.339	78.51
349.551	-11.61
349.763	21.16
349.975	53.93
350.187	62.12
350.399	29.35
350.61	47.79
350.822	80.55
351.034	53.93
351.246	86.7
351.458	51.88
351.669	76.46
351.881	94.89
352.093	107.18
352.305	23.21
352.517	103.08
352.728	74.41
352.94	47.79
353.152	66.22
353.363	45.74
353.575	-15.7
353.787	60.07
353.999	68.27
354.21	98.99
354.422	17.07
354.633	12.97
354.845	39.59
355.057	27.31
355.268	-36.18
355.48	70.31
355.692	15.02
355.903	31.4
356.115	-32.08
356.326	23.21
356.538	78.51
356.749	127.66
356.961	105.13
357.172	41.64
357.384	-17.75
357.595	178.86
357.807	37.55
358.018	62.12
358.23	-36.18
358.441	41.64
358.653	94.89
358.864	10.92
359.075	15.02
359.287	90.79
359.498	156.33
359.709	103.08
359.921	66.22
360.132	60.07
360.344	-9.56
360.555	12.97
360.766	96.94
360.977	45.74
361.189	23.21
361.4	17.07
361.611	84.65
361.823	98.99
362.034	58.03
362.245	-40.28
362.456	45.74
362.667	47.79
362.879	47.79
363.09	101.03
363.301	45.74
363.512	53.93
363.723	19.11
363.935	-3.41
364.146	21.16
364.357	80.55
364.568	31.4
364.779	-52.56
364.99	90.79
365.201	-50.52
365.412	105.13
365.623	-27.99
365.834	-1.37
366.045	72.36
366.256	72.36
366.467	12.97
366.678	4.78
366.889	47.79
367.1	49.83
367.311	141.99
367.522	74.41
367.733	-17.75
367.944	31.4
368.155	-27.99
368.366	51.88
368.577	29.35
368.788	119.46
368.999	51.88
369.209	17.07
369.42	162.47
369.631	127.66
369.842	133.8
370.053	62.12
370.264	96.94
370.474	37.55
370.685	68.27
370.896	-1.37
371.107	111.27
371.317	62.12
371.528	66.22
371.739	53.93
371.95	92.84
372.16	49.83
372.371	-3.41
372.582	0.68
372.792	66.22
373.003	123.56
373.214	17.07
373.424	86.7
373.635	-15.7
373.846	94.89
374.056	55.98
374.267	94.89
374.477	105.13
374.688	37.55
374.898	37.55
375.109	17.07
375.319	41.64
375.53	127.66
375.74	41.64
375.951	64.17
376.161	70.31
376.372	70.31
376.582	4.78
376.793	115.37
377.003	37.55
377.214	27.31
377.424	27.31
377.635	-32.08
377.845	60.07
378.055	45.74
378.266	-38.23
378.476	37.55
378.686	105.13
378.897	84.65
379.107	96.94
379.317	2.73
379.528	-15.7
379.738	105.13
379.948	12.97
380.158	72.36
380.369	45.74
380.579	62.12
380.789	45.74
380.999	170.66
381.21	82.6
381.42	119.46
381.63	80.55
381.84	78.51
382.05	70.31
382.261	96.94
382.471	74.41
382.681	-3.41
382.891	107.18
383.101	64.17
383.311	39.59
383.521	31.4
383.731	115.37
383.941	45.74
384.151	58.03
384.361	-9.56
384.571	51.88
384.781	15.02
384.991	98.99
385.201	109.23
385.411	25.26
385.621	47.79
385.831	82.6
386.041	15.02
386.251	-9.56
386.461	103.08
386.671	-3.41
386.881	23.21
387.091	78.51
387.301	45.74
387.511	62.12
387.72	107.18
387.93	-1.37
388.14	0.68
388.35	47.79
388.56	72.36
388.769	111.27
388.979	96.94
389.189	8.87
389.399	53.93
389.609	21.16
389.818	105.13
390.028	62.12
390.238	76.46
390.447	39.59
390.657	55.98
390.867	25.26
391.076	-23.89
391.286	45.74
391.496	103.08
391.705	47.79
391.915	115.37
392.125	29.35
392.334	58.03
392.544	115.37
392.753	82.6
392.963	58.03
393.172	31.4
393.382	58.03
393.591	105.13
393.801	88.75
394.01	21.16
394.22	12.97
394.429	45.74
394.639	-1.37
394.848	96.94
395.058	66.22
395.267	121.51
395.477	53.93
395.686	78.51
395.895	101.03
396.105	203.43
396.314	66.22
396.524	82.6
396.733	-58.71
396.942	109.23
397.152	80.55
397.361	146.09
397.57	86.7
397.78	70.31
397.989	150.18
398.198	191.14
398.407	115.37
398.617	135.85
398.826	21.16
399.035	137.9
399.244	125.61
399.453	60.07
399.663	62.12
399.872	123.56
400.081	47.79
400.29	94.89
400.499	39.59
400.708	158.38
400.917	37.55
401.127	74.41
401.336	47.79
401.545	205.48
401.754	154.28
401.963	131.75
402.172	103.08
402.381	60.07
402.59	74.41
402.799	103.08
403.008	201.38
403.217	125.61
403.426	55.98
403.635	41.64
403.844	86.7
404.053	141.99
404.262	121.51
404.471	207.53
404.68	62.12
404.888	170.66
405.097	164.52
405.306	109.23
405.515	189.1
405.724	121.51
405.933	76.46
406.142	144.04
406.35	219.82
406.559	197.29
406.768	144.04
406.977	219.82
407.185	236.2
407.394	164.52
407.603	189.1
407.812	299.69
408.02	176.81
408.229	160.42
408.438	207.53
408.646	195.24
408.855	158.38
409.064	223.91
409.272	230.06
409.481	236.2
409.69	170.66
409.898	260.77
410.107	262.82
410.315	219.82
410.524	311.97
410.733	324.26
410.941	289.45
411.15	336.55
411.358	307.88
411.567	336.55
411.775	383.65
411.984	303.78
412.192	336.55
412.401	367.27
412.609	481.96
412.818	520.87
413.026	481.96
413.234	430.76
413.443	443.04
413.651	531.11
413.86	455.33
414.068	524.96
414.276	610.98
414.485	582.31
414.693	666.27
414.901	727.71
415.11	713.38
415.318	701.09
415.526	719.52
415.734	744.1
415.943	742.05
416.151	811.68
416.359	785.05
416.567	832.16
416.776	832.16
416.984	901.79
417.192	1036.95
417.4	879.26
417.608	877.21
417.817	1020.57
418.025	1051.29
418.233	1145.5
418.441	1051.29
418.649	1141.4
418.857	1184.41
419.065	1358.49
419.273	1196.7
419.481	1292.95
419.689	1331.86
419.897	1460.88
420.105	1559.19
420.313	1438.36
420.521	1579.67
420.729	1469.08
420.937	1600.15
421.145	1583.76
421.353	1800.85
421.561	1936.01
421.769	1919.63
421.977	2009.74
422.185	2046.6
422.393	2175.63
422.601	2259.59
422.809	2155.15
423.017	2163.34
423.224	2224.78
423.432	2368.13
423.64	2460.29
423.848	2624.13
424.056	2609.79
424.263	2693.76
424.471	2781.82
424.679	2890.37
424.887	3009.15
425.094	2982.53
425.302	3039.87
425.51	3220.09
425.718	3265.14
425.925	3326.58
426.133	3424.89
426.341	3754.61
426.548	3744.37
426.756	3795.57
426.964	3834.48
427.171	4067.95
427.379	4186.73
427.586	4219.5
427.794	4344.42
428.001	4674.15
428.209	4782.69
428.417	4643.43
428.624	5083.74
428.832	4958.82
429.039	4921.95
429.247	4956.77
429.454	5495.38
429.662	5773.91
429.869	5558.87
430.076	5925.46
430.284	5808.72
430.491	6058.57
430.699	6363.72
430.906	6353.48
431.114	6134.35
431.321	6709.83
431.528	6797.89
431.736	7156.29
431.943	7524.92
432.15	7379.51
432.358	7350.84
432.565	7813.68
432.772	7748.15
432.979	8084.02
433.187	8217.13
433.394	8385.07
433.601	8862.24
433.808	8866.34
434.016	8876.58
434.223	9216.54
434.43	9859.6
434.637	9673.24
434.844	10105.36
435.052	10271.25
435.259	10486.28
435.466	10336.78
435.673	10207.76
435.88	10959.36
436.087	11715.06
436.294	11729.4
436.501	11313.66
436.708	11545.08
436.915	11993.59
437.122	12517.87
437.329	12298.73
437.537	13044.2
437.743	13009.38
437.95	12927.46
438.157	13498.84
438.364	14201.3
438.571	14160.34
438.778	14074.32
438.985	15423.94
439.192	14901.7
439.399	15530.43
439.606	14830.02
439.813	15710.65
440.02	16847.27
440.227	16544.17
440.433	16341.43
440.64	16705.96
440.847	17025.45
441.054	17117.61
441.261	18397.59
441.467	18256.28
441.674	18743.69
441.881	19085.7
442.088	19155.33
442.294	19214.73
442.501	19628.42
442.708	20064.63
442.914	20619.63
443.121	21520.74
443.328	20910.44
443.534	22577.49
443.741	21547.36
443.948	21479.78
444.154	23267.66
444.361	22913.36
444.568	23200.07
444.774	23355.72
444.981	23482.69
445.187	24344.89
445.394	25264.43
445.6	25000.24
445.807	27132.17
446.013	26100
446.22	26669.33
446.426	27568.39
446.633	28154.11
446.839	28735.73
447.046	27961.6
447.252	29235.44
447.459	29268.2
447.665	29286.64
447.871	30300.38
448.078	31963.33
448.284	30208.22
448.491	31056.08
448.697	32032.96
448.903	32866.49
449.11	33163.44
449.316	32301.25
449.522	33128.63
449.728	34494.62
449.935	34613.4
450.141	33999.01
450.347	35381.39
450.553	34003.11
450.76	34963.61
450.966	35528.84
451.172	35199.12
451.378	36239.49
451.584	35821.7
451.791	36419.71
451.997	36556.92
452.203	37306.48
452.409	36925.56
452.615	36978.81
452.821	35539.08
453.027	34832.54
453.233	37304.43
453.44	35457.17
453.646	36139.14
453.852	35909.77
454.058	36763.77
454.264	35244.18
454.47	36235.39
454.676	35569.8
454.882	36837.5
455.088	33708.2
455.294	34148.51
455.5	34492.57
455.705	35217.55
455.911	33427.63
456.117	33083.57
456.323	32678.07
456.529	31039.7
456.735	32434.36
456.941	31504.59
457.147	30787.8
457.352	29946.08
457.558	29505.77
457.764	29950.18
457.97	29124.85
458.176	28991.73
458.381	28375.29
458.587	27312.39
458.793	27179.28
458.999	25706.79
459.204	27605.25
459.41	26976.53
459.616	24932.65
459.821	25010.48
460.027	25200.94
460.233	24506.68
460.438	23433.54
460.644	23933.25
460.85	22440.28
461.055	22307.16
461.261	22190.42
461.466	20670.83
461.672	19929.47
461.878	21180.78
462.083	20171.13
462.289	19620.22
462.494	19231.11
462.7	18334.1
462.905	18026.9
463.111	18497.94
463.316	18825.61
463.522	18332.05
463.727	18172.31
463.932	18108.82
464.138	17809.82
464.343	17879.45
464.549	17359.27
464.754	18231.7
464.959	17832.35
465.165	17807.77
465.37	17029.54
465.575	16535.98
465.781	17369.51
465.986	17449.38
466.191	16755.12
466.397	16454.06
466.602	15612.35
