Data from USB4F104151__45__13-05-22-244.txt Node

Date: Fri Mar 14 13:05:22 EDT 2025
User: louis
Spectrometer: USB4F10415
Trigger mode: 4
Integration Time (sec): 4.000000E-2
Scans to average: 1
Electric dark correction enabled: true
Nonlinearity correction enabled: false
Boxcar width: 0
XAxis mode: Wavelengths
Number of Pixels in Spectrum: 3648
>>>>>Begin Spectral Data<<<<<
178.204	-244.22
178.424	-244.22
178.644	-244.22
178.864	-215.55
179.084	-172.54
179.304	-20.99
179.524	-8.7
179.744	1.54
179.964	103.93
180.184	-31.23
180.404	-2.56
180.624	-4.61
180.844	-31.23
181.064	-68.09
181.283	9.73
181.503	-14.85
181.723	67.07
181.943	-27.14
182.163	101.89
182.383	36.35
182.602	-2.56
182.822	17.92
183.042	30.21
183.262	3.58
183.482	120.32
183.701	11.78
183.921	91.65
184.141	-20.99
184.361	34.3
184.58	11.78
184.8	50.69
185.02	5.63
185.239	93.69
185.459	67.07
185.679	97.79
185.898	-4.61
186.118	110.08
186.338	30.21
186.557	67.07
186.777	54.78
186.997	-18.94
187.216	13.82
187.436	73.21
187.655	62.98
187.875	116.22
188.095	17.92
188.314	83.45
188.534	155.13
188.753	62.98
188.973	52.74
189.192	75.26
189.412	60.93
189.631	52.74
189.851	89.6
190.07	140.8
190.29	13.82
190.509	48.64
190.729	-6.66
190.948	34.3
191.168	175.61
191.387	77.31
191.607	22.02
191.826	108.03
192.045	-78.33
192.265	-12.8
192.484	44.54
192.704	62.98
192.923	-72.19
193.142	108.03
193.362	73.21
193.581	91.65
193.8	75.26
194.02	138.75
194.239	-35.33
194.458	22.02
194.678	62.98
194.897	71.17
195.116	44.54
195.335	9.73
195.555	42.5
195.774	67.07
195.993	24.06
196.212	17.92
196.432	26.11
196.651	-27.14
196.87	-25.09
197.089	50.69
197.308	153.09
197.528	103.93
197.747	-33.28
197.966	-6.66
198.185	108.03
198.404	-2.56
198.623	24.06
198.842	71.17
199.062	81.41
199.281	112.13
199.5	-4.61
199.719	30.21
199.938	50.69
200.157	28.16
200.376	44.54
200.595	17.92
200.814	103.93
201.033	36.35
201.252	58.88
201.471	85.5
201.69	101.89
201.909	128.51
202.128	44.54
202.347	-18.94
202.566	9.73
202.785	38.4
203.004	-18.94
203.223	69.12
203.442	3.58
203.661	36.35
203.879	44.54
204.098	56.83
204.317	19.97
204.536	34.3
204.755	11.78
204.974	34.3
205.193	99.84
205.411	116.22
205.63	132.61
205.849	52.74
206.068	-20.99
206.287	52.74
206.505	89.6
206.724	7.68
206.943	22.02
207.162	7.68
207.381	40.45
207.599	67.07
207.818	-0.51
208.037	24.06
208.255	40.45
208.474	75.26
208.693	65.02
208.911	17.92
209.13	1.54
209.349	22.02
209.567	36.35
209.786	79.36
210.005	62.98
210.223	50.69
210.442	-43.52
210.661	83.45
210.879	95.74
211.098	-31.23
211.316	146.94
211.535	95.74
211.753	1.54
211.972	11.78
212.191	15.87
212.409	-6.66
212.628	71.17
212.846	81.41
213.065	30.21
213.283	81.41
213.502	65.02
213.72	3.58
213.938	-16.9
214.157	65.02
214.375	46.59
214.594	50.69
214.812	34.3
215.031	5.63
215.249	17.92
215.467	30.21
215.686	38.4
215.904	93.69
216.122	34.3
216.341	151.04
216.559	15.87
216.778	69.12
216.996	67.07
217.214	-8.7
217.432	71.17
217.651	-6.66
217.869	38.4
218.087	-37.38
218.306	-18.94
218.524	52.74
218.742	-4.61
218.96	38.4
219.179	56.83
219.397	44.54
219.615	97.79
219.833	46.59
220.051	-12.8
220.27	122.37
220.488	40.45
220.706	124.41
220.924	22.02
221.142	67.07
221.36	-4.61
221.578	11.78
221.796	11.78
222.015	40.45
222.233	26.11
222.451	108.03
222.669	9.73
222.887	91.65
223.105	101.89
223.323	-47.62
223.541	-23.04
223.759	54.78
223.977	40.45
224.195	99.84
224.413	44.54
224.631	120.32
224.849	15.87
225.067	101.89
225.285	11.78
225.503	19.97
225.721	-4.61
225.939	11.78
226.157	91.65
226.375	194.05
226.592	28.16
226.81	52.74
227.028	93.69
227.246	87.55
227.464	42.5
227.682	38.4
227.9	132.61
228.117	93.69
228.335	-23.04
228.553	56.83
228.771	5.63
228.989	67.07
229.206	46.59
229.424	-31.23
229.642	-37.38
229.86	-51.71
230.077	67.07
230.295	44.54
230.513	-6.66
230.731	73.21
230.948	52.74
231.166	142.85
231.384	46.59
231.601	-23.04
231.819	103.93
232.037	30.21
232.254	-4.61
232.472	-4.61
232.689	-20.99
232.907	67.07
233.125	13.82
233.342	38.4
233.56	-0.51
233.777	99.84
233.995	83.45
234.213	34.3
234.43	95.74
234.648	75.26
234.865	1.54
235.083	7.68
235.3	-4.61
235.518	97.79
235.735	95.74
235.953	48.64
236.17	54.78
236.388	151.04
236.605	56.83
236.822	67.07
237.04	-23.04
237.257	17.92
237.475	-29.18
237.692	60.93
237.909	-0.51
238.127	32.26
238.344	83.45
238.562	36.35
238.779	-39.42
238.996	-29.18
239.214	17.92
239.431	36.35
239.648	-43.52
239.865	77.31
240.083	11.78
240.3	5.63
240.517	-2.56
240.735	58.88
240.952	58.88
241.169	17.92
241.386	26.11
241.603	15.87
241.821	54.78
242.038	52.74
242.255	130.56
242.472	7.68
242.689	71.17
242.907	58.88
243.124	116.22
243.341	75.26
243.558	11.78
243.775	48.64
243.992	1.54
244.209	65.02
244.426	114.17
244.643	118.27
244.86	38.4
245.078	46.59
245.295	79.36
245.512	52.74
245.729	11.78
245.946	-2.56
246.163	75.26
246.38	3.58
246.597	34.3
246.814	103.93
247.031	60.93
247.248	93.69
247.464	-12.8
247.681	83.45
247.898	67.07
248.115	99.84
248.332	-27.14
248.549	126.46
248.766	116.22
248.983	5.63
249.2	62.98
249.417	101.89
249.633	32.26
249.85	108.03
250.067	67.07
250.284	140.8
250.501	44.54
250.717	5.63
250.934	34.3
251.151	-70.14
251.368	116.22
251.585	7.68
251.801	30.21
252.018	58.88
252.235	26.11
252.451	-12.8
252.668	77.31
252.885	75.26
253.102	69.12
253.318	11.78
253.535	52.74
253.752	19.97
253.968	58.88
254.185	-37.38
254.401	142.85
254.618	69.12
254.835	34.3
255.051	105.98
255.268	89.6
255.484	140.8
255.701	26.11
255.917	134.65
256.134	-39.42
256.351	73.21
256.567	19.97
256.784	40.45
257	-18.94
257.217	38.4
257.433	52.74
257.65	69.12
257.866	67.07
258.082	-25.09
258.299	46.59
258.515	151.04
258.732	17.92
258.948	28.16
259.165	50.69
259.381	34.3
259.597	56.83
259.814	85.5
260.03	103.93
260.246	34.3
260.463	30.21
260.679	93.69
260.895	101.89
261.112	91.65
261.328	40.45
261.544	1.54
261.761	69.12
261.977	118.27
262.193	34.3
262.409	126.46
262.626	60.93
262.842	134.65
263.058	56.83
263.274	67.07
263.49	9.73
263.707	48.64
263.923	-16.9
264.139	54.78
264.355	26.11
264.571	44.54
264.787	13.82
265.004	48.64
265.22	54.78
265.436	46.59
265.652	58.88
265.868	38.4
266.084	-8.7
266.3	42.5
266.516	9.73
266.732	108.03
266.948	91.65
267.164	56.83
267.38	19.97
267.596	75.26
267.812	120.32
268.028	34.3
268.244	101.89
268.46	50.69
268.676	3.58
268.892	44.54
269.108	19.97
269.324	28.16
269.54	7.68
269.756	65.02
269.972	77.31
270.188	24.06
270.403	-10.75
270.619	79.36
270.835	99.84
271.051	62.98
271.267	83.45
271.483	-23.04
271.698	62.98
271.914	79.36
272.13	-14.85
272.346	44.54
272.562	22.02
272.777	85.5
272.993	-37.38
273.209	52.74
273.425	67.07
273.64	-8.7
273.856	22.02
274.072	24.06
274.287	30.21
274.503	40.45
274.719	40.45
274.934	87.55
275.15	-39.42
275.366	67.07
275.581	-0.51
275.797	34.3
276.012	97.79
276.228	-4.61
276.444	65.02
276.659	161.28
276.875	32.26
277.09	38.4
277.306	-2.56
277.521	46.59
277.737	62.98
277.952	48.64
278.168	48.64
278.383	28.16
278.599	83.45
278.814	75.26
279.03	-47.62
279.245	122.37
279.461	44.54
279.676	38.4
279.892	-6.66
280.107	34.3
280.322	75.26
280.538	105.98
280.753	13.82
280.969	93.69
281.184	67.07
281.399	140.8
281.615	48.64
281.83	69.12
282.045	-64
282.26	-14.85
282.476	77.31
282.691	38.4
282.906	22.02
283.122	87.55
283.337	65.02
283.552	85.5
283.767	95.74
283.983	99.84
284.198	42.5
284.413	34.3
284.628	34.3
284.843	44.54
285.058	7.68
285.274	28.16
285.489	13.82
285.704	136.7
285.919	34.3
286.134	56.83
286.349	1.54
286.564	46.59
286.779	118.27
286.995	114.17
287.21	48.64
287.425	116.22
287.64	-10.75
287.855	13.82
288.07	-14.85
288.285	77.31
288.5	105.98
288.715	81.41
288.93	52.74
289.145	11.78
289.36	87.55
289.575	19.97
289.79	87.55
290.004	-6.66
290.219	83.45
290.434	58.88
290.649	62.98
290.864	-10.75
291.079	40.45
291.294	40.45
291.509	79.36
291.724	-41.47
291.938	13.82
292.153	42.5
292.368	81.41
292.583	101.89
292.798	46.59
293.012	93.69
293.227	73.21
293.442	3.58
293.657	85.5
293.871	89.6
294.086	36.35
294.301	22.02
294.516	44.54
294.73	58.88
294.945	22.02
295.16	42.5
295.374	83.45
295.589	89.6
295.804	-23.04
296.018	30.21
296.233	126.46
296.447	67.07
296.662	9.73
296.877	81.41
297.091	71.17
297.306	52.74
297.52	60.93
297.735	124.41
297.949	26.11
298.164	-25.09
298.378	1.54
298.593	24.06
298.807	28.16
299.022	122.37
299.236	56.83
299.451	-6.66
299.665	28.16
299.88	-2.56
300.094	83.45
300.309	9.73
300.523	42.5
300.737	-27.14
300.952	46.59
301.166	93.69
301.381	69.12
301.595	5.63
301.809	-18.94
302.024	-6.66
302.238	30.21
302.452	83.45
302.667	89.6
302.881	95.74
303.095	95.74
303.309	58.88
303.524	-8.7
303.738	79.36
303.952	32.26
304.166	169.47
304.381	-29.18
304.595	132.61
304.809	9.73
305.023	34.3
305.237	-10.75
305.452	46.59
305.666	62.98
305.88	7.68
306.094	11.78
306.308	50.69
306.522	89.6
306.736	58.88
306.95	83.45
307.164	93.69
307.379	11.78
307.593	118.27
307.807	69.12
308.021	132.61
308.235	48.64
308.449	17.92
308.663	-8.7
308.877	175.61
309.091	38.4
309.305	30.21
309.519	93.69
309.733	83.45
309.947	50.69
310.161	56.83
310.374	-6.66
310.588	83.45
310.802	22.02
311.016	54.78
311.23	19.97
311.444	58.88
311.658	54.78
311.872	151.04
312.085	38.4
312.299	114.17
312.513	177.66
312.727	-10.75
312.941	-14.85
313.154	5.63
313.368	50.69
313.582	46.59
313.796	62.98
314.009	83.45
314.223	28.16
314.437	40.45
314.651	22.02
314.864	26.11
315.078	24.06
315.292	28.16
315.505	34.3
315.719	15.87
315.933	26.11
316.146	1.54
316.36	-16.9
316.573	89.6
316.787	40.45
317.001	83.45
317.214	-4.61
317.428	13.82
317.641	87.55
317.855	-12.8
318.068	-14.85
318.282	-27.14
318.495	181.76
318.709	54.78
318.922	13.82
319.136	83.45
319.349	75.26
319.563	11.78
319.776	83.45
319.99	-76.29
320.203	85.5
320.417	38.4
320.63	67.07
320.843	54.78
321.057	-6.66
321.27	54.78
321.483	71.17
321.697	161.28
321.91	42.5
322.124	40.45
322.337	122.37
322.55	22.02
322.763	77.31
322.977	83.45
323.19	-20.99
323.403	73.21
323.617	19.97
323.83	71.17
324.043	52.74
324.256	44.54
324.469	36.35
324.683	77.31
324.896	44.54
325.109	75.26
325.322	-20.99
325.535	46.59
325.748	9.73
325.962	65.02
326.175	140.8
326.388	73.21
326.601	58.88
326.814	67.07
327.027	28.16
327.24	77.31
327.453	-51.71
327.666	62.98
327.879	1.54
328.092	22.02
328.305	36.35
328.518	48.64
328.731	42.5
328.944	7.68
329.157	110.08
329.37	3.58
329.583	124.41
329.796	93.69
330.009	-6.66
330.222	103.93
330.435	116.22
330.648	116.22
330.861	71.17
331.073	58.88
331.286	28.16
331.499	75.26
331.712	-0.51
331.925	54.78
332.138	40.45
332.35	95.74
332.563	-23.04
332.776	13.82
332.989	71.17
333.202	60.93
333.414	34.3
333.627	99.84
333.84	58.88
334.053	85.5
334.265	1.54
334.478	28.16
334.691	56.83
334.903	26.11
335.116	-78.33
335.329	-8.7
335.541	62.98
335.754	85.5
335.966	38.4
336.179	71.17
336.392	40.45
336.604	132.61
336.817	136.7
337.029	116.22
337.242	28.16
337.454	50.69
337.667	-47.62
337.88	58.88
338.092	77.31
338.305	155.13
338.517	48.64
338.729	116.22
338.942	83.45
339.154	38.4
339.367	-29.18
339.579	79.36
339.792	71.17
340.004	54.78
340.217	46.59
340.429	44.54
340.641	62.98
340.854	73.21
341.066	67.07
341.278	99.84
341.491	159.23
341.703	60.93
341.915	-4.61
342.128	110.08
342.34	67.07
342.552	36.35
342.764	65.02
342.977	38.4
343.189	44.54
343.401	36.35
343.613	-66.05
343.826	103.93
344.038	-43.52
344.25	28.16
344.462	-2.56
344.674	77.31
344.886	54.78
345.099	67.07
345.311	108.03
345.523	91.65
345.735	-10.75
345.947	116.22
346.159	38.4
346.371	50.69
346.583	58.88
346.795	67.07
347.007	38.4
347.219	13.82
347.431	28.16
347.643	91.65
347.855	93.69
348.067	77.31
348.279	-51.71
348.491	-33.28
348.703	56.83
348.915	44.54
349.127	71.17
349.339	132.61
349.551	79.36
349.763	155.13
349.975	1.54
350.187	89.6
350.399	108.03
350.61	108.03
350.822	1.54
351.034	75.26
351.246	89.6
351.458	99.84
351.669	36.35
351.881	62.98
352.093	50.69
352.305	34.3
352.517	91.65
352.728	87.55
352.94	30.21
353.152	120.32
353.363	120.32
353.575	87.55
353.787	69.12
353.999	11.78
354.21	110.08
354.422	69.12
354.633	-2.56
354.845	58.88
355.057	101.89
355.268	48.64
355.48	69.12
355.692	22.02
355.903	54.78
356.115	-8.7
356.326	5.63
356.538	81.41
356.749	38.4
356.961	118.27
357.172	32.26
357.384	1.54
357.595	130.56
357.807	42.5
358.018	48.64
358.23	60.93
358.441	159.23
358.653	69.12
358.864	58.88
359.075	9.73
359.287	71.17
359.498	110.08
359.709	13.82
359.921	44.54
360.132	19.97
360.344	93.69
360.555	-43.52
360.766	110.08
360.977	46.59
361.189	134.65
361.4	13.82
361.611	48.64
361.823	71.17
362.034	62.98
362.245	-37.38
362.456	28.16
362.667	69.12
362.879	67.07
363.09	116.22
363.301	103.93
363.512	34.3
363.723	19.97
363.935	5.63
364.146	105.98
364.357	56.83
364.568	65.02
364.779	-23.04
364.99	67.07
365.201	-18.94
365.412	153.09
365.623	48.64
365.834	44.54
366.045	11.78
366.256	93.69
366.467	126.46
366.678	-4.61
366.889	69.12
367.1	3.58
367.311	52.74
367.522	-14.85
367.733	83.45
367.944	52.74
368.155	-2.56
368.366	148.99
368.577	52.74
368.788	40.45
368.999	32.26
369.209	-27.14
369.42	118.27
369.631	175.61
369.842	38.4
370.053	11.78
370.264	52.74
370.474	40.45
370.685	30.21
370.896	7.68
371.107	93.69
371.317	83.45
371.528	58.88
371.739	136.7
371.95	79.36
372.16	26.11
372.371	-82.43
372.582	-6.66
372.792	85.5
373.003	17.92
373.214	50.69
373.424	9.73
373.635	-25.09
373.846	128.51
374.056	58.88
374.267	42.5
374.477	136.7
374.688	9.73
374.898	13.82
375.109	75.26
375.319	54.78
375.53	97.79
375.74	54.78
375.951	58.88
376.161	-2.56
376.372	148.99
376.582	60.93
376.793	40.45
377.003	91.65
377.214	79.36
377.424	28.16
377.635	32.26
377.845	67.07
378.055	69.12
378.266	48.64
378.476	28.16
378.686	140.8
378.897	73.21
379.107	91.65
379.317	46.59
379.528	95.74
379.738	126.46
379.948	69.12
380.158	48.64
380.369	19.97
380.579	101.89
380.789	32.26
380.999	134.65
381.21	97.79
381.42	214.52
381.63	103.93
381.84	87.55
382.05	73.21
382.261	69.12
382.471	91.65
382.681	9.73
382.891	103.93
383.101	56.83
383.311	50.69
383.521	-4.61
383.731	52.74
383.941	163.33
384.151	85.5
384.361	56.83
384.571	95.74
384.781	103.93
384.991	157.18
385.201	171.52
385.411	112.13
385.621	95.74
385.831	-2.56
386.041	-4.61
386.251	44.54
386.461	116.22
386.671	13.82
386.881	124.41
387.091	85.5
387.301	110.08
387.511	48.64
387.72	105.98
387.93	114.17
388.14	-6.66
388.35	142.85
388.56	132.61
388.769	120.32
388.979	62.98
389.189	69.12
389.399	34.3
389.609	46.59
389.818	140.8
390.028	116.22
390.238	24.06
390.447	69.12
390.657	148.99
390.867	-6.66
391.076	87.55
391.286	91.65
391.496	38.4
391.705	99.84
391.915	89.6
392.125	71.17
392.334	26.11
392.544	138.75
392.753	120.32
392.963	67.07
393.172	112.13
393.382	97.79
393.591	138.75
393.801	60.93
394.01	159.23
394.22	116.22
394.429	67.07
394.639	134.65
394.848	108.03
395.058	79.36
395.267	116.22
395.477	167.42
395.686	34.3
395.895	75.26
396.105	87.55
396.314	83.45
396.524	79.36
396.733	40.45
396.942	124.41
397.152	116.22
397.361	93.69
397.57	62.98
397.78	67.07
397.989	91.65
398.198	226.81
398.407	93.69
398.617	73.21
398.826	58.88
399.035	126.46
399.244	58.88
399.453	142.85
399.663	103.93
399.872	134.65
400.081	79.36
400.29	144.89
400.499	15.87
400.708	79.36
400.917	151.04
401.127	138.75
401.336	99.84
401.545	144.89
401.754	226.81
401.963	202.24
402.172	140.8
402.381	124.41
402.59	42.5
402.799	151.04
403.008	124.41
403.217	136.7
403.426	95.74
403.635	134.65
403.844	142.85
404.053	124.41
404.262	60.93
404.471	142.85
404.68	140.8
404.888	200.19
405.097	144.89
405.306	161.28
405.515	146.94
405.724	222.72
405.933	247.29
406.142	175.61
406.35	214.52
406.559	157.18
406.768	185.85
406.977	237.05
407.185	95.74
407.394	171.52
407.603	157.18
407.812	210.43
408.02	257.53
408.229	169.47
408.438	280.06
408.646	157.18
408.855	269.82
409.064	251.39
409.272	202.24
409.481	222.72
409.69	222.72
409.898	247.29
410.107	267.77
410.315	304.64
410.524	273.92
410.733	361.98
410.941	376.31
411.15	284.16
411.358	351.74
411.567	402.94
411.775	366.07
411.984	355.83
412.192	409.08
412.401	376.31
412.609	513.53
412.818	423.42
413.026	495.1
413.234	468.47
413.443	454.14
413.651	454.14
413.86	491
414.068	611.83
414.276	540.15
414.485	574.97
414.693	605.69
414.901	683.51
415.11	542.2
415.318	525.82
415.526	622.07
415.734	636.41
415.943	699.89
416.151	693.75
416.359	706.04
416.567	820.72
416.776	790
416.984	912.88
417.192	865.78
417.4	822.77
417.608	828.92
417.817	933.36
418.025	976.37
418.233	1019.38
418.441	1013.23
418.649	935.41
418.857	1084.91
419.065	1123.82
419.273	1127.92
419.481	1189.36
419.689	1293.8
419.897	1271.28
420.105	1267.18
420.313	1312.24
420.521	1431.02
420.729	1385.96
420.937	1414.63
421.145	1611.24
421.353	1531.37
421.561	1732.07
421.769	1693.16
421.977	1781.22
422.185	1783.27
422.393	1832.42
422.601	2018.79
422.809	1908.19
423.017	1945.06
423.224	2016.74
423.432	2229.73
423.64	2205.15
423.848	2420.19
424.056	2108.9
424.263	2379.23
424.471	2450.91
424.679	2434.52
424.887	2573.78
425.094	2622.94
425.302	2850.26
425.51	2704.85
425.718	2844.12
425.925	2878.93
426.133	3077.59
426.341	3188.18
426.548	3335.63
426.756	3399.12
426.964	3392.97
427.171	3577.29
427.379	3648.97
427.586	3667.4
427.794	3986.88
428.001	4173.25
428.209	4208.06
428.417	4165.06
428.624	4576.7
428.832	4529.59
429.039	4343.23
429.247	4543.93
429.454	4898.23
429.662	5178.8
429.869	4765.11
430.076	5311.92
430.284	5186.99
430.491	5385.65
430.699	5545.39
430.906	5635.5
431.114	5610.92
431.321	5844.39
431.528	6135.2
431.736	6358.43
431.943	6448.54
432.15	6469.02
432.358	6583.71
432.565	6718.87
432.772	6765.98
432.979	7259.54
433.187	7292.3
433.394	7318.93
433.601	7785.87
433.808	7888.26
434.016	7779.72
434.223	8093.06
434.43	8719.74
434.637	8463.74
434.844	9069.94
435.052	9147.76
435.259	9213.3
435.466	9026.93
435.673	9244.02
435.88	9868.65
436.087	10122.6
436.294	10452.32
436.501	10018.15
436.708	10118.5
436.915	10790.24
437.122	11068.76
437.329	10906.97
437.537	11396.43
437.743	11461.97
437.95	11504.98
438.157	11945.29
438.364	12647.74
438.571	12354.88
438.778	12383.56
438.985	13583.66
439.192	13088.06
439.399	13544.75
439.606	13288.76
439.813	13993.26
440.02	14871.84
440.227	14757.15
440.433	14685.47
440.64	14771.49
440.847	14800.16
441.054	15361.3
441.261	15942.92
441.467	16055.56
441.674	16307.46
441.881	17050.88
442.088	16903.42
442.294	16694.53
442.501	16985.34
442.708	17599.73
442.914	18418.92
443.121	19117.28
443.328	18568.42
443.534	19965.14
443.741	19131.61
443.948	18881.76
444.154	20438.22
444.361	20374.73
444.568	20270.28
444.774	20481.22
444.981	20733.12
445.187	21335.23
445.394	22201.52
445.6	22217.9
445.807	24077.46
446.013	22983.84
446.22	23319.71
446.426	24507.53
446.633	24302.73
446.839	25214.08
447.046	24501.39
447.252	25748.6
447.459	25973.88
447.665	25545.85
447.871	26815.59
448.078	27802.71
448.284	27173.99
448.491	27382.88
448.697	28740.68
448.903	29160.52
449.11	29123.65
449.316	28423.25
449.522	29316.16
449.728	30348.34
449.935	30362.67
450.141	30059.57
450.347	30860.33
450.553	30184.5
450.76	30352.43
450.966	31319.07
451.172	31104.04
451.378	32060.44
451.584	31155.24
451.791	32267.28
451.997	32222.23
452.203	32433.17
452.409	32601.1
452.615	32343.06
452.821	31134.76
453.027	30960.68
453.233	32453.65
453.44	31265.83
453.646	31763.48
453.852	31818.78
454.058	32744.46
454.264	31048.74
454.47	31749.15
454.676	31138.85
454.882	32414.74
455.088	29570.11
455.294	30088.24
455.5	30913.58
455.705	31052.84
455.911	29910.07
456.117	28687.43
456.323	28628.04
456.529	27313.25
456.735	28544.08
456.941	27743.32
457.147	27323.49
457.352	26459.24
457.558	26217.58
457.764	26172.53
457.97	25724.02
458.176	25040
458.381	25490.56
458.587	24077.46
458.793	24048.79
458.999	22713.51
459.204	24198.29
459.41	23680.15
459.616	22002.86
459.821	22381.74
460.027	21947.57
460.233	21548.22
460.438	20372.68
460.644	20722.88
460.85	19981.52
461.055	19481.81
461.261	19553.49
461.466	17814.77
461.672	17353.98
461.878	18656.48
462.083	17583.35
462.289	17087.74
462.494	17005.82
462.7	16139.53
462.905	15949.07
463.111	16477.44
463.316	16211.21
463.522	15994.12
463.727	15889.68
463.932	15852.81
464.138	15746.32
464.343	15949.07
464.549	15416.6
464.754	15967.5
464.959	15824.14
465.165	15635.73
465.37	15054.11
465.575	14640.42
465.781	15234.33
465.986	15330.58
466.191	14603.55
466.397	14290.21
466.602	13585.71
466.807	14355.75
467.012	14187.82
