Data from USB4F104151__11__13-04-21-851.txt Node

Date: Fri Mar 14 13:04:21 EDT 2025
User: louis
Spectrometer: USB4F10415
Trigger mode: 4
Integration Time (sec): 4.000000E-2
Scans to average: 1
Electric dark correction enabled: true
Nonlinearity correction enabled: false
Boxcar width: 0
XAxis mode: Wavelengths
Number of Pixels in Spectrum: 3648
>>>>>Begin Spectral Data<<<<<
178.204	-163.33
178.424	-163.33
178.644	-163.33
178.864	-144.89
179.084	-189.95
179.304	18.94
179.524	29.18
179.744	0.51
179.964	-13.82
180.184	33.28
180.404	29.18
180.624	0.51
180.844	-28.16
181.064	-48.64
181.283	6.66
181.503	-30.21
181.723	2.56
181.943	-62.98
182.163	23.04
182.383	33.28
182.602	59.9
182.822	164.35
183.042	6.66
183.262	57.86
183.482	64
183.701	-9.73
183.921	31.23
184.141	10.75
184.361	88.57
184.58	86.53
184.8	72.19
185.02	-11.78
185.239	113.15
185.459	53.76
185.679	76.29
185.898	2.56
186.118	102.91
186.338	61.95
186.557	55.81
186.777	-54.78
186.997	41.47
187.216	25.09
187.436	72.19
187.655	127.49
187.875	33.28
188.095	68.09
188.314	68.09
188.534	98.81
188.753	6.66
188.973	111.1
189.192	150.01
189.412	31.23
189.631	43.52
189.851	74.24
190.07	92.67
190.29	-7.68
190.509	29.18
190.729	35.33
190.948	135.68
191.168	170.49
191.387	96.77
191.607	47.62
191.826	55.81
192.045	2.56
192.265	37.38
192.484	64
192.704	45.57
192.923	61.95
193.142	156.16
193.362	123.39
193.581	74.24
193.8	102.91
194.02	139.77
194.239	33.28
194.458	170.49
194.678	88.57
194.897	82.43
195.116	31.23
195.335	64
195.555	92.67
195.774	10.75
195.993	39.42
196.212	43.52
196.432	45.57
196.651	59.9
196.87	100.86
197.089	80.38
197.308	119.29
197.528	23.04
197.747	10.75
197.966	23.04
198.185	123.39
198.404	31.23
198.623	90.62
198.842	-9.73
199.062	59.9
199.281	109.05
199.5	43.52
199.719	107.01
199.938	27.14
200.157	111.1
200.376	74.24
200.595	168.45
200.814	86.53
201.033	-28.16
201.252	100.86
201.471	25.09
201.69	102.91
201.909	55.81
202.128	-13.82
202.347	45.57
202.566	-79.36
202.785	59.9
203.004	-24.06
203.223	209.4
203.442	33.28
203.661	14.85
203.879	64
204.098	88.57
204.317	115.2
204.536	84.48
204.755	88.57
204.974	96.77
205.193	47.62
205.411	94.72
205.63	43.52
205.849	98.81
206.068	31.23
206.287	14.85
206.505	162.3
206.724	41.47
206.943	33.28
207.162	74.24
207.381	74.24
207.599	37.38
207.818	72.19
208.037	-38.4
208.255	59.9
208.474	25.09
208.693	0.51
208.911	78.33
209.13	111.1
209.349	37.38
209.567	8.7
209.786	76.29
210.005	98.81
210.223	47.62
210.442	35.33
210.661	64
210.879	39.42
211.098	59.9
211.316	82.43
211.535	141.82
211.753	57.86
211.972	102.91
212.191	72.19
212.409	47.62
212.628	-28.16
212.846	23.04
213.065	102.91
213.283	90.62
213.502	49.66
213.72	109.05
213.938	49.66
214.157	53.76
214.375	31.23
214.594	27.14
214.812	96.77
215.031	23.04
215.249	41.47
215.467	43.52
215.686	98.81
215.904	72.19
216.122	35.33
216.341	178.69
216.559	86.53
216.778	119.29
216.996	64
217.214	51.71
217.432	47.62
217.651	14.85
217.869	70.14
218.087	68.09
218.306	33.28
218.524	33.28
218.742	-34.3
218.96	94.72
219.179	16.9
219.397	55.81
219.615	197.12
219.833	74.24
220.051	12.8
220.27	47.62
220.488	80.38
220.706	70.14
220.924	78.33
221.142	59.9
221.36	100.86
221.578	82.43
221.796	-9.73
222.015	100.86
222.233	76.29
222.451	64
222.669	61.95
222.887	111.1
223.105	10.75
223.323	23.04
223.541	16.9
223.759	145.92
223.977	23.04
224.195	113.15
224.413	51.71
224.631	14.85
224.849	-1.54
225.067	166.4
225.285	39.42
225.503	78.33
225.721	25.09
225.939	8.7
226.157	4.61
226.375	129.53
226.592	-9.73
226.81	104.96
227.028	86.53
227.246	80.38
227.464	33.28
227.682	119.29
227.9	113.15
228.117	74.24
228.335	8.7
228.553	90.62
228.771	70.14
228.989	25.09
229.206	0.51
229.424	86.53
229.642	-13.82
229.86	29.18
230.077	94.72
230.295	98.81
230.513	131.58
230.731	133.63
230.948	59.9
231.166	92.67
231.384	57.86
231.601	6.66
231.819	61.95
232.037	6.66
232.254	-15.87
232.472	117.25
232.689	6.66
232.907	53.76
233.125	35.33
233.342	57.86
233.56	41.47
233.777	-17.92
233.995	143.87
234.213	217.6
234.43	14.85
234.648	80.38
234.865	53.76
235.083	31.23
235.3	121.34
235.518	80.38
235.735	115.2
235.953	53.76
236.17	80.38
236.388	31.23
236.605	16.9
236.822	129.53
237.04	92.67
237.257	125.44
237.475	33.28
237.692	98.81
237.909	64
238.127	6.66
238.344	88.57
238.562	74.24
238.779	0.51
238.996	8.7
239.214	90.62
239.431	31.23
239.648	23.04
239.865	86.53
240.083	145.92
240.3	47.62
240.517	-67.07
240.735	84.48
240.952	70.14
241.169	113.15
241.386	20.99
241.603	53.76
241.821	-22.02
242.038	82.43
242.255	92.67
242.472	16.9
242.689	61.95
242.907	158.21
243.124	31.23
243.341	47.62
243.558	-32.26
243.775	98.81
243.992	-62.98
244.209	51.71
244.426	125.44
244.643	68.09
244.86	10.75
245.078	33.28
245.295	23.04
245.512	47.62
245.729	-34.3
245.946	53.76
246.163	45.57
246.38	47.62
246.597	25.09
246.814	39.42
247.031	35.33
247.248	115.2
247.464	64
247.681	-9.73
247.898	107.01
248.115	66.05
248.332	35.33
248.549	104.96
248.766	92.67
248.983	115.2
249.2	96.77
249.417	147.97
249.633	-1.54
249.85	72.19
250.067	-40.45
250.284	47.62
250.501	72.19
250.717	49.66
250.934	18.94
251.151	39.42
251.368	66.05
251.585	113.15
251.801	57.86
252.018	66.05
252.235	172.54
252.451	-26.11
252.668	33.28
252.885	98.81
253.102	78.33
253.318	76.29
253.535	61.95
253.752	104.96
253.968	47.62
254.185	-56.83
254.401	72.19
254.618	-9.73
254.835	-22.02
255.051	68.09
255.268	57.86
255.484	12.8
255.701	68.09
255.917	2.56
256.134	29.18
256.351	76.29
256.567	25.09
256.784	12.8
257	-28.16
257.217	82.43
257.433	55.81
257.65	76.29
257.866	29.18
258.082	27.14
258.299	6.66
258.515	92.67
258.732	78.33
258.948	43.52
259.165	59.9
259.381	102.91
259.597	84.48
259.814	92.67
260.03	-5.63
260.246	16.9
260.463	59.9
260.679	57.86
260.895	39.42
261.112	109.05
261.328	82.43
261.544	6.66
261.761	55.81
261.977	27.14
262.193	-50.69
262.409	100.86
262.626	16.9
262.842	88.57
263.058	31.23
263.274	119.29
263.49	72.19
263.707	76.29
263.923	14.85
264.139	14.85
264.355	123.39
264.571	90.62
264.787	55.81
265.004	137.73
265.22	25.09
265.436	6.66
265.652	6.66
265.868	51.71
266.084	37.38
266.3	45.57
266.516	-24.06
266.732	-1.54
266.948	55.81
267.164	-36.35
267.38	92.67
267.596	66.05
267.812	115.2
268.028	76.29
268.244	0.51
268.46	33.28
268.676	94.72
268.892	-17.92
269.108	2.56
269.324	102.91
269.54	-34.3
269.756	47.62
269.972	-3.58
270.188	90.62
270.403	6.66
270.619	0.51
270.835	39.42
271.051	80.38
271.267	102.91
271.483	4.61
271.698	49.66
271.914	37.38
272.13	70.14
272.346	98.81
272.562	98.81
272.777	129.53
272.993	10.75
273.209	68.09
273.425	31.23
273.64	-24.06
273.856	88.57
274.072	14.85
274.287	66.05
274.503	55.81
274.719	72.19
274.934	72.19
275.15	20.99
275.366	35.33
275.581	14.85
275.797	2.56
276.012	14.85
276.228	70.14
276.444	109.05
276.659	94.72
276.875	31.23
277.09	90.62
277.306	27.14
277.521	61.95
277.737	80.38
277.952	121.34
278.168	72.19
278.383	64
278.599	20.99
278.814	49.66
279.03	33.28
279.245	82.43
279.461	59.9
279.676	57.86
279.892	-30.21
280.107	57.86
280.322	94.72
280.538	74.24
280.753	-1.54
280.969	55.81
281.184	49.66
281.399	129.53
281.615	131.58
281.83	6.66
282.045	-101.89
282.26	-24.06
282.476	-5.63
282.691	27.14
282.906	-17.92
283.122	12.8
283.337	35.33
283.552	51.71
283.767	109.05
283.983	68.09
284.198	12.8
284.413	80.38
284.628	0.51
284.843	68.09
285.058	8.7
285.274	39.42
285.489	37.38
285.704	129.53
285.919	23.04
286.134	16.9
286.349	-32.26
286.564	8.7
286.779	145.92
286.995	39.42
287.21	20.99
287.425	86.53
287.64	41.47
287.855	23.04
288.07	-26.11
288.285	59.9
288.5	82.43
288.715	117.25
288.93	35.33
289.145	31.23
289.36	0.51
289.575	-9.73
289.79	20.99
290.004	49.66
290.219	61.95
290.434	33.28
290.649	-1.54
290.864	72.19
291.079	-1.54
291.294	90.62
291.509	-28.16
291.724	41.47
291.938	14.85
292.153	88.57
292.368	45.57
292.583	8.7
292.798	92.67
293.012	82.43
293.227	39.42
293.442	57.86
293.657	84.48
293.871	107.01
294.086	14.85
294.301	88.57
294.516	129.53
294.73	16.9
294.945	47.62
295.16	-101.89
295.374	137.73
295.589	90.62
295.804	-28.16
296.018	57.86
296.233	49.66
296.447	47.62
296.662	-13.82
296.877	154.11
297.091	16.9
297.306	57.86
297.52	78.33
297.735	104.96
297.949	119.29
298.164	74.24
298.378	35.33
298.593	-24.06
298.807	-79.36
299.022	102.91
299.236	154.11
299.451	-3.58
299.665	82.43
299.88	41.47
300.094	74.24
300.309	6.66
300.523	66.05
300.737	-1.54
300.952	123.39
301.166	68.09
301.381	-30.21
301.595	76.29
301.809	47.62
302.024	41.47
302.238	-52.74
302.452	104.96
302.667	68.09
302.881	74.24
303.095	109.05
303.309	55.81
303.524	10.75
303.738	20.99
303.952	72.19
304.166	25.09
304.381	-5.63
304.595	78.33
304.809	14.85
305.023	98.81
305.237	-48.64
305.452	70.14
305.666	84.48
305.88	80.38
306.094	31.23
306.308	68.09
306.522	115.2
306.736	66.05
306.95	-9.73
307.164	135.68
307.379	41.47
307.593	139.77
307.807	76.29
308.021	111.1
308.235	117.25
308.449	39.42
308.663	23.04
308.877	145.92
309.091	25.09
309.305	115.2
309.519	14.85
309.733	90.62
309.947	-11.78
310.161	43.52
310.374	61.95
310.588	117.25
310.802	33.28
311.016	27.14
311.23	80.38
311.444	90.62
311.658	80.38
311.872	88.57
312.085	64
312.299	66.05
312.513	80.38
312.727	57.86
312.941	37.38
313.154	109.05
313.368	18.94
313.582	23.04
313.796	27.14
314.009	4.61
314.223	104.96
314.437	53.76
314.651	141.82
314.864	49.66
315.078	70.14
315.292	16.9
315.505	41.47
315.719	121.34
315.933	39.42
316.146	41.47
316.36	-103.93
316.573	211.45
316.787	72.19
317.001	68.09
317.214	49.66
317.428	18.94
317.641	8.7
317.855	31.23
318.068	41.47
318.282	88.57
318.495	156.16
318.709	195.07
318.922	41.47
319.136	31.23
319.349	64
319.563	123.39
319.776	61.95
319.99	-15.87
320.203	37.38
320.417	82.43
320.63	33.28
320.843	100.86
321.057	94.72
321.27	47.62
321.483	111.1
321.697	100.86
321.91	57.86
322.124	-17.92
322.337	82.43
322.55	18.94
322.763	51.71
322.977	64
323.19	-48.64
323.403	25.09
323.617	109.05
323.83	147.97
324.043	68.09
324.256	96.77
324.469	-44.54
324.683	100.86
324.896	57.86
325.109	18.94
325.322	-50.69
325.535	57.86
325.748	98.81
325.962	2.56
326.175	33.28
326.388	104.96
326.601	96.77
326.814	66.05
327.027	80.38
327.24	76.29
327.453	4.61
327.666	102.91
327.879	84.48
328.092	94.72
328.305	23.04
328.518	72.19
328.731	-11.78
328.944	66.05
329.157	47.62
329.37	92.67
329.583	98.81
329.796	72.19
330.009	-19.97
330.222	53.76
330.435	121.34
330.648	70.14
330.861	84.48
331.073	23.04
331.286	88.57
331.499	76.29
331.712	47.62
331.925	33.28
332.138	64
332.35	96.77
332.563	2.56
332.776	150.01
332.989	35.33
333.202	37.38
333.414	109.05
333.627	49.66
333.84	76.29
334.053	55.81
334.265	64
334.478	33.28
334.691	111.1
334.903	59.9
335.116	0.51
335.329	-38.4
335.541	86.53
335.754	90.62
335.966	14.85
336.179	41.47
336.392	57.86
336.604	47.62
336.817	74.24
337.029	57.86
337.242	68.09
337.454	37.38
337.667	55.81
337.88	72.19
338.092	39.42
338.305	98.81
338.517	70.14
338.729	90.62
338.942	74.24
339.154	10.75
339.367	18.94
339.579	49.66
339.792	2.56
340.004	49.66
340.217	61.95
340.429	10.75
340.641	-81.41
340.854	107.01
341.066	78.33
341.278	82.43
341.491	96.77
341.703	61.95
341.915	-1.54
342.128	98.81
342.34	76.29
342.552	57.86
342.764	47.62
342.977	31.23
343.189	64
343.401	137.73
343.613	-50.69
343.826	66.05
344.038	-17.92
344.25	55.81
344.462	76.29
344.674	88.57
344.886	16.9
345.099	72.19
345.311	23.04
345.523	16.9
345.735	-40.45
345.947	121.34
346.159	137.73
346.371	53.76
346.583	119.29
346.795	139.77
347.007	47.62
347.219	-42.5
347.431	107.01
347.643	152.06
347.855	47.62
348.067	178.69
348.279	2.56
348.491	137.73
348.703	72.19
348.915	107.01
349.127	-42.5
349.339	145.92
349.551	4.61
349.763	55.81
349.975	-26.11
350.187	96.77
350.399	43.52
350.61	102.91
350.822	57.86
351.034	25.09
351.246	96.77
351.458	90.62
351.669	102.91
351.881	123.39
352.093	113.15
352.305	70.14
352.517	45.57
352.728	150.01
352.94	35.33
353.152	57.86
353.363	16.9
353.575	61.95
353.787	100.86
353.999	96.77
354.21	139.77
354.422	-7.68
354.633	72.19
354.845	18.94
355.057	74.24
355.268	80.38
355.48	68.09
355.692	-44.54
355.903	78.33
356.115	-5.63
356.326	-1.54
356.538	84.48
356.749	123.39
356.961	70.14
357.172	25.09
357.384	6.66
357.595	156.16
357.807	86.53
358.018	64
358.23	6.66
358.441	125.44
358.653	90.62
358.864	39.42
359.075	47.62
359.287	129.53
359.498	131.58
359.709	43.52
359.921	37.38
360.132	53.76
360.344	45.57
360.555	98.81
360.766	125.44
360.977	76.29
361.189	117.25
361.4	51.71
361.611	104.96
361.823	90.62
362.034	98.81
362.245	16.9
362.456	41.47
362.667	72.19
362.879	100.86
363.09	37.38
363.301	66.05
363.512	35.33
363.723	41.47
363.935	86.53
364.146	74.24
364.357	72.19
364.568	14.85
364.779	-24.06
364.99	111.1
365.201	47.62
365.412	23.04
365.623	-3.58
365.834	160.25
366.045	-19.97
366.256	41.47
366.467	16.9
366.678	49.66
366.889	76.29
367.1	43.52
367.311	133.63
367.522	49.66
367.733	20.99
367.944	39.42
368.155	96.77
368.366	16.9
368.577	109.05
368.788	107.01
368.999	-32.26
369.209	47.62
369.42	133.63
369.631	182.78
369.842	104.96
370.053	61.95
370.264	104.96
370.474	117.25
370.685	90.62
370.896	76.29
371.107	76.29
371.317	121.34
371.528	55.81
371.739	113.15
371.95	133.63
372.16	137.73
372.371	25.09
372.582	31.23
372.792	90.62
373.003	68.09
373.214	23.04
373.424	102.91
373.635	27.14
373.846	92.67
374.056	57.86
374.267	68.09
374.477	51.71
374.688	82.43
374.898	84.48
375.109	80.38
375.319	141.82
375.53	61.95
375.74	68.09
375.951	57.86
376.161	72.19
376.372	102.91
376.582	27.14
376.793	82.43
377.003	47.62
377.214	90.62
377.424	96.77
377.635	82.43
377.845	84.48
378.055	139.77
378.266	-22.02
378.476	84.48
378.686	-5.63
378.897	117.25
379.107	68.09
379.317	107.01
379.528	51.71
379.738	96.77
379.948	64
380.158	115.2
380.369	66.05
380.579	57.86
380.789	98.81
380.999	162.3
381.21	113.15
381.42	86.53
381.63	41.47
381.84	129.53
382.05	72.19
382.261	111.1
382.471	86.53
382.681	84.48
382.891	74.24
383.101	55.81
383.311	2.56
383.521	10.75
383.731	84.48
383.941	115.2
384.151	100.86
384.361	61.95
384.571	16.9
384.781	92.67
384.991	168.45
385.201	184.83
385.411	96.77
385.621	76.29
385.831	84.48
386.041	74.24
386.251	68.09
386.461	68.09
386.671	23.04
386.881	68.09
387.091	64
387.301	53.76
387.511	59.9
387.72	127.49
387.93	111.1
388.14	-1.54
388.35	55.81
388.56	45.57
388.769	109.05
388.979	117.25
389.189	57.86
389.399	115.2
389.609	90.62
389.818	68.09
390.028	12.8
390.238	111.1
390.447	55.81
390.657	104.96
390.867	109.05
391.076	23.04
391.286	113.15
391.496	41.47
391.705	84.48
391.915	145.92
392.125	80.38
392.334	70.14
392.544	145.92
392.753	141.82
392.963	-42.5
393.172	49.66
393.382	25.09
393.591	139.77
393.801	6.66
394.01	90.62
394.22	92.67
394.429	80.38
394.639	104.96
394.848	129.53
395.058	20.99
395.267	123.39
395.477	107.01
395.686	121.34
395.895	145.92
396.105	186.88
396.314	137.73
396.524	80.38
396.733	23.04
396.942	107.01
397.152	111.1
397.361	158.21
397.57	82.43
397.78	45.57
397.989	84.48
398.198	164.35
398.407	47.62
398.617	-13.82
398.826	61.95
399.035	88.57
399.244	92.67
399.453	162.3
399.663	137.73
399.872	150.01
400.081	92.67
400.29	137.73
400.499	72.19
400.708	162.3
400.917	57.86
401.127	61.95
401.336	41.47
401.545	113.15
401.754	125.44
401.963	137.73
402.172	109.05
402.381	64
402.59	125.44
402.799	121.34
403.008	172.54
403.217	141.82
403.426	137.73
403.635	64
403.844	68.09
404.053	166.4
404.262	100.86
404.471	211.45
404.68	100.86
404.888	205.31
405.097	113.15
405.306	131.58
405.515	100.86
405.724	125.44
405.933	205.31
406.142	156.16
406.35	178.69
406.559	170.49
406.768	186.88
406.977	203.26
407.185	242.17
407.394	123.39
407.603	115.2
407.812	199.16
408.02	209.4
408.229	250.36
408.438	227.84
408.646	143.87
408.855	225.79
409.064	311.8
409.272	262.65
409.481	223.74
409.69	92.67
409.898	227.84
410.107	270.84
410.315	260.6
410.524	207.36
410.733	389.63
410.941	350.71
411.15	281.08
411.358	326.14
411.567	301.56
411.775	303.61
411.984	309.76
412.192	358.91
412.401	279.04
412.609	387.58
412.818	385.53
413.026	377.34
413.234	358.91
413.443	565.75
413.651	416.25
413.86	367.1
414.068	432.63
414.276	571.9
414.485	471.54
414.693	573.94
414.901	571.9
415.11	532.98
415.318	473.59
415.526	588.28
415.734	631.29
415.943	596.47
416.151	637.43
416.359	647.67
416.567	743.92
416.776	680.44
416.984	741.88
417.192	776.69
417.4	793.08
417.608	733.68
417.817	754.16
418.025	918
418.233	958.96
418.441	887.28
418.649	907.76
418.857	969.2
419.065	1057.26
419.273	965.11
419.481	1106.42
419.689	1128.94
419.897	1047.02
420.105	1161.71
420.313	1217.01
420.521	1276.4
420.729	1233.39
420.937	1237.49
421.145	1317.36
421.353	1415.66
421.561	1587.69
421.769	1520.1
421.977	1616.36
422.185	1548.78
422.393	1649.13
422.601	1755.62
422.809	1743.33
423.017	1747.43
423.224	1935.84
423.432	2040.29
423.64	1921.51
423.848	2032.1
424.056	1917.41
424.263	2148.83
424.471	2062.82
424.679	2214.37
424.887	2255.33
425.094	2499.03
425.302	2449.88
425.51	2566.62
425.718	2578.9
425.925	2517.47
426.133	2597.34
426.341	2841.04
426.548	2896.34
426.756	2914.77
426.964	3070.42
427.171	3185.1
427.379	3281.36
427.586	3273.17
427.794	3590.6
428.001	3707.34
428.209	3600.84
428.417	3625.42
428.624	3916.23
428.832	3854.79
429.039	3934.66
429.247	3924.42
429.454	4309.44
429.662	4569.53
429.869	4293.05
430.076	4569.53
430.284	4448.7
430.491	4626.87
430.699	4882.87
430.906	4719.03
431.114	4993.46
431.321	5087.67
431.528	5104.05
431.736	5515.69
431.943	5888.42
432.15	5712.3
432.358	5693.87
432.565	6048.16
432.772	5943.72
432.979	6312.35
433.187	6406.56
433.394	6541.72
433.601	6828.44
433.808	6881.69
434.016	6859.16
434.223	7160.21
434.43	7559.56
434.637	7567.76
434.844	7909.77
435.052	8157.57
435.259	8124.8
435.466	8133
435.673	8057.22
435.88	8642.94
436.087	8989.05
436.294	8860.02
436.501	8665.47
436.708	9111.92
436.915	9415.02
437.122	9849.19
437.329	9738.6
437.537	10080.61
437.743	10150.25
437.95	10035.56
438.157	10641.76
438.364	10940.76
438.571	11012.44
438.778	11125.08
438.985	12013.9
439.192	11508.05
439.399	11966.79
439.606	11700.56
439.813	12638.53
440.02	13048.12
440.227	12886.33
440.433	12673.34
440.64	13191.48
440.847	13216.05
441.054	13437.23
441.261	14510.37
441.467	14072.11
441.674	14473.51
441.881	14909.72
442.088	14932.25
442.294	14891.29
442.501	15235.35
442.708	15694.1
442.914	16099.59
443.121	16881.92
443.328	16134.41
443.534	17373.43
443.741	16951.55
443.948	16802.05
444.154	18307.3
444.361	17780.98
444.568	17996.01
444.774	18239.72
444.981	18204.91
445.187	18952.41
445.394	19900.62
445.6	19212.51
445.807	20990.14
446.013	20510.92
446.22	20529.35
446.426	21766.32
446.633	21684.41
446.839	22476.97
447.046	21631.16
447.252	22726.82
447.459	23029.92
447.665	22497.45
447.871	23842.96
448.078	24762.5
448.284	23822.48
448.491	24230.03
448.697	25034.88
448.903	25763.96
449.11	25972.85
449.316	25333.89
449.522	25688.18
449.728	26632.3
449.935	26789.99
450.141	26689.64
450.347	27207.78
450.553	26210.42
450.76	26589.29
450.966	27738.2
451.172	27189.35
451.378	28086.36
451.584	27742.3
451.791	28194.9
451.997	28334.16
452.203	28489.81
452.409	28647.5
452.615	28616.78
452.821	27598.94
453.027	27332.7
453.233	28921.93
453.44	27510.88
453.646	27768.92
453.852	27947.09
454.058	28235.86
454.264	27600.99
454.47	28344.4
454.676	27355.23
454.882	28555.34
455.088	26181.74
455.294	26267.76
455.5	26933.35
455.705	27172.96
455.911	26030.19
456.117	25440.38
456.323	25090.18
456.529	23806.1
456.735	24961.16
456.941	24262.8
457.147	24223.89
457.352	23105.7
457.558	23206.05
457.764	22929.57
457.97	22509.74
458.176	21938.35
458.381	22048.94
458.587	20865.22
458.793	21014.72
458.999	19859.66
459.204	21428.41
459.41	20609.22
459.616	19196.12
459.821	19411.16
460.027	19263.71
460.233	18778.34
460.438	17934.57
460.644	18200.81
460.85	17357.05
461.055	17135.87
461.261	17058.04
461.466	15782.16
461.672	15386.9
461.878	16238.86
462.083	15343.89
462.289	14879
462.494	14702.88
462.7	14018.86
462.905	13867.31
463.111	14354.72
463.316	14520.61
463.522	14088.49
463.727	14057.77
463.932	13881.64
464.138	13898.03
464.343	13822.25
464.549	13484.34
464.754	13936.94
464.959	13852.97
465.165	13568.3
465.37	13091.13
465.575	12638.53
465.781	13306.16
465.986	13386.04
466.191	12667.2
466.397	12577.09
466.602	11893.07
466.807	12462.4
467.012	12771.65
467.218	12618.05
467.423	12458.31
