Data from USB4F104151__68__13-05-57-960.txt Node

Date: Fri Mar 14 13:05:57 EDT 2025
User: louis
Spectrometer: USB4F10415
Trigger mode: 4
Integration Time (sec): 4.000000E-2
Scans to average: 1
Electric dark correction enabled: true
Nonlinearity correction enabled: false
Boxcar width: 0
XAxis mode: Wavelengths
Number of Pixels in Spectrum: 3648
>>>>>Begin Spectral Data<<<<<
178.204	-194.56
178.424	-194.56
178.644	-194.56
178.864	-192.51
179.084	-149.5
179.304	38.91
179.524	-6.14
179.744	2.05
179.964	53.25
180.184	59.39
180.404	-45.06
180.624	-40.96
180.844	6.14
181.064	-6.14
181.283	-57.34
181.503	-4.1
181.723	-0
181.943	-59.39
182.163	100.35
182.383	30.72
182.602	102.4
182.822	24.58
183.042	-2.05
183.262	36.86
183.482	73.73
183.701	18.43
183.921	26.62
184.141	-0
184.361	71.68
184.58	69.63
184.8	49.15
185.02	-28.67
185.239	71.68
185.459	30.72
185.679	94.21
185.898	22.53
186.118	147.45
186.338	81.92
186.557	32.77
186.777	-32.77
186.997	-26.62
187.216	-12.29
187.436	92.16
187.655	104.45
187.875	61.44
188.095	86.01
188.314	67.58
188.534	81.92
188.753	55.3
188.973	53.25
189.192	114.69
189.412	55.3
189.631	34.82
189.851	57.34
190.07	124.93
190.29	-2.05
190.509	-4.1
190.729	14.34
190.948	131.07
191.168	178.17
191.387	104.45
191.607	38.91
191.826	43.01
192.045	6.14
192.265	81.92
192.484	-22.53
192.704	10.24
192.923	8.19
193.142	161.79
193.362	36.86
193.581	63.49
193.8	122.88
194.02	75.77
194.239	26.62
194.458	32.77
194.678	83.97
194.897	38.91
195.116	73.73
195.335	79.87
195.555	88.06
195.774	43.01
195.993	55.3
196.212	55.3
196.432	55.3
196.651	12.29
196.87	75.77
197.089	116.73
197.308	53.25
197.528	106.49
197.747	-73.73
197.966	135.17
198.185	81.92
198.404	-8.19
198.623	-26.62
198.842	102.4
199.062	6.14
199.281	75.77
199.5	34.82
199.719	100.35
199.938	69.63
200.157	155.65
200.376	69.63
200.595	100.35
200.814	47.1
201.033	83.97
201.252	47.1
201.471	100.35
201.69	22.53
201.909	4.1
202.128	2.05
202.347	131.07
202.566	55.3
202.785	57.34
203.004	12.29
203.223	98.3
203.442	-2.05
203.661	49.15
203.879	63.49
204.098	96.25
204.317	83.97
204.536	110.59
204.755	57.34
204.974	10.24
205.193	57.34
205.411	79.87
205.63	79.87
205.849	59.39
206.068	32.77
206.287	45.06
206.505	-2.05
206.724	-57.34
206.943	-24.58
207.162	24.58
207.381	73.73
207.599	53.25
207.818	112.64
208.037	-0
208.255	57.34
208.474	28.67
208.693	40.96
208.911	57.34
209.13	-4.1
209.349	96.25
209.567	79.87
209.786	114.69
210.005	36.86
210.223	-8.19
210.442	-38.91
210.661	79.87
210.879	55.3
211.098	16.38
211.316	104.45
211.535	92.16
211.753	26.62
211.972	81.92
212.191	26.62
212.409	32.77
212.628	86.01
212.846	96.25
213.065	94.21
213.283	96.25
213.502	100.35
213.72	53.25
213.938	45.06
214.157	-32.77
214.375	83.97
214.594	38.91
214.812	12.29
215.031	32.77
215.249	-34.82
215.467	47.1
215.686	4.1
215.904	38.91
216.122	38.91
216.341	-0
216.559	67.58
216.778	67.58
216.996	45.06
217.214	83.97
217.432	-18.43
217.651	2.05
217.869	26.62
218.087	34.82
218.306	-0
218.524	30.72
218.742	53.25
218.96	53.25
219.179	24.58
219.397	75.77
219.615	120.83
219.833	83.97
220.051	94.21
220.27	114.69
220.488	129.02
220.706	65.53
220.924	40.96
221.142	51.2
221.36	65.53
221.578	30.72
221.796	-4.1
222.015	83.97
222.233	-26.62
222.451	73.73
222.669	49.15
222.887	67.58
223.105	86.01
223.323	67.58
223.541	22.53
223.759	98.3
223.977	51.2
224.195	137.21
224.413	88.06
224.631	63.49
224.849	139.26
225.067	83.97
225.285	67.58
225.503	10.24
225.721	-22.53
225.939	20.48
226.157	67.58
226.375	176.13
226.592	20.48
226.81	10.24
227.028	86.01
227.246	129.02
227.464	65.53
227.682	71.68
227.9	133.12
228.117	106.49
228.335	59.39
228.553	36.86
228.771	55.3
228.989	67.58
229.206	88.06
229.424	-57.34
229.642	47.1
229.86	-10.24
230.077	135.17
230.295	131.07
230.513	75.77
230.731	73.73
230.948	71.68
231.166	75.77
231.384	47.1
231.601	55.3
231.819	79.87
232.037	22.53
232.254	40.96
232.472	18.43
232.689	59.39
232.907	59.39
233.125	45.06
233.342	32.77
233.56	-14.34
233.777	-6.14
233.995	59.39
234.213	43.01
234.43	34.82
234.648	-10.24
234.865	83.97
235.083	155.65
235.3	120.83
235.518	14.34
235.735	110.59
235.953	43.01
236.17	36.86
236.388	49.15
236.605	47.1
236.822	184.32
237.04	22.53
237.257	73.73
237.475	-16.38
237.692	38.91
237.909	16.38
238.127	14.34
238.344	55.3
238.562	49.15
238.779	-32.77
238.996	59.39
239.214	71.68
239.431	-8.19
239.648	-34.82
239.865	20.48
240.083	112.64
240.3	16.38
240.517	-34.82
240.735	-10.24
240.952	65.53
241.169	61.44
241.386	28.67
241.603	24.58
241.821	-10.24
242.038	40.96
242.255	81.92
242.472	18.43
242.689	67.58
242.907	47.1
243.124	10.24
243.341	69.63
243.558	30.72
243.775	30.72
243.992	24.58
244.209	38.91
244.426	186.37
244.643	90.11
244.86	24.58
245.078	61.44
245.295	16.38
245.512	18.43
245.729	-18.43
245.946	22.53
246.163	61.44
246.38	-24.58
246.597	2.05
246.814	-10.24
247.031	4.1
247.248	63.49
247.464	16.38
247.681	83.97
247.898	79.87
248.115	94.21
248.332	20.48
248.549	47.1
248.766	139.26
248.983	118.78
249.2	59.39
249.417	79.87
249.633	28.67
249.85	81.92
250.067	38.91
250.284	63.49
250.501	73.73
250.717	36.86
250.934	-24.58
251.151	59.39
251.368	-0
251.585	-8.19
251.801	71.68
252.018	-26.62
252.235	96.25
252.451	-0
252.668	24.58
252.885	116.73
253.102	36.86
253.318	22.53
253.535	-16.38
253.752	51.2
253.968	63.49
254.185	-28.67
254.401	38.91
254.618	30.72
254.835	88.06
255.051	137.21
255.268	32.77
255.484	8.19
255.701	45.06
255.917	88.06
256.134	-34.82
256.351	30.72
256.567	-26.62
256.784	55.3
257	-8.19
257.217	98.3
257.433	20.48
257.65	45.06
257.866	102.4
258.082	43.01
258.299	116.73
258.515	32.77
258.732	-22.53
258.948	8.19
259.165	26.62
259.381	59.39
259.597	24.58
259.814	53.25
260.03	36.86
260.246	14.34
260.463	122.88
260.679	38.91
260.895	34.82
261.112	100.35
261.328	59.39
261.544	4.1
261.761	110.59
261.977	10.24
262.193	-8.19
262.409	116.73
262.626	71.68
262.842	8.19
263.058	81.92
263.274	129.02
263.49	86.01
263.707	102.4
263.923	67.58
264.139	24.58
264.355	90.11
264.571	100.35
264.787	20.48
265.004	104.45
265.22	40.96
265.436	49.15
265.652	22.53
265.868	59.39
266.084	51.2
266.3	65.53
266.516	-8.19
266.732	22.53
266.948	104.45
267.164	71.68
267.38	90.11
267.596	36.86
267.812	116.73
268.028	94.21
268.244	14.34
268.46	112.64
268.676	90.11
268.892	-2.05
269.108	6.14
269.324	32.77
269.54	-43.01
269.756	118.78
269.972	28.67
270.188	79.87
270.403	73.73
270.619	-28.67
270.835	-8.19
271.051	14.34
271.267	49.15
271.483	24.58
271.698	73.73
271.914	65.53
272.13	2.05
272.346	14.34
272.562	108.54
272.777	110.59
272.993	55.3
273.209	34.82
273.425	147.45
273.64	32.77
273.856	79.87
274.072	32.77
274.287	57.34
274.503	131.07
274.719	110.59
274.934	-4.1
275.15	24.58
275.366	-8.19
275.581	38.91
275.797	43.01
276.012	34.82
276.228	14.34
276.444	45.06
276.659	63.49
276.875	28.67
277.09	22.53
277.306	86.01
277.521	36.86
277.737	53.25
277.952	200.7
278.168	-0
278.383	51.2
278.599	47.1
278.814	73.73
279.03	-12.29
279.245	133.12
279.461	69.63
279.676	96.25
279.892	36.86
280.107	16.38
280.322	16.38
280.538	81.92
280.753	40.96
280.969	81.92
281.184	28.67
281.399	104.45
281.615	43.01
281.83	108.54
282.045	-20.48
282.26	26.62
282.476	59.39
282.691	116.73
282.906	43.01
283.122	8.19
283.337	6.14
283.552	38.91
283.767	79.87
283.983	8.19
284.198	79.87
284.413	110.59
284.628	-30.72
284.843	92.16
285.058	86.01
285.274	143.36
285.489	59.39
285.704	100.35
285.919	18.43
286.134	55.3
286.349	18.43
286.564	63.49
286.779	104.45
286.995	10.24
287.21	57.34
287.425	114.69
287.64	26.62
287.855	32.77
288.07	4.1
288.285	137.21
288.5	104.45
288.715	38.91
288.93	-2.05
289.145	14.34
289.36	102.4
289.575	49.15
289.79	61.44
290.004	43.01
290.219	110.59
290.434	86.01
290.649	24.58
290.864	-22.53
291.079	63.49
291.294	106.49
291.509	120.83
291.724	-8.19
291.938	-16.38
292.153	47.1
292.368	-2.05
292.583	-26.62
292.798	112.64
293.012	30.72
293.227	34.82
293.442	47.1
293.657	104.45
293.871	114.69
294.086	8.19
294.301	71.68
294.516	77.82
294.73	14.34
294.945	-90.11
295.16	73.73
295.374	143.36
295.589	122.88
295.804	51.2
296.018	118.78
296.233	77.82
296.447	38.91
296.662	79.87
296.877	83.97
297.091	69.63
297.306	-36.86
297.52	-4.1
297.735	49.15
297.949	32.77
298.164	71.68
298.378	100.35
298.593	34.82
298.807	-12.29
299.022	71.68
299.236	90.11
299.451	67.58
299.665	24.58
299.88	-0
300.094	137.21
300.309	24.58
300.523	63.49
300.737	38.91
300.952	65.53
301.166	40.96
301.381	49.15
301.595	18.43
301.809	34.82
302.024	139.26
302.238	28.67
302.452	122.88
302.667	38.91
302.881	71.68
303.095	83.97
303.309	40.96
303.524	30.72
303.738	6.14
303.952	55.3
304.166	47.1
304.381	-26.62
304.595	133.12
304.809	-36.86
305.023	106.49
305.237	110.59
305.452	75.77
305.666	137.21
305.88	-4.1
306.094	143.36
306.308	129.02
306.522	88.06
306.736	116.73
306.95	18.43
307.164	126.97
307.379	24.58
307.593	135.17
307.807	71.68
308.021	110.59
308.235	55.3
308.449	2.05
308.663	30.72
308.877	204.8
309.091	69.63
309.305	40.96
309.519	6.14
309.733	81.92
309.947	43.01
310.161	51.2
310.374	43.01
310.588	49.15
310.802	2.05
311.016	69.63
311.23	51.2
311.444	-18.43
311.658	34.82
311.872	79.87
312.085	79.87
312.299	47.1
312.513	120.83
312.727	30.72
312.941	-43.01
313.154	20.48
313.368	96.25
313.582	55.3
313.796	167.93
314.009	-16.38
314.223	-14.34
314.437	63.49
314.651	-20.48
314.864	49.15
315.078	55.3
315.292	88.06
315.505	34.82
315.719	118.78
315.933	96.25
316.146	61.44
316.36	24.58
316.573	88.06
316.787	55.3
317.001	110.59
317.214	83.97
317.428	47.1
317.641	6.14
317.855	96.25
318.068	-8.19
318.282	40.96
318.495	63.49
318.709	43.01
318.922	59.39
319.136	73.73
319.349	96.25
319.563	79.87
319.776	-12.29
319.99	47.1
320.203	106.49
320.417	26.62
320.63	28.67
320.843	133.12
321.057	40.96
321.27	38.91
321.483	92.16
321.697	102.4
321.91	63.49
322.124	-10.24
322.337	63.49
322.55	100.35
322.763	8.19
322.977	51.2
323.19	34.82
323.403	14.34
323.617	92.16
323.83	139.26
324.043	-47.1
324.256	24.58
324.469	-36.86
324.683	67.58
324.896	18.43
325.109	102.4
325.322	51.2
325.535	129.02
325.748	43.01
325.962	49.15
326.175	43.01
326.388	47.1
326.601	28.67
326.814	71.68
327.027	108.54
327.24	75.77
327.453	57.34
327.666	63.49
327.879	79.87
328.092	90.11
328.305	10.24
328.518	-0
328.731	69.63
328.944	155.65
329.157	63.49
329.37	18.43
329.583	141.31
329.796	167.93
330.009	36.86
330.222	75.77
330.435	49.15
330.648	98.3
330.861	43.01
331.073	90.11
331.286	120.83
331.499	81.92
331.712	108.54
331.925	88.06
332.138	110.59
332.35	69.63
332.563	47.1
332.776	149.5
332.989	-30.72
333.202	20.48
333.414	4.1
333.627	65.53
333.84	71.68
334.053	98.3
334.265	-8.19
334.478	75.77
334.691	2.05
334.903	71.68
335.116	14.34
335.329	59.39
335.541	124.93
335.754	139.26
335.966	120.83
336.179	94.21
336.392	24.58
336.604	20.48
336.817	83.97
337.029	65.53
337.242	112.64
337.454	38.91
337.667	102.4
337.88	83.97
338.092	116.73
338.305	118.78
338.517	67.58
338.729	124.93
338.942	59.39
339.154	10.24
339.367	16.38
339.579	69.63
339.792	59.39
340.004	65.53
340.217	18.43
340.429	120.83
340.641	77.82
340.854	20.48
341.066	57.34
341.278	63.49
341.491	139.26
341.703	81.92
341.915	30.72
342.128	143.36
342.34	14.34
342.552	43.01
342.764	106.49
342.977	65.53
343.189	90.11
343.401	88.06
343.613	12.29
343.826	65.53
344.038	4.1
344.25	73.73
344.462	129.02
344.674	34.82
344.886	94.21
345.099	116.73
345.311	100.35
345.523	63.49
345.735	26.62
345.947	100.35
346.159	49.15
346.371	63.49
346.583	79.87
346.795	202.75
347.007	73.73
347.219	28.67
347.431	43.01
347.643	104.45
347.855	-18.43
348.067	120.83
348.279	73.73
348.491	-26.62
348.703	65.53
348.915	65.53
349.127	28.67
349.339	83.97
349.551	65.53
349.763	86.01
349.975	104.45
350.187	81.92
350.399	147.45
350.61	131.07
350.822	59.39
351.034	143.36
351.246	43.01
351.458	8.19
351.669	49.15
351.881	122.88
352.093	122.88
352.305	147.45
352.517	55.3
352.728	106.49
352.94	69.63
353.152	149.5
353.363	67.58
353.575	8.19
353.787	180.22
353.999	55.3
354.21	120.83
354.422	38.91
354.633	28.67
354.845	73.73
355.057	79.87
355.268	18.43
355.48	79.87
355.692	26.62
355.903	106.49
356.115	36.86
356.326	24.58
356.538	169.98
356.749	98.3
356.961	129.02
357.172	-8.19
357.384	2.05
357.595	120.83
357.807	61.44
358.018	49.15
358.23	57.34
358.441	90.11
358.653	71.68
358.864	45.06
359.075	-4.1
359.287	63.49
359.498	124.93
359.709	32.77
359.921	120.83
360.132	79.87
360.344	169.98
360.555	90.11
360.766	86.01
360.977	77.82
361.189	176.13
361.4	51.2
361.611	96.25
361.823	106.49
362.034	137.21
362.245	86.01
362.456	63.49
362.667	108.54
362.879	79.87
363.09	63.49
363.301	79.87
363.512	145.41
363.723	69.63
363.935	-18.43
364.146	69.63
364.357	34.82
364.568	106.49
364.779	-18.43
364.99	67.58
365.201	75.77
365.412	122.88
365.623	-26.62
365.834	106.49
366.045	59.39
366.256	126.97
366.467	116.73
366.678	71.68
366.889	67.58
367.1	131.07
367.311	83.97
367.522	43.01
367.733	16.38
367.944	53.25
368.155	49.15
368.366	116.73
368.577	57.34
368.788	96.25
368.999	4.1
369.209	92.16
369.42	139.26
369.631	51.2
369.842	75.77
370.053	90.11
370.264	190.46
370.474	20.48
370.685	139.26
370.896	67.58
371.107	104.45
371.317	169.98
371.528	90.11
371.739	163.84
371.95	53.25
372.16	65.53
372.371	49.15
372.582	129.02
372.792	104.45
373.003	43.01
373.214	32.77
373.424	122.88
373.635	20.48
373.846	96.25
374.056	30.72
374.267	118.78
374.477	143.36
374.688	77.82
374.898	155.65
375.109	30.72
375.319	59.39
375.53	100.35
375.74	165.89
375.951	43.01
376.161	165.89
376.372	114.69
376.582	67.58
376.793	47.1
377.003	55.3
377.214	49.15
377.424	32.77
377.635	155.65
377.845	28.67
378.055	135.17
378.266	77.82
378.476	100.35
378.686	53.25
378.897	79.87
379.107	147.45
379.317	126.97
379.528	6.14
379.738	96.25
379.948	49.15
380.158	98.3
380.369	22.53
380.579	102.4
380.789	67.58
380.999	139.26
381.21	180.22
381.42	194.56
381.63	139.26
381.84	69.63
382.05	61.44
382.261	57.34
382.471	73.73
382.681	65.53
382.891	145.41
383.101	96.25
383.311	116.73
383.521	6.14
383.731	157.69
383.941	133.12
384.151	83.97
384.361	135.17
384.571	90.11
384.781	8.19
384.991	169.98
385.201	188.41
385.411	22.53
385.621	153.6
385.831	100.35
386.041	112.64
386.251	88.06
386.461	108.54
386.671	94.21
386.881	88.06
387.091	38.91
387.301	169.98
387.511	153.6
387.72	104.45
387.93	120.83
388.14	-18.43
388.35	120.83
388.56	182.27
388.769	165.89
388.979	100.35
389.189	86.01
389.399	118.78
389.609	126.97
389.818	143.36
390.028	153.6
390.238	116.73
390.447	155.65
390.657	81.92
390.867	36.86
391.076	26.62
391.286	79.87
391.496	96.25
391.705	129.02
391.915	178.17
392.125	51.2
392.334	155.65
392.544	100.35
392.753	196.6
392.963	106.49
393.172	163.84
393.382	30.72
393.591	73.73
393.801	120.83
394.01	243.71
394.22	133.12
394.429	77.82
394.639	73.73
394.848	188.41
395.058	126.97
395.267	47.1
395.477	143.36
395.686	96.25
395.895	215.04
396.105	157.69
396.314	139.26
396.524	155.65
396.733	124.93
396.942	120.83
397.152	178.17
397.361	69.63
397.57	139.26
397.78	53.25
397.989	167.93
398.198	237.56
398.407	131.07
398.617	108.54
398.826	118.78
399.035	57.34
399.244	227.32
399.453	145.41
399.663	184.32
399.872	215.04
400.081	172.03
400.29	196.6
400.499	145.41
400.708	237.56
400.917	190.46
401.127	155.65
401.336	129.02
401.545	215.04
401.754	151.55
401.963	153.6
402.172	149.5
402.381	143.36
402.59	182.27
402.799	221.18
403.008	194.56
403.217	178.17
403.426	243.71
403.635	157.69
403.844	161.79
404.053	141.31
404.262	219.13
404.471	241.66
404.68	196.6
404.888	182.27
405.097	174.08
405.306	212.99
405.515	247.8
405.724	122.88
405.933	227.32
406.142	282.62
406.35	237.56
406.559	210.94
406.768	237.56
406.977	292.86
407.185	364.54
407.394	253.95
407.603	284.67
407.812	374.78
408.02	344.06
408.229	421.88
408.438	380.92
408.646	260.09
408.855	288.76
409.064	309.24
409.272	346.11
409.481	407.55
409.69	421.88
409.898	346.11
410.107	514.04
410.315	487.42
410.524	487.42
410.733	473.08
410.941	462.84
411.15	509.94
411.358	505.85
411.567	610.29
411.775	593.91
411.984	464.89
412.192	614.39
412.401	532.47
412.609	679.93
412.818	735.22
413.026	681.97
413.234	753.65
413.443	749.56
413.651	733.17
413.86	841.72
414.068	874.48
414.276	851.95
414.485	858.1
414.693	903.15
414.901	964.59
415.11	892.91
415.318	884.72
415.526	997.36
415.734	1073.14
415.943	1142.77
416.151	1075.18
416.359	1144.81
416.567	1128.43
416.776	1267.69
416.984	1296.36
417.192	1427.43
417.4	1263.6
417.608	1331.18
417.817	1417.19
418.025	1439.72
418.233	1601.51
418.441	1454.06
418.649	1521.64
418.857	1742.82
419.065	1816.55
419.273	1710.05
419.481	1791.97
419.689	1943.52
419.897	2078.69
420.105	2131.94
420.313	2158.56
420.521	2242.53
420.729	2308.06
420.937	2287.58
421.145	2287.58
421.353	2553.82
421.561	2570.2
421.769	2693.08
421.977	2914.26
422.185	2752.47
422.393	2824.15
422.601	3168.21
422.809	3117.01
423.017	3131.34
423.224	3170.26
423.432	3336.14
423.64	3379.15
423.848	3835.85
424.056	3563.47
424.263	3749.83
424.471	3839.94
424.679	3966.92
424.887	4292.54
425.094	4308.93
425.302	4265.92
425.51	4462.52
425.718	4468.67
425.925	4681.66
426.133	4853.69
426.341	5142.45
426.548	5294
426.756	5259.18
426.964	5472.17
427.171	5769.13
427.379	5801.9
427.586	5945.25
427.794	6082.47
428.001	6180.77
428.209	6659.99
428.417	6655.9
428.624	7028.63
428.832	7114.64
429.039	7174.03
429.247	6981.53
429.454	7774.09
429.662	8247.17
429.869	7751.56
430.076	8140.68
430.284	7835.53
430.491	8310.66
430.699	8849.27
430.906	8974.2
431.114	8820.6
431.321	9273.2
431.528	9412.46
431.736	10051.43
431.943	10581.85
432.15	10131.3
432.358	10381.15
432.565	10932.06
432.772	10829.66
432.979	11491.15
433.187	11597.65
433.394	11691.85
433.601	12545.86
433.808	12539.71
434.016	12384.07
434.223	13072.18
434.43	13635.38
434.637	13322.04
434.844	14270.25
435.052	14440.23
435.259	14393.12
435.466	14700.32
435.673	14653.22
435.88	15589.14
436.087	16324.36
436.294	16318.22
436.501	15873.81
436.708	16215.82
436.915	16797.44
437.122	17485.56
437.329	17315.58
437.537	17919.73
437.743	18310.89
437.95	18587.36
438.157	19068.64
438.364	19736.27
438.571	19881.68
438.778	19885.78
438.985	21823.15
439.192	20815.55
439.399	21149.37
439.606	21046.97
439.813	22144.69
440.02	23631.51
440.227	23246.49
440.433	22970.02
440.64	23699.09
440.847	23426.71
441.054	24290.96
441.261	25826.93
441.467	25564.79
441.674	26089.07
441.881	26775.14
442.088	26936.93
442.294	26691.18
442.501	27362.91
442.708	27971.16
442.914	28882.5
443.121	30074.42
443.328	29668.92
443.534	31542.81
443.741	30418.48
443.948	30148.15
444.154	32306.71
444.361	32271.89
444.568	32450.06
444.774	32448.02
444.981	32851.47
445.187	33691.13
445.394	34962.92
445.6	34690.54
445.807	38051.26
446.013	36292.05
446.22	37045.71
446.426	38620.59
446.633	38512.05
446.839	39972.25
447.046	38602.16
447.252	40785.3
447.459	40854.93
447.665	40338.84
447.871	42161.53
448.078	44750.17
448.284	42071.42
448.491	42974.58
448.697	44479.83
448.903	45935.94
449.11	45667.66
449.316	44848.47
449.522	45665.61
449.728	47322.41
449.935	47523.11
450.141	47387.95
450.347	48577.82
450.553	47265.07
450.76	47701.29
450.966	49509.64
451.172	48819.48
451.378	49874.18
451.584	49102.1
451.791	50064.64
451.997	50162.95
452.203	50664.7
452.409	50980.09
452.615	50627.84
452.821	48934.17
453.027	48469.28
453.233	50650.36
453.44	48917.78
453.646	49245.46
453.852	49837.32
454.058	50285.82
454.264	49243.41
454.47	50046.21
454.676	49026.32
454.882	50920.69
455.088	46323.01
455.294	47101.23
455.5	47826.21
455.705	48432.41
455.911	46048.58
456.117	45550.92
456.323	44811.6
456.529	42966.38
456.735	44485.98
456.941	42902.9
457.147	42569.08
457.352	41303.43
457.558	40908.18
457.764	41074.06
457.97	40068.51
458.176	39519.65
458.381	39069.1
458.587	37238.22
458.793	37422.53
458.999	35528.16
459.204	38288.82
459.41	36707.79
459.616	34582
459.821	34653.68
460.027	34498.03
460.233	34016.76
460.438	32310.8
460.644	32478.74
460.85	31319.59
461.055	30699.05
461.261	30637.61
461.466	28302.93
461.672	27672.15
461.878	29353.54
462.083	27283.04
462.289	26531.44
462.494	26603.11
462.7	25419.39
462.905	24966.79
463.111	25826.93
463.316	25480.83
463.522	25005.7
463.727	25290.37
463.932	24958.6
464.138	24872.58
464.343	25212.54
464.549	24026.77
464.754	24913.54
464.959	24430.22
465.165	24444.56
465.37	23819.92
465.575	23187.1
