Data from USB4F104151__13__13-04-22-650.txt Node

Date: Fri Mar 14 13:04:22 EDT 2025
User: louis
Spectrometer: USB4F10415
Trigger mode: 4
Integration Time (sec): 4.000000E-2
Scans to average: 1
Electric dark correction enabled: true
Nonlinearity correction enabled: false
Boxcar width: 0
XAxis mode: Wavelengths
Number of Pixels in Spectrum: 3648
>>>>>Begin Spectral Data<<<<<
178.204	-215.72
178.424	-215.72
178.644	-215.72
178.864	-90.79
179.084	-127.66
179.304	-64.17
179.524	79.19
179.744	19.8
179.964	-4.78
180.184	21.85
180.404	-31.4
180.624	64.85
180.844	-41.64
181.064	-2.73
181.283	-19.11
181.503	-70.31
181.723	48.47
181.943	-41.64
182.163	75.09
182.383	30.04
182.602	71
182.822	30.04
183.042	19.8
183.262	-4.78
183.482	25.94
183.701	91.48
183.921	42.32
184.141	-21.16
184.361	5.46
184.58	19.8
184.8	62.8
185.02	21.85
185.239	142.68
185.459	93.52
185.679	62.8
185.898	-45.74
186.118	120.15
186.338	52.56
186.557	103.76
186.777	40.28
186.997	-17.07
187.216	30.04
187.436	150.87
187.655	60.76
187.875	159.06
188.095	-19.11
188.314	111.96
188.534	79.19
188.753	15.7
188.973	89.43
189.192	79.19
189.412	11.61
189.631	52.56
189.851	89.43
190.07	101.72
190.29	54.61
190.509	64.85
190.729	77.14
190.948	68.95
191.168	200.02
191.387	124.24
191.607	40.28
191.826	-4.78
192.045	23.89
192.265	103.76
192.484	-15.02
192.704	-25.26
192.923	-8.87
193.142	148.82
193.362	101.72
193.581	3.41
193.8	95.57
194.02	68.95
194.239	42.32
194.458	36.18
194.678	85.33
194.897	11.61
195.116	15.7
195.335	25.94
195.555	34.13
195.774	114
195.993	-8.87
196.212	54.61
196.432	48.47
196.651	30.04
196.87	44.37
197.089	161.11
197.308	25.94
197.528	111.96
197.747	34.13
197.966	58.71
198.185	130.39
198.404	19.8
198.623	118.1
198.842	13.65
199.062	11.61
199.281	167.25
199.5	146.77
199.719	79.19
199.938	46.42
200.157	68.95
200.376	40.28
200.595	138.58
200.814	36.18
201.033	7.51
201.252	105.81
201.471	-4.78
201.69	109.91
201.909	101.72
202.128	36.18
202.347	97.62
202.566	-15.02
202.785	-82.6
203.004	5.46
203.223	136.53
203.442	134.48
203.661	15.7
203.879	46.42
204.098	124.24
204.317	-10.92
204.536	36.18
204.755	93.52
204.974	27.99
205.193	-15.02
205.411	54.61
205.63	93.52
205.849	99.67
206.068	32.08
206.287	-2.73
206.505	68.95
206.724	38.23
206.943	44.37
207.162	9.56
207.381	30.04
207.599	21.85
207.818	44.37
208.037	17.75
208.255	79.19
208.474	77.14
208.693	73.04
208.911	9.56
209.13	75.09
209.349	73.04
209.567	138.58
209.786	91.48
210.005	58.71
210.223	19.8
210.442	11.61
210.661	-4.78
210.879	32.08
211.098	9.56
211.316	56.66
211.535	75.09
211.753	109.91
211.972	54.61
212.191	-27.31
212.409	-2.73
212.628	-19.11
212.846	19.8
213.065	111.96
213.283	144.72
213.502	30.04
213.72	44.37
213.938	13.65
214.157	118.1
214.375	77.14
214.594	38.23
214.812	54.61
215.031	91.48
215.249	9.56
215.467	56.66
215.686	15.7
215.904	89.43
216.122	56.66
216.341	105.81
216.559	71
216.778	152.92
216.996	77.14
217.214	-0.68
217.432	89.43
217.651	-4.78
217.869	-12.97
218.087	38.23
218.306	-29.35
218.524	114
218.742	54.61
218.96	56.66
219.179	36.18
219.397	111.96
219.615	114
219.833	15.7
220.051	58.71
220.27	56.66
220.488	138.58
220.706	-17.07
220.924	13.65
221.142	-12.97
221.36	25.94
221.578	89.43
221.796	-8.87
222.015	101.72
222.233	95.57
222.451	68.95
222.669	-21.16
222.887	27.99
223.105	56.66
223.323	44.37
223.541	62.8
223.759	60.76
223.977	-0.68
224.195	66.9
224.413	64.85
224.631	64.85
224.849	62.8
225.067	99.67
225.285	87.38
225.503	64.85
225.721	-29.35
225.939	27.99
226.157	48.47
226.375	204.11
226.592	60.76
226.81	38.23
227.028	27.99
227.246	81.24
227.464	95.57
227.682	124.24
227.9	85.33
228.117	87.38
228.335	21.85
228.553	62.8
228.771	38.23
228.989	15.7
229.206	89.43
229.424	-4.78
229.642	109.91
229.86	21.85
230.077	58.71
230.295	101.72
230.513	85.33
230.731	44.37
230.948	83.28
231.166	30.04
231.384	17.75
231.601	23.89
231.819	60.76
232.037	17.75
232.254	36.18
232.472	38.23
232.689	87.38
232.907	105.81
233.125	-33.45
233.342	21.85
233.56	99.67
233.777	60.76
233.995	79.19
234.213	118.1
234.43	44.37
234.648	73.04
234.865	19.8
235.083	97.62
235.3	73.04
235.518	81.24
235.735	120.15
235.953	15.7
236.17	19.8
236.388	32.08
236.605	3.41
236.822	126.29
237.04	75.09
237.257	-4.78
237.475	25.94
237.692	36.18
237.909	103.76
238.127	36.18
238.344	134.48
238.562	81.24
238.779	-70.31
238.996	-19.11
239.214	71
239.431	109.91
239.648	13.65
239.865	44.37
240.083	27.99
240.3	9.56
240.517	62.8
240.735	52.56
240.952	91.48
241.169	87.38
241.386	68.95
241.603	34.13
241.821	-60.07
242.038	120.15
242.255	38.23
242.472	-25.26
242.689	89.43
242.907	95.57
243.124	32.08
243.341	116.05
243.558	-2.73
243.775	48.47
243.992	-2.73
244.209	62.8
244.426	146.77
244.643	120.15
244.86	23.89
245.078	36.18
245.295	77.14
245.512	-62.12
245.729	42.32
245.946	40.28
246.163	44.37
246.38	93.52
246.597	64.85
246.814	60.76
247.031	7.51
247.248	44.37
247.464	23.89
247.681	75.09
247.898	36.18
248.115	122.2
248.332	5.46
248.549	93.52
248.766	101.72
248.983	103.76
249.2	36.18
249.417	46.42
249.633	32.08
249.85	89.43
250.067	21.85
250.284	79.19
250.501	50.52
250.717	44.37
250.934	58.71
251.151	5.46
251.368	11.61
251.585	83.28
251.801	-27.31
252.018	44.37
252.235	136.53
252.451	-4.78
252.668	-21.16
252.885	107.86
253.102	44.37
253.318	19.8
253.535	77.14
253.752	56.66
253.968	21.85
254.185	-47.79
254.401	62.8
254.618	93.52
254.835	62.8
255.051	136.53
255.268	27.99
255.484	19.8
255.701	48.47
255.917	114
256.134	21.85
256.351	77.14
256.567	34.13
256.784	52.56
257	-25.26
257.217	66.9
257.433	101.72
257.65	25.94
257.866	97.62
258.082	27.99
258.299	44.37
258.515	23.89
258.732	75.09
258.948	68.95
259.165	134.48
259.381	44.37
259.597	46.42
259.814	71
260.03	27.99
260.246	95.57
260.463	122.2
260.679	79.19
260.895	97.62
261.112	60.76
261.328	27.99
261.544	-17.07
261.761	73.04
261.977	60.76
262.193	23.89
262.409	118.1
262.626	73.04
262.842	87.38
263.058	-37.55
263.274	154.96
263.49	91.48
263.707	66.9
263.923	167.25
264.139	15.7
264.355	7.51
264.571	95.57
264.787	27.99
265.004	52.56
265.22	30.04
265.436	44.37
265.652	68.95
265.868	48.47
266.084	7.51
266.3	52.56
266.516	-23.21
266.732	58.71
266.948	23.89
267.164	7.51
267.38	93.52
267.596	71
267.812	146.77
268.028	71
268.244	44.37
268.46	75.09
268.676	50.52
268.892	85.33
269.108	46.42
269.324	3.41
269.54	1.37
269.756	64.85
269.972	21.85
270.188	32.08
270.403	46.42
270.619	27.99
270.835	154.96
271.051	114
271.267	1.37
271.483	48.47
271.698	42.32
271.914	118.1
272.13	-37.55
272.346	79.19
272.562	62.8
272.777	77.14
272.993	81.24
273.209	15.7
273.425	79.19
273.64	38.23
273.856	60.76
274.072	11.61
274.287	-21.16
274.503	62.8
274.719	68.95
274.934	62.8
275.15	-107.18
275.366	25.94
275.581	11.61
275.797	36.18
276.012	40.28
276.228	30.04
276.444	3.41
276.659	56.66
276.875	7.51
277.09	60.76
277.306	-29.35
277.521	83.28
277.737	23.89
277.952	44.37
278.168	17.75
278.383	30.04
278.599	87.38
278.814	109.91
279.03	21.85
279.245	111.96
279.461	124.24
279.676	58.71
279.892	-37.55
280.107	60.76
280.322	-6.83
280.538	60.76
280.753	93.52
280.969	38.23
281.184	34.13
281.399	101.72
281.615	-58.03
281.83	132.44
282.045	-25.26
282.26	64.85
282.476	103.76
282.691	95.57
282.906	5.46
283.122	77.14
283.337	-12.97
283.552	118.1
283.767	44.37
283.983	140.63
284.198	-55.98
284.413	167.25
284.628	5.46
284.843	85.33
285.058	71
285.274	52.56
285.489	-10.92
285.704	64.85
285.919	42.32
286.134	32.08
286.349	17.75
286.564	52.56
286.779	105.81
286.995	38.23
287.21	-43.69
287.425	7.51
287.64	34.13
287.855	103.76
288.07	-55.98
288.285	27.99
288.5	95.57
288.715	130.39
288.93	-17.07
289.145	34.13
289.36	103.76
289.575	79.19
289.79	58.71
290.004	15.7
290.219	77.14
290.434	3.41
290.649	-2.73
290.864	60.76
291.079	17.75
291.294	87.38
291.509	42.32
291.724	7.51
291.938	19.8
292.153	77.14
292.368	-2.73
292.583	122.2
292.798	101.72
293.012	34.13
293.227	38.23
293.442	75.09
293.657	77.14
293.871	142.68
294.086	64.85
294.301	71
294.516	58.71
294.73	40.28
294.945	60.76
295.16	-6.83
295.374	77.14
295.589	83.28
295.804	15.7
296.018	13.65
296.233	95.57
296.447	52.56
296.662	42.32
296.877	1.37
297.091	71
297.306	30.04
297.52	79.19
297.735	3.41
297.949	58.71
298.164	159.06
298.378	9.56
298.593	-0.68
298.807	32.08
299.022	52.56
299.236	109.91
299.451	36.18
299.665	77.14
299.88	60.76
300.094	-8.87
300.309	11.61
300.523	32.08
300.737	142.68
300.952	68.95
301.166	120.15
301.381	-10.92
301.595	27.99
301.809	66.9
302.024	109.91
302.238	3.41
302.452	103.76
302.667	52.56
302.881	114
303.095	122.2
303.309	116.05
303.524	-15.02
303.738	-25.26
303.952	66.9
304.166	79.19
304.381	38.23
304.595	54.61
304.809	75.09
305.023	62.8
305.237	48.47
305.452	30.04
305.666	77.14
305.88	44.37
306.094	77.14
306.308	30.04
306.522	11.61
306.736	81.24
306.95	83.28
307.164	38.23
307.379	-12.97
307.593	138.58
307.807	60.76
308.021	83.28
308.235	52.56
308.449	-29.35
308.663	54.61
308.877	58.71
309.091	36.18
309.305	-25.26
309.519	3.41
309.733	13.65
309.947	-15.02
310.161	95.57
310.374	85.33
310.588	109.91
310.802	23.89
311.016	27.99
311.23	36.18
311.444	-4.78
311.658	-25.26
311.872	114
312.085	97.62
312.299	1.37
312.513	93.52
312.727	91.48
312.941	9.56
313.154	19.8
313.368	5.46
313.582	124.24
313.796	36.18
314.009	21.85
314.223	95.57
314.437	34.13
314.651	142.68
314.864	75.09
315.078	81.24
315.292	-27.31
315.505	54.61
315.719	105.81
315.933	15.7
316.146	118.1
316.36	50.52
316.573	3.41
316.787	109.91
317.001	77.14
317.214	19.8
317.428	68.95
317.641	7.51
317.855	81.24
318.068	68.95
318.282	114
318.495	93.52
318.709	75.09
318.922	15.7
319.136	167.25
319.349	89.43
319.563	77.14
319.776	1.37
319.99	23.89
320.203	79.19
320.417	50.52
320.63	118.1
320.843	66.9
321.057	62.8
321.27	68.95
321.483	52.56
321.697	101.72
321.91	95.57
322.124	122.2
322.337	21.85
322.55	-41.64
322.763	27.99
322.977	71
323.19	85.33
323.403	87.38
323.617	81.24
323.83	81.24
324.043	75.09
324.256	27.99
324.469	17.75
324.683	48.47
324.896	83.28
325.109	93.52
325.322	-27.31
325.535	75.09
325.748	-2.73
325.962	32.08
326.175	50.52
326.388	-0.68
326.601	38.23
326.814	-19.11
327.027	7.51
327.24	150.87
327.453	-64.17
327.666	54.61
327.879	87.38
328.092	73.04
328.305	38.23
328.518	77.14
328.731	44.37
328.944	40.28
329.157	38.23
329.37	36.18
329.583	93.52
329.796	140.63
330.009	32.08
330.222	66.9
330.435	134.48
330.648	85.33
330.861	38.23
331.073	93.52
331.286	38.23
331.499	91.48
331.712	97.62
331.925	-2.73
332.138	15.7
332.35	62.8
332.563	-4.78
332.776	66.9
332.989	3.41
333.202	71
333.414	60.76
333.627	36.18
333.84	-37.55
334.053	44.37
334.265	120.15
334.478	40.28
334.691	46.42
334.903	5.46
335.116	48.47
335.329	38.23
335.541	71
335.754	105.81
335.966	44.37
336.179	44.37
336.392	77.14
336.604	-0.68
336.817	50.52
337.029	60.76
337.242	7.51
337.454	79.19
337.667	15.7
337.88	134.48
338.092	58.71
338.305	91.48
338.517	56.66
338.729	93.52
338.942	144.72
339.154	25.94
339.367	9.56
339.579	30.04
339.792	34.13
340.004	60.76
340.217	89.43
340.429	134.48
340.641	23.89
340.854	9.56
341.066	50.52
341.278	105.81
341.491	52.56
341.703	56.66
341.915	-33.45
342.128	97.62
342.34	15.7
342.552	-19.11
342.764	27.99
342.977	95.57
343.189	7.51
343.401	5.46
343.613	-25.26
343.826	11.61
344.038	79.19
344.25	23.89
344.462	-2.73
344.674	85.33
344.886	27.99
345.099	77.14
345.311	124.24
345.523	-4.78
345.735	-62.12
345.947	27.99
346.159	-0.68
346.371	87.38
346.583	7.51
346.795	159.06
347.007	40.28
347.219	66.9
347.431	27.99
347.643	32.08
347.855	3.41
348.067	44.37
348.279	77.14
348.491	38.23
348.703	54.61
348.915	165.2
349.127	-27.31
349.339	105.81
349.551	23.89
349.763	56.66
349.975	30.04
350.187	73.04
350.399	44.37
350.61	124.24
350.822	50.52
351.034	85.33
351.246	73.04
351.458	71
351.669	99.67
351.881	66.9
352.093	118.1
352.305	38.23
352.517	30.04
352.728	81.24
352.94	30.04
353.152	9.56
353.363	27.99
353.575	154.96
353.787	150.87
353.999	56.66
354.21	144.72
354.422	21.85
354.633	3.41
354.845	9.56
355.057	56.66
355.268	150.87
355.48	81.24
355.692	-12.97
355.903	66.9
356.115	9.56
356.326	-23.21
356.538	152.92
356.749	138.58
356.961	109.91
357.172	99.67
357.384	19.8
357.595	148.82
357.807	-21.16
358.018	-17.07
358.23	138.58
358.441	179.54
358.653	56.66
358.864	52.56
359.075	34.13
359.287	93.52
359.498	77.14
359.709	30.04
359.921	-23.21
360.132	87.38
360.344	91.48
360.555	-19.11
360.766	38.23
360.977	79.19
361.189	126.29
361.4	44.37
361.611	44.37
361.823	25.94
362.034	62.8
362.245	-25.26
362.456	21.85
362.667	89.43
362.879	38.23
363.09	11.61
363.301	58.71
363.512	75.09
363.723	64.85
363.935	13.65
364.146	118.1
364.357	34.13
364.568	64.85
364.779	27.99
364.99	191.83
365.201	-15.02
365.412	81.24
365.623	5.46
365.834	132.44
366.045	91.48
366.256	144.72
366.467	83.28
366.678	87.38
366.889	62.8
367.1	5.46
367.311	40.28
367.522	38.23
367.733	40.28
367.944	21.85
368.155	68.95
368.366	169.3
368.577	105.81
368.788	136.53
368.999	87.38
369.209	77.14
369.42	173.39
369.631	146.77
369.842	97.62
370.053	40.28
370.264	138.58
370.474	21.85
370.685	44.37
370.896	64.85
371.107	81.24
371.317	107.86
371.528	79.19
371.739	99.67
371.95	21.85
372.16	75.09
372.371	-58.03
372.582	40.28
372.792	68.95
373.003	91.48
373.214	118.1
373.424	77.14
373.635	17.75
373.846	89.43
374.056	66.9
374.267	89.43
374.477	107.86
374.688	3.41
374.898	79.19
375.109	56.66
375.319	-27.31
375.53	128.34
375.74	85.33
375.951	73.04
376.161	77.14
376.372	140.63
376.582	50.52
376.793	79.19
377.003	77.14
377.214	-10.92
377.424	54.61
377.635	91.48
377.845	58.71
378.055	75.09
378.266	-55.98
378.476	46.42
378.686	40.28
378.897	109.91
379.107	-10.92
379.317	64.85
379.528	-6.83
379.738	87.38
379.948	3.41
380.158	126.29
380.369	3.41
380.579	-12.97
380.789	-0.68
380.999	118.1
381.21	81.24
381.42	73.04
381.63	99.67
381.84	111.96
382.05	56.66
382.261	34.13
382.471	77.14
382.681	44.37
382.891	122.2
383.101	79.19
383.311	-29.35
383.521	68.95
383.731	62.8
383.941	132.44
384.151	27.99
384.361	19.8
384.571	62.8
384.781	136.53
384.991	85.33
385.201	77.14
385.411	77.14
385.621	77.14
385.831	58.71
386.041	99.67
386.251	25.94
386.461	87.38
386.671	75.09
386.881	60.76
387.091	58.71
387.301	38.23
387.511	27.99
387.72	87.38
387.93	52.56
388.14	48.47
388.35	60.76
388.56	93.52
388.769	154.96
388.979	48.47
389.189	5.46
389.399	46.42
389.609	118.1
389.818	52.56
390.028	95.57
390.238	81.24
390.447	21.85
390.657	101.72
390.867	87.38
391.076	-21.16
391.286	32.08
391.496	120.15
391.705	95.57
391.915	89.43
392.125	111.96
392.334	130.39
392.544	48.47
392.753	73.04
392.963	87.38
393.172	54.61
393.382	52.56
393.591	120.15
393.801	17.75
394.01	142.68
394.22	97.62
394.429	9.56
394.639	52.56
394.848	30.04
395.058	77.14
395.267	77.14
395.477	114
395.686	50.52
395.895	167.25
396.105	177.49
396.314	114
396.524	120.15
396.733	154.96
396.942	116.05
397.152	128.34
397.361	124.24
397.57	60.76
397.78	116.05
397.989	111.96
398.198	193.87
398.407	245.07
398.617	134.48
398.826	89.43
399.035	40.28
399.244	130.39
399.453	120.15
399.663	161.11
399.872	114
400.081	46.42
400.29	163.15
400.499	56.66
400.708	46.42
400.917	93.52
401.127	111.96
401.336	54.61
401.545	146.77
401.754	212.31
401.963	122.2
402.172	60.76
402.381	87.38
402.59	87.38
402.799	111.96
403.008	136.53
403.217	91.48
403.426	101.72
403.635	128.34
403.844	159.06
404.053	161.11
404.262	50.52
404.471	224.59
404.68	101.72
404.888	73.04
405.097	165.2
405.306	148.82
405.515	126.29
405.724	159.06
405.933	177.49
406.142	150.87
406.35	259.41
406.559	105.81
406.768	159.06
406.977	240.98
407.185	243.03
407.394	126.29
407.603	85.33
407.812	271.7
408.02	281.94
408.229	152.92
408.438	111.96
408.646	224.59
408.855	214.35
409.064	150.87
409.272	269.65
409.481	212.31
409.69	218.45
409.898	210.26
410.107	243.03
410.315	333.14
410.524	154.96
410.733	300.37
410.941	290.13
411.15	372.05
411.358	341.33
411.567	406.86
411.775	306.51
411.984	398.67
412.192	398.67
412.401	345.42
412.609	464.21
412.818	388.43
413.026	472.4
413.234	355.66
413.443	402.77
413.651	392.53
413.86	437.58
414.068	445.77
414.276	527.69
414.485	544.08
414.693	556.36
414.901	574.8
415.11	568.65
415.318	585.04
415.526	529.74
415.734	660.81
415.943	636.24
416.151	626
416.359	654.67
416.567	769.35
416.776	724.3
416.984	669
417.192	746.83
417.4	699.72
417.608	693.58
417.817	744.78
418.025	869.7
418.233	910.66
418.441	929.1
418.649	816.46
418.857	1031.49
419.065	1060.17
419.273	951.62
419.481	1027.4
419.689	1092.93
419.897	1170.76
420.105	1109.32
420.313	1201.48
420.521	1248.58
420.729	1299.78
420.937	1146.18
421.145	1301.83
421.353	1436.99
421.561	1535.29
421.769	1443.14
421.977	1496.38
422.185	1518.91
422.393	1592.64
422.601	1748.28
422.809	1703.23
423.017	1664.32
423.224	1772.86
423.432	1879.35
423.64	1852.73
423.848	2118.97
424.056	1973.56
424.263	2149.68
424.471	2125.11
424.679	2223.41
424.887	2276.66
425.094	2374.96
425.302	2368.82
425.51	2417.97
425.718	2610.48
425.925	2577.71
426.133	2667.82
426.341	2835.75
426.548	2835.75
426.756	2913.58
426.964	2985.26
427.171	3214.63
427.379	3173.67
427.586	3259.68
427.794	3421.47
428.001	3656.99
428.209	3646.75
428.417	3583.26
428.624	3906.84
428.832	3886.36
429.039	3992.86
429.247	3818.78
429.454	4357.39
429.662	4396.31
429.869	4451.6
430.076	4658.45
430.284	4406.55
430.491	4689.17
430.699	4773.13
430.906	4941.07
431.114	4930.83
431.321	5033.22
431.528	5297.41
431.736	5469.44
431.943	5717.25
432.15	5700.86
432.358	5770.49
432.565	5999.87
432.772	5899.52
432.979	6350.07
433.187	6288.63
433.394	6587.63
433.601	6894.83
433.808	6733.04
434.016	6890.73
434.223	7087.34
434.43	7757.02
434.637	7476.45
434.844	8041.69
435.052	8185.05
435.259	8010.97
435.466	8115.42
435.673	8010.97
435.88	8432.85
436.087	8977.61
436.294	8950.99
436.501	8731.86
436.708	8912.08
436.915	9282.76
437.122	9706.69
437.329	9698.5
437.537	10044.6
437.743	10351.8
437.95	10237.11
438.157	10673.33
438.364	10923.18
438.571	10984.62
438.778	10788.02
438.985	12010.65
439.192	11566.24
439.399	11873.44
439.606	11693.22
439.813	12313.75
440.02	13159.56
440.227	12887.18
440.433	12889.23
440.64	12997.77
440.847	13161.61
441.054	13360.27
441.261	14212.22
441.467	14201.98
441.674	14136.45
441.881	14986.35
442.088	14752.88
442.294	14713.97
442.501	15264.88
442.708	15547.5
442.914	16049.25
443.121	16596.06
443.328	16344.16
443.534	17589.32
443.741	17060.94
443.948	16733.27
444.154	17912.9
444.361	18000.96
444.568	17933.38
444.774	18019.39
444.981	18342.97
445.187	19100.72
445.394	19520.56
445.6	19311.66
445.807	21246.99
446.013	20218.91
446.22	20864.02
446.426	21408.78
446.633	21627.92
446.839	22340.61
447.046	21611.53
447.252	22596.6
447.459	22668.28
447.665	22639.61
447.871	23843.82
448.078	24194.02
448.284	23596.01
448.491	24439.78
448.697	25121.75
448.903	25676.75
449.11	25752.52
449.316	25054.17
449.522	25725.9
449.728	26547.14
449.935	26426.31
450.141	26553.28
450.347	27069.37
450.553	26182.6
450.76	26659.77
450.966	27634.61
451.172	27300.79
451.378	28287.91
451.584	27532.21
451.791	28410.79
451.997	28150.7
452.203	28212.13
452.409	28498.85
452.615	28566.43
452.821	27167.67
453.027	26938.3
453.233	28652.45
453.44	27556.78
453.646	27831.21
453.852	28126.12
454.058	28093.35
454.264	27300.79
454.47	28281.77
454.676	27419.57
454.882	28300.2
455.088	25979.85
455.294	26278.85
455.5	26512.32
455.705	26966.97
455.911	26020.81
456.117	25504.72
456.323	24959.96
456.529	23712.75
456.735	24546.27
456.941	24308.71
457.147	23784.43
457.352	22926.33
457.558	22844.41
457.764	22922.23
457.97	22377.47
458.176	22109.19
458.381	21918.73
458.587	20790.3
458.793	20868.12
458.999	19878.95
459.204	21351.44
459.41	20411.42
459.616	19401.77
459.821	19248.18
460.027	19215.41
460.233	18928.69
460.438	18150.46
460.644	18041.92
460.85	17376.33
461.055	16921.68
461.261	16757.85
461.466	15776.87
461.672	15297.64
461.878	16417.88
462.083	15322.22
462.289	14879.86
462.494	14826.61
462.7	14075.01
462.905	13880.45
463.111	14359.67
463.316	14318.71
463.522	13804.67
463.727	14027.9
463.932	14118.01
464.138	13814.91
464.343	13978.75
464.549	13178
464.754	13984.9
464.959	13646.98
465.165	13614.21
465.37	12971.15
465.575	12733.59
465.781	13266.06
465.986	13534.34
466.191	12926.1
466.397	12367
466.602	11967.65
466.807	12377.24
467.012	12547.22
467.218	12422.3
467.423	12098.72
467.628	12254.36
