Data from USB4F104151__35__13-05-05-446.txt Node

Date: Fri Mar 14 13:05:05 EDT 2025
User: louis
Spectrometer: USB4F10415
Trigger mode: 4
Integration Time (sec): 4.000000E-2
Scans to average: 1
Electric dark correction enabled: true
Nonlinearity correction enabled: false
Boxcar width: 0
XAxis mode: Wavelengths
Number of Pixels in Spectrum: 3648
>>>>>Begin Spectral Data<<<<<
178.204	-152.4
178.424	-152.4
178.644	-152.4
178.864	-176.98
179.084	-189.27
179.304	-15.19
179.524	58.54
179.744	-37.72
179.964	44.2
180.184	-15.19
180.404	-13.14
180.624	58.54
180.844	15.53
181.064	-15.19
181.283	5.29
181.503	-52.05
181.723	-33.62
181.943	-54.1
182.163	27.82
182.383	64.68
182.602	208.04
182.822	85.16
183.042	62.63
183.262	19.63
183.482	38.06
183.701	68.78
183.921	72.87
184.141	-7
184.361	109.74
184.58	7.34
184.8	-2.9
185.02	48.3
185.239	93.35
185.459	50.35
185.679	117.93
185.898	-66.39
186.118	48.3
186.338	3.24
186.557	76.97
186.777	5.29
186.997	3.24
187.216	38.06
187.436	79.02
187.655	89.26
187.875	134.31
188.095	-4.95
188.314	83.11
188.534	38.06
188.753	29.87
188.973	165.03
189.192	167.08
189.412	36.01
189.631	56.49
189.851	-0.85
190.07	44.2
190.29	-11.09
190.509	19.63
190.729	101.55
190.948	101.55
191.168	179.37
191.387	31.91
191.607	13.48
191.826	119.98
192.045	40.11
192.265	79.02
192.484	44.2
192.704	54.44
192.923	-31.57
193.142	70.83
193.362	19.63
193.581	48.3
193.8	42.15
194.02	111.78
194.239	29.87
194.458	29.87
194.678	-7
194.897	38.06
195.116	19.63
195.335	-11.09
195.555	142.5
195.774	76.97
195.993	46.25
196.212	46.25
196.432	38.06
196.651	74.92
196.87	66.73
197.089	76.97
197.308	64.68
197.528	66.73
197.747	-17.24
197.966	66.73
198.185	140.46
198.404	7.34
198.623	107.69
198.842	58.54
199.062	81.07
199.281	79.02
199.5	85.16
199.719	33.96
199.938	93.35
200.157	70.83
200.376	25.77
200.595	101.55
200.814	60.59
201.033	-2.9
201.252	38.06
201.471	48.3
201.69	97.45
201.909	95.4
202.128	38.06
202.347	134.31
202.566	62.63
202.785	38.06
203.004	44.2
203.223	160.94
203.442	76.97
203.661	44.2
203.879	48.3
204.098	89.26
204.317	-13.14
204.536	58.54
204.755	29.87
204.974	15.53
205.193	124.07
205.411	122.02
205.63	-13.14
205.849	97.45
206.068	7.34
206.287	-11.09
206.505	56.49
206.724	66.73
206.943	95.4
207.162	3.24
207.381	48.3
207.599	21.67
207.818	97.45
208.037	54.44
208.255	66.73
208.474	79.02
208.693	87.21
208.911	-17.24
209.13	113.83
209.349	85.16
209.567	81.07
209.786	117.93
210.005	126.12
210.223	109.74
210.442	-27.48
210.661	58.54
210.879	64.68
211.098	52.39
211.316	40.11
211.535	117.93
211.753	97.45
211.972	52.39
212.191	68.78
212.409	36.01
212.628	85.16
212.846	21.67
213.065	33.96
213.283	126.12
213.502	68.78
213.72	27.82
213.938	-86.87
214.157	46.25
214.375	93.35
214.594	60.59
214.812	97.45
215.031	31.91
215.249	83.11
215.467	23.72
215.686	46.25
215.904	136.36
216.122	68.78
216.341	58.54
216.559	40.11
216.778	70.83
216.996	124.07
217.214	60.59
217.432	89.26
217.651	3.24
217.869	27.82
218.087	27.82
218.306	15.53
218.524	52.39
218.742	31.91
218.96	122.02
219.179	40.11
219.397	60.59
219.615	109.74
219.833	44.2
220.051	23.72
220.27	46.25
220.488	50.35
220.706	142.5
220.924	-0.85
221.142	79.02
221.36	21.67
221.578	58.54
221.796	91.31
222.015	103.59
222.233	58.54
222.451	93.35
222.669	62.63
222.887	19.63
223.105	97.45
223.323	46.25
223.541	9.39
223.759	56.49
223.977	-0.85
224.195	52.39
224.413	-43.86
224.631	62.63
224.849	29.87
225.067	95.4
225.285	15.53
225.503	-11.09
225.721	62.63
225.939	31.91
226.157	-29.52
226.375	122.02
226.592	46.25
226.81	31.91
227.028	93.35
227.246	97.45
227.464	31.91
227.682	148.65
227.9	64.68
228.117	36.01
228.335	72.87
228.553	62.63
228.771	19.63
228.989	66.73
229.206	27.82
229.424	23.72
229.642	1.19
229.86	-78.68
230.077	66.73
230.295	64.68
230.513	36.01
230.731	79.02
230.948	105.64
231.166	130.22
231.384	44.2
231.601	42.15
231.819	3.24
232.037	11.43
232.254	19.63
232.472	29.87
232.689	134.31
232.907	72.87
233.125	76.97
233.342	42.15
233.56	15.53
233.777	103.59
233.995	11.43
234.213	181.42
234.43	101.55
234.648	68.78
234.865	19.63
235.083	64.68
235.3	38.06
235.518	79.02
235.735	156.84
235.953	89.26
236.17	85.16
236.388	62.63
236.605	11.43
236.822	76.97
237.04	150.7
237.257	-39.76
237.475	-2.9
237.692	-9.05
237.909	15.53
238.127	124.07
238.344	74.92
238.562	62.63
238.779	-60.24
238.996	31.91
239.214	9.39
239.431	99.5
239.648	68.78
239.865	111.78
240.083	83.11
240.3	81.07
240.517	48.3
240.735	56.49
240.952	99.5
241.169	93.35
241.386	31.91
241.603	85.16
241.821	-25.43
242.038	68.78
242.255	91.31
242.472	-68.44
242.689	119.98
242.907	119.98
243.124	42.15
243.341	93.35
243.558	23.72
243.775	5.29
243.992	52.39
244.209	95.4
244.426	181.42
244.643	68.78
244.86	-9.05
245.078	29.87
245.295	150.7
245.512	-2.9
245.729	101.55
245.946	93.35
246.163	64.68
246.38	58.54
246.597	36.01
246.814	44.2
247.031	44.2
247.248	68.78
247.464	9.39
247.681	79.02
247.898	33.96
248.115	99.5
248.332	44.2
248.549	76.97
248.766	105.64
248.983	64.68
249.2	93.35
249.417	56.49
249.633	48.3
249.85	101.55
250.067	89.26
250.284	23.72
250.501	111.78
250.717	48.3
250.934	25.77
251.151	72.87
251.368	19.63
251.585	70.83
251.801	17.58
252.018	64.68
252.235	91.31
252.451	72.87
252.668	11.43
252.885	70.83
253.102	62.63
253.318	46.25
253.535	52.39
253.752	36.01
253.968	27.82
254.185	5.29
254.401	33.96
254.618	97.45
254.835	-25.43
255.051	152.74
255.268	29.87
255.484	17.58
255.701	54.44
255.917	76.97
256.134	3.24
256.351	85.16
256.567	46.25
256.784	95.4
257	54.44
257.217	76.97
257.433	81.07
257.65	83.11
257.866	72.87
258.082	27.82
258.299	64.68
258.515	-2.9
258.732	81.07
258.948	52.39
259.165	-7
259.381	83.11
259.597	54.44
259.814	48.3
260.03	29.87
260.246	21.67
260.463	99.5
260.679	148.65
260.895	111.78
261.112	83.11
261.328	85.16
261.544	54.44
261.761	175.27
261.977	36.01
262.193	-27.48
262.409	95.4
262.626	119.98
262.842	58.54
263.058	-17.24
263.274	142.5
263.49	97.45
263.707	138.41
263.923	144.55
264.139	-54.1
264.355	91.31
264.571	99.5
264.787	60.59
265.004	87.21
265.22	109.74
265.436	11.43
265.652	23.72
265.868	74.92
266.084	1.19
266.3	72.87
266.516	33.96
266.732	85.16
266.948	21.67
267.164	9.39
267.38	134.31
267.596	81.07
267.812	124.07
268.028	81.07
268.244	38.06
268.46	81.07
268.676	38.06
268.892	126.12
269.108	97.45
269.324	52.39
269.54	1.19
269.756	64.68
269.972	99.5
270.188	3.24
270.403	36.01
270.619	-7
270.835	74.92
271.051	-0.85
271.267	64.68
271.483	44.2
271.698	70.83
271.914	89.26
272.13	7.34
272.346	1.19
272.562	97.45
272.777	93.35
272.993	-17.24
273.209	23.72
273.425	142.5
273.64	19.63
273.856	74.92
274.072	79.02
274.287	11.43
274.503	119.98
274.719	117.93
274.934	46.25
275.15	103.59
275.366	46.25
275.581	27.82
275.797	-17.24
276.012	19.63
276.228	68.78
276.444	19.63
276.659	142.5
276.875	31.91
277.09	25.77
277.306	58.54
277.521	44.2
277.737	27.82
277.952	48.3
278.168	64.68
278.383	58.54
278.599	68.78
278.814	81.07
279.03	109.74
279.245	134.31
279.461	64.68
279.676	130.22
279.892	3.24
280.107	21.67
280.322	-19.29
280.538	79.02
280.753	60.59
280.969	93.35
281.184	44.2
281.399	99.5
281.615	54.44
281.83	105.64
282.045	-15.19
282.26	7.34
282.476	48.3
282.691	119.98
282.906	113.83
283.122	87.21
283.337	-2.9
283.552	97.45
283.767	48.3
283.983	101.55
284.198	72.87
284.413	109.74
284.628	23.72
284.843	13.48
285.058	40.11
285.274	107.69
285.489	-13.14
285.704	144.55
285.919	-23.38
286.134	89.26
286.349	140.46
286.564	52.39
286.779	76.97
286.995	83.11
287.21	62.63
287.425	72.87
287.64	-62.29
287.855	62.63
288.07	-29.52
288.285	89.26
288.5	95.4
288.715	87.21
288.93	-13.14
289.145	93.35
289.36	89.26
289.575	44.2
289.79	101.55
290.004	13.48
290.219	97.45
290.434	85.16
290.649	-23.38
290.864	99.5
291.079	27.82
291.294	38.06
291.509	97.45
291.724	85.16
291.938	33.96
292.153	44.2
292.368	1.19
292.583	134.31
292.798	109.74
293.012	93.35
293.227	46.25
293.442	66.73
293.657	214.18
293.871	126.12
294.086	113.83
294.301	103.59
294.516	46.25
294.73	119.98
294.945	23.72
295.16	101.55
295.374	83.11
295.589	70.83
295.804	113.83
296.018	79.02
296.233	109.74
296.447	52.39
296.662	19.63
296.877	117.93
297.091	38.06
297.306	68.78
297.52	72.87
297.735	58.54
297.949	52.39
298.164	50.35
298.378	83.11
298.593	-15.19
298.807	62.63
299.022	52.39
299.236	29.87
299.451	72.87
299.665	56.49
299.88	21.67
300.094	81.07
300.309	93.35
300.523	5.29
300.737	19.63
300.952	138.41
301.166	109.74
301.381	56.49
301.595	44.2
301.809	7.34
302.024	76.97
302.238	76.97
302.452	70.83
302.667	72.87
302.881	175.27
303.095	42.15
303.309	50.35
303.524	54.44
303.738	33.96
303.952	95.4
304.166	76.97
304.381	27.82
304.595	93.35
304.809	113.83
305.023	79.02
305.237	97.45
305.452	23.72
305.666	103.59
305.88	95.4
306.094	62.63
306.308	117.93
306.522	162.98
306.736	62.63
306.95	72.87
307.164	89.26
307.379	-0.85
307.593	48.3
307.807	66.73
308.021	91.31
308.235	117.93
308.449	81.07
308.663	48.3
308.877	79.02
309.091	79.02
309.305	87.21
309.519	-23.38
309.733	113.83
309.947	36.01
310.161	109.74
310.374	109.74
310.588	128.17
310.802	13.48
311.016	52.39
311.23	54.44
311.444	83.11
311.658	15.53
311.872	60.59
312.085	171.18
312.299	154.79
312.513	48.3
312.727	79.02
312.941	15.53
313.154	44.2
313.368	85.16
313.582	68.78
313.796	54.44
314.009	21.67
314.223	113.83
314.437	107.69
314.651	17.58
314.864	72.87
315.078	60.59
315.292	-13.14
315.505	-29.52
315.719	134.31
315.933	54.44
316.146	60.59
316.36	23.72
316.573	132.26
316.787	52.39
317.001	-13.14
317.214	17.58
317.428	62.63
317.641	42.15
317.855	105.64
318.068	117.93
318.282	64.68
318.495	105.64
318.709	85.16
318.922	134.31
319.136	124.07
319.349	85.16
319.563	89.26
319.776	111.78
319.99	-19.29
320.203	89.26
320.417	38.06
320.63	64.68
320.843	115.88
321.057	54.44
321.27	40.11
321.483	62.63
321.697	54.44
321.91	15.53
322.124	119.98
322.337	105.64
322.55	101.55
322.763	52.39
322.977	29.87
323.19	144.55
323.403	162.98
323.617	152.74
323.83	101.55
324.043	60.59
324.256	64.68
324.469	40.11
324.683	122.02
324.896	11.43
325.109	70.83
325.322	-33.62
325.535	111.78
325.748	66.73
325.962	101.55
326.175	85.16
326.388	117.93
326.601	89.26
326.814	29.87
327.027	38.06
327.24	197.8
327.453	-23.38
327.666	44.2
327.879	81.07
328.092	119.98
328.305	85.16
328.518	19.63
328.731	54.44
328.944	144.55
329.157	117.93
329.37	81.07
329.583	177.32
329.796	109.74
330.009	7.34
330.222	171.18
330.435	85.16
330.648	50.35
330.861	103.59
331.073	-31.57
331.286	25.77
331.499	3.24
331.712	11.43
331.925	79.02
332.138	103.59
332.35	76.97
332.563	36.01
332.776	109.74
332.989	79.02
333.202	87.21
333.414	87.21
333.627	48.3
333.84	76.97
334.053	87.21
334.265	-13.14
334.478	-15.19
334.691	36.01
334.903	60.59
335.116	15.53
335.329	81.07
335.541	36.01
335.754	87.21
335.966	72.87
336.179	74.92
336.392	93.35
336.604	13.48
336.817	109.74
337.029	85.16
337.242	122.02
337.454	111.78
337.667	-21.33
337.88	111.78
338.092	74.92
338.305	70.83
338.517	97.45
338.729	54.44
338.942	68.78
339.154	3.24
339.367	62.63
339.579	111.78
339.792	27.82
340.004	154.79
340.217	5.29
340.429	-17.24
340.641	103.59
340.854	111.78
341.066	21.67
341.278	107.69
341.491	165.03
341.703	56.49
341.915	25.77
342.128	87.21
342.34	29.87
342.552	70.83
342.764	52.39
342.977	87.21
343.189	11.43
343.401	70.83
343.613	7.34
343.826	93.35
344.038	70.83
344.25	74.92
344.462	42.15
344.674	89.26
344.886	107.69
345.099	130.22
345.311	56.49
345.523	-7
345.735	15.53
345.947	83.11
346.159	83.11
346.371	54.44
346.583	5.29
346.795	81.07
347.007	40.11
347.219	111.78
347.431	99.5
347.643	64.68
347.855	42.15
348.067	115.88
348.279	40.11
348.491	50.35
348.703	48.3
348.915	76.97
349.127	19.63
349.339	83.11
349.551	17.58
349.763	85.16
349.975	36.01
350.187	111.78
350.399	124.07
350.61	87.21
350.822	-4.95
351.034	36.01
351.246	29.87
351.458	101.55
351.669	103.59
351.881	132.26
352.093	158.89
352.305	142.5
352.517	72.87
352.728	117.93
352.94	119.98
353.152	103.59
353.363	3.24
353.575	70.83
353.787	72.87
353.999	144.55
354.21	111.78
354.422	56.49
354.633	42.15
354.845	42.15
355.057	40.11
355.268	74.92
355.48	126.12
355.692	-29.52
355.903	17.58
356.115	105.64
356.326	29.87
356.538	134.31
356.749	81.07
356.961	-17.24
357.172	87.21
357.384	58.54
357.595	113.83
357.807	19.63
358.018	93.35
358.23	105.64
358.441	113.83
358.653	76.97
358.864	85.16
359.075	-37.72
359.287	29.87
359.498	50.35
359.709	148.65
359.921	142.5
360.132	81.07
360.344	70.83
360.555	105.64
360.766	93.35
360.977	68.78
361.189	68.78
361.4	-45.91
361.611	130.22
361.823	95.4
362.034	19.63
362.245	36.01
362.456	15.53
362.667	99.5
362.879	74.92
363.09	68.78
363.301	68.78
363.512	44.2
363.723	27.82
363.935	76.97
364.146	136.36
364.357	42.15
364.568	122.02
364.779	83.11
364.99	122.02
365.201	68.78
365.412	79.02
365.623	70.83
365.834	85.16
366.045	109.74
366.256	42.15
366.467	83.11
366.678	60.59
366.889	15.53
367.1	23.72
367.311	150.7
367.522	99.5
367.733	72.87
367.944	126.12
368.155	50.35
368.366	81.07
368.577	150.7
368.788	152.74
368.999	31.91
369.209	70.83
369.42	175.27
369.631	107.69
369.842	17.58
370.053	-35.67
370.264	119.98
370.474	17.58
370.685	62.63
370.896	50.35
371.107	146.6
371.317	79.02
371.528	60.59
371.739	93.35
371.95	162.98
372.16	128.17
372.371	36.01
372.582	27.82
372.792	50.35
373.003	111.78
373.214	31.91
373.424	177.32
373.635	56.49
373.846	58.54
374.056	44.2
374.267	36.01
374.477	95.4
374.688	134.31
374.898	44.2
375.109	60.59
375.319	7.34
375.53	101.55
375.74	111.78
375.951	56.49
376.161	124.07
376.372	212.14
376.582	44.2
376.793	58.54
377.003	76.97
377.214	81.07
377.424	193.7
377.635	68.78
377.845	31.91
378.055	115.88
378.266	15.53
378.476	105.64
378.686	130.22
378.897	-13.14
379.107	74.92
379.317	126.12
379.528	126.12
379.738	101.55
379.948	70.83
380.158	97.45
380.369	79.02
380.579	111.78
380.789	11.43
380.999	113.83
381.21	152.74
381.42	109.74
381.63	27.82
381.84	52.39
382.05	70.83
382.261	93.35
382.471	99.5
382.681	76.97
382.891	146.6
383.101	152.74
383.311	13.48
383.521	3.24
383.731	109.74
383.941	177.32
384.151	64.68
384.361	76.97
384.571	113.83
384.781	50.35
384.991	62.63
385.201	126.12
385.411	93.35
385.621	85.16
385.831	72.87
386.041	101.55
386.251	119.98
386.461	103.59
386.671	93.35
386.881	-19.29
387.091	83.11
387.301	119.98
387.511	109.74
387.72	87.21
387.93	165.03
388.14	62.63
388.35	38.06
388.56	111.78
388.769	126.12
388.979	83.11
389.189	33.96
389.399	38.06
389.609	95.4
389.818	128.17
390.028	103.59
390.238	81.07
390.447	62.63
390.657	152.74
390.867	83.11
391.076	44.2
391.286	72.87
391.496	117.93
391.705	81.07
391.915	162.98
392.125	89.26
392.334	40.11
392.544	115.88
392.753	128.17
392.963	72.87
393.172	136.36
393.382	60.59
393.591	117.93
393.801	113.83
394.01	185.51
394.22	79.02
394.429	115.88
394.639	60.59
394.848	138.41
395.058	93.35
395.267	46.25
395.477	122.02
395.686	136.36
395.895	162.98
396.105	173.22
396.314	38.06
396.524	128.17
396.733	183.46
396.942	189.61
397.152	87.21
397.361	103.59
397.57	113.83
397.78	122.02
397.989	111.78
398.198	165.03
398.407	76.97
398.617	146.6
398.826	70.83
399.035	119.98
399.244	212.14
399.453	150.7
399.663	148.65
399.872	152.74
400.081	115.88
400.29	224.42
400.499	111.78
400.708	181.42
400.917	144.55
401.127	128.17
401.336	31.91
401.545	199.85
401.754	208.04
401.963	111.78
402.172	70.83
402.381	91.31
402.59	255.14
402.799	103.59
403.008	154.79
403.217	122.02
403.426	158.89
403.635	33.96
403.844	208.04
404.053	212.14
404.262	150.7
404.471	234.66
404.68	107.69
404.888	146.6
405.097	187.56
405.306	173.22
405.515	208.04
405.724	144.55
405.933	183.46
406.142	216.23
406.35	234.66
406.559	226.47
406.768	220.33
406.977	322.73
407.185	283.81
407.394	279.72
407.603	183.46
407.812	253.09
408.02	277.67
408.229	296.1
408.438	244.9
408.646	216.23
408.855	259.24
409.064	234.66
409.272	353.45
409.481	367.78
409.69	343.21
409.898	353.45
410.107	345.25
410.315	355.49
410.524	392.36
410.733	480.42
410.941	396.45
411.15	388.26
411.358	476.32
411.567	500.9
411.775	404.64
411.984	482.47
412.192	490.66
412.401	545.95
412.609	480.42
412.818	507.04
413.026	570.53
413.234	552.1
413.443	582.82
413.651	580.77
413.86	650.4
414.068	605.35
414.276	640.16
414.485	601.25
414.693	752.8
414.901	791.71
415.11	795.81
415.318	707.74
415.526	730.27
415.734	857.25
415.943	722.08
416.151	916.64
416.359	920.73
416.567	990.36
416.776	969.88
416.984	988.32
417.192	1129.63
417.4	1119.39
417.608	1035.42
417.817	1125.53
418.025	1176.73
418.233	1232.02
418.441	1279.13
418.649	1297.56
418.857	1313.94
419.065	1449.11
419.273	1334.42
419.481	1553.55
419.689	1543.32
419.897	1600.66
420.105	1549.46
420.313	1678.48
420.521	1768.59
420.729	1864.85
420.937	1770.64
421.145	1860.75
421.353	1950.86
421.561	1989.77
421.769	2096.27
421.977	2221.19
422.185	2143.37
422.393	2288.78
422.601	2411.65
422.809	2342.02
423.017	2452.61
423.224	2489.48
423.432	2555.01
423.64	2643.07
423.848	2933.89
424.056	2808.96
424.263	3046.52
424.471	2884.73
424.679	3114.11
424.887	3191.93
425.094	3353.72
425.302	3492.98
425.51	3556.47
425.718	3540.08
425.925	3593.33
426.133	3703.92
426.341	4021.36
426.548	3904.62
426.756	4099.18
426.964	4076.65
427.171	4473.96
427.379	4568.16
427.586	4566.12
427.794	4830.3
428.001	5076.06
428.209	5272.67
428.417	5127.26
428.624	5467.22
428.832	5651.54
429.039	5690.45
429.247	5563.48
429.454	6022.22
429.662	6421.58
429.869	6151.24
430.076	6294.6
430.284	6175.82
430.491	6556.74
430.699	6906.95
430.906	6851.65
431.114	6958.14
431.321	7294.01
431.528	7375.93
431.736	7840.82
431.943	8287.28
432.15	7887.92
432.358	8131.63
432.565	8641.57
432.772	8326.19
432.979	8807.46
433.187	9139.23
433.394	9104.42
433.601	9661.46
433.808	9731.09
434.016	9735.19
434.223	10228.75
434.43	10843.14
434.637	10464.27
434.844	11136
435.052	11631.61
435.259	11357.18
435.466	11404.28
435.673	11318.27
435.88	12030.96
436.087	12801
436.294	12559.34
436.501	12260.34
436.708	12493.8
436.915	13212.64
437.122	13972.44
437.329	13540.32
437.537	13915.09
437.743	14476.24
437.95	14308.3
438.157	15027.14
438.364	15416.26
438.571	15246.27
438.778	15664.06
438.985	17085.35
439.192	16255.92
439.399	16927.66
439.606	16462.77
439.813	17437.6
440.02	18533.26
440.227	18355.09
440.433	17894.3
440.64	18416.53
440.847	18596.75
441.054	18850.7
441.261	20249.46
441.467	20020.09
441.674	20210.55
441.881	20982.63
442.088	21033.83
442.294	20872.04
442.501	21336.93
442.708	21642.08
442.914	22633.3
443.121	23739.2
443.328	22621.01
443.534	24462.13
443.741	23888.7
443.948	23552.84
444.154	25490.21
444.361	25097
444.568	25410.34
444.774	25522.98
444.981	25897.76
445.187	26356.5
445.394	27636.48
445.6	27198.22
445.807	29756.13
446.013	28574.45
446.22	28877.55
446.426	30251.74
446.633	30472.92
446.839	31476.43
447.046	30401.24
447.252	31843.01
447.459	32119.49
447.665	31584.97
447.871	33596.07
448.078	34740.89
448.284	32758.45
448.491	33796.77
448.697	35297.94
448.903	35779.21
449.11	36186.75
449.316	35283.6
449.522	36096.64
449.728	37251.7
449.935	37411.44
450.141	37505.65
450.347	38507.1
450.553	37147.25
450.76	37698.16
450.966	38689.37
451.172	38496.86
451.378	39346.77
451.584	38240.87
451.791	39512.66
451.997	39451.22
452.203	40088.13
452.409	40016.46
452.615	39991.88
452.821	38361.7
453.027	38148.71
453.233	40311.36
453.44	38460
453.646	39084.63
453.852	39512.66
454.058	39858.76
454.264	38707.8
454.47	39567.95
454.676	38642.27
454.882	40133.19
455.088	36651.64
455.294	36694.65
455.5	37737.07
455.705	37876.33
455.911	36633.21
456.117	35783.3
456.323	35213.97
456.529	33235.63
456.735	34808.47
456.941	33981.09
457.147	33436.33
457.352	32570.04
457.558	32148.16
457.764	32312
457.97	31664.84
458.176	31062.74
458.381	30931.67
458.587	29571.82
458.793	29504.23
458.999	27996.93
459.204	30065.38
459.41	29274.86
459.616	26901.26
459.821	27276.04
460.027	27128.59
460.233	26592.02
460.438	25277.22
460.644	25307.94
460.85	24265.53
461.055	23790.4
461.261	23571.27
461.466	22072.15
461.672	21513.06
461.878	23196.49
462.083	21451.62
462.289	21050.22
462.494	20882.28
462.7	20110.2
462.905	19395.46
463.111	20151.16
463.316	20104.06
463.522	19714.94
463.727	19671.93
463.932	20075.38
464.138	19377.03
464.343	19301.25
464.549	19002.25
464.754	19477.38
464.959	19553.15
465.165	19157.89
465.37	18353.04
465.575	17931.16
465.781	18928.52
465.986	18944.91
