Data from USB4F104151__34__13-04-51-808.txt Node

Date: Fri Mar 14 13:04:51 EDT 2025
User: louis
Spectrometer: USB4F10415
Trigger mode: 4
Integration Time (sec): 4.000000E-2
Scans to average: 1
Electric dark correction enabled: true
Nonlinearity correction enabled: false
Boxcar width: 0
XAxis mode: Wavelengths
Number of Pixels in Spectrum: 3648
>>>>>Begin Spectral Data<<<<<
178.204	-160.42
178.424	-160.42
178.644	-160.42
178.864	-203.43
179.084	-162.47
179.304	-23.21
179.524	-31.4
179.744	-62.12
179.964	48.47
180.184	62.8
180.404	34.13
180.624	-8.87
180.844	40.28
181.064	-82.6
181.283	25.94
181.503	-21.16
181.723	17.75
181.943	-0.68
182.163	75.09
182.383	-8.87
182.602	48.47
182.822	32.08
183.042	34.13
183.262	-45.74
183.482	-31.4
183.701	-37.55
183.921	-29.35
184.141	-15.02
184.361	73.04
184.58	95.57
184.8	-8.87
185.02	79.19
185.239	36.18
185.459	66.9
185.679	81.24
185.898	-55.98
186.118	79.19
186.338	27.99
186.557	-6.83
186.777	-33.45
186.997	-37.55
187.216	62.8
187.436	128.34
187.655	7.51
187.875	50.52
188.095	-19.11
188.314	44.37
188.534	99.67
188.753	91.48
188.973	148.82
189.192	75.09
189.412	71
189.631	25.94
189.851	36.18
190.07	34.13
190.29	-15.02
190.509	1.37
190.729	17.75
190.948	91.48
191.168	222.55
191.387	93.52
191.607	-21.16
191.826	27.99
192.045	36.18
192.265	7.51
192.484	25.94
192.704	3.41
192.923	-4.78
193.142	142.68
193.362	27.99
193.581	21.85
193.8	83.28
194.02	66.9
194.239	73.04
194.458	25.94
194.678	-33.45
194.897	19.8
195.116	46.42
195.335	21.85
195.555	13.65
195.774	36.18
195.993	93.52
196.212	-6.83
196.432	46.42
196.651	77.14
196.87	44.37
197.089	124.24
197.308	52.56
197.528	54.61
197.747	15.7
197.966	56.66
198.185	79.19
198.404	-68.27
198.623	77.14
198.842	56.66
199.062	114
199.281	126.29
199.5	5.46
199.719	77.14
199.938	54.61
200.157	116.05
200.376	3.41
200.595	77.14
200.814	44.37
201.033	44.37
201.252	142.68
201.471	58.71
201.69	138.58
201.909	62.8
202.128	52.56
202.347	23.89
202.566	-43.69
202.785	-45.74
203.004	3.41
203.223	148.82
203.442	116.05
203.661	17.75
203.879	-10.92
204.098	-8.87
204.317	34.13
204.536	58.71
204.755	-4.78
204.974	75.09
205.193	77.14
205.411	58.71
205.63	42.32
205.849	5.46
206.068	1.37
206.287	124.24
206.505	114
206.724	50.52
206.943	1.37
207.162	-31.4
207.381	1.37
207.599	42.32
207.818	73.04
208.037	11.61
208.255	95.57
208.474	52.56
208.693	71
208.911	32.08
209.13	44.37
209.349	-0.68
209.567	73.04
209.786	36.18
210.005	101.72
210.223	-10.92
210.442	19.8
210.661	79.19
210.879	75.09
211.098	27.99
211.316	68.95
211.535	101.72
211.753	42.32
211.972	118.1
212.191	77.14
212.409	105.81
212.628	116.05
212.846	11.61
213.065	89.43
213.283	87.38
213.502	50.52
213.72	34.13
213.938	50.52
214.157	58.71
214.375	73.04
214.594	-49.83
214.812	-8.87
215.031	54.61
215.249	85.33
215.467	9.56
215.686	34.13
215.904	60.76
216.122	71
216.341	132.44
216.559	42.32
216.778	73.04
216.996	91.48
217.214	54.61
217.432	58.71
217.651	-6.83
217.869	62.8
218.087	81.24
218.306	-58.03
218.524	40.28
218.742	-6.83
218.96	-39.59
219.179	52.56
219.397	66.9
219.615	130.39
219.833	21.85
220.051	-21.16
220.27	83.28
220.488	44.37
220.706	101.72
220.924	9.56
221.142	-39.59
221.36	-2.73
221.578	52.56
221.796	36.18
222.015	73.04
222.233	1.37
222.451	83.28
222.669	44.37
222.887	75.09
223.105	5.46
223.323	-21.16
223.541	-23.21
223.759	38.23
223.977	79.19
224.195	-4.78
224.413	111.96
224.631	17.75
224.849	48.47
225.067	148.82
225.285	-12.97
225.503	79.19
225.721	-0.68
225.939	21.85
226.157	58.71
226.375	142.68
226.592	34.13
226.81	-15.02
227.028	75.09
227.246	107.86
227.464	75.09
227.682	3.41
227.9	64.85
228.117	56.66
228.335	-15.02
228.553	54.61
228.771	54.61
228.989	13.65
229.206	25.94
229.424	36.18
229.642	-15.02
229.86	48.47
230.077	99.67
230.295	19.8
230.513	44.37
230.731	36.18
230.948	60.76
231.166	87.38
231.384	62.8
231.601	25.94
231.819	128.34
232.037	25.94
232.254	54.61
232.472	5.46
232.689	44.37
232.907	89.43
233.125	34.13
233.342	44.37
233.56	-21.16
233.777	40.28
233.995	32.08
234.213	77.14
234.43	-17.07
234.648	27.99
234.865	-15.02
235.083	58.71
235.3	52.56
235.518	3.41
235.735	118.1
235.953	34.13
236.17	58.71
236.388	42.32
236.605	50.52
236.822	83.28
237.04	50.52
237.257	48.47
237.475	-51.88
237.692	58.71
237.909	68.95
238.127	30.04
238.344	1.37
238.562	68.95
238.779	77.14
238.996	36.18
239.214	81.24
239.431	75.09
239.648	5.46
239.865	36.18
240.083	118.1
240.3	66.9
240.517	42.32
240.735	95.57
240.952	140.63
241.169	64.85
241.386	13.65
241.603	17.75
241.821	17.75
242.038	68.95
242.255	103.76
242.472	27.99
242.689	46.42
242.907	38.23
243.124	52.56
243.341	85.33
243.558	-12.97
243.775	3.41
243.992	15.7
244.209	23.89
244.426	32.08
244.643	81.24
244.86	25.94
245.078	62.8
245.295	54.61
245.512	42.32
245.729	-17.07
245.946	17.75
246.163	21.85
246.38	68.95
246.597	27.99
246.814	-15.02
247.031	-17.07
247.248	132.44
247.464	54.61
247.681	46.42
247.898	64.85
248.115	71
248.332	-6.83
248.549	64.85
248.766	44.37
248.983	85.33
249.2	15.7
249.417	103.76
249.633	44.37
249.85	13.65
250.067	-29.35
250.284	-37.55
250.501	83.28
250.717	62.8
250.934	-49.83
251.151	-6.83
251.368	34.13
251.585	159.06
251.801	71
252.018	42.32
252.235	99.67
252.451	-8.87
252.668	19.8
252.885	75.09
253.102	11.61
253.318	52.56
253.535	9.56
253.752	19.8
253.968	54.61
254.185	83.28
254.401	34.13
254.618	83.28
254.835	-53.93
255.051	42.32
255.268	75.09
255.484	60.76
255.701	64.85
255.917	36.18
256.134	58.71
256.351	54.61
256.567	27.99
256.784	1.37
257	19.8
257.217	105.81
257.433	128.34
257.65	132.44
257.866	54.61
258.082	52.56
258.299	34.13
258.515	9.56
258.732	23.89
258.948	38.23
259.165	42.32
259.381	-31.4
259.597	64.85
259.814	64.85
260.03	48.47
260.246	109.91
260.463	-19.11
260.679	54.61
260.895	19.8
261.112	101.72
261.328	64.85
261.544	21.85
261.761	120.15
261.977	30.04
262.193	23.89
262.409	56.66
262.626	-10.92
262.842	19.8
263.058	25.94
263.274	91.48
263.49	107.86
263.707	122.2
263.923	58.71
264.139	126.29
264.355	32.08
264.571	87.38
264.787	21.85
265.004	66.9
265.22	101.72
265.436	27.99
265.652	-15.02
265.868	66.9
266.084	-68.27
266.3	56.66
266.516	66.9
266.732	44.37
266.948	36.18
267.164	-0.68
267.38	17.75
267.596	66.9
267.812	85.33
268.028	13.65
268.244	-29.35
268.46	3.41
268.676	3.41
268.892	75.09
269.108	25.94
269.324	50.52
269.54	-17.07
269.756	122.2
269.972	-55.98
270.188	-21.16
270.403	-19.11
270.619	11.61
270.835	91.48
271.051	95.57
271.267	15.7
271.483	60.76
271.698	77.14
271.914	50.52
272.13	17.75
272.346	-31.4
272.562	93.52
272.777	50.52
272.993	-23.21
273.209	-19.11
273.425	154.96
273.64	77.14
273.856	62.8
274.072	64.85
274.287	9.56
274.503	34.13
274.719	128.34
274.934	46.42
275.15	-25.26
275.366	46.42
275.581	5.46
275.797	73.04
276.012	44.37
276.228	44.37
276.444	32.08
276.659	75.09
276.875	56.66
277.09	-29.35
277.306	36.18
277.521	91.48
277.737	85.33
277.952	75.09
278.168	7.51
278.383	75.09
278.599	-0.68
278.814	83.28
279.03	9.56
279.245	34.13
279.461	19.8
279.676	32.08
279.892	-64.17
280.107	-64.17
280.322	44.37
280.538	25.94
280.753	9.56
280.969	54.61
281.184	68.95
281.399	77.14
281.615	17.75
281.83	56.66
282.045	-19.11
282.26	13.65
282.476	50.52
282.691	-21.16
282.906	79.19
283.122	58.71
283.337	-78.51
283.552	34.13
283.767	7.51
283.983	120.15
284.198	64.85
284.413	25.94
284.628	5.46
284.843	36.18
285.058	58.71
285.274	48.47
285.489	-2.73
285.704	85.33
285.919	27.99
286.134	1.37
286.349	32.08
286.564	1.37
286.779	111.96
286.995	38.23
287.21	71
287.425	38.23
287.64	68.95
287.855	36.18
288.07	23.89
288.285	120.15
288.5	85.33
288.715	54.61
288.93	42.32
289.145	-29.35
289.36	42.32
289.575	60.76
289.79	3.41
290.004	77.14
290.219	75.09
290.434	120.15
290.649	75.09
290.864	11.61
291.079	-55.98
291.294	34.13
291.509	101.72
291.724	42.32
291.938	48.47
292.153	52.56
292.368	7.51
292.583	157.01
292.798	107.86
293.012	60.76
293.227	30.04
293.442	48.47
293.657	60.76
293.871	73.04
294.086	60.76
294.301	197.97
294.516	126.29
294.73	23.89
294.945	-15.02
295.16	-0.68
295.374	120.15
295.589	124.24
295.804	-10.92
296.018	30.04
296.233	197.97
296.447	9.56
296.662	48.47
296.877	52.56
297.091	73.04
297.306	103.76
297.52	85.33
297.735	68.95
297.949	52.56
298.164	66.9
298.378	75.09
298.593	23.89
298.807	101.72
299.022	9.56
299.236	81.24
299.451	-33.45
299.665	34.13
299.88	34.13
300.094	66.9
300.309	50.52
300.523	60.76
300.737	19.8
300.952	42.32
301.166	19.8
301.381	11.61
301.595	48.47
301.809	42.32
302.024	54.61
302.238	-4.78
302.452	111.96
302.667	50.52
302.881	103.76
303.095	68.95
303.309	1.37
303.524	-12.97
303.738	46.42
303.952	40.28
304.166	60.76
304.381	30.04
304.595	107.86
304.809	-8.87
305.023	44.37
305.237	25.94
305.452	-6.83
305.666	130.39
305.88	77.14
306.094	83.28
306.308	56.66
306.522	146.77
306.736	68.95
306.95	109.91
307.164	46.42
307.379	21.85
307.593	68.95
307.807	87.38
308.021	66.9
308.235	54.61
308.449	25.94
308.663	71
308.877	91.48
309.091	32.08
309.305	44.37
309.519	-12.97
309.733	109.91
309.947	17.75
310.161	107.86
310.374	21.85
310.588	101.72
310.802	-29.35
311.016	38.23
311.23	66.9
311.444	-10.92
311.658	7.51
311.872	75.09
312.085	109.91
312.299	50.52
312.513	75.09
312.727	19.8
312.941	-41.64
313.154	17.75
313.368	9.56
313.582	38.23
313.796	32.08
314.009	89.43
314.223	114
314.437	38.23
314.651	32.08
314.864	13.65
315.078	34.13
315.292	48.47
315.505	1.37
315.719	38.23
315.933	34.13
316.146	-39.59
316.36	7.51
316.573	62.8
316.787	36.18
317.001	38.23
317.214	34.13
317.428	9.56
317.641	19.8
317.855	9.56
318.068	126.29
318.282	3.41
318.495	79.19
318.709	54.61
318.922	-4.78
319.136	99.67
319.349	91.48
319.563	34.13
319.776	40.28
319.99	-12.97
320.203	109.91
320.417	126.29
320.63	77.14
320.843	144.72
321.057	42.32
321.27	25.94
321.483	107.86
321.697	32.08
321.91	25.94
322.124	52.56
322.337	68.95
322.55	60.76
322.763	68.95
322.977	19.8
323.19	17.75
323.403	54.61
323.617	1.37
323.83	109.91
324.043	85.33
324.256	17.75
324.469	30.04
324.683	148.82
324.896	56.66
325.109	77.14
325.322	5.46
325.535	99.67
325.748	71
325.962	-27.31
326.175	-10.92
326.388	17.75
326.601	120.15
326.814	85.33
327.027	11.61
327.24	109.91
327.453	-8.87
327.666	50.52
327.879	91.48
328.092	44.37
328.305	27.99
328.518	-25.26
328.731	-23.21
328.944	111.96
329.157	111.96
329.37	101.72
329.583	128.34
329.796	64.85
330.009	-60.07
330.222	23.89
330.435	85.33
330.648	91.48
330.861	42.32
331.073	58.71
331.286	19.8
331.499	66.9
331.712	21.85
331.925	81.24
332.138	19.8
332.35	124.24
332.563	3.41
332.776	52.56
332.989	-6.83
333.202	42.32
333.414	-15.02
333.627	91.48
333.84	1.37
334.053	124.24
334.265	-31.4
334.478	25.94
334.691	-23.21
334.903	116.05
335.116	60.76
335.329	77.14
335.541	46.42
335.754	105.81
335.966	1.37
336.179	50.52
336.392	114
336.604	-29.35
336.817	146.77
337.029	36.18
337.242	21.85
337.454	83.28
337.667	-10.92
337.88	40.28
338.092	66.9
338.305	81.24
338.517	62.8
338.729	-21.16
338.942	161.11
339.154	-23.21
339.367	46.42
339.579	38.23
339.792	-2.73
340.004	27.99
340.217	46.42
340.429	30.04
340.641	3.41
340.854	97.62
341.066	38.23
341.278	54.61
341.491	103.76
341.703	77.14
341.915	58.71
342.128	54.61
342.34	17.75
342.552	54.61
342.764	122.2
342.977	-4.78
343.189	77.14
343.401	46.42
343.613	3.41
343.826	-17.07
344.038	-25.26
344.25	-0.68
344.462	40.28
344.674	107.86
344.886	79.19
345.099	138.58
345.311	107.86
345.523	54.61
345.735	-25.26
345.947	38.23
346.159	36.18
346.371	77.14
346.583	62.8
346.795	124.24
347.007	9.56
347.219	50.52
347.431	40.28
347.643	85.33
347.855	30.04
348.067	71
348.279	5.46
348.491	95.57
348.703	91.48
348.915	85.33
349.127	-0.68
349.339	-12.97
349.551	11.61
349.763	111.96
349.975	1.37
350.187	60.76
350.399	58.71
350.61	89.43
350.822	40.28
351.034	68.95
351.246	27.99
351.458	107.86
351.669	85.33
351.881	130.39
352.093	89.43
352.305	54.61
352.517	83.28
352.728	56.66
352.94	27.99
353.152	75.09
353.363	-55.98
353.575	21.85
353.787	95.57
353.999	93.52
354.21	73.04
354.422	107.86
354.633	30.04
354.845	25.94
355.057	52.56
355.268	60.76
355.48	54.61
355.692	44.37
355.903	101.72
356.115	21.85
356.326	-19.11
356.538	66.9
356.749	99.67
356.961	124.24
357.172	40.28
357.384	75.09
357.595	132.44
357.807	-12.97
358.018	3.41
358.23	34.13
358.441	159.06
358.653	30.04
358.864	36.18
359.075	58.71
359.287	-12.97
359.498	60.76
359.709	75.09
359.921	77.14
360.132	107.86
360.344	89.43
360.555	81.24
360.766	85.33
360.977	-2.73
361.189	68.95
361.4	38.23
361.611	54.61
361.823	77.14
362.034	140.63
362.245	46.42
362.456	-6.83
362.667	50.52
362.879	-39.59
363.09	17.75
363.301	58.71
363.512	48.47
363.723	-35.5
363.935	19.8
364.146	157.01
364.357	-19.11
364.568	32.08
364.779	48.47
364.99	191.83
365.201	126.29
365.412	75.09
365.623	-17.07
365.834	68.95
366.045	81.24
366.256	66.9
366.467	17.75
366.678	75.09
366.889	58.71
367.1	11.61
367.311	42.32
367.522	93.52
367.733	25.94
367.944	124.24
368.155	48.47
368.366	21.85
368.577	71
368.788	32.08
368.999	124.24
369.209	93.52
369.42	130.39
369.631	148.82
369.842	58.71
370.053	9.56
370.264	128.34
370.474	126.29
370.685	132.44
370.896	58.71
371.107	103.76
371.317	77.14
371.528	25.94
371.739	163.15
371.95	42.32
372.16	58.71
372.371	83.28
372.582	42.32
372.792	64.85
373.003	85.33
373.214	52.56
373.424	48.47
373.635	77.14
373.846	50.52
374.056	50.52
374.267	87.38
374.477	40.28
374.688	15.7
374.898	79.19
375.109	83.28
375.319	68.95
375.53	75.09
375.74	114
375.951	44.37
376.161	71
376.372	73.04
376.582	-2.73
376.793	130.39
377.003	25.94
377.214	44.37
377.424	9.56
377.635	73.04
377.845	40.28
378.055	103.76
378.266	-29.35
378.476	62.8
378.686	58.71
378.897	52.56
379.107	66.9
379.317	32.08
379.528	60.76
379.738	25.94
379.948	7.51
380.158	44.37
380.369	111.96
380.579	81.24
380.789	56.66
380.999	50.52
381.21	19.8
381.42	109.91
381.63	154.96
381.84	66.9
382.05	105.81
382.261	165.2
382.471	87.38
382.681	103.76
382.891	52.56
383.101	58.71
383.311	21.85
383.521	50.52
383.731	120.15
383.941	91.48
384.151	128.34
384.361	50.52
384.571	159.06
384.781	97.62
384.991	136.53
385.201	105.81
385.411	114
385.621	124.24
385.831	77.14
386.041	126.29
386.251	93.52
386.461	130.39
386.671	21.85
386.881	36.18
387.091	91.48
387.301	85.33
387.511	-21.16
387.72	107.86
387.93	62.8
388.14	77.14
388.35	42.32
388.56	101.72
388.769	101.72
388.979	66.9
389.189	17.75
389.399	62.8
389.609	54.61
389.818	87.38
390.028	87.38
390.238	79.19
390.447	107.86
390.657	97.62
390.867	7.51
391.076	17.75
391.286	101.72
391.496	83.28
391.705	34.13
391.915	111.96
392.125	200.02
392.334	105.81
392.544	128.34
392.753	38.23
392.963	54.61
393.172	157.01
393.382	93.52
393.591	167.25
393.801	62.8
394.01	118.1
394.22	95.57
394.429	136.53
394.639	134.48
394.848	44.37
395.058	107.86
395.267	111.96
395.477	95.57
395.686	120.15
395.895	185.68
396.105	214.35
396.314	21.85
396.524	42.32
396.733	89.43
396.942	181.59
397.152	152.91
397.361	222.55
397.57	136.53
397.78	163.15
397.989	165.2
398.198	165.2
398.407	165.2
398.617	150.87
398.826	165.2
399.035	109.91
399.244	134.48
399.453	101.72
399.663	136.53
399.872	206.16
400.081	116.05
400.29	224.59
400.499	136.53
400.708	114
400.917	77.14
401.127	91.48
401.336	32.08
401.545	171.35
401.754	197.97
401.963	210.26
402.172	136.53
402.381	144.72
402.59	109.91
402.799	144.72
403.008	140.63
403.217	136.53
403.426	193.87
403.635	152.91
403.844	197.97
404.053	167.25
404.262	206.16
404.471	224.59
404.68	140.63
404.888	154.96
405.097	214.35
405.306	146.77
405.515	208.21
405.724	163.15
405.933	247.12
406.142	277.84
406.35	175.44
406.559	273.75
406.768	210.26
406.977	204.11
407.185	251.22
407.394	255.31
407.603	187.73
407.812	259.41
408.02	333.14
408.229	238.93
408.438	329.04
408.646	230.74
408.855	271.7
409.064	329.04
409.272	288.08
409.481	388.43
409.69	314.7
409.898	288.08
410.107	470.35
410.315	435.53
410.524	357.71
410.733	494.93
410.941	413.01
411.15	433.49
411.358	525.65
411.567	462.16
411.775	523.6
411.984	494.93
412.192	525.65
412.401	658.76
412.609	593.23
412.818	605.52
413.026	607.56
413.234	576.84
413.443	642.38
413.651	623.95
413.86	703.82
414.068	722.25
414.276	712.01
414.485	701.77
414.693	783.69
414.901	834.89
415.11	894.28
415.318	935.24
415.526	916.81
415.734	939.33
415.943	1049.93
416.151	1109.32
416.359	996.68
416.567	1068.36
416.776	1146.18
416.984	1164.61
417.192	1209.67
417.4	1187.14
417.608	1113.41
417.817	1291.59
418.025	1264.96
418.233	1439.04
418.441	1287.49
418.649	1477.95
418.857	1664.32
419.065	1676.6
419.273	1545.53
419.481	1609.02
419.689	1766.71
419.897	1828.15
420.105	1877.3
420.313	1903.93
420.521	1957.18
420.729	1973.56
420.937	2065.72
421.145	2157.88
421.353	2323.76
421.561	2413.87
421.769	2452.78
421.977	2534.7
422.185	2471.22
422.393	2592.05
422.601	2770.22
422.809	2708.78
423.017	2768.17
423.224	3028.26
423.432	3026.22
423.64	3044.65
423.848	3280.16
424.056	3200.29
424.263	3417.38
424.471	3427.62
424.679	3616.03
424.887	3695.9
425.094	3976.47
425.302	3958.04
425.51	3994.9
425.718	4220.18
425.925	4252.95
426.133	4289.81
426.341	4519.18
426.548	4713.74
426.756	4732.17
426.964	4830.48
427.171	5203.21
427.379	5174.53
427.586	5379.33
427.794	5555.46
428.001	5876.99
428.209	6173.94
428.417	5944.57
428.624	6251.77
428.832	6382.84
429.039	6262.01
429.247	6327.54
429.454	6974.7
429.662	7347.43
429.869	6980.84
430.076	7496.93
430.284	7283.94
430.491	7580.9
430.699	7898.33
430.906	7900.38
431.114	7867.61
431.321	8375.51
431.528	8520.92
431.736	9045.2
431.943	9401.54
432.15	9395.4
432.358	9331.91
432.565	9823.42
432.772	9702.59
432.979	10388.66
433.187	10544.31
433.394	10546.36
433.601	11355.3
433.808	11148.46
434.016	11158.7
434.223	11574.44
434.43	12283.03
434.637	12350.62
434.844	12819.6
435.052	13161.61
435.259	13456.52
435.466	13538.44
435.673	13188.24
435.88	13999.23
436.087	15000.69
436.294	14564.47
436.501	14410.87
436.708	14851.19
436.915	15248.49
437.122	15873.12
437.329	15653.99
437.537	16258.14
437.743	16682.07
437.95	16233.57
438.157	17284.17
438.364	17837.13
438.571	17785.93
438.778	18046.02
438.985	19751.98
439.192	18691.13
439.399	19369.01
439.606	19137.59
439.813	20104.23
440.02	21474.32
440.227	20991
440.433	20743.19
440.64	21455.89
440.847	21408.78
441.054	22017.03
441.261	23311.35
441.467	23047.16
441.674	23319.54
441.881	24239.08
442.088	24097.77
442.294	23946.22
442.501	24626.14
442.708	25101.27
442.914	26055.62
443.121	27165.62
443.328	26567.62
443.534	28357.54
443.741	27667.38
443.948	27188.15
444.154	29569.94
444.361	29217.69
444.568	29156.25
444.774	29416.34
444.981	29623.19
445.187	30733.18
445.394	31961.97
445.6	31374.2
445.807	34353.99
446.013	32961.37
446.22	33379.16
446.426	34759.49
446.633	35441.46
446.839	36584.23
447.046	34794.31
447.252	36754.21
447.459	36799.27
447.665	36967.2
447.871	38292.24
448.078	39947
448.284	37739.29
448.491	39021.31
448.697	41009.89
448.903	41343.71
449.11	41560.8
449.316	41102.05
449.522	41499.36
449.728	42846.92
449.935	43182.79
450.141	43066.05
450.347	43698.87
450.553	42644.17
450.76	43053.76
450.966	44442.29
451.172	43977.4
451.378	45157.03
451.584	44569.26
451.791	45527.71
451.997	45417.12
452.203	46162.58
452.409	46002.84
452.615	46035.61
452.821	44038.84
453.027	43958.97
453.233	46054.04
453.44	44288.69
453.646	44745.39
453.852	44921.51
454.058	45417.12
454.264	44278.45
454.47	45492.9
454.676	44208.82
454.882	45976.22
455.088	42091.22
455.294	42808.01
455.5	43178.69
455.705	43516.61
455.911	41673.43
456.117	41276.13
456.323	40858.34
456.529	38830.85
456.735	40284.91
456.941	39547.64
457.147	38802.18
457.352	37509.91
457.558	36780.84
457.764	36936.48
457.97	36168.49
458.176	35765.04
458.381	35627.83
458.587	34073.42
458.793	34089.81
458.999	32123.76
459.204	34278.22
459.41	33256.28
459.616	31128.44
459.821	31193.98
460.027	30987.13
460.233	30368.65
460.438	28806.05
460.644	29678.48
460.85	27945.9
461.055	27665.33
461.261	27550.64
461.466	25498.58
461.672	24663
461.878	26596.29
462.083	24263.65
462.289	24126.44
462.494	23952.36
462.7	23043.06
462.905	22027.27
463.111	23163.89
463.316	23020.53
463.522	22658.04
463.727	22709.24
463.932	22539.26
464.138	22440.96
464.343	22596.6
464.549	21801.99
464.754	22780.92
464.959	22281.22
465.165	22281.22
465.37	21433.36
465.575	20761.62
465.781	21613.58
465.986	21533.71
466.191	20878.36
466.397	20423.71
466.602	19338.29
