Data from USB4F104151__60__13-05-41-881.txt Node

Date: Fri Mar 14 13:05:41 EDT 2025
User: louis
Spectrometer: USB4F10415
Trigger mode: 4
Integration Time (sec): 4.000000E-2
Scans to average: 1
Electric dark correction enabled: true
Nonlinearity correction enabled: false
Boxcar width: 0
XAxis mode: Wavelengths
Number of Pixels in Spectrum: 3648
>>>>>Begin Spectral Data<<<<<
178.204	-197.46
178.424	-197.46
178.644	-197.46
178.864	-199.51
179.084	-133.97
179.304	-43.86
179.524	-33.62
179.744	-15.19
179.964	40.11
180.184	-33.62
180.404	33.96
180.624	60.59
180.844	-37.72
181.064	-41.81
181.283	17.58
181.503	-11.09
181.723	64.68
181.943	-123.73
182.163	38.06
182.383	62.63
182.602	-23.38
182.822	117.93
183.042	48.3
183.262	38.06
183.482	66.73
183.701	7.34
183.921	58.54
184.141	23.72
184.361	36.01
184.58	64.68
184.8	21.67
185.02	36.01
185.239	74.92
185.459	9.39
185.679	105.64
185.898	-82.77
186.118	5.29
186.338	103.59
186.557	66.73
186.777	25.77
186.997	25.77
187.216	-4.95
187.436	138.41
187.655	31.91
187.875	56.49
188.095	38.06
188.314	58.54
188.534	19.63
188.753	13.48
188.973	68.78
189.192	87.21
189.412	93.35
189.631	44.2
189.851	46.25
190.07	87.21
190.29	-27.48
190.509	95.4
190.729	50.35
190.948	103.59
191.168	273.57
191.387	42.15
191.607	3.24
191.826	17.58
192.045	15.53
192.265	1.19
192.484	42.15
192.704	60.59
192.923	-31.57
193.142	154.79
193.362	89.26
193.581	66.73
193.8	56.49
194.02	38.06
194.239	31.91
194.458	23.72
194.678	103.59
194.897	74.92
195.116	58.54
195.335	72.87
195.555	31.91
195.774	25.77
195.993	89.26
196.212	79.02
196.432	9.39
196.651	58.54
196.87	-2.9
197.089	56.49
197.308	58.54
197.528	15.53
197.747	93.35
197.966	105.64
198.185	124.07
198.404	17.58
198.623	13.48
198.842	31.91
199.062	5.29
199.281	167.08
199.5	95.4
199.719	46.25
199.938	-9.05
200.157	36.01
200.376	54.44
200.595	95.4
200.814	144.55
201.033	38.06
201.252	97.45
201.471	-60.24
201.69	56.49
201.909	64.68
202.128	93.35
202.347	60.59
202.566	40.11
202.785	19.63
203.004	-39.76
203.223	197.8
203.442	89.26
203.661	70.83
203.879	56.49
204.098	46.25
204.317	9.39
204.536	79.02
204.755	50.35
204.974	64.68
205.193	124.07
205.411	101.55
205.63	48.3
205.849	46.25
206.068	3.24
206.287	-37.72
206.505	74.92
206.724	-9.05
206.943	-15.19
207.162	1.19
207.381	58.54
207.599	-19.29
207.818	54.44
208.037	-4.95
208.255	31.91
208.474	38.06
208.693	-27.48
208.911	7.34
209.13	152.74
209.349	58.54
209.567	66.73
209.786	85.16
210.005	36.01
210.223	-0.85
210.442	-31.57
210.661	23.72
210.879	52.39
211.098	97.45
211.316	107.69
211.535	76.97
211.753	58.54
211.972	66.73
212.191	56.49
212.409	27.82
212.628	113.83
212.846	-9.05
213.065	87.21
213.283	83.11
213.502	66.73
213.72	-35.67
213.938	95.4
214.157	21.67
214.375	7.34
214.594	25.77
214.812	134.31
215.031	-11.09
215.249	-41.81
215.467	62.63
215.686	44.2
215.904	-13.14
216.122	-68.44
216.341	40.11
216.559	17.58
216.778	70.83
216.996	42.15
217.214	44.2
217.432	7.34
217.651	3.24
217.869	70.83
218.087	21.67
218.306	-50
218.524	-52.05
218.742	-2.9
218.96	97.45
219.179	93.35
219.397	-11.09
219.615	60.59
219.833	93.35
220.051	21.67
220.27	85.16
220.488	87.21
220.706	60.59
220.924	46.25
221.142	23.72
221.36	56.49
221.578	79.02
221.796	-19.29
222.015	62.63
222.233	66.73
222.451	101.55
222.669	23.72
222.887	5.29
223.105	25.77
223.323	31.91
223.541	21.67
223.759	62.63
223.977	5.29
224.195	95.4
224.413	56.49
224.631	103.59
224.849	99.5
225.067	136.36
225.285	40.11
225.503	-17.24
225.721	19.63
225.939	40.11
226.157	95.4
226.375	95.4
226.592	-31.57
226.81	-29.52
227.028	93.35
227.246	134.31
227.464	21.67
227.682	79.02
227.9	62.63
228.117	72.87
228.335	58.54
228.553	95.4
228.771	29.87
228.989	36.01
229.206	31.91
229.424	38.06
229.642	-15.19
229.86	-4.95
230.077	29.87
230.295	62.63
230.513	89.26
230.731	42.15
230.948	89.26
231.166	146.6
231.384	25.77
231.601	-2.9
231.819	111.78
232.037	29.87
232.254	13.48
232.472	70.83
232.689	21.67
232.907	126.12
233.125	44.2
233.342	33.96
233.56	9.39
233.777	52.39
233.995	-11.09
234.213	27.82
234.43	89.26
234.648	-37.72
234.865	76.97
235.083	31.91
235.3	40.11
235.518	58.54
235.735	95.4
235.953	62.63
236.17	9.39
236.388	23.72
236.605	72.87
236.822	87.21
237.04	72.87
237.257	38.06
237.475	11.43
237.692	111.78
237.909	72.87
238.127	33.96
238.344	9.39
238.562	136.36
238.779	31.91
238.996	-56.15
239.214	74.92
239.431	103.59
239.648	128.17
239.865	25.77
240.083	29.87
240.3	23.72
240.517	38.06
240.735	36.01
240.952	87.21
241.169	29.87
241.386	-2.9
241.603	7.34
241.821	-21.33
242.038	76.97
242.255	38.06
242.472	-43.86
242.689	66.73
242.907	-9.05
243.124	3.24
243.341	15.53
243.558	19.63
243.775	-62.29
243.992	-25.43
244.209	23.72
244.426	113.83
244.643	17.58
244.86	44.2
245.078	46.25
245.295	-43.86
245.512	-23.38
245.729	66.73
245.946	91.31
246.163	48.3
246.38	58.54
246.597	38.06
246.814	-27.48
247.031	115.88
247.248	87.21
247.464	50.35
247.681	1.19
247.898	72.87
248.115	66.73
248.332	17.58
248.549	46.25
248.766	54.44
248.983	70.83
249.2	105.64
249.417	54.44
249.633	-17.24
249.85	68.78
250.067	-11.09
250.284	31.91
250.501	3.24
250.717	128.17
250.934	-13.14
251.151	42.15
251.368	29.87
251.585	83.11
251.801	29.87
252.018	66.73
252.235	124.07
252.451	21.67
252.668	48.3
252.885	76.97
253.102	105.64
253.318	54.44
253.535	66.73
253.752	103.59
253.968	5.29
254.185	29.87
254.401	-37.72
254.618	144.55
254.835	33.96
255.051	60.59
255.268	5.29
255.484	29.87
255.701	99.5
255.917	70.83
256.134	52.39
256.351	54.44
256.567	-11.09
256.784	50.35
257	66.73
257.217	29.87
257.433	72.87
257.65	33.96
257.866	113.83
258.082	70.83
258.299	-37.72
258.515	66.73
258.732	-82.77
258.948	79.02
259.165	46.25
259.381	17.58
259.597	111.78
259.814	23.72
260.03	-11.09
260.246	27.82
260.463	109.74
260.679	97.45
260.895	83.11
261.112	76.97
261.328	-7
261.544	31.91
261.761	111.78
261.977	85.16
262.193	-19.29
262.409	60.59
262.626	81.07
262.842	21.67
263.058	19.63
263.274	113.83
263.49	62.63
263.707	58.54
263.923	36.01
264.139	-17.24
264.355	-52.05
264.571	136.36
264.787	38.06
265.004	191.66
265.22	40.11
265.436	13.48
265.652	29.87
265.868	107.69
266.084	-0.85
266.3	95.4
266.516	29.87
266.732	50.35
266.948	81.07
267.164	89.26
267.38	33.96
267.596	23.72
267.812	132.26
268.028	38.06
268.244	-64.34
268.46	-11.09
268.676	74.92
268.892	74.92
269.108	21.67
269.324	13.48
269.54	68.78
269.756	44.2
269.972	-80.72
270.188	62.63
270.403	44.2
270.619	36.01
270.835	95.4
271.051	13.48
271.267	-35.67
271.483	23.72
271.698	72.87
271.914	81.07
272.13	62.63
272.346	-41.81
272.562	-2.9
272.777	68.78
272.993	54.44
273.209	58.54
273.425	62.63
273.64	9.39
273.856	93.35
274.072	46.25
274.287	21.67
274.503	109.74
274.719	33.96
274.934	54.44
275.15	70.83
275.366	23.72
275.581	15.53
275.797	56.49
276.012	-62.29
276.228	3.24
276.444	95.4
276.659	13.48
276.875	60.59
277.09	95.4
277.306	58.54
277.521	-11.09
277.737	93.35
277.952	113.83
278.168	33.96
278.383	-15.19
278.599	89.26
278.814	48.3
279.03	79.02
279.245	74.92
279.461	56.49
279.676	162.98
279.892	-31.57
280.107	33.96
280.322	50.35
280.538	97.45
280.753	-107.35
280.969	33.96
281.184	23.72
281.399	38.06
281.615	79.02
281.83	99.5
282.045	3.24
282.26	5.29
282.476	95.4
282.691	93.35
282.906	46.25
283.122	9.39
283.337	21.67
283.552	85.16
283.767	-43.86
283.983	103.59
284.198	44.2
284.413	40.11
284.628	46.25
284.843	9.39
285.058	42.15
285.274	107.69
285.489	99.5
285.704	113.83
285.919	42.15
286.134	27.82
286.349	15.53
286.564	50.35
286.779	83.11
286.995	60.59
287.21	13.48
287.425	13.48
287.64	-17.24
287.855	105.64
288.07	-58.2
288.285	136.36
288.5	21.67
288.715	15.53
288.93	27.82
289.145	-23.38
289.36	46.25
289.575	23.72
289.79	154.79
290.004	68.78
290.219	64.68
290.434	17.58
290.649	38.06
290.864	19.63
291.079	-0.85
291.294	119.98
291.509	72.87
291.724	31.91
291.938	29.87
292.153	13.48
292.368	13.48
292.583	74.92
292.798	126.12
293.012	56.49
293.227	107.69
293.442	19.63
293.657	124.07
293.871	87.21
294.086	103.59
294.301	160.94
294.516	126.12
294.73	5.29
294.945	48.3
295.16	-27.48
295.374	23.72
295.589	140.46
295.804	54.44
296.018	1.19
296.233	99.5
296.447	33.96
296.662	105.64
296.877	107.69
297.091	52.39
297.306	89.26
297.52	7.34
297.735	15.53
297.949	13.48
298.164	46.25
298.378	79.02
298.593	-2.9
298.807	70.83
299.022	23.72
299.236	119.98
299.451	42.15
299.665	27.82
299.88	56.49
300.094	87.21
300.309	66.73
300.523	36.01
300.737	-27.48
300.952	-2.9
301.166	111.78
301.381	-7
301.595	38.06
301.809	44.2
302.024	66.73
302.238	29.87
302.452	156.84
302.667	19.63
302.881	93.35
303.095	136.36
303.309	21.67
303.524	15.53
303.738	58.54
303.952	21.67
304.166	107.69
304.381	-39.76
304.595	134.31
304.809	-62.29
305.023	76.97
305.237	105.64
305.452	-27.48
305.666	68.78
305.88	124.07
306.094	95.4
306.308	76.97
306.522	-33.62
306.736	115.88
306.95	97.45
307.164	-29.52
307.379	-13.14
307.593	99.5
307.807	119.98
308.021	87.21
308.235	27.82
308.449	-17.24
308.663	21.67
308.877	48.3
309.091	52.39
309.305	95.4
309.519	-25.43
309.733	142.5
309.947	-0.85
310.161	117.93
310.374	95.4
310.588	89.26
310.802	105.64
311.016	11.43
311.23	17.58
311.444	29.87
311.658	25.77
311.872	76.97
312.085	103.59
312.299	128.17
312.513	158.89
312.727	58.54
312.941	-66.39
313.154	13.48
313.368	44.2
313.582	-15.19
313.796	36.01
314.009	42.15
314.223	33.96
314.437	119.98
314.651	38.06
314.864	-9.05
315.078	5.29
315.292	-25.43
315.505	9.39
315.719	79.02
315.933	122.02
316.146	40.11
316.36	66.73
316.573	56.49
316.787	72.87
317.001	76.97
317.214	38.06
317.428	11.43
317.641	1.19
317.855	13.48
318.068	9.39
318.282	109.74
318.495	81.07
318.709	19.63
318.922	13.48
319.136	66.73
319.349	66.73
319.563	81.07
319.776	-11.09
319.99	36.01
320.203	48.3
320.417	76.97
320.63	162.98
320.843	185.51
321.057	-9.05
321.27	23.72
321.483	52.39
321.697	42.15
321.91	56.49
322.124	107.69
322.337	25.77
322.55	-45.91
322.763	19.63
322.977	31.91
323.19	-25.43
323.403	56.49
323.617	33.96
323.83	46.25
324.043	74.92
324.256	-11.09
324.469	11.43
324.683	136.36
324.896	-50
325.109	85.16
325.322	1.19
325.535	62.63
325.748	85.16
325.962	62.63
326.175	85.16
326.388	62.63
326.601	33.96
326.814	21.67
327.027	93.35
327.24	128.17
327.453	-23.38
327.666	52.39
327.879	122.02
328.092	122.02
328.305	76.97
328.518	64.68
328.731	-7
328.944	17.58
329.157	21.67
329.37	97.45
329.583	193.7
329.796	91.31
330.009	-13.14
330.222	105.64
330.435	68.78
330.648	13.48
330.861	105.64
331.073	105.64
331.286	113.83
331.499	87.21
331.712	50.35
331.925	74.92
332.138	17.58
332.35	119.98
332.563	-2.9
332.776	72.87
332.989	-9.05
333.202	3.24
333.414	81.07
333.627	42.15
333.84	15.53
334.053	62.63
334.265	103.59
334.478	-17.24
334.691	21.67
334.903	54.44
335.116	72.87
335.329	21.67
335.541	13.48
335.754	119.98
335.966	3.24
336.179	48.3
336.392	-11.09
336.604	44.2
336.817	66.73
337.029	46.25
337.242	-58.2
337.454	70.83
337.667	97.45
337.88	144.55
338.092	87.21
338.305	46.25
338.517	5.29
338.729	44.2
338.942	52.39
339.154	23.72
339.367	58.54
339.579	83.11
339.792	48.3
340.004	62.63
340.217	74.92
340.429	-2.9
340.641	33.96
340.854	56.49
341.066	17.58
341.278	64.68
341.491	70.83
341.703	105.64
341.915	7.34
342.128	79.02
342.34	85.16
342.552	-17.24
342.764	87.21
342.977	5.29
343.189	72.87
343.401	87.21
343.613	-2.9
343.826	48.3
344.038	15.53
344.25	17.58
344.462	70.83
344.674	33.96
344.886	79.02
345.099	46.25
345.311	68.78
345.523	70.83
345.735	52.39
345.947	79.02
346.159	5.29
346.371	50.35
346.583	-0.85
346.795	74.92
347.007	1.19
347.219	109.74
347.431	74.92
347.643	52.39
347.855	-9.05
348.067	54.44
348.279	13.48
348.491	56.49
348.703	74.92
348.915	64.68
349.127	62.63
349.339	-2.9
349.551	-0.85
349.763	17.58
349.975	70.83
350.187	64.68
350.399	101.55
350.61	-2.9
350.822	17.58
351.034	50.35
351.246	33.96
351.458	31.91
351.669	56.49
351.881	97.45
352.093	185.51
352.305	97.45
352.517	99.5
352.728	177.32
352.94	56.49
353.152	56.49
353.363	54.44
353.575	50.35
353.787	70.83
353.999	-9.05
354.21	138.41
354.422	52.39
354.633	79.02
354.845	117.93
355.057	81.07
355.268	79.02
355.48	40.11
355.692	-23.38
355.903	87.21
356.115	99.5
356.326	48.3
356.538	79.02
356.749	25.77
356.961	109.74
357.172	36.01
357.384	-7
357.595	183.46
357.807	93.35
358.018	38.06
358.23	38.06
358.441	79.02
358.653	50.35
358.864	23.72
359.075	3.24
359.287	19.63
359.498	91.31
359.709	74.92
359.921	87.21
360.132	93.35
360.344	85.16
360.555	99.5
360.766	70.83
360.977	33.96
361.189	54.44
361.4	31.91
361.611	87.21
361.823	89.26
362.034	38.06
362.245	-11.09
362.456	-0.85
362.667	138.41
362.879	42.15
363.09	58.54
363.301	-25.43
363.512	68.78
363.723	93.35
363.935	48.3
364.146	119.98
364.357	46.25
364.568	62.63
364.779	-0.85
364.99	122.02
365.201	38.06
365.412	115.88
365.623	33.96
365.834	109.74
366.045	111.78
366.256	107.69
366.467	50.35
366.678	46.25
366.889	7.34
367.1	83.11
367.311	66.73
367.522	101.55
367.733	83.11
367.944	72.87
368.155	5.29
368.366	62.63
368.577	105.64
368.788	87.21
368.999	83.11
369.209	54.44
369.42	150.7
369.631	152.74
369.842	21.67
370.053	72.87
370.264	66.73
370.474	70.83
370.685	52.39
370.896	62.63
371.107	85.16
371.317	74.92
371.528	38.06
371.739	64.68
371.95	74.92
372.16	91.31
372.371	19.63
372.582	-2.9
372.792	42.15
373.003	115.88
373.214	21.67
373.424	144.55
373.635	42.15
373.846	117.93
374.056	29.87
374.267	115.88
374.477	64.68
374.688	111.78
374.898	81.07
375.109	38.06
375.319	56.49
375.53	58.54
375.74	122.02
375.951	95.4
376.161	128.17
376.372	95.4
376.582	40.11
376.793	72.87
377.003	-9.05
377.214	46.25
377.424	72.87
377.635	70.83
377.845	-25.43
378.055	160.94
378.266	-41.81
378.476	19.63
378.686	72.87
378.897	42.15
379.107	33.96
379.317	52.39
379.528	40.11
379.738	79.02
379.948	-11.09
380.158	62.63
380.369	56.49
380.579	134.31
380.789	64.68
380.999	23.72
381.21	81.07
381.42	171.18
381.63	62.63
381.84	72.87
382.05	81.07
382.261	85.16
382.471	101.55
382.681	29.87
382.891	173.22
383.101	70.83
383.311	48.3
383.521	109.74
383.731	105.64
383.941	152.74
384.151	136.36
384.361	72.87
384.571	54.44
384.781	87.21
384.991	33.96
385.201	85.16
385.411	48.3
385.621	162.98
385.831	64.68
386.041	111.78
386.251	-9.05
386.461	165.03
386.671	38.06
386.881	122.02
387.091	136.36
387.301	15.53
387.511	74.92
387.72	146.6
387.93	97.45
388.14	15.53
388.35	119.98
388.56	197.8
388.769	95.4
388.979	165.03
389.189	87.21
389.399	1.19
389.609	126.12
389.818	33.96
390.028	138.41
390.238	60.59
390.447	124.07
390.657	103.59
390.867	58.54
391.076	25.77
391.286	105.64
391.496	93.35
391.705	91.31
391.915	103.59
392.125	156.84
392.334	70.83
392.544	136.36
392.753	122.02
392.963	72.87
393.172	103.59
393.382	95.4
393.591	128.17
393.801	29.87
394.01	134.31
394.22	148.65
394.429	23.72
394.639	91.31
394.848	144.55
395.058	113.83
395.267	40.11
395.477	62.63
395.686	146.6
395.895	105.64
396.105	189.61
396.314	140.46
396.524	107.69
396.733	5.29
396.942	205.99
397.152	124.07
397.361	171.18
397.57	132.26
397.78	130.22
397.989	146.6
398.198	171.18
398.407	38.06
398.617	132.26
398.826	89.26
399.035	79.02
399.244	154.79
399.453	158.89
399.663	218.28
399.872	128.17
400.081	42.15
400.29	97.45
400.499	85.16
400.708	152.74
400.917	144.55
401.127	185.51
401.336	130.22
401.545	152.74
401.754	169.13
401.963	124.07
402.172	177.32
402.381	160.94
402.59	70.83
402.799	154.79
403.008	191.66
403.217	130.22
403.426	171.18
403.635	136.36
403.844	162.98
404.053	177.32
404.262	72.87
404.471	232.62
404.68	212.14
404.888	173.22
405.097	126.12
405.306	167.08
405.515	298.15
405.724	189.61
405.933	251.05
406.142	263.33
406.35	210.09
406.559	160.94
406.768	275.62
406.977	285.86
407.185	255.14
407.394	263.33
407.603	222.38
407.812	259.24
408.02	300.2
408.229	300.2
408.438	218.28
408.646	218.28
408.855	316.58
409.064	341.16
409.272	263.33
409.481	390.31
409.69	287.91
409.898	279.72
410.107	371.88
410.315	343.21
410.524	316.58
410.733	427.17
410.941	359.59
411.15	490.66
411.358	400.55
411.567	492.71
411.775	435.36
411.984	476.32
412.192	537.76
412.401	410.79
412.609	564.39
412.818	595.11
413.026	535.71
413.234	574.63
413.443	625.83
413.651	507.04
413.86	646.3
414.068	732.32
414.276	799.9
414.485	664.74
414.693	726.18
414.901	791.71
415.11	810.14
415.318	754.85
415.526	859.29
415.734	871.58
415.943	849.05
416.151	959.64
416.359	906.4
416.567	1049.75
416.776	1010.84
416.984	1078.43
417.192	1197.21
417.4	1119.39
417.608	1004.7
417.817	1131.67
418.025	1174.68
418.233	1445.01
418.441	1221.78
418.649	1383.57
418.857	1410.2
419.065	1520.79
419.273	1432.72
419.481	1508.5
419.689	1596.56
419.897	1578.13
420.105	1682.58
420.313	1782.93
420.521	1864.85
420.729	1797.26
420.937	1950.86
421.145	2090.12
421.353	2036.88
421.561	2169.99
421.769	2167.95
421.977	2360.45
422.185	2217.1
422.393	2528.39
422.601	2532.48
422.809	2432.13
423.017	2602.11
423.224	2716.8
423.432	2886.78
423.64	2823.3
423.848	3032.19
424.056	2966.65
424.263	3062.91
424.471	3366.01
424.679	3282.04
424.887	3406.97
425.094	3474.55
425.302	3540.08
425.51	3759.22
425.718	3800.18
425.925	3964.01
426.133	3867.76
426.341	4349.03
426.548	4326.5
426.756	4385.9
426.964	4392.04
427.171	4742.24
427.379	4750.43
427.586	4940.9
427.794	4895.84
428.001	5321.82
428.209	5459.03
428.417	5489.75
428.624	5782.61
428.832	5946.45
429.039	5801.04
429.247	5872.72
429.454	6368.33
429.662	6868.03
429.869	6583.37
430.076	6847.55
430.284	6655.05
430.491	6908.99
430.699	7287.87
430.906	7357.5
431.114	7502.9
431.321	7597.11
431.528	7840.82
431.736	8277.04
431.943	8612.9
432.15	8416.3
432.358	8498.22
432.565	9020.45
432.772	8813.6
432.979	9579.54
433.187	9587.74
433.394	9624.6
433.601	10220.56
433.808	10382.35
434.016	10189.84
434.223	10843.14
434.43	11312.13
434.637	11277.31
434.844	11725.82
435.052	12104.69
435.259	12121.07
435.466	11957.24
435.673	11967.48
435.88	12958.69
436.087	13497.31
436.294	13437.92
436.501	13171.68
436.708	13513.69
436.915	14046.16
437.122	14463.95
437.329	14377.94
437.537	14955.46
437.743	15160.26
437.95	15104.96
438.157	16049.08
438.364	16475.06
438.571	16237.49
438.778	16630.7
438.985	17855.39
439.192	17150.88
439.399	17953.69
439.606	17380.26
439.813	18394
440.02	19676.03
440.227	19059.59
440.433	19170.18
440.64	19723.13
440.847	19614.59
441.054	20081.53
441.261	21410.66
441.467	20845.42
441.674	21394.28
441.881	22244.18
442.088	22375.25
442.294	21965.66
442.501	22608.72
442.708	23110.47
442.914	24329.02
443.121	24978.22
443.328	24302.39
443.534	26258.2
443.741	25482.02
443.948	24886.06
444.154	26839.83
444.361	26592.02
444.568	26931.98
444.774	27030.29
444.981	27271.95
445.187	28144.38
445.394	29108.97
445.6	29084.4
445.807	31490.76
446.013	30440.15
446.22	30917.33
446.426	31853.25
446.633	32316.09
446.839	33299.12
447.046	31849.16
447.252	33768.1
447.459	33839.78
447.665	33632.94
447.871	35000.98
448.078	36704.89
448.284	35134.1
448.491	35965.57
448.697	37554.8
448.903	37753.45
449.11	38351.46
449.316	37495.41
449.522	38373.99
449.728	39332.43
449.935	39791.18
450.141	39531.09
450.347	40458.82
450.553	39293.52
450.76	39864.91
450.966	40983.1
451.172	40929.85
451.378	41710.13
451.584	40821.31
451.791	42019.37
451.997	41855.53
452.203	42410.53
452.409	42637.86
452.615	42295.85
452.821	40645.18
453.027	40428.1
453.233	42506.79
453.44	40829.5
453.646	41335.35
453.852	41636.4
454.058	42279.46
454.264	40858.17
454.47	42076.71
454.676	40624.7
454.882	42189.35
455.088	38589.02
455.294	39010.9
455.5	39864.91
455.705	40415.81
455.911	38586.97
456.117	37794.41
456.323	37386.86
456.529	35299.98
456.735	36987.51
456.941	35947.14
457.147	35445.39
457.352	34613.91
457.558	33878.69
457.764	34042.53
457.97	33299.12
458.176	32813.75
458.381	32811.7
458.587	30966.48
458.793	31240.91
458.999	29334.25
459.204	31580.87
459.41	31046.35
459.616	28818.16
459.821	29231.85
460.027	28402.43
460.233	28128
460.438	27038.48
460.644	27302.67
460.85	25656.1
461.055	25289.51
461.261	25520.93
461.466	23470.92
461.672	22750.03
461.878	24546.1
462.083	22911.82
462.289	22279
462.494	22025.05
462.7	21039.98
462.905	20689.77
463.111	21570.4
463.316	21375.84
463.522	20820.84
463.727	20728.69
463.932	20894.57
464.138	20601.71
464.343	20839.28
464.549	20038.52
464.754	20728.69
464.959	20452.21
465.165	20779.89
465.37	19487.62
465.575	18850.7
465.781	19815.29
465.986	19923.83
466.191	19338.12
466.397	18963.34
