Data from USB4F104151__83__13-06-14-398.txt Node

Date: Fri Mar 14 13:06:14 EDT 2025
User: louis
Spectrometer: USB4F10415
Trigger mode: 4
Integration Time (sec): 4.000000E-2
Scans to average: 1
Electric dark correction enabled: true
Nonlinearity correction enabled: false
Boxcar width: 0
XAxis mode: Wavelengths
Number of Pixels in Spectrum: 3648
>>>>>Begin Spectral Data<<<<<
178.204	-157.52
178.424	-157.52
178.644	-157.52
178.864	-282.45
179.084	-167.76
179.304	-16.21
179.524	-85.84
179.744	8.36
179.964	12.46
180.184	26.79
180.404	14.51
180.624	86.19
180.844	-10.07
181.064	2.22
181.283	32.94
181.503	-12.12
181.723	-59.22
181.943	-46.93
182.163	98.47
182.383	2.22
182.602	71.85
182.822	61.61
183.042	24.75
183.262	32.94
183.482	37.03
183.701	55.47
183.921	-20.31
184.141	-77.65
184.361	30.89
184.58	22.7
184.8	14.51
185.02	-34.64
185.239	53.42
185.459	30.89
185.679	96.43
185.898	-51.03
186.118	94.38
186.338	-10.07
186.557	63.66
186.777	-18.26
186.997	-16.21
187.216	0.17
187.436	98.47
187.655	84.14
187.875	63.66
188.095	-20.31
188.314	104.62
188.534	30.89
188.753	47.27
188.973	59.56
189.192	67.75
189.412	39.08
189.631	-10.07
189.851	96.43
190.07	102.57
190.29	47.27
190.509	133.29
190.729	-57.17
190.948	51.37
191.168	129.19
191.387	-22.36
191.607	22.7
191.826	22.7
192.045	-32.6
192.265	6.31
192.484	6.31
192.704	14.51
192.923	-30.55
193.142	47.27
193.362	75.95
193.581	43.18
193.8	73.9
194.02	129.19
194.239	-5.97
194.458	51.37
194.678	49.32
194.897	26.79
195.116	61.61
195.335	59.56
195.555	73.9
195.774	-10.07
195.993	16.55
196.212	75.95
196.432	24.75
196.651	43.18
196.87	75.95
197.089	170.15
197.308	112.81
197.528	-8.02
197.747	32.94
197.966	-38.74
198.185	-18.26
198.404	-42.84
198.623	-5.97
198.842	145.58
199.062	20.65
199.281	80.04
199.5	57.51
199.719	80.04
199.938	145.58
200.157	39.08
200.376	110.76
200.595	34.99
200.814	80.04
201.033	80.04
201.252	88.23
201.471	51.37
201.69	51.37
201.909	92.33
202.128	57.51
202.347	32.94
202.566	63.66
202.785	4.27
203.004	-44.88
203.223	121
203.442	53.42
203.661	22.7
203.879	55.47
204.098	157.86
204.317	-16.21
204.536	116.9
204.755	63.66
204.974	65.71
205.193	-48.98
205.411	80.04
205.63	75.95
205.849	67.75
206.068	6.31
206.287	-106.32
206.505	96.43
206.724	16.55
206.943	24.75
207.162	129.19
207.381	22.7
207.599	73.9
207.818	59.56
208.037	98.47
208.255	-40.79
208.474	-1.88
208.693	77.99
208.911	10.41
209.13	47.27
209.349	51.37
209.567	92.33
209.786	65.71
210.005	59.56
210.223	45.23
210.442	-51.03
210.661	32.94
210.879	26.79
211.098	43.18
211.316	82.09
211.535	88.23
211.753	49.32
211.972	32.94
212.191	28.84
212.409	30.89
212.628	37.03
212.846	55.47
213.065	51.37
213.283	32.94
213.502	65.71
213.72	39.08
213.938	57.51
214.157	-1.88
214.375	127.14
214.594	18.6
214.812	84.14
215.031	14.51
215.249	57.51
215.467	26.79
215.686	90.28
215.904	10.41
216.122	65.71
216.341	59.56
216.559	94.38
216.778	57.51
216.996	92.33
217.214	14.51
217.432	8.36
217.651	20.65
217.869	80.04
218.087	2.22
218.306	-48.98
218.524	92.33
218.742	4.27
218.96	67.75
219.179	30.89
219.397	57.51
219.615	26.79
219.833	80.04
220.051	-53.08
220.27	127.14
220.488	30.89
220.706	2.22
220.924	61.61
221.142	-1.88
221.36	53.42
221.578	4.27
221.796	39.08
222.015	-1.88
222.233	-67.41
222.451	12.46
222.669	49.32
222.887	-10.07
223.105	-55.12
223.323	104.62
223.541	30.89
223.759	65.71
223.977	39.08
224.195	98.47
224.413	24.75
224.631	26.79
224.849	18.6
225.067	114.86
225.285	-14.17
225.503	16.55
225.721	-91.99
225.939	41.13
226.157	2.22
226.375	186.54
226.592	-55.12
226.81	-8.02
227.028	43.18
227.246	168.1
227.464	18.6
227.682	39.08
227.9	28.84
228.117	51.37
228.335	82.09
228.553	26.79
228.771	77.99
228.989	139.43
229.206	82.09
229.424	-36.69
229.642	34.99
229.86	18.6
230.077	28.84
230.295	2.22
230.513	170.15
230.731	61.61
230.948	-12.12
231.166	127.14
231.384	-55.12
231.601	34.99
231.819	26.79
232.037	10.41
232.254	37.03
232.472	75.95
232.689	32.94
232.907	73.9
233.125	30.89
233.342	32.94
233.56	-1.88
233.777	24.75
233.995	12.46
234.213	-42.84
234.43	41.13
234.648	22.7
234.865	20.65
235.083	61.61
235.3	45.23
235.518	45.23
235.735	90.28
235.953	75.95
236.17	63.66
236.388	84.14
236.605	-34.64
236.822	94.38
237.04	92.33
237.257	43.18
237.475	-40.79
237.692	32.94
237.909	-20.31
238.127	37.03
238.344	147.62
238.562	67.75
238.779	-1.88
238.996	-34.64
239.214	20.65
239.431	14.51
239.648	-16.21
239.865	98.47
240.083	92.33
240.3	20.65
240.517	-34.64
240.735	47.27
240.952	39.08
241.169	106.67
241.386	14.51
241.603	57.51
241.821	-63.32
242.038	92.33
242.255	39.08
242.472	16.55
242.689	37.03
242.907	127.14
243.124	28.84
243.341	32.94
243.558	2.22
243.775	28.84
243.992	24.75
244.209	86.19
244.426	92.33
244.643	90.28
244.86	-28.5
245.078	30.89
245.295	55.47
245.512	30.89
245.729	-5.97
245.946	-38.74
246.163	32.94
246.38	4.27
246.597	30.89
246.814	18.6
247.031	65.71
247.248	32.94
247.464	12.46
247.681	16.55
247.898	88.23
248.115	16.55
248.332	-26.45
248.549	65.71
248.766	123.05
248.983	16.55
249.2	82.09
249.417	65.71
249.633	16.55
249.85	63.66
250.067	49.32
250.284	6.31
250.501	20.65
250.717	69.8
250.934	-67.41
251.151	104.62
251.368	26.79
251.585	8.36
251.801	49.32
252.018	49.32
252.235	22.7
252.451	32.94
252.668	63.66
252.885	-34.64
253.102	112.81
253.318	57.51
253.535	10.41
253.752	71.85
253.968	-10.07
254.185	0.17
254.401	39.08
254.618	51.37
254.835	20.65
255.051	131.24
255.268	127.14
255.484	39.08
255.701	39.08
255.917	86.19
256.134	-1.88
256.351	53.42
256.567	123.05
256.784	45.23
257	80.04
257.217	67.75
257.433	55.47
257.65	63.66
257.866	155.82
258.082	26.79
258.299	32.94
258.515	86.19
258.732	37.03
258.948	-8.02
259.165	49.32
259.381	24.75
259.597	24.75
259.814	57.51
260.03	22.7
260.246	39.08
260.463	67.75
260.679	75.95
260.895	47.27
261.112	67.75
261.328	-53.08
261.544	-46.93
261.761	125.1
261.977	22.7
262.193	0.17
262.409	14.51
262.626	39.08
262.842	-14.17
263.058	8.36
263.274	57.51
263.49	47.27
263.707	10.41
263.923	0.17
264.139	-10.07
264.355	12.46
264.571	67.75
264.787	16.55
265.004	90.28
265.22	55.47
265.436	2.22
265.652	24.75
265.868	37.03
266.084	-18.26
266.3	104.62
266.516	20.65
266.732	18.6
266.948	26.79
267.164	-1.88
267.38	108.71
267.596	41.13
267.812	96.43
268.028	8.36
268.244	39.08
268.46	39.08
268.676	30.89
268.892	-16.21
269.108	-67.41
269.324	-10.07
269.54	59.56
269.756	73.9
269.972	53.42
270.188	-5.97
270.403	-89.94
270.619	49.32
270.835	59.56
271.051	51.37
271.267	-10.07
271.483	28.84
271.698	69.8
271.914	28.84
272.13	63.66
272.346	61.61
272.562	59.56
272.777	53.42
272.993	0.17
273.209	57.51
273.425	75.95
273.64	8.36
273.856	100.52
274.072	22.7
274.287	-1.88
274.503	69.8
274.719	49.32
274.934	-3.93
275.15	18.6
275.366	30.89
275.581	47.27
275.797	57.51
276.012	-44.88
276.228	28.84
276.444	-22.36
276.659	102.57
276.875	-14.17
277.09	12.46
277.306	-16.21
277.521	51.37
277.737	55.47
277.952	51.37
278.168	-26.45
278.383	34.99
278.599	57.51
278.814	88.23
279.03	26.79
279.245	77.99
279.461	41.13
279.676	90.28
279.892	-36.69
280.107	39.08
280.322	8.36
280.538	4.27
280.753	24.75
280.969	8.36
281.184	-18.26
281.399	149.67
281.615	41.13
281.83	73.9
282.045	-8.02
282.26	45.23
282.476	88.23
282.691	30.89
282.906	8.36
283.122	121
283.337	2.22
283.552	34.99
283.767	26.79
283.983	110.76
284.198	71.85
284.413	77.99
284.628	96.43
284.843	90.28
285.058	82.09
285.274	55.47
285.489	28.84
285.704	51.37
285.919	0.17
286.134	45.23
286.349	55.47
286.564	55.47
286.779	80.04
286.995	28.84
287.21	-57.17
287.425	16.55
287.64	-5.97
287.855	30.89
288.07	8.36
288.285	129.19
288.5	65.71
288.715	51.37
288.93	-51.03
289.145	65.71
289.36	43.18
289.575	47.27
289.79	39.08
290.004	-34.64
290.219	112.81
290.434	30.89
290.649	12.46
290.864	145.58
291.079	-36.69
291.294	84.14
291.509	63.66
291.724	8.36
291.938	100.52
292.153	47.27
292.368	-3.93
292.583	73.9
292.798	114.86
293.012	59.56
293.227	65.71
293.442	114.86
293.657	94.38
293.871	82.09
294.086	65.71
294.301	112.81
294.516	61.61
294.73	18.6
294.945	32.94
295.16	22.7
295.374	106.67
295.589	84.14
295.804	65.71
296.018	22.7
296.233	96.43
296.447	16.55
296.662	90.28
296.877	55.47
297.091	84.14
297.306	80.04
297.52	55.47
297.735	86.19
297.949	65.71
298.164	59.56
298.378	26.79
298.593	16.55
298.807	39.08
299.022	39.08
299.236	71.85
299.451	37.03
299.665	26.79
299.88	41.13
300.094	92.33
300.309	4.27
300.523	80.04
300.737	-65.36
300.952	16.55
301.166	51.37
301.381	41.13
301.595	-30.55
301.809	121
302.024	53.42
302.238	34.99
302.452	65.71
302.667	4.27
302.881	121
303.095	121
303.309	30.89
303.524	-5.97
303.738	59.56
303.952	-40.79
304.166	-79.7
304.381	-53.08
304.595	94.38
304.809	-10.07
305.023	22.7
305.237	32.94
305.452	-8.02
305.666	157.86
305.88	147.62
306.094	63.66
306.308	4.27
306.522	71.85
306.736	94.38
306.95	55.47
307.164	37.03
307.379	30.89
307.593	63.66
307.807	65.71
308.021	63.66
308.235	77.99
308.449	16.55
308.663	-5.97
308.877	211.11
309.091	18.6
309.305	43.18
309.519	2.22
309.733	104.62
309.947	-106.32
310.161	100.52
310.374	59.56
310.588	161.96
310.802	-1.88
311.016	22.7
311.23	86.19
311.444	-34.64
311.658	-10.07
311.872	-3.93
312.085	51.37
312.299	121
312.513	116.9
312.727	-24.4
312.941	30.89
313.154	61.61
313.368	12.46
313.582	59.56
313.796	65.71
314.009	43.18
314.223	30.89
314.437	24.75
314.651	24.75
314.864	-18.26
315.078	4.27
315.292	-34.64
315.505	55.47
315.719	6.31
315.933	53.42
316.146	65.71
316.36	24.75
316.573	71.85
316.787	127.14
317.001	96.43
317.214	71.85
317.428	-18.26
317.641	-28.5
317.855	55.47
318.068	30.89
318.282	67.75
318.495	90.28
318.709	75.95
318.922	39.08
319.136	104.62
319.349	71.85
319.563	-16.21
319.776	49.32
319.99	-83.8
320.203	86.19
320.417	22.7
320.63	98.47
320.843	71.85
321.057	39.08
321.27	10.41
321.483	127.14
321.697	37.03
321.91	59.56
322.124	-5.97
322.337	0.17
322.55	16.55
322.763	34.99
322.977	63.66
323.19	43.18
323.403	-12.12
323.617	57.51
323.83	143.53
324.043	57.51
324.256	28.84
324.469	2.22
324.683	170.15
324.896	84.14
325.109	55.47
325.322	-53.08
325.535	32.94
325.748	84.14
325.962	30.89
326.175	110.76
326.388	53.42
326.601	114.86
326.814	-16.21
327.027	22.7
327.24	90.28
327.453	6.31
327.666	45.23
327.879	137.38
328.092	86.19
328.305	65.71
328.518	4.27
328.731	24.75
328.944	24.75
329.157	-5.97
329.37	16.55
329.583	151.72
329.796	69.8
330.009	-3.93
330.222	143.53
330.435	96.43
330.648	39.08
330.861	80.04
331.073	59.56
331.286	-10.07
331.499	53.42
331.712	-26.45
331.925	55.47
332.138	39.08
332.35	90.28
332.563	18.6
332.776	84.14
332.989	-42.84
333.202	61.61
333.414	43.18
333.627	39.08
333.84	12.46
334.053	0.17
334.265	26.79
334.478	61.61
334.691	61.61
334.903	41.13
335.116	-12.12
335.329	10.41
335.541	20.65
335.754	114.86
335.966	6.31
336.179	63.66
336.392	0.17
336.604	12.46
336.817	22.7
337.029	8.36
337.242	4.27
337.454	123.05
337.667	10.41
337.88	98.47
338.092	4.27
338.305	32.94
338.517	106.67
338.729	90.28
338.942	75.95
339.154	-18.26
339.367	67.75
339.579	141.48
339.792	-46.93
340.004	82.09
340.217	51.37
340.429	55.47
340.641	-55.12
340.854	71.85
341.066	14.51
341.278	106.67
341.491	90.28
341.703	63.66
341.915	-42.84
342.128	125.1
342.34	112.81
342.552	65.71
342.764	69.8
342.977	90.28
343.189	34.99
343.401	-12.12
343.613	12.46
343.826	63.66
344.038	-59.22
344.25	57.51
344.462	32.94
344.674	71.85
344.886	77.99
345.099	123.05
345.311	125.1
345.523	-10.07
345.735	16.55
345.947	77.99
346.159	55.47
346.371	71.85
346.583	22.7
346.795	110.76
347.007	30.89
347.219	137.38
347.431	28.84
347.643	75.95
347.855	28.84
348.067	108.71
348.279	43.18
348.491	39.08
348.703	24.75
348.915	96.43
349.127	22.7
349.339	18.6
349.551	37.03
349.763	65.71
349.975	61.61
350.187	139.43
350.399	47.27
350.61	49.32
350.822	-14.17
351.034	45.23
351.246	12.46
351.458	4.27
351.669	73.9
351.881	32.94
352.093	123.05
352.305	121
352.517	110.76
352.728	100.52
352.94	43.18
353.152	0.17
353.363	-73.56
353.575	80.04
353.787	100.52
353.999	80.04
354.21	75.95
354.422	104.62
354.633	37.03
354.845	94.38
355.057	55.47
355.268	80.04
355.48	141.48
355.692	8.36
355.903	63.66
356.115	39.08
356.326	34.99
356.538	98.47
356.749	63.66
356.961	96.43
357.172	-36.69
357.384	39.08
357.595	161.96
357.807	-30.55
358.018	41.13
358.23	80.04
358.441	147.62
358.653	116.9
358.864	61.61
359.075	24.75
359.287	28.84
359.498	80.04
359.709	53.42
359.921	-42.84
360.132	39.08
360.344	121
360.555	20.65
360.766	28.84
360.977	102.57
361.189	49.32
361.4	39.08
361.611	39.08
361.823	112.81
362.034	39.08
362.245	-28.5
362.456	6.31
362.667	67.75
362.879	6.31
363.09	75.95
363.301	63.66
363.512	67.75
363.723	69.8
363.935	100.52
364.146	94.38
364.357	41.13
364.568	84.14
364.779	-22.36
364.99	123.05
365.201	106.67
365.412	67.75
365.623	34.99
365.834	73.9
366.045	67.75
366.256	63.66
366.467	110.76
366.678	82.09
366.889	55.47
367.1	43.18
367.311	92.33
367.522	26.79
367.733	75.95
367.944	59.56
368.155	75.95
368.366	28.84
368.577	77.99
368.788	121
368.999	8.36
369.209	59.56
369.42	198.82
369.631	178.34
369.842	94.38
370.053	30.89
370.264	49.32
370.474	57.51
370.685	86.19
370.896	-1.88
371.107	131.24
371.317	65.71
371.528	12.46
371.739	137.38
371.95	67.75
372.16	39.08
372.371	22.7
372.582	22.7
372.792	94.38
373.003	24.75
373.214	96.43
373.424	55.47
373.635	6.31
373.846	116.9
374.056	8.36
374.267	112.81
374.477	121
374.688	65.71
374.898	77.99
375.109	34.99
375.319	55.47
375.53	51.37
375.74	61.61
375.951	57.51
376.161	67.75
376.372	22.7
376.582	22.7
376.793	90.28
377.003	-59.22
377.214	65.71
377.424	88.23
377.635	106.67
377.845	61.61
378.055	84.14
378.266	51.37
378.476	65.71
378.686	34.99
378.897	28.84
379.107	71.85
379.317	127.14
379.528	86.19
379.738	86.19
379.948	39.08
380.158	57.51
380.369	51.37
380.579	96.43
380.789	59.56
380.999	71.85
381.21	106.67
381.42	108.71
381.63	55.47
381.84	49.32
382.05	112.81
382.261	77.99
382.471	139.43
382.681	-5.97
382.891	41.13
383.101	86.19
383.311	49.32
383.521	16.55
383.731	67.75
383.941	88.23
384.151	30.89
384.361	65.71
384.571	51.37
384.781	92.33
384.991	100.52
385.201	92.33
385.411	77.99
385.621	32.94
385.831	63.66
386.041	90.28
386.251	-24.4
386.461	18.6
386.671	41.13
386.881	147.62
387.091	57.51
387.301	114.86
387.511	16.55
387.72	49.32
387.93	53.42
388.14	-24.4
388.35	6.31
388.56	2.22
388.769	67.75
388.979	71.85
389.189	41.13
389.399	24.75
389.609	121
389.818	63.66
390.028	39.08
390.238	61.61
390.447	88.23
390.657	71.85
390.867	65.71
391.076	-20.31
391.286	34.99
391.496	71.85
391.705	55.47
391.915	59.56
392.125	69.8
392.334	75.95
392.544	174.25
392.753	75.95
392.963	88.23
393.172	75.95
393.382	88.23
393.591	172.2
393.801	61.61
394.01	82.09
394.22	100.52
394.429	55.47
394.639	65.71
394.848	100.52
395.058	24.75
395.267	100.52
395.477	139.43
395.686	75.95
395.895	164.01
396.105	102.57
396.314	104.62
396.524	178.34
396.733	104.62
396.942	106.67
397.152	53.42
397.361	161.96
397.57	47.27
397.78	2.22
397.989	170.15
398.198	256.17
398.407	96.43
398.617	149.67
398.826	88.23
399.035	69.8
399.244	123.05
399.453	110.76
399.663	155.82
399.872	116.9
400.081	90.28
400.29	151.72
400.499	71.85
400.708	231.59
400.917	141.48
401.127	176.3
401.336	90.28
401.545	178.34
401.754	121
401.963	245.93
402.172	71.85
402.381	108.71
402.59	190.63
402.799	129.19
403.008	204.97
403.217	110.76
403.426	139.43
403.635	39.08
403.844	164.01
404.053	155.82
404.262	104.62
404.471	211.11
404.68	137.38
404.888	133.29
405.097	161.96
405.306	118.95
405.515	127.14
405.724	155.82
405.933	155.82
406.142	118.95
406.35	196.78
406.559	155.82
406.768	213.16
406.977	284.84
407.185	168.1
407.394	252.07
407.603	131.24
407.812	213.16
408.02	204.97
408.229	219.3
408.438	233.64
408.646	229.54
408.855	235.69
409.064	338.09
409.272	288.93
409.481	338.09
409.69	262.31
409.898	293.03
410.107	274.6
410.315	317.61
410.524	327.85
410.733	278.69
410.941	436.39
411.15	368.81
411.358	430.24
411.567	485.54
411.775	415.91
411.984	501.92
412.192	471.2
412.401	395.43
412.609	450.72
412.818	579.75
413.026	483.49
413.234	536.74
413.443	630.95
413.651	534.69
413.86	600.23
414.068	649.38
414.276	678.05
414.485	637.09
414.693	710.82
414.901	704.67
415.11	704.67
415.318	647.33
415.526	729.25
415.734	794.78
415.943	870.56
416.151	796.83
416.359	839.84
416.567	876.7
416.776	897.18
416.984	997.53
417.192	1054.87
417.4	932
417.608	1009.82
417.817	1058.97
418.025	1185.94
418.233	1271.96
418.441	1112.22
418.649	1226.9
418.857	1276.06
419.065	1368.21
419.273	1271.96
419.481	1415.32
419.689	1632.4
419.897	1599.63
420.105	1585.3
420.313	1622.16
420.521	1738.9
420.729	1667.22
420.937	1810.58
421.145	1816.72
421.353	1955.98
421.561	2015.37
421.769	2087.05
421.977	2154.63
422.185	2048.14
422.393	2349.19
422.601	2472.07
422.809	2377.86
423.017	2353.29
423.224	2498.69
423.432	2597
423.64	2504.84
423.848	2828.42
424.056	2816.13
424.263	3111.04
424.471	3039.36
424.679	3045.5
424.887	3211.39
425.094	3303.54
425.302	3246.2
425.51	3436.66
425.718	3481.72
425.925	3627.12
426.133	3645.56
426.341	4008.05
426.548	4124.78
426.756	4135.02
426.964	4233.32
427.171	4409.45
427.379	4489.32
427.586	4489.32
427.794	4659.3
428.001	4974.69
428.209	5027.93
428.417	5044.32
428.624	5455.96
428.832	5611.61
429.039	5386.33
429.247	5615.7
429.454	5941.33
429.662	6453.32
429.869	6062.16
430.076	6348.87
430.284	6213.71
430.491	6559.81
430.699	6871.11
430.906	6840.39
431.114	6924.35
431.321	7237.69
431.528	7389.24
431.736	7755.83
431.943	8159.28
432.15	7780.4
432.358	7870.51
432.565	8489
432.772	8222.77
432.979	8804.39
433.187	8876.07
433.394	9029.66
433.601	9609.24
433.808	9779.22
434.016	9572.38
434.223	10328.08
434.43	10485.77
434.637	10278.93
434.844	11008
435.052	11032.58
435.259	11126.78
435.466	11446.27
435.673	11171.84
435.88	11915.25
436.087	12773.35
436.294	12613.61
436.501	12447.72
436.708	12586.99
436.915	12986.34
437.122	13717.47
437.329	13484
437.537	13832.15
437.743	14309.33
437.95	14182.35
438.157	14813.13
438.364	15278.02
438.571	15259.59
438.778	15202.24
438.985	16813.99
439.192	16183.22
439.399	16783.27
439.606	16295.86
439.813	16906.15
440.02	18519.95
440.227	17967
440.433	17708.96
440.64	18399.12
440.847	18231.19
441.054	18790.28
441.261	20121.46
441.467	19701.63
441.674	20100.98
441.881	20914.03
442.088	20821.87
442.294	20588.4
442.501	21260.13
442.708	21645.15
442.914	22583.12
443.121	23422.79
443.328	23123.79
443.534	24375.09
443.741	23592.77
443.948	23158.6
444.154	25327.4
444.361	24923.95
444.568	25124.65
444.774	25198.38
444.981	25046.83
445.187	26222.36
445.394	27162.38
445.6	27070.22
445.807	29828.84
446.013	28110.59
446.22	29095.66
446.426	29955.81
446.633	29939.43
446.839	31131.34
447.046	30117.6
447.252	31350.48
447.459	31686.34
447.665	31540.94
447.871	32978.61
448.078	34391.71
448.284	33214.13
448.491	33676.97
448.697	35073.68
448.903	35761.8
449.11	35798.66
449.316	35223.19
449.522	35849.86
449.728	36701.82
449.935	36759.16
450.141	36939.38
450.347	38076.01
450.553	36779.64
450.76	37500.53
450.966	38385.25
451.172	38037.09
451.378	39489.1
451.584	38133.35
451.791	39118.42
451.997	39290.45
452.203	39990.86
452.409	39616.08
452.615	39880.27
452.821	38092.39
453.027	37955.18
453.233	39847.5
453.44	38325.86
453.646	38925.91
453.852	39159.38
454.058	39675.47
454.264	38323.81
454.47	39253.59
454.676	38366.82
454.882	39654.99
455.088	36214.4
455.294	37029.49
455.5	37271.15
455.705	37977.7
455.911	36114.05
456.117	35737.23
456.323	35462.8
456.529	33554.09
456.735	34727.58
456.941	33967.78
457.147	33496.75
457.352	32417.47
457.558	32265.92
457.764	32175.81
457.97	31465.16
458.176	30891.73
458.381	30865.11
458.587	29300.46
458.793	29191.92
458.999	28014.34
459.204	30033.63
459.41	28911.35
459.616	26988.3
459.821	27248.39
460.027	27039.5
460.233	26357.53
460.438	25141.04
460.644	25311.02
460.85	24241.98
461.055	23770.94
461.261	24092.48
461.466	22619.99
461.672	21593.95
461.878	22880.08
462.083	21684.06
462.289	21200.74
462.494	20811.63
462.7	19855.23
462.905	19251.08
463.111	20014.97
463.316	19812.22
463.522	19658.62
463.727	19857.28
463.932	19752.83
464.138	19638.14
464.343	19543.94
464.549	19027.85
464.754	19666.81
464.959	19519.36
465.165	19259.27
465.37	18487.18
465.575	17745.82
465.781	18700.17
465.986	18907.02
466.191	18038.68
466.397	17487.78
466.602	16932.78
466.807	17817.5
467.012	17684.38
