Data from USB4F104151__80__10-44-20-869.txt Node

Date: Wed Feb 26 10:44:20 EST 2025
User: louis
Spectrometer: USB4F10415
Trigger mode: 4
Integration Time (sec): 1.000000E-1
Scans to average: 1
Electric dark correction enabled: true
Nonlinearity correction enabled: false
Boxcar width: 0
XAxis mode: Wavelengths
Number of Pixels in Spectrum: 3648
>>>>>Begin Spectral Data<<<<<
178.204	-364.54
178.424	-364.54
178.644	-364.54
178.864	-413.69
179.084	-425.98
179.304	-24.58
179.524	8.19
179.744	4.1
179.964	-12.29
180.184	81.92
180.404	43.01
180.624	6.14
180.844	-32.77
181.064	-71.68
181.283	-20.48
181.503	-40.96
181.723	59.39
181.943	-131.07
182.163	206.84
182.383	-83.97
182.602	36.86
182.822	135.17
183.042	-0
183.262	45.06
183.482	-20.48
183.701	65.53
183.921	30.72
184.141	-38.91
184.361	61.44
184.58	10.24
184.8	83.97
185.02	8.19
185.239	147.45
185.459	104.45
185.679	102.4
185.898	-157.69
186.118	86.01
186.338	100.35
186.557	200.7
186.777	-26.62
186.997	81.92
187.216	-24.58
187.436	151.55
187.655	79.87
187.875	124.93
188.095	63.49
188.314	133.12
188.534	204.8
188.753	-47.1
188.973	133.12
189.192	143.36
189.412	92.16
189.631	96.25
189.851	18.43
190.07	186.37
190.29	-90.11
190.509	110.59
190.729	40.96
190.948	190.46
191.168	237.56
191.387	106.49
191.607	24.58
191.826	53.25
192.045	38.91
192.265	14.34
192.484	94.21
192.704	73.73
192.923	-90.11
193.142	176.13
193.362	88.06
193.581	161.79
193.8	53.25
194.02	108.54
194.239	34.82
194.458	149.5
194.678	69.63
194.897	38.91
195.116	92.16
195.335	92.16
195.555	73.73
195.774	-22.53
195.993	198.65
196.212	102.4
196.432	51.2
196.651	-34.82
196.87	-2.05
197.089	327.67
197.308	75.77
197.528	102.4
197.747	-20.48
197.966	106.49
198.185	139.26
198.404	36.86
198.623	79.87
198.842	98.3
199.062	112.64
199.281	182.27
199.5	28.67
199.719	200.7
199.938	36.86
200.157	81.92
200.376	104.45
200.595	192.51
200.814	45.06
201.033	6.14
201.252	196.6
201.471	38.91
201.69	53.25
201.909	20.48
202.128	180.22
202.347	-26.62
202.566	124.93
202.785	-94.21
203.004	-65.54
203.223	292.86
203.442	90.11
203.661	-61.44
203.879	71.68
204.098	149.5
204.317	-18.43
204.536	69.63
204.755	90.11
204.974	61.44
205.193	34.82
205.411	114.69
205.63	86.01
205.849	122.88
206.068	49.15
206.287	4.1
206.505	114.69
206.724	32.77
206.943	-34.82
207.162	-2.05
207.381	59.39
207.599	40.96
207.818	-10.24
208.037	12.29
208.255	38.91
208.474	110.59
208.693	71.68
208.911	53.25
209.13	28.67
209.349	165.89
209.567	32.77
209.786	102.4
210.005	151.55
210.223	69.63
210.442	-86.01
210.661	45.06
210.879	110.59
211.098	92.16
211.316	71.68
211.535	75.77
211.753	32.77
211.972	43.01
212.191	38.91
212.409	26.62
212.628	137.21
212.846	4.1
213.065	98.3
213.283	151.55
213.502	83.97
213.72	61.44
213.938	8.19
214.157	55.3
214.375	124.93
214.594	28.67
214.812	102.4
215.031	43.01
215.249	18.43
215.467	45.06
215.686	77.82
215.904	106.49
216.122	122.88
216.341	139.26
216.559	79.87
216.778	98.3
216.996	133.12
217.214	-75.77
217.432	-32.77
217.651	16.38
217.869	63.49
218.087	30.72
218.306	10.24
218.524	110.59
218.742	94.21
218.96	53.25
219.179	-63.49
219.397	43.01
219.615	227.32
219.833	92.16
220.051	10.24
220.27	167.93
220.488	174.08
220.706	49.15
220.924	-10.24
221.142	-4.1
221.36	57.34
221.578	77.82
221.796	73.73
222.015	28.67
222.233	-100.35
222.451	151.55
222.669	24.58
222.887	126.97
223.105	65.53
223.323	16.38
223.541	-67.58
223.759	75.77
223.977	-8.19
224.195	182.27
224.413	75.77
224.631	40.96
224.849	137.21
225.067	231.42
225.285	-40.96
225.503	-12.29
225.721	-45.06
225.939	4.1
226.157	71.68
226.375	237.56
226.592	-30.72
226.81	36.86
227.028	151.55
227.246	86.01
227.464	147.45
227.682	106.49
227.9	86.01
228.117	77.82
228.335	55.3
228.553	-26.62
228.771	53.25
228.989	88.06
229.206	59.39
229.424	20.48
229.642	-12.29
229.86	-69.63
230.077	57.34
230.295	32.77
230.513	174.08
230.731	86.01
230.948	184.32
231.166	206.84
231.384	28.67
231.601	24.58
231.819	165.89
232.037	57.34
232.254	-6.14
232.472	36.86
232.689	-18.43
232.907	98.3
233.125	-49.15
233.342	40.96
233.56	69.63
233.777	57.34
233.995	65.53
234.213	198.65
234.43	83.97
234.648	135.17
234.865	53.25
235.083	67.58
235.3	-4.1
235.518	67.58
235.735	73.73
235.953	88.06
236.17	45.06
236.388	124.93
236.605	94.21
236.822	133.12
237.04	104.45
237.257	73.73
237.475	-45.06
237.692	73.73
237.909	147.45
238.127	-18.43
238.344	126.97
238.562	65.53
238.779	-100.35
238.996	-10.24
239.214	45.06
239.431	59.39
239.648	51.2
239.865	65.53
240.083	8.19
240.3	-2.05
240.517	4.1
240.735	43.01
240.952	143.36
241.169	106.49
241.386	161.79
241.603	34.82
241.821	-30.72
242.038	16.38
242.255	143.36
242.472	-73.73
242.689	149.5
242.907	34.82
243.124	69.63
243.341	8.19
243.558	98.3
243.775	-18.43
243.992	-120.83
244.209	129.02
244.426	227.32
244.643	129.02
244.86	49.15
245.078	112.64
245.295	79.87
245.512	40.96
245.729	-6.14
245.946	145.41
246.163	-36.86
246.38	-16.38
246.597	110.59
246.814	55.3
247.031	118.78
247.248	71.68
247.464	92.16
247.681	102.4
247.898	135.17
248.115	118.78
248.332	-10.24
248.549	139.26
248.766	163.84
248.983	155.65
249.2	24.58
249.417	55.3
249.633	4.1
249.85	90.11
250.067	98.3
250.284	94.21
250.501	61.44
250.717	59.39
250.934	4.1
251.151	51.2
251.368	-16.38
251.585	71.68
251.801	145.41
252.018	-8.19
252.235	159.74
252.451	-65.54
252.668	-16.38
252.885	30.72
253.102	59.39
253.318	-14.34
253.535	57.34
253.752	26.62
253.968	83.97
254.185	-77.82
254.401	133.12
254.618	14.34
254.835	-4.1
255.051	114.69
255.268	149.5
255.484	12.29
255.701	57.34
255.917	108.54
256.134	24.58
256.351	45.06
256.567	-6.14
256.784	94.21
257	-57.34
257.217	157.69
257.433	139.26
257.65	22.53
257.866	108.54
258.082	67.58
258.299	-34.82
258.515	16.38
258.732	4.1
258.948	-53.25
259.165	73.73
259.381	20.48
259.597	79.87
259.814	45.06
260.03	-2.05
260.246	43.01
260.463	143.36
260.679	200.7
260.895	73.73
261.112	57.34
261.328	61.44
261.544	38.91
261.761	184.32
261.977	2.05
262.193	-2.05
262.409	126.97
262.626	26.62
262.842	-79.87
263.058	-24.58
263.274	63.49
263.49	61.44
263.707	69.63
263.923	69.63
264.139	-28.67
264.355	28.67
264.571	102.4
264.787	65.53
265.004	98.3
265.22	83.97
265.436	-55.3
265.652	43.01
265.868	118.78
266.084	-20.48
266.3	143.36
266.516	-30.72
266.732	28.67
266.948	59.39
267.164	59.39
267.38	180.22
267.596	36.86
267.812	180.22
268.028	24.58
268.244	61.44
268.46	45.06
268.676	-8.19
268.892	157.69
269.108	20.48
269.324	-59.39
269.54	-10.24
269.756	114.69
269.972	-96.25
270.188	77.82
270.403	-24.58
270.619	96.25
270.835	47.1
271.051	51.2
271.267	-55.3
271.483	45.06
271.698	92.16
271.914	104.45
272.13	86.01
272.346	20.48
272.562	69.63
272.777	120.83
272.993	16.38
273.209	-12.29
273.425	102.4
273.64	-106.49
273.856	79.87
274.072	-102.4
274.287	-53.25
274.503	124.93
274.719	18.43
274.934	28.67
275.15	-26.62
275.366	34.82
275.581	-0
275.797	-8.19
276.012	75.77
276.228	-51.2
276.444	-2.05
276.659	118.78
276.875	20.48
277.09	18.43
277.306	-14.34
277.521	161.79
277.737	65.53
277.952	77.82
278.168	104.45
278.383	90.11
278.599	106.49
278.814	163.84
279.03	28.67
279.245	92.16
279.461	55.3
279.676	61.44
279.892	-36.86
280.107	67.58
280.322	-4.1
280.538	36.86
280.753	-57.34
280.969	38.91
281.184	69.63
281.399	247.8
281.615	22.53
281.83	34.82
282.045	-73.73
282.26	-4.1
282.476	-6.14
282.691	116.73
282.906	108.54
283.122	-24.58
283.337	-0
283.552	81.92
283.767	20.48
283.983	163.84
284.198	59.39
284.413	100.35
284.628	-73.73
284.843	47.1
285.058	98.3
285.274	-16.38
285.489	-22.53
285.704	69.63
285.919	8.19
286.134	22.53
286.349	-28.67
286.564	-14.34
286.779	233.47
286.995	26.62
287.21	-32.77
287.425	122.88
287.64	32.77
287.855	79.87
288.07	-124.93
288.285	176.13
288.5	96.25
288.715	71.68
288.93	79.87
289.145	30.72
289.36	120.83
289.575	65.53
289.79	106.49
290.004	90.11
290.219	159.74
290.434	43.01
290.649	47.1
290.864	6.14
291.079	112.64
291.294	110.59
291.509	71.68
291.724	16.38
291.938	-34.82
292.153	77.82
292.368	-24.58
292.583	155.65
292.798	133.12
293.012	77.82
293.227	77.82
293.442	14.34
293.657	81.92
293.871	129.02
294.086	69.63
294.301	198.65
294.516	147.45
294.73	45.06
294.945	6.14
295.16	36.86
295.374	198.65
295.589	143.36
295.804	14.34
296.018	38.91
296.233	192.51
296.447	-2.05
296.662	10.24
296.877	145.41
297.091	61.44
297.306	-32.77
297.52	-6.14
297.735	75.77
297.949	71.68
298.164	75.77
298.378	83.97
298.593	-6.14
298.807	-22.53
299.022	57.34
299.236	131.07
299.451	22.53
299.665	40.96
299.88	94.21
300.094	55.3
300.309	71.68
300.523	129.02
300.737	8.19
300.952	65.53
301.166	28.67
301.381	-0
301.595	12.29
301.809	16.38
302.024	-0
302.238	30.72
302.452	155.65
302.667	38.91
302.881	180.22
303.095	75.77
303.309	118.78
303.524	2.05
303.738	-24.58
303.952	32.77
304.166	28.67
304.381	-100.35
304.595	172.03
304.809	30.72
305.023	120.83
305.237	20.48
305.452	34.82
305.666	26.62
305.88	83.97
306.094	126.97
306.308	133.12
306.522	104.45
306.736	26.62
306.95	126.97
307.164	69.63
307.379	59.39
307.593	36.86
307.807	155.65
308.021	81.92
308.235	73.73
308.449	59.39
308.663	79.87
308.877	270.33
309.091	75.77
309.305	38.91
309.519	-145.41
309.733	110.59
309.947	-59.39
310.161	102.4
310.374	36.86
310.588	176.13
310.802	-51.2
311.016	24.58
311.23	38.91
311.444	-6.14
311.658	65.53
311.872	155.65
312.085	75.77
312.299	141.31
312.513	251.9
312.727	92.16
312.941	45.06
313.154	32.77
313.368	90.11
313.582	77.82
313.796	98.3
314.009	-2.05
314.223	135.17
314.437	69.63
314.651	114.69
314.864	18.43
315.078	-0
315.292	-75.77
315.505	38.91
315.719	-8.19
315.933	45.06
316.146	96.25
316.36	26.62
316.573	212.99
316.787	120.83
317.001	71.68
317.214	63.49
317.428	73.73
317.641	-22.53
317.855	94.21
318.068	73.73
318.282	98.3
318.495	129.02
318.709	88.06
318.922	16.38
319.136	151.55
319.349	63.49
319.563	-47.1
319.776	145.41
319.99	26.62
320.203	73.73
320.417	86.01
320.63	59.39
320.843	202.75
321.057	157.69
321.27	73.73
321.483	174.08
321.697	124.93
321.91	40.96
322.124	32.77
322.337	118.78
322.55	-47.1
322.763	67.58
322.977	-38.91
323.19	-0
323.403	16.38
323.617	161.79
323.83	67.58
324.043	75.77
324.256	53.25
324.469	55.3
324.683	114.69
324.896	38.91
325.109	79.87
325.322	-96.25
325.535	104.45
325.748	102.4
325.962	40.96
326.175	26.62
326.388	145.41
326.601	161.79
326.814	-2.05
327.027	73.73
327.24	194.56
327.453	-20.48
327.666	75.77
327.879	116.73
328.092	131.07
328.305	73.73
328.518	73.73
328.731	-2.05
328.944	49.15
329.157	24.58
329.37	81.92
329.583	149.5
329.796	200.7
330.009	61.44
330.222	59.39
330.435	135.17
330.648	45.06
330.861	10.24
331.073	69.63
331.286	163.84
331.499	40.96
331.712	-8.19
331.925	36.86
332.138	83.97
332.35	141.31
332.563	-79.87
332.776	88.06
332.989	6.14
333.202	32.77
333.414	16.38
333.627	24.58
333.84	22.53
334.053	92.16
334.265	-28.67
334.478	-51.2
334.691	51.2
334.903	45.06
335.116	-36.86
335.329	20.48
335.541	92.16
335.754	172.03
335.966	22.53
336.179	47.1
336.392	43.01
336.604	77.82
336.817	165.89
337.029	40.96
337.242	20.48
337.454	83.97
337.667	24.58
337.88	118.78
338.092	65.53
338.305	73.73
338.517	71.68
338.729	110.59
338.942	147.45
339.154	-2.05
339.367	47.1
339.579	114.69
339.792	45.06
340.004	36.86
340.217	63.49
340.429	61.44
340.641	-71.68
340.854	45.06
341.066	-22.53
341.278	167.93
341.491	210.94
341.703	-4.1
341.915	-12.29
342.128	88.06
342.34	92.16
342.552	65.53
342.764	16.38
342.977	-26.62
343.189	102.4
343.401	2.05
343.613	-90.11
343.826	79.87
344.038	-43.01
344.25	122.88
344.462	24.58
344.674	94.21
344.886	16.38
345.099	96.25
345.311	63.49
345.523	45.06
345.735	-16.38
345.947	77.82
346.159	137.21
346.371	71.68
346.583	45.06
346.795	194.56
347.007	-26.62
347.219	143.36
347.431	-38.91
347.643	151.55
347.855	112.64
348.067	184.32
348.279	-49.15
348.491	61.44
348.703	98.3
348.915	94.21
349.127	-26.62
349.339	114.69
349.551	43.01
349.763	83.97
349.975	34.82
350.187	92.16
350.399	188.41
350.61	40.96
350.822	71.68
351.034	24.58
351.246	2.05
351.458	34.82
351.669	143.36
351.881	83.97
352.093	180.22
352.305	141.31
352.517	28.67
352.728	147.45
352.94	40.96
353.152	102.4
353.363	-8.19
353.575	43.01
353.787	204.8
353.999	57.34
354.21	169.98
354.422	18.43
354.633	2.05
354.845	69.63
355.057	51.2
355.268	36.86
355.48	106.49
355.692	36.86
355.903	126.97
356.115	32.77
356.326	-94.21
356.538	88.06
356.749	67.58
356.961	217.08
357.172	79.87
357.384	-38.91
357.595	176.13
357.807	20.48
358.018	-16.38
358.23	77.82
358.441	116.73
358.653	169.98
358.864	73.73
359.075	16.38
359.287	51.2
359.498	143.36
359.709	47.1
359.921	20.48
360.132	104.45
360.344	59.39
360.555	-2.05
360.766	38.91
360.977	26.62
361.189	174.08
361.4	86.01
361.611	141.31
361.823	174.08
362.034	108.54
362.245	-110.59
362.456	104.45
362.667	86.01
362.879	-55.3
363.09	18.43
363.301	118.78
363.512	61.44
363.723	-79.87
363.935	-43.01
364.146	200.7
364.357	-45.06
364.568	22.53
364.779	59.39
364.99	116.73
365.201	-28.67
365.412	161.79
365.623	-53.25
365.834	36.86
366.045	12.29
366.256	176.13
366.467	49.15
366.678	28.67
366.889	43.01
367.1	-12.29
367.311	149.5
367.522	102.4
367.733	153.6
367.944	110.59
368.155	-16.38
368.366	116.73
368.577	172.03
368.788	53.25
368.999	12.29
369.209	108.54
369.42	266.24
369.631	188.41
369.842	124.93
370.053	67.58
370.264	118.78
370.474	-16.38
370.685	110.59
370.896	45.06
371.107	147.45
371.317	45.06
371.528	-18.43
371.739	96.25
371.95	106.49
372.16	75.77
372.371	28.67
372.582	18.43
372.792	90.11
373.003	45.06
373.214	86.01
373.424	102.4
373.635	-26.62
373.846	167.93
374.056	40.96
374.267	104.45
374.477	131.07
374.688	4.1
374.898	57.34
375.109	73.73
375.319	20.48
375.53	86.01
375.74	55.3
375.951	67.58
376.161	94.21
376.372	161.79
376.582	43.01
376.793	126.97
377.003	-14.34
377.214	-22.53
377.424	81.92
377.635	47.1
377.845	-18.43
378.055	100.35
378.266	18.43
378.476	102.4
378.686	81.92
378.897	98.3
379.107	98.3
379.317	110.59
379.528	40.96
379.738	155.65
379.948	49.15
380.158	147.45
380.369	69.63
380.579	43.01
380.789	-18.43
380.999	145.41
381.21	182.27
381.42	178.17
381.63	65.53
381.84	206.84
382.05	61.44
382.261	157.69
382.471	90.11
382.681	2.05
382.891	219.13
383.101	114.69
383.311	-8.19
383.521	-40.96
383.731	102.4
383.941	157.69
384.151	57.34
384.361	12.29
384.571	94.21
384.781	75.77
384.991	172.03
385.201	182.27
385.411	26.62
385.621	22.53
385.831	20.48
386.041	81.92
386.251	59.39
386.461	159.74
386.671	30.72
386.881	30.72
387.091	53.25
387.301	81.92
387.511	47.1
387.72	73.73
387.93	133.12
388.14	-104.45
388.35	63.49
388.56	159.74
388.769	67.58
388.979	-14.34
389.189	-8.19
389.399	36.86
389.609	165.89
389.818	104.45
390.028	102.4
390.238	88.06
390.447	2.05
390.657	110.59
390.867	-6.14
391.076	-6.14
391.286	122.88
391.496	40.96
391.705	112.64
391.915	98.3
392.125	112.64
392.334	49.15
392.544	145.41
392.753	102.4
392.963	26.62
393.172	8.19
393.382	53.25
393.591	167.93
393.801	24.58
394.01	65.53
394.22	88.06
394.429	18.43
394.639	26.62
394.848	10.24
395.058	38.91
395.267	14.34
395.477	18.43
395.686	118.78
395.895	106.49
396.105	196.6
396.314	94.21
396.524	51.2
396.733	61.44
396.942	83.97
397.152	102.4
397.361	114.69
397.57	55.3
397.78	16.38
397.989	61.44
398.198	286.72
398.407	81.92
398.617	30.72
398.826	30.72
399.035	104.45
399.244	88.06
399.453	57.34
399.663	2.05
399.872	96.25
400.081	6.14
400.29	178.17
400.499	-20.48
400.708	129.02
400.917	26.62
401.127	71.68
401.336	28.67
401.545	165.89
401.754	112.64
401.963	114.69
402.172	28.67
402.381	-20.48
402.59	83.97
402.799	57.34
403.008	118.78
403.217	102.4
403.426	110.59
403.635	14.34
403.844	10.24
404.053	47.1
404.262	65.53
404.471	139.26
404.68	18.43
404.888	45.06
405.097	126.97
405.306	63.49
405.515	108.54
405.724	96.25
405.933	139.26
406.142	135.17
406.35	157.69
406.559	110.59
406.768	98.3
406.977	169.98
407.185	67.58
407.394	88.06
407.603	-20.48
407.812	92.16
408.02	120.83
408.229	57.34
408.438	73.73
408.646	-18.43
408.855	71.68
409.064	157.69
409.272	49.15
409.481	79.87
409.69	55.3
409.898	12.29
410.107	120.83
410.315	118.78
410.524	75.77
410.733	63.49
410.941	22.53
411.15	73.73
411.358	75.77
411.567	141.31
411.775	67.58
411.984	8.19
412.192	122.88
412.401	-4.1
412.609	165.89
412.818	129.02
413.026	69.63
413.234	-12.29
413.443	71.68
413.651	71.68
413.86	55.3
414.068	174.08
414.276	188.41
414.485	4.1
414.693	210.94
414.901	217.08
415.11	167.93
415.318	63.49
415.526	34.82
415.734	114.69
415.943	79.87
416.151	83.97
416.359	118.78
416.567	77.82
416.776	157.69
416.984	81.92
417.192	190.46
417.4	65.53
417.608	-14.34
417.817	-63.49
418.025	131.07
418.233	169.98
418.441	-12.29
418.649	2.05
418.857	147.45
419.065	100.35
419.273	-6.14
419.481	110.59
419.689	-4.1
419.897	55.3
420.105	34.82
420.313	102.4
420.521	145.41
420.729	174.08
420.937	-12.29
421.145	45.06
421.353	110.59
421.561	141.31
421.769	124.93
421.977	22.53
422.185	114.69
422.393	4.1
422.601	120.83
422.809	116.73
423.017	96.25
423.224	165.89
423.432	145.41
423.64	96.25
423.848	145.41
424.056	-40.96
424.263	186.37
424.471	112.64
424.679	147.45
424.887	55.3
425.094	186.37
425.302	81.92
425.51	32.77
425.718	94.21
425.925	63.49
426.133	45.06
426.341	204.8
426.548	98.3
426.756	51.2
426.964	157.69
427.171	28.67
427.379	155.65
427.586	43.01
427.794	108.54
428.001	172.03
428.209	151.55
428.417	153.6
428.624	116.73
428.832	135.17
429.039	102.4
429.247	110.59
429.454	137.21
429.662	231.42
429.869	116.73
430.076	172.03
430.284	135.17
430.491	204.8
430.699	110.59
430.906	212.99
431.114	116.73
431.321	65.53
431.528	106.49
431.736	145.41
431.943	169.98
432.15	139.26
432.358	219.13
432.565	260.09
432.772	86.01
432.979	210.94
433.187	79.87
433.394	96.25
433.601	131.07
433.808	239.61
434.016	231.42
434.223	178.17
434.43	176.13
434.637	278.52
434.844	235.52
435.052	276.48
435.259	327.67
435.466	362.49
435.673	196.6
435.88	258.04
436.087	335.87
436.294	212.99
436.501	268.28
436.708	208.89
436.915	280.57
437.122	360.44
437.329	225.28
437.537	305.15
437.743	253.95
437.95	417.79
438.157	280.57
438.364	354.3
438.571	280.57
438.778	462.84
438.985	333.82
439.192	483.32
439.399	360.44
439.606	454.65
439.813	479.22
440.02	548.86
440.227	614.39
440.433	563.19
440.64	540.66
440.847	440.31
441.054	518.14
441.261	555
441.467	581.62
441.674	534.52
441.881	681.97
442.088	622.58
442.294	708.6
442.501	727.03
442.708	729.08
442.914	634.87
443.121	733.17
443.328	727.03
443.534	788.47
443.741	800.76
443.948	681.97
444.154	868.34
444.361	1099.76
444.568	921.59
444.774	1073.14
444.981	827.38
445.187	1064.94
445.394	1093.62
445.6	970.74
445.807	1083.38
446.013	1148.91
446.22	1155.05
446.426	1218.54
446.633	1218.54
446.839	1415.15
447.046	1294.32
447.252	1353.71
447.459	1443.82
447.665	1492.97
447.871	1601.51
448.078	1806.31
448.284	1601.51
448.491	1763.3
448.697	1820.64
448.903	1947.62
449.11	1916.9
449.316	1875.94
449.522	2033.63
449.728	2101.22
449.935	2185.18
450.141	2154.46
450.347	2394.08
450.553	2361.31
450.76	2392.03
450.966	2445.27
451.172	2543.58
451.378	2764.76
451.584	2768.85
451.791	2893.78
451.997	2910.16
452.203	3024.85
452.409	3399.63
452.615	3416.01
452.821	3215.31
453.027	3327.95
453.233	3606.47
453.44	3723.21
453.646	3907.52
453.852	4007.87
454.058	4126.66
454.264	4431.8
454.47	4562.87
454.676	4515.77
454.882	4886.45
455.088	4908.98
455.294	5089.2
455.5	5298.1
455.705	5703.59
455.911	5724.07
456.117	5801.9
456.323	6000.55
456.529	5984.16
456.735	6608.8
456.941	6657.95
457.147	7063.44
457.352	7266.19
457.558	7440.27
457.764	7911.3
457.97	7925.64
458.176	8247.17
458.381	8656.76
458.587	8925.05
458.793	9213.81
458.999	9424.75
459.204	10463.07
459.41	10932.06
459.616	10645.34
459.821	11386.71
460.027	11853.64
460.233	12312.39
460.438	12285.76
460.644	13145.91
460.85	13266.74
461.055	13721.39
461.261	14673.7
461.466	14135.08
461.672	14458.66
461.878	16117.51
462.083	16174.86
462.289	16328.45
462.494	16930.56
462.7	17061.63
462.905	17319.67
463.111	18835.17
463.316	19965.65
463.522	20211.4
463.727	20551.37
463.932	21442.23
464.138	22093.49
464.343	22972.07
464.549	23109.28
464.754	24737.41
464.959	25679.48
465.165	25945.72
465.37	25788.02
465.575	25947.76
465.781	27596.38
465.986	28108.37
466.191	27768.41
466.397	28229.2
466.602	27532.89
466.807	28989
467.012	29490.75
467.218	30080.56
467.423	30025.27
467.628	31217.19
467.833	32556.56
468.038	31639.07
468.244	31706.65
