Data from USB4F104151__20__10-41-58-386.txt Node

Date: Wed Feb 26 10:41:58 EST 2025
User: louis
Spectrometer: USB4F10415
Trigger mode: 4
Integration Time (sec): 1.000000E-1
Scans to average: 1
Electric dark correction enabled: true
Nonlinearity correction enabled: false
Boxcar width: 0
XAxis mode: Wavelengths
Number of Pixels in Spectrum: 3648
>>>>>Begin Spectral Data<<<<<
178.204	-428.03
178.424	-428.03
178.644	-428.03
178.864	-475.13
179.084	-397.31
179.304	-4.1
179.524	-2.05
179.744	12.29
179.964	16.38
180.184	40.96
180.404	69.63
180.624	-34.82
180.844	-53.25
181.064	-61.44
181.283	30.72
181.503	-75.77
181.723	61.44
181.943	-83.97
182.163	202.75
182.383	-34.82
182.602	131.07
182.822	57.34
183.042	55.3
183.262	22.53
183.482	24.58
183.701	40.96
183.921	26.62
184.141	-81.92
184.361	26.62
184.58	22.53
184.8	24.58
185.02	-18.43
185.239	38.91
185.459	63.49
185.679	129.02
185.898	-65.54
186.118	8.19
186.338	47.1
186.557	124.93
186.777	2.05
186.997	-36.86
187.216	28.67
187.436	118.78
187.655	77.82
187.875	34.82
188.095	18.43
188.314	92.16
188.534	174.08
188.753	-51.2
188.973	137.21
189.192	245.76
189.412	2.05
189.631	61.44
189.851	57.34
190.07	149.5
190.29	-106.49
190.509	-14.34
190.729	22.53
190.948	120.83
191.168	241.66
191.387	22.53
191.607	-65.54
191.826	28.67
192.045	18.43
192.265	-77.82
192.484	67.58
192.704	2.05
192.923	-59.39
193.142	212.99
193.362	180.22
193.581	184.32
193.8	22.53
194.02	88.06
194.239	0
194.458	112.64
194.678	-22.53
194.897	65.54
195.116	51.2
195.335	83.97
195.555	63.49
195.774	55.3
195.993	36.86
196.212	129.02
196.432	-36.86
196.651	61.44
196.87	69.63
197.089	206.84
197.308	75.77
197.528	51.2
197.747	-126.97
197.966	135.17
198.185	200.7
198.404	-79.87
198.623	157.69
198.842	53.25
199.062	38.91
199.281	79.87
199.5	26.62
199.719	94.21
199.938	30.72
200.157	63.49
200.376	102.4
200.595	141.31
200.814	73.73
201.033	14.34
201.252	180.22
201.471	49.15
201.69	106.49
201.909	83.97
202.128	90.11
202.347	73.73
202.566	34.82
202.785	-75.77
203.004	57.34
203.223	337.91
203.442	-12.29
203.661	-14.34
203.879	32.77
204.098	73.73
204.317	-22.53
204.536	65.54
204.755	104.45
204.974	96.25
205.193	-79.87
205.411	161.79
205.63	163.84
205.849	51.2
206.068	26.62
206.287	30.72
206.505	182.27
206.724	0
206.943	18.43
207.162	-22.53
207.381	116.73
207.599	-43.01
207.818	61.44
208.037	38.91
208.255	2.05
208.474	120.83
208.693	12.29
208.911	-57.34
209.13	139.26
209.349	116.73
209.567	51.2
209.786	94.21
210.005	71.68
210.223	77.82
210.442	-30.72
210.661	-30.72
210.879	77.82
211.098	-4.1
211.316	126.97
211.535	102.4
211.753	61.44
211.972	102.4
212.191	2.05
212.409	-12.29
212.628	149.5
212.846	-2.05
213.065	63.49
213.283	165.89
213.502	22.53
213.72	20.48
213.938	22.53
214.157	-43.01
214.375	77.82
214.594	-10.24
214.812	73.73
215.031	-34.82
215.249	-55.3
215.467	49.15
215.686	-26.62
215.904	100.35
216.122	55.3
216.341	59.39
216.559	67.58
216.778	114.69
216.996	147.45
217.214	0
217.432	26.62
217.651	-149.5
217.869	14.34
218.087	16.38
218.306	43.01
218.524	57.34
218.742	51.2
218.96	116.73
219.179	45.06
219.397	32.77
219.615	258.04
219.833	174.08
220.051	-40.96
220.27	184.32
220.488	81.92
220.706	108.54
220.924	36.86
221.142	8.19
221.36	114.69
221.578	90.11
221.796	47.1
222.015	90.11
222.233	71.68
222.451	190.46
222.669	10.24
222.887	65.54
223.105	-12.29
223.323	47.1
223.541	30.72
223.759	22.53
223.977	65.54
224.195	133.12
224.413	118.78
224.631	45.06
224.849	36.86
225.067	202.75
225.285	38.91
225.503	4.1
225.721	-36.86
225.939	22.53
226.157	-32.77
226.375	176.13
226.592	4.1
226.81	53.25
227.028	126.97
227.246	86.01
227.464	110.59
227.682	40.96
227.9	-8.19
228.117	57.34
228.335	110.59
228.553	61.44
228.771	63.49
228.989	43.01
229.206	141.31
229.424	88.06
229.642	0
229.86	-47.1
230.077	184.32
230.295	94.21
230.513	75.77
230.731	79.87
230.948	227.32
231.166	88.06
231.384	-59.39
231.601	-47.1
231.819	110.59
232.037	2.05
232.254	-24.58
232.472	10.24
232.689	-106.49
232.907	133.12
233.125	-16.38
233.342	-61.44
233.56	14.34
233.777	22.53
233.995	-51.2
234.213	165.89
234.43	75.77
234.648	49.15
234.865	-2.05
235.083	124.93
235.3	124.93
235.518	63.49
235.735	114.69
235.953	63.49
236.17	28.67
236.388	0
236.605	45.06
236.822	92.16
237.04	165.89
237.257	118.78
237.475	-20.48
237.692	83.97
237.909	-28.67
238.127	63.49
238.344	-4.1
238.562	-2.05
238.779	-61.44
238.996	-22.53
239.214	47.1
239.431	149.5
239.648	28.67
239.865	71.68
240.083	75.77
240.3	4.1
240.517	-32.77
240.735	73.73
240.952	75.77
241.169	4.1
241.386	124.93
241.603	-40.96
241.821	-12.29
242.038	104.45
242.255	43.01
242.472	-106.49
242.689	-2.05
242.907	-26.62
243.124	92.16
243.341	34.82
243.558	69.63
243.775	-49.15
243.992	-69.63
244.209	129.02
244.426	165.89
244.643	112.64
244.86	59.39
245.078	77.82
245.295	59.39
245.512	67.58
245.729	10.24
245.946	86.01
246.163	83.97
246.38	-6.14
246.597	36.86
246.814	22.53
247.031	-16.38
247.248	24.58
247.464	40.96
247.681	73.73
247.898	96.25
248.115	-30.72
248.332	-22.53
248.549	141.31
248.766	186.37
248.983	126.97
249.2	110.59
249.417	77.82
249.633	30.72
249.85	86.01
250.067	8.19
250.284	61.44
250.501	169.98
250.717	20.48
250.934	-16.38
251.151	38.91
251.368	-45.06
251.585	81.92
251.801	73.73
252.018	-4.1
252.235	126.97
252.451	-53.25
252.668	-28.67
252.885	147.45
253.102	116.73
253.318	2.05
253.535	-59.39
253.752	-40.96
253.968	24.58
254.185	-34.82
254.401	79.87
254.618	30.72
254.835	8.19
255.051	147.45
255.268	88.06
255.484	-24.58
255.701	88.06
255.917	45.06
256.134	-155.65
256.351	16.38
256.567	40.96
256.784	45.06
257	-83.97
257.217	153.6
257.433	47.1
257.65	2.05
257.866	176.13
258.082	-49.15
258.299	0
258.515	81.92
258.732	-32.77
258.948	-16.38
259.165	69.63
259.381	-43.01
259.597	47.1
259.814	2.05
260.03	-6.14
260.246	-24.58
260.463	81.92
260.679	159.74
260.895	47.1
261.112	79.87
261.328	53.25
261.544	36.86
261.761	165.89
261.977	69.63
262.193	-43.01
262.409	198.65
262.626	40.96
262.842	59.39
263.058	-32.77
263.274	96.25
263.49	120.83
263.707	141.31
263.923	79.87
264.139	-157.69
264.355	43.01
264.571	122.88
264.787	90.11
265.004	129.02
265.22	6.14
265.436	8.19
265.652	-38.91
265.868	55.3
266.084	-71.68
266.3	43.01
266.516	-135.17
266.732	-6.14
266.948	73.73
267.164	12.29
267.38	26.62
267.596	100.35
267.812	221.18
268.028	57.34
268.244	-24.58
268.46	26.62
268.676	47.1
268.892	-26.62
269.108	-38.91
269.324	14.34
269.54	0
269.756	83.97
269.972	-71.68
270.188	55.3
270.403	-38.91
270.619	38.91
270.835	14.34
271.051	40.96
271.267	-4.1
271.483	53.25
271.698	71.68
271.914	92.16
272.13	71.68
272.346	-22.53
272.562	28.67
272.777	143.36
272.993	0
273.209	-2.05
273.425	67.58
273.64	-81.92
273.856	122.88
274.072	-26.62
274.287	20.48
274.503	45.06
274.719	116.73
274.934	28.67
275.15	-71.68
275.366	2.05
275.581	-20.48
275.797	73.73
276.012	49.15
276.228	4.1
276.444	96.25
276.659	75.77
276.875	-34.82
277.09	38.91
277.306	24.58
277.521	28.67
277.737	61.44
277.952	206.84
278.168	32.77
278.383	61.44
278.599	98.3
278.814	43.01
279.03	34.82
279.245	149.5
279.461	92.16
279.676	122.88
279.892	20.48
280.107	63.49
280.322	-49.15
280.538	65.54
280.753	-34.82
280.969	94.21
281.184	24.58
281.399	169.98
281.615	14.34
281.83	51.2
282.045	-53.25
282.26	-18.43
282.476	79.87
282.691	59.39
282.906	8.19
283.122	2.05
283.337	-38.91
283.552	94.21
283.767	100.35
283.983	126.97
284.198	-6.14
284.413	77.82
284.628	-43.01
284.843	69.63
285.058	51.2
285.274	34.82
285.489	-69.63
285.704	161.79
285.919	-14.34
286.134	-49.15
286.349	47.1
286.564	67.58
286.779	202.75
286.995	12.29
287.21	-20.48
287.425	55.3
287.64	59.39
287.855	61.44
288.07	-49.15
288.285	94.21
288.5	118.78
288.715	65.54
288.93	55.3
289.145	2.05
289.36	118.78
289.575	24.58
289.79	157.69
290.004	53.25
290.219	151.55
290.434	2.05
290.649	-18.43
290.864	-6.14
291.079	-18.43
291.294	86.01
291.509	120.83
291.724	34.82
291.938	2.05
292.153	6.14
292.368	18.43
292.583	61.44
292.798	112.64
293.012	-6.14
293.227	90.11
293.442	57.34
293.657	79.87
293.871	131.07
294.086	122.88
294.301	233.47
294.516	169.98
294.73	36.86
294.945	-47.1
295.16	34.82
295.374	53.25
295.589	114.69
295.804	-45.06
296.018	24.58
296.233	79.87
296.447	-73.73
296.662	45.06
296.877	147.45
297.091	81.92
297.306	-16.38
297.52	-24.58
297.735	102.4
297.949	18.43
298.164	28.67
298.378	75.77
298.593	-38.91
298.807	-26.62
299.022	67.58
299.236	182.27
299.451	20.48
299.665	22.53
299.88	196.61
300.094	45.06
300.309	32.77
300.523	79.87
300.737	55.3
300.952	94.21
301.166	55.3
301.381	22.53
301.595	-38.91
301.809	30.72
302.024	28.67
302.238	-40.96
302.452	155.65
302.667	4.1
302.881	137.21
303.095	116.73
303.309	90.11
303.524	-38.91
303.738	53.25
303.952	-26.62
304.166	32.77
304.381	-102.4
304.595	131.07
304.809	57.34
305.023	53.25
305.237	-6.14
305.452	65.54
305.666	116.73
305.88	20.48
306.094	176.13
306.308	65.54
306.522	112.64
306.736	61.44
306.95	106.49
307.164	30.72
307.379	47.1
307.593	114.69
307.807	212.99
308.021	43.01
308.235	57.34
308.449	-20.48
308.663	43.01
308.877	237.56
309.091	22.53
309.305	106.49
309.519	-12.29
309.733	124.93
309.947	-30.72
310.161	18.43
310.374	28.67
310.588	71.68
310.802	8.19
311.016	32.77
311.23	49.15
311.444	-38.91
311.658	12.29
311.872	126.97
312.085	186.37
312.299	137.21
312.513	153.6
312.727	81.92
312.941	75.77
313.154	67.58
313.368	75.77
313.582	98.3
313.796	34.82
314.009	79.87
314.223	141.31
314.437	157.69
314.651	124.93
314.864	-57.34
315.078	6.14
315.292	-71.68
315.505	-28.67
315.719	53.25
315.933	139.26
316.146	24.58
316.36	-18.43
316.573	88.06
316.787	155.65
317.001	57.34
317.214	-61.44
317.428	26.62
317.641	-24.58
317.855	71.68
318.068	65.54
318.282	-28.67
318.495	233.47
318.709	12.29
318.922	-12.29
319.136	118.78
319.349	147.45
319.563	-49.15
319.776	112.64
319.99	-92.16
320.203	71.68
320.417	-2.05
320.63	55.3
320.843	129.02
321.057	65.54
321.27	59.39
321.483	51.2
321.697	163.84
321.91	75.77
322.124	49.15
322.337	14.34
322.55	-77.82
322.763	81.92
322.977	-22.53
323.19	20.48
323.403	96.25
323.617	81.92
323.83	12.29
324.043	12.29
324.256	145.41
324.469	-102.4
324.683	159.74
324.896	88.06
325.109	32.77
325.322	-98.3
325.535	98.3
325.748	94.21
325.962	18.43
326.175	81.92
326.388	38.91
326.601	104.45
326.814	8.19
327.027	90.11
327.24	102.4
327.453	-86.01
327.666	120.83
327.879	102.4
328.092	96.25
328.305	73.73
328.518	-34.82
328.731	-16.38
328.944	2.05
329.157	26.62
329.37	83.97
329.583	176.13
329.796	118.78
330.009	-47.1
330.222	112.64
330.435	61.44
330.648	18.43
330.861	61.44
331.073	73.73
331.286	59.39
331.499	10.24
331.712	-12.29
331.925	22.53
332.138	174.08
332.35	88.06
332.563	-28.67
332.776	118.78
332.989	-43.01
333.202	28.67
333.414	53.25
333.627	47.1
333.84	0
334.053	86.01
334.265	-36.86
334.478	-36.86
334.691	36.86
334.903	131.07
335.116	-8.19
335.329	92.16
335.541	57.34
335.754	153.6
335.966	-16.38
336.179	40.96
336.392	61.44
336.604	86.01
336.817	116.73
337.029	53.25
337.242	34.82
337.454	94.21
337.667	18.43
337.88	104.45
338.092	18.43
338.305	24.58
338.517	-30.72
338.729	145.41
338.942	124.93
339.154	10.24
339.367	-18.43
339.579	34.82
339.792	-12.29
340.004	108.54
340.217	-75.77
340.429	69.63
340.641	77.82
340.854	-38.91
341.066	-18.43
341.278	38.91
341.491	139.26
341.703	-8.19
341.915	-83.97
342.128	18.43
342.34	73.73
342.552	34.82
342.764	-43.01
342.977	45.06
343.189	20.48
343.401	63.49
343.613	-45.06
343.826	28.67
344.038	-30.72
344.25	-32.77
344.462	57.34
344.674	137.21
344.886	49.15
345.099	26.62
345.311	77.82
345.523	32.77
345.735	-2.05
345.947	43.01
346.159	49.15
346.371	73.73
346.583	65.54
346.795	163.84
347.007	18.43
347.219	34.82
347.431	-59.39
347.643	71.68
347.855	-18.43
348.067	88.06
348.279	-10.24
348.491	67.58
348.703	129.02
348.915	45.06
349.127	-10.24
349.339	18.43
349.551	-38.91
349.763	61.44
349.975	122.88
350.187	86.01
350.399	102.4
350.61	124.93
350.822	6.14
351.034	53.25
351.246	32.77
351.458	124.93
351.669	71.68
351.881	172.03
352.093	86.01
352.305	182.27
352.517	-18.43
352.728	65.54
352.94	-34.82
353.152	61.44
353.363	-22.53
353.575	61.44
353.787	77.82
353.999	108.54
354.21	174.08
354.422	38.91
354.633	14.34
354.845	-32.77
355.057	-32.77
355.268	36.86
355.48	81.92
355.692	-16.38
355.903	-18.43
356.115	-4.1
356.326	22.53
356.538	233.47
356.749	118.78
356.961	147.45
357.172	28.67
357.384	18.43
357.595	169.98
357.807	49.15
358.018	-24.58
358.23	34.82
358.441	190.46
358.653	59.39
358.864	26.62
359.075	43.01
359.287	10.24
359.498	137.21
359.709	77.82
359.921	-30.72
360.132	104.45
360.344	-32.77
360.555	-32.77
360.766	40.96
360.977	0
361.189	88.06
361.4	61.44
361.611	94.21
361.823	145.41
362.034	65.54
362.245	-24.58
362.456	8.19
362.667	96.25
362.879	-24.58
363.09	135.17
363.301	59.39
363.512	26.62
363.723	36.86
363.935	-34.82
364.146	88.06
364.357	90.11
364.568	71.68
364.779	-45.06
364.99	151.55
365.201	-79.87
365.412	100.35
365.623	-116.73
365.834	155.65
366.045	-18.43
366.256	94.21
366.467	77.82
366.678	4.1
366.889	-24.58
367.1	4.1
367.311	143.36
367.522	55.3
367.733	112.64
367.944	40.96
368.155	26.62
368.366	51.2
368.577	94.21
368.788	106.49
368.999	34.82
369.209	32.77
369.42	247.8
369.631	231.42
369.842	69.63
370.053	14.34
370.264	133.12
370.474	-38.91
370.685	86.01
370.896	-4.1
371.107	182.27
371.317	28.67
371.528	16.38
371.739	69.63
371.95	141.31
372.16	184.32
372.371	4.1
372.582	10.24
372.792	59.39
373.003	65.54
373.214	40.96
373.424	100.35
373.635	8.19
373.846	135.17
374.056	-32.77
374.267	98.3
374.477	73.73
374.688	57.34
374.898	71.68
375.109	38.91
375.319	55.3
375.53	51.2
375.74	83.97
375.951	61.44
376.161	106.49
376.372	153.6
376.582	-79.87
376.793	59.39
377.003	-30.72
377.214	-2.05
377.424	51.2
377.635	12.29
377.845	-10.24
378.055	126.97
378.266	0
378.476	-30.72
378.686	100.35
378.897	47.1
379.107	145.41
379.317	4.1
379.528	16.38
379.738	65.54
379.948	-79.87
380.158	106.49
380.369	120.83
380.579	167.93
380.789	63.49
380.999	34.82
381.21	71.68
381.42	180.22
381.63	118.78
381.84	126.97
382.05	65.54
382.261	81.92
382.471	102.4
382.681	-14.34
382.891	235.52
383.101	63.49
383.311	-4.1
383.521	-65.54
383.731	34.82
383.941	63.49
384.151	18.43
384.361	51.2
384.571	26.62
384.781	90.11
384.991	253.95
385.201	188.41
385.411	108.54
385.621	79.87
385.831	79.87
386.041	83.97
386.251	73.73
386.461	135.17
386.671	14.34
386.881	51.2
387.091	38.91
387.301	77.82
387.511	14.34
387.72	55.3
387.93	57.34
388.14	36.86
388.35	-6.14
388.56	137.21
388.769	131.07
388.979	8.19
389.189	16.38
389.399	106.49
389.609	77.82
389.818	182.27
390.028	161.79
390.238	129.02
390.447	4.1
390.657	169.98
390.867	12.29
391.076	-116.73
391.286	86.01
391.496	83.97
391.705	55.3
391.915	129.02
392.125	79.87
392.334	-12.29
392.544	182.27
392.753	98.3
392.963	-38.91
393.172	63.49
393.382	2.05
393.591	172.03
393.801	2.05
394.01	108.54
394.22	102.4
394.429	-18.43
394.639	-18.43
394.848	10.24
395.058	30.72
395.267	18.43
395.477	26.62
395.686	67.58
395.895	237.56
396.105	202.75
396.314	88.06
396.524	118.78
396.733	98.3
396.942	182.27
397.152	79.87
397.361	206.84
397.57	59.39
397.78	71.68
397.989	77.82
398.198	313.34
398.407	-34.82
398.617	102.4
398.826	71.68
399.035	30.72
399.244	77.82
399.453	2.05
399.663	149.5
399.872	59.39
400.081	-49.15
400.29	139.26
400.499	-20.48
400.708	141.31
400.917	16.38
401.127	-10.24
401.336	65.54
401.545	210.94
401.754	151.55
401.963	120.83
402.172	47.1
402.381	47.1
402.59	-53.25
402.799	51.2
403.008	139.26
403.217	153.6
403.426	2.05
403.635	-24.58
403.844	86.01
404.053	20.48
404.262	16.38
404.471	188.41
404.68	67.58
404.888	96.25
405.097	38.91
405.306	38.91
405.515	88.06
405.724	-63.49
405.933	133.12
406.142	67.58
406.35	124.93
406.559	-67.58
406.768	110.59
406.977	151.55
407.185	30.72
407.394	40.96
407.603	-71.68
407.812	28.67
408.02	159.74
408.229	38.91
408.438	-8.19
408.646	-22.53
408.855	6.14
409.064	106.49
409.272	36.86
409.481	133.12
409.69	14.34
409.898	32.77
410.107	77.82
410.315	94.21
410.524	86.01
410.733	98.3
410.941	79.87
411.15	38.91
411.358	-6.14
411.567	120.83
411.775	24.58
411.984	75.77
412.192	63.49
412.401	51.2
412.609	196.61
412.818	118.78
413.026	129.02
413.234	-4.1
413.443	55.3
413.651	-14.34
413.86	28.67
414.068	159.74
414.276	88.06
414.485	12.29
414.693	159.74
414.901	194.56
415.11	77.82
415.318	73.73
415.526	40.96
415.734	34.82
415.943	112.64
416.151	126.97
416.359	32.77
416.567	86.01
416.776	159.74
416.984	126.97
417.192	249.85
417.4	34.82
417.608	86.01
417.817	-36.86
418.025	71.68
418.233	137.21
418.441	18.43
418.649	22.53
418.857	71.68
419.065	143.36
419.273	43.01
419.481	34.82
419.689	2.05
419.897	20.48
420.105	10.24
420.313	172.03
420.521	149.5
420.729	114.69
420.937	4.1
421.145	-10.24
421.353	172.03
421.561	260.09
421.769	47.1
421.977	71.68
422.185	215.04
422.393	139.26
422.601	133.12
422.809	61.44
423.017	116.73
423.224	63.49
423.432	108.54
423.64	86.01
423.848	100.35
424.056	96.25
424.263	147.45
424.471	30.72
424.679	184.32
424.887	-47.1
425.094	110.59
425.302	65.54
425.51	63.49
425.718	114.69
425.925	40.96
426.133	59.39
426.341	206.84
426.548	22.53
426.756	112.64
426.964	102.4
427.171	51.2
427.379	94.21
427.586	20.48
427.794	219.13
428.001	149.5
428.209	104.45
428.417	108.54
428.624	188.41
428.832	67.58
429.039	165.89
429.247	40.96
429.454	139.26
429.662	182.27
429.869	126.97
430.076	104.45
430.284	114.69
430.491	245.76
430.699	186.37
430.906	204.8
431.114	180.22
431.321	124.93
431.528	147.45
431.736	178.17
431.943	106.49
432.15	333.82
432.358	264.19
432.565	307.2
432.772	116.73
432.979	264.19
433.187	182.27
433.394	284.67
433.601	129.02
433.808	229.37
434.016	358.39
434.223	262.14
434.43	309.24
434.637	348.15
434.844	380.92
435.052	260.09
435.259	325.63
435.466	348.15
435.673	225.28
435.88	282.62
436.087	438.27
436.294	329.72
436.501	376.83
436.708	339.96
436.915	342.01
437.122	311.29
437.329	327.67
437.537	403.45
437.743	452.6
437.95	497.66
438.157	430.07
438.364	460.79
438.571	475.13
438.778	491.51
438.985	526.33
439.192	559.1
439.399	460.79
439.606	569.34
439.813	694.26
440.02	634.87
440.227	786.42
440.433	774.13
440.64	643.06
440.847	645.11
441.054	731.12
441.261	884.72
441.467	761.84
441.674	675.83
441.881	890.87
442.088	776.18
442.294	858.1
442.501	976.88
442.708	940.02
442.914	972.79
443.121	1036.27
443.328	958.45
443.534	1128.43
443.741	1062.9
443.948	1048.56
444.154	1167.34
444.361	1353.71
444.568	1271.79
444.774	1265.64
444.981	1187.82
445.187	1368.04
445.394	1406.95
445.6	1335.28
445.807	1488.87
446.013	1468.39
446.22	1535.98
446.426	1701.86
446.633	1763.3
446.839	1896.42
447.046	1697.77
447.252	2033.63
447.459	2127.84
447.665	1937.38
447.871	2224.09
448.078	2269.15
448.284	2220
448.491	2469.85
448.697	2480.09
448.903	2605.02
449.11	2672.6
449.316	2625.5
449.522	2932.69
449.728	2947.03
449.935	3055.57
450.141	2957.27
450.347	3424.2
450.553	3235.79
450.76	3272.65
450.966	3590.09
451.172	3639.24
451.378	3839.94
451.584	3858.37
451.791	4149.18
451.997	4239.3
452.203	4315.07
452.409	4695.99
452.615	4841.4
452.821	4589.5
453.027	4681.66
453.233	5318.57
453.44	5085.11
453.646	5414.83
453.852	5752.74
454.058	5722.02
454.264	5877.67
454.47	6633.37
454.676	6375.33
454.882	7028.63
455.088	6670.23
455.294	7118.74
455.5	7434.13
455.705	8144.77
455.911	7995.27
456.117	8171.4
456.323	8482.69
456.529	8345.47
456.735	9262.96
456.941	9492.34
457.147	9842.54
457.352	10233.7
457.558	10420.06
457.764	11165.53
457.97	11323.22
458.176	11769.68
458.381	12345.16
458.587	12697.41
458.793	13100.86
458.999	13197.11
459.204	14823.2
459.41	15474.45
459.616	15206.17
459.821	16150.28
460.027	16830.21
460.233	17471.22
460.438	17645.3
460.644	18788.07
460.85	18493.16
461.055	19619.54
461.261	20414.15
461.466	19973.84
461.672	20158.16
461.878	22609.57
462.083	22851.24
462.289	22947.49
462.494	24012.43
462.7	24116.88
462.905	24471.18
463.111	26510.96
463.316	27907.67
463.522	28085.84
463.727	29374.02
463.932	30420.53
464.138	31352.35
464.343	32486.93
464.549	32661.01
464.754	34862.57
464.959	35886.56
465.165	36371.93
465.37	35960.28
465.575	36455.89
465.781	38522.29
465.986	40215.96
466.191	39763.36
466.397	39476.65
466.602	39052.72
466.807	40887.7
467.012	41442.7
467.218	42108.29
467.423	42159.48
467.628	43699.56
467.833	45671.75
468.038	44862.8
468.244	44051.81
468.449	46415.16
