Data from USB4F104151__7__10-41-17-289.txt Node

Date: Wed Feb 26 10:41:17 EST 2025
User: louis
Spectrometer: USB4F10415
Trigger mode: 4
Integration Time (sec): 1.000000E-1
Scans to average: 1
Electric dark correction enabled: true
Nonlinearity correction enabled: false
Boxcar width: 0
XAxis mode: Wavelengths
Number of Pixels in Spectrum: 3648
>>>>>Begin Spectral Data<<<<<
178.204	-388.43
178.424	-388.43
178.644	-388.43
178.864	-359.76
179.084	-398.67
179.304	-7.51
179.524	-23.89
179.744	-5.46
179.964	-19.8
180.184	12.97
180.404	127.66
180.624	-34.13
180.844	51.88
181.064	-66.9
181.283	47.79
181.503	-99.67
181.723	17.07
181.943	-66.9
182.163	139.94
182.383	8.87
182.602	35.5
182.822	166.57
183.042	105.13
183.262	-40.28
183.482	43.69
183.701	51.88
183.921	4.78
184.141	4.78
184.361	82.6
184.58	72.36
184.8	60.07
185.02	-1.37
185.239	68.27
185.459	84.65
185.679	139.94
185.898	-95.57
186.118	23.21
186.338	39.59
186.557	152.23
186.777	-15.7
186.997	4.78
187.216	25.26
187.436	131.75
187.655	94.89
187.875	115.37
188.095	-17.75
188.314	107.18
188.534	166.57
188.753	2.73
188.973	107.18
189.192	127.66
189.412	109.22
189.631	-40.28
189.851	133.8
190.07	139.94
190.29	-68.95
190.509	66.22
190.729	55.98
190.948	195.24
191.168	258.73
191.387	86.7
191.607	17.07
191.826	39.59
192.045	37.55
192.265	4.78
192.484	84.65
192.704	27.31
192.923	-17.75
193.142	160.42
193.362	68.27
193.581	129.7
193.8	41.64
194.02	127.66
194.239	74.41
194.458	78.51
194.678	82.6
194.897	76.46
195.116	101.03
195.335	129.7
195.555	74.41
195.774	80.55
195.993	107.18
196.212	6.83
196.432	-5.46
196.651	23.21
196.87	21.16
197.089	275.11
197.308	101.03
197.528	51.88
197.747	-50.52
197.966	70.31
198.185	174.76
198.404	-5.46
198.623	152.23
198.842	88.75
199.062	86.7
199.281	76.46
199.5	64.17
199.719	31.4
199.938	8.87
200.157	150.18
200.376	94.89
200.595	162.47
200.814	86.7
201.033	12.97
201.252	133.8
201.471	66.22
201.69	101.03
201.909	64.17
202.128	64.17
202.347	187.05
202.566	19.11
202.785	15.02
203.004	-40.28
203.223	242.34
203.442	-3.41
203.661	-48.47
203.879	92.84
204.098	123.56
204.317	86.7
204.536	33.45
204.755	74.41
204.974	133.8
205.193	19.11
205.411	127.66
205.63	125.61
205.849	37.55
206.068	60.07
206.287	-52.56
206.505	76.46
206.724	-64.85
206.943	37.55
207.162	4.78
207.381	187.05
207.599	62.12
207.818	109.22
208.037	21.16
208.255	105.13
208.474	51.88
208.693	25.26
208.911	23.21
209.13	98.99
209.349	78.51
209.567	154.28
209.786	88.75
210.005	98.99
210.223	96.94
210.442	-97.62
210.661	60.07
210.879	64.17
211.098	12.97
211.316	45.74
211.535	39.59
211.753	64.17
211.972	103.08
212.191	66.22
212.409	4.78
212.628	172.71
212.846	12.97
213.065	82.6
213.283	78.51
213.502	31.4
213.72	-5.46
213.938	10.92
214.157	47.79
214.375	127.66
214.594	66.22
214.812	96.94
215.031	60.07
215.249	64.17
215.467	25.26
215.686	-9.56
215.904	189.1
216.122	53.93
216.341	170.66
216.559	17.07
216.778	53.93
216.996	141.99
217.214	21.16
217.432	88.75
217.651	-11.61
217.869	64.17
218.087	25.26
218.306	6.83
218.524	-5.46
218.742	12.97
218.96	82.6
219.179	25.26
219.397	23.21
219.615	295.59
219.833	45.74
220.051	12.97
220.27	88.75
220.488	131.75
220.706	195.24
220.924	-66.9
221.142	-36.18
221.36	115.37
221.578	51.88
221.796	21.16
222.015	-25.94
222.233	43.69
222.451	205.48
222.669	-40.28
222.887	96.94
223.105	-25.94
223.323	-34.13
223.541	-42.32
223.759	53.93
223.977	72.36
224.195	209.58
224.413	129.7
224.631	131.75
224.849	25.26
225.067	168.62
225.285	27.31
225.503	-83.28
225.721	-83.28
225.939	55.98
226.157	58.03
226.375	260.77
226.592	-25.94
226.81	4.78
227.028	154.28
227.246	109.22
227.464	148.14
227.682	66.22
227.9	117.42
228.117	-15.7
228.335	133.8
228.553	137.9
228.771	70.31
228.989	70.31
229.206	129.7
229.424	33.45
229.642	-50.52
229.86	-15.7
230.077	66.22
230.295	47.79
230.513	19.11
230.731	35.5
230.948	172.71
231.166	125.61
231.384	-7.51
231.601	6.83
231.819	193.19
232.037	-9.56
232.254	-23.89
232.472	-1.37
232.689	33.45
232.907	107.18
233.125	33.45
233.342	-15.7
233.56	12.97
233.777	39.59
233.995	33.45
234.213	41.64
234.43	82.6
234.648	8.87
234.865	25.26
235.083	98.99
235.3	53.93
235.518	72.36
235.735	70.31
235.953	123.56
236.17	60.07
236.388	76.46
236.605	45.74
236.822	105.13
237.04	156.33
237.257	62.12
237.475	6.83
237.692	37.55
237.909	141.99
238.127	39.59
238.344	66.22
238.562	12.97
238.779	-21.85
238.996	-30.04
239.214	53.93
239.431	74.41
239.648	51.88
239.865	141.99
240.083	76.46
240.3	-21.85
240.517	37.55
240.735	133.8
240.952	111.27
241.169	86.7
241.386	80.55
241.603	4.78
241.821	-36.18
242.038	127.66
242.255	146.09
242.472	-36.18
242.689	160.42
242.907	133.8
243.124	10.92
243.341	43.69
243.558	-5.46
243.775	-3.41
243.992	2.73
244.209	39.59
244.426	162.47
244.643	105.13
244.86	74.41
245.078	51.88
245.295	103.08
245.512	-62.8
245.729	12.97
245.946	84.65
246.163	98.99
246.38	55.98
246.597	78.51
246.814	45.74
247.031	15.02
247.248	58.03
247.464	111.27
247.681	4.78
247.898	-7.51
248.115	170.66
248.332	19.11
248.549	170.66
248.766	211.62
248.983	84.65
249.2	96.94
249.417	68.27
249.633	-64.85
249.85	123.56
250.067	-42.32
250.284	-3.41
250.501	127.66
250.717	64.17
250.934	-58.71
251.151	21.16
251.368	80.55
251.585	17.07
251.801	19.11
252.018	-95.57
252.235	119.46
252.451	-34.13
252.668	21.16
252.885	170.66
253.102	19.11
253.318	33.45
253.535	-5.46
253.752	-7.51
253.968	15.02
254.185	-13.65
254.401	31.4
254.618	29.35
254.835	8.87
255.051	137.9
255.268	125.61
255.484	64.17
255.701	15.02
255.917	29.35
256.134	41.64
256.351	49.83
256.567	-52.56
256.784	96.94
257	-58.71
257.217	111.27
257.433	70.31
257.65	96.94
257.866	189.1
258.082	4.78
258.299	-7.51
258.515	137.9
258.732	64.17
258.948	-13.65
259.165	160.42
259.381	-27.99
259.597	78.51
259.814	43.69
260.03	76.46
260.246	15.02
260.463	113.32
260.679	174.76
260.895	66.22
261.112	33.45
261.328	53.93
261.544	-1.37
261.761	176.81
261.977	-27.99
262.193	33.45
262.409	111.27
262.626	19.11
262.842	88.75
263.058	-109.91
263.274	80.55
263.49	64.17
263.707	80.55
263.923	80.55
264.139	-46.42
264.355	27.31
264.571	107.18
264.787	60.07
265.004	133.8
265.22	68.27
265.436	72.36
265.652	76.46
265.868	66.22
266.084	-58.71
266.3	29.35
266.516	-99.67
266.732	-7.51
266.948	4.78
267.164	90.79
267.38	146.09
267.596	72.36
267.812	133.8
268.028	49.83
268.244	88.75
268.46	37.55
268.676	-40.28
268.892	107.18
269.108	2.73
269.324	-23.89
269.54	0.68
269.756	33.45
269.972	-42.32
270.188	12.97
270.403	58.03
270.619	92.84
270.835	96.94
271.051	68.27
271.267	-5.46
271.483	-52.56
271.698	146.09
271.914	29.35
272.13	90.79
272.346	60.07
272.562	58.03
272.777	76.46
272.993	-30.04
273.209	55.98
273.425	-5.46
273.64	-40.28
273.856	141.99
274.072	-44.37
274.287	6.83
274.503	82.6
274.719	43.69
274.934	33.45
275.15	-91.48
275.366	121.51
275.581	8.87
275.797	-7.51
276.012	80.55
276.228	137.9
276.444	58.03
276.659	141.99
276.875	-56.66
277.09	-34.13
277.306	12.97
277.521	78.51
277.737	70.31
277.952	103.08
278.168	60.07
278.383	33.45
278.599	80.55
278.814	82.6
279.03	21.16
279.245	72.36
279.461	6.83
279.676	109.22
279.892	-17.75
280.107	17.07
280.322	-7.51
280.538	58.03
280.753	33.45
280.969	94.89
281.184	2.73
281.399	119.46
281.615	103.08
281.83	31.4
282.045	-15.7
282.26	37.55
282.476	62.12
282.691	94.89
282.906	82.6
283.122	60.07
283.337	92.84
283.552	92.84
283.767	31.4
283.983	144.04
284.198	37.55
284.413	39.59
284.628	-77.14
284.843	68.27
285.058	133.8
285.274	8.87
285.489	17.07
285.704	107.18
285.919	-11.61
286.134	62.12
286.349	33.45
286.564	-13.65
286.779	248.49
286.995	39.59
287.21	-64.85
287.425	76.46
287.64	0.68
287.855	45.74
288.07	-44.37
288.285	146.09
288.5	107.18
288.715	92.84
288.93	-13.65
289.145	-38.23
289.36	90.79
289.575	33.45
289.79	94.89
290.004	72.36
290.219	129.7
290.434	-30.04
290.649	88.75
290.864	37.55
291.079	17.07
291.294	33.45
291.509	21.16
291.724	62.12
291.938	31.4
292.153	88.75
292.368	31.4
292.583	15.02
292.798	127.66
293.012	41.64
293.227	58.03
293.442	17.07
293.657	187.05
293.871	113.32
294.086	121.51
294.301	162.47
294.516	84.65
294.73	25.26
294.945	-62.8
295.16	84.65
295.374	119.46
295.589	37.55
295.804	12.97
296.018	-17.75
296.233	64.17
296.447	8.87
296.662	-13.65
296.877	146.09
297.091	37.55
297.306	64.17
297.52	94.89
297.735	68.27
297.949	64.17
298.164	90.79
298.378	101.03
298.593	-3.41
298.807	51.88
299.022	45.74
299.236	182.95
299.451	78.51
299.665	109.22
299.88	82.6
300.094	58.03
300.309	72.36
300.523	0.68
300.737	60.07
300.952	27.31
301.166	105.13
301.381	-17.75
301.595	53.93
301.809	53.93
302.024	86.7
302.238	10.92
302.452	199.34
302.667	111.27
302.881	189.1
303.095	51.88
303.309	152.23
303.524	-34.13
303.738	84.65
303.952	66.22
304.166	115.37
304.381	-77.14
304.595	260.77
304.809	-13.65
305.023	80.55
305.237	-38.23
305.452	-19.8
305.666	146.09
305.88	166.57
306.094	191.14
306.308	170.66
306.522	137.9
306.736	123.56
306.95	68.27
307.164	49.83
307.379	4.78
307.593	121.51
307.807	160.42
308.021	70.31
308.235	84.65
308.449	-34.13
308.663	4.78
308.877	244.39
309.091	84.65
309.305	37.55
309.519	-66.9
309.733	160.42
309.947	-7.51
310.161	103.08
310.374	125.61
310.588	129.7
310.802	-11.61
311.016	-3.41
311.23	103.08
311.444	-11.61
311.658	15.02
311.872	139.94
312.085	107.18
312.299	39.59
312.513	125.61
312.727	119.46
312.941	-11.61
313.154	53.93
313.368	33.45
313.582	15.02
313.796	53.93
314.009	47.79
314.223	109.22
314.437	139.94
314.651	111.27
314.864	19.11
315.078	84.65
315.292	-68.95
315.505	15.02
315.719	60.07
315.933	78.51
316.146	2.73
316.36	-48.47
316.573	115.37
316.787	55.98
317.001	45.74
317.214	-1.37
317.428	70.31
317.641	10.92
317.855	-19.8
318.068	-5.46
318.282	45.74
318.495	199.34
318.709	60.07
318.922	60.07
319.136	154.28
319.349	154.28
319.563	-32.08
319.776	113.32
319.99	53.93
320.203	176.81
320.417	119.46
320.63	78.51
320.843	248.49
321.057	70.31
321.27	115.37
321.483	101.03
321.697	162.47
321.91	27.31
322.124	117.42
322.337	121.51
322.55	-23.89
322.763	12.97
322.977	105.13
323.19	39.59
323.403	45.74
323.617	23.21
323.83	117.42
324.043	82.6
324.256	51.88
324.469	-9.56
324.683	82.6
324.896	-7.51
325.109	78.51
325.322	10.92
325.535	164.52
325.748	82.6
325.962	12.97
326.175	105.13
326.388	152.23
326.601	121.51
326.814	-3.41
327.027	2.73
327.24	135.85
327.453	-66.9
327.666	94.89
327.879	152.23
328.092	58.03
328.305	107.18
328.518	39.59
328.731	23.21
328.944	78.51
329.157	125.61
329.37	-25.94
329.583	141.99
329.796	115.37
330.009	-21.85
330.222	55.98
330.435	68.27
330.648	39.59
330.861	115.37
331.073	78.51
331.286	133.8
331.499	19.11
331.712	-38.23
331.925	103.08
332.138	88.75
332.35	127.66
332.563	-19.8
332.776	109.22
332.989	33.45
333.202	37.55
333.414	58.03
333.627	12.97
333.84	-23.89
334.053	68.27
334.265	12.97
334.478	58.03
334.691	62.12
334.903	98.99
335.116	-40.28
335.329	-1.37
335.541	101.03
335.754	150.18
335.966	53.93
336.179	29.35
336.392	60.07
336.604	66.22
336.817	176.81
337.029	58.03
337.242	4.78
337.454	86.7
337.667	121.51
337.88	162.47
338.092	19.11
338.305	92.84
338.517	-15.7
338.729	107.18
338.942	107.18
339.154	-56.66
339.367	43.69
339.579	60.07
339.792	-5.46
340.004	101.03
340.217	68.27
340.429	82.6
340.641	-1.37
340.854	23.21
341.066	4.78
341.278	70.31
341.491	131.75
341.703	78.51
341.915	74.41
342.128	180.9
342.34	96.94
342.552	15.02
342.764	15.02
342.977	80.55
343.189	78.51
343.401	64.17
343.613	17.07
343.826	41.64
344.038	86.7
344.25	101.03
344.462	-52.56
344.674	166.57
344.886	10.92
345.099	2.73
345.311	105.13
345.523	-17.75
345.735	-46.42
345.947	60.07
346.159	64.17
346.371	15.02
346.583	2.73
346.795	217.77
347.007	-11.61
347.219	170.66
347.431	47.79
347.643	119.46
347.855	12.97
348.067	174.76
348.279	-44.37
348.491	4.78
348.703	66.22
348.915	98.99
349.127	-3.41
349.339	-15.7
349.551	-83.28
349.763	109.22
349.975	58.03
350.187	129.7
350.399	168.62
350.61	117.42
350.822	-62.8
351.034	60.07
351.246	144.04
351.458	80.55
351.669	172.71
351.881	117.42
352.093	135.85
352.305	72.36
352.517	51.88
352.728	125.61
352.94	88.75
353.152	111.27
353.363	-9.56
353.575	156.33
353.787	144.04
353.999	105.13
354.21	191.14
354.422	-116.05
354.633	-5.46
354.845	-17.75
355.057	55.98
355.268	27.31
355.48	62.12
355.692	29.35
355.903	82.6
356.115	-21.85
356.326	-32.08
356.538	131.75
356.749	80.55
356.961	111.27
357.172	29.35
357.384	-36.18
357.595	250.53
357.807	35.5
358.018	12.97
358.23	25.26
358.441	152.23
358.653	-7.51
358.864	-19.8
359.075	0.68
359.287	117.42
359.498	76.46
359.709	23.21
359.921	29.35
360.132	60.07
360.344	70.31
360.555	19.11
360.766	88.75
360.977	70.31
361.189	154.28
361.4	35.5
361.611	23.21
361.823	160.42
362.034	70.31
362.245	-3.41
362.456	0.68
362.667	90.79
362.879	-27.99
363.09	53.93
363.301	55.98
363.512	115.37
363.723	-48.47
363.935	-11.61
364.146	135.85
364.357	15.02
364.568	19.11
364.779	17.07
364.99	174.76
365.201	-5.46
365.412	78.51
365.623	-44.37
365.834	123.56
366.045	6.83
366.256	84.65
366.467	158.38
366.678	27.31
366.889	76.46
367.1	-34.13
367.311	55.98
367.522	-23.89
367.733	21.16
367.944	78.51
368.155	72.36
368.366	82.6
368.577	72.36
368.788	129.7
368.999	35.5
369.209	74.41
369.42	185
369.631	244.39
369.842	137.9
370.053	2.73
370.264	121.51
370.474	-17.75
370.685	74.41
370.896	105.13
371.107	109.22
371.317	115.37
371.528	68.27
371.739	232.1
371.95	53.93
372.16	68.27
372.371	12.97
372.582	8.87
372.792	33.45
373.003	45.74
373.214	15.02
373.424	64.17
373.635	37.55
373.846	144.04
374.056	23.21
374.267	41.64
374.477	144.04
374.688	17.07
374.898	-9.56
375.109	84.65
375.319	96.94
375.53	146.09
375.74	90.79
375.951	41.64
376.161	98.99
376.372	92.84
376.582	-38.23
376.793	152.23
377.003	-30.04
377.214	10.92
377.424	121.51
377.635	80.55
377.845	-17.75
378.055	86.7
378.266	8.87
378.476	10.92
378.686	66.22
378.897	115.37
379.107	115.37
379.317	121.51
379.528	23.21
379.738	88.75
379.948	-83.28
380.158	191.14
380.369	17.07
380.579	90.79
380.789	98.99
380.999	119.46
381.21	144.04
381.42	113.32
381.63	-23.89
381.84	144.04
382.05	21.16
382.261	64.17
382.471	131.75
382.681	-21.85
382.891	160.42
383.101	64.17
383.311	43.69
383.521	-1.37
383.731	88.75
383.941	115.37
384.151	113.32
384.361	86.7
384.571	103.08
384.781	121.51
384.991	189.1
385.201	205.48
385.411	103.08
385.621	64.17
385.831	70.31
386.041	66.22
386.251	55.98
386.461	90.79
386.671	92.84
386.881	-30.04
387.091	37.55
387.301	139.94
387.511	27.31
387.72	121.51
387.93	133.8
388.14	-13.65
388.35	70.31
388.56	107.18
388.769	154.28
388.979	51.88
389.189	-62.8
389.399	62.12
389.609	117.42
389.818	55.98
390.028	33.45
390.238	58.03
390.447	37.55
390.657	51.88
390.867	-17.75
391.076	-9.56
391.286	117.42
391.496	-3.41
391.705	-1.37
391.915	70.31
392.125	121.51
392.334	-46.42
392.544	135.85
392.753	96.94
392.963	-1.37
393.172	64.17
393.382	78.51
393.591	154.28
393.801	31.4
394.01	119.46
394.22	94.89
394.429	23.21
394.639	47.79
394.848	78.51
395.058	150.18
395.267	27.31
395.477	86.7
395.686	12.97
395.895	170.66
396.105	228.01
396.314	90.79
396.524	92.84
396.733	101.03
396.942	62.12
397.152	45.74
397.361	129.7
397.57	74.41
397.78	37.55
397.989	51.88
398.198	195.24
398.407	55.98
398.617	41.64
398.826	68.27
399.035	55.98
399.244	111.27
399.453	96.94
399.663	80.55
399.872	139.94
400.081	15.02
400.29	105.13
400.499	-50.52
400.708	133.8
400.917	29.35
401.127	58.03
401.336	111.27
401.545	180.9
401.754	144.04
401.963	109.22
402.172	10.92
402.381	25.26
402.59	74.41
402.799	4.78
403.008	156.33
403.217	64.17
403.426	141.99
403.635	-17.75
403.844	47.79
404.053	33.45
404.262	35.5
404.471	219.82
404.68	98.99
404.888	62.12
405.097	68.27
405.306	86.7
405.515	117.42
405.724	23.21
405.933	113.32
406.142	109.22
406.35	185
406.559	92.84
406.768	72.36
406.977	174.76
407.185	76.46
407.394	47.79
407.603	-36.18
407.812	107.18
408.02	150.18
408.229	29.35
408.438	29.35
408.646	15.02
408.855	127.66
409.064	62.12
409.272	12.97
409.481	64.17
409.69	29.35
409.898	-7.51
410.107	64.17
410.315	129.7
410.524	2.73
410.733	86.7
410.941	-3.41
411.15	49.83
411.358	78.51
411.567	193.19
411.775	27.31
411.984	96.94
412.192	172.71
412.401	41.64
412.609	152.23
412.818	195.24
413.026	90.79
413.234	2.73
413.443	53.93
413.651	21.16
413.86	19.11
414.068	121.51
414.276	172.71
414.485	19.11
414.693	195.24
414.901	176.81
415.11	129.7
415.318	58.03
415.526	51.88
415.734	152.23
415.943	96.94
416.151	189.1
416.359	62.12
416.567	111.27
416.776	82.6
416.984	107.18
417.192	230.06
417.4	-58.71
417.608	8.87
417.817	15.02
418.025	117.42
418.233	178.86
418.441	55.98
418.649	39.59
418.857	15.02
419.065	180.9
419.273	35.5
419.481	121.51
419.689	-7.51
419.897	105.13
420.105	29.35
420.313	139.94
420.521	168.62
420.729	213.67
420.937	10.92
421.145	-9.56
421.353	33.45
421.561	199.34
421.769	111.27
421.977	12.97
422.185	68.27
422.393	45.74
422.601	113.32
422.809	21.16
423.017	6.83
423.224	53.93
423.432	154.28
423.64	62.12
423.848	133.8
424.056	0.68
424.263	68.27
424.471	78.51
424.679	215.72
424.887	-68.95
425.094	172.71
425.302	70.31
425.51	51.88
425.718	162.47
425.925	113.32
426.133	10.92
426.341	158.38
426.548	86.7
426.756	60.07
426.964	109.22
427.171	80.55
427.379	88.75
427.586	90.79
427.794	27.31
428.001	148.14
428.209	119.46
428.417	266.92
428.624	146.09
428.832	101.03
429.039	51.88
429.247	160.42
429.454	125.61
429.662	244.39
429.869	131.75
430.076	137.9
430.284	205.48
430.491	158.38
430.699	123.56
430.906	246.44
431.114	154.28
431.321	109.22
431.528	82.6
431.736	170.66
431.943	162.47
432.15	137.9
432.358	215.72
432.565	213.67
432.772	70.31
432.979	121.51
433.187	144.04
433.394	271.01
433.601	172.71
433.808	174.76
434.016	309.93
434.223	271.01
434.43	225.96
434.637	254.63
434.844	275.11
435.052	275.11
435.259	277.16
435.466	228.01
435.673	207.53
435.88	291.49
436.087	281.25
436.294	371.36
436.501	332.45
436.708	256.68
436.915	344.74
437.122	344.74
437.329	271.01
437.537	330.41
437.743	346.79
437.95	414.37
438.157	432.8
438.364	348.84
438.571	443.04
438.778	428.71
438.985	412.32
439.192	492.2
439.399	490.15
439.606	453.28
439.813	565.92
440.02	623.27
440.227	627.36
440.433	547.49
440.64	570.02
440.847	441
441.054	547.49
441.261	647.84
441.467	570.02
441.674	537.25
441.881	688.8
442.088	570.02
442.294	715.42
442.501	744.1
442.708	699.04
442.914	731.81
443.121	762.53
443.328	801.44
443.534	864.93
443.741	862.88
443.948	778.91
444.154	926.36
444.361	1170.07
444.568	959.13
444.774	959.13
444.981	965.28
445.187	1075.87
445.394	1104.54
445.6	1010.33
445.807	1213.08
446.013	1200.79
446.22	1082.01
446.426	1311.38
446.633	1325.72
446.839	1548.95
447.046	1393.3
447.252	1507.99
447.459	1477.27
447.665	1514.13
447.871	1782.42
448.078	1776.27
448.284	1858.19
448.491	1936.01
448.697	1981.07
448.903	2056.84
449.11	2083.47
449.316	2009.74
449.522	2192.01
449.728	2443.91
449.935	2419.33
450.141	2372.23
450.347	2529.92
450.553	2529.92
450.76	2609.79
450.966	2693.76
451.172	2755.2
451.378	3056.25
451.584	3023.48
451.791	3289.72
451.997	3201.66
452.203	3349.11
452.409	3490.42
452.615	3752.56
452.821	3611.25
453.027	3625.59
453.233	4006.51
453.44	3940.97
453.646	4115.05
453.852	4344.42
454.058	4489.83
454.264	4674.15
454.47	5046.88
454.676	4985.44
454.882	5407.32
455.088	5208.67
455.294	5603.93
455.5	5843.54
455.705	6034
455.911	6105.68
456.117	6263.37
456.323	6591.05
456.529	6556.23
456.735	7119.42
456.941	7318.07
457.147	7547.45
457.352	7924.27
457.558	8024.62
457.764	8432.17
457.97	8688.17
458.176	9155.1
458.381	9505.31
458.587	9775.64
458.793	10025.49
458.999	10031.63
459.204	11397.63
459.41	11858.42
459.616	11833.85
459.821	12263.92
460.027	12872.17
460.233	13480.41
460.438	13541.85
460.644	14152.15
460.85	14440.91
461.055	15137.22
461.261	15786.43
461.466	15299.01
461.672	15718.84
461.878	17555.87
462.083	17502.62
462.289	17697.18
462.494	18549.14
462.7	18467.22
462.905	18954.63
463.111	20537.71
463.316	21412.2
463.522	21776.73
463.727	22358.36
463.932	23130.44
464.138	24011.07
464.343	24901.93
464.549	24994.09
464.754	26958.1
464.959	27549.96
465.165	28137.73
465.37	27715.84
465.575	27707.65
465.781	29683.94
465.986	30783.7
466.191	30077.15
466.397	30589.14
466.602	29774.05
466.807	31791.3
467.012	31908.04
467.218	32514.23
467.423	32690.36
467.628	33902.76
467.833	35070.1
468.038	34726.04
468.244	34068.64
468.449	35790.98
468.654	35160.21
