Data from USB4F104151__92__10-45-03-065.txt Node

Date: Wed Feb 26 10:45:03 EST 2025
User: louis
Spectrometer: USB4F10415
Trigger mode: 4
Integration Time (sec): 1.000000E-1
Scans to average: 1
Electric dark correction enabled: true
Nonlinearity correction enabled: false
Boxcar width: 0
XAxis mode: Wavelengths
Number of Pixels in Spectrum: 3648
>>>>>Begin Spectral Data<<<<<
178.204	-365.39
178.424	-365.39
178.644	-365.39
178.864	-387.92
179.084	-332.62
179.304	54.44
179.524	-11.09
179.744	17.58
179.964	23.72
180.184	25.77
180.404	-29.52
180.624	-47.96
180.844	-2.9
181.064	-52.05
181.283	1.19
181.503	1.19
181.723	19.63
181.943	-121.68
182.163	189.61
182.383	-68.44
182.602	115.88
182.822	124.07
183.042	95.4
183.262	-93.01
183.482	36.01
183.701	68.78
183.921	76.97
184.141	17.58
184.361	119.98
184.58	115.88
184.8	105.64
185.02	-7
185.239	128.17
185.459	105.64
185.679	156.84
185.898	-37.72
186.118	91.31
186.338	64.68
186.557	105.64
186.777	-95.06
186.997	5.29
187.216	62.63
187.436	142.5
187.655	126.12
187.875	140.46
188.095	97.45
188.314	138.41
188.534	97.45
188.753	40.11
188.973	111.78
189.192	175.27
189.412	74.92
189.631	56.49
189.851	85.16
190.07	173.22
190.29	-21.33
190.509	42.15
190.729	74.92
190.948	158.89
191.168	281.77
191.387	64.68
191.607	21.67
191.826	81.07
192.045	25.77
192.265	1.19
192.484	11.43
192.704	19.63
192.923	-29.52
193.142	191.66
193.362	54.44
193.581	103.59
193.8	42.15
194.02	117.93
194.239	126.12
194.458	103.59
194.678	38.06
194.897	23.72
195.116	38.06
195.335	68.78
195.555	46.25
195.774	-31.57
195.993	136.36
196.212	38.06
196.432	7.34
196.651	-23.38
196.87	99.5
197.089	271.53
197.308	142.5
197.528	107.69
197.747	11.43
197.966	60.59
198.185	103.59
198.404	-66.39
198.623	46.25
198.842	107.69
199.062	150.7
199.281	89.26
199.5	56.49
199.719	101.55
199.938	56.49
200.157	83.11
200.376	89.26
200.595	119.98
200.814	150.7
201.033	25.77
201.252	144.55
201.471	89.26
201.69	56.49
201.909	60.59
202.128	144.55
202.347	38.06
202.566	-21.33
202.785	-70.48
203.004	-7
203.223	285.86
203.442	70.83
203.661	-74.58
203.879	31.91
204.098	173.22
204.317	7.34
204.536	124.07
204.755	93.35
204.974	154.79
205.193	7.34
205.411	68.78
205.63	58.54
205.849	-2.9
206.068	60.59
206.287	7.34
206.505	113.83
206.724	38.06
206.943	93.35
207.162	48.3
207.381	42.15
207.599	33.96
207.818	64.68
208.037	-70.48
208.255	25.77
208.474	54.44
208.693	31.91
208.911	-7
209.13	103.59
209.349	99.5
209.567	46.25
209.786	101.55
210.005	156.84
210.223	33.96
210.442	-133.97
210.661	54.44
210.879	107.69
211.098	11.43
211.316	115.88
211.535	83.11
211.753	119.98
211.972	38.06
212.191	60.59
212.409	68.78
212.628	130.22
212.846	19.63
213.065	72.87
213.283	136.36
213.502	50.35
213.72	-2.9
213.938	119.98
214.157	-23.38
214.375	122.02
214.594	76.97
214.812	81.07
215.031	-2.9
215.249	56.49
215.467	48.3
215.686	103.59
215.904	101.55
216.122	95.4
216.341	138.41
216.559	56.49
216.778	169.13
216.996	146.6
217.214	66.73
217.432	-62.29
217.651	-13.14
217.869	115.88
218.087	58.54
218.306	-52.05
218.524	62.63
218.742	38.06
218.96	64.68
219.179	19.63
219.397	68.78
219.615	285.86
219.833	-13.14
220.051	23.72
220.27	128.17
220.488	113.83
220.706	93.35
220.924	1.19
221.142	44.2
221.36	62.63
221.578	74.92
221.796	-7
222.015	81.07
222.233	97.45
222.451	160.94
222.669	13.48
222.887	87.21
223.105	13.48
223.323	17.58
223.541	-2.9
223.759	50.35
223.977	52.39
224.195	193.7
224.413	154.79
224.631	68.78
224.849	81.07
225.067	183.46
225.285	68.78
225.503	27.82
225.721	-60.24
225.939	11.43
226.157	-56.15
226.375	236.71
226.592	36.01
226.81	91.31
227.028	70.83
227.246	128.17
227.464	64.68
227.682	99.5
227.9	107.69
228.117	105.64
228.335	62.63
228.553	56.49
228.771	-15.19
228.989	76.97
229.206	130.22
229.424	-64.34
229.642	13.48
229.86	-74.58
230.077	111.78
230.295	42.15
230.513	146.6
230.731	29.87
230.948	162.98
231.166	216.23
231.384	-41.81
231.601	50.35
231.819	212.14
232.037	17.58
232.254	-2.9
232.472	36.01
232.689	62.63
232.907	17.58
233.125	-33.62
233.342	-11.09
233.56	62.63
233.777	-41.81
233.995	62.63
234.213	181.42
234.43	115.88
234.648	25.77
234.865	-21.33
235.083	142.5
235.3	83.11
235.518	79.02
235.735	152.74
235.953	68.78
236.17	50.35
236.388	95.4
236.605	52.39
236.822	38.06
237.04	115.88
237.257	64.68
237.475	-19.29
237.692	58.54
237.909	89.26
238.127	85.16
238.344	134.31
238.562	25.77
238.779	-60.24
238.996	5.29
239.214	3.24
239.431	162.98
239.648	-45.91
239.865	72.87
240.083	76.97
240.3	17.58
240.517	66.73
240.735	38.06
240.952	208.04
241.169	33.96
241.386	113.83
241.603	-2.9
241.821	-64.34
242.038	148.65
242.255	146.6
242.472	-27.48
242.689	158.89
242.907	72.87
243.124	60.59
243.341	23.72
243.558	87.21
243.775	1.19
243.992	-17.24
244.209	72.87
244.426	199.85
244.643	113.83
244.86	74.92
245.078	162.98
245.295	132.26
245.512	29.87
245.729	-9.05
245.946	124.07
246.163	-35.67
246.38	76.97
246.597	52.39
246.814	11.43
247.031	19.63
247.248	42.15
247.464	134.31
247.681	83.11
247.898	58.54
248.115	91.31
248.332	56.49
248.549	128.17
248.766	158.89
248.983	46.25
249.2	-0.85
249.417	126.12
249.633	-15.19
249.85	83.11
250.067	44.2
250.284	95.4
250.501	148.65
250.717	79.02
250.934	-37.72
251.151	42.15
251.368	83.11
251.585	25.77
251.801	113.83
252.018	-54.1
252.235	109.74
252.451	-99.16
252.668	58.54
252.885	158.89
253.102	64.68
253.318	33.96
253.535	-4.95
253.752	-23.38
253.968	-43.86
254.185	-0.85
254.401	1.19
254.618	85.16
254.835	9.39
255.051	173.22
255.268	76.97
255.484	29.87
255.701	76.97
255.917	115.88
256.134	21.67
256.351	81.07
256.567	-33.62
256.784	1.19
257	-84.82
257.217	146.6
257.433	201.9
257.65	23.72
257.866	124.07
258.082	-58.2
258.299	-7
258.515	-17.24
258.732	1.19
258.948	36.01
259.165	64.68
259.381	-23.38
259.597	64.68
259.814	9.39
260.03	56.49
260.246	46.25
260.463	158.89
260.679	70.83
260.895	46.25
261.112	48.3
261.328	-11.09
261.544	38.06
261.761	150.7
261.977	25.77
262.193	-54.1
262.409	52.39
262.626	-37.72
262.842	44.2
263.058	-41.81
263.274	95.4
263.49	48.3
263.707	66.73
263.923	107.69
264.139	-23.38
264.355	40.11
264.571	144.55
264.787	85.16
265.004	130.22
265.22	136.36
265.436	42.15
265.652	44.2
265.868	115.88
266.084	54.44
266.3	15.53
266.516	-47.96
266.732	7.34
266.948	21.67
267.164	101.55
267.38	160.94
267.596	72.87
267.812	109.74
268.028	25.77
268.244	23.72
268.46	128.17
268.676	44.2
268.892	40.11
269.108	-68.44
269.324	40.11
269.54	-43.86
269.756	154.79
269.972	-70.48
270.188	-19.29
270.403	9.39
270.619	19.63
270.835	58.54
271.051	40.11
271.267	64.68
271.483	-15.19
271.698	85.16
271.914	58.54
272.13	25.77
272.346	33.96
272.562	5.29
272.777	70.83
272.993	23.72
273.209	44.2
273.425	89.26
273.64	5.29
273.856	68.78
274.072	-21.33
274.287	-2.9
274.503	79.02
274.719	111.78
274.934	25.77
275.15	-45.91
275.366	-21.33
275.581	-31.57
275.797	91.31
276.012	89.26
276.228	40.11
276.444	58.54
276.659	85.16
276.875	-70.48
277.09	3.24
277.306	68.78
277.521	17.58
277.737	25.77
277.952	31.91
278.168	11.43
278.383	89.26
278.599	64.68
278.814	95.4
279.03	128.17
279.245	193.7
279.461	76.97
279.676	124.07
279.892	-17.24
280.107	-56.15
280.322	-105.3
280.538	138.41
280.753	-58.2
280.969	62.63
281.184	74.92
281.399	81.07
281.615	62.63
281.83	31.91
282.045	-50
282.26	5.29
282.476	171.18
282.691	105.64
282.906	7.34
283.122	142.5
283.337	-33.62
283.552	91.31
283.767	36.01
283.983	95.4
284.198	31.91
284.413	99.5
284.628	-35.67
284.843	81.07
285.058	72.87
285.274	38.06
285.489	23.72
285.704	124.07
285.919	56.49
286.134	9.39
286.349	72.87
286.564	50.35
286.779	146.6
286.995	31.91
287.21	-93.01
287.425	60.59
287.64	-13.14
287.855	101.55
288.07	-58.2
288.285	154.79
288.5	156.84
288.715	89.26
288.93	70.83
289.145	-31.57
289.36	113.83
289.575	33.96
289.79	165.03
290.004	-50
290.219	144.55
290.434	-41.81
290.649	54.44
290.864	-47.96
291.079	17.58
291.294	36.01
291.509	36.01
291.724	9.39
291.938	-0.85
292.153	50.35
292.368	48.3
292.583	91.31
292.798	50.35
293.012	79.02
293.227	21.67
293.442	21.67
293.657	54.44
293.871	146.6
294.086	101.55
294.301	205.99
294.516	87.21
294.73	83.11
294.945	46.25
295.16	107.69
295.374	109.74
295.589	50.35
295.804	68.78
296.018	54.44
296.233	128.17
296.447	19.63
296.662	25.77
296.877	95.4
297.091	46.25
297.306	103.59
297.52	42.15
297.735	95.4
297.949	119.98
298.164	54.44
298.378	105.64
298.593	52.39
298.807	-9.05
299.022	-27.48
299.236	230.57
299.451	19.63
299.665	29.87
299.88	-27.48
300.094	48.3
300.309	40.11
300.523	70.83
300.737	-17.24
300.952	52.39
301.166	124.07
301.381	-50
301.595	76.97
301.809	-7
302.024	-41.81
302.238	60.59
302.452	52.39
302.667	17.58
302.881	109.74
303.095	158.89
303.309	91.31
303.524	60.59
303.738	9.39
303.952	11.43
304.166	97.45
304.381	-35.67
304.595	95.4
304.809	23.72
305.023	31.91
305.237	21.67
305.452	17.58
305.666	87.21
305.88	97.45
306.094	72.87
306.308	50.35
306.522	144.55
306.736	101.55
306.95	191.66
307.164	-15.19
307.379	25.77
307.593	158.89
307.807	70.83
308.021	60.59
308.235	132.26
308.449	-84.82
308.663	29.87
308.877	230.57
309.091	56.49
309.305	64.68
309.519	-19.29
309.733	158.89
309.947	-13.14
310.161	136.36
310.374	107.69
310.588	91.31
310.802	54.44
311.016	9.39
311.23	136.36
311.444	-13.14
311.658	21.67
311.872	91.31
312.085	50.35
312.299	111.78
312.513	115.88
312.727	29.87
312.941	50.35
313.154	95.4
313.368	89.26
313.582	-13.14
313.796	46.25
314.009	44.2
314.223	138.41
314.437	146.6
314.651	52.39
314.864	-31.57
315.078	25.77
315.292	7.34
315.505	27.82
315.719	68.78
315.933	101.55
316.146	23.72
316.36	-88.92
316.573	175.27
316.787	81.07
317.001	79.02
317.214	-21.33
317.428	93.35
317.641	-4.95
317.855	52.39
318.068	-2.9
318.282	89.26
318.495	228.52
318.709	46.25
318.922	-13.14
319.136	175.27
319.349	115.88
319.563	38.06
319.776	83.11
319.99	-62.29
320.203	148.65
320.417	99.5
320.63	68.78
320.843	175.27
321.057	83.11
321.27	40.11
321.483	66.73
321.697	142.5
321.91	58.54
322.124	17.58
322.337	29.87
322.55	33.96
322.763	101.55
322.977	56.49
323.19	-9.05
323.403	42.15
323.617	117.93
323.83	124.07
324.043	-15.19
324.256	105.64
324.469	-43.86
324.683	134.31
324.896	9.39
325.109	29.87
325.322	-74.58
325.535	134.31
325.748	70.83
325.962	33.96
326.175	99.5
326.388	93.35
326.601	138.41
326.814	42.15
327.027	76.97
327.24	158.89
327.453	-136.02
327.666	89.26
327.879	142.5
328.092	95.4
328.305	23.72
328.518	-64.34
328.731	25.77
328.944	-17.24
329.157	93.35
329.37	13.48
329.583	253.09
329.796	193.7
330.009	-76.63
330.222	66.73
330.435	154.79
330.648	103.59
330.861	99.5
331.073	48.3
331.286	134.31
331.499	1.19
331.712	5.29
331.925	40.11
332.138	81.07
332.35	181.42
332.563	-4.95
332.776	136.36
332.989	-41.81
333.202	105.64
333.414	44.2
333.627	50.35
333.84	36.01
334.053	101.55
334.265	15.53
334.478	25.77
334.691	85.16
334.903	101.55
335.116	-11.09
335.329	60.59
335.541	15.53
335.754	162.98
335.966	13.48
336.179	42.15
336.392	-15.19
336.604	31.91
336.817	68.78
337.029	126.12
337.242	62.63
337.454	83.11
337.667	44.2
337.88	134.31
338.092	68.78
338.305	83.11
338.517	-70.48
338.729	83.11
338.942	183.46
339.154	-27.48
339.367	-21.33
339.579	83.11
339.792	-9.05
340.004	58.54
340.217	5.29
340.429	72.87
340.641	-54.1
340.854	5.29
341.066	33.96
341.278	177.32
341.491	93.35
341.703	58.54
341.915	-9.05
342.128	91.31
342.34	31.91
342.552	11.43
342.764	-29.52
342.977	64.68
343.189	72.87
343.401	95.4
343.613	-45.91
343.826	132.26
344.038	19.63
344.25	29.87
344.462	-39.76
344.674	48.3
344.886	19.63
345.099	66.73
345.311	89.26
345.523	-13.14
345.735	-68.44
345.947	44.2
346.159	31.91
346.371	140.46
346.583	23.72
346.795	109.74
347.007	42.15
347.219	83.11
347.431	52.39
347.643	99.5
347.855	62.63
348.067	130.22
348.279	-74.58
348.491	58.54
348.703	60.59
348.915	44.2
349.127	-74.58
349.339	-0.85
349.551	-39.76
349.763	195.75
349.975	130.22
350.187	150.7
350.399	130.22
350.61	87.21
350.822	7.34
351.034	91.31
351.246	134.31
351.458	142.5
351.669	126.12
351.881	70.83
352.093	150.7
352.305	142.5
352.517	79.02
352.728	160.94
352.94	87.21
353.152	19.63
353.363	29.87
353.575	62.63
353.787	191.66
353.999	7.34
354.21	275.62
354.422	-35.67
354.633	3.24
354.845	46.25
355.057	27.82
355.268	62.63
355.48	97.45
355.692	-39.76
355.903	29.87
356.115	50.35
356.326	-58.2
356.538	113.83
356.749	107.69
356.961	160.94
357.172	-35.67
357.384	-33.62
357.595	150.7
357.807	-21.33
358.018	15.53
358.23	25.77
358.441	197.8
358.653	142.5
358.864	87.21
359.075	-78.68
359.287	56.49
359.498	171.18
359.709	91.31
359.921	50.35
360.132	68.78
360.344	93.35
360.555	-19.29
360.766	117.93
360.977	91.31
361.189	103.59
361.4	17.58
361.611	201.9
361.823	140.46
362.034	60.59
362.245	-56.15
362.456	74.92
362.667	60.59
362.879	17.58
363.09	54.44
363.301	72.87
363.512	97.45
363.723	42.15
363.935	52.39
364.146	99.5
364.357	-43.86
364.568	115.88
364.779	-21.33
364.99	154.79
365.201	-27.48
365.412	167.08
365.623	-109.4
365.834	56.49
366.045	68.78
366.256	11.43
366.467	105.64
366.678	9.39
366.889	105.64
367.1	42.15
367.311	169.13
367.522	7.34
367.733	36.01
367.944	79.02
368.155	-13.14
368.366	201.9
368.577	64.68
368.788	154.79
368.999	27.82
369.209	89.26
369.42	93.35
369.631	150.7
369.842	124.07
370.053	33.96
370.264	134.31
370.474	-66.39
370.685	132.26
370.896	-4.95
371.107	171.18
371.317	68.78
371.528	105.64
371.739	107.69
371.95	126.12
372.16	119.98
372.371	-43.86
372.582	95.4
372.792	62.63
373.003	15.53
373.214	70.83
373.424	72.87
373.635	17.58
373.846	148.65
374.056	33.96
374.267	62.63
374.477	97.45
374.688	17.58
374.898	40.11
375.109	76.97
375.319	74.92
375.53	107.69
375.74	81.07
375.951	38.06
376.161	66.73
376.372	66.73
376.582	29.87
376.793	107.69
377.003	66.73
377.214	-64.34
377.424	66.73
377.635	-7
377.845	58.54
378.055	103.59
378.266	-39.76
378.476	9.39
378.686	136.36
378.897	46.25
379.107	126.12
379.317	83.11
379.528	56.49
379.738	111.78
379.948	-27.48
380.158	89.26
380.369	72.87
380.579	56.49
380.789	76.97
380.999	93.35
381.21	154.79
381.42	142.5
381.63	17.58
381.84	76.97
382.05	148.65
382.261	152.74
382.471	126.12
382.681	-4.95
382.891	201.9
383.101	109.74
383.311	13.48
383.521	29.87
383.731	87.21
383.941	122.02
384.151	93.35
384.361	50.35
384.571	89.26
384.781	83.11
384.991	113.83
385.201	187.56
385.411	136.36
385.621	85.16
385.831	79.02
386.041	76.97
386.251	36.01
386.461	140.46
386.671	62.63
386.881	36.01
387.091	-15.19
387.301	183.46
387.511	76.97
387.72	60.59
387.93	103.59
388.14	-23.38
388.35	19.63
388.56	162.98
388.769	109.74
388.979	93.35
389.189	38.06
389.399	9.39
389.609	150.7
389.818	199.85
390.028	62.63
390.238	5.29
390.447	13.48
390.657	50.35
390.867	124.07
391.076	-52.05
391.286	31.91
391.496	33.96
391.705	79.02
391.915	107.69
392.125	119.98
392.334	-21.33
392.544	103.59
392.753	13.48
392.963	-17.24
393.172	113.83
393.382	36.01
393.591	132.26
393.801	103.59
394.01	124.07
394.22	44.2
394.429	7.34
394.639	-2.9
394.848	48.3
395.058	25.77
395.267	54.44
395.477	111.78
395.686	122.02
395.895	95.4
396.105	197.8
396.314	54.44
396.524	42.15
396.733	70.83
396.942	179.37
397.152	156.84
397.361	160.94
397.57	-4.95
397.78	48.3
397.989	-4.95
398.198	109.74
398.407	60.59
398.617	-9.05
398.826	119.98
399.035	66.73
399.244	148.65
399.453	62.63
399.663	132.26
399.872	70.83
400.081	-17.24
400.29	91.31
400.499	-33.62
400.708	113.83
400.917	83.11
401.127	-2.9
401.336	46.25
401.545	205.99
401.754	160.94
401.963	81.07
402.172	83.11
402.381	-43.86
402.59	-2.9
402.799	-11.09
403.008	103.59
403.217	52.39
403.426	21.67
403.635	-62.29
403.844	46.25
404.053	52.39
404.262	19.63
404.471	132.26
404.68	109.74
404.888	74.92
405.097	60.59
405.306	36.01
405.515	97.45
405.724	36.01
405.933	160.94
406.142	52.39
406.35	111.78
406.559	25.77
406.768	107.69
406.977	261.29
407.185	52.39
407.394	138.41
407.603	-13.14
407.812	89.26
408.02	62.63
408.229	48.3
408.438	25.77
408.646	-62.29
408.855	103.59
409.064	23.72
409.272	66.73
409.481	109.74
409.69	-4.95
409.898	-23.38
410.107	72.87
410.315	199.85
410.524	-41.81
410.733	68.78
410.941	115.88
411.15	160.94
411.358	64.68
411.567	134.31
411.775	52.39
411.984	19.63
412.192	70.83
412.401	31.91
412.609	283.81
412.818	119.98
413.026	62.63
413.234	17.58
413.443	46.25
413.651	-4.95
413.86	-21.33
414.068	218.28
414.276	152.74
414.485	-0.85
414.693	162.98
414.901	226.47
415.11	107.69
415.318	-11.09
415.526	99.5
415.734	142.5
415.943	89.26
416.151	171.18
416.359	117.93
416.567	126.12
416.776	113.83
416.984	150.7
417.192	199.85
417.4	-37.72
417.608	5.29
417.817	38.06
418.025	171.18
418.233	117.93
418.441	33.96
418.649	-9.05
418.857	70.83
419.065	140.46
419.273	5.29
419.481	87.21
419.689	27.82
419.897	13.48
420.105	-11.09
420.313	62.63
420.521	91.31
420.729	117.93
420.937	15.53
421.145	13.48
421.353	140.46
421.561	201.9
421.769	99.5
421.977	33.96
422.185	81.07
422.393	9.39
422.601	119.98
422.809	38.06
423.017	81.07
423.224	19.63
423.432	138.41
423.64	58.54
423.848	113.83
424.056	9.39
424.263	173.22
424.471	-17.24
424.679	134.31
424.887	17.58
425.094	103.59
425.302	115.88
425.51	17.58
425.718	99.5
425.925	130.22
426.133	36.01
426.341	226.47
426.548	79.02
426.756	40.11
426.964	128.17
427.171	27.82
427.379	97.45
427.586	52.39
427.794	97.45
428.001	177.32
428.209	105.64
428.417	177.32
428.624	160.94
428.832	158.89
429.039	105.64
429.247	31.91
429.454	203.94
429.662	158.89
429.869	128.17
430.076	109.74
430.284	171.18
430.491	240.81
430.699	212.14
430.906	265.38
431.114	165.03
431.321	146.6
431.528	150.7
431.736	136.36
431.943	224.42
432.15	148.65
432.358	197.8
432.565	203.94
432.772	79.02
432.979	255.14
433.187	169.13
433.394	265.38
433.601	111.78
433.808	246.95
434.016	259.24
434.223	201.9
434.43	191.66
434.637	253.09
434.844	236.71
435.052	269.48
435.259	244.9
435.466	316.58
435.673	306.34
435.88	273.57
436.087	320.68
436.294	406.69
436.501	425.12
436.708	306.34
436.915	357.54
437.122	312.49
437.329	324.77
437.537	429.22
437.743	402.6
437.95	478.37
438.157	414.88
438.364	378.02
438.571	361.64
438.778	441.51
438.985	410.79
439.192	482.47
439.399	527.52
439.606	556.19
439.813	548
440.02	646.3
440.227	728.22
440.433	601.25
440.64	554.15
440.847	584.87
441.054	644.26
441.261	748.7
441.467	674.98
441.674	631.97
441.881	822.43
442.088	740.51
442.294	797.85
442.501	873.63
442.708	847.01
442.914	814.24
443.121	920.73
443.328	902.3
443.534	1068.19
443.741	930.97
443.948	918.68
444.154	1105.05
444.361	1234.07
444.568	1131.67
444.774	1209.5
444.981	1098.91
445.187	1289.37
445.394	1330.33
445.6	1189.02
445.807	1385.62
446.013	1369.24
446.22	1381.53
446.426	1453.2
446.633	1551.51
446.839	1737.87
447.046	1520.79
447.252	1709.2
447.459	1733.78
447.665	1715.34
447.871	1813.65
448.078	2096.27
448.284	1989.77
448.491	2129.03
448.697	2307.21
448.903	2342.02
449.11	2425.99
449.316	2276.49
449.522	2600.07
449.728	2587.78
449.935	2657.41
450.141	2698.37
450.347	2778.24
450.553	2907.26
450.76	2944.13
450.966	3056.76
451.172	3165.31
451.378	3249.27
451.584	3447.93
451.791	3687.54
451.997	3867.76
452.203	3947.63
452.409	3996.78
452.615	4164.72
452.821	4009.07
453.027	4119.66
453.233	4789.35
453.44	4314.22
453.646	4842.59
453.852	5053.53
454.058	5157.98
454.264	5260.38
454.47	5815.38
454.676	5721.17
454.882	6083.66
455.088	5760.08
455.294	6335.56
455.5	6564.93
455.705	6876.23
455.911	7040.06
456.117	7232.57
456.323	7588.92
456.529	7369.79
456.735	8205.36
456.941	8313.9
457.147	8657.96
457.352	8823.84
457.558	9049.12
457.764	9657.37
457.97	9794.58
458.176	10339.34
458.381	10777.61
458.587	11045.89
458.793	11584.51
458.999	11529.21
459.204	12993.51
459.41	13466.59
459.616	13069.28
459.821	14193.62
460.027	14533.58
460.233	15297.47
460.438	15139.78
460.644	16333.75
460.85	16481.2
461.055	17005.48
461.261	17865.63
461.466	17517.47
461.672	17963.93
461.878	20157.3
462.083	19411.84
462.289	20142.97
462.494	20839.28
462.7	20913
462.905	21275.49
463.111	23063.37
463.316	24288.06
463.522	24699.7
463.727	25269.03
463.932	26080.03
464.138	27101.97
464.343	28111.61
464.549	28287.74
464.754	30493.4
464.959	31496.91
465.165	31863.49
465.37	31816.39
465.575	31773.38
465.781	33725.1
465.986	34968.21
466.191	33977
466.397	34509.47
466.602	33778.34
466.807	35576.46
467.012	36127.36
467.218	36782.71
467.423	36729.47
467.628	38369.89
467.833	39955.02
468.038	39174.74
468.244	38716
468.449	40528.45
468.654	39674.45
