Data from USB4F104151__164__11-04-47-435.txt Node

Date: Wed Feb 26 11:04:47 EST 2025
User: louis
Spectrometer: USB4F10415
Trigger mode: 4
Integration Time (sec): 1.000000E-1
Scans to average: 1
Electric dark correction enabled: true
Nonlinearity correction enabled: false
Boxcar width: 0
XAxis mode: Wavelengths
Number of Pixels in Spectrum: 3648
>>>>>Begin Spectral Data<<<<<
178.204	-409.42
178.424	-409.42
178.644	-409.42
178.864	-321.36
179.084	-427.85
179.304	26.79
179.524	-67.41
179.744	-63.32
179.964	-5.97
180.184	37.03
180.404	63.66
180.624	-46.93
180.844	34.99
181.064	-24.4
181.283	0.17
181.503	-44.88
181.723	90.28
181.943	-10.07
182.163	204.97
182.383	43.18
182.602	116.9
182.822	213.16
183.042	88.23
183.262	67.75
183.482	55.47
183.701	65.71
183.921	106.67
184.141	-30.55
184.361	131.24
184.58	106.67
184.8	71.85
185.02	67.75
185.239	143.53
185.459	61.61
185.679	108.71
185.898	28.84
186.118	82.09
186.338	161.96
186.557	155.82
186.777	-1.88
186.997	-51.03
187.216	47.27
187.436	194.73
187.655	53.42
187.875	147.62
188.095	112.81
188.314	139.43
188.534	125.1
188.753	-63.32
188.973	67.75
189.192	268.45
189.412	84.14
189.631	67.75
189.851	77.99
190.07	184.49
190.29	14.51
190.509	-8.02
190.729	28.84
190.948	133.29
191.168	213.16
191.387	198.82
191.607	10.41
191.826	112.81
192.045	55.47
192.265	28.84
192.484	131.24
192.704	61.61
192.923	22.7
193.142	198.82
193.362	98.47
193.581	219.3
193.8	100.52
194.02	108.71
194.239	129.19
194.458	77.99
194.678	26.79
194.897	-46.93
195.116	123.05
195.335	114.86
195.555	51.37
195.774	-20.31
195.993	149.67
196.212	133.29
196.432	10.41
196.651	65.71
196.87	112.81
197.089	198.82
197.308	121
197.528	24.75
197.747	55.47
197.966	102.57
198.185	200.87
198.404	-38.74
198.623	100.52
198.842	121
199.062	159.91
199.281	123.05
199.5	77.99
199.719	172.2
199.938	170.15
200.157	94.38
200.376	225.45
200.595	227.5
200.814	157.86
201.033	22.7
201.252	317.61
201.471	98.47
201.69	28.84
201.909	55.47
202.128	141.48
202.347	137.38
202.566	30.89
202.785	-59.22
203.004	6.31
203.223	247.97
203.442	108.71
203.661	-126.8
203.879	96.43
204.098	164.01
204.317	22.7
204.536	133.29
204.755	80.04
204.974	147.62
205.193	22.7
205.411	215.21
205.63	118.95
205.849	143.53
206.068	47.27
206.287	2.22
206.505	186.54
206.724	16.55
206.943	2.22
207.162	59.56
207.381	39.08
207.599	82.09
207.818	118.95
208.037	26.79
208.255	61.61
208.474	123.05
208.693	153.77
208.911	57.51
209.13	98.47
209.349	84.14
209.567	182.44
209.786	125.1
210.005	192.68
210.223	67.75
210.442	-44.88
210.661	121
210.879	123.05
211.098	98.47
211.316	80.04
211.535	153.77
211.753	69.8
211.972	98.47
212.191	118.95
212.409	92.33
212.628	65.71
212.846	0.17
213.065	114.86
213.283	149.67
213.502	80.04
213.72	116.9
213.938	102.57
214.157	47.27
214.375	153.77
214.594	49.32
214.812	114.86
215.031	94.38
215.249	16.55
215.467	96.43
215.686	-1.88
215.904	92.33
216.122	135.34
216.341	161.96
216.559	114.86
216.778	137.38
216.996	125.1
217.214	47.27
217.432	-24.4
217.651	-36.69
217.869	75.95
218.087	88.23
218.306	41.13
218.524	153.77
218.742	41.13
218.96	116.9
219.179	71.85
219.397	88.23
219.615	207.02
219.833	135.34
220.051	34.99
220.27	114.86
220.488	159.91
220.706	96.43
220.924	8.36
221.142	104.62
221.36	77.99
221.578	118.95
221.796	73.9
222.015	-10.07
222.233	57.51
222.451	209.06
222.669	20.65
222.887	77.99
223.105	30.89
223.323	34.99
223.541	-10.07
223.759	59.56
223.977	61.61
224.195	198.82
224.413	125.1
224.631	166.06
224.849	0.17
225.067	233.64
225.285	47.27
225.503	55.47
225.721	-26.45
225.939	14.51
226.157	90.28
226.375	274.6
226.592	51.37
226.81	59.56
227.028	180.39
227.246	123.05
227.464	92.33
227.682	151.72
227.9	94.38
228.117	116.9
228.335	100.52
228.553	47.27
228.771	41.13
228.989	65.71
229.206	186.54
229.424	39.08
229.642	49.32
229.86	-87.89
230.077	127.14
230.295	69.8
230.513	200.87
230.731	84.14
230.948	262.31
231.166	176.3
231.384	73.9
231.601	-12.12
231.819	231.59
232.037	41.13
232.254	-20.31
232.472	-14.17
232.689	110.76
232.907	192.68
233.125	6.31
233.342	63.66
233.56	39.08
233.777	73.9
233.995	90.28
234.213	168.1
234.43	194.73
234.648	39.08
234.865	-16.21
235.083	61.61
235.3	67.75
235.518	129.19
235.735	174.25
235.953	92.33
236.17	37.03
236.388	77.99
236.605	110.76
236.822	215.21
237.04	188.58
237.257	86.19
237.475	22.7
237.692	84.14
237.909	116.9
238.127	-20.31
238.344	139.43
238.562	28.84
238.779	-32.6
238.996	41.13
239.214	114.86
239.431	106.67
239.648	-14.17
239.865	86.19
240.083	71.85
240.3	65.71
240.517	-1.88
240.735	96.43
240.952	264.36
241.169	114.86
241.386	98.47
241.603	88.23
241.821	-10.07
242.038	63.66
242.255	141.48
242.472	-16.21
242.689	143.53
242.907	145.58
243.124	84.14
243.341	86.19
243.558	65.71
243.775	20.65
243.992	-14.17
244.209	88.23
244.426	260.26
244.643	-8.02
244.86	80.04
245.078	80.04
245.295	94.38
245.512	98.47
245.729	30.89
245.946	147.62
246.163	143.53
246.38	73.9
246.597	153.77
246.814	100.52
247.031	73.9
247.248	96.43
247.464	131.24
247.681	104.62
247.898	188.58
248.115	100.52
248.332	88.23
248.549	198.82
248.766	186.54
248.983	125.1
249.2	110.76
249.417	125.1
249.633	16.55
249.85	94.38
250.067	90.28
250.284	80.04
250.501	114.86
250.717	112.81
250.934	43.18
251.151	16.55
251.368	47.27
251.585	143.53
251.801	92.33
252.018	34.99
252.235	94.38
252.451	-59.22
252.668	51.37
252.885	180.39
253.102	12.46
253.318	26.79
253.535	49.32
253.752	-16.21
253.968	65.71
254.185	20.65
254.401	114.86
254.618	82.09
254.835	32.94
255.051	137.38
255.268	143.53
255.484	41.13
255.701	43.18
255.917	102.57
256.134	24.75
256.351	18.6
256.567	63.66
256.784	110.76
257	-34.64
257.217	121
257.433	131.24
257.65	129.19
257.866	164.01
258.082	-10.07
258.299	24.75
258.515	112.81
258.732	92.33
258.948	26.79
259.165	69.8
259.381	-83.8
259.597	149.67
259.814	18.6
260.03	94.38
260.246	88.23
260.463	147.62
260.679	198.82
260.895	59.56
261.112	43.18
261.328	104.62
261.544	22.7
261.761	116.9
261.977	-55.12
262.193	-14.17
262.409	129.19
262.626	118.95
262.842	84.14
263.058	84.14
263.274	196.78
263.49	88.23
263.707	112.81
263.923	182.44
264.139	10.41
264.355	14.51
264.571	143.53
264.787	114.86
265.004	182.44
265.22	39.08
265.436	57.51
265.652	-36.69
265.868	131.24
266.084	-73.56
266.3	28.84
266.516	75.95
266.732	51.37
266.948	80.04
267.164	82.09
267.38	153.77
267.596	143.53
267.812	178.34
268.028	75.95
268.244	30.89
268.46	149.67
268.676	96.43
268.892	77.99
269.108	22.7
269.324	-14.17
269.54	6.31
269.756	166.06
269.972	73.9
270.188	65.71
270.403	-16.21
270.619	22.7
270.835	166.06
271.051	65.71
271.267	-1.88
271.483	22.7
271.698	129.19
271.914	108.71
272.13	182.44
272.346	116.9
272.562	116.9
272.777	143.53
272.993	24.75
273.209	47.27
273.425	49.32
273.64	59.56
273.856	100.52
274.072	-26.45
274.287	82.09
274.503	170.15
274.719	143.53
274.934	18.6
275.15	-10.07
275.366	57.51
275.581	73.9
275.797	75.95
276.012	86.19
276.228	84.14
276.444	100.52
276.659	164.01
276.875	-22.36
277.09	67.75
277.306	30.89
277.521	102.57
277.737	51.37
277.952	186.54
278.168	143.53
278.383	59.56
278.599	172.2
278.814	172.2
279.03	159.91
279.245	149.67
279.461	61.61
279.676	102.57
279.892	0.17
280.107	8.36
280.322	104.62
280.538	112.81
280.753	30.89
280.969	65.71
281.184	106.67
281.399	133.29
281.615	88.23
281.83	45.23
282.045	8.36
282.26	26.79
282.476	100.52
282.691	135.34
282.906	98.47
283.122	112.81
283.337	20.65
283.552	125.1
283.767	-10.07
283.983	159.91
284.198	73.9
284.413	137.38
284.628	0.17
284.843	198.82
285.058	161.96
285.274	22.7
285.489	24.75
285.704	112.81
285.919	-28.5
286.134	131.24
286.349	69.8
286.564	32.94
286.779	110.76
286.995	30.89
287.21	28.84
287.425	125.1
287.64	92.33
287.855	82.09
288.07	32.94
288.285	164.01
288.5	157.86
288.715	180.39
288.93	30.89
289.145	104.62
289.36	116.9
289.575	34.99
289.79	172.2
290.004	75.95
290.219	131.24
290.434	80.04
290.649	69.8
290.864	39.08
291.079	65.71
291.294	65.71
291.509	80.04
291.724	75.95
291.938	59.56
292.153	55.47
292.368	65.71
292.583	121
292.798	106.67
293.012	90.28
293.227	86.19
293.442	12.46
293.657	112.81
293.871	194.73
294.086	114.86
294.301	151.72
294.516	125.1
294.73	63.66
294.945	6.31
295.16	92.33
295.374	143.53
295.589	125.1
295.804	69.8
296.018	114.86
296.233	153.77
296.447	149.67
296.662	96.43
296.877	172.2
297.091	151.72
297.306	49.32
297.52	57.51
297.735	73.9
297.949	32.94
298.164	137.38
298.378	131.24
298.593	-8.02
298.807	45.23
299.022	86.19
299.236	188.58
299.451	14.51
299.665	2.22
299.88	37.03
300.094	80.04
300.309	86.19
300.523	110.76
300.737	45.23
300.952	157.86
301.166	157.86
301.381	-3.93
301.595	-46.93
301.809	53.42
302.024	112.81
302.238	26.79
302.452	231.59
302.667	-22.36
302.881	161.96
303.095	176.3
303.309	86.19
303.524	22.7
303.738	84.14
303.952	45.23
304.166	43.18
304.381	-36.69
304.595	207.02
304.809	37.03
305.023	0.17
305.237	18.6
305.452	26.79
305.666	196.78
305.88	67.75
306.094	172.2
306.308	118.95
306.522	137.38
306.736	104.62
306.95	211.11
307.164	118.95
307.379	69.8
307.593	164.01
307.807	174.25
308.021	178.34
308.235	108.71
308.449	-26.45
308.663	86.19
308.877	241.83
309.091	114.86
309.305	118.95
309.519	-32.6
309.733	186.54
309.947	-51.03
310.161	34.99
310.374	112.81
310.588	106.67
310.802	-30.55
311.016	108.71
311.23	188.58
311.444	-5.97
311.658	112.81
311.872	180.39
312.085	188.58
312.299	172.2
312.513	225.45
312.727	147.62
312.941	10.41
313.154	131.24
313.368	94.38
313.582	59.56
313.796	145.58
314.009	151.72
314.223	108.71
314.437	94.38
314.651	174.25
314.864	24.75
315.078	-22.36
315.292	-59.22
315.505	10.41
315.719	139.43
315.933	92.33
316.146	34.99
316.36	34.99
316.573	114.86
316.787	127.14
317.001	69.8
317.214	75.95
317.428	-1.88
317.641	67.75
317.855	75.95
318.068	94.38
318.282	133.29
318.495	176.3
318.709	143.53
318.922	153.77
319.136	176.3
319.349	198.82
319.563	18.6
319.776	188.58
319.99	-71.51
320.203	39.08
320.417	104.62
320.63	127.14
320.843	204.97
321.057	108.71
321.27	10.41
321.483	131.24
321.697	98.47
321.91	53.42
322.124	96.43
322.337	80.04
322.55	43.18
322.763	106.67
322.977	61.61
323.19	49.32
323.403	39.08
323.617	155.82
323.83	164.01
324.043	53.42
324.256	34.99
324.469	10.41
324.683	137.38
324.896	90.28
325.109	143.53
325.322	-91.99
325.535	129.19
325.748	133.29
325.962	94.38
326.175	90.28
326.388	121
326.601	141.48
326.814	28.84
327.027	135.34
327.24	221.35
327.453	2.22
327.666	73.9
327.879	118.95
328.092	51.37
328.305	88.23
328.518	32.94
328.731	-20.31
328.944	-20.31
329.157	116.9
329.37	8.36
329.583	196.78
329.796	221.35
330.009	10.41
330.222	166.06
330.435	153.77
330.648	116.9
330.861	69.8
331.073	125.1
331.286	135.34
331.499	80.04
331.712	4.27
331.925	14.51
332.138	86.19
332.35	61.61
332.563	71.85
332.776	192.68
332.989	12.46
333.202	92.33
333.414	63.66
333.627	86.19
333.84	75.95
334.053	57.51
334.265	-1.88
334.478	14.51
334.691	14.51
334.903	67.75
335.116	-28.5
335.329	82.09
335.541	112.81
335.754	153.77
335.966	16.55
336.179	100.52
336.392	39.08
336.604	34.99
336.817	88.23
337.029	116.9
337.242	49.32
337.454	67.75
337.667	123.05
337.88	143.53
338.092	69.8
338.305	131.24
338.517	55.47
338.729	239.78
338.942	133.29
339.154	-8.02
339.367	-3.93
339.579	118.95
339.792	63.66
340.004	172.2
340.217	100.52
340.429	118.95
340.641	0.17
340.854	-20.31
341.066	57.51
341.278	149.67
341.491	272.55
341.703	65.71
341.915	-10.07
342.128	137.38
342.34	153.77
342.552	65.71
342.764	108.71
342.977	84.14
343.189	131.24
343.401	116.9
343.613	-14.17
343.826	-1.88
344.038	6.31
344.25	84.14
344.462	0.17
344.674	80.04
344.886	2.22
345.099	63.66
345.311	188.58
345.523	41.13
345.735	-28.5
345.947	104.62
346.159	53.42
346.371	98.47
346.583	57.51
346.795	155.82
347.007	71.85
347.219	141.48
347.431	22.7
347.643	100.52
347.855	-30.55
348.067	196.78
348.279	-110.42
348.491	92.33
348.703	151.72
348.915	55.47
349.127	-20.31
349.339	127.14
349.551	-10.07
349.763	110.76
349.975	61.61
350.187	141.48
350.399	86.19
350.61	102.57
350.822	20.65
351.034	47.27
351.246	176.3
351.458	131.24
351.669	102.57
351.881	129.19
352.093	127.14
352.305	143.53
352.517	88.23
352.728	180.39
352.94	51.37
353.152	73.9
353.363	-18.26
353.575	110.76
353.787	178.34
353.999	75.95
354.21	184.49
354.422	39.08
354.633	-18.26
354.845	41.13
355.057	77.99
355.268	43.18
355.48	155.82
355.692	34.99
355.903	125.1
356.115	55.47
356.326	-55.12
356.538	204.97
356.749	157.86
356.961	123.05
357.172	73.9
357.384	-3.93
357.595	282.79
357.807	75.95
358.018	71.85
358.23	16.55
358.441	219.3
358.653	155.82
358.864	-3.93
359.075	47.27
359.287	65.71
359.498	137.38
359.709	104.62
359.921	106.67
360.132	129.19
360.344	80.04
360.555	75.95
360.766	90.28
360.977	28.84
361.189	145.58
361.4	-3.93
361.611	190.63
361.823	182.44
362.034	63.66
362.245	45.23
362.456	143.53
362.667	100.52
362.879	-48.98
363.09	94.38
363.301	86.19
363.512	151.72
363.723	8.36
363.935	94.38
364.146	164.01
364.357	45.23
364.568	110.76
364.779	-10.07
364.99	112.81
365.201	51.37
365.412	155.82
365.623	-30.55
365.834	137.38
366.045	98.47
366.256	92.33
366.467	170.15
366.678	86.19
366.889	121
367.1	34.99
367.311	178.34
367.522	63.66
367.733	100.52
367.944	77.99
368.155	18.6
368.366	98.47
368.577	192.68
368.788	153.77
368.999	53.42
369.209	73.9
369.42	262.31
369.631	266.41
369.842	131.24
370.053	26.79
370.264	100.52
370.474	8.36
370.685	131.24
370.896	69.8
371.107	88.23
371.317	82.09
371.528	114.86
371.739	153.77
371.95	49.32
372.16	104.62
372.371	34.99
372.582	63.66
372.792	73.9
373.003	137.38
373.214	67.75
373.424	143.53
373.635	96.43
373.846	155.82
374.056	67.75
374.267	90.28
374.477	141.48
374.688	61.61
374.898	118.95
375.109	145.58
375.319	41.13
375.53	114.86
375.74	198.82
375.951	118.95
376.161	141.48
376.372	123.05
376.582	24.75
376.793	108.71
377.003	37.03
377.214	26.79
377.424	121
377.635	116.9
377.845	47.27
378.055	182.44
378.266	4.27
378.476	69.8
378.686	149.67
378.897	73.9
379.107	123.05
379.317	110.76
379.528	26.79
379.738	164.01
379.948	51.37
380.158	172.2
380.369	92.33
380.579	166.06
380.789	18.6
380.999	121
381.21	137.38
381.42	174.25
381.63	100.52
381.84	110.76
382.05	127.14
382.261	125.1
382.471	174.25
382.681	45.23
382.891	247.97
383.101	92.33
383.311	92.33
383.521	-16.21
383.731	108.71
383.941	110.76
384.151	104.62
384.361	90.28
384.571	51.37
384.781	116.9
384.991	198.82
385.201	247.97
385.411	112.81
385.621	151.72
385.831	49.32
386.041	90.28
386.251	41.13
386.461	176.3
386.671	47.27
386.881	43.18
387.091	30.89
387.301	125.1
387.511	98.47
387.72	96.43
387.93	137.38
388.14	-8.02
388.35	77.99
388.56	182.44
388.769	211.11
388.979	75.95
389.189	55.47
389.399	145.58
389.609	159.91
389.818	145.58
390.028	100.52
390.238	100.52
390.447	-46.93
390.657	129.19
390.867	69.8
391.076	-75.6
391.286	100.52
391.496	121
391.705	59.56
391.915	213.16
392.125	145.58
392.334	100.52
392.544	221.35
392.753	82.09
392.963	28.84
393.172	110.76
393.382	-8.02
393.591	213.16
393.801	-24.4
394.01	155.82
394.22	108.71
394.429	92.33
394.639	73.9
394.848	153.77
395.058	121
395.267	82.09
395.477	125.1
395.686	77.99
395.895	256.17
396.105	204.97
396.314	151.72
396.524	51.37
396.733	63.66
396.942	211.11
397.152	151.72
397.361	225.45
397.57	133.29
397.78	112.81
397.989	121
398.198	188.58
398.407	53.42
398.617	71.85
398.826	98.47
399.035	116.9
399.244	157.86
399.453	151.72
399.663	63.66
399.872	116.9
400.081	43.18
400.29	139.43
400.499	22.7
400.708	157.86
400.917	71.85
401.127	10.41
401.336	14.51
401.545	133.29
401.754	143.53
401.963	88.23
402.172	2.22
402.381	8.36
402.59	53.42
402.799	98.47
403.008	182.44
403.217	24.75
403.426	182.44
403.635	32.94
403.844	139.43
404.053	18.6
404.262	102.57
404.471	211.11
404.68	88.23
404.888	116.9
405.097	16.55
405.306	104.62
405.515	121
405.724	77.99
405.933	125.1
406.142	86.19
406.35	129.19
406.559	98.47
406.768	86.19
406.977	170.15
407.185	129.19
407.394	141.48
407.603	16.55
407.812	108.71
408.02	194.73
408.229	96.43
408.438	129.19
408.646	26.79
408.855	82.09
409.064	143.53
409.272	98.47
409.481	125.1
409.69	28.84
409.898	34.99
410.107	133.29
410.315	190.63
410.524	80.04
410.733	65.71
410.941	145.58
411.15	133.29
411.358	121
411.567	176.3
411.775	110.76
411.984	92.33
412.192	98.47
412.401	77.99
412.609	245.93
412.818	204.97
413.026	45.23
413.234	137.38
413.443	80.04
413.651	98.47
413.86	59.56
414.068	172.2
414.276	202.92
414.485	55.47
414.693	245.93
414.901	213.16
415.11	129.19
415.318	61.61
415.526	110.76
415.734	123.05
415.943	108.71
416.151	149.67
416.359	92.33
416.567	121
416.776	59.56
416.984	135.34
417.192	204.97
417.4	73.9
417.608	-1.88
417.817	102.57
418.025	145.58
418.233	207.02
418.441	-67.41
418.649	92.33
418.857	118.95
419.065	170.15
419.273	77.99
419.481	127.14
419.689	47.27
419.897	73.9
420.105	-10.07
420.313	188.58
420.521	172.2
420.729	194.73
420.937	-18.26
421.145	4.27
421.353	139.43
421.561	211.11
421.769	104.62
421.977	114.86
422.185	164.01
422.393	116.9
422.601	153.77
422.809	84.14
423.017	149.67
423.224	176.3
423.432	110.76
423.64	-14.17
423.848	141.48
424.056	22.7
424.263	215.21
424.471	55.47
424.679	252.07
424.887	41.13
425.094	184.49
425.302	223.4
425.51	82.09
425.718	55.47
425.925	77.99
426.133	18.6
426.341	229.54
426.548	53.42
426.756	63.66
426.964	69.8
427.171	73.9
427.379	164.01
427.586	75.95
427.794	252.07
428.001	202.92
428.209	151.72
428.417	227.5
428.624	151.72
428.832	166.06
429.039	235.69
429.247	114.86
429.454	223.4
429.662	270.5
429.869	172.2
430.076	133.29
430.284	139.43
430.491	256.17
430.699	200.87
430.906	309.41
431.114	151.72
431.321	164.01
431.528	243.88
431.736	137.38
431.943	198.82
432.15	161.96
432.358	217.26
432.565	350.37
432.772	49.32
432.979	198.82
433.187	204.97
433.394	164.01
433.601	161.96
433.808	315.56
434.016	313.51
434.223	231.59
434.43	223.4
434.637	280.74
434.844	260.26
435.052	243.88
435.259	307.37
435.466	303.27
435.673	313.51
435.88	256.17
436.087	303.27
436.294	448.68
436.501	280.74
436.708	366.76
436.915	352.42
437.122	325.8
437.329	284.84
437.537	305.32
437.743	417.96
437.95	538.79
438.157	360.61
438.364	463.01
438.571	442.53
438.778	463.01
438.985	520.35
439.192	534.69
439.399	403.62
439.606	510.11
439.813	614.56
440.02	620.71
440.227	721.06
440.433	557.22
440.64	565.41
440.847	583.84
441.054	635.04
441.261	661.66
441.467	604.32
441.674	612.51
441.881	733.34
442.088	716.96
442.294	731.3
442.501	821.41
442.708	798.88
442.914	886.94
443.121	815.26
443.328	907.42
443.534	972.96
443.741	975
443.948	845.98
444.154	1013.92
444.361	1077.4
444.568	1028.25
444.774	1089.69
444.981	927.9
445.187	1122.46
445.394	1331.35
445.6	1165.46
445.807	1292.44
446.013	1370.26
446.22	1218.71
446.426	1398.93
446.633	1491.09
446.839	1632.4
447.046	1456.28
447.252	1687.7
447.459	1605.78
447.665	1652.88
447.871	1843.34
448.078	1972.36
448.284	1878.16
448.491	1949.84
448.697	2085
448.903	2205.83
449.11	2238.6
449.316	2183.31
449.522	2226.31
449.728	2334.86
449.935	2510.98
450.141	2560.13
450.347	2680.96
450.553	2717.83
450.76	2721.92
450.966	2936.96
451.172	3096.7
451.378	3100.8
451.584	3160.19
451.791	3281.02
451.997	3586.16
452.203	3594.36
452.409	3688.56
452.615	3979.37
452.821	3698.8
453.027	3993.71
453.233	4474.98
453.44	4155.5
453.646	4360.3
453.852	4784.23
454.058	4675.68
454.264	4954.21
454.47	5277.79
454.676	5333.08
454.882	5673.04
455.088	5677.14
455.294	5863.51
455.5	6070.35
455.705	6649.93
455.911	6467.66
456.117	6670.4
456.323	6881.35
456.529	7129.15
456.735	7684.15
456.941	7807.03
457.147	8253.48
457.352	8331.31
457.558	8515.62
457.764	9072.67
457.97	9236.51
458.176	9773.08
458.381	10194.96
458.587	10221.58
458.793	10854.41
458.999	10729.48
459.204	12570.6
459.41	12556.27
459.616	12443.63
459.821	13101.03
460.027	13772.76
460.233	14315.47
460.438	14694.35
460.644	15462.33
460.85	15394.75
461.055	16177.08
461.261	16906.15
461.466	16181.17
461.672	16691.12
461.878	18648.97
462.083	18702.22
462.289	18747.28
462.494	19740.54
462.7	19697.53
462.905	20090.74
463.111	21495.65
463.316	22622.03
463.522	23287.62
463.727	23781.18
463.932	24950.57
464.138	25462.57
464.343	26451.74
464.549	26988.3
464.754	28772.08
464.959	29284.08
465.165	29984.48
465.37	29632.23
465.575	30181.09
465.781	32136.9
465.986	33021.62
466.191	32403.13
466.397	32247.49
466.602	31975.11
466.807	33769.13
467.012	34311.84
467.218	34918.04
467.423	34782.87
