Data from USB4F104151__54__10-43-33-176.txt Node

Date: Wed Feb 26 10:43:33 EST 2025
User: louis
Spectrometer: USB4F10415
Trigger mode: 4
Integration Time (sec): 1.000000E-1
Scans to average: 1
Electric dark correction enabled: true
Nonlinearity correction enabled: false
Boxcar width: 0
XAxis mode: Wavelengths
Number of Pixels in Spectrum: 3648
>>>>>Begin Spectral Data<<<<<
178.204	-455.33
178.424	-455.33
178.644	-455.33
178.864	-443.04
179.084	-463.52
179.304	42.32
179.524	-64.17
179.744	1.37
179.964	-17.07
180.184	-8.87
180.404	50.52
180.624	105.81
180.844	-8.87
181.064	-105.13
181.283	5.46
181.503	-29.35
181.723	27.99
181.943	-84.65
182.163	165.2
182.383	-27.31
182.602	-0.68
182.822	167.25
183.042	52.56
183.262	9.56
183.482	27.99
183.701	-23.21
183.921	13.65
184.141	-92.84
184.361	89.43
184.58	64.85
184.8	52.56
185.02	-92.84
185.239	122.2
185.459	46.42
185.679	34.13
185.898	-72.36
186.118	52.56
186.338	15.7
186.557	159.06
186.777	-17.07
186.997	-53.93
187.216	73.04
187.436	126.29
187.655	42.32
187.875	23.89
188.095	19.8
188.314	195.92
188.534	118.1
188.753	-105.13
188.973	154.96
189.192	183.63
189.412	-4.78
189.631	52.56
189.851	103.76
190.07	62.8
190.29	-51.88
190.509	-72.36
190.729	-29.35
190.948	87.38
191.168	202.07
191.387	60.76
191.607	15.7
191.826	99.67
192.045	-31.4
192.265	-0.68
192.484	109.91
192.704	109.91
192.923	-82.6
193.142	163.15
193.362	36.18
193.581	71
193.8	83.28
194.02	105.81
194.239	48.47
194.458	68.95
194.678	25.94
194.897	7.51
195.116	77.14
195.335	5.46
195.555	27.99
195.774	-4.78
195.993	120.15
196.212	79.19
196.432	-2.73
196.651	-80.55
196.87	68.95
197.089	202.07
197.308	81.24
197.528	9.56
197.747	-68.27
197.966	71
198.185	97.62
198.404	-107.18
198.623	159.06
198.842	130.39
199.062	97.62
199.281	136.53
199.5	87.38
199.719	27.99
199.938	75.09
200.157	95.57
200.376	93.52
200.595	81.24
200.814	19.8
201.033	5.46
201.252	232.79
201.471	1.37
201.69	60.76
201.909	48.47
202.128	73.04
202.347	103.76
202.566	54.61
202.785	-43.69
203.004	3.41
203.223	191.83
203.442	30.04
203.661	-84.65
203.879	-39.59
204.098	144.72
204.317	-49.83
204.536	13.65
204.755	77.14
204.974	64.85
205.193	-0.68
205.411	56.66
205.63	62.8
205.849	66.9
206.068	3.41
206.287	-60.07
206.505	75.09
206.724	-53.93
206.943	-90.79
207.162	-43.69
207.381	120.15
207.599	27.99
207.818	23.89
208.037	-15.02
208.255	58.71
208.474	25.94
208.693	58.71
208.911	48.47
209.13	85.33
209.349	64.85
209.567	99.67
209.786	-10.92
210.005	95.57
210.223	27.99
210.442	-107.18
210.661	-37.55
210.879	66.9
211.098	23.89
211.316	91.48
211.535	19.8
211.753	87.38
211.972	60.76
212.191	-58.03
212.409	-33.45
212.628	138.58
212.846	-33.45
213.065	27.99
213.283	75.09
213.502	77.14
213.72	48.47
213.938	68.95
214.157	13.65
214.375	68.95
214.594	54.61
214.812	32.08
215.031	23.89
215.249	-62.12
215.467	-19.11
215.686	-25.26
215.904	103.76
216.122	27.99
216.341	169.3
216.559	40.28
216.778	46.42
216.996	111.96
217.214	-37.55
217.432	46.42
217.651	-43.69
217.869	64.85
218.087	17.75
218.306	-23.21
218.524	68.95
218.742	1.37
218.96	83.28
219.179	40.28
219.397	-0.68
219.615	259.41
219.833	71
220.051	-25.26
220.27	79.19
220.488	134.48
220.706	15.7
220.924	-39.59
221.142	7.51
221.36	79.19
221.578	48.47
221.796	23.89
222.015	30.04
222.233	58.71
222.451	142.68
222.669	-23.21
222.887	58.71
223.105	-78.51
223.323	-72.36
223.541	-60.07
223.759	54.61
223.977	-2.73
224.195	140.63
224.413	50.52
224.631	7.51
224.849	93.52
225.067	208.21
225.285	-41.64
225.503	-35.5
225.721	-109.22
225.939	-25.26
226.157	60.76
226.375	165.2
226.592	-23.21
226.81	-2.73
227.028	25.94
227.246	116.05
227.464	68.95
227.682	150.87
227.9	54.61
228.117	36.18
228.335	23.89
228.553	134.48
228.771	71
228.989	-82.6
229.206	97.62
229.424	3.41
229.642	-6.83
229.86	-45.74
230.077	150.87
230.295	52.56
230.513	118.1
230.731	1.37
230.948	146.77
231.166	93.52
231.384	-66.22
231.601	-55.98
231.819	97.62
232.037	-25.26
232.254	-2.73
232.472	77.14
232.689	46.42
232.907	114
233.125	44.37
233.342	-55.98
233.56	-10.92
233.777	-10.92
233.995	54.61
234.213	146.77
234.43	34.13
234.648	25.94
234.865	3.41
235.083	48.47
235.3	-6.83
235.518	-45.74
235.735	120.15
235.953	89.43
236.17	-8.87
236.388	-2.73
236.605	-15.02
236.822	91.48
237.04	163.15
237.257	109.91
237.475	-47.79
237.692	-37.55
237.909	-10.92
238.127	-23.21
238.344	64.85
238.562	64.85
238.779	-10.92
238.996	17.75
239.214	7.51
239.431	48.47
239.648	11.61
239.865	19.8
240.083	103.76
240.3	27.99
240.517	46.42
240.735	36.18
240.952	105.81
241.169	91.48
241.386	58.71
241.603	25.94
241.821	-47.79
242.038	42.32
242.255	109.91
242.472	-82.6
242.689	154.96
242.907	56.66
243.124	85.33
243.341	50.52
243.558	40.28
243.775	-62.12
243.992	-41.64
244.209	99.67
244.426	111.96
244.643	79.19
244.86	93.52
245.078	91.48
245.295	32.08
245.512	-27.31
245.729	-51.88
245.946	11.61
246.163	1.37
246.38	77.14
246.597	124.24
246.814	13.65
247.031	-2.73
247.248	66.9
247.464	85.33
247.681	-12.97
247.898	17.75
248.115	60.76
248.332	25.94
248.549	116.05
248.766	134.48
248.983	116.05
249.2	105.81
249.417	95.57
249.633	36.18
249.85	42.32
250.067	42.32
250.284	36.18
250.501	77.14
250.717	107.86
250.934	-47.79
251.151	-55.98
251.368	-8.87
251.585	34.13
251.801	-15.02
252.018	-8.87
252.235	38.23
252.451	7.51
252.668	-6.83
252.885	40.28
253.102	15.7
253.318	19.8
253.535	-17.07
253.752	15.7
253.968	50.52
254.185	-141.99
254.401	30.04
254.618	64.85
254.835	-78.51
255.051	75.09
255.268	136.53
255.484	52.56
255.701	9.56
255.917	111.96
256.134	-25.26
256.351	-23.21
256.567	-19.11
256.784	11.61
257	-35.5
257.217	75.09
257.433	105.81
257.65	99.67
257.866	148.82
258.082	-152.23
258.299	-41.64
258.515	34.13
258.732	13.65
258.948	-19.11
259.165	-4.78
259.381	-21.16
259.597	58.71
259.814	30.04
260.03	-8.87
260.246	19.8
260.463	73.04
260.679	116.05
260.895	44.37
261.112	75.09
261.328	25.94
261.544	5.46
261.761	171.35
261.977	93.52
262.193	-125.61
262.409	11.61
262.626	60.76
262.842	11.61
263.058	56.66
263.274	107.86
263.49	19.8
263.707	136.53
263.923	99.67
264.139	-60.07
264.355	50.52
264.571	62.8
264.787	48.47
265.004	107.86
265.22	52.56
265.436	-37.55
265.652	-105.13
265.868	36.18
266.084	-66.22
266.3	-19.11
266.516	-58.03
266.732	42.32
266.948	79.19
267.164	17.75
267.38	179.54
267.596	52.56
267.812	175.44
268.028	91.48
268.244	-19.11
268.46	83.28
268.676	-35.5
268.892	48.47
269.108	27.99
269.324	-105.13
269.54	-49.83
269.756	40.28
269.972	-31.4
270.188	7.51
270.403	-131.75
270.619	19.8
270.835	81.24
271.051	-12.97
271.267	44.37
271.483	-70.31
271.698	81.24
271.914	79.19
272.13	-10.92
272.346	5.46
272.562	-58.03
272.777	71
272.993	-12.97
273.209	-27.31
273.425	118.1
273.64	-82.6
273.856	56.66
274.072	21.85
274.287	-55.98
274.503	101.72
274.719	99.67
274.934	-6.83
275.15	-41.64
275.366	5.46
275.581	-12.97
275.797	-17.07
276.012	7.51
276.228	-23.21
276.444	54.61
276.659	177.49
276.875	-53.93
277.09	75.09
277.306	60.76
277.521	34.13
277.737	-12.97
277.952	109.91
278.168	3.41
278.383	134.48
278.599	36.18
278.814	85.33
279.03	-4.78
279.245	167.25
279.461	42.32
279.676	64.85
279.892	-86.7
280.107	-70.31
280.322	-25.26
280.538	62.8
280.753	-29.35
280.969	11.61
281.184	-31.4
281.399	187.73
281.615	134.48
281.83	114
282.045	-29.35
282.26	30.04
282.476	73.04
282.691	40.28
282.906	13.65
283.122	91.48
283.337	-27.31
283.552	50.52
283.767	-72.36
283.983	50.52
284.198	-8.87
284.413	17.75
284.628	-39.59
284.843	-17.07
285.058	107.86
285.274	89.43
285.489	-80.55
285.704	114
285.919	9.56
286.134	-12.97
286.349	5.46
286.564	68.95
286.779	83.28
286.995	48.47
287.21	-144.04
287.425	85.33
287.64	3.41
287.855	50.52
288.07	-35.5
288.285	148.82
288.5	75.09
288.715	58.71
288.93	32.08
289.145	-39.59
289.36	128.34
289.575	-15.02
289.79	146.77
290.004	60.76
290.219	128.34
290.434	-10.92
290.649	-8.87
290.864	-2.73
291.079	-29.35
291.294	21.85
291.509	30.04
291.724	5.46
291.938	62.8
292.153	64.85
292.368	-15.02
292.583	44.37
292.798	58.71
293.012	95.57
293.227	83.28
293.442	5.46
293.657	118.1
293.871	243.03
294.086	85.33
294.301	181.59
294.516	101.72
294.73	-12.97
294.945	-109.22
295.16	136.53
295.374	66.9
295.589	144.72
295.804	-37.55
296.018	64.85
296.233	71
296.447	81.24
296.662	-49.83
296.877	40.28
297.091	60.76
297.306	42.32
297.52	5.46
297.735	19.8
297.949	71
298.164	105.81
298.378	25.94
298.593	-53.93
298.807	64.85
299.022	-6.83
299.236	193.87
299.451	-8.87
299.665	25.94
299.88	40.28
300.094	23.89
300.309	34.13
300.523	95.57
300.737	21.85
300.952	107.86
301.166	27.99
301.381	-37.55
301.595	-21.16
301.809	11.61
302.024	-39.59
302.238	3.41
302.452	101.72
302.667	19.8
302.881	60.76
303.095	103.76
303.309	95.57
303.524	-23.21
303.738	68.95
303.952	15.7
304.166	83.28
304.381	-60.07
304.595	105.81
304.809	-2.73
305.023	-6.83
305.237	-68.27
305.452	-45.74
305.666	44.37
305.88	-4.78
306.094	140.63
306.308	32.08
306.522	126.29
306.736	3.41
306.95	58.71
307.164	-39.59
307.379	-0.68
307.593	191.83
307.807	191.83
308.021	173.39
308.235	27.99
308.449	-129.7
308.663	40.28
308.877	189.78
309.091	87.38
309.305	40.28
309.519	-96.94
309.733	103.76
309.947	-117.42
310.161	11.61
310.374	120.15
310.588	97.62
310.802	48.47
311.016	-35.5
311.23	132.44
311.444	7.51
311.658	64.85
311.872	91.48
312.085	91.48
312.299	163.15
312.513	120.15
312.727	50.52
312.941	-0.68
313.154	101.72
313.368	-10.92
313.582	46.42
313.796	71
314.009	-27.31
314.223	138.58
314.437	17.75
314.651	30.04
314.864	-12.97
315.078	-10.92
315.292	-39.59
315.505	1.37
315.719	11.61
315.933	68.95
316.146	19.8
316.36	-133.8
316.573	150.87
316.787	40.28
317.001	-23.21
317.214	-8.87
317.428	21.85
317.641	23.89
317.855	-6.83
318.068	-21.16
318.282	-19.11
318.495	95.57
318.709	9.56
318.922	-6.83
319.136	103.76
319.349	103.76
319.563	46.42
319.776	79.19
319.99	-92.84
320.203	83.28
320.417	-41.64
320.63	21.85
320.843	206.16
321.057	-6.83
321.27	21.85
321.483	-2.73
321.697	185.68
321.91	58.71
322.124	109.91
322.337	9.56
322.55	17.75
322.763	-8.87
322.977	-23.21
323.19	-33.45
323.403	9.56
323.617	54.61
323.83	152.92
324.043	17.75
324.256	36.18
324.469	-86.7
324.683	1.37
324.896	32.08
325.109	-49.83
325.322	-55.98
325.535	103.76
325.748	32.08
325.962	38.23
326.175	77.14
326.388	87.38
326.601	130.39
326.814	1.37
327.027	52.56
327.24	64.85
327.453	-113.32
327.666	42.32
327.879	148.82
328.092	71
328.305	42.32
328.518	5.46
328.731	-55.98
328.944	-15.02
329.157	146.77
329.37	34.13
329.583	136.53
329.796	118.1
330.009	-119.46
330.222	62.8
330.435	122.2
330.648	32.08
330.861	3.41
331.073	11.61
331.286	64.85
331.499	21.85
331.712	-139.94
331.925	46.42
332.138	-17.07
332.35	103.76
332.563	-12.97
332.776	42.32
332.989	23.89
333.202	21.85
333.414	101.72
333.627	48.47
333.84	-4.78
334.053	3.41
334.265	-33.45
334.478	42.32
334.691	-33.45
334.903	-33.45
335.116	-39.59
335.329	-47.79
335.541	50.52
335.754	146.77
335.966	27.99
336.179	101.72
336.392	44.37
336.604	15.7
336.817	52.56
337.029	150.87
337.242	-10.92
337.454	208.21
337.667	38.23
337.88	75.09
338.092	54.61
338.305	40.28
338.517	-27.31
338.729	103.76
338.942	173.39
339.154	-66.22
339.367	-43.69
339.579	50.52
339.792	-37.55
340.004	9.56
340.217	13.65
340.429	36.18
340.641	-33.45
340.854	-25.26
341.066	13.65
341.278	62.8
341.491	161.11
341.703	109.91
341.915	38.23
342.128	30.04
342.34	64.85
342.552	-55.98
342.764	34.13
342.977	1.37
343.189	46.42
343.401	54.61
343.613	-10.92
343.826	99.67
344.038	-74.41
344.25	66.9
344.462	30.04
344.674	75.09
344.886	-33.45
345.099	42.32
345.311	103.76
345.523	-29.35
345.735	13.65
345.947	13.65
346.159	-21.16
346.371	-17.07
346.583	7.51
346.795	152.92
347.007	-12.97
347.219	64.85
347.431	19.8
347.643	163.15
347.855	9.56
348.067	206.16
348.279	-55.98
348.491	15.7
348.703	105.81
348.915	38.23
349.127	1.37
349.339	34.13
349.551	-25.26
349.763	114
349.975	50.52
350.187	64.85
350.399	118.1
350.61	136.53
350.822	-31.4
351.034	19.8
351.246	62.8
351.458	25.94
351.669	130.39
351.881	71
352.093	124.24
352.305	116.05
352.517	1.37
352.728	126.29
352.94	60.76
353.152	103.76
353.363	42.32
353.575	81.24
353.787	157.01
353.999	105.81
354.21	150.87
354.422	-94.89
354.633	-2.73
354.845	19.8
355.057	11.61
355.268	-15.02
355.48	165.2
355.692	-47.79
355.903	38.23
356.115	7.51
356.326	-88.75
356.538	220.5
356.749	54.61
356.961	142.68
357.172	75.09
357.384	-70.31
357.595	171.35
357.807	-55.98
358.018	15.7
358.23	38.23
358.441	216.4
358.653	79.19
358.864	-17.07
359.075	-6.83
359.287	62.8
359.498	136.53
359.709	13.65
359.921	15.7
360.132	25.94
360.344	52.56
360.555	-39.59
360.766	46.42
360.977	23.89
361.189	103.76
361.4	-29.35
361.611	99.67
361.823	197.97
362.034	23.89
362.245	-10.92
362.456	19.8
362.667	75.09
362.879	36.18
363.09	40.28
363.301	109.91
363.512	-29.35
363.723	19.8
363.935	-70.31
364.146	124.24
364.357	58.71
364.568	38.23
364.779	-123.56
364.99	111.96
365.201	-27.31
365.412	111.96
365.623	-133.8
365.834	79.19
366.045	38.23
366.256	99.67
366.467	105.81
366.678	15.7
366.889	111.96
367.1	-8.87
367.311	109.91
367.522	-41.64
367.733	56.66
367.944	107.86
368.155	15.7
368.366	40.28
368.577	87.38
368.788	87.38
368.999	-55.98
369.209	-4.78
369.42	175.44
369.631	240.98
369.842	103.76
370.053	60.76
370.264	140.63
370.474	3.41
370.685	48.47
370.896	25.94
371.107	77.14
371.317	118.1
371.528	-19.11
371.739	81.24
371.95	60.76
372.16	44.37
372.371	-19.11
372.582	-33.45
372.792	97.62
373.003	34.13
373.214	79.19
373.424	52.56
373.635	7.51
373.846	144.72
374.056	15.7
374.267	7.51
374.477	142.68
374.688	-8.87
374.898	144.72
375.109	44.37
375.319	-15.02
375.53	120.15
375.74	11.61
375.951	19.8
376.161	75.09
376.372	101.72
376.582	17.75
376.793	71
377.003	-64.17
377.214	34.13
377.424	87.38
377.635	21.85
377.845	5.46
378.055	79.19
378.266	11.61
378.476	50.52
378.686	109.91
378.897	7.51
379.107	130.39
379.317	34.13
379.528	138.58
379.738	134.48
379.948	-109.22
380.158	107.86
380.369	-49.83
380.579	21.85
380.789	30.04
380.999	130.39
381.21	105.81
381.42	154.96
381.63	-4.78
381.84	46.42
382.05	109.91
382.261	183.63
382.471	91.48
382.681	52.56
382.891	128.34
383.101	58.71
383.311	-35.5
383.521	30.04
383.731	157.01
383.941	99.67
384.151	19.8
384.361	25.94
384.571	25.94
384.781	83.28
384.991	142.68
385.201	132.44
385.411	103.76
385.621	32.08
385.831	116.05
386.041	36.18
386.251	60.76
386.461	173.39
386.671	50.52
386.881	101.72
387.091	-21.16
387.301	124.24
387.511	-0.68
387.72	103.76
387.93	114
388.14	-45.74
388.35	32.08
388.56	73.04
388.769	130.39
388.979	7.51
389.189	-31.4
389.399	40.28
389.609	11.61
389.818	44.37
390.028	79.19
390.238	89.43
390.447	-60.07
390.657	27.99
390.867	54.61
391.076	-47.79
391.286	30.04
391.496	32.08
391.705	75.09
391.915	87.38
392.125	64.85
392.334	54.61
392.544	124.24
392.753	105.81
392.963	-4.78
393.172	73.04
393.382	21.85
393.591	173.39
393.801	107.86
394.01	167.25
394.22	91.48
394.429	5.46
394.639	-10.92
394.848	79.19
395.058	44.37
395.267	30.04
395.477	54.61
395.686	1.37
395.895	134.48
396.105	122.2
396.314	19.8
396.524	15.7
396.733	-49.83
396.942	77.14
397.152	146.77
397.361	89.43
397.57	48.47
397.78	25.94
397.989	93.52
398.198	214.35
398.407	-53.93
398.617	103.76
398.826	120.15
399.035	38.23
399.244	50.52
399.453	62.8
399.663	83.28
399.872	111.96
400.081	-84.65
400.29	109.91
400.499	-0.68
400.708	114
400.917	36.18
401.127	66.9
401.336	52.56
401.545	159.06
401.754	144.72
401.963	48.47
402.172	15.7
402.381	-74.41
402.59	17.75
402.799	32.08
403.008	175.44
403.217	-0.68
403.426	56.66
403.635	-74.41
403.844	-0.68
404.053	-2.73
404.262	52.56
404.471	197.97
404.68	-10.92
404.888	15.7
405.097	36.18
405.306	103.76
405.515	109.91
405.724	81.24
405.933	75.09
406.142	83.28
406.35	161.11
406.559	3.41
406.768	105.81
406.977	159.06
407.185	107.86
407.394	118.1
407.603	9.56
407.812	75.09
408.02	73.04
408.229	46.42
408.438	93.52
408.646	-133.8
408.855	48.47
409.064	73.04
409.272	66.9
409.481	111.96
409.69	-76.46
409.898	44.37
410.107	66.9
410.315	95.57
410.524	-29.35
410.733	19.8
410.941	-0.68
411.15	144.72
411.358	95.57
411.567	150.87
411.775	95.57
411.984	30.04
412.192	89.43
412.401	25.94
412.609	173.39
412.818	136.53
413.026	25.94
413.234	77.14
413.443	73.04
413.651	-29.35
413.86	1.37
414.068	111.96
414.276	130.39
414.485	-6.83
414.693	212.31
414.901	224.59
415.11	79.19
415.318	15.7
415.526	73.04
415.734	128.34
415.943	48.47
416.151	130.39
416.359	52.56
416.567	91.48
416.776	66.9
416.984	85.33
417.192	161.11
417.4	52.56
417.608	7.51
417.817	-23.21
418.025	97.62
418.233	159.06
418.441	-55.98
418.649	13.65
418.857	93.52
419.065	152.92
419.273	109.91
419.481	38.23
419.689	95.57
419.897	3.41
420.105	-25.26
420.313	179.54
420.521	146.77
420.729	222.55
420.937	30.04
421.145	-53.93
421.353	120.15
421.561	181.59
421.769	114
421.977	3.41
422.185	128.34
422.393	40.28
422.601	132.44
422.809	85.33
423.017	40.28
423.224	71
423.432	66.9
423.64	93.52
423.848	66.9
424.056	-25.26
424.263	140.63
424.471	19.8
424.679	140.63
424.887	-15.02
425.094	193.87
425.302	107.86
425.51	21.85
425.718	128.34
425.925	81.24
426.133	30.04
426.341	212.31
426.548	40.28
426.756	-15.02
426.964	75.09
427.171	32.08
427.379	52.56
427.586	50.52
427.794	130.39
428.001	138.58
428.209	34.13
428.417	144.72
428.624	77.14
428.832	107.86
429.039	173.39
429.247	134.48
429.454	243.03
429.662	286.03
429.869	136.53
430.076	157.01
430.284	189.78
430.491	220.5
430.699	146.77
430.906	230.74
431.114	142.68
431.321	150.87
431.528	150.87
431.736	204.11
431.943	171.35
432.15	130.39
432.358	210.26
432.565	310.61
432.772	44.37
432.979	294.22
433.187	177.49
433.394	308.56
433.601	185.68
433.808	269.65
434.016	279.89
434.223	195.92
434.43	173.39
434.637	279.89
434.844	355.66
435.052	200.02
435.259	304.46
435.466	314.7
435.673	400.72
435.88	326.99
436.087	404.82
436.294	458.06
436.501	363.86
436.708	308.56
436.915	261.46
437.122	417.1
437.329	298.32
437.537	445.77
437.743	402.77
437.95	499.02
438.157	449.87
438.364	447.82
438.571	398.67
438.778	515.41
438.985	531.79
439.192	486.73
439.399	482.64
439.606	482.64
439.813	582.99
440.02	732.49
440.227	798.03
440.433	531.79
440.64	742.73
440.847	552.27
441.054	714.06
441.261	875.85
441.467	681.29
441.674	699.72
441.881	830.79
442.088	736.59
442.294	888.14
442.501	902.47
442.708	933.19
442.914	963.91
443.121	947.53
443.328	1068.36
443.534	1181
443.741	1131.84
443.948	992.58
444.154	1193.28
444.361	1498.43
444.568	1178.95
444.774	1203.52
444.981	1244.48
445.187	1510.72
445.394	1295.68
445.6	1396.03
445.807	1551.68
446.013	1623.36
446.22	1531.2
446.426	1713.47
446.633	1750.33
446.839	1996.09
447.046	1711.42
447.252	1948.98
447.459	1932.6
447.665	2057.53
447.871	2184.5
448.078	2338.1
448.284	2260.27
448.491	2551.09
448.697	2487.6
448.903	2620.72
449.11	2620.72
449.316	2706.73
449.522	2850.09
449.728	2856.23
449.935	3052.84
450.141	2944.3
450.347	3362.08
450.553	3278.12
450.76	3345.7
450.966	3685.66
451.172	3597.6
451.378	3912.99
451.584	3886.36
451.791	4244.76
451.997	4422.93
452.203	4414.74
452.409	4656.4
452.615	4842.76
452.821	4668.69
453.027	4578.58
453.233	5494.02
453.44	5272.84
453.646	5491.97
453.852	5592.32
454.058	5924.09
454.264	5885.18
454.47	6530.29
454.676	6474.99
454.882	7191.78
455.088	6724.85
455.294	7232.74
455.5	7707.87
455.705	8115.42
455.911	7884
456.117	8471.76
456.323	8617.17
456.529	8580.31
456.735	9344.2
456.941	9641.15
457.147	10147
457.352	10149.05
457.558	10695.86
457.764	11244.71
457.97	11261.1
458.176	12145.82
458.381	12739.73
458.587	12635.28
458.793	13350.03
458.999	13540.49
459.204	15055.98
459.41	15438.95
459.616	15201.39
459.821	16217.18
460.027	16944.21
460.233	17736.77
460.438	17531.98
460.644	18986.04
460.85	18830.39
461.055	19801.13
461.261	20782.1
461.466	20288.54
461.672	20683.8
461.878	23124.98
462.083	22838.26
462.289	23395.31
462.494	24255.46
462.7	24497.12
462.905	24742.88
463.111	26676.16
463.316	28316.58
463.522	28771.23
463.727	29258.65
463.932	30692.22
464.138	32136.04
464.343	32813.92
464.549	33096.54
464.754	35476.28
464.959	36440.87
465.165	37274.4
465.37	36674.34
465.575	36715.3
465.781	39207.68
465.986	40411.88
466.191	39805.69
466.397	40047.35
466.602	39224.06
466.807	41499.36
467.012	42117.84
467.218	43053.76
467.423	42873.54
467.628	44573.36
467.833	46523.02
468.038	45011.62
468.244	44831.4
468.449	46869.13
468.654	46013.08
