Data from USB4F104151__223__11-06-10-427.txt Node

Date: Wed Feb 26 11:06:10 EST 2025
User: louis
Spectrometer: USB4F10415
Trigger mode: 4
Integration Time (sec): 1.000000E-1
Scans to average: 1
Electric dark correction enabled: true
Nonlinearity correction enabled: false
Boxcar width: 0
XAxis mode: Wavelengths
Number of Pixels in Spectrum: 3648
>>>>>Begin Spectral Data<<<<<
178.204	-423.08
178.424	-423.08
178.644	-423.08
178.864	-435.36
179.084	-443.56
179.304	15.19
179.524	-40.11
179.744	-48.3
179.964	-3.24
180.184	17.24
180.404	19.29
180.624	70.48
180.844	-60.59
181.064	-66.73
181.283	105.3
181.503	-42.15
181.723	33.62
181.943	-117.93
182.163	158.55
182.383	-103.59
182.602	76.63
182.822	146.26
183.042	78.68
183.262	-70.83
183.482	-64.68
183.701	50
183.921	82.77
184.141	-38.06
184.361	99.16
184.58	101.2
184.8	13.14
185.02	4.95
185.239	99.16
185.459	47.96
185.679	174.93
185.898	-97.45
186.118	99.16
186.338	-15.53
186.557	88.92
186.777	-25.77
186.997	31.57
187.216	-3.24
187.436	226.13
187.655	119.64
187.875	7
188.095	54.1
188.314	54.1
188.534	125.78
188.753	-11.43
188.973	23.38
189.192	119.64
189.412	31.57
189.631	-5.29
189.851	58.2
190.07	174.93
190.29	-52.39
190.509	-33.96
190.729	68.44
190.948	125.78
191.168	234.32
191.387	58.2
191.607	39.76
191.826	109.4
192.045	35.67
192.265	-11.43
192.484	17.24
192.704	76.63
192.923	-54.44
193.142	195.41
193.362	127.83
193.581	166.74
193.8	80.72
194.02	56.15
194.239	41.81
194.458	88.92
194.678	-68.78
194.897	2.9
195.116	47.96
195.335	11.09
195.555	95.06
195.774	17.24
195.993	127.83
196.212	105.3
196.432	-52.39
196.651	-13.48
196.87	11.09
197.089	213.84
197.308	19.29
197.528	160.59
197.747	-54.44
197.966	82.77
198.185	129.88
198.404	-31.91
198.623	95.06
198.842	121.68
199.062	136.02
199.281	90.96
199.5	13.14
199.719	-3.24
199.938	35.67
200.157	113.49
200.376	97.11
200.595	70.48
200.814	11.09
201.033	-38.06
201.252	138.07
201.471	52.05
201.69	93.01
201.909	-46.25
202.128	64.34
202.347	-3.24
202.566	58.2
202.785	-76.97
203.004	31.57
203.223	242.51
203.442	56.15
203.661	-19.63
203.879	82.77
204.098	168.79
204.317	-119.98
204.536	101.2
204.755	52.05
204.974	115.54
205.193	58.2
205.411	39.76
205.63	107.35
205.849	25.43
206.068	2.9
206.287	-19.63
206.505	37.72
206.724	41.81
206.943	-95.4
207.162	9.05
207.381	197.46
207.599	-7.34
207.818	45.91
208.037	-105.64
208.255	60.24
208.474	45.91
208.693	21.33
208.911	0.85
209.13	109.4
209.349	45.91
209.567	86.87
209.786	82.77
210.005	119.64
210.223	39.76
210.442	-68.78
210.661	-23.72
210.879	-38.06
211.098	-1.19
211.316	50
211.535	160.59
211.753	72.53
211.972	97.11
212.191	-23.72
212.409	17.24
212.628	39.76
212.846	-5.29
213.065	-1.19
213.283	109.4
213.502	13.14
213.72	27.48
213.938	23.38
214.157	-56.49
214.375	140.12
214.594	-7.34
214.812	68.44
215.031	-99.5
215.249	-11.43
215.467	62.29
215.686	15.19
215.904	150.36
216.122	17.24
216.341	125.78
216.559	82.77
216.778	80.72
216.996	142.16
217.214	35.67
217.432	-11.43
217.651	-119.98
217.869	33.62
218.087	9.05
218.306	-9.39
218.524	2.9
218.742	2.9
218.96	125.78
219.179	-7.34
219.397	-31.91
219.615	201.55
219.833	117.59
220.051	-56.49
220.27	64.34
220.488	95.06
220.706	-19.63
220.924	-58.54
221.142	2.9
221.36	64.34
221.578	66.39
221.796	74.58
222.015	115.54
222.233	-23.72
222.451	156.5
222.669	-13.48
222.887	35.67
223.105	11.09
223.323	-9.39
223.541	-27.82
223.759	39.76
223.977	84.82
224.195	144.21
224.413	72.53
224.631	58.2
224.849	-19.63
225.067	176.98
225.285	2.9
225.503	7
225.721	-136.36
225.939	54.1
226.157	107.35
226.375	164.69
226.592	-29.87
226.81	-29.87
227.028	107.35
227.246	115.54
227.464	52.05
227.682	156.5
227.9	43.86
228.117	93.01
228.335	111.44
228.553	0.85
228.771	-19.63
228.989	19.29
229.206	123.73
229.424	-23.72
229.642	-15.53
229.86	-36.01
230.077	113.49
230.295	103.25
230.513	47.96
230.731	27.48
230.948	174.93
231.166	193.36
231.384	15.19
231.601	-38.06
231.819	54.1
232.037	-56.49
232.254	15.19
232.472	15.19
232.689	45.91
232.907	86.87
233.125	-68.78
233.342	-29.87
233.56	17.24
233.777	-21.67
233.995	-19.63
234.213	133.97
234.43	37.72
234.648	0.85
234.865	82.77
235.083	97.11
235.3	68.44
235.518	121.68
235.735	119.64
235.953	133.97
236.17	23.38
236.388	-15.53
236.605	47.96
236.822	82.77
237.04	127.83
237.257	35.67
237.475	-107.69
237.692	-9.39
237.909	23.38
238.127	-7.34
238.344	82.77
238.562	-5.29
238.779	-99.5
238.996	-17.58
239.214	31.57
239.431	47.96
239.648	-31.91
239.865	64.34
240.083	84.82
240.3	4.95
240.517	-17.58
240.735	78.68
240.952	211.79
241.169	107.35
241.386	103.25
241.603	-29.87
241.821	-33.96
242.038	64.34
242.255	162.64
242.472	-36.01
242.689	86.87
242.907	27.48
243.124	76.63
243.341	50
243.558	31.57
243.775	-25.77
243.992	-70.83
244.209	140.12
244.426	185.17
244.643	107.35
244.86	7
245.078	78.68
245.295	19.29
245.512	23.38
245.729	-46.25
245.946	131.92
246.163	123.73
246.38	76.63
246.597	111.44
246.814	7
247.031	-46.25
247.248	11.09
247.464	125.78
247.681	50
247.898	39.76
248.115	39.76
248.332	-29.87
248.549	109.4
248.766	199.51
248.983	170.83
249.2	80.72
249.417	101.2
249.633	47.96
249.85	82.77
250.067	50
250.284	-21.67
250.501	103.25
250.717	33.62
250.934	-3.24
251.151	15.19
251.368	7
251.585	111.44
251.801	50
252.018	-13.48
252.235	47.96
252.451	17.24
252.668	31.57
252.885	86.87
253.102	17.24
253.318	-11.43
253.535	-68.78
253.752	-17.58
253.968	-25.77
254.185	-21.67
254.401	-15.53
254.618	111.44
254.835	-46.25
255.051	148.31
255.268	64.34
255.484	58.2
255.701	17.24
255.917	121.68
256.134	-5.29
256.351	84.82
256.567	4.95
256.784	33.62
257	-15.53
257.217	66.39
257.433	86.87
257.65	31.57
257.866	121.68
258.082	27.48
258.299	-31.91
258.515	62.29
258.732	23.38
258.948	9.05
259.165	45.91
259.381	-19.63
259.597	133.97
259.814	21.33
260.03	-42.15
260.246	-36.01
260.463	101.2
260.679	103.25
260.895	45.91
261.112	39.76
261.328	-25.77
261.544	-11.43
261.761	240.47
261.977	-17.58
262.193	-5.29
262.409	72.53
262.626	-3.24
262.842	33.62
263.058	-79.02
263.274	84.82
263.49	7
263.707	64.34
263.923	-7.34
264.139	-33.96
264.355	2.9
264.571	99.16
264.787	119.64
265.004	58.2
265.22	15.19
265.436	41.81
265.652	35.67
265.868	80.72
266.084	-68.78
266.3	-13.48
266.516	-62.63
266.732	31.57
266.948	47.96
267.164	-33.96
267.38	146.26
267.596	129.88
267.812	156.5
268.028	115.54
268.244	-42.15
268.46	-25.77
268.676	15.19
268.892	9.05
269.108	7
269.324	-17.58
269.54	-74.92
269.756	93.01
269.972	-124.07
270.188	66.39
270.403	-83.11
270.619	21.33
270.835	54.1
271.051	90.96
271.267	43.86
271.483	-74.92
271.698	119.64
271.914	74.58
272.13	11.09
272.346	-54.44
272.562	31.57
272.777	148.31
272.993	23.38
273.209	-33.96
273.425	88.92
273.64	-72.87
273.856	37.72
274.072	-46.25
274.287	31.57
274.503	72.53
274.719	29.52
274.934	-31.91
275.15	-146.6
275.366	86.87
275.581	-62.63
275.797	21.33
276.012	-33.96
276.228	37.72
276.444	50
276.659	72.53
276.875	-38.06
277.09	35.67
277.306	-79.02
277.521	52.05
277.737	2.9
277.952	23.38
278.168	29.52
278.383	27.48
278.599	25.43
278.814	125.78
279.03	39.76
279.245	133.97
279.461	41.81
279.676	133.97
279.892	-95.4
280.107	-56.49
280.322	-72.87
280.538	35.67
280.753	29.52
280.969	33.62
281.184	41.81
281.399	156.5
281.615	-27.82
281.83	35.67
282.045	-85.16
282.26	-9.39
282.476	-3.24
282.691	101.2
282.906	152.4
283.122	45.91
283.337	7
283.552	123.73
283.767	-25.77
283.983	115.54
284.198	-25.77
284.413	72.53
284.628	-46.25
284.843	35.67
285.058	23.38
285.274	27.48
285.489	-31.91
285.704	99.16
285.919	-44.2
286.134	11.09
286.349	-31.91
286.564	54.1
286.779	119.64
286.995	25.43
287.21	-101.55
287.425	117.59
287.64	-19.63
287.855	43.86
288.07	-23.72
288.285	115.54
288.5	54.1
288.715	74.58
288.93	52.05
289.145	-27.82
289.36	121.68
289.575	11.09
289.79	150.36
290.004	-3.24
290.219	166.74
290.434	-36.01
290.649	-38.06
290.864	-5.29
291.079	11.09
291.294	-3.24
291.509	125.78
291.724	13.14
291.938	17.24
292.153	43.86
292.368	99.16
292.583	33.62
292.798	52.05
293.012	68.44
293.227	58.2
293.442	2.9
293.657	50
293.871	181.07
294.086	70.48
294.301	56.15
294.516	119.64
294.73	-29.87
294.945	-38.06
295.16	15.19
295.374	105.3
295.589	113.49
295.804	-21.67
296.018	43.86
296.233	99.16
296.447	4.95
296.662	47.96
296.877	80.72
297.091	76.63
297.306	35.67
297.52	-40.11
297.735	17.24
297.949	39.76
298.164	86.87
298.378	23.38
298.593	-74.92
298.807	-19.63
299.022	23.38
299.236	162.64
299.451	0.85
299.665	4.95
299.88	76.63
300.094	95.06
300.309	58.2
300.523	74.58
300.737	21.33
300.952	80.72
301.166	-29.87
301.381	-42.15
301.595	60.24
301.809	37.72
302.024	13.14
302.238	2.9
302.452	125.78
302.667	45.91
302.881	140.12
303.095	7
303.309	35.67
303.524	45.91
303.738	111.44
303.952	-21.67
304.166	11.09
304.381	-107.69
304.595	197.46
304.809	-15.53
305.023	33.62
305.237	-21.67
305.452	-7.34
305.666	66.39
305.88	80.72
306.094	125.78
306.308	62.29
306.522	37.72
306.736	117.59
306.95	99.16
307.164	-13.48
307.379	52.05
307.593	113.49
307.807	52.05
308.021	170.83
308.235	115.54
308.449	-62.63
308.663	45.91
308.877	244.56
309.091	13.14
309.305	127.83
309.519	-150.7
309.733	136.02
309.947	-103.59
310.161	74.58
310.374	39.76
310.588	56.15
310.802	-38.06
311.016	-19.63
311.23	50
311.444	-1.19
311.658	-29.87
311.872	150.36
312.085	127.83
312.299	144.21
312.513	154.45
312.727	21.33
312.941	-79.02
313.154	88.92
313.368	-25.77
313.582	37.72
313.796	2.9
314.009	119.64
314.223	185.17
314.437	54.1
314.651	158.55
314.864	-79.02
315.078	27.48
315.292	-76.97
315.505	23.38
315.719	50
315.933	103.25
316.146	29.52
316.36	4.95
316.573	131.92
316.787	41.81
317.001	117.59
317.214	-85.16
317.428	39.76
317.641	-85.16
317.855	2.9
318.068	80.72
318.282	76.63
318.495	90.96
318.709	78.68
318.922	64.34
319.136	156.5
319.349	144.21
319.563	-21.67
319.776	50
319.99	-62.63
320.203	-31.91
320.417	-36.01
320.63	52.05
320.843	111.44
321.057	2.9
321.27	76.63
321.483	90.96
321.697	156.5
321.91	39.76
322.124	45.91
322.337	95.06
322.55	7
322.763	4.95
322.977	13.14
323.19	-3.24
323.403	35.67
323.617	45.91
323.83	97.11
324.043	113.49
324.256	56.15
324.469	-87.21
324.683	105.3
324.896	50
325.109	64.34
325.322	-128.17
325.535	123.73
325.748	103.25
325.962	-9.39
326.175	58.2
326.388	27.48
326.601	170.83
326.814	-60.59
327.027	29.52
327.24	232.27
327.453	-81.07
327.666	80.72
327.879	64.34
328.092	27.48
328.305	-31.91
328.518	-17.58
328.731	-76.97
328.944	50
329.157	43.86
329.37	39.76
329.583	150.36
329.796	179.03
330.009	-79.02
330.222	117.59
330.435	84.82
330.648	27.48
330.861	-33.96
331.073	15.19
331.286	156.5
331.499	31.57
331.712	-38.06
331.925	-85.16
332.138	19.29
332.35	111.44
332.563	11.09
332.776	131.92
332.989	-25.77
333.202	23.38
333.414	-60.59
333.627	74.58
333.84	-36.01
334.053	66.39
334.265	-93.35
334.478	-1.19
334.691	-9.39
334.903	70.48
335.116	-1.19
335.329	39.76
335.541	80.72
335.754	123.73
335.966	9.05
336.179	31.57
336.392	82.77
336.604	-9.39
336.817	74.58
337.029	119.64
337.242	-3.24
337.454	97.11
337.667	-1.19
337.88	152.4
338.092	11.09
338.305	84.82
338.517	15.19
338.729	140.12
338.942	142.16
339.154	-36.01
339.367	-25.77
339.579	127.83
339.792	-107.69
340.004	129.88
340.217	50
340.429	25.43
340.641	-52.39
340.854	0.85
341.066	72.53
341.278	-1.19
341.491	170.83
341.703	54.1
341.915	2.9
342.128	64.34
342.34	43.86
342.552	-91.31
342.764	39.76
342.977	39.76
343.189	64.34
343.401	4.95
343.613	-79.02
343.826	88.92
344.038	-42.15
344.25	90.96
344.462	17.24
344.674	29.52
344.886	66.39
345.099	93.01
345.311	56.15
345.523	2.9
345.735	-89.26
345.947	125.78
346.159	84.82
346.371	27.48
346.583	66.39
346.795	238.42
347.007	27.48
347.219	68.44
347.431	41.81
347.643	107.35
347.855	4.95
348.067	123.73
348.279	-95.4
348.491	2.9
348.703	76.63
348.915	-9.39
349.127	62.29
349.339	43.86
349.551	56.15
349.763	80.72
349.975	-23.72
350.187	152.4
350.399	115.54
350.61	146.26
350.822	43.86
351.034	37.72
351.246	72.53
351.458	50
351.669	117.59
351.881	156.5
352.093	111.44
352.305	113.49
352.517	140.12
352.728	109.4
352.94	107.35
353.152	127.83
353.363	-48.3
353.575	27.48
353.787	127.83
353.999	-1.19
354.21	152.4
354.422	74.58
354.633	86.87
354.845	31.57
355.057	52.05
355.268	58.2
355.48	107.35
355.692	-44.2
355.903	23.38
356.115	-31.91
356.326	-89.26
356.538	131.92
356.749	105.3
356.961	154.45
357.172	121.68
357.384	29.52
357.595	119.64
357.807	-50.35
358.018	35.67
358.23	62.29
358.441	164.69
358.653	-11.43
358.864	37.72
359.075	-19.63
359.287	50
359.498	138.07
359.709	109.4
359.921	43.86
360.132	121.68
360.344	-5.29
360.555	4.95
360.766	121.68
360.977	105.3
361.189	115.54
361.4	52.05
361.611	115.54
361.823	56.15
362.034	31.57
362.245	-91.31
362.456	21.33
362.667	111.44
362.879	50
363.09	-1.19
363.301	95.06
363.512	95.06
363.723	-44.2
363.935	68.44
364.146	50
364.357	-9.39
364.568	66.39
364.779	-130.22
364.99	93.01
365.201	-48.3
365.412	131.92
365.623	-146.6
365.834	41.81
366.045	7
366.256	-1.19
366.467	25.43
366.678	33.62
366.889	41.81
367.1	23.38
367.311	95.06
367.522	-3.24
367.733	27.48
367.944	43.86
368.155	60.24
368.366	76.63
368.577	78.68
368.788	136.02
368.999	-7.34
369.209	-7.34
369.42	174.93
369.631	203.6
369.842	115.54
370.053	29.52
370.264	105.3
370.474	17.24
370.685	72.53
370.896	29.52
371.107	93.01
371.317	97.11
371.528	29.52
371.739	217.94
371.95	97.11
372.16	113.49
372.371	-60.59
372.582	-25.77
372.792	121.68
373.003	0.85
373.214	66.39
373.424	19.29
373.635	-5.29
373.846	164.69
374.056	-19.63
374.267	111.44
374.477	52.05
374.688	19.29
374.898	43.86
375.109	15.19
375.319	43.86
375.53	76.63
375.74	72.53
375.951	58.2
376.161	15.19
376.372	172.88
376.582	31.57
376.793	107.35
377.003	-17.58
377.214	29.52
377.424	60.24
377.635	11.09
377.845	-58.54
378.055	215.89
378.266	-36.01
378.476	7
378.686	70.48
378.897	25.43
379.107	115.54
379.317	105.3
379.528	41.81
379.738	115.54
379.948	-60.59
380.158	78.68
380.369	-5.29
380.579	152.4
380.789	13.14
380.999	66.39
381.21	101.2
381.42	222.03
381.63	35.67
381.84	47.96
382.05	127.83
382.261	82.77
382.471	45.91
382.681	-52.39
382.891	95.06
383.101	109.4
383.311	-60.59
383.521	-29.87
383.731	136.02
383.941	127.83
384.151	33.62
384.361	-52.39
384.571	84.82
384.781	52.05
384.991	265.04
385.201	232.27
385.411	66.39
385.621	88.92
385.831	84.82
386.041	21.33
386.251	39.76
386.461	125.78
386.671	-27.82
386.881	43.86
387.091	-48.3
387.301	41.81
387.511	21.33
387.72	95.06
387.93	131.92
388.14	23.38
388.35	50
388.56	138.07
388.769	219.99
388.979	74.58
389.189	-33.96
389.399	-21.67
389.609	37.72
389.818	4.95
390.028	2.9
390.238	52.05
390.447	-31.91
390.657	56.15
390.867	-42.15
391.076	19.29
391.286	88.92
391.496	-11.43
391.705	-31.91
391.915	88.92
392.125	82.77
392.334	-3.24
392.544	97.11
392.753	88.92
392.963	-72.87
393.172	-31.91
393.382	58.2
393.591	162.64
393.801	-23.72
394.01	115.54
394.22	121.68
394.429	17.24
394.639	-15.53
394.848	13.14
395.058	76.63
395.267	9.05
395.477	78.68
395.686	33.62
395.895	222.03
396.105	111.44
396.314	60.24
396.524	58.2
396.733	-21.67
396.942	166.74
397.152	99.16
397.361	121.68
397.57	125.78
397.78	105.3
397.989	90.96
398.198	181.07
398.407	60.24
398.617	0.85
398.826	31.57
399.035	19.29
399.244	129.88
399.453	82.77
399.663	101.2
399.872	13.14
400.081	9.05
400.29	133.97
400.499	15.19
400.708	93.01
400.917	43.86
401.127	-11.43
401.336	21.33
401.545	166.74
401.754	109.4
401.963	62.29
402.172	-11.43
402.381	-19.63
402.59	23.38
402.799	-9.39
403.008	70.48
403.217	-15.53
403.426	37.72
403.635	-72.87
403.844	82.77
404.053	7
404.262	-54.44
404.471	160.59
404.68	82.77
404.888	31.57
405.097	-44.2
405.306	74.58
405.515	111.44
405.724	64.34
405.933	107.35
406.142	74.58
406.35	123.73
406.559	7
406.768	60.24
406.977	127.83
407.185	103.25
407.394	95.06
407.603	-7.34
407.812	43.86
408.02	58.2
408.229	58.2
408.438	29.52
408.646	-48.3
408.855	88.92
409.064	7
409.272	90.96
409.481	93.01
409.69	64.34
409.898	78.68
410.107	80.72
410.315	123.73
410.524	43.86
410.733	64.34
410.941	72.53
411.15	129.88
411.358	117.59
411.567	246.61
411.775	15.19
411.984	37.72
412.192	82.77
412.401	-25.77
412.609	164.69
412.818	37.72
413.026	41.81
413.234	68.44
413.443	0.85
413.651	11.09
413.86	2.9
414.068	138.07
414.276	131.92
414.485	-7.34
414.693	60.24
414.901	152.4
415.11	86.87
415.318	74.58
415.526	58.2
415.734	131.92
415.943	52.05
416.151	183.12
416.359	64.34
416.567	95.06
416.776	84.82
416.984	133.97
417.192	195.41
417.4	-33.96
417.608	43.86
417.817	-79.02
418.025	131.92
418.233	181.07
418.441	-54.44
418.649	17.24
418.857	117.59
419.065	111.44
419.273	47.96
419.481	35.67
419.689	70.48
419.897	-27.82
420.105	7
420.313	115.54
420.521	181.07
420.729	119.64
420.937	13.14
421.145	-56.49
421.353	105.3
421.561	152.4
421.769	-9.39
421.977	-7.34
422.185	164.69
422.393	80.72
422.601	144.21
422.809	66.39
423.017	115.54
423.224	31.57
423.432	207.7
423.64	-9.39
423.848	82.77
424.056	-83.11
424.263	125.78
424.471	37.72
424.679	95.06
424.887	-42.15
425.094	154.45
425.302	121.68
425.51	-9.39
425.718	115.54
425.925	82.77
426.133	0.85
426.341	146.26
426.548	103.25
426.756	-38.06
426.964	56.15
427.171	25.43
427.379	68.44
427.586	45.91
427.794	72.53
428.001	84.82
428.209	93.01
428.417	123.73
428.624	213.84
428.832	150.36
429.039	78.68
429.247	123.73
429.454	189.27
429.662	207.7
429.869	156.5
430.076	107.35
430.284	152.4
430.491	117.59
430.699	160.59
430.906	191.31
431.114	115.54
431.321	133.97
431.528	105.3
431.736	164.69
431.943	105.3
432.15	117.59
432.358	185.17
432.565	301.9
432.772	47.96
432.979	207.7
433.187	121.68
433.394	213.84
433.601	86.87
433.808	199.51
434.016	201.55
434.223	269.14
434.43	226.13
434.637	217.94
434.844	279.38
435.052	193.36
435.259	269.14
435.466	299.86
435.673	252.75
435.88	265.04
436.087	230.23
436.294	291.66
436.501	252.75
436.708	162.64
436.915	299.86
437.122	338.77
437.329	215.89
437.537	320.34
437.743	367.44
437.95	383.82
438.157	322.38
438.364	328.53
438.571	338.77
438.778	402.26
438.985	338.77
439.192	428.88
439.399	453.45
439.606	408.4
439.813	424.78
440.02	578.38
440.227	566.09
440.433	545.61
440.64	594.76
440.847	516.94
441.054	523.09
441.261	678.73
441.467	592.72
441.674	600.91
441.881	719.69
442.088	658.25
442.294	678.73
442.501	770.89
442.708	723.79
442.914	707.4
443.121	807.75
443.328	963.4
443.534	865.1
443.741	820.04
443.948	742.22
444.154	912.2
444.361	1131.33
444.568	830.28
444.774	920.39
444.981	879.43
445.187	1133.38
445.394	1106.76
445.6	1080.13
445.807	1246.02
446.013	1241.92
446.22	1217.35
446.426	1315.65
446.633	1332.03
446.839	1506.11
447.046	1301.31
447.252	1571.65
447.459	1555.26
447.665	1495.87
447.871	1733.43
448.078	1778.49
448.284	1788.73
448.491	1889.08
448.697	1985.34
448.903	2014.01
449.11	2009.91
449.316	1971
449.522	2231.09
449.728	2278.19
449.935	2251.57
450.141	2409.26
450.347	2435.89
450.553	2603.82
450.76	2575.15
450.966	2790.19
451.172	2945.83
451.378	2917.16
451.584	2968.36
451.791	3406.63
451.997	3250.98
452.203	3281.7
452.409	3572.51
452.615	3590.94
452.821	3431.2
453.027	3656.48
453.233	4076.31
453.44	3949.34
453.646	4217.62
453.852	4410.13
454.058	4547.34
454.264	4750.09
454.47	5020.42
454.676	5063.43
454.882	5518.08
455.088	5243.65
455.294	5550.85
455.5	5780.22
455.705	6269.69
455.911	6269.69
456.117	6413.04
456.323	6615.79
456.529	6488.82
456.735	7367.4
456.941	7293.67
457.147	7629.54
457.352	7897.82
457.558	8125.15
457.764	8641.23
457.97	8815.31
458.176	9065.16
458.381	9550.53
458.587	9894.59
458.793	10394.29
458.999	10220.22
459.204	11592.36
459.41	12171.93
459.616	11856.54
459.821	12780.18
460.027	13075.09
460.233	13566.6
460.438	13503.11
460.644	14338.68
460.85	14549.62
461.055	15350.38
461.261	15772.26
461.466	15510.12
461.672	15952.48
461.878	17689.16
462.083	17619.53
462.289	17936.96
462.494	18868.79
462.7	19147.31
462.905	19116.59
463.111	20724.25
463.316	21613.07
463.522	22114.82
463.727	22567.42
463.932	23656.94
464.138	24349.15
464.343	25840.08
464.549	25256.4
464.754	27419.06
464.959	28180.9
465.165	28596.64
465.37	28357.03
465.575	28408.23
465.781	30210.44
465.986	31127.93
466.191	30935.42
466.397	31123.83
466.602	30488.96
466.807	31904.11
467.012	32885.09
467.218	32985.44
467.423	33227.1
467.628	33919.31
467.833	35868.98
468.038	35455.29
468.244	34517.32
468.449	36356.39
468.654	35971.38
468.859	35764.53
469.064	35959.09
469.269	34984.26
