Data from USB4F104151__9__10-41-22-990.txt Node

Date: Wed Feb 26 10:41:22 EST 2025
User: louis
Spectrometer: USB4F10415
Trigger mode: 4
Integration Time (sec): 1.000000E-1
Scans to average: 1
Electric dark correction enabled: true
Nonlinearity correction enabled: false
Boxcar width: 0
XAxis mode: Wavelengths
Number of Pixels in Spectrum: 3648
>>>>>Begin Spectral Data<<<<<
178.204	-269.82
178.424	-269.82
178.644	-269.82
178.864	-415.23
179.084	-392.7
179.304	-11.78
179.524	0.51
179.744	4.61
179.964	-9.73
180.184	51.71
180.404	37.38
180.624	-15.87
180.844	6.66
181.064	-75.26
181.283	-34.3
181.503	-13.82
181.723	59.9
181.943	-19.97
182.163	156.16
182.383	-11.78
182.602	107.01
182.822	127.49
183.042	18.94
183.262	43.52
183.482	-9.73
183.701	102.91
183.921	156.16
184.141	-7.68
184.361	66.05
184.58	117.25
184.8	23.04
185.02	78.33
185.239	147.97
185.459	145.92
185.679	154.11
185.898	-40.45
186.118	55.81
186.338	127.49
186.557	123.39
186.777	-9.73
186.997	47.62
187.216	70.14
187.436	258.56
187.655	45.57
187.875	150.01
188.095	14.85
188.314	209.4
188.534	152.06
188.753	2.56
188.973	64
189.192	207.36
189.412	98.81
189.631	55.81
189.851	29.18
190.07	160.25
190.29	23.04
190.509	-32.26
190.729	117.25
190.948	188.93
191.168	219.64
191.387	152.06
191.607	10.75
191.826	49.66
192.045	98.81
192.265	31.23
192.484	88.57
192.704	92.67
192.923	16.9
193.142	217.6
193.362	174.59
193.581	178.69
193.8	82.43
194.02	176.64
194.239	76.29
194.458	154.11
194.678	23.04
194.897	49.66
195.116	68.09
195.335	158.21
195.555	55.81
195.774	133.63
195.993	33.28
196.212	29.18
196.432	18.94
196.651	-38.4
196.87	90.62
197.089	270.84
197.308	115.2
197.528	39.42
197.747	-32.26
197.966	51.71
198.185	137.73
198.404	57.86
198.623	100.86
198.842	195.07
199.062	137.73
199.281	170.49
199.5	35.33
199.719	66.05
199.938	98.81
200.157	86.53
200.376	121.34
200.595	117.25
200.814	207.36
201.033	4.61
201.252	160.25
201.471	100.86
201.69	141.82
201.909	68.09
202.128	131.58
202.347	113.15
202.566	96.77
202.785	-26.11
203.004	2.56
203.223	240.12
203.442	92.67
203.661	37.38
203.879	104.96
204.098	139.77
204.317	33.28
204.536	141.82
204.755	111.1
204.974	111.1
205.193	-42.5
205.411	160.25
205.63	68.09
205.849	102.91
206.068	133.63
206.287	23.04
206.505	176.64
206.724	109.05
206.943	53.76
207.162	29.18
207.381	168.45
207.599	78.33
207.818	43.52
208.037	72.19
208.255	55.81
208.474	59.9
208.693	98.81
208.911	0.51
209.13	121.34
209.349	84.48
209.567	152.06
209.786	92.67
210.005	164.35
210.223	125.44
210.442	-34.3
210.661	68.09
210.879	104.96
211.098	96.77
211.316	45.57
211.535	127.49
211.753	102.91
211.972	35.33
212.191	43.52
212.409	88.57
212.628	104.96
212.846	51.71
213.065	-9.73
213.283	203.26
213.502	43.52
213.72	125.44
213.938	115.2
214.157	-42.5
214.375	113.15
214.594	29.18
214.812	59.9
215.031	8.7
215.249	27.14
215.467	127.49
215.686	78.33
215.904	129.53
216.122	127.49
216.341	184.83
216.559	100.86
216.778	135.68
216.996	133.63
217.214	33.28
217.432	53.76
217.651	14.85
217.869	82.43
218.087	111.1
218.306	37.38
218.524	107.01
218.742	98.81
218.96	131.58
219.179	25.09
219.397	111.1
219.615	207.36
219.833	135.68
220.051	-28.16
220.27	133.63
220.488	143.87
220.706	39.42
220.924	59.9
221.142	23.04
221.36	127.49
221.578	174.59
221.796	72.19
222.015	68.09
222.233	82.43
222.451	219.64
222.669	-22.02
222.887	66.05
223.105	39.42
223.323	111.1
223.541	-3.58
223.759	94.72
223.977	72.19
224.195	150.01
224.413	141.82
224.631	121.34
224.849	84.48
225.067	225.79
225.285	-36.35
225.503	98.81
225.721	-77.31
225.939	137.73
226.157	104.96
226.375	307.71
226.592	39.42
226.81	10.75
227.028	127.49
227.246	125.44
227.464	92.67
227.682	86.53
227.9	168.45
228.117	53.76
228.335	90.62
228.553	0.51
228.771	94.72
228.989	162.3
229.206	125.44
229.424	-17.92
229.642	-34.3
229.86	-79.36
230.077	135.68
230.295	80.38
230.513	125.44
230.731	129.53
230.948	301.56
231.166	182.78
231.384	82.43
231.601	27.14
231.819	242.17
232.037	111.1
232.254	51.71
232.472	70.14
232.689	41.47
232.907	184.83
233.125	-19.97
233.342	-136.7
233.56	49.66
233.777	29.18
233.995	39.42
234.213	109.05
234.43	92.67
234.648	98.81
234.865	43.52
235.083	33.28
235.3	141.82
235.518	113.15
235.735	168.45
235.953	141.82
236.17	45.57
236.388	86.53
236.605	61.95
236.822	121.34
237.04	123.39
237.257	49.66
237.475	-38.4
237.692	55.81
237.909	180.73
238.127	68.09
238.344	125.44
238.562	98.81
238.779	6.66
238.996	78.33
239.214	152.06
239.431	86.53
239.648	121.34
239.865	127.49
240.083	70.14
240.3	27.14
240.517	10.75
240.735	129.53
240.952	135.68
241.169	107.01
241.386	121.34
241.603	61.95
241.821	43.52
242.038	115.2
242.255	82.43
242.472	-9.73
242.689	55.81
242.907	143.87
243.124	51.71
243.341	45.57
243.558	39.42
243.775	10.75
243.992	-40.45
244.209	98.81
244.426	252.41
244.643	78.33
244.86	76.29
245.078	166.4
245.295	193.02
245.512	72.19
245.729	113.15
245.946	131.58
246.163	139.77
246.38	88.57
246.597	66.05
246.814	133.63
247.031	39.42
247.248	96.77
247.464	98.81
247.681	137.73
247.898	43.52
248.115	143.87
248.332	47.62
248.549	205.31
248.766	164.35
248.983	86.53
249.2	109.05
249.417	199.16
249.633	98.81
249.85	115.2
250.067	-19.97
250.284	86.53
250.501	127.49
250.717	92.67
250.934	-103.93
251.151	18.94
251.368	72.19
251.585	98.81
251.801	80.38
252.018	-36.35
252.235	150.01
252.451	33.28
252.668	70.14
252.885	102.91
253.102	100.86
253.318	-3.58
253.535	78.33
253.752	-17.92
253.968	64
254.185	23.04
254.401	0.51
254.618	84.48
254.835	70.14
255.051	182.78
255.268	98.81
255.484	186.88
255.701	57.86
255.917	94.72
256.134	-22.02
256.351	-11.78
256.567	14.85
256.784	70.14
257	23.04
257.217	117.25
257.433	107.01
257.65	76.29
257.866	205.31
258.082	31.23
258.299	70.14
258.515	113.15
258.732	96.77
258.948	6.66
259.165	121.34
259.381	-5.63
259.597	127.49
259.814	125.44
260.03	119.29
260.246	49.66
260.463	168.45
260.679	145.92
260.895	45.57
261.112	123.39
261.328	51.71
261.544	78.33
261.761	199.16
261.977	150.01
262.193	8.7
262.409	70.14
262.626	41.47
262.842	98.81
263.058	78.33
263.274	123.39
263.49	174.59
263.707	127.49
263.923	145.92
264.139	-79.36
264.355	61.95
264.571	94.72
264.787	76.29
265.004	215.55
265.22	109.05
265.436	102.91
265.652	70.14
265.868	115.2
266.084	-48.64
266.3	4.61
266.516	-11.78
266.732	66.05
266.948	92.67
267.164	72.19
267.38	119.29
267.596	66.05
267.812	227.84
268.028	72.19
268.244	80.38
268.46	92.67
268.676	80.38
268.892	111.1
269.108	45.57
269.324	4.61
269.54	72.19
269.756	113.15
269.972	-58.88
270.188	92.67
270.403	-1.54
270.619	64
270.835	92.67
271.051	96.77
271.267	78.33
271.483	74.24
271.698	82.43
271.914	135.68
272.13	156.16
272.346	31.23
272.562	94.72
272.777	123.39
272.993	96.77
273.209	59.9
273.425	102.91
273.64	-1.54
273.856	168.45
274.072	-9.73
274.287	-71.17
274.503	37.38
274.719	213.5
274.934	88.57
275.15	-50.69
275.366	45.57
275.581	41.47
275.797	14.85
276.012	92.67
276.228	37.38
276.444	80.38
276.659	150.01
276.875	25.09
277.09	18.94
277.306	45.57
277.521	100.86
277.737	64
277.952	131.58
278.168	86.53
278.383	131.58
278.599	88.57
278.814	143.87
279.03	64
279.245	123.39
279.461	164.35
279.676	104.96
279.892	41.47
280.107	53.76
280.322	14.85
280.538	29.18
280.753	53.76
280.969	102.91
281.184	111.1
281.399	219.64
281.615	117.25
281.83	55.81
282.045	8.7
282.26	23.04
282.476	133.63
282.691	147.97
282.906	156.16
283.122	92.67
283.337	-28.16
283.552	18.94
283.767	43.52
283.983	203.26
284.198	68.09
284.413	139.77
284.628	-71.17
284.843	129.53
285.058	80.38
285.274	55.81
285.489	14.85
285.704	82.43
285.919	47.62
286.134	64
286.349	94.72
286.564	53.76
286.779	154.11
286.995	123.39
287.21	-9.73
287.425	70.14
287.64	-3.58
287.855	143.87
288.07	-17.92
288.285	80.38
288.5	129.53
288.715	150.01
288.93	43.52
289.145	55.81
289.36	135.68
289.575	107.01
289.79	104.96
290.004	-32.26
290.219	221.69
290.434	39.42
290.649	49.66
290.864	107.01
291.079	51.71
291.294	117.25
291.509	123.39
291.724	37.38
291.938	80.38
292.153	66.05
292.368	18.94
292.583	127.49
292.798	139.77
293.012	84.48
293.227	64
293.442	0.51
293.657	111.1
293.871	129.53
294.086	152.06
294.301	166.4
294.516	80.38
294.73	100.86
294.945	-13.82
295.16	41.47
295.374	242.17
295.589	86.53
295.804	82.43
296.018	115.2
296.233	135.68
296.447	68.09
296.662	82.43
296.877	248.32
297.091	119.29
297.306	45.57
297.52	27.14
297.735	82.43
297.949	150.01
298.164	20.99
298.378	96.77
298.593	-28.16
298.807	-26.11
299.022	68.09
299.236	125.44
299.451	-34.3
299.665	37.38
299.88	86.53
300.094	164.35
300.309	0.51
300.523	84.48
300.737	104.96
300.952	121.34
301.166	104.96
301.381	37.38
301.595	90.62
301.809	172.54
302.024	78.33
302.238	57.86
302.452	176.64
302.667	121.34
302.881	104.96
303.095	117.25
303.309	72.19
303.524	70.14
303.738	14.85
303.952	-13.82
304.166	113.15
304.381	-48.64
304.595	248.32
304.809	47.62
305.023	100.86
305.237	68.09
305.452	78.33
305.666	115.2
305.88	88.57
306.094	154.11
306.308	41.47
306.522	160.25
306.736	117.25
306.95	84.48
307.164	64
307.379	49.66
307.593	150.01
307.807	170.49
308.021	70.14
308.235	152.06
308.449	-52.74
308.663	109.05
308.877	285.18
309.091	152.06
309.305	104.96
309.519	64
309.733	170.49
309.947	6.66
310.161	125.44
310.374	154.11
310.588	127.49
310.802	70.14
311.016	61.95
311.23	133.63
311.444	-7.68
311.658	10.75
311.872	182.78
312.085	127.49
312.299	160.25
312.513	213.5
312.727	143.87
312.941	121.34
313.154	88.57
313.368	18.94
313.582	104.96
313.796	115.2
314.009	-7.68
314.223	125.44
314.437	115.2
314.651	150.01
314.864	96.77
315.078	35.33
315.292	2.56
315.505	43.52
315.719	102.91
315.933	125.44
316.146	31.23
316.36	51.71
316.573	195.07
316.787	72.19
317.001	102.91
317.214	55.81
317.428	80.38
317.641	39.42
317.855	31.23
318.068	98.81
318.282	193.02
318.495	121.34
318.709	86.53
318.922	33.28
319.136	154.11
319.349	150.01
319.563	66.05
319.776	147.97
319.99	-15.87
320.203	125.44
320.417	31.23
320.63	107.01
320.843	211.45
321.057	186.88
321.27	47.62
321.483	84.48
321.697	170.49
321.91	55.81
322.124	59.9
322.337	45.57
322.55	6.66
322.763	123.39
322.977	55.81
323.19	27.14
323.403	94.72
323.617	154.11
323.83	143.87
324.043	35.33
324.256	152.06
324.469	-17.92
324.683	90.62
324.896	80.38
325.109	37.38
325.322	82.43
325.535	49.66
325.748	125.44
325.962	-9.73
326.175	43.52
326.388	94.72
326.601	266.75
326.814	72.19
327.027	123.39
327.24	143.87
327.453	-58.88
327.666	158.21
327.879	141.82
328.092	59.9
328.305	94.72
328.518	51.71
328.731	86.53
328.944	-5.63
329.157	74.24
329.37	102.91
329.583	188.93
329.796	154.11
330.009	6.66
330.222	172.54
330.435	139.77
330.648	51.71
330.861	45.57
331.073	113.15
331.286	168.45
331.499	88.57
331.712	-5.63
331.925	-3.58
332.138	115.2
332.35	104.96
332.563	43.52
332.776	96.77
332.989	51.71
333.202	53.76
333.414	72.19
333.627	86.53
333.84	41.47
334.053	31.23
334.265	41.47
334.478	59.9
334.691	35.33
334.903	88.57
335.116	2.56
335.329	10.75
335.541	49.66
335.754	266.75
335.966	133.63
336.179	76.29
336.392	47.62
336.604	74.24
336.817	129.53
337.029	94.72
337.242	137.73
337.454	190.97
337.667	70.14
337.88	203.26
338.092	47.62
338.305	94.72
338.517	-50.69
338.729	160.25
338.942	160.25
339.154	37.38
339.367	-26.11
339.579	115.2
339.792	29.18
340.004	176.64
340.217	111.1
340.429	90.62
340.641	0.51
340.854	-71.17
341.066	109.05
341.278	229.88
341.491	88.57
341.703	72.19
341.915	57.86
342.128	74.24
342.34	80.38
342.552	64
342.764	125.44
342.977	-42.5
343.189	27.14
343.401	98.81
343.613	-28.16
343.826	10.75
344.038	-1.54
344.25	94.72
344.462	98.81
344.674	84.48
344.886	111.1
345.099	68.09
345.311	82.43
345.523	14.85
345.735	-52.74
345.947	57.86
346.159	55.81
346.371	133.63
346.583	100.86
346.795	248.32
347.007	139.77
347.219	78.33
347.431	0.51
347.643	143.87
347.855	27.14
348.067	209.4
348.279	27.14
348.491	64
348.703	107.01
348.915	137.73
349.127	-73.21
349.339	176.64
349.551	49.66
349.763	170.49
349.975	33.28
350.187	78.33
350.399	270.84
350.61	102.91
350.822	18.94
351.034	84.48
351.246	78.33
351.458	160.25
351.669	84.48
351.881	100.86
352.093	109.05
352.305	135.68
352.517	160.25
352.728	184.83
352.94	127.49
353.152	158.21
353.363	-5.63
353.575	127.49
353.787	209.4
353.999	166.4
354.21	203.26
354.422	0.51
354.633	127.49
354.845	33.28
355.057	16.9
355.268	76.29
355.48	121.34
355.692	-36.35
355.903	76.29
356.115	37.38
356.326	-118.27
356.538	43.52
356.749	150.01
356.961	100.86
357.172	154.11
357.384	0.51
357.595	238.08
357.807	45.57
358.018	-7.68
358.23	131.58
358.441	137.73
358.653	139.77
358.864	64
359.075	51.71
359.287	61.95
359.498	125.44
359.709	129.53
359.921	-13.82
360.132	111.1
360.344	31.23
360.555	68.09
360.766	111.1
360.977	57.86
361.189	139.77
361.4	109.05
361.611	94.72
361.823	121.34
362.034	84.48
362.245	-34.3
362.456	33.28
362.667	156.16
362.879	35.33
363.09	86.53
363.301	72.19
363.512	70.14
363.723	45.57
363.935	88.57
364.146	164.35
364.357	47.62
364.568	113.15
364.779	-15.87
364.99	188.93
365.201	23.04
365.412	209.4
365.623	-24.06
365.834	109.05
366.045	80.38
366.256	168.45
366.467	64
366.678	205.31
366.889	31.23
367.1	33.28
367.311	137.73
367.522	33.28
367.733	104.96
367.944	12.8
368.155	102.91
368.366	188.93
368.577	127.49
368.788	209.4
368.999	51.71
369.209	102.91
369.42	256.51
369.631	256.51
369.842	150.01
370.053	78.33
370.264	229.88
370.474	107.01
370.685	92.67
370.896	94.72
371.107	195.07
371.317	156.16
371.528	72.19
371.739	166.4
371.95	158.21
372.16	96.77
372.371	37.38
372.582	68.09
372.792	109.05
373.003	74.24
373.214	107.01
373.424	147.97
373.635	53.76
373.846	240.12
374.056	47.62
374.267	76.29
374.477	96.77
374.688	47.62
374.898	127.49
375.109	80.38
375.319	4.61
375.53	129.53
375.74	143.87
375.951	29.18
376.161	88.57
376.372	98.81
376.582	55.81
376.793	64
377.003	66.05
377.214	59.9
377.424	117.25
377.635	96.77
377.845	82.43
378.055	150.01
378.266	-32.26
378.476	74.24
378.686	123.39
378.897	117.25
379.107	184.83
379.317	70.14
379.528	29.18
379.738	170.49
379.948	6.66
380.158	104.96
380.369	59.9
380.579	82.43
380.789	31.23
380.999	131.58
381.21	135.68
381.42	197.12
381.63	82.43
381.84	102.91
382.05	143.87
382.261	117.25
382.471	207.36
382.681	78.33
382.891	219.64
383.101	154.11
383.311	14.85
383.521	8.7
383.731	195.07
383.941	205.31
384.151	188.93
384.361	90.62
384.571	107.01
384.781	115.2
384.991	233.98
385.201	207.36
385.411	164.35
385.621	88.57
385.831	66.05
386.041	76.29
386.251	61.95
386.461	164.35
386.671	100.86
386.881	113.15
387.091	47.62
387.301	31.23
387.511	117.25
387.72	80.38
387.93	139.77
388.14	-1.54
388.35	64
388.56	168.45
388.769	111.1
388.979	117.25
389.189	-24.06
389.399	-73.21
389.609	123.39
389.818	150.01
390.028	104.96
390.238	135.68
390.447	66.05
390.657	145.92
390.867	51.71
391.076	-93.69
391.286	188.93
391.496	113.15
391.705	90.62
391.915	100.86
392.125	170.49
392.334	43.52
392.544	215.55
392.753	80.38
392.963	29.18
393.172	100.86
393.382	16.9
393.591	201.21
393.801	92.67
394.01	121.34
394.22	162.3
394.429	49.66
394.639	113.15
394.848	158.21
395.058	123.39
395.267	16.9
395.477	104.96
395.686	137.73
395.895	262.65
396.105	219.64
396.314	104.96
396.524	94.72
396.733	117.25
396.942	119.29
397.152	102.91
397.361	152.06
397.57	115.2
397.78	78.33
397.989	145.92
398.198	285.18
398.407	104.96
398.617	100.86
398.826	127.49
399.035	-5.63
399.244	186.88
399.453	107.01
399.663	123.39
399.872	37.38
400.081	66.05
400.29	145.92
400.499	8.7
400.708	182.78
400.917	70.14
401.127	145.92
401.336	113.15
401.545	207.36
401.754	207.36
401.963	195.07
402.172	47.62
402.381	96.77
402.59	70.14
402.799	127.49
403.008	176.64
403.217	152.06
403.426	121.34
403.635	12.8
403.844	96.77
404.053	94.72
404.262	6.66
404.471	244.22
404.68	16.9
404.888	61.95
405.097	70.14
405.306	107.01
405.515	86.53
405.724	59.9
405.933	205.31
406.142	119.29
406.35	133.63
406.559	162.3
406.768	86.53
406.977	238.08
407.185	119.29
407.394	172.54
407.603	100.86
407.812	102.91
408.02	213.5
408.229	68.09
408.438	104.96
408.646	2.56
408.855	35.33
409.064	131.58
409.272	100.86
409.481	154.11
409.69	4.61
409.898	-11.78
410.107	25.09
410.315	53.76
410.524	113.15
410.733	113.15
410.941	102.91
411.15	147.97
411.358	193.02
411.567	193.02
411.775	125.44
411.984	88.57
412.192	100.86
412.401	94.72
412.609	223.74
412.818	242.17
413.026	78.33
413.234	-22.02
413.443	78.33
413.651	-1.54
413.86	195.07
414.068	205.31
414.276	227.84
414.485	80.38
414.693	190.97
414.901	233.98
415.11	139.77
415.318	125.44
415.526	94.72
415.734	180.73
415.943	76.29
416.151	117.25
416.359	33.28
416.567	113.15
416.776	168.45
416.984	137.73
417.192	98.81
417.4	39.42
417.608	23.04
417.817	80.38
418.025	182.78
418.233	178.69
418.441	-38.4
418.649	64
418.857	184.83
419.065	242.17
419.273	33.28
419.481	131.58
419.689	131.58
419.897	104.96
420.105	70.14
420.313	88.57
420.521	211.45
420.729	152.06
420.937	72.19
421.145	-5.63
421.353	162.3
421.561	227.84
421.769	98.81
421.977	78.33
422.185	154.11
422.393	117.25
422.601	197.12
422.809	184.83
423.017	182.78
423.224	121.34
423.432	207.36
423.64	57.86
423.848	193.02
424.056	84.48
424.263	197.12
424.471	125.44
424.679	195.07
424.887	70.14
425.094	156.16
425.302	133.63
425.51	78.33
425.718	119.29
425.925	123.39
426.133	109.05
426.341	250.36
426.548	147.97
426.756	82.43
426.964	180.73
427.171	66.05
427.379	94.72
427.586	172.54
427.794	162.3
428.001	137.73
428.209	211.45
428.417	197.12
428.624	111.1
428.832	219.64
429.039	125.44
429.247	133.63
429.454	119.29
429.662	221.69
429.869	137.73
430.076	193.02
430.284	293.37
430.491	207.36
430.699	199.16
430.906	219.64
431.114	145.92
431.321	268.8
431.528	154.11
431.736	162.3
431.943	236.03
432.15	186.88
432.358	205.31
432.565	297.47
432.772	59.9
432.979	209.4
433.187	150.01
433.394	287.23
433.601	203.26
433.808	268.8
434.016	348.67
434.223	258.56
434.43	279.04
434.637	352.76
434.844	379.39
435.052	379.39
435.259	309.76
435.466	354.81
435.673	283.13
435.88	328.19
436.087	418.3
436.294	356.86
436.501	422.39
436.708	449.02
436.915	410.11
437.122	477.69
437.329	324.09
437.537	377.34
437.743	428.54
437.95	551.42
438.157	541.18
438.364	424.44
438.571	473.59
438.778	578.04
438.985	508.41
439.192	532.98
439.399	575.99
439.606	625.14
439.813	602.61
440.02	768.5
440.227	739.83
440.433	678.39
440.64	565.75
440.847	549.37
441.054	776.69
441.261	813.56
441.467	819.7
441.674	664.05
441.881	864.75
442.088	797.17
442.294	813.56
442.501	981.49
442.708	1020.4
442.914	838.13
443.121	1034.74
443.328	1120.75
443.534	1114.61
443.741	1104.37
443.948	948.72
444.154	1143.28
444.361	1352.17
444.568	1260.01
444.774	1219.05
444.981	1182.19
445.187	1311.21
445.394	1444.33
445.6	1323.5
445.807	1440.23
446.013	1491.43
446.22	1497.58
446.426	1765.86
446.633	1804.77
446.839	1952.23
447.046	1743.33
447.252	1976.8
447.459	2028
447.665	1907.17
447.871	2073.06
448.078	2324.96
448.284	2187.74
448.491	2355.68
448.697	2478.55
448.903	2589.14
449.11	2507.23
449.316	2570.71
449.522	2791.89
449.728	3045.84
449.935	2947.54
450.141	3011.03
450.347	3328.46
450.553	3076.56
450.76	3252.69
450.966	3408.33
451.172	3520.97
451.378	3793.35
451.584	3901.89
451.791	4110.79
451.997	3998.15
452.203	4209.09
452.409	4491.71
452.615	4528.57
452.821	4372.93
453.027	4325.82
453.233	5114.29
453.44	4880.82
453.646	5165.49
453.852	5325.23
454.058	5788.07
454.264	5611.95
454.47	6156.71
454.676	6105.51
454.882	6781.34
455.088	6365.6
455.294	6863.26
455.5	7221.65
455.705	7733.64
455.911	7627.15
456.117	7780.75
456.323	7944.58
456.529	8212.87
456.735	8677.76
456.941	9267.57
457.147	9277.81
457.352	10015.08
457.558	10078.57
457.764	10684.76
457.97	11014.49
458.176	11456.85
458.381	11929.93
458.587	11710.8
458.793	12644.67
458.999	12486.98
459.204	14121.26
459.41	14936.35
459.616	14485.79
459.821	15454.48
460.027	15907.09
460.233	16810.24
460.438	16863.49
460.644	17905.9
460.85	18155.75
461.055	18573.54
461.261	19771.6
461.466	19351.77
461.672	19708.12
461.878	21868.72
462.083	21559.48
462.289	22282.41
462.494	22868.13
462.7	23130.27
462.905	23531.67
463.111	25389.18
463.316	26660.97
463.522	27123.81
463.727	28151.89
463.932	28928.07
464.138	29397.06
464.343	30988.33
464.549	31219.75
464.754	33699.84
464.959	34539.5
465.165	35110.89
465.37	34732.01
465.575	34449.39
465.781	37380.04
465.986	38434.74
466.191	37636.03
466.397	38035.39
466.602	36941.77
466.807	39067.56
