Data from USB4F104151__232__11-06-23-625.txt Node

Date: Wed Feb 26 11:06:23 EST 2025
User: louis
Spectrometer: USB4F10415
Trigger mode: 4
Integration Time (sec): 1.000000E-1
Scans to average: 1
Electric dark correction enabled: true
Nonlinearity correction enabled: false
Boxcar width: 0
XAxis mode: Wavelengths
Number of Pixels in Spectrum: 3648
>>>>>Begin Spectral Data<<<<<
178.204	-380.24
178.424	-380.24
178.644	-380.24
178.864	-398.67
179.084	-415.05
179.304	-5.46
179.524	-34.13
179.744	4.78
179.964	-11.61
180.184	53.93
180.404	84.65
180.624	-34.13
180.844	23.21
181.064	-34.13
181.283	-17.75
181.503	-77.14
181.723	47.79
181.943	-173.39
182.163	156.33
182.383	-27.99
182.602	17.07
182.822	92.84
183.042	53.93
183.262	-71
183.482	-56.66
183.701	21.16
183.921	90.79
184.141	-109.91
184.361	10.92
184.58	25.26
184.8	19.11
185.02	-11.61
185.239	37.55
185.459	131.75
185.679	90.79
185.898	-99.67
186.118	82.6
186.338	4.78
186.557	154.28
186.777	-68.95
186.997	-27.99
187.216	6.83
187.436	133.8
187.655	-27.99
187.875	105.13
188.095	49.83
188.314	25.26
188.534	115.37
188.753	-21.84
188.973	109.23
189.192	94.89
189.412	43.69
189.631	53.93
189.851	33.45
190.07	76.46
190.29	-114
190.509	0.68
190.729	78.51
190.948	45.74
191.168	201.38
191.387	92.84
191.607	41.64
191.826	68.27
192.045	94.89
192.265	-27.99
192.484	125.61
192.704	10.92
192.923	-25.94
193.142	185
193.362	66.22
193.581	150.18
193.8	37.55
194.02	131.75
194.239	-32.08
194.458	55.98
194.678	-11.61
194.897	33.45
195.116	39.59
195.335	-30.04
195.555	45.74
195.774	-19.8
195.993	170.66
196.212	17.07
196.432	-32.08
196.651	39.59
196.87	0.68
197.089	213.67
197.308	19.11
197.528	25.26
197.747	-7.51
197.966	111.27
198.185	88.75
198.404	-9.56
198.623	125.61
198.842	94.89
199.062	31.4
199.281	101.03
199.5	15.02
199.719	35.5
199.938	4.78
200.157	-38.23
200.376	101.03
200.595	82.6
200.814	76.46
201.033	-42.32
201.252	178.86
201.471	23.21
201.69	125.61
201.909	-7.51
202.128	-25.94
202.347	119.46
202.566	6.83
202.785	-38.23
203.004	-46.42
203.223	271.01
203.442	19.11
203.661	-116.05
203.879	139.94
204.098	98.99
204.317	-46.42
204.536	27.31
204.755	123.56
204.974	109.23
205.193	10.92
205.411	131.75
205.63	139.94
205.849	23.21
206.068	-66.9
206.287	-46.42
206.505	154.28
206.724	-77.14
206.943	39.59
207.162	45.74
207.381	-19.8
207.599	6.83
207.818	39.59
208.037	-15.7
208.255	23.21
208.474	45.74
208.693	39.59
208.911	60.07
209.13	144.04
209.349	82.6
209.567	31.4
209.786	168.62
210.005	78.51
210.223	107.18
210.442	-89.43
210.661	-13.65
210.879	60.07
211.098	49.83
211.316	-71
211.535	55.98
211.753	37.55
211.972	51.88
212.191	-79.19
212.409	35.5
212.628	66.22
212.846	-32.08
213.065	80.55
213.283	98.99
213.502	23.21
213.72	107.18
213.938	47.79
214.157	-1.37
214.375	113.32
214.594	-17.75
214.812	4.78
215.031	0.68
215.249	-19.8
215.467	82.6
215.686	-46.42
215.904	29.35
216.122	92.84
216.341	125.61
216.559	-25.94
216.778	162.47
216.996	96.94
217.214	31.4
217.432	37.55
217.651	-48.47
217.869	78.51
218.087	-60.76
218.306	-42.32
218.524	10.92
218.742	49.83
218.96	96.94
219.179	31.4
219.397	-64.85
219.615	225.96
219.833	105.13
220.051	-75.09
220.27	68.27
220.488	80.55
220.706	29.35
220.924	2.73
221.142	-9.56
221.36	49.83
221.578	4.78
221.796	45.74
222.015	-32.08
222.233	64.17
222.451	111.27
222.669	-32.08
222.887	103.08
223.105	62.12
223.323	27.31
223.541	-42.32
223.759	78.51
223.977	78.51
224.195	135.85
224.413	86.7
224.631	78.51
224.849	41.64
225.067	225.96
225.285	-44.37
225.503	17.07
225.721	-114
225.939	-19.8
226.157	4.78
226.375	217.77
226.592	10.92
226.81	4.78
227.028	107.18
227.246	62.12
227.464	47.79
227.682	-3.41
227.9	86.7
228.117	80.55
228.335	60.07
228.553	55.98
228.771	10.92
228.989	45.74
229.206	-30.04
229.424	-17.75
229.642	6.83
229.86	-46.42
230.077	86.7
230.295	-15.7
230.513	94.89
230.731	15.02
230.948	162.47
231.166	88.75
231.384	105.13
231.601	-79.19
231.819	197.29
232.037	-25.94
232.254	-27.99
232.472	12.97
232.689	43.69
232.907	168.62
233.125	12.97
233.342	-62.8
233.56	4.78
233.777	-5.46
233.995	86.7
234.213	117.42
234.43	55.98
234.648	-27.99
234.865	-68.95
235.083	92.84
235.3	15.02
235.518	86.7
235.735	141.99
235.953	23.21
236.17	80.55
236.388	27.31
236.605	74.41
236.822	92.84
237.04	80.55
237.257	55.98
237.475	-52.56
237.692	-64.85
237.909	45.74
238.127	4.78
238.344	19.11
238.562	37.55
238.779	-79.19
238.996	-62.8
239.214	0.68
239.431	139.94
239.648	84.65
239.865	117.42
240.083	94.89
240.3	4.78
240.517	21.16
240.735	41.64
240.952	139.94
241.169	19.11
241.386	92.84
241.603	105.13
241.821	-30.04
242.038	74.41
242.255	137.9
242.472	49.83
242.689	53.93
242.907	98.99
243.124	-1.37
243.341	72.36
243.558	-66.9
243.775	-60.76
243.992	-38.23
244.209	62.12
244.426	228.01
244.643	82.6
244.86	-27.99
245.078	96.94
245.295	25.26
245.512	166.57
245.729	10.92
245.946	88.75
246.163	135.85
246.38	-75.09
246.597	47.79
246.814	15.02
247.031	53.93
247.248	-3.41
247.464	78.51
247.681	17.07
247.898	105.13
248.115	105.13
248.332	-36.18
248.549	133.8
248.766	170.66
248.983	98.99
249.2	43.69
249.417	174.76
249.633	-7.51
249.85	41.64
250.067	2.73
250.284	19.11
250.501	88.75
250.717	58.03
250.934	-66.9
251.151	8.87
251.368	15.02
251.585	27.31
251.801	88.75
252.018	-64.85
252.235	127.66
252.451	-107.86
252.668	-42.32
252.885	111.27
253.102	62.12
253.318	23.21
253.535	29.35
253.752	45.74
253.968	-19.8
254.185	-71
254.401	109.23
254.618	33.45
254.835	-15.7
255.051	168.62
255.268	101.03
255.484	-44.37
255.701	-52.56
255.917	43.69
256.134	-32.08
256.351	6.83
256.567	-48.47
256.784	76.46
257	-77.14
257.217	86.7
257.433	141.99
257.65	6.83
257.866	117.42
258.082	-64.85
258.299	-27.99
258.515	23.21
258.732	37.55
258.948	21.16
259.165	27.31
259.381	-1.37
259.597	27.31
259.814	41.64
260.03	82.6
260.246	15.02
260.463	125.61
260.679	92.84
260.895	39.59
261.112	96.94
261.328	-36.18
261.544	0.68
261.761	131.75
261.977	-23.89
262.193	-105.81
262.409	92.84
262.626	33.45
262.842	-52.56
263.058	53.93
263.274	55.98
263.49	84.65
263.707	109.23
263.923	88.75
264.139	-71
264.355	15.02
264.571	156.33
264.787	109.23
265.004	172.71
265.22	-13.65
265.436	-56.66
265.652	-9.56
265.868	31.4
266.084	-40.28
266.3	37.55
266.516	-66.9
266.732	-11.61
266.948	49.83
267.164	-34.13
267.38	135.85
267.596	103.08
267.812	131.75
268.028	58.03
268.244	-66.9
268.46	43.69
268.676	10.92
268.892	17.07
269.108	-52.56
269.324	0.68
269.54	-83.28
269.756	66.22
269.972	-54.61
270.188	-44.37
270.403	-71
270.619	29.35
270.835	55.98
271.051	53.93
271.267	-17.75
271.483	-77.14
271.698	160.42
271.914	78.51
272.13	43.69
272.346	-25.94
272.562	27.31
272.777	180.9
272.993	-7.51
273.209	25.26
273.425	29.35
273.64	-25.94
273.856	117.42
274.072	-5.46
274.287	-52.56
274.503	121.51
274.719	109.23
274.934	-1.37
275.15	-54.61
275.366	-40.28
275.581	-91.48
275.797	72.36
276.012	-13.65
276.228	-46.42
276.444	-15.7
276.659	123.56
276.875	-34.13
277.09	23.21
277.306	-25.94
277.521	94.89
277.737	-13.65
277.952	45.74
278.168	27.31
278.383	19.11
278.599	12.97
278.814	96.94
279.03	27.31
279.245	123.56
279.461	107.18
279.676	76.46
279.892	-15.7
280.107	-38.23
280.322	-60.76
280.538	31.4
280.753	-44.37
280.969	29.35
281.184	17.07
281.399	144.04
281.615	47.79
281.83	70.31
282.045	-30.04
282.26	-38.23
282.476	15.02
282.691	68.27
282.906	-11.61
283.122	66.22
283.337	25.26
283.552	31.4
283.767	-38.23
283.983	101.03
284.198	-17.75
284.413	98.99
284.628	-17.75
284.843	58.03
285.058	43.69
285.274	-32.08
285.489	21.16
285.704	51.88
285.919	-23.89
286.134	25.26
286.349	-36.18
286.564	-13.65
286.779	51.88
286.995	-40.28
287.21	-13.65
287.425	33.45
287.64	-25.94
287.855	111.27
288.07	-107.86
288.285	68.27
288.5	35.5
288.715	90.79
288.93	43.69
289.145	12.97
289.36	53.93
289.575	45.74
289.79	139.94
290.004	-34.13
290.219	33.45
290.434	-17.75
290.649	-34.13
290.864	12.97
291.079	47.79
291.294	4.78
291.509	39.59
291.724	-15.7
291.938	55.98
292.153	-1.37
292.368	12.97
292.583	-27.99
292.798	51.88
293.012	70.31
293.227	53.93
293.442	4.78
293.657	64.17
293.871	39.59
294.086	43.69
294.301	162.47
294.516	195.24
294.73	49.83
294.945	-68.95
295.16	45.74
295.374	121.51
295.589	152.23
295.804	-40.28
296.018	47.79
296.233	103.08
296.447	68.27
296.662	-81.24
296.877	109.23
297.091	15.02
297.306	45.74
297.52	19.11
297.735	-40.28
297.949	64.17
298.164	60.07
298.378	37.55
298.593	-3.41
298.807	-66.9
299.022	45.74
299.236	135.85
299.451	-56.66
299.665	-48.47
299.88	6.83
300.094	4.78
300.309	10.92
300.523	25.26
300.737	66.22
300.952	33.45
301.166	-3.41
301.381	-64.85
301.595	-64.85
301.809	76.46
302.024	2.73
302.238	33.45
302.452	86.7
302.667	29.35
302.881	146.09
303.095	125.61
303.309	49.83
303.524	4.78
303.738	47.79
303.952	-71
304.166	84.65
304.381	-83.28
304.595	180.9
304.809	58.03
305.023	12.97
305.237	-54.61
305.452	8.87
305.666	60.07
305.88	113.32
306.094	58.03
306.308	-5.46
306.522	76.46
306.736	64.17
306.95	-15.7
307.164	-5.46
307.379	84.65
307.593	133.8
307.807	84.65
308.021	131.75
308.235	66.22
308.449	-73.04
308.663	-11.61
308.877	217.77
309.091	74.41
309.305	-58.71
309.519	-159.06
309.733	205.48
309.947	-107.86
310.161	88.75
310.374	62.12
310.588	86.7
310.802	-21.84
311.016	12.97
311.23	62.12
311.444	-25.94
311.658	0.68
311.872	115.37
312.085	68.27
312.299	135.85
312.513	152.23
312.727	62.12
312.941	-7.51
313.154	-9.56
313.368	82.6
313.582	90.79
313.796	62.12
314.009	39.59
314.223	129.7
314.437	23.21
314.651	35.5
314.864	33.45
315.078	4.78
315.292	-75.09
315.505	-42.32
315.719	8.87
315.933	58.03
316.146	6.83
316.36	-32.08
316.573	139.94
316.787	125.61
317.001	17.07
317.214	-19.8
317.428	105.13
317.641	-148.82
317.855	-62.8
318.068	109.23
318.282	51.88
318.495	162.47
318.709	88.75
318.922	86.7
319.136	137.9
319.349	117.42
319.563	6.83
319.776	21.16
319.99	-97.62
320.203	109.23
320.417	21.16
320.63	74.41
320.843	78.51
321.057	103.08
321.27	60.07
321.483	131.75
321.697	144.04
321.91	21.16
322.124	137.9
322.337	49.83
322.55	-5.46
322.763	-19.8
322.977	-30.04
323.19	55.98
323.403	-11.61
323.617	31.4
323.83	121.51
324.043	6.83
324.256	37.55
324.469	-68.95
324.683	53.93
324.896	49.83
325.109	-5.46
325.322	-81.24
325.535	27.31
325.748	127.66
325.962	6.83
326.175	45.74
326.388	88.75
326.601	78.51
326.814	17.07
327.027	55.98
327.24	180.9
327.453	-73.04
327.666	105.13
327.879	51.88
328.092	107.18
328.305	47.79
328.518	31.4
328.731	-13.65
328.944	-30.04
329.157	49.83
329.37	-34.13
329.583	189.1
329.796	119.46
330.009	-46.42
330.222	158.38
330.435	72.36
330.648	17.07
330.861	12.97
331.073	51.88
331.286	58.03
331.499	29.35
331.712	-64.85
331.925	-3.41
332.138	58.03
332.35	82.6
332.563	-5.46
332.776	55.98
332.989	-50.52
333.202	-7.51
333.414	29.35
333.627	25.26
333.84	-13.65
334.053	113.32
334.265	-77.14
334.478	-11.61
334.691	41.64
334.903	64.17
335.116	17.07
335.329	68.27
335.541	101.03
335.754	197.29
335.966	17.07
336.179	15.02
336.392	-48.47
336.604	19.11
336.817	-3.41
337.029	25.26
337.242	19.11
337.454	82.6
337.667	-3.41
337.88	141.99
338.092	62.12
338.305	55.98
338.517	-25.94
338.729	58.03
338.942	58.03
339.154	12.97
339.367	-36.18
339.579	92.84
339.792	-48.47
340.004	23.21
340.217	-3.41
340.429	10.92
340.641	-42.32
340.854	-42.32
341.066	12.97
341.278	98.99
341.491	150.18
341.703	60.07
341.915	17.07
342.128	101.03
342.34	0.68
342.552	-7.51
342.764	15.02
342.977	25.26
343.189	19.11
343.401	-1.37
343.613	-66.9
343.826	-5.46
344.038	-32.08
344.25	15.02
344.462	2.73
344.674	-11.61
344.886	37.55
345.099	-1.37
345.311	117.42
345.523	-50.52
345.735	-111.96
345.947	37.55
346.159	101.03
346.371	-5.46
346.583	-15.7
346.795	148.14
347.007	-56.66
347.219	27.31
347.431	33.45
347.643	148.14
347.855	-13.65
348.067	166.57
348.279	-32.08
348.491	27.31
348.703	70.31
348.915	43.69
349.127	-13.65
349.339	84.65
349.551	-13.65
349.763	98.99
349.975	-9.56
350.187	137.9
350.399	195.24
350.61	84.65
350.822	43.69
351.034	31.4
351.246	60.07
351.458	37.55
351.669	70.31
351.881	72.36
352.093	131.75
352.305	80.55
352.517	17.07
352.728	98.99
352.94	47.79
353.152	10.92
353.363	-71
353.575	21.16
353.787	60.07
353.999	115.37
354.21	172.71
354.422	-7.51
354.633	-21.84
354.845	55.98
355.057	92.84
355.268	80.55
355.48	72.36
355.692	-25.94
355.903	37.55
356.115	10.92
356.326	-109.91
356.538	127.66
356.749	41.64
356.961	129.7
357.172	17.07
357.384	-19.8
357.595	240.3
357.807	43.69
358.018	-71
358.23	49.83
358.441	86.7
358.653	68.27
358.864	47.79
359.075	-27.99
359.287	39.59
359.498	98.99
359.709	84.65
359.921	47.79
360.132	74.41
360.344	2.73
360.555	-15.7
360.766	78.51
360.977	78.51
361.189	127.66
361.4	70.31
361.611	86.7
361.823	141.99
362.034	41.64
362.245	-111.96
362.456	86.7
362.667	109.23
362.879	31.4
363.09	62.12
363.301	33.45
363.512	49.83
363.723	12.97
363.935	-3.41
364.146	182.95
364.357	-23.89
364.568	-5.46
364.779	-48.47
364.99	129.7
365.201	27.31
365.412	64.17
365.623	-64.85
365.834	33.45
366.045	70.31
366.256	10.92
366.467	101.03
366.678	6.83
366.889	-1.37
367.1	-27.99
367.311	92.84
367.522	80.55
367.733	146.09
367.944	47.79
368.155	49.83
368.366	29.35
368.577	148.14
368.788	33.45
368.999	-25.94
369.209	90.79
369.42	172.71
369.631	264.87
369.842	170.66
370.053	-17.75
370.264	160.42
370.474	-19.8
370.685	76.46
370.896	41.64
371.107	125.61
371.317	82.6
371.528	-5.46
371.739	150.18
371.95	41.64
372.16	94.89
372.371	17.07
372.582	80.55
372.792	82.6
373.003	191.14
373.214	68.27
373.424	60.07
373.635	2.73
373.846	41.64
374.056	37.55
374.267	60.07
374.477	17.07
374.688	0.68
374.898	62.12
375.109	86.7
375.319	107.18
375.53	92.84
375.74	111.27
375.951	90.79
376.161	31.4
376.372	98.99
376.582	-19.8
376.793	103.08
377.003	-48.47
377.214	17.07
377.424	80.55
377.635	127.66
377.845	19.11
378.055	246.44
378.266	2.73
378.476	66.22
378.686	49.83
378.897	31.4
379.107	88.75
379.317	62.12
379.528	-21.84
379.738	17.07
379.948	12.97
380.158	86.7
380.369	8.87
380.579	101.03
380.789	2.73
380.999	33.45
381.21	88.75
381.42	230.06
381.63	-1.37
381.84	70.31
382.05	72.36
382.261	137.9
382.471	84.65
382.681	4.78
382.891	74.41
383.101	92.84
383.311	-32.08
383.521	25.26
383.731	96.94
383.941	74.41
384.151	107.18
384.361	-15.7
384.571	144.04
384.781	49.83
384.991	168.62
385.201	164.52
385.411	66.22
385.621	43.69
385.831	53.93
386.041	19.11
386.251	-15.7
386.461	80.55
386.671	-30.04
386.881	84.65
387.091	74.41
387.301	168.62
387.511	21.16
387.72	80.55
387.93	72.36
388.14	-50.52
388.35	45.74
388.56	113.32
388.769	117.42
388.979	58.03
389.189	-7.51
389.399	-7.51
389.609	88.75
389.818	27.31
390.028	25.26
390.238	53.93
390.447	4.78
390.657	72.36
390.867	-23.89
391.076	-105.81
391.286	21.16
391.496	-13.65
391.705	4.78
391.915	160.42
392.125	86.7
392.334	2.73
392.544	72.36
392.753	12.97
392.963	101.03
393.172	19.11
393.382	-23.89
393.591	144.04
393.801	37.55
394.01	162.47
394.22	144.04
394.429	35.5
394.639	41.64
394.848	70.31
395.058	39.59
395.267	2.73
395.477	129.7
395.686	58.03
395.895	123.56
396.105	156.33
396.314	109.23
396.524	-5.46
396.733	-40.28
396.942	141.99
397.152	60.07
397.361	55.98
397.57	74.41
397.78	86.7
397.989	90.79
398.198	246.44
398.407	21.16
398.617	107.18
398.826	55.98
399.035	17.07
399.244	195.24
399.453	15.02
399.663	60.07
399.872	58.03
400.081	-66.9
400.29	152.23
400.499	-56.66
400.708	72.36
400.917	2.73
401.127	0.68
401.336	-13.65
401.545	170.66
401.754	72.36
401.963	88.75
402.172	-50.52
402.381	-27.99
402.59	-46.42
402.799	29.35
403.008	127.66
403.217	43.69
403.426	-17.75
403.635	-77.14
403.844	58.03
404.053	64.17
404.262	4.78
404.471	203.43
404.68	-11.61
404.888	-15.7
405.097	86.7
405.306	90.79
405.515	64.17
405.724	-11.61
405.933	86.7
406.142	94.89
406.35	105.13
406.559	47.79
406.768	31.4
406.977	111.27
407.185	12.97
407.394	66.22
407.603	-60.76
407.812	96.94
408.02	185
408.229	15.02
408.438	74.41
408.646	-81.24
408.855	41.64
409.064	-3.41
409.272	12.97
409.481	33.45
409.69	-46.42
409.898	8.87
410.107	66.22
410.315	78.51
410.524	-60.76
410.733	-15.7
410.941	53.93
411.15	170.66
411.358	84.65
411.567	150.18
411.775	98.99
411.984	-3.41
412.192	94.89
412.401	31.4
412.609	146.09
412.818	146.09
413.026	94.89
413.234	109.23
413.443	49.83
413.651	-11.61
413.86	-66.9
414.068	78.51
414.276	150.18
414.485	-1.37
414.693	90.79
414.901	240.3
415.11	113.32
415.318	-13.65
415.526	-13.65
415.734	111.27
415.943	109.23
416.151	113.32
416.359	15.02
416.567	58.03
416.776	90.79
416.984	82.6
417.192	164.52
417.4	21.16
417.608	31.4
417.817	-66.9
418.025	96.94
418.233	150.18
418.441	8.87
418.649	-9.56
418.857	19.11
419.065	162.47
419.273	-38.23
419.481	-3.41
419.689	70.31
419.897	-21.84
420.105	-38.23
420.313	187.05
420.521	115.37
420.729	111.27
420.937	12.97
421.145	-15.7
421.353	139.94
421.561	160.42
421.769	94.89
421.977	23.21
422.185	141.99
422.393	113.32
422.601	127.66
422.809	17.07
423.017	80.55
423.224	55.98
423.432	154.28
423.64	31.4
423.848	137.9
424.056	31.4
424.263	82.6
424.471	125.61
424.679	141.99
424.887	68.27
425.094	125.61
425.302	76.46
425.51	49.83
425.718	94.89
425.925	123.56
426.133	17.07
426.341	225.96
426.548	62.12
426.756	43.69
426.964	117.42
427.171	33.45
427.379	25.26
427.586	148.14
427.794	127.66
428.001	178.86
428.209	125.61
428.417	115.37
428.624	115.37
428.832	121.51
429.039	15.02
429.247	141.99
429.454	98.99
429.662	305.83
429.869	123.56
430.076	164.52
430.284	240.3
430.491	221.86
430.699	137.9
430.906	160.42
431.114	150.18
431.321	137.9
431.528	160.42
431.736	164.52
431.943	174.76
432.15	207.53
432.358	141.99
432.565	246.44
432.772	45.74
432.979	203.43
433.187	125.61
433.394	266.92
433.601	39.59
433.808	236.2
434.016	268.97
434.223	293.54
434.43	191.14
434.637	262.82
434.844	283.3
435.052	279.21
435.259	299.69
435.466	322.21
435.673	209.58
435.88	279.21
436.087	383.65
436.294	365.22
436.501	334.5
436.708	338.6
436.915	279.21
437.122	434.85
437.329	314.02
437.537	330.41
437.743	406.18
437.95	481.96
438.157	455.33
438.364	408.23
438.571	443.04
438.778	459.43
438.985	473.76
439.192	604.83
439.399	504.48
439.606	481.96
439.813	596.64
440.02	635.55
440.227	707.23
440.433	629.41
440.64	578.21
440.847	672.42
441.054	635.55
441.261	807.58
441.467	692.9
441.674	610.98
441.881	748.19
442.088	832.16
442.294	832.16
442.501	807.58
442.708	862.88
442.914	866.97
443.121	944.8
443.328	993.95
443.534	936.6
443.741	1055.39
443.948	987.8
444.154	1118.87
444.361	1239.7
444.568	1137.31
444.774	1241.75
444.981	1176.22
445.187	1475.22
445.394	1360.53
445.6	1241.75
445.807	1598.1
446.013	1577.62
446.22	1432.21
446.426	1600.15
446.633	1680.02
446.839	1829.52
447.046	1616.53
447.252	1843.85
447.459	1784.46
447.665	1780.37
447.871	2046.6
448.078	2130.57
448.284	2175.63
448.491	2304.65
448.697	2392.71
448.903	2488.96
449.11	2478.72
449.316	2493.06
449.522	2769.54
449.728	2802.3
449.935	2880.13
450.141	2923.13
450.347	3228.28
450.553	3113.6
450.76	3150.46
450.966	3365.5
451.172	3465.85
451.378	3525.24
451.584	3676.79
451.791	3863.15
451.997	4115.05
452.203	3914.35
452.409	4233.83
452.615	4465.25
452.821	4252.27
453.027	4448.87
453.233	4903.52
453.44	4739.68
453.646	5100.12
453.852	5280.35
454.058	5554.77
454.264	5608.02
454.47	6203.98
454.676	6171.21
454.882	6568.52
455.088	6298.19
455.294	6568.52
455.5	7176.77
455.705	7424.57
455.911	7483.96
456.117	7846.45
456.323	7922.23
456.529	8055.34
456.735	8639.01
456.941	8954.4
457.147	9333.28
457.352	9603.61
457.558	9910.8
457.764	10535.43
457.97	10807.81
458.176	11166.21
458.381	11794.93
458.587	12091.89
458.793	12655.08
458.999	12599.79
459.204	13818.33
459.41	14729.67
459.616	14383.57
459.821	15221.19
460.027	15921.59
460.233	16474.54
460.438	16640.43
460.644	17600.93
460.85	17719.71
461.055	18506.13
461.261	19249.54
461.466	19290.5
461.672	19308.93
461.878	21490.02
462.083	21449.06
462.289	21907.8
462.494	22561.11
462.7	22833.49
462.905	23494.98
463.111	25063.72
463.316	26163.48
463.522	26474.77
463.727	27482.38
463.932	28782.84
464.138	29763.81
464.343	31064.27
464.549	30806.23
464.754	33231.02
464.959	33978.53
465.165	34521.24
465.37	34076.83
465.575	34191.52
465.781	37013.62
465.986	37759.08
466.191	37230.71
466.397	37687.4
466.602	36923.51
466.807	38660.19
467.012	39663.69
467.218	39698.51
467.423	40147.01
467.628	41134.14
467.833	43128.86
468.038	42645.54
468.244	41914.41
468.449	43921.42
468.654	43210.78
