Data from USB4F104151__256__11-20-10-734.txt Node

Date: Wed Feb 26 11:20:10 EST 2025
User: louis
Spectrometer: USB4F10415
Trigger mode: 4
Integration Time (sec): 1.000000E-1
Scans to average: 1
Electric dark correction enabled: true
Nonlinearity correction enabled: false
Boxcar width: 0
XAxis mode: Wavelengths
Number of Pixels in Spectrum: 3648
>>>>>Begin Spectral Data<<<<<
178.204	-444.58
178.424	-444.58
178.644	-444.58
178.864	-434.34
179.084	-377
179.304	-2.22
179.524	-26.79
179.744	67.41
179.964	-6.31
180.184	-16.55
180.404	48.98
180.624	14.17
180.844	-61.61
181.064	-65.71
181.283	38.74
181.503	-24.75
181.723	34.64
181.943	-53.42
182.163	243.54
182.383	-8.36
182.602	126.8
182.822	143.19
183.042	63.32
183.262	38.74
183.482	-10.41
183.701	46.93
183.921	100.18
184.141	-77.99
184.361	178
184.58	38.74
184.8	3.93
185.02	-30.89
185.239	116.56
185.459	53.08
185.679	163.67
185.898	-12.46
186.118	65.36
186.338	67.41
186.557	149.33
186.777	-8.36
186.997	-65.71
187.216	79.7
187.436	157.52
187.655	108.37
187.875	44.88
188.095	53.08
188.314	120.66
188.534	116.56
188.753	-55.47
188.973	192.34
189.192	223.06
189.412	-57.51
189.631	108.37
189.851	81.75
190.07	137.04
190.29	-67.75
190.509	-32.94
190.729	91.99
190.948	149.33
191.168	233.3
191.387	126.8
191.607	16.21
191.826	96.08
192.045	-0.17
192.265	51.03
192.484	122.71
192.704	16.21
192.923	-57.51
193.142	243.54
193.362	186.19
193.581	214.87
193.8	79.7
194.02	20.31
194.239	14.17
194.458	100.18
194.678	-4.27
194.897	-14.51
195.116	28.5
195.335	94.04
195.555	51.03
195.774	36.69
195.993	108.37
196.212	30.55
196.432	-32.94
196.651	-57.51
196.87	20.31
197.089	186.19
197.308	63.32
197.528	130.9
197.747	-30.89
197.966	51.03
198.185	118.61
198.404	-4.27
198.623	102.23
198.842	151.38
199.062	116.56
199.281	106.32
199.5	59.22
199.719	85.84
199.938	61.27
200.157	28.5
200.376	91.99
200.595	110.42
200.814	8.02
201.033	-18.6
201.252	110.42
201.471	61.27
201.69	42.84
201.909	28.5
202.128	153.43
202.347	75.6
202.566	1.88
202.785	-12.46
203.004	-6.31
203.223	194.39
203.442	-10.41
203.661	-34.99
203.879	104.28
204.098	106.32
204.317	-4.27
204.536	51.03
204.755	157.52
204.974	188.24
205.193	8.02
205.411	108.37
205.63	81.75
205.849	48.98
206.068	-45.23
206.287	8.02
206.505	128.85
206.724	14.17
206.943	1.88
207.162	-2.22
207.381	75.6
207.599	46.93
207.818	48.98
208.037	-22.7
208.255	22.36
208.474	36.69
208.693	75.6
208.911	55.12
209.13	96.08
209.349	98.13
209.567	40.79
209.786	77.65
210.005	48.98
210.223	46.93
210.442	-65.71
210.661	61.27
210.879	85.84
211.098	-12.46
211.316	24.4
211.535	85.84
211.753	30.55
211.972	34.64
212.191	-22.7
212.409	16.21
212.628	30.55
212.846	34.64
213.065	8.02
213.283	186.19
213.502	73.56
213.72	-4.27
213.938	59.22
214.157	16.21
214.375	73.56
214.594	42.84
214.812	145.24
215.031	-32.94
215.249	-2.22
215.467	32.6
215.686	100.18
215.904	83.8
216.122	120.66
216.341	216.91
216.559	67.41
216.778	61.27
216.996	153.43
217.214	69.46
217.432	-28.84
217.651	-18.6
217.869	77.65
218.087	85.84
218.306	38.74
218.524	-26.79
218.742	12.12
218.96	120.66
219.179	1.88
219.397	46.93
219.615	247.63
219.833	135
220.051	-0.17
220.27	34.64
220.488	118.61
220.706	79.7
220.924	-4.27
221.142	5.97
221.36	38.74
221.578	71.51
221.796	55.12
222.015	14.17
222.233	192.34
222.451	196.43
222.669	-30.89
222.887	67.41
223.105	-30.89
223.323	51.03
223.541	-71.85
223.759	30.55
223.977	75.6
224.195	163.67
224.413	22.36
224.631	132.95
224.849	106.32
225.067	178
225.285	22.36
225.503	48.98
225.721	-106.67
225.939	34.64
226.157	63.32
226.375	229.2
226.592	-12.46
226.81	34.64
227.028	51.03
227.246	77.65
227.464	51.03
227.682	38.74
227.9	104.28
228.117	46.93
228.335	128.85
228.553	-2.22
228.771	44.88
228.989	30.55
229.206	102.23
229.424	16.21
229.642	75.6
229.86	34.64
230.077	135
230.295	98.13
230.513	147.28
230.731	112.47
230.948	225.11
231.166	227.15
231.384	-26.79
231.601	48.98
231.819	120.66
232.037	28.5
232.254	-8.36
232.472	24.4
232.689	46.93
232.907	165.71
233.125	26.45
233.342	46.93
233.56	48.98
233.777	34.64
233.995	98.13
234.213	34.64
234.43	87.89
234.648	3.93
234.865	67.41
235.083	79.7
235.3	53.08
235.518	24.4
235.735	198.48
235.953	67.41
236.17	36.69
236.388	-24.75
236.605	32.6
236.822	94.04
237.04	48.98
237.257	-2.22
237.475	10.07
237.692	40.79
237.909	120.66
238.127	-20.65
238.344	96.08
238.562	87.89
238.779	-80.04
238.996	-94.38
239.214	-32.94
239.431	32.6
239.648	-10.41
239.865	65.36
240.083	135
240.3	102.23
240.517	-20.65
240.735	55.12
240.952	137.04
241.169	89.94
241.386	38.74
241.603	100.18
241.821	32.6
242.038	96.08
242.255	139.09
242.472	-2.22
242.689	38.74
242.907	61.27
243.124	40.79
243.341	28.5
243.558	44.88
243.775	-0.17
243.992	55.12
244.209	110.42
244.426	141.14
244.643	63.32
244.86	-37.03
245.078	124.76
245.295	126.8
245.512	51.03
245.729	-75.95
245.946	165.71
246.163	120.66
246.38	-51.37
246.597	3.93
246.814	124.76
247.031	94.04
247.248	55.12
247.464	71.51
247.681	12.12
247.898	155.47
248.115	59.22
248.332	18.26
248.549	159.57
248.766	102.23
248.983	100.18
249.2	110.42
249.417	104.28
249.633	32.6
249.85	87.89
250.067	83.8
250.284	79.7
250.501	28.5
250.717	87.89
250.934	87.89
251.151	30.55
251.368	26.45
251.585	38.74
251.801	14.17
252.018	-61.61
252.235	46.93
252.451	-69.8
252.668	-6.31
252.885	75.6
253.102	83.8
253.318	26.45
253.535	-8.36
253.752	32.6
253.968	40.79
254.185	-39.08
254.401	53.08
254.618	24.4
254.835	-6.31
255.051	57.17
255.268	118.61
255.484	38.74
255.701	32.6
255.917	87.89
256.134	-30.89
256.351	22.36
256.567	-34.99
256.784	44.88
257	-51.37
257.217	122.71
257.433	167.76
257.65	67.41
257.866	128.85
258.082	12.12
258.299	36.69
258.515	51.03
258.732	53.08
258.948	12.12
259.165	79.7
259.381	-32.94
259.597	96.08
259.814	-14.51
260.03	40.79
260.246	1.88
260.463	67.41
260.679	42.84
260.895	77.65
261.112	171.86
261.328	26.45
261.544	-96.43
261.761	126.8
261.977	-18.6
262.193	8.02
262.409	137.04
262.626	48.98
262.842	59.22
263.058	22.36
263.274	91.99
263.49	89.94
263.707	59.22
263.923	71.51
264.139	-55.47
264.355	38.74
264.571	55.12
264.787	112.47
265.004	157.52
265.22	30.55
265.436	-41.13
265.652	51.03
265.868	-10.41
266.084	-61.61
266.3	48.98
266.516	-2.22
266.732	46.93
266.948	59.22
267.164	22.36
267.38	61.27
267.596	110.42
267.812	145.24
268.028	46.93
268.244	38.74
268.46	137.04
268.676	53.08
268.892	-2.22
269.108	32.6
269.324	-86.19
269.54	1.88
269.756	153.43
269.972	-18.6
270.188	61.27
270.403	-65.71
270.619	8.02
270.835	94.04
271.051	139.09
271.267	18.26
271.483	75.6
271.698	141.14
271.914	96.08
272.13	32.6
272.346	18.26
272.562	63.32
272.777	128.85
272.993	-14.51
273.209	-12.46
273.425	77.65
273.64	-98.47
273.856	145.24
274.072	-90.28
274.287	8.02
274.503	69.46
274.719	46.93
274.934	24.4
275.15	5.97
275.366	-16.55
275.581	-18.6
275.797	51.03
276.012	73.56
276.228	-16.55
276.444	46.93
276.659	110.42
276.875	-49.32
277.09	18.26
277.306	18.26
277.521	-20.65
277.737	3.93
277.952	135
278.168	69.46
278.383	59.22
278.599	36.69
278.814	44.88
279.03	28.5
279.245	71.51
279.461	-45.23
279.676	124.76
279.892	-20.65
280.107	-30.89
280.322	-39.08
280.538	20.31
280.753	-37.03
280.969	100.18
281.184	-18.6
281.399	135
281.615	96.08
281.83	32.6
282.045	-30.89
282.26	32.6
282.476	24.4
282.691	155.47
282.906	57.17
283.122	38.74
283.337	-30.89
283.552	153.43
283.767	-18.6
283.983	118.61
284.198	48.98
284.413	71.51
284.628	-65.71
284.843	147.28
285.058	178
285.274	48.98
285.489	-26.79
285.704	161.62
285.919	-37.03
286.134	14.17
286.349	24.4
286.564	24.4
286.779	155.47
286.995	55.12
287.21	32.6
287.425	102.23
287.64	24.4
287.855	63.32
288.07	26.45
288.285	147.28
288.5	149.33
288.715	79.7
288.93	26.45
289.145	-14.51
289.36	118.61
289.575	38.74
289.79	81.75
290.004	-24.75
290.219	163.67
290.434	-37.03
290.649	75.6
290.864	26.45
291.079	1.88
291.294	-10.41
291.509	34.64
291.724	24.4
291.938	32.6
292.153	120.66
292.368	-65.71
292.583	51.03
292.798	26.45
293.012	65.36
293.227	53.08
293.442	20.31
293.657	61.27
293.871	124.76
294.086	100.18
294.301	169.81
294.516	79.7
294.73	34.64
294.945	-43.18
295.16	63.32
295.374	135
295.589	67.41
295.804	-26.79
296.018	51.03
296.233	98.13
296.447	132.95
296.662	5.97
296.877	155.47
297.091	73.56
297.306	59.22
297.52	44.88
297.735	48.98
297.949	20.31
298.164	8.02
298.378	57.17
298.593	-34.99
298.807	1.88
299.022	77.65
299.236	151.38
299.451	-22.7
299.665	26.45
299.88	36.69
300.094	106.32
300.309	24.4
300.523	14.17
300.737	10.07
300.952	-8.36
301.166	-14.51
301.381	-0.17
301.595	-32.94
301.809	10.07
302.024	-32.94
302.238	1.88
302.452	124.76
302.667	38.74
302.881	147.28
303.095	106.32
303.309	-16.55
303.524	8.02
303.738	57.17
303.952	-61.61
304.166	-0.17
304.381	-94.38
304.595	155.47
304.809	-20.65
305.023	48.98
305.237	-63.66
305.452	18.26
305.666	94.04
305.88	157.52
306.094	51.03
306.308	87.89
306.522	110.42
306.736	44.88
306.95	110.42
307.164	3.93
307.379	12.12
307.593	147.28
307.807	79.7
308.021	130.9
308.235	75.6
308.449	24.4
308.663	-12.46
308.877	147.28
309.091	87.89
309.305	85.84
309.519	3.93
309.733	124.76
309.947	-43.18
310.161	8.02
310.374	32.6
310.588	130.9
310.802	-125.1
311.016	20.31
311.23	114.52
311.444	28.5
311.658	128.85
311.872	122.71
312.085	165.71
312.299	178
312.513	202.58
312.727	-10.41
312.941	-20.65
313.154	67.41
313.368	55.12
313.582	-43.18
313.796	116.56
314.009	46.93
314.223	132.95
314.437	26.45
314.651	108.37
314.864	-28.84
315.078	36.69
315.292	-43.18
315.505	-45.23
315.719	77.65
315.933	83.8
316.146	-59.56
316.36	5.97
316.573	167.76
316.787	26.45
317.001	67.41
317.214	26.45
317.428	20.31
317.641	-45.23
317.855	-32.94
318.068	-0.17
318.282	100.18
318.495	196.43
318.709	67.41
318.922	-57.51
319.136	135
319.349	73.56
319.563	-0.17
319.776	34.64
319.99	-2.22
320.203	137.04
320.417	34.64
320.63	135
320.843	137.04
321.057	12.12
321.27	-2.22
321.483	112.47
321.697	114.52
321.91	1.88
322.124	104.28
322.337	126.8
322.55	-18.6
322.763	61.27
322.977	71.51
323.19	-26.79
323.403	73.56
323.617	51.03
323.83	145.24
324.043	-34.99
324.256	118.61
324.469	22.36
324.683	128.85
324.896	-16.55
325.109	163.67
325.322	-0.17
325.535	120.66
325.748	36.69
325.962	48.98
326.175	81.75
326.388	110.42
326.601	126.8
326.814	8.02
327.027	89.94
327.24	137.04
327.453	-57.51
327.666	169.81
327.879	116.56
328.092	85.84
328.305	79.7
328.518	-14.51
328.731	36.69
328.944	40.79
329.157	83.8
329.37	-2.22
329.583	130.9
329.796	155.47
330.009	5.97
330.222	48.98
330.435	89.94
330.648	1.88
330.861	73.56
331.073	100.18
331.286	100.18
331.499	38.74
331.712	55.12
331.925	26.45
332.138	55.12
332.35	106.32
332.563	5.97
332.776	73.56
332.989	53.08
333.202	-22.7
333.414	12.12
333.627	96.08
333.84	-10.41
334.053	69.46
334.265	30.55
334.478	-84.14
334.691	22.36
334.903	40.79
335.116	-6.31
335.329	91.99
335.541	212.82
335.754	141.14
335.966	-2.22
336.179	48.98
336.392	-18.6
336.604	-92.33
336.817	126.8
337.029	81.75
337.242	124.76
337.454	98.13
337.667	42.84
337.88	178
338.092	91.99
338.305	159.57
338.517	-71.85
338.729	114.52
338.942	161.62
339.154	-41.13
339.367	-26.79
339.579	71.51
339.792	-4.27
340.004	94.04
340.217	22.36
340.429	-6.31
340.641	-114.86
340.854	44.88
341.066	22.36
341.278	106.32
341.491	186.19
341.703	132.95
341.915	44.88
342.128	18.26
342.34	77.65
342.552	-18.6
342.764	46.93
342.977	-34.99
343.189	65.36
343.401	67.41
343.613	-55.47
343.826	143.19
344.038	-39.08
344.25	81.75
344.462	-26.79
344.674	128.85
344.886	-28.84
345.099	-6.31
345.311	44.88
345.523	-22.7
345.735	-112.81
345.947	61.27
346.159	30.55
346.371	30.55
346.583	-6.31
346.795	221.01
347.007	24.4
347.219	77.65
347.431	22.36
347.643	202.58
347.855	-28.84
348.067	165.71
348.279	-28.84
348.491	14.17
348.703	147.28
348.915	18.26
349.127	28.5
349.339	63.32
349.551	-2.22
349.763	42.84
349.975	67.41
350.187	79.7
350.399	108.37
350.61	44.88
350.822	26.45
351.034	87.89
351.246	104.28
351.458	83.8
351.669	98.13
351.881	71.51
352.093	139.09
352.305	175.95
352.517	194.39
352.728	147.28
352.94	16.21
353.152	98.13
353.363	-0.17
353.575	85.84
353.787	218.96
353.999	5.97
354.21	186.19
354.422	-14.51
354.633	87.89
354.845	75.6
355.057	120.66
355.268	100.18
355.48	59.22
355.692	-63.66
355.903	63.32
356.115	38.74
356.326	-94.38
356.538	137.04
356.749	55.12
356.961	147.28
357.172	44.88
357.384	44.88
357.595	167.76
357.807	-24.75
358.018	-73.9
358.23	-14.51
358.441	159.57
358.653	124.76
358.864	65.36
359.075	26.45
359.287	51.03
359.498	32.6
359.709	1.88
359.921	20.31
360.132	-14.51
360.344	38.74
360.555	-37.03
360.766	75.6
360.977	-12.46
361.189	102.23
361.4	-0.17
361.611	167.76
361.823	112.47
362.034	67.41
362.245	-26.79
362.456	83.8
362.667	163.67
362.879	-30.89
363.09	67.41
363.301	118.61
363.512	24.4
363.723	-63.66
363.935	-24.75
364.146	116.56
364.357	-59.56
364.568	118.61
364.779	-6.31
364.99	147.28
365.201	5.97
365.412	155.47
365.623	-12.46
365.834	40.79
366.045	63.32
366.256	91.99
366.467	114.52
366.678	-12.46
366.889	69.46
367.1	-18.6
367.311	75.6
367.522	16.21
367.733	-24.75
367.944	75.6
368.155	-2.22
368.366	36.69
368.577	87.89
368.788	20.31
368.999	-8.36
369.209	30.55
369.42	190.29
369.631	237.39
369.842	153.43
370.053	-0.17
370.264	91.99
370.474	16.21
370.685	108.37
370.896	-24.75
371.107	75.6
371.317	100.18
371.528	22.36
371.739	155.47
371.95	30.55
372.16	173.91
372.371	-51.37
372.582	36.69
372.792	126.8
373.003	42.84
373.214	30.55
373.424	20.31
373.635	-6.31
373.846	159.57
374.056	57.17
374.267	132.95
374.477	132.95
374.688	-32.94
374.898	55.12
375.109	89.94
375.319	32.6
375.53	126.8
375.74	102.23
375.951	34.64
376.161	57.17
376.372	104.28
376.582	100.18
376.793	65.36
377.003	-51.37
377.214	100.18
377.424	130.9
377.635	-0.17
377.845	-43.18
378.055	120.66
378.266	3.93
378.476	14.17
378.686	42.84
378.897	120.66
379.107	67.41
379.317	87.89
379.528	-4.27
379.738	180.05
379.948	-37.03
380.158	46.93
380.369	94.04
380.579	116.56
380.789	94.04
380.999	67.41
381.21	114.52
381.42	286.54
381.63	-59.56
381.84	59.22
382.05	114.52
382.261	108.37
382.471	145.24
382.681	5.97
382.891	167.76
383.101	124.76
383.311	-10.41
383.521	22.36
383.731	71.51
383.941	42.84
384.151	22.36
384.361	-8.36
384.571	8.02
384.781	96.08
384.991	175.95
385.201	196.43
385.411	157.52
385.621	-4.27
385.831	91.99
386.041	-0.17
386.251	55.12
386.461	100.18
386.671	-28.84
386.881	116.56
387.091	38.74
387.301	106.32
387.511	22.36
387.72	100.18
387.93	118.61
388.14	-51.37
388.35	89.94
388.56	122.71
388.769	122.71
388.979	108.37
389.189	-59.56
389.399	46.93
389.609	59.22
389.818	130.9
390.028	32.6
390.238	63.32
390.447	-18.6
390.657	104.28
390.867	53.08
391.076	-75.95
391.286	83.8
391.496	110.42
391.705	100.18
391.915	116.56
392.125	79.7
392.334	-41.13
392.544	180.05
392.753	100.18
392.963	30.55
393.172	32.6
393.382	8.02
393.591	194.39
393.801	5.97
394.01	171.86
394.22	106.32
394.429	-4.27
394.639	63.32
394.848	128.85
395.058	75.6
395.267	42.84
395.477	48.98
395.686	89.94
395.895	114.52
396.105	235.35
396.314	71.51
396.524	30.55
396.733	73.56
396.942	112.47
397.152	91.99
397.361	126.8
397.57	94.04
397.78	26.45
397.989	147.28
398.198	186.19
398.407	-51.37
398.617	79.7
398.826	18.26
399.035	-14.51
399.244	114.52
399.453	102.23
399.663	67.41
399.872	71.51
400.081	-4.27
400.29	163.67
400.499	-73.9
400.708	91.99
400.917	73.56
401.127	10.07
401.336	-53.42
401.545	192.34
401.754	151.38
401.963	104.28
402.172	85.84
402.381	-24.75
402.59	28.5
402.799	-4.27
403.008	110.42
403.217	110.42
403.426	91.99
403.635	-57.51
403.844	40.79
404.053	-2.22
404.262	104.28
404.471	175.95
404.68	-4.27
404.888	1.88
405.097	-49.32
405.306	85.84
405.515	110.42
405.724	5.97
405.933	159.57
406.142	63.32
406.35	141.14
406.559	44.88
406.768	26.45
406.977	175.95
407.185	55.12
407.394	51.03
407.603	-92.33
407.812	59.22
408.02	137.04
408.229	106.32
408.438	122.71
408.646	-37.03
408.855	42.84
409.064	71.51
409.272	61.27
409.481	38.74
409.69	44.88
409.898	-106.67
410.107	79.7
410.315	118.61
410.524	-34.99
410.733	48.98
410.941	48.98
411.15	65.36
411.358	151.38
411.567	143.19
411.775	38.74
411.984	67.41
412.192	71.51
412.401	22.36
412.609	151.38
412.818	165.71
413.026	159.57
413.234	100.18
413.443	-4.27
413.651	48.98
413.86	94.04
414.068	132.95
414.276	253.78
414.485	34.64
414.693	145.24
414.901	221.01
415.11	73.56
415.318	61.27
415.526	34.64
415.734	126.8
415.943	83.8
416.151	128.85
416.359	-34.99
416.567	75.6
416.776	132.95
416.984	180.05
417.192	264.02
417.4	87.89
417.608	79.7
417.817	-73.9
418.025	128.85
418.233	165.71
418.441	5.97
418.649	96.08
418.857	3.93
419.065	145.24
419.273	12.12
419.481	22.36
419.689	42.84
419.897	12.12
420.105	-55.47
420.313	159.57
420.521	135
420.729	128.85
420.937	-30.89
421.145	3.93
421.353	124.76
421.561	120.66
421.769	114.52
421.977	20.31
422.185	94.04
422.393	77.65
422.601	143.19
422.809	75.6
423.017	16.21
423.224	130.9
423.432	139.09
423.64	130.9
423.848	106.32
424.056	-14.51
424.263	167.76
424.471	5.97
424.679	130.9
424.887	-20.65
425.094	71.51
425.302	167.76
425.51	87.89
425.718	124.76
425.925	83.8
426.133	83.8
426.341	130.9
426.548	18.26
426.756	79.7
426.964	124.76
427.171	-30.89
427.379	106.32
427.586	83.8
427.794	71.51
428.001	135
428.209	108.37
428.417	173.91
428.624	67.41
428.832	120.66
429.039	153.43
429.247	116.56
429.454	143.19
429.662	208.72
429.869	147.28
430.076	83.8
430.284	221.01
430.491	167.76
430.699	159.57
430.906	221.01
431.114	161.62
431.321	135
431.528	175.95
431.736	171.86
431.943	198.48
432.15	155.47
432.358	149.33
432.565	313.17
432.772	48.98
432.979	268.11
433.187	171.86
433.394	194.39
433.601	159.57
433.808	253.78
434.016	223.06
434.223	276.31
434.43	192.34
434.637	194.39
434.844	294.74
435.052	229.2
435.259	208.72
435.466	374.61
435.673	249.68
435.88	296.78
436.087	329.55
436.294	372.56
436.501	286.54
436.708	302.93
436.915	300.88
437.122	317.26
437.329	294.74
437.537	247.63
437.743	251.73
437.95	462.67
438.157	319.31
438.364	292.69
438.571	317.26
438.778	423.76
438.985	327.5
439.192	499.53
439.399	448.33
439.606	446.29
439.813	526.16
440.02	515.92
440.227	577.36
440.433	530.25
440.64	499.53
440.847	425.81
441.054	587.6
441.261	700.23
441.467	593.74
441.674	618.32
441.881	671.56
442.088	501.58
442.294	714.57
442.501	790.35
442.708	841.54
442.914	782.15
443.121	780.11
443.328	859.98
443.534	876.36
443.741	882.5
443.948	804.68
444.154	1046.34
444.361	1107.78
444.568	989
444.774	1081.16
444.981	859.98
445.187	1087.3
445.394	1187.65
445.6	1085.25
445.807	1355.58
446.013	1281.86
446.22	1154.88
446.426	1277.76
446.633	1410.88
446.839	1609.53
447.046	1453.89
447.252	1576.77
447.459	1650.49
447.665	1550.14
447.871	1804.09
448.078	1738.55
448.284	1879.86
448.491	1926.97
448.697	1787.71
448.903	2066.23
449.11	2144.05
449.316	2152.24
449.522	2352.95
449.728	2324.27
449.935	2402.1
450.141	2471.73
450.347	2694.96
450.553	2533.17
450.76	2752.3
450.966	2864.94
451.172	2885.42
451.378	2940.71
451.584	2991.91
451.791	3333.92
451.997	3231.52
452.203	3360.55
452.409	3675.93
452.615	3761.95
452.821	3577.63
453.027	3759.9
453.233	4118.29
453.44	4212.5
453.646	4290.32
453.852	4394.77
454.058	4626.19
454.264	4740.88
454.47	5109.51
454.676	5158.66
454.882	5670.65
455.088	5449.47
455.294	5535.49
455.5	6018.81
455.705	6297.33
455.911	6393.59
456.117	6510.32
456.323	6694.64
456.529	6696.69
456.735	7214.82
456.941	7624.42
457.147	7802.59
457.352	8070.87
457.558	8384.21
457.764	8711.89
457.97	8916.69
458.176	9191.11
458.381	9856.7
458.587	9727.68
458.793	10454.71
458.999	10446.52
459.204	11794.08
459.41	12234.39
459.616	11832.99
459.821	12639.89
460.027	13172.36
460.233	13690.5
460.438	13772.42
460.644	14763.64
460.85	14741.11
461.055	15425.13
461.261	16408.15
461.466	15648.36
461.672	16156.25
461.878	18030.15
462.083	18042.43
462.289	18099.78
462.494	19019.32
462.7	19248.69
462.905	19230.26
463.111	20958.74
463.316	21751.31
463.522	22482.43
463.727	23309.81
463.932	23606.77
464.138	24823.26
464.343	25673.17
464.549	25763.28
464.754	27602.35
464.959	28147.11
465.165	28831.13
465.37	28677.54
465.575	28896.67
465.781	30860.67
465.986	31450.49
466.191	30973.31
466.397	31040.89
466.602	30942.59
466.807	32503.14
467.012	32777.57
467.218	33412.44
467.423	33621.33
467.628	34798.91
467.833	36209.96
468.038	35712.31
468.244	34874.69
468.449	36773.16
468.654	36441.39
