Data from USB4F104151__249__11-19-59-135.txt Node

Date: Wed Feb 26 11:19:59 EST 2025
User: louis
Spectrometer: USB4F10415
Trigger mode: 4
Integration Time (sec): 1.000000E-1
Scans to average: 1
Electric dark correction enabled: true
Nonlinearity correction enabled: false
Boxcar width: 0
XAxis mode: Wavelengths
Number of Pixels in Spectrum: 3648
>>>>>Begin Spectral Data<<<<<
178.204	-366.59
178.424	-366.59
178.644	-366.59
178.864	-446.46
179.084	-397.31
179.304	-20.48
179.524	-73.73
179.744	-10.24
179.964	-8.19
180.184	53.25
180.404	57.34
180.624	-28.67
180.844	12.29
181.064	-8.19
181.283	34.82
181.503	-57.34
181.723	49.15
181.943	-79.87
182.163	143.36
182.383	-12.29
182.602	20.48
182.822	86.01
183.042	47.1
183.262	-53.25
183.482	-14.34
183.701	-36.86
183.921	18.43
184.141	-14.34
184.361	112.64
184.58	16.38
184.8	116.73
185.02	-77.82
185.239	26.62
185.459	59.39
185.679	34.82
185.898	-88.06
186.118	26.62
186.338	8.19
186.557	104.45
186.777	-55.3
186.997	-6.14
187.216	34.82
187.436	202.75
187.655	43.01
187.875	53.25
188.095	40.96
188.314	149.5
188.534	57.34
188.753	12.29
188.973	92.16
189.192	163.84
189.412	18.43
189.631	20.48
189.851	34.82
190.07	176.13
190.29	-43.01
190.509	-36.86
190.729	-38.91
190.948	67.58
191.168	202.75
191.387	61.44
191.607	38.91
191.826	20.48
192.045	20.48
192.265	-16.38
192.484	20.48
192.704	-92.16
192.923	-75.77
193.142	221.18
193.362	59.39
193.581	102.4
193.8	69.63
194.02	114.69
194.239	-22.53
194.458	69.63
194.678	-18.43
194.897	26.62
195.116	63.49
195.335	51.2
195.555	65.54
195.774	-108.54
195.993	73.73
196.212	55.3
196.432	28.67
196.651	-49.15
196.87	22.53
197.089	190.46
197.308	2.05
197.528	47.1
197.747	-6.14
197.966	28.67
198.185	153.6
198.404	-57.34
198.623	100.35
198.842	43.01
199.062	112.64
199.281	92.16
199.5	22.53
199.719	-30.72
199.938	59.39
200.157	83.97
200.376	83.97
200.595	90.11
200.814	49.15
201.033	8.19
201.252	122.88
201.471	106.49
201.69	143.36
201.909	-14.34
202.128	151.55
202.347	-4.1
202.566	-10.24
202.785	-67.58
203.004	18.43
203.223	112.64
203.442	45.06
203.661	-71.68
203.879	116.73
204.098	131.07
204.317	-12.29
204.536	57.34
204.755	34.82
204.974	45.06
205.193	18.43
205.411	133.12
205.63	63.49
205.849	59.39
206.068	40.96
206.287	-24.58
206.505	196.61
206.724	10.24
206.943	24.58
207.162	-75.77
207.381	118.78
207.599	51.2
207.818	69.63
208.037	-63.49
208.255	49.15
208.474	112.64
208.693	53.25
208.911	-26.62
209.13	137.21
209.349	65.54
209.567	20.48
209.786	16.38
210.005	88.06
210.223	77.82
210.442	-120.83
210.661	-22.53
210.879	77.82
211.098	8.19
211.316	43.01
211.535	55.3
211.753	-30.72
211.972	51.2
212.191	-63.49
212.409	30.72
212.628	49.15
212.846	-4.1
213.065	86.01
213.283	104.45
213.502	16.38
213.72	-116.73
213.938	10.24
214.157	-26.62
214.375	92.16
214.594	-38.91
214.812	34.82
215.031	-6.14
215.249	-10.24
215.467	16.38
215.686	131.07
215.904	8.19
216.122	61.44
216.341	137.21
216.559	38.91
216.778	141.31
216.996	69.63
217.214	30.72
217.432	-75.77
217.651	-90.11
217.869	83.97
218.087	6.14
218.306	-4.1
218.524	30.72
218.742	30.72
218.96	65.54
219.179	22.53
219.397	-45.06
219.615	124.93
219.833	59.39
220.051	-79.87
220.27	12.29
220.488	63.49
220.706	34.82
220.924	-45.06
221.142	-4.1
221.36	106.49
221.578	69.63
221.796	22.53
222.015	18.43
222.233	-45.06
222.451	141.31
222.669	-14.34
222.887	88.06
223.105	-34.82
223.323	32.77
223.541	28.67
223.759	26.62
223.977	55.3
224.195	198.65
224.413	124.93
224.631	69.63
224.849	36.86
225.067	190.46
225.285	12.29
225.503	-38.91
225.721	-12.29
225.939	94.21
226.157	-73.73
226.375	178.17
226.592	-22.53
226.81	30.72
227.028	118.78
227.246	139.26
227.464	71.68
227.682	116.73
227.9	34.82
228.117	96.25
228.335	124.93
228.553	-57.34
228.771	-45.06
228.989	-20.48
229.206	47.1
229.424	-40.96
229.642	-73.73
229.86	-86.01
230.077	88.06
230.295	6.14
230.513	92.16
230.731	61.44
230.948	145.41
231.166	143.36
231.384	14.34
231.601	-2.05
231.819	133.12
232.037	8.19
232.254	-67.58
232.472	-53.25
232.689	2.05
232.907	51.2
233.125	22.53
233.342	-96.25
233.56	-67.58
233.777	-10.24
233.995	16.38
234.213	106.49
234.43	69.63
234.648	38.91
234.865	-10.24
235.083	10.24
235.3	14.34
235.518	77.82
235.735	124.93
235.953	108.54
236.17	-2.05
236.388	-38.91
236.605	61.44
236.822	57.34
237.04	104.45
237.257	18.43
237.475	-79.87
237.692	28.67
237.909	86.01
238.127	-73.73
238.344	83.97
238.562	77.82
238.779	-22.53
238.996	20.48
239.214	28.67
239.431	53.25
239.648	18.43
239.865	139.26
240.083	26.62
240.3	-20.48
240.517	-104.45
240.735	18.43
240.952	49.15
241.169	61.44
241.386	20.48
241.603	-14.34
241.821	-24.58
242.038	22.53
242.255	38.91
242.472	2.05
242.689	67.58
242.907	83.97
243.124	28.67
243.341	34.82
243.558	-49.15
243.775	-137.21
243.992	-75.77
244.209	96.25
244.426	133.12
244.643	36.86
244.86	-20.48
245.078	108.54
245.295	10.24
245.512	0
245.729	-59.39
245.946	75.77
246.163	-6.14
246.38	75.77
246.597	34.82
246.814	73.73
247.031	-6.14
247.248	-20.48
247.464	110.59
247.681	59.39
247.898	8.19
248.115	51.2
248.332	-49.15
248.549	98.3
248.766	145.41
248.983	22.53
249.2	4.1
249.417	165.89
249.633	45.06
249.85	61.44
250.067	-20.48
250.284	73.73
250.501	67.58
250.717	69.63
250.934	0
251.151	36.86
251.368	-2.05
251.585	71.68
251.801	59.39
252.018	-102.4
252.235	43.01
252.451	-38.91
252.668	6.14
252.885	65.54
253.102	2.05
253.318	-51.2
253.535	26.62
253.752	10.24
253.968	-51.2
254.185	-40.96
254.401	30.72
254.618	-20.48
254.835	-38.91
255.051	51.2
255.268	-28.67
255.484	38.91
255.701	-59.39
255.917	51.2
256.134	12.29
256.351	83.97
256.567	10.24
256.784	-47.1
257	-53.25
257.217	129.02
257.433	63.49
257.65	-32.77
257.866	131.07
258.082	-53.25
258.299	16.38
258.515	22.53
258.732	22.53
258.948	14.34
259.165	40.96
259.381	-79.87
259.597	83.97
259.814	-24.58
260.03	-22.53
260.246	-71.68
260.463	129.02
260.679	190.46
260.895	83.97
261.112	14.34
261.328	30.72
261.544	-10.24
261.761	163.84
261.977	-86.01
262.193	0
262.409	28.67
262.626	-2.05
262.842	96.25
263.058	2.05
263.274	94.21
263.49	81.92
263.707	106.49
263.923	32.77
264.139	-96.25
264.355	20.48
264.571	53.25
264.787	92.16
265.004	102.4
265.22	75.77
265.436	-24.58
265.652	63.49
265.868	4.1
266.084	-53.25
266.3	2.05
266.516	-14.34
266.732	100.35
266.948	34.82
267.164	-6.14
267.38	43.01
267.596	-30.72
267.812	92.16
268.028	36.86
268.244	-38.91
268.46	-26.62
268.676	-57.34
268.892	81.92
269.108	28.67
269.324	-16.38
269.54	-2.05
269.756	75.77
269.972	-75.77
270.188	-18.43
270.403	-57.34
270.619	-71.68
270.835	94.21
271.051	-59.39
271.267	-30.72
271.483	-63.49
271.698	63.49
271.914	-16.38
272.13	-43.01
272.346	-47.1
272.562	-14.34
272.777	40.96
272.993	79.87
273.209	-28.67
273.425	57.34
273.64	-77.82
273.856	131.07
274.072	-49.15
274.287	16.38
274.503	63.49
274.719	12.29
274.934	-51.2
275.15	-67.58
275.366	45.06
275.581	16.38
275.797	73.73
276.012	151.55
276.228	18.43
276.444	65.54
276.659	24.58
276.875	-32.77
277.09	14.34
277.306	2.05
277.521	67.58
277.737	34.82
277.952	86.01
278.168	14.34
278.383	45.06
278.599	71.68
278.814	22.53
279.03	-38.91
279.245	157.69
279.461	12.29
279.676	51.2
279.892	12.29
280.107	-14.34
280.322	16.38
280.538	26.62
280.753	-43.01
280.969	-6.14
281.184	73.73
281.399	112.64
281.615	-2.05
281.83	133.12
282.045	-57.34
282.26	6.14
282.476	73.73
282.691	51.2
282.906	26.62
283.122	28.67
283.337	-75.77
283.552	90.11
283.767	-12.29
283.983	65.54
284.198	30.72
284.413	118.78
284.628	-57.34
284.843	26.62
285.058	90.11
285.274	-18.43
285.489	0
285.704	151.55
285.919	-45.06
286.134	24.58
286.349	-55.3
286.564	18.43
286.779	88.06
286.995	28.67
287.21	-65.53
287.425	43.01
287.64	-32.77
287.855	59.39
288.07	-104.45
288.285	100.35
288.5	102.4
288.715	40.96
288.93	-36.86
289.145	24.58
289.36	141.31
289.575	32.77
289.79	135.17
290.004	-47.1
290.219	67.58
290.434	0
290.649	12.29
290.864	-22.53
291.079	45.06
291.294	51.2
291.509	55.3
291.724	40.96
291.938	28.67
292.153	-4.1
292.368	40.96
292.583	26.62
292.798	-2.05
293.012	71.68
293.227	18.43
293.442	-71.68
293.657	47.1
293.871	77.82
294.086	98.3
294.301	122.88
294.516	122.88
294.73	28.67
294.945	-90.11
295.16	-59.39
295.374	151.55
295.589	124.93
295.804	-20.48
296.018	47.1
296.233	83.97
296.447	14.34
296.662	8.19
296.877	143.36
297.091	59.39
297.306	28.67
297.52	51.2
297.735	-14.34
297.949	143.36
298.164	10.24
298.378	-10.24
298.593	-10.24
298.807	-73.73
299.022	-32.77
299.236	94.21
299.451	-43.01
299.665	28.67
299.88	26.62
300.094	24.58
300.309	55.3
300.523	77.82
300.737	38.91
300.952	34.82
301.166	-24.58
301.381	-8.19
301.595	-73.73
301.809	16.38
302.024	43.01
302.238	-14.34
302.452	110.59
302.667	6.14
302.881	-8.19
303.095	49.15
303.309	77.82
303.524	40.96
303.738	-38.91
303.952	22.53
304.166	16.38
304.381	-112.64
304.595	108.54
304.809	-51.2
305.023	18.43
305.237	28.67
305.452	-2.05
305.666	90.11
305.88	100.35
306.094	172.03
306.308	18.43
306.522	73.73
306.736	81.92
306.95	51.2
307.164	8.19
307.379	34.82
307.593	40.96
307.807	116.73
308.021	106.49
308.235	124.93
308.449	-59.39
308.663	-63.49
308.877	262.14
309.091	94.21
309.305	71.68
309.519	-137.21
309.733	159.74
309.947	-63.49
310.161	102.4
310.374	30.72
310.588	169.98
310.802	-14.34
311.016	-14.34
311.23	100.35
311.444	-24.58
311.658	-38.91
311.872	65.54
312.085	122.88
312.299	100.35
312.513	118.78
312.727	47.1
312.941	-67.58
313.154	14.34
313.368	26.62
313.582	-59.39
313.796	79.87
314.009	-61.44
314.223	73.73
314.437	55.3
314.651	67.58
314.864	-16.38
315.078	-4.1
315.292	-12.29
315.505	4.1
315.719	40.96
315.933	4.1
316.146	-43.01
316.36	4.1
316.573	122.88
316.787	55.3
317.001	14.34
317.214	-55.3
317.428	26.62
317.641	-49.15
317.855	20.48
318.068	40.96
318.282	-61.44
318.495	217.08
318.709	106.49
318.922	-6.14
319.136	126.97
319.349	51.2
319.563	-10.24
319.776	28.67
319.99	-88.06
320.203	73.73
320.417	-10.24
320.63	83.97
320.843	110.59
321.057	69.63
321.27	-16.38
321.483	69.63
321.697	96.25
321.91	6.14
322.124	59.39
322.337	90.11
322.55	-114.69
322.763	24.58
322.977	-61.44
323.19	-18.43
323.403	55.3
323.617	36.86
323.83	81.92
324.043	6.14
324.256	30.72
324.469	-75.77
324.683	114.69
324.896	16.38
325.109	-53.25
325.322	-81.92
325.535	14.34
325.748	28.67
325.962	-43.01
326.175	30.72
326.388	57.34
326.601	147.45
326.814	-12.29
327.027	92.16
327.24	129.02
327.453	-159.74
327.666	96.25
327.879	106.49
328.092	14.34
328.305	34.82
328.518	0
328.731	100.35
328.944	-8.19
329.157	28.67
329.37	8.19
329.583	108.54
329.796	165.89
330.009	-100.35
330.222	47.1
330.435	96.25
330.648	-4.1
330.861	108.54
331.073	65.54
331.286	40.96
331.499	24.58
331.712	-30.72
331.925	-43.01
332.138	-10.24
332.35	118.78
332.563	-36.86
332.776	61.44
332.989	-14.34
333.202	-22.53
333.414	30.72
333.627	43.01
333.84	-10.24
334.053	151.55
334.265	32.77
334.478	30.72
334.691	75.77
334.903	86.01
335.116	-14.34
335.329	-38.91
335.541	24.58
335.754	141.31
335.966	-90.11
336.179	40.96
336.392	10.24
336.604	45.06
336.817	73.73
337.029	59.39
337.242	-12.29
337.454	88.06
337.667	83.97
337.88	79.87
338.092	32.77
338.305	67.58
338.517	-14.34
338.729	79.87
338.942	75.77
339.154	-79.87
339.367	-36.86
339.579	8.19
339.792	18.43
340.004	55.3
340.217	-10.24
340.429	-8.19
340.641	-22.53
340.854	-79.87
341.066	-88.06
341.278	71.68
341.491	96.25
341.703	86.01
341.915	-110.59
342.128	38.91
342.34	79.87
342.552	-47.1
342.764	49.15
342.977	-4.1
343.189	20.48
343.401	-20.48
343.613	-67.58
343.826	22.53
344.038	-20.48
344.25	141.31
344.462	-34.82
344.674	104.45
344.886	104.45
345.099	24.58
345.311	-8.19
345.523	-20.48
345.735	-53.25
345.947	55.3
346.159	26.62
346.371	65.54
346.583	-61.44
346.795	157.69
347.007	4.1
347.219	34.82
347.431	61.44
347.643	12.29
347.855	14.34
348.067	129.02
348.279	-77.82
348.491	-65.53
348.703	67.58
348.915	45.06
349.127	-61.44
349.339	90.11
349.551	63.49
349.763	61.44
349.975	26.62
350.187	90.11
350.399	102.4
350.61	0
350.822	20.48
351.034	83.97
351.246	18.43
351.458	61.44
351.669	-22.53
351.881	6.14
352.093	114.69
352.305	90.11
352.517	77.82
352.728	92.16
352.94	53.25
353.152	51.2
353.363	-38.91
353.575	43.01
353.787	159.74
353.999	0
354.21	114.69
354.422	-26.62
354.633	34.82
354.845	10.24
355.057	47.1
355.268	-10.24
355.48	163.84
355.692	-90.11
355.903	61.44
356.115	0
356.326	-120.83
356.538	86.01
356.749	30.72
356.961	131.07
357.172	71.68
357.384	-34.82
357.595	245.76
357.807	43.01
358.018	67.58
358.23	83.97
358.441	141.31
358.653	30.72
358.864	4.1
359.075	-73.73
359.287	26.62
359.498	57.34
359.709	47.1
359.921	34.82
360.132	6.14
360.344	-10.24
360.555	-67.58
360.766	49.15
360.977	-24.58
361.189	30.72
361.4	-2.05
361.611	34.82
361.823	114.69
362.034	88.06
362.245	-155.65
362.456	6.14
362.667	100.35
362.879	-36.86
363.09	77.82
363.301	22.53
363.512	38.91
363.723	-22.53
363.935	-45.06
364.146	108.54
364.357	-47.1
364.568	112.64
364.779	-24.58
364.99	135.17
365.201	-69.63
365.412	133.12
365.623	-118.78
365.834	47.1
366.045	26.62
366.256	40.96
366.467	71.68
366.678	36.86
366.889	98.3
367.1	0
367.311	110.59
367.522	8.19
367.733	112.64
367.944	43.01
368.155	-53.25
368.366	90.11
368.577	122.88
368.788	86.01
368.999	-51.2
369.209	10.24
369.42	167.93
369.631	258.04
369.842	112.64
370.053	10.24
370.264	77.82
370.474	-18.43
370.685	-16.38
370.896	-38.91
371.107	116.73
371.317	14.34
371.528	14.34
371.739	90.11
371.95	-10.24
372.16	47.1
372.371	-22.53
372.582	12.29
372.792	28.67
373.003	90.11
373.214	40.96
373.424	100.35
373.635	-32.77
373.846	55.3
374.056	6.14
374.267	45.06
374.477	22.53
374.688	-6.14
374.898	116.73
375.109	92.16
375.319	110.59
375.53	124.93
375.74	61.44
375.951	-26.62
376.161	65.54
376.372	120.83
376.582	57.34
376.793	43.01
377.003	-10.24
377.214	20.48
377.424	63.49
377.635	69.63
377.845	10.24
378.055	196.61
378.266	-55.3
378.476	-67.58
378.686	126.97
378.897	8.19
379.107	20.48
379.317	81.92
379.528	-22.53
379.738	79.87
379.948	-32.77
380.158	83.97
380.369	28.67
380.579	67.58
380.789	-8.19
380.999	145.41
381.21	114.69
381.42	165.89
381.63	-18.43
381.84	104.45
382.05	-16.38
382.261	73.73
382.471	96.25
382.681	-8.19
382.891	161.79
383.101	38.91
383.311	-61.44
383.521	-53.25
383.731	90.11
383.941	145.41
384.151	36.86
384.361	36.86
384.571	20.48
384.781	59.39
384.991	233.47
385.201	139.26
385.411	75.77
385.621	100.35
385.831	55.3
386.041	-10.24
386.251	2.05
386.461	28.67
386.671	40.96
386.881	45.06
387.091	-22.53
387.301	178.17
387.511	77.82
387.72	34.82
387.93	149.5
388.14	-51.2
388.35	36.86
388.56	118.78
388.769	120.83
388.979	49.15
389.189	-30.72
389.399	4.1
389.609	86.01
389.818	178.17
390.028	-40.96
390.238	118.78
390.447	-8.19
390.657	-38.91
390.867	-28.67
391.076	-126.97
391.286	49.15
391.496	8.19
391.705	94.21
391.915	182.27
392.125	63.49
392.334	22.53
392.544	102.4
392.753	-22.53
392.963	-45.06
393.172	55.3
393.382	49.15
393.591	174.08
393.801	-2.05
394.01	108.54
394.22	65.54
394.429	-61.44
394.639	-20.48
394.848	-6.14
395.058	10.24
395.267	0
395.477	75.77
395.686	83.97
395.895	217.08
396.105	120.83
396.314	32.77
396.524	49.15
396.733	-40.96
396.942	83.97
397.152	28.67
397.361	188.41
397.57	-8.19
397.78	55.3
397.989	65.54
398.198	212.99
398.407	30.72
398.617	47.1
398.826	38.91
399.035	-63.49
399.244	96.25
399.453	14.34
399.663	34.82
399.872	108.54
400.081	-92.16
400.29	90.11
400.499	-36.86
400.708	65.54
400.917	47.1
401.127	26.62
401.336	57.34
401.545	159.74
401.754	102.4
401.963	71.68
402.172	81.92
402.381	0
402.59	12.29
402.799	-51.2
403.008	49.15
403.217	-10.24
403.426	36.86
403.635	-26.62
403.844	12.29
404.053	43.01
404.262	26.62
404.471	184.32
404.68	43.01
404.888	43.01
405.097	-18.43
405.306	6.14
405.515	71.68
405.724	59.39
405.933	147.45
406.142	34.82
406.35	77.82
406.559	16.38
406.768	53.25
406.977	155.65
407.185	22.53
407.394	71.68
407.603	-12.29
407.812	69.63
408.02	75.77
408.229	24.58
408.438	34.82
408.646	-92.16
408.855	2.05
409.064	-26.62
409.272	24.58
409.481	122.88
409.69	-4.1
409.898	-45.06
410.107	40.96
410.315	57.34
410.524	59.39
410.733	73.73
410.941	79.87
411.15	38.91
411.358	69.63
411.567	153.6
411.775	-59.39
411.984	10.24
412.192	53.25
412.401	-16.38
412.609	198.65
412.818	100.35
413.026	79.87
413.234	4.1
413.443	10.24
413.651	53.25
413.86	10.24
414.068	126.97
414.276	198.65
414.485	-30.72
414.693	147.45
414.901	268.28
415.11	10.24
415.318	79.87
415.526	61.44
415.734	98.3
415.943	71.68
416.151	90.11
416.359	8.19
416.567	90.11
416.776	120.83
416.984	2.05
417.192	147.45
417.4	-30.72
417.608	-4.1
417.817	-12.29
418.025	61.44
418.233	110.59
418.441	-38.91
418.649	24.58
418.857	36.86
419.065	96.25
419.273	-45.06
419.481	57.34
419.689	20.48
419.897	-26.62
420.105	-40.96
420.313	75.77
420.521	149.5
420.729	124.93
420.937	34.82
421.145	-22.53
421.353	49.15
421.561	100.35
421.769	34.82
421.977	36.86
422.185	81.92
422.393	86.01
422.601	124.93
422.809	55.3
423.017	38.91
423.224	81.92
423.432	116.73
423.64	12.29
423.848	159.74
424.056	14.34
424.263	110.59
424.471	26.62
424.679	202.75
424.887	8.19
425.094	145.41
425.302	102.4
425.51	65.54
425.718	92.16
425.925	-16.38
426.133	-18.43
426.341	215.04
426.548	-45.06
426.756	22.53
426.964	149.5
427.171	-38.91
427.379	108.54
427.586	63.49
427.794	81.92
428.001	151.55
428.209	102.4
428.417	147.45
428.624	124.93
428.832	143.36
429.039	79.87
429.247	157.69
429.454	129.02
429.662	237.56
429.869	100.35
430.076	149.5
430.284	155.65
430.491	192.51
430.699	92.16
430.906	241.66
431.114	147.45
431.321	149.5
431.528	110.59
431.736	204.8
431.943	176.13
432.15	169.98
432.358	188.41
432.565	239.61
432.772	20.48
432.979	190.46
433.187	108.54
433.394	231.42
433.601	94.21
433.808	186.37
434.016	245.76
434.223	258.04
434.43	161.79
434.637	217.08
434.844	296.96
435.052	227.32
435.259	305.15
435.466	264.19
435.673	229.37
435.88	272.38
436.087	286.72
436.294	421.88
436.501	346.11
436.708	311.29
436.915	296.96
437.122	358.39
437.329	223.23
437.537	335.87
437.743	305.15
437.95	358.39
438.157	354.3
438.364	395.26
438.571	385.02
438.778	354.3
438.985	434.17
439.192	438.27
439.399	370.68
439.606	487.42
439.813	526.33
440.02	534.52
440.227	614.39
440.433	563.19
440.64	550.9
440.847	575.48
441.054	632.82
441.261	735.22
441.467	626.68
441.674	600.05
441.881	800.76
442.088	669.69
442.294	741.36
442.501	811
442.708	835.57
442.914	856.05
443.121	792.56
443.328	921.59
443.534	1095.66
443.741	937.97
443.948	829.43
444.154	956.4
444.361	1134.57
444.568	1066.99
444.774	1110
444.981	993.26
445.187	1185.77
445.394	1173.49
445.6	1214.45
445.807	1421.29
446.013	1339.37
446.22	1325.04
446.426	1454.06
446.633	1642.47
446.839	1669.09
447.046	1419.24
447.252	1785.83
447.459	1714.15
447.665	1794.02
447.871	2004.96
448.078	2119.65
448.284	1906.66
448.491	2074.59
448.697	2174.94
448.903	2187.23
449.11	2183.13
449.316	2238.43
449.522	2422.75
449.728	2566.1
449.935	2707.41
450.141	2643.93
450.347	2781.14
450.553	2760.66
450.76	2947.03
450.966	3166.16
451.172	3108.82
451.378	3227.6
451.584	3301.33
451.791	3499.98
451.997	3590.09
452.203	3762.12
452.409	3901.38
452.615	4136.9
452.821	3977.16
453.027	3977.16
453.233	4648.89
453.44	4417.47
453.646	4679.61
453.852	5007.28
454.058	5017.52
454.264	5136.31
454.47	5554.09
454.676	5560.24
454.882	6078.37
455.088	5662.63
455.294	6080.42
455.5	6508.44
455.705	6791.06
455.911	6791.06
456.117	7110.55
456.323	7290.77
456.529	7301.01
456.735	8167.3
456.941	8249.22
457.147	8626.04
457.352	8812.41
457.558	8939.38
457.764	9486.19
457.97	9797.48
458.176	10284.9
458.381	10538.85
458.587	10991.45
458.793	11376.47
458.999	11568.98
459.204	13113.14
459.41	13266.74
459.616	13053.75
459.821	13578.03
460.027	14554.91
460.233	15238.94
460.438	15009.56
460.644	16137.99
460.85	16330.5
461.055	16994.04
461.261	17594.1
461.466	17211.13
461.672	17739.51
461.878	20061.9
462.083	19554.01
462.289	19912.4
462.494	20764.36
462.7	20979.39
462.905	21161.66
463.111	22609.57
463.316	23633.56
463.522	24499.85
463.727	25386.62
463.932	26142.32
464.138	27012.71
464.343	27778.65
464.549	28067.41
464.754	30494.25
464.959	31153.7
465.165	31749.66
465.37	31495.71
465.575	31620.64
465.781	33730.05
465.986	34641.39
466.191	33940.99
466.397	34258.42
466.602	33234.44
466.807	35519.97
467.012	36142.55
467.218	36648.4
467.423	36781.52
467.628	37471.68
467.833	39456.17
468.038	39038.38
468.244	38188.47
468.449	40465.81
