Data from USB4F104151__237__11-06-30-325.txt Node

Date: Wed Feb 26 11:06:30 EST 2025
User: louis
Spectrometer: USB4F10415
Trigger mode: 4
Integration Time (sec): 1.000000E-1
Scans to average: 1
Electric dark correction enabled: true
Nonlinearity correction enabled: false
Boxcar width: 0
XAxis mode: Wavelengths
Number of Pixels in Spectrum: 3648
>>>>>Begin Spectral Data<<<<<
178.204	-338.6
178.424	-338.6
178.644	-338.6
178.864	-426.66
179.084	-400.04
179.304	77.14
179.524	34.13
179.744	3.41
179.964	34.13
180.184	68.95
180.404	-12.97
180.624	-15.02
180.844	-68.27
181.064	-80.55
181.283	-39.59
181.503	-60.07
181.723	58.71
181.943	-62.12
182.163	238.93
182.383	50.52
182.602	101.72
182.822	150.87
183.042	27.99
183.262	-39.59
183.482	19.8
183.701	-15.02
183.921	89.43
184.141	-107.18
184.361	66.9
184.58	120.15
184.8	93.52
185.02	-19.11
185.239	77.14
185.459	-10.92
185.679	161.11
185.898	-37.55
186.118	93.52
186.338	60.76
186.557	95.57
186.777	11.61
186.997	-53.93
187.216	-19.11
187.436	179.54
187.655	48.47
187.875	95.57
188.095	42.32
188.314	109.91
188.534	187.73
188.753	-2.73
188.973	165.2
189.192	234.83
189.412	13.65
189.631	62.8
189.851	-8.87
190.07	105.81
190.29	-51.88
190.509	3.41
190.729	-29.35
190.948	138.58
191.168	218.45
191.387	30.04
191.607	64.85
191.826	5.46
192.045	17.75
192.265	13.65
192.484	68.95
192.704	111.96
192.923	-58.03
193.142	183.63
193.362	146.77
193.581	183.63
193.8	11.61
194.02	93.52
194.239	36.18
194.458	114
194.678	-8.87
194.897	-58.03
195.116	5.46
195.335	54.61
195.555	75.09
195.774	-21.16
195.993	146.77
196.212	60.76
196.432	-29.35
196.651	40.28
196.87	66.9
197.089	173.39
197.308	42.32
197.528	66.9
197.747	-80.55
197.966	66.9
198.185	197.97
198.404	-76.46
198.623	85.33
198.842	157.01
199.062	128.34
199.281	83.28
199.5	83.28
199.719	136.53
199.938	130.39
200.157	25.94
200.376	75.09
200.595	128.34
200.814	42.32
201.033	-35.5
201.252	152.92
201.471	-21.16
201.69	23.89
201.909	56.66
202.128	159.06
202.347	38.23
202.566	60.76
202.785	-101.03
203.004	40.28
203.223	218.45
203.442	83.28
203.661	-4.78
203.879	118.1
204.098	126.29
204.317	15.7
204.536	83.28
204.755	97.62
204.974	50.52
205.193	50.52
205.411	128.34
205.63	60.76
205.849	68.95
206.068	7.51
206.287	-10.92
206.505	75.09
206.724	3.41
206.943	38.23
207.162	-10.92
207.381	9.56
207.599	21.85
207.818	44.37
208.037	-2.73
208.255	27.99
208.474	54.61
208.693	60.76
208.911	75.09
209.13	44.37
209.349	46.42
209.567	97.62
209.786	66.9
210.005	64.85
210.223	105.81
210.442	-29.35
210.661	42.32
210.879	-10.92
211.098	83.28
211.316	52.56
211.535	81.24
211.753	77.14
211.972	58.71
212.191	13.65
212.409	-58.03
212.628	87.38
212.846	46.42
213.065	-29.35
213.283	132.44
213.502	-12.97
213.72	66.9
213.938	62.8
214.157	3.41
214.375	83.28
214.594	54.61
214.812	120.15
215.031	-23.21
215.249	62.8
215.467	60.76
215.686	118.1
215.904	87.38
216.122	77.14
216.341	154.96
216.559	34.13
216.778	79.19
216.996	163.15
217.214	89.43
217.432	36.18
217.651	-4.78
217.869	38.23
218.087	42.32
218.306	68.95
218.524	56.66
218.742	-31.4
218.96	81.24
219.179	44.37
219.397	15.7
219.615	259.41
219.833	118.1
220.051	-55.98
220.27	62.8
220.488	62.8
220.706	95.57
220.924	-29.35
221.142	-43.69
221.36	95.57
221.578	66.9
221.796	-4.78
222.015	140.63
222.233	32.08
222.451	169.3
222.669	-10.92
222.887	34.13
223.105	-19.11
223.323	-17.07
223.541	7.51
223.759	66.9
223.977	77.14
224.195	126.29
224.413	93.52
224.631	66.9
224.849	40.28
225.067	204.11
225.285	-8.87
225.503	-29.35
225.721	-101.03
225.939	60.76
226.157	17.75
226.375	251.22
226.592	15.7
226.81	66.9
227.028	89.43
227.246	75.09
227.464	44.37
227.682	25.94
227.9	118.1
228.117	73.04
228.335	89.43
228.553	54.61
228.771	50.52
228.989	17.75
229.206	126.29
229.424	85.33
229.642	9.56
229.86	-27.31
230.077	95.57
230.295	62.8
230.513	126.29
230.731	62.8
230.948	259.41
231.166	124.24
231.384	19.8
231.601	-45.74
231.819	214.35
232.037	-27.31
232.254	9.56
232.472	-8.87
232.689	165.2
232.907	126.29
233.125	-35.5
233.342	48.47
233.56	7.51
233.777	58.71
233.995	64.85
234.213	114
234.43	83.28
234.648	23.89
234.865	-60.07
235.083	50.52
235.3	68.95
235.518	89.43
235.735	87.38
235.953	89.43
236.17	116.05
236.388	19.8
236.605	140.63
236.822	126.29
237.04	116.05
237.257	148.82
237.475	-113.32
237.692	83.28
237.909	105.81
238.127	-2.73
238.344	107.86
238.562	54.61
238.779	-41.64
238.996	19.8
239.214	95.57
239.431	66.9
239.648	23.89
239.865	9.56
240.083	200.02
240.3	13.65
240.517	-39.59
240.735	21.85
240.952	204.11
241.169	144.72
241.386	124.24
241.603	73.04
241.821	38.23
242.038	109.91
242.255	171.35
242.472	-25.26
242.689	66.9
242.907	163.15
243.124	71
243.341	34.13
243.558	-25.26
243.775	-31.4
243.992	-6.83
244.209	132.44
244.426	134.48
244.643	77.14
244.86	-0.68
245.078	62.8
245.295	60.76
245.512	48.47
245.729	-15.02
245.946	44.37
246.163	-33.45
246.38	34.13
246.597	58.71
246.814	-2.73
247.031	19.8
247.248	50.52
247.464	136.53
247.681	19.8
247.898	40.28
248.115	36.18
248.332	-15.02
248.549	169.3
248.766	150.87
248.983	111.96
249.2	146.77
249.417	40.28
249.633	13.65
249.85	114
250.067	23.89
250.284	-17.07
250.501	77.14
250.717	91.48
250.934	-31.4
251.151	9.56
251.368	52.56
251.585	77.14
251.801	54.61
252.018	-43.69
252.235	91.48
252.451	-31.4
252.668	11.61
252.885	144.72
253.102	17.75
253.318	-19.11
253.535	34.13
253.752	-12.97
253.968	-60.07
254.185	-25.26
254.401	50.52
254.618	36.18
254.835	-10.92
255.051	193.87
255.268	130.39
255.484	32.08
255.701	-27.31
255.917	103.76
256.134	-109.22
256.351	23.89
256.567	-19.11
256.784	-2.73
257	-47.79
257.217	134.48
257.433	85.33
257.65	87.38
257.866	154.96
258.082	-33.45
258.299	-29.35
258.515	81.24
258.732	-80.55
258.948	-17.07
259.165	77.14
259.381	-31.4
259.597	93.52
259.814	-27.31
260.03	-74.41
260.246	25.94
260.463	148.82
260.679	181.59
260.895	52.56
261.112	62.8
261.328	21.85
261.544	19.8
261.761	161.11
261.977	-23.21
262.193	-51.88
262.409	75.09
262.626	58.71
262.842	15.7
263.058	30.04
263.274	83.28
263.49	126.29
263.707	79.19
263.923	48.47
264.139	-103.08
264.355	60.76
264.571	126.29
264.787	101.72
265.004	109.91
265.22	40.28
265.436	1.37
265.652	23.89
265.868	13.65
266.084	48.47
266.3	-12.97
266.516	17.75
266.732	23.89
266.948	34.13
267.164	23.89
267.38	89.43
267.596	107.86
267.812	197.97
268.028	114
268.244	1.37
268.46	36.18
268.676	-27.31
268.892	68.95
269.108	-47.79
269.324	-43.69
269.54	-51.88
269.756	75.09
269.972	-80.55
270.188	-0.68
270.403	-88.75
270.619	15.7
270.835	50.52
271.051	114
271.267	-6.83
271.483	15.7
271.698	128.34
271.914	116.05
272.13	89.43
272.346	-4.78
272.562	15.7
272.777	197.97
272.993	85.33
273.209	-25.26
273.425	114
273.64	-29.35
273.856	105.81
274.072	-15.02
274.287	25.94
274.503	56.66
274.719	159.06
274.934	3.41
275.15	-86.7
275.366	23.89
275.581	-68.27
275.797	30.04
276.012	54.61
276.228	-8.87
276.444	36.18
276.659	109.91
276.875	-55.98
277.09	3.41
277.306	-8.87
277.521	105.81
277.737	13.65
277.952	138.58
278.168	38.23
278.383	44.37
278.599	71
278.814	167.25
279.03	60.76
279.245	71
279.461	85.33
279.676	87.38
279.892	-58.03
280.107	-92.84
280.322	9.56
280.538	50.52
280.753	3.41
280.969	11.61
281.184	11.61
281.399	75.09
281.615	30.04
281.83	77.14
282.045	-4.78
282.26	27.99
282.476	42.32
282.691	171.35
282.906	157.01
283.122	30.04
283.337	46.42
283.552	60.76
283.767	5.46
283.983	169.3
284.198	17.75
284.413	5.46
284.628	-96.94
284.843	46.42
285.058	95.57
285.274	21.85
285.489	27.99
285.704	132.44
285.919	-10.92
286.134	-8.87
286.349	42.32
286.564	-76.46
286.779	169.3
286.995	-0.68
287.21	-137.9
287.425	107.86
287.64	50.52
287.855	167.25
288.07	-51.88
288.285	79.19
288.5	101.72
288.715	71
288.93	73.04
289.145	40.28
289.36	54.61
289.575	11.61
289.79	183.63
290.004	21.85
290.219	25.94
290.434	-10.92
290.649	30.04
290.864	17.75
291.079	11.61
291.294	58.71
291.509	13.65
291.724	15.7
291.938	75.09
292.153	79.19
292.368	122.2
292.583	105.81
292.798	83.28
293.012	89.43
293.227	32.08
293.442	25.94
293.657	111.96
293.871	97.62
294.086	107.86
294.301	167.25
294.516	140.63
294.73	15.7
294.945	-94.89
295.16	85.33
295.374	77.14
295.589	144.72
295.804	25.94
296.018	-6.83
296.233	48.47
296.447	-25.26
296.662	-8.87
296.877	177.49
297.091	103.76
297.306	-10.92
297.52	60.76
297.735	87.38
297.949	58.71
298.164	-4.78
298.378	21.85
298.593	1.37
298.807	56.66
299.022	17.75
299.236	142.68
299.451	-21.16
299.665	-15.02
299.88	71
300.094	75.09
300.309	19.8
300.523	66.9
300.737	60.76
300.952	38.23
301.166	97.62
301.381	-62.12
301.595	23.89
301.809	66.9
302.024	71
302.238	-53.93
302.452	97.62
302.667	-33.45
302.881	189.78
303.095	101.72
303.309	71
303.524	5.46
303.738	13.65
303.952	-21.16
304.166	34.13
304.381	-68.27
304.595	95.57
304.809	-8.87
305.023	3.41
305.237	30.04
305.452	-23.21
305.666	118.1
305.88	77.14
306.094	150.87
306.308	136.53
306.522	99.67
306.736	21.85
306.95	68.95
307.164	-43.69
307.379	32.08
307.593	111.96
307.807	150.87
308.021	89.43
308.235	118.1
308.449	-82.6
308.663	54.61
308.877	132.44
309.091	46.42
309.305	25.94
309.519	-21.16
309.733	169.3
309.947	-31.4
310.161	89.43
310.374	202.07
310.588	97.62
310.802	5.46
311.016	25.94
311.23	95.57
311.444	44.37
311.658	62.8
311.872	161.11
312.085	116.05
312.299	56.66
312.513	89.43
312.727	21.85
312.941	-10.92
313.154	109.91
313.368	-4.78
313.582	62.8
313.796	52.56
314.009	17.75
314.223	152.92
314.437	66.9
314.651	126.29
314.864	1.37
315.078	25.94
315.292	-39.59
315.505	-6.83
315.719	71
315.933	56.66
316.146	44.37
316.36	-2.73
316.573	89.43
316.787	114
317.001	-47.79
317.214	19.8
317.428	60.76
317.641	-45.74
317.855	54.61
318.068	58.71
318.282	105.81
318.495	157.01
318.709	95.57
318.922	79.19
319.136	222.55
319.349	163.15
319.563	58.71
319.776	109.91
319.99	-82.6
320.203	97.62
320.417	40.28
320.63	148.82
320.843	193.87
321.057	124.24
321.27	-0.68
321.483	87.38
321.697	132.44
321.91	11.61
322.124	81.24
322.337	101.72
322.55	-39.59
322.763	23.89
322.977	-25.26
323.19	-19.11
323.403	75.09
323.617	118.1
323.83	118.1
324.043	56.66
324.256	157.01
324.469	-35.5
324.683	124.24
324.896	9.56
325.109	-17.07
325.322	-6.83
325.535	81.24
325.748	177.49
325.962	71
326.175	48.47
326.388	111.96
326.601	159.06
326.814	114
327.027	-4.78
327.24	101.72
327.453	-2.73
327.666	48.47
327.879	87.38
328.092	97.62
328.305	73.04
328.518	30.04
328.731	68.95
328.944	50.52
329.157	101.72
329.37	75.09
329.583	107.86
329.796	167.25
330.009	-82.6
330.222	111.96
330.435	161.11
330.648	85.33
330.861	44.37
331.073	99.67
331.286	58.71
331.499	21.85
331.712	9.56
331.925	56.66
332.138	75.09
332.35	40.28
332.563	54.61
332.776	81.24
332.989	38.23
333.202	25.94
333.414	42.32
333.627	11.61
333.84	32.08
334.053	42.32
334.265	-0.68
334.478	60.76
334.691	107.86
334.903	44.37
335.116	15.7
335.329	89.43
335.541	81.24
335.754	165.2
335.966	17.75
336.179	60.76
336.392	-10.92
336.604	87.38
336.817	103.76
337.029	79.19
337.242	52.56
337.454	44.37
337.667	62.8
337.88	105.81
338.092	66.9
338.305	73.04
338.517	-39.59
338.729	126.29
338.942	124.24
339.154	-27.31
339.367	-0.68
339.579	91.48
339.792	54.61
340.004	130.39
340.217	25.94
340.429	34.13
340.641	40.28
340.854	-0.68
341.066	40.28
341.278	177.49
341.491	206.16
341.703	54.61
341.915	5.46
342.128	134.48
342.34	71
342.552	-27.31
342.764	73.04
342.977	25.94
343.189	42.32
343.401	138.58
343.613	-88.75
343.826	64.85
344.038	46.42
344.25	111.96
344.462	-6.83
344.674	116.05
344.886	79.19
345.099	40.28
345.311	148.82
345.523	-29.35
345.735	-15.02
345.947	-15.02
346.159	11.61
346.371	-0.68
346.583	27.99
346.795	210.26
347.007	-27.31
347.219	152.92
347.431	130.39
347.643	111.96
347.855	40.28
348.067	177.49
348.279	48.47
348.491	-17.07
348.703	116.05
348.915	-43.69
349.127	-27.31
349.339	50.52
349.551	83.28
349.763	134.48
349.975	40.28
350.187	40.28
350.399	122.2
350.61	107.86
350.822	-8.87
351.034	46.42
351.246	111.96
351.458	50.52
351.669	107.86
351.881	95.57
352.093	93.52
352.305	116.05
352.517	146.77
352.728	105.81
352.94	95.57
353.152	87.38
353.363	23.89
353.575	132.44
353.787	165.2
353.999	85.33
354.21	128.34
354.422	-84.65
354.633	58.71
354.845	91.48
355.057	73.04
355.268	25.94
355.48	50.52
355.692	-39.59
355.903	5.46
356.115	21.85
356.326	19.8
356.538	132.44
356.749	54.61
356.961	132.44
357.172	101.72
357.384	-23.21
357.595	116.05
357.807	32.08
358.018	-45.74
358.23	81.24
358.441	204.11
358.653	85.33
358.864	58.71
359.075	-17.07
359.287	54.61
359.498	146.77
359.709	56.66
359.921	97.62
360.132	48.47
360.344	13.65
360.555	13.65
360.766	120.15
360.977	9.56
361.189	81.24
361.4	-0.68
361.611	58.71
361.823	181.59
362.034	58.71
362.245	-74.41
362.456	-21.16
362.667	77.14
362.879	-0.68
363.09	144.72
363.301	81.24
363.512	3.41
363.723	9.56
363.935	9.56
364.146	44.37
364.357	99.67
364.568	93.52
364.779	30.04
364.99	52.56
365.201	36.18
365.412	42.32
365.623	-2.73
365.834	-19.11
366.045	79.19
366.256	154.96
366.467	40.28
366.678	7.51
366.889	56.66
367.1	13.65
367.311	91.48
367.522	-19.11
367.733	89.43
367.944	17.75
368.155	-29.35
368.366	124.24
368.577	97.62
368.788	161.11
368.999	-15.02
369.209	50.52
369.42	240.98
369.631	216.4
369.842	64.85
370.053	93.52
370.264	157.01
370.474	19.8
370.685	42.32
370.896	68.95
371.107	109.91
371.317	73.04
371.528	60.76
371.739	146.77
371.95	138.58
372.16	114
372.371	-43.69
372.582	15.7
372.792	103.76
373.003	58.71
373.214	93.52
373.424	159.06
373.635	13.65
373.846	111.96
374.056	44.37
374.267	58.71
374.477	144.72
374.688	-2.73
374.898	11.61
375.109	15.7
375.319	21.85
375.53	75.09
375.74	122.2
375.951	17.75
376.161	40.28
376.372	81.24
376.582	-15.02
376.793	81.24
377.003	-70.31
377.214	-19.11
377.424	91.48
377.635	17.75
377.845	25.94
378.055	124.24
378.266	-109.22
378.476	73.04
378.686	52.56
378.897	60.76
379.107	89.43
379.317	111.96
379.528	71
379.738	81.24
379.948	-27.31
380.158	146.77
380.369	107.86
380.579	120.15
380.789	114
380.999	68.95
381.21	167.25
381.42	279.89
381.63	-12.97
381.84	93.52
382.05	75.09
382.261	30.04
382.471	130.39
382.681	13.65
382.891	195.92
383.101	66.9
383.311	-10.92
383.521	64.85
383.731	89.43
383.941	122.2
384.151	116.05
384.361	7.51
384.571	66.9
384.781	93.52
384.991	197.97
385.201	101.72
385.411	44.37
385.621	107.86
385.831	91.48
386.041	54.61
386.251	40.28
386.461	165.2
386.671	54.61
386.881	5.46
387.091	25.94
387.301	167.25
387.511	58.71
387.72	138.58
387.93	144.72
388.14	-21.16
388.35	44.37
388.56	111.96
388.769	126.29
388.979	19.8
389.189	34.13
389.399	68.95
389.609	130.39
389.818	126.29
390.028	144.72
390.238	77.14
390.447	21.85
390.657	15.7
390.867	-15.02
391.076	3.41
391.286	50.52
391.496	23.89
391.705	19.8
391.915	183.63
392.125	154.96
392.334	81.24
392.544	75.09
392.753	11.61
392.963	9.56
393.172	83.28
393.382	-29.35
393.591	179.54
393.801	15.7
394.01	197.97
394.22	79.19
394.429	105.81
394.639	13.65
394.848	122.2
395.058	40.28
395.267	15.7
395.477	75.09
395.686	54.61
395.895	238.93
396.105	191.83
396.314	165.2
396.524	89.43
396.733	-25.26
396.942	73.04
397.152	105.81
397.361	97.62
397.57	95.57
397.78	95.57
397.989	32.08
398.198	218.45
398.407	-2.73
398.617	34.13
398.826	87.38
399.035	7.51
399.244	103.76
399.453	23.89
399.663	11.61
399.872	148.82
400.081	-12.97
400.29	126.29
400.499	54.61
400.708	52.56
400.917	56.66
401.127	71
401.336	9.56
401.545	218.45
401.754	79.19
401.963	93.52
402.172	-21.16
402.381	-17.07
402.59	48.47
402.799	40.28
403.008	140.63
403.217	17.75
403.426	50.52
403.635	-49.83
403.844	77.14
404.053	-17.07
404.262	87.38
404.471	161.11
404.68	62.8
404.888	34.13
405.097	99.67
405.306	136.53
405.515	109.91
405.724	46.42
405.933	124.24
406.142	44.37
406.35	107.86
406.559	-31.4
406.768	118.1
406.977	216.4
407.185	83.28
407.394	38.23
407.603	15.7
407.812	118.1
408.02	17.75
408.229	103.76
408.438	52.56
408.646	1.37
408.855	66.9
409.064	105.81
409.272	44.37
409.481	99.67
409.69	-45.74
409.898	-2.73
410.107	179.54
410.315	148.82
410.524	85.33
410.733	93.52
410.941	7.51
411.15	150.87
411.358	87.38
411.567	195.92
411.775	77.14
411.984	99.67
412.192	52.56
412.401	-29.35
412.609	234.83
412.818	175.44
413.026	138.58
413.234	-2.73
413.443	62.8
413.651	-19.11
413.86	46.42
414.068	144.72
414.276	150.87
414.485	99.67
414.693	191.83
414.901	161.11
415.11	126.29
415.318	50.52
415.526	89.43
415.734	79.19
415.943	40.28
416.151	118.1
416.359	5.46
416.567	116.05
416.776	87.38
416.984	83.28
417.192	222.55
417.4	13.65
417.608	27.99
417.817	-27.31
418.025	111.96
418.233	150.87
418.441	-27.31
418.649	-76.46
418.857	118.1
419.065	99.67
419.273	17.75
419.481	77.14
419.689	79.19
419.897	68.95
420.105	-39.59
420.313	111.96
420.521	154.96
420.729	169.3
420.937	-12.97
421.145	17.75
421.353	167.25
421.561	169.3
421.769	173.39
421.977	-47.79
422.185	132.44
422.393	83.28
422.601	157.01
422.809	83.28
423.017	101.72
423.224	126.29
423.432	109.91
423.64	126.29
423.848	181.59
424.056	-55.98
424.263	206.16
424.471	32.08
424.679	144.72
424.887	-17.07
425.094	159.06
425.302	79.19
425.51	56.66
425.718	144.72
425.925	30.04
426.133	21.85
426.341	218.45
426.548	42.32
426.756	111.96
426.964	148.82
427.171	21.85
427.379	128.34
427.586	154.96
427.794	148.82
428.001	114
428.209	134.48
428.417	187.73
428.624	154.96
428.832	144.72
429.039	58.71
429.247	81.24
429.454	107.86
429.662	216.4
429.869	126.29
430.076	116.05
430.284	148.82
430.491	118.1
430.699	189.78
430.906	230.74
431.114	159.06
431.321	191.83
431.528	122.2
431.736	130.39
431.943	175.44
432.15	202.07
432.358	234.83
432.565	243.03
432.772	1.37
432.979	251.22
433.187	179.54
433.394	263.51
433.601	181.59
433.808	232.79
434.016	300.37
434.223	290.13
434.43	351.57
434.637	290.13
434.844	331.09
435.052	423.25
435.259	384.34
435.466	324.94
435.673	277.84
435.88	281.94
436.087	408.91
436.294	398.67
436.501	402.77
436.708	380.24
436.915	447.82
437.122	398.67
437.329	400.72
437.537	402.77
437.743	415.06
437.95	468.3
438.157	460.11
438.364	429.39
438.571	476.49
438.778	537.93
438.985	587.08
439.192	529.74
439.399	492.88
439.606	509.26
439.813	578.89
440.02	748.87
440.227	724.3
440.433	673.1
440.64	695.63
440.847	599.37
441.054	677.19
441.261	795.98
441.467	730.44
441.674	679.24
441.881	863.56
442.088	701.77
442.294	857.42
442.501	830.79
442.708	955.72
442.914	963.91
443.121	1029.45
443.328	1051.97
443.534	1125.7
443.741	1088.84
443.948	972.1
444.154	1115.46
444.361	1369.41
444.568	1219.91
444.774	1271.11
444.981	1187.14
445.187	1365.31
445.394	1303.87
445.6	1447.23
445.807	1623.36
446.013	1531.2
446.22	1484.09
446.426	1611.07
446.633	1742.14
446.839	1850.68
447.046	1719.61
447.252	1961.27
447.459	2016.57
447.665	2041.14
447.871	2221.36
448.078	2180.4
448.284	2284.85
448.491	2422.06
448.697	2491.7
448.903	2518.32
449.11	2626.86
449.316	2690.35
449.522	2811.18
449.728	2919.72
449.935	3001.64
450.141	3161.38
450.347	3194.15
450.553	3173.67
450.76	3300.64
450.966	3548.45
451.172	3718.43
451.378	3714.33
451.584	3884.31
451.791	4209.94
451.997	4234.52
452.203	4388.11
452.409	4420.88
452.615	4619.53
452.821	4580.62
453.027	4547.86
453.233	5235.97
453.44	4832.52
453.646	5426.43
453.852	5471.49
454.058	5729.53
454.264	5975.29
454.47	6216.95
454.676	6464.75
454.882	6821.1
455.088	6632.69
455.294	7003.37
455.5	7541.99
455.705	7718.11
455.911	7836.89
456.117	8123.61
456.323	8385.75
456.529	8400.09
456.735	9092.3
456.941	9436.36
457.147	9587.91
457.352	9893.05
457.558	10327.22
457.764	10906.8
457.97	11095.21
458.176	11340.97
458.381	12422.3
458.587	12266.65
458.793	13227.15
458.999	13124.75
459.204	14439.55
459.41	15150.19
459.616	15068.27
459.821	15772.77
460.027	16741.46
460.233	17439.82
460.438	17110.1
460.644	18558.01
460.85	18533.43
461.055	19448.88
461.261	20300.83
461.466	19715.11
461.672	20388.89
461.878	22758.39
462.083	22166.53
462.289	22780.92
462.494	23802.86
462.7	23751.66
462.905	24386.53
463.111	26551.23
463.316	27321.27
463.522	28025.77
463.727	28736.41
463.932	30010.25
464.138	31191.93
464.343	31820.66
464.549	32217.96
464.754	34796.35
464.959	35535.67
465.165	36283.18
465.37	35842.87
465.575	35885.87
465.781	38413.07
465.986	39404.28
466.191	38849.28
466.397	39539.45
466.602	38656.78
466.807	40430.32
467.012	41335.52
467.218	41820.89
467.423	41843.41
467.628	43084.48
467.833	44978.86
468.038	44745.39
468.244	44157.62
468.449	45957.78
468.654	44935.85
468.859	44880.55
