Data from USB4F104151__18__10-41-54-386.txt Node

Date: Wed Feb 26 10:41:54 EST 2025
User: louis
Spectrometer: USB4F10415
Trigger mode: 4
Integration Time (sec): 1.000000E-1
Scans to average: 1
Electric dark correction enabled: true
Nonlinearity correction enabled: false
Boxcar width: 0
XAxis mode: Wavelengths
Number of Pixels in Spectrum: 3648
>>>>>Begin Spectral Data<<<<<
178.204	-402.6
178.424	-402.6
178.644	-402.6
178.864	-400.55
179.084	-414.88
179.304	13.14
179.524	-7.34
179.744	76.63
179.964	9.05
180.184	-11.43
180.404	101.2
180.624	-52.39
180.844	56.15
181.064	-160.94
181.283	31.57
181.503	-91.31
181.723	35.67
181.943	-105.64
182.163	160.59
182.383	-48.3
182.602	101.2
182.822	117.59
183.042	19.29
183.262	-101.55
183.482	-44.2
183.701	4.95
183.921	-9.39
184.141	-44.2
184.361	23.38
184.58	9.05
184.8	72.53
185.02	-25.77
185.239	101.2
185.459	70.48
185.679	97.11
185.898	-109.74
186.118	0.85
186.338	4.95
186.557	50
186.777	-42.15
186.997	4.95
187.216	-83.11
187.436	138.07
187.655	125.78
187.875	41.81
188.095	-15.53
188.314	103.25
188.534	84.82
188.753	-66.73
188.973	31.57
189.192	125.78
189.412	7
189.631	-3.24
189.851	45.91
190.07	133.97
190.29	-29.87
190.509	-42.15
190.729	-13.48
190.948	56.15
191.168	209.75
191.387	97.11
191.607	-23.72
191.826	29.52
192.045	35.67
192.265	11.09
192.484	25.43
192.704	-15.53
192.923	-111.78
193.142	156.5
193.362	52.05
193.581	140.12
193.8	0.85
194.02	41.81
194.239	19.29
194.458	76.63
194.678	13.14
194.897	-5.29
195.116	70.48
195.335	-1.19
195.555	37.72
195.774	45.91
195.993	150.36
196.212	-3.24
196.432	-36.01
196.651	-89.26
196.87	-17.58
197.089	162.64
197.308	54.1
197.528	76.63
197.747	-87.21
197.966	47.96
198.185	109.4
198.404	-91.31
198.623	76.63
198.842	84.82
199.062	62.29
199.281	56.15
199.5	68.44
199.719	-56.49
199.938	41.81
200.157	31.57
200.376	68.44
200.595	54.1
200.814	-1.19
201.033	-128.17
201.252	140.12
201.471	64.34
201.69	45.91
201.909	60.24
202.128	123.73
202.347	95.06
202.566	-44.2
202.785	-83.11
203.004	-50.35
203.223	181.07
203.442	103.25
203.661	-107.69
203.879	58.2
204.098	84.82
204.317	-29.87
204.536	76.63
204.755	93.01
204.974	125.78
205.193	4.95
205.411	101.2
205.63	152.4
205.849	41.81
206.068	-36.01
206.287	-50.35
206.505	168.79
206.724	-40.11
206.943	-66.73
207.162	-21.67
207.381	84.82
207.599	-1.19
207.818	-19.63
208.037	-107.69
208.255	23.38
208.474	13.14
208.693	-3.24
208.911	9.05
209.13	27.48
209.349	54.1
209.567	27.48
209.786	95.06
210.005	88.92
210.223	60.24
210.442	-103.59
210.661	56.15
210.879	13.14
211.098	27.48
211.316	-19.63
211.535	31.57
211.753	31.57
211.972	-11.43
212.191	31.57
212.409	56.15
212.628	138.07
212.846	2.9
213.065	4.95
213.283	74.58
213.502	113.49
213.72	41.81
213.938	21.33
214.157	39.76
214.375	23.38
214.594	-56.49
214.812	54.1
215.031	33.62
215.249	21.33
215.467	54.1
215.686	66.39
215.904	133.97
216.122	50
216.341	78.68
216.559	37.72
216.778	170.83
216.996	103.25
217.214	17.24
217.432	-23.72
217.651	-74.92
217.869	66.39
218.087	-36.01
218.306	-48.3
218.524	56.15
218.742	-15.53
218.96	25.43
219.179	41.81
219.397	-17.58
219.615	273.23
219.833	76.63
220.051	-66.73
220.27	58.2
220.488	88.92
220.706	95.06
220.924	-15.53
221.142	-11.43
221.36	31.57
221.578	99.16
221.796	21.33
222.015	62.29
222.233	-33.96
222.451	101.2
222.669	-15.53
222.887	50
223.105	-31.91
223.323	0.85
223.541	-72.87
223.759	37.72
223.977	29.52
224.195	160.59
224.413	107.35
224.631	19.29
224.849	4.95
225.067	185.17
225.285	-68.78
225.503	-33.96
225.721	-128.17
225.939	66.39
226.157	43.86
226.375	176.98
226.592	4.95
226.81	4.95
227.028	56.15
227.246	95.06
227.464	-15.53
227.682	39.76
227.9	68.44
228.117	-3.24
228.335	84.82
228.553	17.24
228.771	-138.41
228.989	17.24
229.206	99.16
229.424	13.14
229.642	-27.82
229.86	-70.83
230.077	90.96
230.295	52.05
230.513	78.68
230.731	62.29
230.948	125.78
231.166	123.73
231.384	31.57
231.601	41.81
231.819	170.83
232.037	-46.25
232.254	2.9
232.472	-15.53
232.689	-58.54
232.907	109.4
233.125	-87.21
233.342	-48.3
233.56	17.24
233.777	-42.15
233.995	21.33
234.213	78.68
234.43	52.05
234.648	-40.11
234.865	41.81
235.083	29.52
235.3	-38.06
235.518	107.35
235.735	58.2
235.953	33.62
236.17	39.76
236.388	-19.63
236.605	21.33
236.822	88.92
237.04	113.49
237.257	43.86
237.475	29.52
237.692	58.2
237.909	56.15
238.127	27.48
238.344	7
238.562	23.38
238.779	-58.54
238.996	-44.2
239.214	68.44
239.431	9.05
239.648	-52.39
239.865	93.01
240.083	-36.01
240.3	-15.53
240.517	17.24
240.735	17.24
240.952	146.26
241.169	19.29
241.386	101.2
241.603	35.67
241.821	-25.77
242.038	84.82
242.255	52.05
242.472	-31.91
242.689	113.49
242.907	13.14
243.124	39.76
243.341	-72.87
243.558	-83.11
243.775	-29.87
243.992	-56.49
244.209	39.76
244.426	138.07
244.643	15.19
244.86	-52.39
245.078	168.79
245.295	50
245.512	33.62
245.729	-68.78
245.946	35.67
246.163	-87.21
246.38	-25.77
246.597	29.52
246.814	50
247.031	-29.87
247.248	27.48
247.464	109.4
247.681	19.29
247.898	-21.67
248.115	56.15
248.332	-83.11
248.549	107.35
248.766	179.03
248.983	64.34
249.2	31.57
249.417	45.91
249.633	-11.43
249.85	56.15
250.067	58.2
250.284	72.53
250.501	41.81
250.717	43.86
250.934	-111.78
251.151	-21.67
251.368	31.57
251.585	90.96
251.801	-21.67
252.018	-72.87
252.235	166.74
252.451	-48.3
252.668	58.2
252.885	101.2
253.102	50
253.318	-11.43
253.535	-7.34
253.752	43.86
253.968	-42.15
254.185	-91.31
254.401	23.38
254.618	93.01
254.835	41.81
255.051	136.02
255.268	99.16
255.484	29.52
255.701	109.4
255.917	80.72
256.134	0.85
256.351	0.85
256.567	-19.63
256.784	47.96
257	-115.88
257.217	31.57
257.433	127.83
257.65	31.57
257.866	113.49
258.082	-111.78
258.299	-52.39
258.515	0.85
258.732	-1.19
258.948	-83.11
259.165	15.19
259.381	-81.07
259.597	115.54
259.814	-25.77
260.03	4.95
260.246	-13.48
260.463	133.97
260.679	-3.24
260.895	21.33
261.112	52.05
261.328	56.15
261.544	-29.87
261.761	131.92
261.977	33.62
262.193	-74.92
262.409	103.25
262.626	-9.39
262.842	-9.39
263.058	-13.48
263.274	68.44
263.49	37.72
263.707	62.29
263.923	19.29
264.139	-95.4
264.355	-1.19
264.571	111.44
264.787	33.62
265.004	95.06
265.22	0.85
265.436	-89.26
265.652	-17.58
265.868	52.05
266.084	-93.35
266.3	-44.2
266.516	-48.3
266.732	95.06
266.948	25.43
267.164	-19.63
267.38	66.39
267.596	31.57
267.812	146.26
268.028	17.24
268.244	21.33
268.46	-15.53
268.676	-11.43
268.892	76.63
269.108	-33.96
269.324	-33.96
269.54	-13.48
269.756	107.35
269.972	-66.73
270.188	-25.77
270.403	-58.54
270.619	-19.63
270.835	19.29
271.051	21.33
271.267	-56.49
271.483	-13.48
271.698	43.86
271.914	45.91
272.13	31.57
272.346	29.52
272.562	115.54
272.777	76.63
272.993	62.29
273.209	39.76
273.425	-1.19
273.64	-19.63
273.856	90.96
274.072	-62.63
274.287	39.76
274.503	179.03
274.719	127.83
274.934	-21.67
275.15	-76.97
275.366	4.95
275.581	-46.25
275.797	29.52
276.012	31.57
276.228	35.67
276.444	29.52
276.659	162.64
276.875	-46.25
277.09	-1.19
277.306	-1.19
277.521	54.1
277.737	68.44
277.952	82.77
278.168	-29.87
278.383	0.85
278.599	72.53
278.814	-13.48
279.03	88.92
279.245	138.07
279.461	37.72
279.676	150.36
279.892	-56.49
280.107	-27.82
280.322	-52.39
280.538	19.29
280.753	-50.35
280.969	-15.53
281.184	31.57
281.399	166.74
281.615	-5.29
281.83	47.96
282.045	-5.29
282.26	-50.35
282.476	-17.58
282.691	129.88
282.906	33.62
283.122	109.4
283.337	45.91
283.552	72.53
283.767	-68.78
283.983	88.92
284.198	-23.72
284.413	62.29
284.628	-91.31
284.843	-21.67
285.058	72.53
285.274	13.14
285.489	-40.11
285.704	56.15
285.919	78.68
286.134	-50.35
286.349	109.4
286.564	-27.82
286.779	119.64
286.995	-13.48
287.21	-66.73
287.425	99.16
287.64	-27.82
287.855	68.44
288.07	-111.78
288.285	72.53
288.5	111.44
288.715	54.1
288.93	-60.59
289.145	-13.48
289.36	9.05
289.575	2.9
289.79	111.44
290.004	2.9
290.219	64.34
290.434	-13.48
290.649	25.43
290.864	56.15
291.079	9.05
291.294	-1.19
291.509	11.09
291.724	21.33
291.938	7
292.153	101.2
292.368	56.15
292.583	-72.87
292.798	93.01
293.012	41.81
293.227	80.72
293.442	-66.73
293.657	45.91
293.871	50
294.086	97.11
294.301	99.16
294.516	113.49
294.73	66.39
294.945	-40.11
295.16	74.58
295.374	133.97
295.589	109.4
295.804	-9.39
296.018	86.87
296.233	88.92
296.447	76.63
296.662	-21.67
296.877	64.34
297.091	95.06
297.306	11.09
297.52	68.44
297.735	47.96
297.949	-3.24
298.164	109.4
298.378	15.19
298.593	-40.11
298.807	23.38
299.022	-17.58
299.236	111.44
299.451	70.48
299.665	27.48
299.88	-25.77
300.094	68.44
300.309	-62.63
300.523	66.39
300.737	-46.25
300.952	45.91
301.166	84.82
301.381	-25.77
301.595	-33.96
301.809	29.52
302.024	97.11
302.238	-152.74
302.452	107.35
302.667	11.09
302.881	113.49
303.095	41.81
303.309	47.96
303.524	-66.73
303.738	27.48
303.952	-56.49
304.166	117.59
304.381	-119.98
304.595	168.79
304.809	41.81
305.023	-56.49
305.237	41.81
305.452	39.76
305.666	127.83
305.88	25.43
306.094	90.96
306.308	95.06
306.522	54.1
306.736	41.81
306.95	109.4
307.164	43.86
307.379	-44.2
307.593	197.46
307.807	76.63
308.021	84.82
308.235	66.39
308.449	-87.21
308.663	-56.49
308.877	189.27
309.091	97.11
309.305	23.38
309.519	-42.15
309.733	86.87
309.947	-144.55
310.161	29.52
310.374	95.06
310.588	211.79
310.802	2.9
311.016	7
311.23	45.91
311.444	-13.48
311.658	54.1
311.872	103.25
312.085	86.87
312.299	168.79
312.513	148.31
312.727	-21.67
312.941	-25.77
313.154	115.54
313.368	62.29
313.582	33.62
313.796	43.86
314.009	-87.21
314.223	90.96
314.437	103.25
314.651	93.01
314.864	-36.01
315.078	-23.72
315.292	-5.29
315.505	-15.53
315.719	47.96
315.933	-13.48
316.146	-33.96
316.36	70.48
316.573	125.78
316.787	82.77
317.001	72.53
317.214	-68.78
317.428	11.09
317.641	-99.5
317.855	33.62
318.068	27.48
318.282	33.62
318.495	191.31
318.709	121.68
318.922	33.62
319.136	181.07
319.349	64.34
319.563	-13.48
319.776	31.57
319.99	-79.02
320.203	35.67
320.417	0.85
320.63	27.48
320.843	187.22
321.057	9.05
321.27	-48.3
321.483	27.48
321.697	29.52
321.91	66.39
322.124	7
322.337	103.25
322.55	-25.77
322.763	35.67
322.977	-7.34
323.19	-31.91
323.403	23.38
323.617	39.76
323.83	176.98
324.043	7
324.256	60.24
324.469	-101.55
324.683	115.54
324.896	2.9
325.109	13.14
325.322	-38.06
325.535	207.7
325.748	97.11
325.962	-27.82
326.175	60.24
326.388	-3.24
326.601	72.53
326.814	17.24
327.027	74.58
327.24	86.87
327.453	-27.82
327.666	90.96
327.879	47.96
328.092	142.16
328.305	45.91
328.518	19.29
328.731	-52.39
328.944	54.1
329.157	66.39
329.37	-15.53
329.583	56.15
329.796	90.96
330.009	-68.78
330.222	43.86
330.435	60.24
330.648	35.67
330.861	-38.06
331.073	-9.39
331.286	111.44
331.499	2.9
331.712	25.43
331.925	45.91
332.138	70.48
332.35	88.92
332.563	-9.39
332.776	172.88
332.989	29.52
333.202	-7.34
333.414	2.9
333.627	-3.24
333.84	11.09
334.053	7
334.265	0.85
334.478	45.91
334.691	4.95
334.903	-15.53
335.116	-50.35
335.329	19.29
335.541	58.2
335.754	150.36
335.966	7
336.179	127.83
336.392	-27.82
336.604	-9.39
336.817	84.82
337.029	31.57
337.242	-15.53
337.454	21.33
337.667	-27.82
337.88	84.82
338.092	13.14
338.305	84.82
338.517	-3.24
338.729	117.59
338.942	64.34
339.154	-68.78
339.367	-50.35
339.579	74.58
339.792	62.29
340.004	45.91
340.217	82.77
340.429	35.67
340.641	-3.24
340.854	0.85
341.066	-21.67
341.278	86.87
341.491	168.79
341.703	17.24
341.915	-1.19
342.128	113.49
342.34	11.09
342.552	-38.06
342.764	-36.01
342.977	-46.25
343.189	72.53
343.401	50
343.613	-38.06
343.826	50
344.038	-54.44
344.25	43.86
344.462	-17.58
344.674	15.19
344.886	-52.39
345.099	58.2
345.311	45.91
345.523	-19.63
345.735	-62.63
345.947	62.29
346.159	-25.77
346.371	15.19
346.583	-62.63
346.795	209.75
347.007	-31.91
347.219	47.96
347.431	-13.48
347.643	86.87
347.855	-42.15
348.067	52.05
348.279	-76.97
348.491	11.09
348.703	39.76
348.915	-64.68
349.127	-113.83
349.339	2.9
349.551	-38.06
349.763	136.02
349.975	25.43
350.187	68.44
350.399	23.38
350.61	21.33
350.822	7
351.034	82.77
351.246	33.62
351.458	31.57
351.669	103.25
351.881	7
352.093	140.12
352.305	138.07
352.517	84.82
352.728	99.16
352.94	54.1
353.152	90.96
353.363	-5.29
353.575	50
353.787	185.17
353.999	84.82
354.21	90.96
354.422	-33.96
354.633	-33.96
354.845	80.72
355.057	66.39
355.268	-11.43
355.48	27.48
355.692	-52.39
355.903	4.95
356.115	-81.07
356.326	-107.69
356.538	113.49
356.749	66.39
356.961	103.25
357.172	-17.58
357.384	-40.11
357.595	142.16
357.807	19.29
358.018	9.05
358.23	15.19
358.441	160.59
358.653	95.06
358.864	37.72
359.075	-42.15
359.287	50
359.498	58.2
359.709	52.05
359.921	64.34
360.132	47.96
360.344	33.62
360.555	2.9
360.766	-9.39
360.977	-15.53
361.189	97.11
361.4	47.96
361.611	45.91
361.823	66.39
362.034	76.63
362.245	-136.36
362.456	47.96
362.667	80.72
362.879	58.2
363.09	82.77
363.301	82.77
363.512	54.1
363.723	-1.19
363.935	-79.02
364.146	64.34
364.357	-23.72
364.568	-3.24
364.779	17.24
364.99	148.31
365.201	-31.91
365.412	195.41
365.623	-44.2
365.834	4.95
366.045	54.1
366.256	62.29
366.467	144.21
366.678	72.53
366.889	23.38
367.1	-25.77
367.311	-13.48
367.522	-70.83
367.733	64.34
367.944	19.29
368.155	-48.3
368.366	150.36
368.577	54.1
368.788	66.39
368.999	52.05
369.209	60.24
369.42	187.22
369.631	224.08
369.842	95.06
370.053	15.19
370.264	119.64
370.474	-5.29
370.685	119.64
370.896	47.96
371.107	138.07
371.317	11.09
371.528	27.48
371.739	129.88
371.95	107.35
372.16	58.2
372.371	-79.02
372.582	-1.19
372.792	80.72
373.003	21.33
373.214	52.05
373.424	62.29
373.635	-91.31
373.846	174.93
374.056	17.24
374.267	82.77
374.477	47.96
374.688	-62.63
374.898	74.58
375.109	-40.11
375.319	68.44
375.53	82.77
375.74	93.01
375.951	-31.91
376.161	90.96
376.372	0.85
376.582	-62.63
376.793	88.92
377.003	2.9
377.214	-15.53
377.424	64.34
377.635	-27.82
377.845	-5.29
378.055	183.12
378.266	2.9
378.476	-11.43
378.686	0.85
378.897	45.91
379.107	90.96
379.317	15.19
379.528	-60.59
379.738	90.96
379.948	-15.53
380.158	64.34
380.369	72.53
380.579	142.16
380.789	27.48
380.999	15.19
381.21	105.3
381.42	201.55
381.63	47.96
381.84	93.01
382.05	72.53
382.261	142.16
382.471	107.35
382.681	-21.67
382.891	125.78
383.101	50
383.311	-62.63
383.521	-79.02
383.731	99.16
383.941	43.86
384.151	-17.58
384.361	0.85
384.571	95.06
384.781	-38.06
384.991	95.06
385.201	187.22
385.411	86.87
385.621	-13.48
385.831	95.06
386.041	31.57
386.251	27.48
386.461	23.38
386.671	-15.53
386.881	35.67
387.091	-29.87
387.301	29.52
387.511	19.29
387.72	56.15
387.93	125.78
388.14	-42.15
388.35	64.34
388.56	52.05
388.769	152.4
388.979	70.48
389.189	-42.15
389.399	29.52
389.609	78.68
389.818	60.24
390.028	25.43
390.238	72.53
390.447	-111.78
390.657	72.53
390.867	47.96
391.076	-9.39
391.286	-5.29
391.496	23.38
391.705	33.62
391.915	72.53
392.125	37.72
392.334	45.91
392.544	140.12
392.753	39.76
392.963	-15.53
393.172	29.52
393.382	-87.21
393.591	136.02
393.801	-38.06
394.01	105.3
394.22	103.25
394.429	-25.77
394.639	27.48
394.848	21.33
395.058	52.05
395.267	19.29
395.477	60.24
395.686	113.49
395.895	129.88
396.105	201.55
396.314	39.76
396.524	-19.63
396.733	15.19
396.942	54.1
397.152	93.01
397.361	109.4
397.57	93.01
397.78	-23.72
397.989	25.43
398.198	140.12
398.407	35.67
398.617	29.52
398.826	41.81
399.035	-36.01
399.244	19.29
399.453	60.24
399.663	17.24
399.872	88.92
400.081	-42.15
400.29	131.92
400.499	47.96
400.708	78.68
400.917	52.05
401.127	7
401.336	68.44
401.545	146.26
401.754	19.29
401.963	82.77
402.172	15.19
402.381	-142.5
402.59	0.85
402.799	-9.39
403.008	35.67
403.217	127.83
403.426	70.48
403.635	25.43
403.844	70.48
404.053	-40.11
404.262	9.05
404.471	185.17
404.68	56.15
404.888	-15.53
405.097	31.57
405.306	37.72
405.515	60.24
405.724	4.95
405.933	56.15
406.142	86.87
406.35	93.01
406.559	21.33
406.768	27.48
406.977	72.53
407.185	37.72
407.394	29.52
407.603	-70.83
407.812	9.05
408.02	72.53
408.229	43.86
408.438	43.86
408.646	-27.82
408.855	-36.01
409.064	-5.29
409.272	0.85
409.481	76.63
409.69	-64.68
409.898	-48.3
410.107	99.16
410.315	66.39
410.524	35.67
410.733	29.52
410.941	43.86
411.15	23.38
411.358	150.36
411.567	133.97
411.775	125.78
411.984	111.44
412.192	33.62
412.401	2.9
412.609	230.23
412.818	179.03
413.026	29.52
413.234	-83.11
413.443	45.91
413.651	43.86
413.86	4.95
414.068	123.73
414.276	203.6
414.485	-15.53
414.693	138.07
414.901	197.46
415.11	107.35
415.318	41.81
415.526	72.53
415.734	76.63
415.943	105.3
416.151	166.74
416.359	56.15
416.567	129.88
416.776	172.88
416.984	13.14
417.192	138.07
417.4	29.52
417.608	-7.34
417.817	11.09
418.025	209.75
418.233	119.64
418.441	-128.17
418.649	-9.39
418.857	76.63
419.065	119.64
419.273	39.76
419.481	66.39
419.689	52.05
419.897	-58.54
420.105	-19.63
420.313	90.96
420.521	72.53
420.729	131.92
420.937	-11.43
421.145	-3.24
421.353	82.77
421.561	193.36
421.769	127.83
421.977	9.05
422.185	99.16
422.393	23.38
422.601	62.29
422.809	-48.3
423.017	-5.29
423.224	107.35
423.432	168.79
423.64	62.29
423.848	136.02
424.056	-36.01
424.263	101.2
424.471	39.76
424.679	199.51
424.887	62.29
425.094	111.44
425.302	41.81
425.51	31.57
425.718	123.73
425.925	97.11
426.133	-7.34
426.341	179.03
426.548	64.34
426.756	45.91
426.964	74.58
427.171	-50.35
427.379	115.54
427.586	70.48
427.794	99.16
428.001	154.45
428.209	160.59
428.417	142.16
428.624	125.78
428.832	66.39
429.039	113.49
429.247	103.25
429.454	27.48
429.662	203.6
429.869	176.98
430.076	111.44
430.284	123.73
430.491	140.12
430.699	160.59
430.906	265.04
431.114	131.92
431.321	93.01
431.528	109.4
431.736	195.41
431.943	158.55
432.15	189.27
432.358	199.51
432.565	256.85
432.772	-42.15
432.979	258.9
433.187	154.45
433.394	269.14
433.601	189.27
433.808	230.23
434.016	240.47
434.223	246.61
434.43	164.69
434.637	318.29
434.844	176.98
435.052	256.85
435.259	260.95
435.466	299.86
435.673	199.51
435.88	287.57
436.087	385.87
436.294	437.07
436.501	355.15
436.708	301.9
436.915	334.67
437.122	402.26
437.329	291.66
437.537	338.77
437.743	406.35
437.95	400.21
438.157	346.96
438.364	418.64
438.571	432.97
438.778	437.07
438.985	488.27
439.192	492.37
439.399	529.23
439.606	482.13
439.813	654.16
440.02	713.55
440.227	746.31
440.433	674.64
440.64	637.77
440.847	559.95
441.054	652.11
441.261	785.23
441.467	672.59
441.674	699.21
441.881	754.51
442.088	740.17
442.294	863.05
442.501	803.66
442.708	953.16
442.914	865.1
443.121	969.54
443.328	1039.17
443.534	1059.65
443.741	1000.26
443.948	863.05
444.154	1088.32
444.361	1309.51
444.568	1153.86
444.774	1223.49
444.981	1139.52
445.187	1291.07
445.394	1389.38
445.6	1336.13
445.807	1524.54
446.013	1542.97
446.22	1387.33
446.426	1495.87
446.633	1542.97
446.839	1891.13
447.046	1583.93
447.252	1919.8
447.459	1872.7
447.665	1958.71
447.871	2085.69
448.078	2216.76
448.284	2218.8
448.491	2263.86
448.697	2329.39
448.903	2501.42
449.11	2534.19
449.316	2487.09
449.522	2816.81
449.728	2671.4
449.935	2868.01
450.141	2820.91
450.347	3132.2
450.553	3019.56
450.76	3302.18
450.966	3388.19
451.172	3238.69
451.378	3631.9
451.584	3724.06
451.791	3978.01
451.997	4057.88
452.203	4078.36
452.409	4377.36
452.615	4541.2
452.821	4512.53
453.027	4336.4
453.233	4981.51
453.44	4813.58
453.646	5120.78
453.852	5440.26
454.058	5421.83
454.264	5784.32
454.47	6064.89
454.676	6103.8
454.882	6490.87
455.088	6294.26
455.294	6642.42
455.5	7086.83
455.705	7520.99
455.911	7688.93
456.117	7746.27
456.323	8018.65
456.529	7903.96
456.735	8674
456.941	8725.2
457.147	9200.33
457.352	9806.53
457.558	10072.76
457.764	10511.03
457.97	10754.74
458.176	11246.25
458.381	11768.48
458.587	12006.05
458.793	12663.44
458.999	12483.22
459.204	14051.97
459.41	14445.18
459.616	14242.43
459.821	15313.52
460.027	15796.84
460.233	16593.5
460.438	16716.37
460.644	17816.13
460.85	17906.24
461.055	18549.31
461.261	19575.34
461.466	18983.48
461.672	19354.16
461.878	21568.01
462.083	21463.57
462.289	21871.11
462.494	22761.98
462.7	23063.03
462.905	23177.72
463.111	25135.57
463.316	26110.41
463.522	26747.33
463.727	27783.6
463.932	28576.16
464.138	29403.54
464.343	30638.47
464.549	30994.81
464.754	33106.27
464.959	34107.72
465.165	34681.16
465.37	34304.33
465.575	34150.73
465.781	36561.19
465.986	37845.27
466.191	37693.72
466.397	37540.12
466.602	36450.6
466.807	38691.08
467.012	39543.03
467.218	39979.25
467.423	39796.98
467.628	41015.52
467.833	43098.31
468.038	42541.26
468.244	41754.84
468.449	43780.28
468.654	43126.98
