Data from USB4F104151__269__11-20-40-831.txt Node

Date: Wed Feb 26 11:20:40 EST 2025
User: louis
Spectrometer: USB4F10415
Trigger mode: 4
Integration Time (sec): 1.000000E-1
Scans to average: 1
Electric dark correction enabled: true
Nonlinearity correction enabled: false
Boxcar width: 0
XAxis mode: Wavelengths
Number of Pixels in Spectrum: 3648
>>>>>Begin Spectral Data<<<<<
178.204	-438.61
178.424	-438.61
178.644	-438.61
178.864	-426.32
179.084	-362.83
179.304	16.04
179.524	-6.49
179.744	1.71
179.964	20.14
180.184	65.19
180.404	9.9
180.624	-14.68
180.844	-69.97
181.064	-76.12
181.283	34.47
181.503	-51.54
181.723	71.34
181.943	-131.41
182.163	143.02
182.383	-51.54
182.602	52.91
182.822	186.02
183.042	34.47
183.262	-16.73
183.482	28.33
183.701	89.77
183.921	22.19
184.141	-33.11
184.361	-0.34
184.58	44.71
184.8	22.19
185.02	-29.01
185.239	104.11
185.459	11.95
185.679	175.78
185.898	-98.64
186.118	34.47
186.338	-47.44
186.557	130.73
186.777	-35.16
186.997	3.75
187.216	40.62
187.436	220.84
187.655	73.39
187.875	108.2
188.095	73.39
188.314	140.97
188.534	91.82
188.753	-49.49
188.973	100.01
189.192	231.08
189.412	-0.34
189.631	91.82
189.851	65.19
190.07	153.26
190.29	-39.25
190.509	-33.11
190.729	106.15
190.948	151.21
191.168	276.13
191.387	42.67
191.607	59.05
191.826	91.82
192.045	-24.92
192.265	52.91
192.484	93.87
192.704	5.8
192.923	-8.53
193.142	104.11
193.362	59.05
193.581	114.34
193.8	44.71
194.02	124.58
194.239	13.99
194.458	18.09
194.678	-20.82
194.897	1.71
195.116	46.76
195.335	77.48
195.555	28.33
195.774	30.38
195.993	65.19
196.212	42.67
196.432	-43.35
196.651	9.9
196.87	22.19
197.089	243.37
197.308	108.2
197.528	75.43
197.747	-100.69
197.966	18.09
198.185	128.68
198.404	52.91
198.623	159.4
198.842	145.06
199.062	112.3
199.281	106.15
199.5	36.52
199.719	97.96
199.938	61.1
200.157	114.34
200.376	110.25
200.595	87.72
200.814	52.91
201.033	-41.3
201.252	149.16
201.471	65.19
201.69	50.86
201.909	30.38
202.128	87.72
202.347	59.05
202.566	-57.68
202.785	-33.11
203.004	-20.82
203.223	183.98
203.442	24.23
203.661	-96.6
203.879	97.96
204.098	102.06
204.317	-8.53
204.536	59.05
204.755	50.86
204.974	50.86
205.193	20.14
205.411	79.53
205.63	155.3
205.849	136.87
206.068	75.43
206.287	-51.54
206.505	50.86
206.724	26.28
206.943	-59.73
207.162	52.91
207.381	44.71
207.599	-35.16
207.818	136.87
208.037	13.99
208.255	30.38
208.474	91.82
208.693	67.24
208.911	-55.64
209.13	5.8
209.349	63.15
209.567	42.67
209.786	63.15
210.005	155.3
210.223	-12.63
210.442	-94.55
210.661	77.48
210.879	26.28
211.098	36.52
211.316	-29.01
211.535	128.68
211.753	79.53
211.972	13.99
212.191	18.09
212.409	32.43
212.628	124.58
212.846	-39.25
213.065	75.43
213.283	95.91
213.502	-20.82
213.72	13.99
213.938	75.43
214.157	-6.49
214.375	61.1
214.594	46.76
214.812	20.14
215.031	30.38
215.249	-20.82
215.467	97.96
215.686	18.09
215.904	20.14
216.122	87.72
216.341	63.15
216.559	75.43
216.778	73.39
216.996	67.24
217.214	32.43
217.432	-24.92
217.651	-6.49
217.869	50.86
218.087	63.15
218.306	5.8
218.524	46.76
218.742	16.04
218.96	130.73
219.179	-12.63
219.397	59.05
219.615	196.26
219.833	75.43
220.051	-127.32
220.27	132.78
220.488	20.14
220.706	52.91
220.924	1.71
221.142	-37.2
221.36	-41.3
221.578	-18.77
221.796	54.95
222.015	20.14
222.233	36.52
222.451	134.82
222.669	-22.87
222.887	75.43
223.105	30.38
223.323	-37.2
223.541	59.05
223.759	5.8
223.977	93.87
224.195	194.22
224.413	114.34
224.631	59.05
224.849	50.86
225.067	261.8
225.285	28.33
225.503	42.67
225.721	-96.6
225.939	132.78
226.157	44.71
226.375	255.65
226.592	-29.01
226.81	7.85
227.028	91.82
227.246	87.72
227.464	100.01
227.682	100.01
227.9	112.3
228.117	116.39
228.335	50.86
228.553	77.48
228.771	-55.64
228.989	32.43
229.206	130.73
229.424	-88.4
229.642	9.9
229.86	13.99
230.077	118.44
230.295	3.75
230.513	149.16
230.731	65.19
230.948	114.34
231.166	106.15
231.384	104.11
231.601	-41.3
231.819	183.98
232.037	-78.16
232.254	26.28
232.472	50.86
232.689	16.04
232.907	93.87
233.125	-0.34
233.342	-16.73
233.56	65.19
233.777	-2.39
233.995	7.85
234.213	100.01
234.43	122.54
234.648	42.67
234.865	48.81
235.083	73.39
235.3	16.04
235.518	-12.63
235.735	136.87
235.953	89.77
236.17	116.39
236.388	48.81
236.605	36.52
236.822	95.91
237.04	112.3
237.257	89.77
237.475	5.8
237.692	38.57
237.909	120.49
238.127	13.99
238.344	67.24
238.562	65.19
238.779	-59.73
238.996	-72.02
239.214	36.52
239.431	30.38
239.648	-18.77
239.865	52.91
240.083	89.77
240.3	59.05
240.517	42.67
240.735	9.9
240.952	179.88
241.169	30.38
241.386	-2.39
241.603	85.67
241.821	-65.88
242.038	50.86
242.255	128.68
242.472	-51.54
242.689	138.92
242.907	38.57
243.124	-39.25
243.341	-20.82
243.558	-39.25
243.775	-119.12
243.992	-41.3
244.209	57
244.426	153.26
244.643	34.47
244.86	-67.92
245.078	126.63
245.295	18.09
245.512	40.62
245.729	3.75
245.946	52.91
246.163	36.52
246.38	-55.64
246.597	65.19
246.814	26.28
247.031	165.54
247.248	63.15
247.464	177.83
247.681	136.87
247.898	87.72
248.115	65.19
248.332	1.71
248.549	69.29
248.766	229.03
248.983	91.82
249.2	50.86
249.417	87.72
249.633	48.81
249.85	155.3
250.067	22.19
250.284	20.14
250.501	75.43
250.717	120.49
250.934	-110.93
251.151	42.67
251.368	116.39
251.585	52.91
251.801	1.71
252.018	-8.53
252.235	173.74
252.451	-51.54
252.668	-31.06
252.885	87.72
253.102	-2.39
253.318	-57.68
253.535	16.04
253.752	95.91
253.968	-22.87
254.185	-78.16
254.401	46.76
254.618	118.44
254.835	-12.63
255.051	97.96
255.268	69.29
255.484	34.47
255.701	7.85
255.917	28.33
256.134	-12.63
256.351	89.77
256.567	38.57
256.784	-29.01
257	-8.53
257.217	116.39
257.433	79.53
257.65	116.39
257.866	67.24
258.082	-8.53
258.299	24.23
258.515	52.91
258.732	-59.73
258.948	85.67
259.165	71.34
259.381	-84.31
259.597	145.06
259.814	71.34
260.03	5.8
260.246	-61.78
260.463	77.48
260.679	143.02
260.895	63.15
261.112	85.67
261.328	26.28
261.544	-4.44
261.761	114.34
261.977	16.04
262.193	-37.2
262.409	81.58
262.626	40.62
262.842	18.09
263.058	-76.12
263.274	161.45
263.49	106.15
263.707	71.34
263.923	85.67
264.139	-69.97
264.355	30.38
264.571	188.07
264.787	95.91
265.004	155.3
265.22	5.8
265.436	-0.34
265.652	20.14
265.868	28.33
266.084	-12.63
266.3	108.2
266.516	-49.49
266.732	97.96
266.948	30.38
267.164	-6.49
267.38	52.91
267.596	7.85
267.812	165.54
268.028	67.24
268.244	-49.49
268.46	179.88
268.676	40.62
268.892	67.24
269.108	-86.36
269.324	18.09
269.54	-8.53
269.756	112.3
269.972	-20.82
270.188	-20.82
270.403	-39.25
270.619	46.76
270.835	153.26
271.051	63.15
271.267	-37.2
271.483	57
271.698	106.15
271.914	73.39
272.13	38.57
272.346	-31.06
272.562	32.43
272.777	110.25
272.993	-2.39
273.209	16.04
273.425	91.82
273.64	-35.16
273.856	97.96
274.072	-10.58
274.287	-100.69
274.503	93.87
274.719	13.99
274.934	-14.68
275.15	-74.07
275.366	-8.53
275.581	-37.2
275.797	69.29
276.012	26.28
276.228	34.47
276.444	46.76
276.659	93.87
276.875	-24.92
277.09	1.71
277.306	50.86
277.521	57
277.737	79.53
277.952	165.54
278.168	-26.96
278.383	13.99
278.599	16.04
278.814	46.76
279.03	44.71
279.245	95.91
279.461	-18.77
279.676	153.26
279.892	-65.88
280.107	-59.73
280.322	-12.63
280.538	36.52
280.753	-35.16
280.969	110.25
281.184	67.24
281.399	100.01
281.615	7.85
281.83	75.43
282.045	42.67
282.26	30.38
282.476	42.67
282.691	65.19
282.906	-2.39
283.122	87.72
283.337	13.99
283.552	67.24
283.767	-45.4
283.983	57
284.198	40.62
284.413	61.1
284.628	-41.3
284.843	24.23
285.058	71.34
285.274	16.04
285.489	-84.31
285.704	124.58
285.919	-0.34
286.134	-26.96
286.349	7.85
286.564	11.95
286.779	151.21
286.995	40.62
287.21	-41.3
287.425	32.43
287.64	18.09
287.855	11.95
288.07	7.85
288.285	63.15
288.5	71.34
288.715	73.39
288.93	22.19
289.145	-22.87
289.36	120.49
289.575	-6.49
289.79	114.34
290.004	-20.82
290.219	110.25
290.434	-82.26
290.649	-16.73
290.864	24.23
291.079	42.67
291.294	179.88
291.509	87.72
291.724	-10.58
291.938	83.63
292.153	69.29
292.368	-35.16
292.583	-26.96
292.798	100.01
293.012	42.67
293.227	30.38
293.442	1.71
293.657	106.15
293.871	128.68
294.086	132.78
294.301	155.3
294.516	169.64
294.73	67.24
294.945	-8.53
295.16	11.95
295.374	67.24
295.589	157.35
295.804	-61.78
296.018	52.91
296.233	120.49
296.447	63.15
296.662	-45.4
296.877	151.21
297.091	79.53
297.306	-4.44
297.52	-61.78
297.735	46.76
297.949	40.62
298.164	-33.11
298.378	26.28
298.593	5.8
298.807	18.09
299.022	-47.44
299.236	126.63
299.451	83.63
299.665	38.57
299.88	69.29
300.094	126.63
300.309	-0.34
300.523	28.33
300.737	-18.77
300.952	61.1
301.166	61.1
301.381	-78.16
301.595	18.09
301.809	7.85
302.024	28.33
302.238	-18.77
302.452	106.15
302.667	91.82
302.881	106.15
303.095	40.62
303.309	34.47
303.524	-76.12
303.738	-24.92
303.952	30.38
304.166	44.71
304.381	-35.16
304.595	169.64
304.809	95.91
305.023	20.14
305.237	13.99
305.452	-12.63
305.666	75.43
305.88	30.38
306.094	59.05
306.308	85.67
306.522	106.15
306.736	65.19
306.95	106.15
307.164	50.86
307.379	-59.73
307.593	95.91
307.807	157.35
308.021	100.01
308.235	85.67
308.449	-26.96
308.663	24.23
308.877	169.64
309.091	34.47
309.305	32.43
309.519	-108.88
309.733	120.49
309.947	-76.12
310.161	9.9
310.374	83.63
310.588	128.68
310.802	-18.77
311.016	-0.34
311.23	40.62
311.444	24.23
311.658	32.43
311.872	30.38
312.085	102.06
312.299	79.53
312.513	100.01
312.727	13.99
312.941	-10.58
313.154	34.47
313.368	-24.92
313.582	81.58
313.796	106.15
314.009	9.9
314.223	149.16
314.437	97.96
314.651	102.06
314.864	-43.35
315.078	44.71
315.292	-72.02
315.505	-47.44
315.719	22.19
315.933	24.23
316.146	-0.34
316.36	30.38
316.573	116.39
316.787	71.34
317.001	5.8
317.214	24.23
317.428	30.38
317.641	-84.31
317.855	-43.35
318.068	106.15
318.282	71.34
318.495	163.5
318.709	32.43
318.922	38.57
319.136	157.35
319.349	93.87
319.563	-24.92
319.776	100.01
319.99	-53.59
320.203	128.68
320.417	-24.92
320.63	42.67
320.843	134.82
321.057	69.29
321.27	7.85
321.483	22.19
321.697	159.4
321.91	40.62
322.124	79.53
322.337	102.06
322.55	28.33
322.763	118.44
322.977	18.09
323.19	34.47
323.403	11.95
323.617	52.91
323.83	128.68
324.043	-43.35
324.256	118.44
324.469	-78.16
324.683	136.87
324.896	34.47
325.109	95.91
325.322	-37.2
325.535	81.58
325.748	106.15
325.962	75.43
326.175	50.86
326.388	140.97
326.601	122.54
326.814	40.62
327.027	130.73
327.24	138.92
327.453	-67.92
327.666	114.34
327.879	206.5
328.092	20.14
328.305	79.53
328.518	22.19
328.731	-10.58
328.944	38.57
329.157	153.26
329.37	26.28
329.583	202.41
329.796	112.3
330.009	-67.92
330.222	173.74
330.435	104.11
330.648	26.28
330.861	3.75
331.073	42.67
331.286	104.11
331.499	22.19
331.712	-51.54
331.925	79.53
332.138	-14.68
332.35	140.97
332.563	-94.55
332.776	147.11
332.989	5.8
333.202	-24.92
333.414	13.99
333.627	-26.96
333.84	-22.87
334.053	42.67
334.265	61.1
334.478	13.99
334.691	7.85
334.903	22.19
335.116	30.38
335.329	28.33
335.541	104.11
335.754	237.22
335.966	-39.25
336.179	-6.49
336.392	34.47
336.604	65.19
336.817	79.53
337.029	112.3
337.242	67.24
337.454	46.76
337.667	38.57
337.88	149.16
338.092	104.11
338.305	153.26
338.517	-0.34
338.729	67.24
338.942	145.06
339.154	-20.82
339.367	-26.96
339.579	116.39
339.792	3.75
340.004	28.33
340.217	-29.01
340.429	50.86
340.641	-14.68
340.854	-53.59
341.066	24.23
341.278	190.12
341.491	91.82
341.703	59.05
341.915	-33.11
342.128	79.53
342.34	18.09
342.552	-59.73
342.764	61.1
342.977	9.9
343.189	67.24
343.401	67.24
343.613	-110.93
343.826	38.57
344.038	-131.41
344.25	34.47
344.462	83.63
344.674	63.15
344.886	-106.84
345.099	106.15
345.311	100.01
345.523	1.71
345.735	-86.36
345.947	28.33
346.159	24.23
346.371	-22.87
346.583	57
346.795	116.39
347.007	54.95
347.219	46.76
347.431	-18.77
347.643	132.78
347.855	52.91
348.067	120.49
348.279	-74.07
348.491	38.57
348.703	69.29
348.915	7.85
349.127	-63.83
349.339	71.34
349.551	-4.44
349.763	145.06
349.975	-33.11
350.187	202.41
350.399	122.54
350.61	118.44
350.822	22.19
351.034	79.53
351.246	20.14
351.458	36.52
351.669	116.39
351.881	79.53
352.093	145.06
352.305	46.76
352.517	67.24
352.728	112.3
352.94	87.72
353.152	124.58
353.363	-47.44
353.575	63.15
353.787	97.96
353.999	13.99
354.21	126.63
354.422	-72.02
354.633	-14.68
354.845	-8.53
355.057	61.1
355.268	34.47
355.48	59.05
355.692	-26.96
355.903	71.34
356.115	-35.16
356.326	-29.01
356.538	126.63
356.749	1.71
356.961	50.86
357.172	42.67
357.384	-0.34
357.595	194.22
357.807	28.33
358.018	34.47
358.23	54.95
358.441	147.11
358.653	3.75
358.864	3.75
359.075	34.47
359.287	-2.39
359.498	30.38
359.709	81.58
359.921	9.9
360.132	63.15
360.344	36.52
360.555	36.52
360.766	85.67
360.977	32.43
361.189	167.59
361.4	16.04
361.611	73.39
361.823	163.5
362.034	126.63
362.245	-108.88
362.456	71.34
362.667	7.85
362.879	-26.96
363.09	87.72
363.301	50.86
363.512	85.67
363.723	-10.58
363.935	36.52
364.146	130.73
364.357	48.81
364.568	38.57
364.779	-31.06
364.99	177.83
365.201	9.9
365.412	7.85
365.623	-65.88
365.834	69.29
366.045	7.85
366.256	87.72
366.467	85.67
366.678	-14.68
366.889	61.1
367.1	-20.82
367.311	93.87
367.522	16.04
367.733	57
367.944	108.2
368.155	26.28
368.366	89.77
368.577	87.72
368.788	104.11
368.999	-74.07
369.209	59.05
369.42	183.98
369.631	239.27
369.842	108.2
370.053	-2.39
370.264	167.59
370.474	-4.44
370.685	13.99
370.896	7.85
371.107	114.34
371.317	50.86
371.528	13.99
371.739	91.82
371.95	69.29
372.16	177.83
372.371	-55.64
372.582	65.19
372.792	65.19
373.003	34.47
373.214	34.47
373.424	54.95
373.635	-49.49
373.846	145.06
374.056	54.95
374.267	44.71
374.477	118.44
374.688	30.38
374.898	126.63
375.109	112.3
375.319	30.38
375.53	-18.77
375.74	102.06
375.951	1.71
376.161	30.38
376.372	57
376.582	-26.96
376.793	7.85
377.003	-45.4
377.214	-100.69
377.424	104.11
377.635	40.62
377.845	11.95
378.055	128.68
378.266	-61.78
378.476	22.19
378.686	16.04
378.897	75.43
379.107	110.25
379.317	93.87
379.528	-2.39
379.738	91.82
379.948	-59.73
380.158	165.54
380.369	91.82
380.579	91.82
380.789	71.34
380.999	89.77
381.21	138.92
381.42	247.46
381.63	1.71
381.84	97.96
382.05	122.54
382.261	136.87
382.471	206.5
382.681	-18.77
382.891	134.82
383.101	75.43
383.311	-20.82
383.521	-6.49
383.731	91.82
383.941	149.16
384.151	18.09
384.361	97.96
384.571	71.34
384.781	91.82
384.991	220.84
385.201	91.82
385.411	140.97
385.621	46.76
385.831	50.86
386.041	-16.73
386.251	42.67
386.461	124.58
386.671	61.1
386.881	11.95
387.091	18.09
387.301	181.93
387.511	75.43
387.72	104.11
387.93	138.92
388.14	75.43
388.35	52.91
388.56	77.48
388.769	112.3
388.979	85.67
389.189	-47.44
389.399	20.14
389.609	79.53
389.818	190.12
390.028	97.96
390.238	61.1
390.447	-18.77
390.657	114.34
390.867	-6.49
391.076	-80.21
391.286	26.28
391.496	81.58
391.705	38.57
391.915	145.06
392.125	186.02
392.334	16.04
392.544	157.35
392.753	36.52
392.963	30.38
393.172	-33.11
393.382	-49.49
393.591	85.67
393.801	13.99
394.01	132.78
394.22	118.44
394.429	-31.06
394.639	38.57
394.848	61.1
395.058	114.34
395.267	91.82
395.477	73.39
395.686	34.47
395.895	157.35
396.105	151.21
396.314	42.67
396.524	1.71
396.733	13.99
396.942	192.17
397.152	32.43
397.361	104.11
397.57	63.15
397.78	61.1
397.989	34.47
398.198	181.93
398.407	69.29
398.617	93.87
398.826	69.29
399.035	-29.01
399.244	100.01
399.453	59.05
399.663	110.25
399.872	124.58
400.081	18.09
400.29	89.77
400.499	-16.73
400.708	54.95
400.917	30.38
401.127	65.19
401.336	30.38
401.545	120.49
401.754	169.64
401.963	110.25
402.172	50.86
402.381	-22.87
402.59	20.14
402.799	44.71
403.008	120.49
403.217	5.8
403.426	106.15
403.635	-37.2
403.844	77.48
404.053	-16.73
404.262	9.9
404.471	192.17
404.68	77.48
404.888	75.43
405.097	116.39
405.306	61.1
405.515	34.47
405.724	57
405.933	110.25
406.142	11.95
406.35	69.29
406.559	-31.06
406.768	-10.58
406.977	136.87
407.185	65.19
407.394	69.29
407.603	-24.92
407.812	18.09
408.02	81.58
408.229	54.95
408.438	13.99
408.646	24.23
408.855	61.1
409.064	52.91
409.272	-2.39
409.481	169.64
409.69	-18.77
409.898	-41.3
410.107	-8.53
410.315	104.11
410.524	-67.92
410.733	114.34
410.941	1.71
411.15	136.87
411.358	106.15
411.567	124.58
411.775	9.9
411.984	112.3
412.192	13.99
412.401	-31.06
412.609	140.97
412.818	61.1
413.026	52.91
413.234	42.67
413.443	128.68
413.651	50.86
413.86	28.33
414.068	93.87
414.276	145.06
414.485	42.67
414.693	171.69
414.901	265.89
415.11	136.87
415.318	61.1
415.526	44.71
415.734	104.11
415.943	20.14
416.151	122.54
416.359	26.28
416.567	77.48
416.776	114.34
416.984	32.43
417.192	208.55
417.4	38.57
417.608	34.47
417.817	3.75
418.025	112.3
418.233	186.02
418.441	-26.96
418.649	9.9
418.857	7.85
419.065	143.02
419.273	-67.92
419.481	110.25
419.689	22.19
419.897	13.99
420.105	-37.2
420.313	124.58
420.521	169.64
420.729	128.68
420.937	57
421.145	59.05
421.353	132.78
421.561	112.3
421.769	110.25
421.977	-0.34
422.185	97.96
422.393	128.68
422.601	59.05
422.809	42.67
423.017	71.34
423.224	13.99
423.432	89.77
423.64	40.62
423.848	155.3
424.056	-59.73
424.263	233.13
424.471	16.04
424.679	143.02
424.887	11.95
425.094	177.83
425.302	30.38
425.51	32.43
425.718	167.59
425.925	104.11
426.133	-72.02
426.341	206.5
426.548	30.38
426.756	67.24
426.964	89.77
427.171	104.11
427.379	30.38
427.586	24.23
427.794	100.01
428.001	114.34
428.209	108.2
428.417	200.36
428.624	143.02
428.832	100.01
429.039	106.15
429.247	61.1
429.454	126.63
429.662	251.56
429.869	28.33
430.076	159.4
430.284	177.83
430.491	194.22
430.699	145.06
430.906	253.61
431.114	100.01
431.321	134.82
431.528	95.91
431.736	32.43
431.943	157.35
432.15	143.02
432.358	231.08
432.565	239.27
432.772	1.71
432.979	216.74
433.187	71.34
433.394	177.83
433.601	77.48
433.808	214.7
434.016	235.18
434.223	206.5
434.43	169.64
434.637	192.17
434.844	226.98
435.052	202.41
435.259	269.99
435.466	272.04
435.673	145.06
435.88	157.35
436.087	300.71
436.294	306.85
436.501	267.94
436.708	249.51
436.915	224.94
437.122	347.81
437.329	274.09
437.537	317.09
437.743	286.37
437.95	419.49
438.157	292.52
438.364	339.62
438.571	392.87
438.778	351.91
438.985	456.36
439.192	444.07
439.399	366.25
439.606	446.12
439.813	384.68
440.02	587.43
440.227	548.51
440.433	542.37
440.64	450.21
440.847	409.25
441.054	495.27
441.261	716.45
441.467	566.95
441.674	591.52
441.881	591.52
442.088	558.75
442.294	714.4
442.501	718.5
442.708	704.16
442.914	698.02
443.121	759.46
443.328	837.28
443.534	841.37
443.741	743.07
443.948	716.45
444.154	882.33
444.361	1072.79
444.568	964.25
444.774	962.2
444.981	868
445.187	1146.52
445.394	972.44
445.6	956.06
445.807	1179.29
446.013	1023.64
446.22	1154.71
446.426	1271.45
446.633	1371.8
446.839	1445.52
447.046	1177.24
447.252	1595.03
447.459	1482.39
447.665	1537.68
447.871	1566.35
448.078	1719.95
448.284	1701.52
448.491	1765.01
448.697	1851.02
448.903	1904.27
449.11	1902.22
449.316	1930.89
449.522	2016.91
449.728	2174.6
449.935	2115.21
450.141	2197.13
450.347	2573.96
450.553	2375.3
450.76	2520.71
450.966	2518.66
451.172	2713.22
451.378	2860.67
451.584	2819.71
451.791	3051.13
451.997	3032.7
452.203	3118.72
452.409	3348.09
452.615	3378.81
452.821	3321.46
453.027	3348.09
453.233	3786.35
453.44	3731.06
453.646	3980.91
453.852	4134.51
454.058	4109.93
454.264	4277.87
454.47	4615.78
454.676	4677.22
454.882	5088.86
455.088	4918.88
455.294	5166.68
455.5	5443.16
455.705	5715.54
455.911	5725.78
456.117	6014.54
456.323	6090.32
456.529	5987.92
456.735	6698.56
456.941	6966.85
457.147	7130.69
457.352	7374.39
457.558	7464.5
457.764	7968.31
457.97	8191.53
458.176	8435.24
458.381	8742.44
458.587	9219.61
458.793	9373.21
458.999	9764.37
459.204	10728.97
459.41	11130.37
459.616	10890.76
459.821	11726.33
460.027	11953.65
460.233	12660.2
460.438	12795.37
460.644	13434.33
460.85	13493.72
461.055	13825.5
461.261	14626.25
461.466	14390.74
461.672	14630.35
461.878	16360.88
462.083	16215.48
462.289	16557.49
462.494	17208.74
462.7	17268.13
462.905	17511.84
463.111	19168.65
463.316	19965.31
463.522	20194.68
463.727	20843.88
463.932	21843.29
464.138	22433.11
464.343	23477.57
464.549	23541.06
464.754	24800.56
464.959	25777.44
465.165	26494.23
465.37	26189.08
465.575	26144.03
465.781	27757.83
465.986	28636.41
466.191	28206.33
466.397	28583.16
466.602	27911.42
466.807	29713.64
467.012	29914.34
467.218	30498.01
467.423	30756.05
467.628	31227.09
467.833	32965.81
468.038	32263.36
468.244	32095.42
468.449	33598.63
