Data from USB4F104151__133__10-46-47-754.txt Node

Date: Wed Feb 26 10:46:47 EST 2025
User: louis
Spectrometer: USB4F10415
Trigger mode: 4
Integration Time (sec): 1.000000E-1
Scans to average: 1
Electric dark correction enabled: true
Nonlinearity correction enabled: false
Boxcar width: 0
XAxis mode: Wavelengths
Number of Pixels in Spectrum: 3648
>>>>>Begin Spectral Data<<<<<
178.204	-428.2
178.424	-428.2
178.644	-428.2
178.864	-463.01
179.084	-370.85
179.304	-14.51
179.524	-53.42
179.744	-6.31
179.964	38.74
180.184	48.98
180.404	22.36
180.624	1.88
180.844	-2.22
181.064	-57.51
181.283	16.21
181.503	-37.03
181.723	42.84
181.943	-86.19
182.163	173.91
182.383	-0.17
182.602	89.94
182.822	75.6
183.042	-18.6
183.262	36.69
183.482	5.97
183.701	22.36
183.921	44.88
184.141	-16.55
184.361	67.41
184.58	42.84
184.8	69.46
185.02	-61.61
185.239	55.12
185.459	120.66
185.679	175.95
185.898	-69.8
186.118	42.84
186.338	46.93
186.557	98.13
186.777	-86.19
186.997	-55.47
187.216	-32.94
187.436	141.14
187.655	22.36
187.875	165.71
188.095	89.94
188.314	98.13
188.534	81.75
188.753	-41.13
188.973	36.69
189.192	178
189.412	53.08
189.631	38.74
189.851	130.9
190.07	157.52
190.29	-96.43
190.509	-2.22
190.729	26.45
190.948	139.09
191.168	202.58
191.387	110.42
191.607	20.31
191.826	40.79
192.045	5.97
192.265	18.26
192.484	98.13
192.704	18.26
192.923	-53.42
193.142	196.43
193.362	147.28
193.581	169.81
193.8	8.02
194.02	89.94
194.239	-14.51
194.458	143.19
194.678	8.02
194.897	-10.41
195.116	106.32
195.335	46.93
195.555	42.84
195.774	24.4
195.993	65.36
196.212	-84.14
196.432	-2.22
196.651	-45.23
196.87	42.84
197.089	237.39
197.308	10.07
197.528	32.6
197.747	-65.71
197.966	36.69
198.185	204.63
198.404	-28.84
198.623	202.58
198.842	102.23
199.062	46.93
199.281	184.15
199.5	48.98
199.719	30.55
199.938	63.32
200.157	73.56
200.376	155.47
200.595	85.84
200.814	12.12
201.033	-4.27
201.252	106.32
201.471	32.6
201.69	73.56
201.909	59.22
202.128	114.52
202.347	67.41
202.566	3.93
202.785	-100.52
203.004	-26.79
203.223	235.35
203.442	-28.84
203.661	-39.08
203.879	-0.17
204.098	208.72
204.317	-75.95
204.536	53.08
204.755	104.28
204.974	104.28
205.193	-39.08
205.411	63.32
205.63	87.89
205.849	1.88
206.068	81.75
206.287	-57.51
206.505	196.43
206.724	28.5
206.943	-61.61
207.162	-106.67
207.381	75.6
207.599	38.74
207.818	48.98
208.037	-34.99
208.255	1.88
208.474	40.79
208.693	63.32
208.911	-32.94
209.13	34.64
209.349	65.36
209.567	100.18
209.786	40.79
210.005	85.84
210.223	-41.13
210.442	-88.23
210.661	-14.51
210.879	79.7
211.098	126.8
211.316	-14.51
211.535	69.46
211.753	-8.36
211.972	102.23
212.191	-43.18
212.409	-14.51
212.628	106.32
212.846	46.93
213.065	22.36
213.283	157.52
213.502	79.7
213.72	81.75
213.938	-22.7
214.157	-0.17
214.375	159.57
214.594	-104.62
214.812	71.51
215.031	18.26
215.249	40.79
215.467	42.84
215.686	87.89
215.904	38.74
216.122	-41.13
216.341	71.51
216.559	46.93
216.778	143.19
216.996	98.13
217.214	1.88
217.432	71.51
217.651	-96.43
217.869	5.97
218.087	28.5
218.306	-4.27
218.524	28.5
218.742	-32.94
218.96	122.71
219.179	3.93
219.397	-2.22
219.615	249.68
219.833	159.57
220.051	-45.23
220.27	116.56
220.488	53.08
220.706	-14.51
220.924	-84.14
221.142	-24.75
221.36	14.17
221.578	22.36
221.796	5.97
222.015	-47.27
222.233	67.41
222.451	118.61
222.669	-26.79
222.887	5.97
223.105	-0.17
223.323	-28.84
223.541	-92.33
223.759	79.7
223.977	51.03
224.195	180.05
224.413	128.85
224.631	32.6
224.849	14.17
225.067	169.81
225.285	-94.38
225.503	-75.95
225.721	-96.43
225.939	85.84
226.157	65.36
226.375	186.19
226.592	-41.13
226.81	8.02
227.028	69.46
227.246	139.09
227.464	38.74
227.682	120.66
227.9	114.52
228.117	67.41
228.335	91.99
228.553	8.02
228.771	-88.23
228.989	-26.79
229.206	53.08
229.424	-86.19
229.642	22.36
229.86	22.36
230.077	81.75
230.295	-4.27
230.513	83.8
230.731	73.56
230.948	243.54
231.166	87.89
231.384	-24.75
231.601	-24.75
231.819	163.67
232.037	-10.41
232.254	-20.65
232.472	-41.13
232.689	1.88
232.907	69.46
233.125	-88.23
233.342	-86.19
233.56	-10.41
233.777	-4.27
233.995	10.07
234.213	-12.46
234.43	30.55
234.648	3.93
234.865	-22.7
235.083	14.17
235.3	69.46
235.518	51.03
235.735	157.52
235.953	83.8
236.17	24.4
236.388	-47.27
236.605	18.26
236.822	48.98
237.04	110.42
237.257	143.19
237.475	-84.14
237.692	48.98
237.909	40.79
238.127	-6.31
238.344	149.33
238.562	51.03
238.779	-43.18
238.996	46.93
239.214	-47.27
239.431	71.51
239.648	18.26
239.865	108.37
240.083	91.99
240.3	10.07
240.517	-22.7
240.735	51.03
240.952	120.66
241.169	81.75
241.386	57.17
241.603	69.46
241.821	-73.9
242.038	-6.31
242.255	59.22
242.472	-45.23
242.689	73.56
242.907	48.98
243.124	77.65
243.341	18.26
243.558	-26.79
243.775	-59.56
243.992	-28.84
244.209	106.32
244.426	100.18
244.643	100.18
244.86	-43.18
245.078	137.04
245.295	-16.55
245.512	14.17
245.729	-12.46
245.946	132.95
246.163	28.5
246.38	55.12
246.597	85.84
246.814	-28.84
247.031	53.08
247.248	-12.46
247.464	61.27
247.681	59.22
247.898	110.42
248.115	-39.08
248.332	-41.13
248.549	106.32
248.766	171.86
248.983	51.03
249.2	-0.17
249.417	89.94
249.633	-4.27
249.85	-16.55
250.067	-26.79
250.284	122.71
250.501	53.08
250.717	42.84
250.934	67.41
251.151	10.07
251.368	10.07
251.585	22.36
251.801	48.98
252.018	-71.85
252.235	40.79
252.451	-61.61
252.668	20.31
252.885	102.23
253.102	-12.46
253.318	-45.23
253.535	-12.46
253.752	18.26
253.968	-30.89
254.185	-49.32
254.401	67.41
254.618	22.36
254.835	-61.61
255.051	126.8
255.268	75.6
255.484	-20.65
255.701	24.4
255.917	130.9
256.134	-18.6
256.351	-14.51
256.567	-65.71
256.784	10.07
257	-22.7
257.217	65.36
257.433	87.89
257.65	89.94
257.866	159.57
258.082	-47.27
258.299	-26.79
258.515	14.17
258.732	14.17
258.948	-51.37
259.165	69.46
259.381	-45.23
259.597	59.22
259.814	89.94
260.03	8.02
260.246	-22.7
260.463	139.09
260.679	102.23
260.895	53.08
261.112	51.03
261.328	-2.22
261.544	-127.14
261.761	98.13
261.977	3.93
262.193	-24.75
262.409	118.61
262.626	24.4
262.842	59.22
263.058	-49.32
263.274	85.84
263.49	46.93
263.707	110.42
263.923	106.32
264.139	-65.71
264.355	-2.22
264.571	137.04
264.787	63.32
265.004	81.75
265.22	30.55
265.436	-22.7
265.652	-18.6
265.868	-18.6
266.084	-82.09
266.3	46.93
266.516	-47.27
266.732	1.88
266.948	5.97
267.164	-22.7
267.38	118.61
267.596	22.36
267.812	112.47
268.028	10.07
268.244	81.75
268.46	22.36
268.676	-39.08
268.892	42.84
269.108	-41.13
269.324	-65.71
269.54	-0.17
269.756	20.31
269.972	-12.46
270.188	-12.46
270.403	-65.71
270.619	-10.41
270.835	-0.17
271.051	20.31
271.267	-55.47
271.483	-16.55
271.698	26.45
271.914	128.85
272.13	120.66
272.346	-45.23
272.562	145.24
272.777	198.48
272.993	-45.23
273.209	24.4
273.425	1.88
273.64	-92.33
273.856	122.71
274.072	-51.37
274.287	71.51
274.503	67.41
274.719	135
274.934	-34.99
275.15	-84.14
275.366	14.17
275.581	14.17
275.797	38.74
276.012	48.98
276.228	-12.46
276.444	65.36
276.659	77.65
276.875	-28.84
277.09	-18.6
277.306	-8.36
277.521	83.8
277.737	67.41
277.952	77.65
278.168	98.13
278.383	20.31
278.599	141.14
278.814	151.38
279.03	59.22
279.245	126.8
279.461	40.79
279.676	147.28
279.892	-80.04
280.107	3.93
280.322	10.07
280.538	-6.31
280.753	-8.36
280.969	73.56
281.184	53.08
281.399	147.28
281.615	42.84
281.83	67.41
282.045	-47.27
282.26	-53.42
282.476	12.12
282.691	38.74
282.906	28.5
283.122	44.88
283.337	-12.46
283.552	26.45
283.767	-14.51
283.983	108.37
284.198	-12.46
284.413	-0.17
284.628	30.55
284.843	85.84
285.058	38.74
285.274	1.88
285.489	-49.32
285.704	81.75
285.919	-55.47
286.134	-51.37
286.349	63.32
286.564	-22.7
286.779	145.24
286.995	67.41
287.21	-92.33
287.425	124.76
287.64	10.07
287.855	34.64
288.07	16.21
288.285	77.65
288.5	110.42
288.715	98.13
288.93	22.36
289.145	-75.95
289.36	91.99
289.575	-4.27
289.79	10.07
290.004	-22.7
290.219	108.37
290.434	-10.41
290.649	8.02
290.864	24.4
291.079	-59.56
291.294	8.02
291.509	83.8
291.724	30.55
291.938	-75.95
292.153	22.36
292.368	44.88
292.583	100.18
292.798	128.85
293.012	106.32
293.227	32.6
293.442	59.22
293.657	10.07
293.871	120.66
294.086	51.03
294.301	55.12
294.516	114.52
294.73	24.4
294.945	-47.27
295.16	-125.1
295.374	175.95
295.589	114.52
295.804	-55.47
296.018	10.07
296.233	98.13
296.447	16.21
296.662	-6.31
296.877	22.36
297.091	141.14
297.306	75.6
297.52	-59.56
297.735	108.37
297.949	-26.79
298.164	46.93
298.378	-26.79
298.593	-73.9
298.807	-16.55
299.022	-16.55
299.236	116.56
299.451	36.69
299.665	30.55
299.88	71.51
300.094	10.07
300.309	-0.17
300.523	104.28
300.737	30.55
300.952	44.88
301.166	85.84
301.381	16.21
301.595	28.5
301.809	38.74
302.024	57.17
302.238	-73.9
302.452	114.52
302.667	-26.79
302.881	139.09
303.095	87.89
303.309	71.51
303.524	28.5
303.738	-2.22
303.952	-22.7
304.166	110.42
304.381	-145.58
304.595	106.32
304.809	-57.51
305.023	-6.31
305.237	28.5
305.452	63.32
305.666	89.94
305.88	57.17
306.094	102.23
306.308	110.42
306.522	114.52
306.736	36.69
306.95	116.56
307.164	89.94
307.379	-39.08
307.593	157.52
307.807	130.9
308.021	59.22
308.235	104.28
308.449	-92.33
308.663	-39.08
308.877	208.72
309.091	55.12
309.305	38.74
309.519	-96.43
309.733	40.79
309.947	-12.46
310.161	94.04
310.374	44.88
310.588	98.13
310.802	-2.22
311.016	36.69
311.23	22.36
311.444	-49.32
311.658	55.12
311.872	32.6
312.085	75.6
312.299	85.84
312.513	77.65
312.727	14.17
312.941	-92.33
313.154	-2.22
313.368	-4.27
313.582	32.6
313.796	18.26
314.009	14.17
314.223	71.51
314.437	10.07
314.651	143.19
314.864	-43.18
315.078	-63.66
315.292	-43.18
315.505	26.45
315.719	65.36
315.933	83.8
316.146	3.93
316.36	-65.71
316.573	77.65
316.787	40.79
317.001	30.55
317.214	-108.71
317.428	65.36
317.641	-32.94
317.855	-18.6
318.068	44.88
318.282	-49.32
318.495	110.42
318.709	126.8
318.922	42.84
319.136	108.37
319.349	87.89
319.563	-59.56
319.776	57.17
319.99	-100.52
320.203	38.74
320.417	-20.65
320.63	83.8
320.843	149.33
321.057	51.03
321.27	-53.42
321.483	46.93
321.697	149.33
321.91	-2.22
322.124	38.74
322.337	51.03
322.55	-43.18
322.763	18.26
322.977	5.97
323.19	18.26
323.403	16.21
323.617	18.26
323.83	102.23
324.043	-34.99
324.256	24.4
324.469	-59.56
324.683	22.36
324.896	-26.79
325.109	-22.7
325.322	-2.22
325.535	91.99
325.748	87.89
325.962	-18.6
326.175	-16.55
326.388	57.17
326.601	67.41
326.814	34.64
327.027	16.21
327.24	118.61
327.453	-129.19
327.666	34.64
327.879	48.98
328.092	89.94
328.305	81.75
328.518	5.97
328.731	-30.89
328.944	16.21
329.157	46.93
329.37	3.93
329.583	141.14
329.796	112.47
330.009	-20.65
330.222	46.93
330.435	112.47
330.648	-16.55
330.861	30.55
331.073	24.4
331.286	81.75
331.499	57.17
331.712	-61.61
331.925	85.84
332.138	-8.36
332.35	87.89
332.563	-32.94
332.776	34.64
332.989	14.17
333.202	44.88
333.414	36.69
333.627	-86.19
333.84	44.88
334.053	-2.22
334.265	1.88
334.478	-53.42
334.691	5.97
334.903	-6.31
335.116	-59.56
335.329	28.5
335.541	65.36
335.754	98.13
335.966	-73.9
336.179	61.27
336.392	-6.31
336.604	28.5
336.817	87.89
337.029	40.79
337.242	14.17
337.454	61.27
337.667	59.22
337.88	89.94
338.092	91.99
338.305	91.99
338.517	-26.79
338.729	91.99
338.942	83.8
339.154	-51.37
339.367	-55.47
339.579	81.75
339.792	-125.1
340.004	75.6
340.217	-6.31
340.429	18.26
340.641	-51.37
340.854	-88.23
341.066	10.07
341.278	98.13
341.491	145.24
341.703	-18.6
341.915	-45.23
342.128	173.91
342.34	120.66
342.552	-37.03
342.764	-2.22
342.977	96.08
343.189	20.31
343.401	53.08
343.613	30.55
343.826	36.69
344.038	-84.14
344.25	44.88
344.462	3.93
344.674	18.26
344.886	-18.6
345.099	12.12
345.311	75.6
345.523	-30.89
345.735	-80.04
345.947	69.46
346.159	32.6
346.371	-2.22
346.583	32.6
346.795	153.43
347.007	-6.31
347.219	-12.46
347.431	48.98
347.643	20.31
347.855	-77.99
348.067	104.28
348.279	-32.94
348.491	1.88
348.703	75.6
348.915	1.88
349.127	-45.23
349.339	57.17
349.551	14.17
349.763	32.6
349.975	-2.22
350.187	120.66
350.399	81.75
350.61	116.56
350.822	-2.22
351.034	14.17
351.246	46.93
351.458	89.94
351.669	81.75
351.881	-10.41
352.093	87.89
352.305	116.56
352.517	48.98
352.728	114.52
352.94	94.04
353.152	69.46
353.363	-34.99
353.575	73.56
353.787	180.05
353.999	75.6
354.21	94.04
354.422	-63.66
354.633	36.69
354.845	-4.27
355.057	83.8
355.268	1.88
355.48	20.31
355.692	-131.24
355.903	-41.13
356.115	-67.75
356.326	-67.75
356.538	104.28
356.749	12.12
356.961	87.89
357.172	18.26
357.384	26.45
357.595	204.63
357.807	-28.84
358.018	-10.41
358.23	57.17
358.441	161.62
358.653	14.17
358.864	-37.03
359.075	-26.79
359.287	-12.46
359.498	130.9
359.709	34.64
359.921	1.88
360.132	94.04
360.344	24.4
360.555	-0.17
360.766	1.88
360.977	-73.9
361.189	126.8
361.4	-4.27
361.611	46.93
361.823	100.18
362.034	5.97
362.245	-67.75
362.456	71.51
362.667	137.04
362.879	-43.18
363.09	57.17
363.301	-0.17
363.512	46.93
363.723	-47.27
363.935	-4.27
364.146	77.65
364.357	-41.13
364.568	-45.23
364.779	-63.66
364.99	122.71
365.201	-8.36
365.412	141.14
365.623	-10.41
365.834	42.84
366.045	61.27
366.256	79.7
366.467	28.5
366.678	-2.22
366.889	-24.75
367.1	-22.7
367.311	91.99
367.522	-77.99
367.733	34.64
367.944	122.71
368.155	3.93
368.366	116.56
368.577	104.28
368.788	51.03
368.999	-24.75
369.209	40.79
369.42	290.64
369.631	188.24
369.842	55.12
370.053	-43.18
370.264	89.94
370.474	-39.08
370.685	102.23
370.896	14.17
371.107	155.47
371.317	87.89
371.528	-41.13
371.739	145.24
371.95	55.12
372.16	143.19
372.371	-73.9
372.582	1.88
372.792	8.02
373.003	85.84
373.214	73.56
373.424	53.08
373.635	-104.62
373.846	22.36
374.056	14.17
374.267	36.69
374.477	124.76
374.688	51.03
374.898	96.08
375.109	-4.27
375.319	-8.36
375.53	126.8
375.74	38.74
375.951	-4.27
376.161	16.21
376.372	147.28
376.582	-82.09
376.793	38.74
377.003	20.31
377.214	-63.66
377.424	3.93
377.635	-57.51
377.845	10.07
378.055	145.24
378.266	-30.89
378.476	28.5
378.686	65.36
378.897	30.55
379.107	44.88
379.317	120.66
379.528	5.97
379.738	30.55
379.948	-18.6
380.158	175.95
380.369	96.08
380.579	91.99
380.789	32.6
380.999	87.89
381.21	104.28
381.42	163.67
381.63	-6.31
381.84	77.65
382.05	81.75
382.261	173.91
382.471	116.56
382.681	-10.41
382.891	155.47
383.101	143.19
383.311	-47.27
383.521	22.36
383.731	143.19
383.941	169.81
384.151	-0.17
384.361	77.65
384.571	116.56
384.781	46.93
384.991	186.19
385.201	153.43
385.411	161.62
385.621	30.55
385.831	36.69
386.041	44.88
386.251	46.93
386.461	104.28
386.671	-18.6
386.881	20.31
387.091	34.64
387.301	34.64
387.511	44.88
387.72	71.51
387.93	65.36
388.14	-26.79
388.35	42.84
388.56	91.99
388.769	118.61
388.979	59.22
389.189	-86.19
389.399	3.93
389.609	-18.6
389.818	94.04
390.028	75.6
390.238	71.51
390.447	-14.51
390.657	44.88
390.867	-20.65
391.076	-123.05
391.286	30.55
391.496	1.88
391.705	-18.6
391.915	91.99
392.125	46.93
392.334	98.13
392.544	100.18
392.753	-2.22
392.963	118.61
393.172	14.17
393.382	5.97
393.591	210.77
393.801	-22.7
394.01	116.56
394.22	38.74
394.429	28.5
394.639	-26.79
394.848	32.6
395.058	75.6
395.267	-12.46
395.477	114.52
395.686	14.17
395.895	137.04
396.105	112.47
396.314	57.17
396.524	-14.51
396.733	24.4
396.942	59.22
397.152	69.46
397.361	147.28
397.57	16.21
397.78	48.98
397.989	81.75
398.198	175.95
398.407	-0.17
398.617	-24.75
398.826	112.47
399.035	-43.18
399.244	141.14
399.453	38.74
399.663	69.46
399.872	73.56
400.081	30.55
400.29	128.85
400.499	-75.95
400.708	104.28
400.917	-20.65
401.127	14.17
401.336	14.17
401.545	145.24
401.754	69.46
401.963	122.71
402.172	-22.7
402.381	-22.7
402.59	44.88
402.799	14.17
403.008	77.65
403.217	59.22
403.426	61.27
403.635	-24.75
403.844	61.27
404.053	18.26
404.262	-18.6
404.471	102.23
404.68	110.42
404.888	34.64
405.097	5.97
405.306	81.75
405.515	30.55
405.724	79.7
405.933	65.36
406.142	118.61
406.35	96.08
406.559	69.46
406.768	46.93
406.977	178
407.185	67.41
407.394	53.08
407.603	-39.08
407.812	83.8
408.02	73.56
408.229	87.89
408.438	42.84
408.646	-88.23
408.855	28.5
409.064	73.56
409.272	-26.79
409.481	102.23
409.69	-6.31
409.898	-69.8
410.107	128.85
410.315	137.04
410.524	-49.32
410.733	48.98
410.941	44.88
411.15	118.61
411.358	73.56
411.567	106.32
411.775	28.5
411.984	28.5
412.192	34.64
412.401	-39.08
412.609	200.53
412.818	57.17
413.026	153.43
413.234	8.02
413.443	55.12
413.651	-59.56
413.86	26.45
414.068	96.08
414.276	161.62
414.485	34.64
414.693	143.19
414.901	112.47
415.11	61.27
415.318	57.17
415.526	55.12
415.734	67.41
415.943	55.12
416.151	59.22
416.359	16.21
416.567	89.94
416.776	155.47
416.984	57.17
417.192	202.58
417.4	3.93
417.608	10.07
417.817	-67.75
418.025	42.84
418.233	128.85
418.441	-53.42
418.649	-43.18
418.857	63.32
419.065	206.67
419.273	-59.56
419.481	3.93
419.689	26.45
419.897	-32.94
420.105	-61.61
420.313	24.4
420.521	120.66
420.729	77.65
420.937	-61.61
421.145	-26.79
421.353	98.13
421.561	198.48
421.769	73.56
421.977	87.89
422.185	87.89
422.393	-10.41
422.601	75.6
422.809	100.18
423.017	16.21
423.224	48.98
423.432	120.66
423.64	48.98
423.848	139.09
424.056	-71.85
424.263	118.61
424.471	-2.22
424.679	130.9
424.887	1.88
425.094	94.04
425.302	79.7
425.51	22.36
425.718	94.04
425.925	81.75
426.133	-2.22
426.341	198.48
426.548	55.12
426.756	-39.08
426.964	79.7
427.171	30.55
427.379	132.95
427.586	73.56
427.794	32.6
428.001	126.8
428.209	126.8
428.417	231.25
428.624	157.52
428.832	75.6
429.039	126.8
429.247	-22.7
429.454	116.56
429.662	218.96
429.869	151.38
430.076	61.27
430.284	139.09
430.491	122.71
430.699	91.99
430.906	147.28
431.114	122.71
431.321	118.61
431.528	85.84
431.736	87.89
431.943	110.42
432.15	120.66
432.358	159.57
432.565	329.55
432.772	20.31
432.979	161.62
433.187	128.85
433.394	153.43
433.601	135
433.808	202.58
434.016	229.2
434.223	192.34
434.43	108.37
434.637	237.39
434.844	247.63
435.052	221.01
435.259	231.25
435.466	257.87
435.673	243.54
435.88	196.43
436.087	386.9
436.294	278.35
436.501	339.79
436.708	296.78
436.915	276.31
437.122	352.08
437.329	221.01
437.537	327.5
437.743	292.69
437.95	472.91
438.157	251.73
438.364	390.99
438.571	358.22
438.778	388.94
438.985	446.29
439.192	481.1
439.399	505.68
439.606	395.09
439.813	483.15
440.02	659.28
440.227	634.7
440.433	552.78
440.64	450.38
440.847	452.43
441.054	558.92
441.261	673.61
441.467	569.16
441.674	636.75
441.881	614.22
442.088	581.45
442.294	587.6
442.501	722.76
442.708	714.57
442.914	745.29
443.121	880.46
443.328	888.65
443.534	870.22
443.741	937.8
443.948	827.21
444.154	989
444.361	1056.58
444.568	1087.3
444.774	1066.82
444.981	958.28
445.187	1161.03
445.394	1066.82
445.6	1183.56
445.807	1316.67
446.013	1269.57
446.22	1154.88
446.426	1365.82
446.633	1396.54
446.839	1595.2
447.046	1455.94
447.252	1595.2
447.459	1574.72
447.665	1589.05
447.871	1783.61
448.078	1892.15
448.284	1855.29
448.491	1967.93
448.697	2064.18
448.903	2242.36
449.11	2139.96
449.316	2268.98
449.522	2268.98
449.728	2475.82
449.935	2492.21
450.141	2602.8
450.347	2637.61
450.553	2713.39
450.76	2801.45
450.966	2834.22
451.172	2860.84
451.378	3090.21
451.584	3051.3
451.791	3381.03
451.997	3446.56
452.203	3516.19
452.409	3729.18
452.615	3796.76
452.821	3796.76
453.027	3858.2
453.233	4110.1
453.44	4235.03
453.646	4507.41
453.852	4650.77
454.058	4706.06
454.264	4888.33
454.47	5201.67
454.676	5177.09
454.882	5641.98
455.088	5367.56
455.294	5830.4
455.5	6160.12
455.705	6498.03
455.911	6538.99
456.117	6729.45
456.323	6901.48
456.529	6887.15
456.735	7558.88
456.941	7657.18
457.147	7948
457.352	8410.84
457.558	8386.26
457.764	8949.45
457.97	9322.18
458.176	9445.06
458.381	10047.16
458.587	10073.79
458.793	10696.37
458.999	10739.38
459.204	11980.45
459.41	12463.77
459.616	12060.32
459.821	12895.89
460.027	13473.42
460.233	14003.84
460.438	14253.69
460.644	15255.15
460.85	15083.12
461.055	15793.76
461.261	16504.41
461.466	15994.47
461.672	16492.12
461.878	18490.94
462.083	18239.04
462.289	18708.02
462.494	19498.54
462.7	19447.34
462.905	19414.57
463.111	21480.97
463.316	22277.63
463.522	22705.66
463.727	23680.49
463.932	24417.76
464.138	25413.07
464.343	26152.39
464.549	26684.86
464.754	28245.41
464.959	29146.52
465.165	29574.55
465.37	29068.7
465.575	29240.73
465.781	31364.47
465.986	32335.21
466.191	31456.63
466.397	31960.43
466.602	31292.79
466.807	32886.11
467.012	33819.99
467.218	34411.85
467.423	34882.88
467.628	35274.04
467.833	37098.78
468.038	36277.55
468.244	35884.34
468.449	37539.1
