Data from USB4F104151__157__11-04-36-437.txt Node

Date: Wed Feb 26 11:04:36 EST 2025
User: louis
Spectrometer: USB4F10415
Trigger mode: 4
Integration Time (sec): 1.000000E-1
Scans to average: 1
Electric dark correction enabled: true
Nonlinearity correction enabled: false
Boxcar width: 0
XAxis mode: Wavelengths
Number of Pixels in Spectrum: 3648
>>>>>Begin Spectral Data<<<<<
178.204	-324.6
178.424	-324.6
178.644	-324.6
178.864	-353.27
179.084	-308.22
179.304	17.41
179.524	-9.22
179.744	-33.79
179.964	76.8
180.184	-46.08
180.404	37.89
180.624	-25.6
180.844	52.22
181.064	-46.08
181.283	3.07
181.503	-46.08
181.723	19.46
181.943	-154.62
182.163	128
182.383	29.7
182.602	76.8
182.822	101.37
183.042	56.32
183.262	-74.75
183.482	-17.41
183.701	39.94
183.921	52.22
184.141	-27.65
184.361	117.76
184.58	35.84
184.8	70.65
185.02	5.12
185.239	177.15
185.459	93.18
185.679	166.91
185.898	-99.33
186.118	7.17
186.338	31.74
186.557	191.49
186.777	-15.36
186.997	-3.07
187.216	35.84
187.436	242.68
187.655	103.42
187.875	113.66
188.095	17.41
188.314	195.58
188.534	62.46
188.753	-31.74
188.973	46.08
189.192	214.01
189.412	3.07
189.631	11.26
189.851	115.71
190.07	224.25
190.29	56.32
190.509	13.31
190.729	70.65
190.948	171.01
191.168	250.88
191.387	35.84
191.607	64.51
191.826	68.61
192.045	58.37
192.265	74.75
192.484	105.47
192.704	27.65
192.923	-39.94
193.142	189.44
193.362	97.28
193.581	52.22
193.8	111.61
194.02	97.28
194.239	80.89
194.458	119.81
194.678	50.18
194.897	3.07
195.116	168.96
195.335	33.79
195.555	140.29
195.774	-62.46
195.993	72.7
196.212	-39.94
196.432	3.07
196.651	-25.6
196.87	52.22
197.089	291.84
197.308	152.57
197.528	171.01
197.747	13.31
197.966	23.55
198.185	160.77
198.404	-48.13
198.623	113.66
198.842	99.33
199.062	78.85
199.281	91.13
199.5	39.94
199.719	183.29
199.938	111.61
200.157	113.66
200.376	58.37
200.595	123.9
200.814	27.65
201.033	17.41
201.252	138.24
201.471	64.51
201.69	117.76
201.909	56.32
202.128	148.48
202.347	50.18
202.566	60.42
202.785	-70.65
203.004	21.5
203.223	259.07
203.442	107.52
203.661	-60.42
203.879	123.9
204.098	91.13
204.317	-44.03
204.536	93.18
204.755	134.14
204.974	152.57
205.193	-9.22
205.411	236.54
205.63	93.18
205.849	37.89
206.068	91.13
206.287	-5.12
206.505	154.62
206.724	95.23
206.943	-19.46
207.162	9.22
207.381	115.71
207.599	-62.46
207.818	76.8
208.037	-13.31
208.255	27.65
208.474	52.22
208.693	39.94
208.911	11.26
209.13	76.8
209.349	87.04
209.567	158.72
209.786	144.38
210.005	150.53
210.223	48.13
210.442	-91.13
210.661	19.46
210.879	29.7
211.098	29.7
211.316	21.5
211.535	48.13
211.753	23.55
211.972	80.89
212.191	-17.41
212.409	-13.31
212.628	74.75
212.846	84.99
213.065	21.5
213.283	146.43
213.502	13.31
213.72	111.61
213.938	11.26
214.157	44.03
214.375	54.27
214.594	29.7
214.812	89.09
215.031	115.71
215.249	13.31
215.467	64.51
215.686	21.5
215.904	17.41
216.122	103.42
216.341	193.53
216.559	105.47
216.778	19.46
216.996	160.77
217.214	11.26
217.432	13.31
217.651	-35.84
217.869	68.61
218.087	19.46
218.306	25.6
218.524	52.22
218.742	39.94
218.96	52.22
219.179	-17.41
219.397	66.56
219.615	228.35
219.833	70.65
220.051	-52.22
220.27	21.5
220.488	93.18
220.706	56.32
220.924	46.08
221.142	-3.07
221.36	48.13
221.578	97.28
221.796	64.51
222.015	-25.6
222.233	76.8
222.451	140.29
222.669	-58.37
222.887	56.32
223.105	54.27
223.323	19.46
223.541	-52.22
223.759	74.75
223.977	31.74
224.195	142.33
224.413	54.27
224.631	142.33
224.849	66.56
225.067	273.4
225.285	52.22
225.503	1.02
225.721	-41.98
225.939	9.22
226.157	9.22
226.375	211.96
226.592	35.84
226.81	82.94
227.028	152.57
227.246	99.33
227.464	13.31
227.682	130.05
227.9	84.99
228.117	56.32
228.335	70.65
228.553	111.61
228.771	7.17
228.989	54.27
229.206	39.94
229.424	76.8
229.642	64.51
229.86	37.89
230.077	160.77
230.295	64.51
230.513	111.61
230.731	58.37
230.948	226.3
231.166	205.82
231.384	48.13
231.601	19.46
231.819	207.87
232.037	-37.89
232.254	19.46
232.472	46.08
232.689	35.84
232.907	164.86
233.125	-31.74
233.342	-52.22
233.56	9.22
233.777	19.46
233.995	62.46
234.213	125.95
234.43	97.28
234.648	39.94
234.865	-27.65
235.083	54.27
235.3	5.12
235.518	52.22
235.735	189.44
235.953	99.33
236.17	50.18
236.388	76.8
236.605	1.02
236.822	95.23
237.04	91.13
237.257	68.61
237.475	46.08
237.692	-15.36
237.909	216.06
238.127	23.55
238.344	80.89
238.562	132.09
238.779	-50.18
238.996	-33.79
239.214	54.27
239.431	29.7
239.648	-23.55
239.865	111.61
240.083	62.46
240.3	-19.46
240.517	48.13
240.735	95.23
240.952	166.91
241.169	111.61
241.386	37.89
241.603	50.18
241.821	-107.52
242.038	117.76
242.255	144.38
242.472	39.94
242.689	82.94
242.907	87.04
243.124	27.65
243.341	-5.12
243.558	5.12
243.775	-64.51
243.992	-37.89
244.209	156.67
244.426	132.09
244.643	37.89
244.86	46.08
245.078	99.33
245.295	60.42
245.512	68.61
245.729	-9.22
245.946	-35.84
246.163	27.65
246.38	33.79
246.597	-7.17
246.814	62.46
247.031	72.7
247.248	58.37
247.464	76.8
247.681	52.22
247.898	48.13
248.115	111.61
248.332	-1.02
248.549	119.81
248.766	166.91
248.983	121.85
249.2	93.18
249.417	138.24
249.633	48.13
249.85	97.28
250.067	11.26
250.284	105.47
250.501	76.8
250.717	95.23
250.934	23.55
251.151	56.32
251.368	25.6
251.585	56.32
251.801	3.07
252.018	-74.75
252.235	123.9
252.451	-46.08
252.668	41.98
252.885	130.05
253.102	76.8
253.318	44.03
253.535	64.51
253.752	-1.02
253.968	19.46
254.185	-17.41
254.401	72.7
254.618	99.33
254.835	5.12
255.051	97.28
255.268	84.99
255.484	11.26
255.701	66.56
255.917	-3.07
256.134	-17.41
256.351	-19.46
256.567	21.5
256.784	15.36
257	-37.89
257.217	99.33
257.433	99.33
257.65	91.13
257.866	168.96
258.082	-84.99
258.299	17.41
258.515	123.9
258.732	15.36
258.948	-3.07
259.165	23.55
259.381	-25.6
259.597	74.75
259.814	37.89
260.03	56.32
260.246	23.55
260.463	138.24
260.679	134.14
260.895	13.31
261.112	60.42
261.328	58.37
261.544	3.07
261.761	121.85
261.977	-13.31
262.193	-101.37
262.409	44.03
262.626	68.61
262.842	62.46
263.058	64.51
263.274	123.9
263.49	64.51
263.707	39.94
263.923	35.84
264.139	-60.42
264.355	17.41
264.571	95.23
264.787	97.28
265.004	136.19
265.22	25.6
265.436	33.79
265.652	80.89
265.868	17.41
266.084	-48.13
266.3	27.65
266.516	13.31
266.732	35.84
266.948	74.75
267.164	41.98
267.38	70.65
267.596	-3.07
267.812	177.15
268.028	-25.6
268.244	-13.31
268.46	37.89
268.676	31.74
268.892	58.37
269.108	-41.98
269.324	-52.22
269.54	-19.46
269.756	154.62
269.972	-27.65
270.188	19.46
270.403	27.65
270.619	58.37
270.835	35.84
271.051	48.13
271.267	-39.94
271.483	-9.22
271.698	84.99
271.914	76.8
272.13	9.22
272.346	64.51
272.562	-3.07
272.777	183.29
272.993	54.27
273.209	1.02
273.425	107.52
273.64	3.07
273.856	95.23
274.072	31.74
274.287	-13.31
274.503	44.03
274.719	99.33
274.934	60.42
275.15	-109.57
275.366	76.8
275.581	19.46
275.797	80.89
276.012	50.18
276.228	3.07
276.444	35.84
276.659	89.09
276.875	-25.6
277.09	7.17
277.306	-29.7
277.521	109.57
277.737	-21.5
277.952	95.23
278.168	146.43
278.383	62.46
278.599	39.94
278.814	134.14
279.03	-3.07
279.245	162.81
279.461	-1.02
279.676	56.32
279.892	-33.79
280.107	44.03
280.322	21.5
280.538	107.52
280.753	78.85
280.969	56.32
281.184	29.7
281.399	209.92
281.615	-41.98
281.83	91.13
282.045	-17.41
282.26	-76.8
282.476	91.13
282.691	76.8
282.906	89.09
283.122	-1.02
283.337	7.17
283.552	52.22
283.767	19.46
283.983	119.81
284.198	23.55
284.413	156.67
284.628	17.41
284.843	33.79
285.058	132.09
285.274	33.79
285.489	31.74
285.704	117.76
285.919	-39.94
286.134	39.94
286.349	31.74
286.564	80.89
286.779	162.81
286.995	13.31
287.21	-54.27
287.425	58.37
287.64	-27.65
287.855	119.81
288.07	-56.32
288.285	80.89
288.5	74.75
288.715	33.79
288.93	27.65
289.145	46.08
289.36	93.18
289.575	76.8
289.79	13.31
290.004	-21.5
290.219	72.7
290.434	-17.41
290.649	72.7
290.864	-15.36
291.079	-35.84
291.294	62.46
291.509	62.46
291.724	-17.41
291.938	3.07
292.153	84.99
292.368	13.31
292.583	105.47
292.798	136.19
293.012	-1.02
293.227	66.56
293.442	35.84
293.657	132.09
293.871	197.63
294.086	115.71
294.301	111.61
294.516	80.89
294.73	7.17
294.945	3.07
295.16	-29.7
295.374	185.34
295.589	128
295.804	33.79
296.018	7.17
296.233	138.24
296.447	109.57
296.662	17.41
296.877	134.14
297.091	97.28
297.306	68.61
297.52	-3.07
297.735	148.48
297.949	11.26
298.164	5.12
298.378	44.03
298.593	-33.79
298.807	37.89
299.022	-21.5
299.236	115.71
299.451	35.84
299.665	19.46
299.88	15.36
300.094	58.37
300.309	52.22
300.523	33.79
300.737	-31.74
300.952	119.81
301.166	107.52
301.381	-35.84
301.595	9.22
301.809	72.7
302.024	27.65
302.238	-78.85
302.452	78.85
302.667	95.23
302.881	119.81
303.095	39.94
303.309	46.08
303.524	23.55
303.738	37.89
303.952	44.03
304.166	121.85
304.381	-140.29
304.595	158.72
304.809	-35.84
305.023	11.26
305.237	33.79
305.452	39.94
305.666	87.04
305.88	121.85
306.094	93.18
306.308	138.24
306.522	66.56
306.736	125.95
306.95	62.46
307.164	21.5
307.379	37.89
307.593	134.14
307.807	152.57
308.021	123.9
308.235	107.52
308.449	-29.7
308.663	-46.08
308.877	285.69
309.091	82.94
309.305	64.51
309.519	-5.12
309.733	97.28
309.947	-41.98
310.161	107.52
310.374	35.84
310.588	105.47
310.802	-35.84
311.016	27.65
311.23	97.28
311.444	-11.26
311.658	78.85
311.872	166.91
312.085	140.29
312.299	125.95
312.513	168.96
312.727	111.61
312.941	-5.12
313.154	115.71
313.368	7.17
313.582	97.28
313.796	31.74
314.009	-11.26
314.223	150.53
314.437	111.61
314.651	117.76
314.864	41.98
315.078	44.03
315.292	-39.94
315.505	19.46
315.719	37.89
315.933	95.23
316.146	39.94
316.36	7.17
316.573	132.09
316.787	113.66
317.001	89.09
317.214	15.36
317.428	21.5
317.641	-11.26
317.855	78.85
318.068	93.18
318.282	21.5
318.495	205.82
318.709	76.8
318.922	35.84
319.136	115.71
319.349	144.38
319.563	-7.17
319.776	99.33
319.99	29.7
320.203	56.32
320.417	17.41
320.63	164.86
320.843	203.77
321.057	72.7
321.27	44.03
321.483	78.85
321.697	125.95
321.91	-3.07
322.124	-29.7
322.337	62.46
322.55	-11.26
322.763	99.33
322.977	50.18
323.19	-3.07
323.403	52.22
323.617	105.47
323.83	185.34
324.043	-44.03
324.256	31.74
324.469	-41.98
324.683	27.65
324.896	23.55
325.109	-46.08
325.322	-66.56
325.535	189.44
325.748	103.42
325.962	11.26
326.175	72.7
326.388	48.13
326.601	128
326.814	35.84
327.027	-27.65
327.24	175.1
327.453	-95.23
327.666	109.57
327.879	123.9
328.092	82.94
328.305	58.37
328.518	-23.55
328.731	3.07
328.944	-31.74
329.157	95.23
329.37	58.37
329.583	125.95
329.796	158.72
330.009	5.12
330.222	54.27
330.435	168.96
330.648	37.89
330.861	50.18
331.073	56.32
331.286	48.13
331.499	48.13
331.712	-64.51
331.925	72.7
332.138	-25.6
332.35	105.47
332.563	11.26
332.776	128
332.989	27.65
333.202	25.6
333.414	-19.46
333.627	62.46
333.84	-3.07
334.053	62.46
334.265	23.55
334.478	-56.32
334.691	82.94
334.903	-21.5
335.116	-7.17
335.329	15.36
335.541	123.9
335.754	105.47
335.966	-11.26
336.179	82.94
336.392	-1.02
336.604	101.37
336.817	156.67
337.029	39.94
337.242	-23.55
337.454	148.48
337.667	113.66
337.88	205.82
338.092	78.85
338.305	109.57
338.517	-39.94
338.729	142.33
338.942	113.66
339.154	17.41
339.367	-37.89
339.579	109.57
339.792	11.26
340.004	179.2
340.217	-23.55
340.429	17.41
340.641	74.75
340.854	13.31
341.066	62.46
341.278	72.7
341.491	136.19
341.703	15.36
341.915	-54.27
342.128	130.05
342.34	48.13
342.552	39.94
342.764	9.22
342.977	5.12
343.189	19.46
343.401	60.42
343.613	-37.89
343.826	66.56
344.038	68.61
344.25	84.99
344.462	3.07
344.674	84.99
344.886	17.41
345.099	105.47
345.311	134.14
345.523	-5.12
345.735	-70.65
345.947	44.03
346.159	41.98
346.371	70.65
346.583	23.55
346.795	236.54
347.007	44.03
347.219	97.28
347.431	-44.03
347.643	119.81
347.855	78.85
348.067	197.63
348.279	-27.65
348.491	56.32
348.703	158.72
348.915	-50.18
349.127	64.51
349.339	37.89
349.551	48.13
349.763	68.61
349.975	60.42
350.187	97.28
350.399	160.77
350.61	105.47
350.822	9.22
351.034	99.33
351.246	-5.12
351.458	72.7
351.669	89.09
351.881	117.76
352.093	66.56
352.305	115.71
352.517	76.8
352.728	179.2
352.94	171.01
353.152	33.79
353.363	15.36
353.575	35.84
353.787	152.57
353.999	70.65
354.21	134.14
354.422	-11.26
354.633	13.31
354.845	97.28
355.057	66.56
355.268	64.51
355.48	109.57
355.692	-13.31
355.903	33.79
356.115	56.32
356.326	-37.89
356.538	125.95
356.749	105.47
356.961	150.53
357.172	-39.94
357.384	64.51
357.595	97.28
357.807	13.31
358.018	46.08
358.23	70.65
358.441	158.72
358.653	101.37
358.864	62.46
359.075	3.07
359.287	56.32
359.498	123.9
359.709	101.37
359.921	54.27
360.132	60.42
360.344	54.27
360.555	31.74
360.766	60.42
360.977	-25.6
361.189	54.27
361.4	9.22
361.611	175.1
361.823	111.61
362.034	93.18
362.245	-187.39
362.456	93.18
362.667	15.36
362.879	-13.31
363.09	78.85
363.301	91.13
363.512	54.27
363.723	56.32
363.935	41.98
364.146	76.8
364.357	160.77
364.568	27.65
364.779	-37.89
364.99	175.1
365.201	-60.42
365.412	195.58
365.623	-72.7
365.834	50.18
366.045	-9.22
366.256	123.9
366.467	76.8
366.678	-29.7
366.889	70.65
367.1	35.84
367.311	156.67
367.522	21.5
367.733	130.05
367.944	68.61
368.155	13.31
368.366	115.71
368.577	107.52
368.788	132.09
368.999	-56.32
369.209	29.7
369.42	209.92
369.631	195.58
369.842	76.8
370.053	7.17
370.264	84.99
370.474	-41.98
370.685	-1.02
370.896	64.51
371.107	152.57
371.317	74.75
371.528	-9.22
371.739	121.85
371.95	84.99
372.16	50.18
372.371	-11.26
372.582	3.07
372.792	203.77
373.003	19.46
373.214	23.55
373.424	130.05
373.635	37.89
373.846	125.95
374.056	5.12
374.267	74.75
374.477	101.37
374.688	35.84
374.898	93.18
375.109	109.57
375.319	84.99
375.53	80.89
375.74	166.91
375.951	41.98
376.161	144.38
376.372	197.63
376.582	9.22
376.793	74.75
377.003	11.26
377.214	35.84
377.424	62.46
377.635	33.79
377.845	-1.02
378.055	123.9
378.266	-37.89
378.476	11.26
378.686	58.37
378.897	37.89
379.107	125.95
379.317	74.75
379.528	1.02
379.738	148.48
379.948	-72.7
380.158	52.22
380.369	91.13
380.579	128
380.789	41.98
380.999	171.01
381.21	146.43
381.42	246.78
381.63	41.98
381.84	140.29
382.05	3.07
382.261	99.33
382.471	95.23
382.681	-13.31
382.891	175.1
383.101	64.51
383.311	-11.26
383.521	-31.74
383.731	134.14
383.941	95.23
384.151	93.18
384.361	46.08
384.571	52.22
384.781	39.94
384.991	240.64
385.201	164.86
385.411	99.33
385.621	33.79
385.831	64.51
386.041	82.94
386.251	44.03
386.461	181.25
386.671	29.7
386.881	68.61
387.091	64.51
387.301	101.37
387.511	97.28
387.72	37.89
387.93	64.51
388.14	-80.89
388.35	62.46
388.56	117.76
388.769	148.48
388.979	31.74
389.189	60.42
389.399	74.75
389.609	70.65
389.818	105.47
390.028	82.94
390.238	101.37
390.447	-35.84
390.657	33.79
390.867	19.46
391.076	-13.31
391.286	95.23
391.496	76.8
391.705	21.5
391.915	48.13
392.125	142.33
392.334	70.65
392.544	146.43
392.753	-35.84
392.963	66.56
393.172	23.55
393.382	3.07
393.591	162.81
393.801	1.02
394.01	134.14
394.22	70.65
394.429	123.9
394.639	82.94
394.848	123.9
395.058	93.18
395.267	44.03
395.477	33.79
395.686	84.99
395.895	236.54
396.105	265.21
396.314	138.24
396.524	117.76
396.733	134.14
396.942	117.76
397.152	150.53
397.361	136.19
397.57	66.56
397.78	62.46
397.989	-3.07
398.198	195.58
398.407	109.57
398.617	78.85
398.826	37.89
399.035	31.74
399.244	160.77
399.453	142.33
399.663	-7.17
399.872	-11.26
400.081	3.07
400.29	125.95
400.499	27.65
400.708	107.52
400.917	-64.51
401.127	-29.7
401.336	80.89
401.545	181.25
401.754	107.52
401.963	189.44
402.172	66.56
402.381	-21.5
402.59	23.55
402.799	21.5
403.008	171.01
403.217	3.07
403.426	78.85
403.635	13.31
403.844	84.99
404.053	-44.03
404.262	7.17
404.471	166.91
404.68	68.61
404.888	50.18
405.097	50.18
405.306	64.51
405.515	128
405.724	46.08
405.933	72.7
406.142	99.33
406.35	123.9
406.559	-1.02
406.768	76.8
406.977	123.9
407.185	84.99
407.394	33.79
407.603	23.55
407.812	15.36
408.02	78.85
408.229	115.71
408.438	99.33
408.646	25.6
408.855	17.41
409.064	109.57
409.272	-1.02
409.481	146.43
409.69	44.03
409.898	-5.12
410.107	113.66
410.315	107.52
410.524	76.8
410.733	5.12
410.941	109.57
411.15	121.85
411.358	109.57
411.567	166.91
411.775	164.86
411.984	35.84
412.192	62.46
412.401	25.6
412.609	144.38
412.818	121.85
413.026	17.41
413.234	-21.5
413.443	48.13
413.651	27.65
413.86	74.75
414.068	191.49
414.276	211.96
414.485	-11.26
414.693	226.3
414.901	125.95
415.11	84.99
415.318	56.32
415.526	46.08
415.734	144.38
415.943	13.31
416.151	222.2
416.359	33.79
416.567	113.66
416.776	134.14
416.984	123.9
417.192	160.77
417.4	60.42
417.608	27.65
417.817	-15.36
418.025	142.33
418.233	205.82
418.441	7.17
418.649	-7.17
418.857	60.42
419.065	177.15
419.273	37.89
419.481	72.7
419.689	41.98
419.897	-17.41
420.105	-11.26
420.313	152.57
420.521	158.72
420.729	183.29
420.937	66.56
421.145	27.65
421.353	117.76
421.561	121.85
421.769	74.75
421.977	-3.07
422.185	138.24
422.393	60.42
422.601	269.31
422.809	130.05
423.017	82.94
423.224	29.7
423.432	130.05
423.64	41.98
423.848	91.13
424.056	31.74
424.263	152.57
424.471	84.99
424.679	148.48
424.887	-13.31
425.094	121.85
425.302	144.38
425.51	68.61
425.718	183.29
425.925	70.65
426.133	89.09
426.341	158.72
426.548	80.89
426.756	35.84
426.964	74.75
427.171	56.32
427.379	142.33
427.586	138.24
427.794	158.72
428.001	168.96
428.209	99.33
428.417	171.01
428.624	146.43
428.832	173.05
429.039	58.37
429.247	154.62
429.454	111.61
429.662	177.15
429.869	150.53
430.076	232.44
430.284	171.01
430.491	201.72
430.699	158.72
430.906	203.77
431.114	242.68
431.321	91.13
431.528	136.19
431.736	115.71
431.943	246.78
432.15	216.06
432.358	263.16
432.565	281.6
432.772	46.08
432.979	148.48
433.187	156.67
433.394	171.01
433.601	111.61
433.808	285.69
434.016	263.16
434.223	240.64
434.43	261.12
434.637	222.2
434.844	275.45
435.052	300.03
435.259	297.98
435.466	340.99
435.673	277.5
435.88	338.94
436.087	361.47
436.294	392.19
436.501	343.03
436.708	353.27
436.915	355.32
437.122	320.51
437.329	214.01
437.537	316.41
437.743	392.19
437.95	465.91
438.157	381.95
438.364	441.34
438.571	424.95
438.778	326.65
438.985	412.67
439.192	478.2
439.399	443.39
439.606	463.86
439.813	535.54
440.02	627.7
440.227	707.57
440.433	703.48
440.64	605.17
440.847	615.41
441.054	545.78
441.261	736.24
441.467	670.71
441.674	609.27
441.881	801.78
442.088	660.47
442.294	715.77
442.501	875.51
442.708	977.91
442.914	816.12
443.121	934.9
443.328	895.99
443.534	1051.63
443.741	982
443.948	924.66
444.154	1096.69
444.361	1194.99
444.568	1086.45
444.774	1215.47
444.981	1194.99
445.187	1336.3
445.394	1287.15
445.6	1264.62
445.807	1434.6
446.013	1453.03
446.22	1369.07
446.426	1541.1
446.633	1518.57
446.839	1860.58
447.046	1582.06
447.252	1885.16
447.459	1907.68
447.665	1770.47
447.871	1987.55
448.078	2114.53
448.284	2057.18
448.491	2173.92
448.697	2268.13
448.903	2391
449.11	2438.11
449.316	2317.28
449.522	2671.58
449.728	2653.14
449.935	2767.83
450.141	2694.1
450.347	3058.64
450.553	2943.96
450.76	3025.87
450.966	3288.01
451.172	3429.32
451.378	3460.04
451.584	3529.67
451.791	3724.23
451.997	3984.32
452.203	3926.98
452.409	4187.07
452.615	4369.34
452.821	4312
453.027	4182.98
453.233	4840.37
453.44	4723.64
453.646	5014.45
453.852	5209.01
454.058	5299.12
454.264	5428.14
454.47	5860.26
454.676	5888.93
454.882	6505.37
455.088	6144.93
455.294	6513.56
455.5	6730.65
455.705	7310.22
455.911	7244.69
456.117	7478.16
456.323	7852.94
456.529	7826.31
456.735	8508.29
456.941	8788.86
457.147	9079.67
457.352	9360.24
457.558	9440.11
457.764	10101.61
457.97	10535.78
458.176	10740.57
458.381	11264.85
458.587	11582.29
458.793	12069.7
458.999	12278.6
459.204	13503.28
459.41	14215.98
459.616	13945.64
459.821	14613.28
460.027	15455
460.233	16003.85
460.438	15975.18
460.644	17427.19
460.85	17156.86
461.055	17873.65
461.261	19028.7
461.466	18537.19
461.672	18828
461.878	20712.13
462.083	20722.37
462.289	21340.86
462.494	21973.68
462.7	22219.44
462.905	22366.89
463.111	24435.34
463.316	25610.87
463.522	26032.75
463.727	27116.13
463.932	28002.9
464.138	29182.53
464.343	30167.6
464.549	29819.45
464.754	32236.05
464.959	33139.21
465.165	33745.41
465.37	33559.04
465.575	33843.71
465.781	35840.48
465.986	36821.45
466.191	36162.01
466.397	37048.78
466.602	35869.15
466.807	37700.03
467.012	38576.56
467.218	38898.09
467.423	39481.77
467.628	39920.03
467.833	42074.49
468.038	41017.74
468.244	40739.22
468.449	42846.58
468.654	42156.41
468.859	42137.98
