Data from USB4F104151__198__11-05-28-631.txt Node

Date: Wed Feb 26 11:05:28 EST 2025
User: louis
Spectrometer: USB4F10415
Trigger mode: 4
Integration Time (sec): 1.000000E-1
Scans to average: 1
Electric dark correction enabled: true
Nonlinearity correction enabled: false
Boxcar width: 0
XAxis mode: Wavelengths
Number of Pixels in Spectrum: 3648
>>>>>Begin Spectral Data<<<<<
178.204	-407.55
178.424	-407.55
178.644	-407.55
178.864	-380.92
179.084	-385.02
179.304	10.24
179.524	43.01
179.744	-65.54
179.964	63.49
180.184	6.14
180.404	26.62
180.624	26.62
180.844	-40.96
181.064	-86.01
181.283	26.62
181.503	-94.21
181.723	83.97
181.943	-47.1
182.163	231.42
182.383	-45.06
182.602	67.58
182.822	176.13
183.042	135.17
183.262	-10.24
183.482	34.82
183.701	2.05
183.921	51.2
184.141	-51.2
184.361	38.91
184.58	55.3
184.8	79.87
185.02	12.29
185.239	135.17
185.459	6.14
185.679	233.47
185.898	-12.29
186.118	63.49
186.338	43.01
186.557	122.88
186.777	-102.4
186.997	-65.54
187.216	94.21
187.436	237.56
187.655	122.88
187.875	106.49
188.095	116.73
188.314	124.93
188.534	151.55
188.753	12.29
188.973	96.25
189.192	180.22
189.412	-24.58
189.631	22.53
189.851	161.79
190.07	182.27
190.29	-36.86
190.509	30.72
190.729	59.39
190.948	90.11
191.168	268.28
191.387	61.44
191.607	28.67
191.826	110.59
192.045	32.77
192.265	45.06
192.484	51.2
192.704	6.14
192.923	-22.53
193.142	149.5
193.362	167.93
193.581	98.3
193.8	67.58
194.02	40.96
194.239	98.3
194.458	71.68
194.678	55.3
194.897	12.29
195.116	12.29
195.335	20.48
195.555	184.32
195.774	-55.3
195.993	120.83
196.212	83.97
196.432	-36.86
196.651	40.96
196.87	63.49
197.089	184.32
197.308	126.97
197.528	40.96
197.747	47.1
197.966	86.01
198.185	133.12
198.404	16.38
198.623	122.88
198.842	114.69
199.062	112.64
199.281	67.58
199.5	122.88
199.719	79.87
199.938	63.49
200.157	163.84
200.376	94.21
200.595	71.68
200.814	32.77
201.033	-40.96
201.252	141.31
201.471	16.38
201.69	88.06
201.909	71.68
202.128	59.39
202.347	124.93
202.566	77.82
202.785	-96.25
203.004	51.2
203.223	237.56
203.442	79.87
203.661	-32.77
203.879	114.69
204.098	137.21
204.317	-53.25
204.536	120.83
204.755	133.12
204.974	90.11
205.193	-2.05
205.411	90.11
205.63	120.83
205.849	59.39
206.068	-4.1
206.287	-22.53
206.505	274.43
206.724	36.86
206.943	51.2
207.162	20.48
207.381	20.48
207.599	-43.01
207.818	32.77
208.037	-4.1
208.255	24.58
208.474	65.54
208.693	88.06
208.911	-34.82
209.13	106.49
209.349	79.87
209.567	57.34
209.786	106.49
210.005	126.97
210.223	63.49
210.442	-102.4
210.661	-47.1
210.879	79.87
211.098	-4.1
211.316	-24.58
211.535	122.88
211.753	-6.14
211.972	135.17
212.191	-12.29
212.409	-12.29
212.628	163.84
212.846	-16.38
213.065	108.54
213.283	75.77
213.502	8.19
213.72	24.58
213.938	112.64
214.157	18.43
214.375	77.82
214.594	-59.39
214.812	67.58
215.031	59.39
215.249	10.24
215.467	71.68
215.686	28.67
215.904	129.02
216.122	32.77
216.341	120.83
216.559	65.54
216.778	77.82
216.996	102.4
217.214	20.48
217.432	-18.43
217.651	-69.63
217.869	18.43
218.087	88.06
218.306	-30.72
218.524	20.48
218.742	38.91
218.96	18.43
219.179	22.53
219.397	51.2
219.615	301.05
219.833	110.59
220.051	57.34
220.27	141.31
220.488	102.4
220.706	90.11
220.924	-2.05
221.142	-4.1
221.36	36.86
221.578	141.31
221.796	98.3
222.015	22.53
222.233	69.63
222.451	192.51
222.669	-6.14
222.887	45.06
223.105	4.1
223.323	32.77
223.541	-26.62
223.759	59.39
223.977	43.01
224.195	116.73
224.413	137.21
224.631	55.3
224.849	79.87
225.067	176.13
225.285	40.96
225.503	6.14
225.721	-65.54
225.939	30.72
226.157	28.67
226.375	274.43
226.592	8.19
226.81	96.25
227.028	139.26
227.246	167.93
227.464	90.11
227.682	133.12
227.9	124.93
228.117	190.46
228.335	92.16
228.553	100.35
228.771	59.39
228.989	14.34
229.206	139.26
229.424	30.72
229.642	-10.24
229.86	6.14
230.077	161.79
230.295	12.29
230.513	120.83
230.731	96.25
230.948	188.41
231.166	94.21
231.384	24.58
231.601	-36.86
231.819	159.74
232.037	59.39
232.254	-4.1
232.472	32.77
232.689	77.82
232.907	108.54
233.125	-14.34
233.342	-32.77
233.56	77.82
233.777	71.68
233.995	36.86
234.213	114.69
234.43	92.16
234.648	73.73
234.865	38.91
235.083	73.73
235.3	100.35
235.518	176.13
235.735	36.86
235.953	137.21
236.17	-14.34
236.388	55.3
236.605	65.54
236.822	122.88
237.04	178.17
237.257	69.63
237.475	-2.05
237.692	114.69
237.909	28.67
238.127	20.48
238.344	67.58
238.562	12.29
238.779	-22.53
238.996	26.62
239.214	57.34
239.431	120.83
239.648	67.58
239.865	96.25
240.083	30.72
240.3	26.62
240.517	32.77
240.735	67.58
240.952	122.88
241.169	88.06
241.386	135.17
241.603	81.92
241.821	-79.87
242.038	165.89
242.255	159.74
242.472	22.53
242.689	34.82
242.907	135.17
243.124	69.63
243.341	40.96
243.558	32.77
243.775	-65.54
243.992	-22.53
244.209	104.45
244.426	167.93
244.643	102.4
244.86	16.38
245.078	75.77
245.295	98.3
245.512	45.06
245.729	-47.1
245.946	88.06
246.163	102.4
246.38	-61.44
246.597	92.16
246.814	104.45
247.031	36.86
247.248	-8.19
247.464	106.49
247.681	88.06
247.898	73.73
248.115	69.63
248.332	30.72
248.549	79.87
248.766	116.73
248.983	34.82
249.2	92.16
249.417	126.97
249.633	47.1
249.85	110.59
250.067	77.82
250.284	20.48
250.501	51.2
250.717	43.01
250.934	-65.54
251.151	45.06
251.368	53.25
251.585	73.73
251.801	71.68
252.018	40.96
252.235	120.83
252.451	-65.54
252.668	8.19
252.885	69.63
253.102	47.1
253.318	-8.19
253.535	65.54
253.752	8.19
253.968	20.48
254.185	-32.77
254.401	-34.82
254.618	124.93
254.835	-75.77
255.051	198.65
255.268	73.73
255.484	69.63
255.701	92.16
255.917	57.34
256.134	-12.29
256.351	26.62
256.567	-49.15
256.784	-24.58
257	-92.16
257.217	149.5
257.433	100.35
257.65	83.97
257.866	143.36
258.082	-57.34
258.299	-24.58
258.515	106.49
258.732	20.48
258.948	-32.77
259.165	-8.19
259.381	0
259.597	114.69
259.814	63.49
260.03	63.49
260.246	30.72
260.463	139.26
260.679	161.79
260.895	75.77
261.112	163.84
261.328	36.86
261.544	-43.01
261.761	122.88
261.977	32.77
262.193	-34.82
262.409	141.31
262.626	49.15
262.842	-24.58
263.058	-57.34
263.274	47.1
263.49	12.29
263.707	65.54
263.923	43.01
264.139	-102.4
264.355	28.67
264.571	102.4
264.787	49.15
265.004	217.08
265.22	26.62
265.436	8.19
265.652	69.63
265.868	0
266.084	-98.3
266.3	14.34
266.516	10.24
266.732	81.92
266.948	90.11
267.164	28.67
267.38	167.93
267.596	67.58
267.812	147.45
268.028	61.44
268.244	53.25
268.46	2.05
268.676	12.29
268.892	135.17
269.108	-4.1
269.324	-2.05
269.54	-57.34
269.756	94.21
269.972	-69.63
270.188	69.63
270.403	38.91
270.619	38.91
270.835	61.44
271.051	45.06
271.267	36.86
271.483	36.86
271.698	92.16
271.914	40.96
272.13	75.77
272.346	18.43
272.562	83.97
272.777	114.69
272.993	-65.54
273.209	-2.05
273.425	98.3
273.64	-51.2
273.856	51.2
274.072	-12.29
274.287	49.15
274.503	20.48
274.719	59.39
274.934	36.86
275.15	-53.25
275.366	59.39
275.581	-40.96
275.797	114.69
276.012	18.43
276.228	10.24
276.444	49.15
276.659	61.44
276.875	-43.01
277.09	-8.19
277.306	6.14
277.521	47.1
277.737	57.34
277.952	88.06
278.168	49.15
278.383	55.3
278.599	0
278.814	43.01
279.03	-20.48
279.245	204.8
279.461	75.77
279.676	188.41
279.892	-16.38
280.107	-55.3
280.322	86.01
280.538	110.59
280.753	-53.25
280.969	112.64
281.184	108.54
281.399	102.4
281.615	22.53
281.83	112.64
282.045	-26.62
282.26	24.58
282.476	45.06
282.691	86.01
282.906	75.77
283.122	22.53
283.337	-12.29
283.552	55.3
283.767	47.1
283.983	141.31
284.198	106.49
284.413	65.54
284.628	-53.25
284.843	49.15
285.058	71.68
285.274	71.68
285.489	-10.24
285.704	49.15
285.919	-16.38
286.134	45.06
286.349	45.06
286.564	26.62
286.779	40.96
286.995	81.92
287.21	10.24
287.425	69.63
287.64	16.38
287.855	71.68
288.07	-47.1
288.285	143.36
288.5	67.58
288.715	110.59
288.93	59.39
289.145	12.29
289.36	133.12
289.575	36.86
289.79	43.01
290.004	28.67
290.219	141.31
290.434	45.06
290.649	8.19
290.864	-8.19
291.079	-24.58
291.294	59.39
291.509	22.53
291.724	36.86
291.938	-20.48
292.153	63.49
292.368	57.34
292.583	69.63
292.798	36.86
293.012	77.82
293.227	126.97
293.442	-30.72
293.657	147.45
293.871	131.07
294.086	129.02
294.301	161.79
294.516	108.54
294.73	45.06
294.945	45.06
295.16	-24.58
295.374	88.06
295.589	118.78
295.804	51.2
296.018	4.1
296.233	190.46
296.447	88.06
296.662	-18.43
296.877	196.61
297.091	12.29
297.306	55.3
297.52	2.05
297.735	71.68
297.949	53.25
298.164	90.11
298.378	32.77
298.593	8.19
298.807	-38.91
299.022	57.34
299.236	133.12
299.451	55.3
299.665	20.48
299.88	4.1
300.094	114.69
300.309	38.91
300.523	6.14
300.737	-6.14
300.952	108.54
301.166	86.01
301.381	38.91
301.595	36.86
301.809	81.92
302.024	-14.34
302.238	-6.14
302.452	182.27
302.667	100.35
302.881	100.35
303.095	63.49
303.309	71.68
303.524	14.34
303.738	63.49
303.952	10.24
304.166	94.21
304.381	-96.25
304.595	178.17
304.809	34.82
305.023	36.86
305.237	53.25
305.452	26.62
305.666	49.15
305.88	69.63
306.094	131.07
306.308	110.59
306.522	151.55
306.736	108.54
306.95	106.49
307.164	36.86
307.379	18.43
307.593	63.49
307.807	194.56
308.021	69.63
308.235	114.69
308.449	-43.01
308.663	-8.19
308.877	268.28
309.091	104.45
309.305	110.59
309.519	-137.21
309.733	114.69
309.947	16.38
310.161	53.25
310.374	104.45
310.588	159.74
310.802	-34.82
311.016	-16.38
311.23	110.59
311.444	-18.43
311.658	96.25
311.872	147.45
312.085	145.41
312.299	104.45
312.513	92.16
312.727	110.59
312.941	-6.14
313.154	98.3
313.368	79.87
313.582	67.58
313.796	4.1
314.009	43.01
314.223	88.06
314.437	67.58
314.651	81.92
314.864	43.01
315.078	40.96
315.292	-6.14
315.505	79.87
315.719	61.44
315.933	55.3
316.146	12.29
316.36	32.77
316.573	71.68
316.787	145.41
317.001	61.44
317.214	-2.05
317.428	71.68
317.641	0
317.855	32.77
318.068	34.82
318.282	12.29
318.495	143.36
318.709	98.3
318.922	16.38
319.136	129.02
319.349	167.93
319.563	-8.19
319.776	131.07
319.99	-57.34
320.203	110.59
320.417	45.06
320.63	96.25
320.843	215.04
321.057	114.69
321.27	98.3
321.483	77.82
321.697	118.78
321.91	83.97
322.124	30.72
322.337	110.59
322.55	-2.05
322.763	137.21
322.977	18.43
323.19	-2.05
323.403	34.82
323.617	18.43
323.83	186.37
324.043	90.11
324.256	120.83
324.469	36.86
324.683	79.87
324.896	75.77
325.109	-2.05
325.322	-45.06
325.535	83.97
325.748	114.69
325.962	8.19
326.175	24.58
326.388	53.25
326.601	184.32
326.814	30.72
327.027	124.93
327.24	186.37
327.453	-26.62
327.666	137.21
327.879	114.69
328.092	26.62
328.305	98.3
328.518	-18.43
328.731	22.53
328.944	61.44
329.157	47.1
329.37	4.1
329.583	180.22
329.796	86.01
330.009	40.96
330.222	108.54
330.435	102.4
330.648	139.26
330.861	-8.19
331.073	106.49
331.286	120.83
331.499	67.58
331.712	-26.62
331.925	53.25
332.138	30.72
332.35	135.17
332.563	6.14
332.776	110.59
332.989	0
333.202	-20.48
333.414	129.02
333.627	-53.25
333.84	6.14
334.053	30.72
334.265	-26.62
334.478	-40.96
334.691	-36.86
334.903	10.24
335.116	75.77
335.329	18.43
335.541	96.25
335.754	196.61
335.966	-2.05
336.179	20.48
336.392	47.1
336.604	67.58
336.817	190.46
337.029	67.58
337.242	51.2
337.454	129.02
337.667	63.49
337.88	139.26
338.092	100.35
338.305	90.11
338.517	-24.58
338.729	96.25
338.942	163.84
339.154	-18.43
339.367	-47.1
339.579	96.25
339.792	2.05
340.004	83.97
340.217	40.96
340.429	53.25
340.641	-38.91
340.854	-2.05
341.066	22.53
341.278	143.36
341.491	153.6
341.703	51.2
341.915	-32.77
342.128	165.89
342.34	94.21
342.552	55.3
342.764	88.06
342.977	71.68
343.189	96.25
343.401	65.54
343.613	-22.53
343.826	100.35
344.038	26.62
344.25	-2.05
344.462	-2.05
344.674	77.82
344.886	40.96
345.099	45.06
345.311	88.06
345.523	16.38
345.735	-61.44
345.947	77.82
346.159	86.01
346.371	51.2
346.583	16.38
346.795	167.93
347.007	32.77
347.219	28.67
347.431	34.82
347.643	174.08
347.855	73.73
348.067	110.59
348.279	2.05
348.491	90.11
348.703	131.07
348.915	38.91
349.127	-18.43
349.339	-12.29
349.551	67.58
349.763	106.49
349.975	-14.34
350.187	143.36
350.399	219.13
350.61	153.6
350.822	63.49
351.034	-24.58
351.246	47.1
351.458	94.21
351.669	75.77
351.881	122.88
352.093	178.17
352.305	139.26
352.517	53.25
352.728	149.5
352.94	71.68
353.152	149.5
353.363	6.14
353.575	28.67
353.787	200.7
353.999	79.87
354.21	133.12
354.422	28.67
354.633	75.77
354.845	40.96
355.057	28.67
355.268	96.25
355.48	120.83
355.692	-38.91
355.903	47.1
356.115	22.53
356.326	-49.15
356.538	141.31
356.749	51.2
356.961	194.56
357.172	-86.01
357.384	-26.62
357.595	235.52
357.807	4.1
358.018	8.19
358.23	81.92
358.441	131.07
358.653	79.87
358.864	-63.49
359.075	40.96
359.287	120.83
359.498	141.31
359.709	26.62
359.921	67.58
360.132	65.54
360.344	-6.14
360.555	-43.01
360.766	4.1
360.977	73.73
361.189	172.03
361.4	4.1
361.611	176.13
361.823	77.82
362.034	38.91
362.245	20.48
362.456	90.11
362.667	51.2
362.879	-14.34
363.09	94.21
363.301	108.54
363.512	63.49
363.723	-4.1
363.935	65.54
364.146	114.69
364.357	61.44
364.568	51.2
364.779	-32.77
364.99	116.73
365.201	-14.34
365.412	202.75
365.623	-92.16
365.834	75.77
366.045	110.59
366.256	77.82
366.467	94.21
366.678	24.58
366.889	-4.1
367.1	34.82
367.311	165.89
367.522	-49.15
367.733	79.87
367.944	81.92
368.155	0
368.366	8.19
368.577	141.31
368.788	112.64
368.999	30.72
369.209	-32.77
369.42	245.76
369.631	221.18
369.842	90.11
370.053	28.67
370.264	102.4
370.474	6.14
370.685	106.49
370.896	51.2
371.107	215.04
371.317	118.78
371.528	38.91
371.739	143.36
371.95	63.49
372.16	110.59
372.371	-59.39
372.582	-32.77
372.792	67.58
373.003	88.06
373.214	79.87
373.424	112.64
373.635	-10.24
373.846	147.45
374.056	61.44
374.267	28.67
374.477	24.58
374.688	18.43
374.898	106.49
375.109	34.82
375.319	57.34
375.53	149.5
375.74	129.02
375.951	-16.38
376.161	118.78
376.372	98.3
376.582	22.53
376.793	75.77
377.003	10.24
377.214	10.24
377.424	20.48
377.635	108.54
377.845	53.25
378.055	165.89
378.266	-4.1
378.476	49.15
378.686	71.68
378.897	71.68
379.107	122.88
379.317	36.86
379.528	22.53
379.738	67.58
379.948	-133.12
380.158	124.93
380.369	53.25
380.579	92.16
380.789	-6.14
380.999	65.54
381.21	73.73
381.42	200.7
381.63	47.1
381.84	86.01
382.05	73.73
382.261	139.26
382.471	83.97
382.681	-16.38
382.891	151.55
383.101	79.87
383.311	-24.58
383.521	18.43
383.731	83.97
383.941	129.02
384.151	18.43
384.361	30.72
384.571	100.35
384.781	57.34
384.991	253.95
385.201	165.89
385.411	122.88
385.621	63.49
385.831	2.05
386.041	32.77
386.251	-51.2
386.461	32.77
386.671	38.91
386.881	55.3
387.091	59.39
387.301	137.21
387.511	110.59
387.72	157.69
387.93	53.25
388.14	-53.25
388.35	92.16
388.56	161.79
388.769	124.93
388.979	55.3
389.189	-55.3
389.399	143.36
389.609	102.4
389.818	184.32
390.028	118.78
390.238	77.82
390.447	38.91
390.657	28.67
390.867	45.06
391.076	16.38
391.286	57.34
391.496	104.45
391.705	86.01
391.915	143.36
392.125	137.21
392.334	59.39
392.544	153.6
392.753	65.54
392.963	-2.05
393.172	49.15
393.382	75.77
393.591	231.42
393.801	59.39
394.01	167.93
394.22	88.06
394.429	6.14
394.639	114.69
394.848	67.58
395.058	4.1
395.267	73.73
395.477	118.78
395.686	22.53
395.895	131.07
396.105	247.8
396.314	86.01
396.524	14.34
396.733	57.34
396.942	118.78
397.152	163.84
397.361	120.83
397.57	131.07
397.78	43.01
397.989	79.87
398.198	167.93
398.407	106.49
398.617	47.1
398.826	116.73
399.035	34.82
399.244	135.17
399.453	81.92
399.663	126.97
399.872	38.91
400.081	-81.92
400.29	180.22
400.499	55.3
400.708	65.54
400.917	28.67
401.127	73.73
401.336	38.91
401.545	202.75
401.754	159.74
401.963	122.88
402.172	67.58
402.381	-32.77
402.59	18.43
402.799	28.67
403.008	106.49
403.217	53.25
403.426	61.44
403.635	-114.69
403.844	63.49
404.053	114.69
404.262	49.15
404.471	116.73
404.68	124.93
404.888	-14.34
405.097	79.87
405.306	34.82
405.515	90.11
405.724	135.17
405.933	100.35
406.142	61.44
406.35	71.68
406.559	57.34
406.768	12.29
406.977	174.08
407.185	26.62
407.394	129.02
407.603	-65.54
407.812	102.4
408.02	178.17
408.229	-26.62
408.438	83.97
408.646	-53.25
408.855	92.16
409.064	112.64
409.272	26.62
409.481	178.17
409.69	-6.14
409.898	34.82
410.107	88.06
410.315	106.49
410.524	-47.1
410.733	96.25
410.941	83.97
411.15	147.45
411.358	174.08
411.567	137.21
411.775	79.87
411.984	192.51
412.192	184.32
412.401	86.01
412.609	200.7
412.818	106.49
413.026	190.46
413.234	102.4
413.443	57.34
413.651	-43.01
413.86	71.68
414.068	159.74
414.276	172.03
414.485	-20.48
414.693	157.69
414.901	249.85
415.11	40.96
415.318	69.63
415.526	69.63
415.734	100.35
415.943	61.44
416.151	126.97
416.359	92.16
416.567	12.29
416.776	145.41
416.984	106.49
417.192	210.94
417.4	-26.62
417.608	81.92
417.817	24.58
418.025	131.07
418.233	237.56
418.441	98.3
418.649	12.29
418.857	88.06
419.065	163.84
419.273	2.05
419.481	163.84
419.689	-8.19
419.897	24.58
420.105	-32.77
420.313	86.01
420.521	169.98
420.729	131.07
420.937	49.15
421.145	16.38
421.353	131.07
421.561	192.51
421.769	141.31
421.977	63.49
422.185	133.12
422.393	32.77
422.601	94.21
422.809	47.1
423.017	43.01
423.224	104.45
423.432	137.21
423.64	92.16
423.848	212.99
424.056	40.96
424.263	153.6
424.471	108.54
424.679	167.93
424.887	63.49
425.094	147.45
425.302	94.21
425.51	36.86
425.718	122.88
425.925	133.12
426.133	-34.82
426.341	243.71
426.548	40.96
426.756	92.16
426.964	77.82
427.171	45.06
427.379	137.21
427.586	49.15
427.794	139.26
428.001	159.74
428.209	104.45
428.417	198.65
428.624	100.35
428.832	155.65
429.039	126.97
429.247	124.93
429.454	55.3
429.662	270.33
429.869	102.4
430.076	106.49
430.284	155.65
430.491	245.76
430.699	184.32
430.906	184.32
431.114	122.88
431.321	182.27
431.528	110.59
431.736	147.45
431.943	264.19
432.15	202.75
432.358	225.28
432.565	309.24
432.772	69.63
432.979	186.37
433.187	165.89
433.394	296.96
433.601	159.74
433.808	284.67
434.016	288.76
434.223	335.87
434.43	272.38
434.637	274.43
434.844	178.17
435.052	243.71
435.259	239.61
435.466	344.06
435.673	333.82
435.88	317.44
436.087	489.46
436.294	374.78
436.501	382.97
436.708	276.48
436.915	385.02
437.122	436.22
437.329	344.06
437.537	315.39
437.743	430.07
437.95	571.38
438.157	419.83
438.364	354.3
438.571	452.6
438.778	409.59
438.985	503.8
439.192	522.23
439.399	518.14
439.606	573.43
439.813	585.72
440.02	669.69
440.227	722.93
440.433	532.47
440.64	630.77
440.847	536.57
441.054	589.81
441.261	780.28
441.467	688.12
441.674	653.3
441.881	800.76
442.088	692.21
442.294	763.89
442.501	831.48
442.708	860.15
442.914	872.43
443.121	919.54
443.328	972.79
443.534	1060.85
443.741	1042.42
443.948	968.69
444.154	1099.76
444.361	1212.4
444.568	1120.24
444.774	1236.97
444.981	1191.92
445.187	1333.23
445.394	1427.43
445.6	1318.89
445.807	1529.83
446.013	1503.21
446.22	1386.47
446.426	1535.98
446.633	1646.57
446.839	1810.4
447.046	1640.42
447.252	1884.13
447.459	1751.01
447.665	1757.16
447.871	2017.25
448.078	2088.93
448.284	2129.89
448.491	2373.6
448.697	2291.68
448.903	2441.18
449.11	2557.91
449.316	2500.57
449.522	2705.37
449.728	2850.77
449.935	2844.63
450.141	2637.78
450.347	3112.91
450.553	2973.65
450.76	3145.68
450.966	3332.05
451.172	3383.24
451.378	3516.36
451.584	3686.34
451.791	3788.74
451.997	3985.35
452.203	4181.95
452.409	4317.12
452.615	4480.96
452.821	4085.7
453.027	4259.77
453.233	4868.02
453.44	4698.04
453.646	4968.37
453.852	5156.79
454.058	5304.24
454.264	5552.04
454.47	6016.93
454.676	6031.27
454.882	6483.87
455.088	6264.74
455.294	6647.71
455.5	7083.92
455.705	7542.67
455.911	7335.82
456.117	7509.9
456.323	7794.57
456.529	7868.3
456.735	8507.26
456.941	8818.55
457.147	8959.86
457.352	9351.03
457.558	9478
457.764	10063.72
457.97	10620.77
458.176	10702.68
458.381	11554.64
458.587	11814.73
458.793	12162.89
458.999	12246.85
459.204	13557.55
459.41	14325.54
459.616	14014.25
459.821	14939.93
460.027	15527.7
460.233	16060.17
460.438	16373.51
460.644	17096.44
460.85	17315.58
461.055	17923.82
461.261	19015.39
461.466	18648.8
461.672	18835.17
461.878	21046.97
462.083	20684.48
462.289	21413.56
462.494	22169.26
462.7	22097.58
462.905	22451.88
463.111	24465.03
463.316	25702.01
463.522	26265.2
463.727	26709.61
463.932	28022.36
464.138	29146.69
464.343	30211.63
464.549	30152.24
464.754	32278.04
464.959	33195.53
465.165	33902.07
465.37	33383.94
465.575	33555.97
465.781	35679.71
465.986	36806.09
466.191	36464.08
466.397	36382.16
466.602	36203.99
466.807	37850.56
467.012	38608.31
467.218	39130.54
467.423	39259.56
467.628	40078.75
467.833	42147.2
468.038	41166.22
468.244	40717.71
