Data from USB4F104151__300__11-21-37-125.txt Node

Date: Wed Feb 26 11:21:37 EST 2025
User: louis
Spectrometer: USB4F10415
Trigger mode: 4
Integration Time (sec): 1.000000E-1
Scans to average: 1
Electric dark correction enabled: true
Nonlinearity correction enabled: false
Boxcar width: 0
XAxis mode: Wavelengths
Number of Pixels in Spectrum: 3648
>>>>>Begin Spectral Data<<<<<
178.204	-421.2
178.424	-421.2
178.644	-421.2
178.864	-503.12
179.084	-361.81
179.304	25.26
179.524	-21.84
179.744	-32.08
179.964	45.74
180.184	74.41
180.404	2.73
180.624	-27.99
180.844	2.73
181.064	-66.9
181.283	-3.41
181.503	-62.8
181.723	64.17
181.943	-120.15
182.163	150.18
182.383	-48.47
182.602	74.41
182.822	199.34
183.042	60.07
183.262	64.17
183.482	12.97
183.701	58.03
183.921	111.27
184.141	8.87
184.361	49.83
184.58	-5.46
184.8	19.11
185.02	-66.9
185.239	88.75
185.459	129.7
185.679	164.52
185.898	-85.33
186.118	88.75
186.338	68.27
186.557	148.14
186.777	-13.65
186.997	-32.08
187.216	29.35
187.436	127.66
187.655	66.22
187.875	144.04
188.095	25.26
188.314	135.85
188.534	84.65
188.753	-13.65
188.973	146.09
189.192	58.03
189.412	15.02
189.631	0.68
189.851	113.32
190.07	158.38
190.29	-77.14
190.509	-38.23
190.729	-1.37
190.948	103.08
191.168	271.01
191.387	90.79
191.607	-23.89
191.826	96.94
192.045	4.78
192.265	12.97
192.484	88.75
192.704	105.13
192.923	12.97
193.142	256.68
193.362	150.18
193.581	168.62
193.8	121.51
194.02	55.98
194.239	41.64
194.458	146.09
194.678	53.93
194.897	37.55
195.116	109.23
195.335	47.79
195.555	82.6
195.774	37.55
195.993	49.83
196.212	117.42
196.432	-9.56
196.651	0.68
196.87	117.42
197.089	209.58
197.308	39.59
197.528	82.6
197.747	-48.47
197.966	23.21
198.185	148.14
198.404	-17.75
198.623	60.07
198.842	121.51
199.062	105.13
199.281	94.89
199.5	90.79
199.719	84.65
199.938	92.84
200.157	47.79
200.376	115.37
200.595	27.31
200.814	80.55
201.033	-36.18
201.252	115.37
201.471	119.46
201.69	105.13
201.909	47.79
202.128	109.23
202.347	19.11
202.566	-1.37
202.785	-52.56
203.004	39.59
203.223	301.73
203.442	12.97
203.661	-19.8
203.879	58.03
204.098	180.9
204.317	-30.04
204.536	156.33
204.755	199.34
204.974	76.46
205.193	0.68
205.411	150.18
205.63	129.7
205.849	121.51
206.068	0.68
206.287	-52.56
206.505	103.08
206.724	74.41
206.943	82.6
207.162	2.73
207.381	51.88
207.599	39.59
207.818	55.98
208.037	-75.09
208.255	84.65
208.474	70.31
208.693	41.64
208.911	-21.84
209.13	176.81
209.349	62.12
209.567	117.42
209.786	51.88
210.005	121.51
210.223	27.31
210.442	-81.24
210.661	35.5
210.879	72.36
211.098	23.21
211.316	76.46
211.535	37.55
211.753	-62.8
211.972	39.59
212.191	27.31
212.409	51.88
212.628	150.18
212.846	-107.86
213.065	31.4
213.283	68.27
213.502	92.84
213.72	53.93
213.938	37.55
214.157	47.79
214.375	111.27
214.594	31.4
214.812	47.79
215.031	72.36
215.249	0.68
215.467	94.89
215.686	-40.28
215.904	60.07
216.122	55.98
216.341	94.89
216.559	10.92
216.778	66.22
216.996	90.79
217.214	37.55
217.432	-50.52
217.651	-23.89
217.869	55.98
218.087	8.87
218.306	29.35
218.524	8.87
218.742	21.16
218.96	135.85
219.179	43.69
219.397	2.73
219.615	256.68
219.833	98.99
220.051	-79.19
220.27	12.97
220.488	152.23
220.706	21.16
220.924	29.35
221.142	-30.04
221.36	17.07
221.578	43.69
221.796	-13.65
222.015	78.51
222.233	-23.89
222.451	191.14
222.669	33.45
222.887	187.05
223.105	-25.94
223.323	19.11
223.541	-99.67
223.759	53.93
223.977	-36.18
224.195	137.9
224.413	21.16
224.631	74.41
224.849	78.51
225.067	213.67
225.285	45.74
225.503	-38.23
225.721	-93.52
225.939	31.4
226.157	141.99
226.375	244.39
226.592	23.21
226.81	55.98
227.028	139.94
227.246	162.47
227.464	72.36
227.682	131.75
227.9	4.78
228.117	-1.37
228.335	88.75
228.553	23.21
228.771	-7.51
228.989	23.21
229.206	162.47
229.424	0.68
229.642	51.88
229.86	-50.52
230.077	105.13
230.295	23.21
230.513	111.27
230.731	58.03
230.948	156.33
231.166	152.23
231.384	-48.47
231.601	-81.24
231.819	160.42
232.037	43.69
232.254	23.21
232.472	-3.41
232.689	39.59
232.907	66.22
233.125	-5.46
233.342	21.16
233.56	-75.09
233.777	-36.18
233.995	107.18
234.213	68.27
234.43	72.36
234.648	10.92
234.865	72.36
235.083	105.13
235.3	25.26
235.518	125.61
235.735	60.07
235.953	86.7
236.17	-54.61
236.388	-5.46
236.605	43.69
236.822	107.18
237.04	96.94
237.257	154.28
237.475	-64.85
237.692	31.4
237.909	58.03
238.127	-73.04
238.344	76.46
238.562	60.07
238.779	-46.42
238.996	-66.9
239.214	25.26
239.431	62.12
239.648	-5.46
239.865	78.51
240.083	33.45
240.3	-11.61
240.517	-9.56
240.735	-21.84
240.952	185
241.169	137.9
241.386	60.07
241.603	-3.41
241.821	-64.85
242.038	80.55
242.255	101.03
242.472	-105.81
242.689	27.31
242.907	135.85
243.124	-13.65
243.341	10.92
243.558	-1.37
243.775	-34.13
243.992	8.87
244.209	90.79
244.426	162.47
244.643	47.79
244.86	-32.08
245.078	51.88
245.295	109.23
245.512	58.03
245.729	6.83
245.946	70.31
246.163	43.69
246.38	10.92
246.597	21.16
246.814	21.16
247.031	29.35
247.248	53.93
247.464	74.41
247.681	74.41
247.898	66.22
248.115	88.75
248.332	27.31
248.549	66.22
248.766	129.7
248.983	144.04
249.2	62.12
249.417	84.65
249.633	-3.41
249.85	123.56
250.067	17.07
250.284	76.46
250.501	-11.61
250.717	58.03
250.934	-5.46
251.151	25.26
251.368	31.4
251.585	10.92
251.801	-3.41
252.018	-30.04
252.235	107.18
252.451	-66.9
252.668	137.9
252.885	160.42
253.102	70.31
253.318	33.45
253.535	-62.8
253.752	-44.37
253.968	-1.37
254.185	25.26
254.401	62.12
254.618	70.31
254.835	-11.61
255.051	141.99
255.268	84.65
255.484	29.35
255.701	21.16
255.917	2.73
256.134	-19.8
256.351	68.27
256.567	-48.47
256.784	144.04
257	-23.89
257.217	137.9
257.433	88.75
257.65	109.23
257.866	111.27
258.082	-54.61
258.299	17.07
258.515	51.88
258.732	-23.89
258.948	-38.23
259.165	49.83
259.381	23.21
259.597	127.66
259.814	21.16
260.03	109.23
260.246	-25.94
260.463	25.26
260.679	86.7
260.895	41.64
261.112	4.78
261.328	-38.23
261.544	23.21
261.761	144.04
261.977	21.16
262.193	-3.41
262.409	115.37
262.626	31.4
262.842	60.07
263.058	-23.89
263.274	101.03
263.49	51.88
263.707	92.84
263.923	103.08
264.139	-132.44
264.355	103.08
264.571	105.13
264.787	105.13
265.004	94.89
265.22	90.79
265.436	8.87
265.652	-27.99
265.868	43.69
266.084	-25.94
266.3	88.75
266.516	-5.46
266.732	53.93
266.948	74.41
267.164	-105.81
267.38	103.08
267.596	107.18
267.812	168.62
268.028	33.45
268.244	-36.18
268.46	-13.65
268.676	27.31
268.892	43.69
269.108	0.68
269.324	-52.56
269.54	35.5
269.756	58.03
269.972	-23.89
270.188	-42.32
270.403	-32.08
270.619	-7.51
270.835	55.98
271.051	78.51
271.267	6.83
271.483	25.26
271.698	19.11
271.914	111.27
272.13	-32.08
272.346	55.98
272.562	113.32
272.777	107.18
272.993	72.36
273.209	10.92
273.425	78.51
273.64	-32.08
273.856	90.79
274.072	23.21
274.287	0.68
274.503	2.73
274.719	76.46
274.934	-54.61
275.15	-15.7
275.366	15.02
275.581	0.68
275.797	-34.13
276.012	107.18
276.228	19.11
276.444	62.12
276.659	90.79
276.875	29.35
277.09	31.4
277.306	-87.38
277.521	-25.94
277.737	17.07
277.952	60.07
278.168	-1.37
278.383	-23.89
278.599	23.21
278.814	86.7
279.03	60.07
279.245	139.94
279.461	-5.46
279.676	96.94
279.892	-83.28
280.107	-105.81
280.322	-97.62
280.538	98.99
280.753	-7.51
280.969	70.31
281.184	51.88
281.399	135.85
281.615	-11.61
281.83	72.36
282.045	-3.41
282.26	74.41
282.476	74.41
282.691	37.55
282.906	31.4
283.122	111.27
283.337	-23.89
283.552	-7.51
283.767	15.02
283.983	117.42
284.198	33.45
284.413	47.79
284.628	-13.65
284.843	33.45
285.058	74.41
285.274	-3.41
285.489	-68.95
285.704	98.99
285.919	47.79
286.134	41.64
286.349	6.83
286.564	-25.94
286.779	144.04
286.995	70.31
287.21	-62.8
287.425	144.04
287.64	103.08
287.855	19.11
288.07	-95.57
288.285	162.47
288.5	41.64
288.715	72.36
288.93	12.97
289.145	12.97
289.36	86.7
289.575	-9.56
289.79	119.46
290.004	60.07
290.219	98.99
290.434	-5.46
290.649	12.97
290.864	43.69
291.079	-15.7
291.294	45.74
291.509	74.41
291.724	86.7
291.938	39.59
292.153	15.02
292.368	-9.56
292.583	86.7
292.798	19.11
293.012	29.35
293.227	86.7
293.442	27.31
293.657	82.6
293.871	103.08
294.086	62.12
294.301	207.53
294.516	109.23
294.73	23.21
294.945	-34.13
295.16	-13.65
295.374	148.14
295.589	123.56
295.804	98.99
296.018	-1.37
296.233	41.64
296.447	86.7
296.662	37.55
296.877	113.32
297.091	131.75
297.306	92.84
297.52	-15.7
297.735	8.87
297.949	43.69
298.164	55.98
298.378	33.45
298.593	-62.8
298.807	19.11
299.022	17.07
299.236	133.8
299.451	35.5
299.665	39.59
299.88	8.87
300.094	39.59
300.309	15.02
300.523	60.07
300.737	-54.61
300.952	25.26
301.166	72.36
301.381	-17.75
301.595	21.16
301.809	66.22
302.024	62.12
302.238	27.31
302.452	137.9
302.667	6.83
302.881	115.37
303.095	90.79
303.309	70.31
303.524	47.79
303.738	41.64
303.952	-64.85
304.166	12.97
304.381	-107.86
304.595	152.23
304.809	-34.13
305.023	27.31
305.237	-17.75
305.452	10.92
305.666	15.02
305.88	64.17
306.094	107.18
306.308	12.97
306.522	109.23
306.736	64.17
306.95	84.65
307.164	4.78
307.379	8.87
307.593	125.61
307.807	115.37
308.021	12.97
308.235	74.41
308.449	-77.14
308.663	21.16
308.877	174.76
309.091	35.5
309.305	17.07
309.519	-58.71
309.733	101.03
309.947	-42.32
310.161	23.21
310.374	113.32
310.588	141.99
310.802	10.92
311.016	4.78
311.23	60.07
311.444	15.02
311.658	23.21
311.872	148.14
312.085	131.75
312.299	39.59
312.513	39.59
312.727	101.03
312.941	-85.33
313.154	68.27
313.368	123.56
313.582	80.55
313.796	115.37
314.009	0.68
314.223	172.71
314.437	78.51
314.651	117.42
314.864	39.59
315.078	-44.37
315.292	-25.94
315.505	33.45
315.719	88.75
315.933	6.83
316.146	4.78
316.36	8.87
316.573	92.84
316.787	82.6
317.001	131.75
317.214	6.83
317.428	72.36
317.641	-21.84
317.855	58.03
318.068	66.22
318.282	-3.41
318.495	172.71
318.709	68.27
318.922	70.31
319.136	223.91
319.349	131.75
319.563	19.11
319.776	96.94
319.99	-66.9
320.203	90.79
320.417	-13.65
320.63	123.56
320.843	158.38
321.057	72.36
321.27	10.92
321.483	2.73
321.697	101.03
321.91	64.17
322.124	-3.41
322.337	66.22
322.55	15.02
322.763	94.89
322.977	-62.8
323.19	53.93
323.403	58.03
323.617	35.5
323.83	109.23
324.043	43.69
324.256	70.31
324.469	-38.23
324.683	76.46
324.896	19.11
325.109	72.36
325.322	-91.48
325.535	113.32
325.748	113.32
325.962	29.35
326.175	98.99
326.388	51.88
326.601	68.27
326.814	80.55
327.027	84.65
327.24	137.9
327.453	-118.1
327.666	117.42
327.879	109.23
328.092	160.42
328.305	76.46
328.518	80.55
328.731	49.83
328.944	-7.51
329.157	49.83
329.37	19.11
329.583	125.61
329.796	117.42
330.009	-75.09
330.222	35.5
330.435	111.27
330.648	60.07
330.861	70.31
331.073	49.83
331.286	129.7
331.499	66.22
331.712	-71
331.925	25.26
332.138	101.03
332.35	203.43
332.563	31.4
332.776	180.9
332.989	-38.23
333.202	-19.8
333.414	-17.75
333.627	41.64
333.84	-19.8
334.053	103.08
334.265	45.74
334.478	8.87
334.691	58.03
334.903	25.26
335.116	10.92
335.329	101.03
335.541	135.85
335.754	150.18
335.966	-13.65
336.179	-38.23
336.392	-13.65
336.604	62.12
336.817	94.89
337.029	109.23
337.242	-1.37
337.454	101.03
337.667	-5.46
337.88	123.56
338.092	96.94
338.305	0.68
338.517	66.22
338.729	135.85
338.942	113.32
339.154	-13.65
339.367	-27.99
339.579	49.83
339.792	-77.14
340.004	94.89
340.217	55.98
340.429	94.89
340.641	8.87
340.854	-5.46
341.066	35.5
341.278	86.7
341.491	203.43
341.703	51.88
341.915	45.74
342.128	86.7
342.34	55.98
342.552	4.78
342.764	129.7
342.977	10.92
343.189	47.79
343.401	55.98
343.613	-68.95
343.826	35.5
344.038	51.88
344.25	62.12
344.462	-62.8
344.674	58.03
344.886	-32.08
345.099	-15.7
345.311	66.22
345.523	-34.13
345.735	-81.24
345.947	15.02
346.159	84.65
346.371	111.27
346.583	-25.94
346.795	273.06
347.007	17.07
347.219	49.83
347.431	19.11
347.643	115.37
347.855	0.68
348.067	139.94
348.279	2.73
348.491	0.68
348.703	-7.51
348.915	27.31
349.127	17.07
349.339	8.87
349.551	55.98
349.763	88.75
349.975	15.02
350.187	31.4
350.399	221.86
350.61	41.64
350.822	15.02
351.034	74.41
351.246	62.12
351.458	111.27
351.669	103.08
351.881	96.94
352.093	133.8
352.305	62.12
352.517	-17.75
352.728	154.28
352.94	80.55
353.152	117.42
353.363	0.68
353.575	4.78
353.787	207.53
353.999	55.98
354.21	84.65
354.422	2.73
354.633	12.97
354.845	15.02
355.057	-42.32
355.268	60.07
355.48	111.27
355.692	-56.66
355.903	19.11
356.115	-1.37
356.326	-159.06
356.538	146.09
356.749	148.14
356.961	172.71
357.172	66.22
357.384	-105.81
357.595	289.45
357.807	0.68
358.018	-17.75
358.23	66.22
358.441	164.52
358.653	64.17
358.864	113.32
359.075	-1.37
359.287	45.74
359.498	176.81
359.709	62.12
359.921	58.03
360.132	55.98
360.344	37.55
360.555	-25.94
360.766	60.07
360.977	70.31
361.189	129.7
361.4	-42.32
361.611	70.31
361.823	68.27
362.034	60.07
362.245	-13.65
362.456	-21.84
362.667	72.36
362.879	66.22
363.09	98.99
363.301	35.5
363.512	53.93
363.723	-38.23
363.935	-32.08
364.146	64.17
364.357	-5.46
364.568	98.99
364.779	-42.32
364.99	166.57
365.201	-97.62
365.412	156.33
365.623	10.92
365.834	35.5
366.045	64.17
366.256	105.13
366.467	64.17
366.678	64.17
366.889	76.46
367.1	-56.66
367.311	123.56
367.522	-7.51
367.733	35.5
367.944	29.35
368.155	21.16
368.366	123.56
368.577	101.03
368.788	176.81
368.999	-19.8
369.209	72.36
369.42	152.23
369.631	189.1
369.842	133.8
370.053	12.97
370.264	29.35
370.474	12.97
370.685	33.45
370.896	55.98
371.107	156.33
371.317	76.46
371.528	35.5
371.739	98.99
371.95	115.37
372.16	15.02
372.371	-23.89
372.582	64.17
372.792	29.35
373.003	8.87
373.214	21.16
373.424	103.08
373.635	-15.7
373.846	70.31
374.056	109.23
374.267	72.36
374.477	49.83
374.688	33.45
374.898	43.69
375.109	31.4
375.319	27.31
375.53	53.93
375.74	49.83
375.951	12.97
376.161	125.61
376.372	131.75
376.582	33.45
376.793	62.12
377.003	-19.8
377.214	-60.76
377.424	111.27
377.635	17.07
377.845	-79.19
378.055	174.76
378.266	-3.41
378.476	8.87
378.686	66.22
378.897	-95.57
379.107	55.98
379.317	-5.46
379.528	17.07
379.738	-1.37
379.948	-25.94
380.158	146.09
380.369	70.31
380.579	127.66
380.789	60.07
380.999	82.6
381.21	109.23
381.42	139.94
381.63	-11.61
381.84	121.51
382.05	25.26
382.261	148.14
382.471	127.66
382.681	-25.94
382.891	96.94
383.101	43.69
383.311	-3.41
383.521	2.73
383.731	127.66
383.941	68.27
384.151	55.98
384.361	111.27
384.571	55.98
384.781	39.59
384.991	137.9
385.201	240.3
385.411	37.55
385.621	33.45
385.831	10.92
386.041	29.35
386.251	115.37
386.461	135.85
386.671	0.68
386.881	88.75
387.091	60.07
387.301	125.61
387.511	66.22
387.72	47.79
387.93	90.79
388.14	-77.14
388.35	53.93
388.56	55.98
388.769	230.06
388.979	45.74
389.189	-40.28
389.399	37.55
389.609	105.13
389.818	47.79
390.028	35.5
390.238	74.41
390.447	29.35
390.657	92.84
390.867	64.17
391.076	-19.8
391.286	2.73
391.496	27.31
391.705	-15.7
391.915	152.23
392.125	84.65
392.334	72.36
392.544	96.94
392.753	-17.75
392.963	-46.42
393.172	37.55
393.382	-11.61
393.591	152.23
393.801	86.7
394.01	152.23
394.22	78.51
394.429	-13.65
394.639	17.07
394.848	19.11
395.058	35.5
395.267	35.5
395.477	15.02
395.686	111.27
395.895	121.51
396.105	207.53
396.314	70.31
396.524	-1.37
396.733	-1.37
396.942	96.94
397.152	64.17
397.361	70.31
397.57	39.59
397.78	78.51
397.989	94.89
398.198	141.99
398.407	58.03
398.617	15.02
398.826	96.94
399.035	-30.04
399.244	117.42
399.453	88.75
399.663	60.07
399.872	66.22
400.081	-40.28
400.29	94.89
400.499	-3.41
400.708	101.03
400.917	41.64
401.127	27.31
401.336	-30.04
401.545	203.43
401.754	113.32
401.963	154.28
402.172	123.56
402.381	31.4
402.59	62.12
402.799	21.16
403.008	121.51
403.217	60.07
403.426	115.37
403.635	-56.66
403.844	78.51
404.053	53.93
404.262	41.64
404.471	96.94
404.68	70.31
404.888	55.98
405.097	92.84
405.306	33.45
405.515	150.18
405.724	25.26
405.933	72.36
406.142	90.79
406.35	115.37
406.559	17.07
406.768	25.26
406.977	180.9
407.185	58.03
407.394	101.03
407.603	-101.72
407.812	88.75
408.02	129.7
408.229	41.64
408.438	105.13
408.646	25.26
408.855	-1.37
409.064	39.59
409.272	96.94
409.481	105.13
409.69	29.35
409.898	53.93
410.107	58.03
410.315	168.62
410.524	-58.71
410.733	39.59
410.941	25.26
411.15	92.84
411.358	148.14
411.567	146.09
411.775	86.7
411.984	107.18
412.192	60.07
412.401	33.45
412.609	152.23
412.818	135.85
413.026	64.17
413.234	86.7
413.443	60.07
413.651	-58.71
413.86	60.07
414.068	111.27
414.276	162.47
414.485	-19.8
414.693	152.23
414.901	156.33
415.11	117.42
415.318	39.59
415.526	88.75
415.734	156.33
415.943	-21.84
416.151	115.37
416.359	6.83
416.567	43.69
416.776	33.45
416.984	43.69
417.192	129.7
417.4	35.5
417.608	-1.37
417.817	-42.32
418.025	187.05
418.233	174.76
418.441	-38.23
418.649	-19.8
418.857	60.07
419.065	129.7
419.273	86.7
419.481	60.07
419.689	17.07
419.897	-93.52
420.105	-64.85
420.313	68.27
420.521	53.93
420.729	146.09
420.937	25.26
421.145	6.83
421.353	129.7
421.561	174.76
421.769	109.23
421.977	68.27
422.185	64.17
422.393	43.69
422.601	131.75
422.809	84.65
423.017	58.03
423.224	-23.89
423.432	94.89
423.64	29.35
423.848	146.09
424.056	-13.65
424.263	121.51
424.471	41.64
424.679	205.48
424.887	-40.28
425.094	172.71
425.302	117.42
425.51	72.36
425.718	103.08
425.925	27.31
426.133	-32.08
426.341	221.86
426.548	119.46
426.756	70.31
426.964	84.65
427.171	37.55
427.379	55.98
427.586	103.08
427.794	115.37
428.001	209.58
428.209	107.18
428.417	74.41
428.624	88.75
428.832	139.94
429.039	27.31
429.247	15.02
429.454	129.7
429.662	178.86
429.869	109.23
430.076	113.32
430.284	66.22
430.491	111.27
430.699	82.6
430.906	168.62
431.114	146.09
431.321	51.88
431.528	19.11
431.736	137.9
431.943	154.28
432.15	129.7
432.358	178.86
432.565	254.63
432.772	45.74
432.979	174.76
433.187	137.9
433.394	256.68
433.601	90.79
433.808	156.33
434.016	230.06
434.223	240.3
434.43	254.63
434.637	291.49
434.844	187.05
435.052	94.89
435.259	164.52
435.466	291.49
435.673	191.14
435.88	266.92
436.087	297.64
436.294	359.08
436.501	244.39
436.708	256.68
436.915	248.49
437.122	326.31
437.329	174.76
437.537	283.3
437.743	387.75
437.95	402.08
438.157	326.31
438.364	287.4
438.571	371.37
438.778	346.79
438.985	391.84
439.192	441
439.399	338.6
439.606	393.89
439.813	395.94
440.02	529.06
440.227	643.74
440.433	506.53
440.64	432.8
440.847	473.76
441.054	486.05
441.261	584.35
441.467	602.79
441.674	502.44
441.881	682.66
442.088	486.05
442.294	715.42
442.501	684.7
442.708	737.95
442.914	701.09
443.121	793.25
443.328	811.68
443.534	842.4
443.741	891.55
443.948	721.57
444.154	809.63
444.361	1043.1
444.568	967.32
444.774	1022.62
444.981	854.69
445.187	1116.83
445.394	1127.07
445.6	1075.87
445.807	1151.64
446.013	1149.59
446.22	1108.63
446.426	1274.52
446.633	1346.2
446.839	1507.99
447.046	1313.43
447.252	1489.56
447.459	1469.08
447.665	1475.22
447.871	1647.25
448.078	1743.5
448.284	1778.32
448.491	1745.55
448.697	1897.1
448.903	1976.97
449.11	2112.14
449.316	2034.32
449.522	2108.04
449.728	2247.3
449.935	2220.68
450.141	2194.06
450.347	2527.88
450.553	2503.3
450.76	2398.85
450.966	2630.27
451.172	2837.12
451.378	2833.02
451.584	2923.13
451.791	3041.92
451.997	3007.1
452.203	3267.19
452.409	3461.75
452.615	3639.92
452.821	3500.66
453.027	3383.93
453.233	3940.97
453.44	3773.04
453.646	4029.04
453.852	4061.8
454.058	4201.07
454.264	4491.88
454.47	4612.71
454.676	4651.62
454.882	5261.91
455.088	4889.18
455.294	5288.54
455.5	5601.88
455.705	5835.35
455.911	5782.1
456.117	6072.91
456.323	6437.45
456.529	6365.77
456.735	6836.8
456.941	6967.87
457.147	7414.33
457.352	7531.06
457.558	7563.83
457.764	8139.31
457.97	8333.87
458.176	8782.37
458.381	9351.71
458.587	9277.98
458.793	9824.79
458.999	9818.64
459.204	11057.67
459.41	11354.62
459.616	10988.03
459.821	11739.64
460.027	12311.02
460.233	12917.22
460.438	13152.74
460.644	13793.75
460.85	13945.3
461.055	14270.93
461.261	15006.15
461.466	14741.96
461.672	15167.94
461.878	16804.27
462.083	16705.96
462.289	17062.31
462.494	17691.04
462.7	17871.26
462.905	18059.67
463.111	19558.78
463.316	20447.6
463.522	21082.47
463.727	21668.19
463.932	22344.02
464.138	23056.71
464.343	24035.64
464.549	23978.3
464.754	25868.58
464.959	26343.7
465.165	26849.55
465.37	26792.21
465.575	26796.31
465.781	28408.06
465.986	29577.45
466.191	29217
466.397	29362.41
466.602	28868.85
466.807	30396.63
467.012	30933.2
467.218	31303.88
467.423	31604.94
467.628	32254.14
467.833	34013.35
468.038	33243.31
468.244	32762.04
468.449	34594.97
468.654	33570.99
468.859	33984.68
