Data from USB4F104151__202__11-05-33-230.txt Node

Date: Wed Feb 26 11:05:33 EST 2025
User: louis
Spectrometer: USB4F10415
Trigger mode: 4
Integration Time (sec): 1.000000E-1
Scans to average: 1
Electric dark correction enabled: true
Nonlinearity correction enabled: false
Boxcar width: 0
XAxis mode: Wavelengths
Number of Pixels in Spectrum: 3648
>>>>>Begin Spectral Data<<<<<
178.204	-488.95
178.424	-488.95
178.644	-488.95
178.864	-378.36
179.084	-374.27
179.304	-17.92
179.524	10.75
179.744	88.57
179.964	0.51
180.184	-46.59
180.404	10.75
180.624	33.28
180.844	-3.58
181.064	-95.74
181.283	39.42
181.503	-36.35
181.723	16.9
181.943	-54.78
182.163	178.69
182.383	-112.13
182.602	12.8
182.822	147.97
183.042	33.28
183.262	-26.11
183.482	-1.54
183.701	68.09
183.921	-15.87
184.141	-91.65
184.361	92.67
184.58	-3.58
184.8	10.75
185.02	-71.17
185.239	57.86
185.459	76.29
185.679	133.63
185.898	-58.88
186.118	47.62
186.338	27.14
186.557	119.29
186.777	-85.5
186.997	47.62
187.216	-15.87
187.436	186.88
187.655	45.57
187.875	82.43
188.095	27.14
188.314	49.66
188.534	43.52
188.753	18.94
188.973	117.25
189.192	129.53
189.412	-50.69
189.631	-5.63
189.851	39.42
190.07	176.64
190.29	-87.55
190.509	-30.21
190.729	78.33
190.948	74.24
191.168	176.64
191.387	59.9
191.607	37.38
191.826	12.8
192.045	-9.73
192.265	29.18
192.484	39.42
192.704	14.85
192.923	-69.12
193.142	170.49
193.362	143.87
193.581	53.76
193.8	4.61
194.02	74.24
194.239	59.9
194.458	158.21
194.678	47.62
194.897	8.7
195.116	43.52
195.335	41.47
195.555	100.86
195.774	-13.82
195.993	92.67
196.212	29.18
196.432	31.23
196.651	-15.87
196.87	98.81
197.089	340.47
197.308	35.33
197.528	43.52
197.747	-97.79
197.966	121.34
198.185	88.57
198.404	-34.3
198.623	111.1
198.842	57.86
199.062	123.39
199.281	86.53
199.5	25.09
199.719	76.29
199.938	107.01
200.157	78.33
200.376	150.01
200.595	84.48
200.814	64
201.033	12.8
201.252	90.62
201.471	86.53
201.69	49.66
201.909	-9.73
202.128	78.33
202.347	27.14
202.566	68.09
202.785	-83.45
203.004	-38.4
203.223	154.11
203.442	90.62
203.661	-54.78
203.879	90.62
204.098	64
204.317	-9.73
204.536	45.57
204.755	49.66
204.974	137.73
205.193	29.18
205.411	186.88
205.63	31.23
205.849	55.81
206.068	37.38
206.287	2.56
206.505	92.67
206.724	-60.93
206.943	37.38
207.162	-26.11
207.381	31.23
207.599	31.23
207.818	16.9
208.037	-28.16
208.255	-24.06
208.474	84.48
208.693	68.09
208.911	-32.26
209.13	176.64
209.349	47.62
209.567	12.8
209.786	27.14
210.005	131.58
210.223	82.43
210.442	-71.17
210.661	6.66
210.879	25.09
211.098	51.71
211.316	6.66
211.535	31.23
211.753	41.47
211.972	66.05
212.191	35.33
212.409	55.81
212.628	25.09
212.846	-15.87
213.065	-32.26
213.283	92.67
213.502	57.86
213.72	70.14
213.938	37.38
214.157	-22.02
214.375	129.53
214.594	84.48
214.812	119.29
215.031	-26.11
215.249	-46.59
215.467	53.76
215.686	-15.87
215.904	2.56
216.122	-3.58
216.341	115.2
216.559	27.14
216.778	131.58
216.996	107.01
217.214	47.62
217.432	4.61
217.651	-42.5
217.869	-28.16
218.087	-58.88
218.306	-48.64
218.524	-11.78
218.742	-28.16
218.96	66.05
219.179	-15.87
219.397	98.81
219.615	276.99
219.833	78.33
220.051	-110.08
220.27	98.81
220.488	107.01
220.706	86.53
220.924	-93.69
221.142	10.75
221.36	35.33
221.578	82.43
221.796	2.56
222.015	68.09
222.233	-48.64
222.451	96.77
222.669	20.99
222.887	35.33
223.105	25.09
223.323	16.9
223.541	-15.87
223.759	80.38
223.977	16.9
224.195	66.05
224.413	45.57
224.631	115.2
224.849	84.48
225.067	158.21
225.285	-62.98
225.503	49.66
225.721	-159.23
225.939	41.47
226.157	-1.54
226.375	236.03
226.592	61.95
226.81	27.14
227.028	135.68
227.246	94.72
227.464	57.86
227.682	20.99
227.9	39.42
228.117	59.9
228.335	121.34
228.553	8.7
228.771	14.85
228.989	-3.58
229.206	66.05
229.424	14.85
229.642	92.67
229.86	6.66
230.077	143.87
230.295	107.01
230.513	152.06
230.731	76.29
230.948	131.58
231.166	104.96
231.384	-19.97
231.601	-26.11
231.819	143.87
232.037	8.7
232.254	-46.59
232.472	14.85
232.689	-40.45
232.907	27.14
233.125	-1.54
233.342	-91.65
233.56	12.8
233.777	12.8
233.995	37.38
234.213	137.73
234.43	66.05
234.648	47.62
234.865	55.81
235.083	-24.06
235.3	111.1
235.518	68.09
235.735	119.29
235.953	-1.54
236.17	84.48
236.388	33.28
236.605	16.9
236.822	100.86
237.04	43.52
237.257	-17.92
237.475	20.99
237.692	-22.02
237.909	31.23
238.127	33.28
238.344	86.53
238.562	33.28
238.779	-42.5
238.996	-22.02
239.214	51.71
239.431	74.24
239.648	-24.06
239.865	102.91
240.083	43.52
240.3	-83.45
240.517	82.43
240.735	43.52
240.952	104.96
241.169	86.53
241.386	14.85
241.603	4.61
241.821	-22.02
242.038	64
242.255	100.86
242.472	-32.26
242.689	107.01
242.907	102.91
243.124	70.14
243.341	27.14
243.558	-24.06
243.775	-71.17
243.992	-30.21
244.209	115.2
244.426	125.44
244.643	8.7
244.86	51.71
245.078	49.66
245.295	-19.97
245.512	25.09
245.729	49.66
245.946	53.76
246.163	96.77
246.38	-1.54
246.597	29.18
246.814	16.9
247.031	55.81
247.248	2.56
247.464	61.95
247.681	104.96
247.898	-11.78
248.115	86.53
248.332	-50.69
248.549	109.05
248.766	119.29
248.983	123.39
249.2	55.81
249.417	98.81
249.633	55.81
249.85	47.62
250.067	27.14
250.284	23.04
250.501	8.7
250.717	18.94
250.934	-36.35
251.151	43.52
251.368	18.94
251.585	64
251.801	-15.87
252.018	-1.54
252.235	115.2
252.451	-54.78
252.668	-15.87
252.885	123.39
253.102	92.67
253.318	-3.58
253.535	-22.02
253.752	25.09
253.968	-19.97
254.185	8.7
254.401	20.99
254.618	33.28
254.835	-30.21
255.051	74.24
255.268	45.57
255.484	72.19
255.701	53.76
255.917	20.99
256.134	-17.92
256.351	-3.58
256.567	-134.65
256.784	18.94
257	-13.82
257.217	59.9
257.433	133.63
257.65	57.86
257.866	115.2
258.082	-85.5
258.299	-5.63
258.515	47.62
258.732	4.61
258.948	-13.82
259.165	66.05
259.381	-19.97
259.597	100.86
259.814	10.75
260.03	-5.63
260.246	-38.4
260.463	76.29
260.679	129.53
260.895	107.01
261.112	47.62
261.328	16.9
261.544	18.94
261.761	55.81
261.977	10.75
262.193	-65.02
262.409	96.77
262.626	-36.35
262.842	-24.06
263.058	-11.78
263.274	68.09
263.49	-15.87
263.707	-65.02
263.923	80.38
264.139	6.66
264.355	0.51
264.571	125.44
264.787	143.87
265.004	98.81
265.22	-44.54
265.436	-46.59
265.652	-32.26
265.868	57.86
266.084	-126.46
266.3	39.42
266.516	-3.58
266.732	10.75
266.948	29.18
267.164	-5.63
267.38	47.62
267.596	59.9
267.812	133.63
268.028	16.9
268.244	-52.74
268.46	43.52
268.676	-28.16
268.892	18.94
269.108	-75.26
269.324	-65.02
269.54	-73.21
269.756	61.95
269.972	8.7
270.188	-67.07
270.403	-28.16
270.619	29.18
270.835	115.2
271.051	76.29
271.267	-52.74
271.483	-15.87
271.698	119.29
271.914	-3.58
272.13	39.42
272.346	8.7
272.562	8.7
272.777	223.74
272.993	-36.35
273.209	-71.17
273.425	51.71
273.64	-22.02
273.856	100.86
274.072	-62.98
274.287	16.9
274.503	51.71
274.719	37.38
274.934	-15.87
275.15	-52.74
275.366	74.24
275.581	-1.54
275.797	33.28
276.012	-5.63
276.228	-60.93
276.444	113.15
276.659	86.53
276.875	-13.82
277.09	123.39
277.306	-34.3
277.521	-5.63
277.737	-46.59
277.952	113.15
278.168	92.67
278.383	27.14
278.599	-34.3
278.814	55.81
279.03	-69.12
279.245	57.86
279.461	4.61
279.676	135.68
279.892	-50.69
280.107	-73.21
280.322	-1.54
280.538	25.09
280.753	-71.17
280.969	37.38
281.184	0.51
281.399	123.39
281.615	14.85
281.83	41.47
282.045	-15.87
282.26	-50.69
282.476	18.94
282.691	145.92
282.906	121.34
283.122	88.57
283.337	16.9
283.552	82.43
283.767	0.51
283.983	115.2
284.198	27.14
284.413	45.57
284.628	-54.78
284.843	23.04
285.058	74.24
285.274	-15.87
285.489	-48.64
285.704	92.67
285.919	-3.58
286.134	12.8
286.349	27.14
286.564	33.28
286.779	117.25
286.995	4.61
287.21	-28.16
287.425	-30.21
287.64	-13.82
287.855	-17.92
288.07	-83.45
288.285	31.23
288.5	55.81
288.715	51.71
288.93	-40.45
289.145	10.75
289.36	35.33
289.575	33.28
289.79	197.12
290.004	-9.73
290.219	115.2
290.434	-26.11
290.649	-38.4
290.864	8.7
291.079	4.61
291.294	0.51
291.509	-1.54
291.724	-24.06
291.938	-22.02
292.153	78.33
292.368	6.66
292.583	-3.58
292.798	16.9
293.012	-56.83
293.227	57.86
293.442	2.56
293.657	70.14
293.871	94.72
294.086	27.14
294.301	225.79
294.516	39.42
294.73	35.33
294.945	-44.54
295.16	72.19
295.374	86.53
295.589	82.43
295.804	6.66
296.018	61.95
296.233	172.54
296.447	33.28
296.662	-75.26
296.877	133.63
297.091	53.76
297.306	-1.54
297.52	33.28
297.735	51.71
297.949	47.62
298.164	66.05
298.378	84.48
298.593	-11.78
298.807	12.8
299.022	10.75
299.236	129.53
299.451	-17.92
299.665	-13.82
299.88	43.52
300.094	76.29
300.309	27.14
300.523	45.57
300.737	27.14
300.952	12.8
301.166	61.95
301.381	-19.97
301.595	25.09
301.809	49.66
302.024	-17.92
302.238	-44.54
302.452	125.44
302.667	100.86
302.881	143.87
303.095	107.01
303.309	0.51
303.524	31.23
303.738	45.57
303.952	37.38
304.166	64
304.381	-15.87
304.595	125.44
304.809	-5.63
305.023	-3.58
305.237	41.47
305.452	43.52
305.666	92.67
305.88	72.19
306.094	78.33
306.308	78.33
306.522	86.53
306.736	47.62
306.95	109.05
307.164	-30.21
307.379	37.38
307.593	92.67
307.807	158.21
308.021	84.48
308.235	125.44
308.449	-95.74
308.663	10.75
308.877	215.55
309.091	-32.26
309.305	8.7
309.519	-110.08
309.733	125.44
309.947	-114.17
310.161	31.23
310.374	94.72
310.588	104.96
310.802	-28.16
311.016	49.66
311.23	49.66
311.444	-40.45
311.658	12.8
311.872	74.24
312.085	78.33
312.299	104.96
312.513	92.67
312.727	39.42
312.941	-17.92
313.154	53.76
313.368	39.42
313.582	96.77
313.796	94.72
314.009	23.04
314.223	131.58
314.437	86.53
314.651	59.9
314.864	92.67
315.078	0.51
315.292	-28.16
315.505	-50.69
315.719	98.81
315.933	-34.3
316.146	8.7
316.36	-13.82
316.573	86.53
316.787	74.24
317.001	121.34
317.214	2.56
317.428	82.43
317.641	-79.36
317.855	-26.11
318.068	59.9
318.282	-73.21
318.495	113.15
318.709	119.29
318.922	-3.58
319.136	158.21
319.349	70.14
319.563	-65.02
319.776	16.9
319.99	-75.26
320.203	74.24
320.417	27.14
320.63	43.52
320.843	123.39
321.057	45.57
321.27	-1.54
321.483	98.81
321.697	135.68
321.91	-3.58
322.124	86.53
322.337	39.42
322.55	12.8
322.763	-26.11
322.977	-15.87
323.19	96.77
323.403	102.91
323.617	20.99
323.83	94.72
324.043	-7.68
324.256	-9.73
324.469	-15.87
324.683	102.91
324.896	59.9
325.109	57.86
325.322	-79.36
325.535	82.43
325.748	129.53
325.962	35.33
326.175	86.53
326.388	117.25
326.601	107.01
326.814	12.8
327.027	-22.02
327.24	154.11
327.453	-103.93
327.666	117.25
327.879	55.81
328.092	55.81
328.305	33.28
328.518	8.7
328.731	-30.21
328.944	23.04
329.157	49.66
329.37	35.33
329.583	125.44
329.796	184.83
330.009	-60.93
330.222	117.25
330.435	64
330.648	23.04
330.861	51.71
331.073	12.8
331.286	127.49
331.499	64
331.712	43.52
331.925	-15.87
332.138	6.66
332.35	115.2
332.563	-138.75
332.776	123.39
332.989	-56.83
333.202	-19.97
333.414	-11.78
333.627	90.62
333.84	-15.87
334.053	74.24
334.265	4.61
334.478	-7.68
334.691	-40.45
334.903	49.66
335.116	-26.11
335.329	51.71
335.541	127.49
335.754	147.97
335.966	20.99
336.179	-38.4
336.392	33.28
336.604	-13.82
336.817	-24.06
337.029	123.39
337.242	-19.97
337.454	41.47
337.667	0.51
337.88	37.38
338.092	96.77
338.305	0.51
338.517	-36.35
338.729	74.24
338.942	102.91
339.154	-71.17
339.367	-65.02
339.579	72.19
339.792	-7.68
340.004	88.57
340.217	29.18
340.429	74.24
340.641	-62.98
340.854	-17.92
341.066	43.52
341.278	53.76
341.491	213.5
341.703	55.81
341.915	-36.35
342.128	107.01
342.34	92.67
342.552	-34.3
342.764	33.28
342.977	47.62
343.189	107.01
343.401	12.8
343.613	-9.73
343.826	-7.68
344.038	14.85
344.25	41.47
344.462	12.8
344.674	41.47
344.886	-3.58
345.099	53.76
345.311	-46.59
345.523	-15.87
345.735	-36.35
345.947	43.52
346.159	-1.54
346.371	70.14
346.583	6.66
346.795	133.63
347.007	70.14
347.219	53.76
347.431	66.05
347.643	156.16
347.855	-3.58
348.067	94.72
348.279	-48.64
348.491	23.04
348.703	55.81
348.915	14.85
349.127	-50.69
349.339	68.09
349.551	37.38
349.763	121.34
349.975	18.94
350.187	68.09
350.399	119.29
350.61	37.38
350.822	-52.74
351.034	57.86
351.246	55.81
351.458	53.76
351.669	68.09
351.881	57.86
352.093	113.15
352.305	119.29
352.517	92.67
352.728	115.2
352.94	59.9
353.152	82.43
353.363	-32.26
353.575	25.09
353.787	162.3
353.999	55.81
354.21	156.16
354.422	-19.97
354.633	8.7
354.845	119.29
355.057	80.38
355.268	66.05
355.48	68.09
355.692	-54.78
355.903	12.8
356.115	-52.74
356.326	-81.41
356.538	82.43
356.749	33.28
356.961	154.11
357.172	20.99
357.384	-34.3
357.595	197.12
357.807	33.28
358.018	-42.5
358.23	-48.64
358.441	82.43
358.653	80.38
358.864	-30.21
359.075	-60.93
359.287	14.85
359.498	35.33
359.709	33.28
359.921	127.49
360.132	68.09
360.344	27.14
360.555	-28.16
360.766	29.18
360.977	-30.21
361.189	102.91
361.4	-44.54
361.611	107.01
361.823	90.62
362.034	0.51
362.245	-44.54
362.456	18.94
362.667	70.14
362.879	-83.45
363.09	41.47
363.301	66.05
363.512	64
363.723	-36.35
363.935	-1.54
364.146	51.71
364.357	10.75
364.568	23.04
364.779	-138.75
364.99	107.01
365.201	35.33
365.412	84.48
365.623	-79.36
365.834	96.77
366.045	23.04
366.256	23.04
366.467	18.94
366.678	72.19
366.889	37.38
367.1	37.38
367.311	78.33
367.522	4.61
367.733	104.96
367.944	10.75
368.155	-75.26
368.366	49.66
368.577	104.96
368.788	90.62
368.999	-65.02
369.209	8.7
369.42	135.68
369.631	246.27
369.842	29.18
370.053	47.62
370.264	53.76
370.474	-17.92
370.685	-22.02
370.896	-19.97
371.107	217.6
371.317	51.71
371.528	-134.65
371.739	64
371.95	-9.73
372.16	111.1
372.371	4.61
372.582	41.47
372.792	43.52
373.003	47.62
373.214	98.81
373.424	113.15
373.635	20.99
373.846	137.73
374.056	-50.69
374.267	35.33
374.477	37.38
374.688	12.8
374.898	8.7
375.109	43.52
375.319	45.57
375.53	111.1
375.74	25.09
375.951	-40.45
376.161	45.57
376.372	115.2
376.582	35.33
376.793	37.38
377.003	-28.16
377.214	41.47
377.424	59.9
377.635	55.81
377.845	-34.3
378.055	96.77
378.266	-24.06
378.476	-9.73
378.686	100.86
378.897	27.14
379.107	119.29
379.317	80.38
379.528	-36.35
379.738	115.2
379.948	-110.08
380.158	98.81
380.369	8.7
380.579	10.75
380.789	98.81
380.999	131.58
381.21	39.42
381.42	166.4
381.63	23.04
381.84	70.14
382.05	92.67
382.261	86.53
382.471	51.71
382.681	31.23
382.891	109.05
383.101	86.53
383.311	-75.26
383.521	-71.17
383.731	98.81
383.941	115.2
384.151	80.38
384.361	27.14
384.571	64
384.781	31.23
384.991	131.58
385.201	143.87
385.411	27.14
385.621	-9.73
385.831	76.29
386.041	-17.92
386.251	-79.36
386.461	113.15
386.671	29.18
386.881	137.73
387.091	31.23
387.301	98.81
387.511	82.43
387.72	37.38
387.93	72.19
388.14	-81.41
388.35	102.91
388.56	150.01
388.769	78.33
388.979	39.42
389.189	-1.54
389.399	33.28
389.609	113.15
389.818	41.47
390.028	51.71
390.238	59.9
390.447	47.62
390.657	100.86
390.867	29.18
391.076	25.09
391.286	45.57
391.496	72.19
391.705	41.47
391.915	158.21
392.125	100.86
392.334	-3.58
392.544	137.73
392.753	29.18
392.963	-50.69
393.172	23.04
393.382	57.86
393.591	162.3
393.801	-19.97
394.01	129.53
394.22	82.43
394.429	10.75
394.639	-19.97
394.848	74.24
395.058	35.33
395.267	14.85
395.477	35.33
395.686	74.24
395.895	250.36
396.105	244.22
396.314	78.33
396.524	25.09
396.733	-46.59
396.942	115.2
397.152	145.92
397.361	92.67
397.57	27.14
397.78	-17.92
397.989	78.33
398.198	213.5
398.407	64
398.617	-28.16
398.826	-15.87
399.035	84.48
399.244	123.39
399.453	107.01
399.663	-40.45
399.872	78.33
400.081	33.28
400.29	94.72
400.499	-56.83
400.708	49.66
400.917	53.76
401.127	-5.63
401.336	-32.26
401.545	145.92
401.754	168.45
401.963	111.1
402.172	-38.4
402.381	20.99
402.59	-40.45
402.799	14.85
403.008	92.67
403.217	41.47
403.426	51.71
403.635	-15.87
403.844	135.68
404.053	-26.11
404.262	49.66
404.471	168.45
404.68	45.57
404.888	86.53
405.097	33.28
405.306	70.14
405.515	18.94
405.724	64
405.933	53.76
406.142	0.51
406.35	92.67
406.559	-34.3
406.768	45.57
406.977	195.07
407.185	88.57
407.394	-13.82
407.603	-34.3
407.812	-28.16
408.02	141.82
408.229	-19.97
408.438	76.29
408.646	16.9
408.855	53.76
409.064	68.09
409.272	10.75
409.481	113.15
409.69	-34.3
409.898	-34.3
410.107	57.86
410.315	156.16
410.524	82.43
410.733	27.14
410.941	-17.92
411.15	139.77
411.358	80.38
411.567	123.39
411.775	-3.58
411.984	53.76
412.192	61.95
412.401	72.19
412.609	176.64
412.818	178.69
413.026	92.67
413.234	25.09
413.443	20.99
413.651	23.04
413.86	39.42
414.068	182.78
414.276	154.11
414.485	0.51
414.693	193.02
414.901	131.58
415.11	14.85
415.318	27.14
415.526	64
415.734	170.49
415.943	100.86
416.151	72.19
416.359	8.7
416.567	125.44
416.776	109.05
416.984	72.19
417.192	113.15
417.4	8.7
417.608	-40.45
417.817	-40.45
418.025	100.86
418.233	121.34
418.441	20.99
418.649	33.28
418.857	18.94
419.065	184.83
419.273	25.09
419.481	94.72
419.689	-17.92
419.897	59.9
420.105	-103.93
420.313	61.95
420.521	131.58
420.729	164.35
420.937	131.58
421.145	-17.92
421.353	135.68
421.561	223.74
421.769	78.33
421.977	-24.06
422.185	123.39
422.393	35.33
422.601	117.25
422.809	92.67
423.017	61.95
423.224	64
423.432	133.63
423.64	33.28
423.848	111.1
424.056	96.77
424.263	111.1
424.471	-24.06
424.679	217.6
424.887	-19.97
425.094	47.62
425.302	160.25
425.51	27.14
425.718	98.81
425.925	37.38
426.133	8.7
426.341	201.21
426.548	109.05
426.756	23.04
426.964	113.15
427.171	45.57
427.379	92.67
427.586	45.57
427.794	176.64
428.001	219.64
428.209	39.42
428.417	160.25
428.624	150.01
428.832	123.39
429.039	72.19
429.247	102.91
429.454	195.07
429.662	193.02
429.869	100.86
430.076	156.16
430.284	100.86
430.491	217.6
430.699	76.29
430.906	193.02
431.114	41.47
431.321	252.41
431.528	152.06
431.736	180.73
431.943	143.87
432.15	162.3
432.358	123.39
432.565	162.3
432.772	29.18
432.979	203.26
433.187	143.87
433.394	213.5
433.601	74.24
433.808	233.98
434.016	152.06
434.223	219.64
434.43	205.31
434.637	342.52
434.844	270.84
435.052	258.56
435.259	295.42
435.466	256.51
435.673	346.62
435.88	315.9
436.087	320
436.294	336.38
436.501	391.67
436.708	346.62
436.915	276.99
437.122	322.04
437.329	332.28
437.537	348.67
437.743	406.01
437.95	457.21
438.157	358.91
438.364	467.45
438.571	371.19
438.778	451.07
438.985	428.54
439.192	494.07
439.399	506.36
439.606	406.01
439.813	600.57
440.02	715.25
440.227	692.73
440.433	567.8
440.64	571.9
440.847	516.6
441.054	633.33
441.261	743.92
441.467	690.68
441.674	653.81
441.881	741.88
442.088	748.02
442.294	877.04
442.501	791.03
442.708	774.64
442.914	774.64
443.121	850.42
443.328	909.81
443.534	977.39
443.741	938.48
443.948	911.86
444.154	956.91
444.361	1305.07
444.568	1032.69
444.774	1104.37
444.981	1038.83
445.187	1221.1
445.394	1307.12
445.6	1159.66
445.807	1399.27
446.013	1278.44
446.22	1364.46
446.426	1440.23
446.633	1624.55
446.839	1737.19
447.046	1532.39
447.252	1675.75
447.459	1731.05
447.665	1733.09
447.871	1956.32
448.078	2140.64
448.284	2003.43
448.491	2079.2
448.697	2185.69
448.903	2343.39
449.11	2359.77
449.316	2337.24
449.522	2548.19
449.728	2693.59
449.935	2564.57
450.141	2669.02
450.347	2830.8
450.553	2849.24
450.76	3017.17
450.966	3072.47
451.172	3129.81
451.378	3193.3
451.584	3488.2
451.791	3793.35
451.997	3809.73
452.203	3879.36
452.409	4016.58
452.615	4082.11
452.821	4063.68
453.027	4110.79
453.233	4514.24
453.44	4563.39
453.646	4809.14
453.852	5071.28
454.058	5116.34
454.264	5167.54
454.47	5527.98
454.676	5611.95
454.882	6175.14
455.088	5865.89
455.294	6238.62
455.5	6592.92
455.705	6963.61
455.911	7147.92
456.117	7182.74
456.323	7360.91
456.529	7430.54
456.735	7917.96
456.941	8483.2
457.147	8632.7
457.352	8745.34
457.558	9046.39
457.764	9726.32
457.97	10033.51
458.176	10293.6
458.381	10770.78
458.587	11211.09
458.793	11583.82
458.999	11688.27
459.204	12943.67
459.41	13435.19
459.616	13171
459.821	14227.75
460.027	14715.17
460.233	15321.37
460.438	15493.4
460.644	16281.86
460.85	16216.33
461.055	17039.61
461.261	17914.09
461.466	17602.8
461.672	17959.15
461.878	19996.88
462.083	19550.42
462.289	19933.39
462.494	21115.07
462.7	20986.05
462.905	21430.46
463.111	23126.18
463.316	24199.31
463.522	24563.85
463.727	25655.42
463.932	26380.4
464.138	27252.83
464.343	28239.95
464.549	28254.29
464.754	30603.31
464.959	31254.56
465.165	31629.34
465.37	31459.36
465.575	31770.65
465.781	33878.01
465.986	34826.22
466.191	34523.12
466.397	34273.27
466.602	33638.4
466.807	35540.96
467.012	35958.75
467.218	36612.05
467.423	36653.01
467.628	38098.87
467.833	39960.48
468.038	39053.23
468.244	38275
468.449	40388.5
468.654	39770.02
468.859	39372.71
469.064	39413.67
