Data from USB4F104151__156__11-04-35-431.txt Node

Date: Wed Feb 26 11:04:35 EST 2025
User: louis
Spectrometer: USB4F10415
Trigger mode: 4
Integration Time (sec): 1.000000E-1
Scans to average: 1
Electric dark correction enabled: true
Nonlinearity correction enabled: false
Boxcar width: 0
XAxis mode: Wavelengths
Number of Pixels in Spectrum: 3648
>>>>>Begin Spectral Data<<<<<
178.204	-375.8
178.424	-375.8
178.644	-375.8
178.864	-418.81
179.084	-381.95
179.304	-21.5
179.524	-37.89
179.744	-21.5
179.964	56.32
180.184	60.42
180.404	62.46
180.624	1.02
180.844	1.02
181.064	-35.84
181.283	-64.51
181.503	-33.79
181.723	33.79
181.943	-66.56
182.163	244.73
182.383	35.84
182.602	17.41
182.822	150.53
183.042	39.94
183.262	11.26
183.482	39.94
183.701	80.89
183.921	64.51
184.141	-41.98
184.361	44.03
184.58	39.94
184.8	31.74
185.02	-11.26
185.239	242.68
185.459	152.57
185.679	177.15
185.898	-5.12
186.118	97.28
186.338	82.94
186.557	193.53
186.777	-44.03
186.997	7.17
187.216	80.89
187.436	205.82
187.655	164.86
187.875	136.19
188.095	54.27
188.314	189.44
188.534	78.85
188.753	25.6
188.973	179.2
189.192	130.05
189.412	15.36
189.631	56.32
189.851	56.32
190.07	211.96
190.29	-41.98
190.509	15.36
190.729	-15.36
190.948	140.29
191.168	318.46
191.387	101.37
191.607	39.94
191.826	84.99
192.045	117.76
192.265	31.74
192.484	87.04
192.704	99.33
192.923	-39.94
193.142	168.96
193.362	103.42
193.581	125.95
193.8	91.13
194.02	128
194.239	95.23
194.458	84.99
194.678	60.42
194.897	60.42
195.116	128
195.335	5.12
195.555	17.41
195.774	17.41
195.993	95.23
196.212	48.13
196.432	39.94
196.651	-21.5
196.87	117.76
197.089	193.53
197.308	193.53
197.528	89.09
197.747	-13.31
197.966	66.56
198.185	152.57
198.404	7.17
198.623	103.42
198.842	117.76
199.062	70.65
199.281	160.77
199.5	80.89
199.719	146.43
199.938	142.33
200.157	95.23
200.376	128
200.595	164.86
200.814	70.65
201.033	52.22
201.252	95.23
201.471	107.52
201.69	74.75
201.909	105.47
202.128	111.61
202.347	80.89
202.566	15.36
202.785	-105.47
203.004	11.26
203.223	318.46
203.442	58.37
203.661	-3.07
203.879	130.05
204.098	134.14
204.317	-76.8
204.536	162.81
204.755	111.61
204.974	121.85
205.193	37.89
205.411	179.2
205.63	185.34
205.849	72.7
206.068	41.98
206.287	-97.28
206.505	113.66
206.724	74.75
206.943	23.55
207.162	62.46
207.381	128
207.599	72.7
207.818	56.32
208.037	50.18
208.255	1.02
208.474	113.66
208.693	93.18
208.911	66.56
209.13	54.27
209.349	121.85
209.567	142.33
209.786	162.81
210.005	78.85
210.223	84.99
210.442	-39.94
210.661	25.6
210.879	111.61
211.098	39.94
211.316	35.84
211.535	89.09
211.753	66.56
211.972	66.56
212.191	3.07
212.409	-1.02
212.628	64.51
212.846	-23.55
213.065	15.36
213.283	166.91
213.502	64.51
213.72	132.09
213.938	58.37
214.157	29.7
214.375	68.61
214.594	64.51
214.812	21.5
215.031	132.09
215.249	5.12
215.467	76.8
215.686	56.32
215.904	105.47
216.122	107.52
216.341	113.66
216.559	101.37
216.778	140.29
216.996	152.57
217.214	95.23
217.432	27.65
217.651	21.5
217.869	74.75
218.087	56.32
218.306	54.27
218.524	76.8
218.742	54.27
218.96	117.76
219.179	39.94
219.397	66.56
219.615	289.79
219.833	160.77
220.051	-54.27
220.27	164.86
220.488	101.37
220.706	17.41
220.924	-37.89
221.142	48.13
221.36	99.33
221.578	58.37
221.796	125.95
222.015	15.36
222.233	82.94
222.451	175.1
222.669	-54.27
222.887	72.7
223.105	23.55
223.323	31.74
223.541	-21.5
223.759	15.36
223.977	52.22
224.195	187.39
224.413	27.65
224.631	74.75
224.849	109.57
225.067	230.4
225.285	-11.26
225.503	-31.74
225.721	-62.46
225.939	115.71
226.157	41.98
226.375	240.64
226.592	-27.65
226.81	68.61
227.028	97.28
227.246	146.43
227.464	105.47
227.682	29.7
227.9	13.31
228.117	17.41
228.335	144.38
228.553	64.51
228.771	-1.02
228.989	136.19
229.206	152.57
229.424	103.42
229.642	-17.41
229.86	17.41
230.077	125.95
230.295	68.61
230.513	156.67
230.731	80.89
230.948	283.64
231.166	160.77
231.384	50.18
231.601	-13.31
231.819	156.67
232.037	9.22
232.254	-5.12
232.472	41.98
232.689	27.65
232.907	103.42
233.125	-1.02
233.342	-21.5
233.56	48.13
233.777	21.5
233.995	105.47
234.213	160.77
234.43	125.95
234.648	62.46
234.865	46.08
235.083	154.62
235.3	111.61
235.518	125.95
235.735	148.48
235.953	95.23
236.17	-21.5
236.388	3.07
236.605	95.23
236.822	150.53
237.04	80.89
237.257	87.04
237.475	25.6
237.692	107.52
237.909	119.81
238.127	33.79
238.344	132.09
238.562	140.29
238.779	-39.94
238.996	-15.36
239.214	33.79
239.431	80.89
239.648	35.84
239.865	56.32
240.083	17.41
240.3	21.5
240.517	-21.5
240.735	37.89
240.952	257.02
241.169	105.47
241.386	130.05
241.603	11.26
241.821	-76.8
242.038	181.25
242.255	128
242.472	-21.5
242.689	29.7
242.907	68.61
243.124	44.03
243.341	13.31
243.558	23.55
243.775	-25.6
243.992	-50.18
244.209	162.81
244.426	189.44
244.643	148.48
244.86	48.13
245.078	181.25
245.295	99.33
245.512	21.5
245.729	-13.31
245.946	87.04
246.163	175.1
246.38	-23.55
246.597	95.23
246.814	64.51
247.031	95.23
247.248	3.07
247.464	173.05
247.681	74.75
247.898	72.7
248.115	138.24
248.332	44.03
248.549	156.67
248.766	87.04
248.983	80.89
249.2	68.61
249.417	130.05
249.633	99.33
249.85	84.99
250.067	37.89
250.284	78.85
250.501	140.29
250.717	58.37
250.934	15.36
251.151	-23.55
251.368	93.18
251.585	52.22
251.801	41.98
252.018	39.94
252.235	89.09
252.451	-70.65
252.668	74.75
252.885	181.25
253.102	162.81
253.318	58.37
253.535	56.32
253.752	-5.12
253.968	60.42
254.185	-80.89
254.401	60.42
254.618	11.26
254.835	-21.5
255.051	150.53
255.268	89.09
255.484	3.07
255.701	-9.22
255.917	117.76
256.134	17.41
256.351	74.75
256.567	-39.94
256.784	68.61
257	3.07
257.217	84.99
257.433	115.71
257.65	111.61
257.866	128
258.082	-52.22
258.299	13.31
258.515	-31.74
258.732	41.98
258.948	13.31
259.165	150.53
259.381	-19.46
259.597	52.22
259.814	50.18
260.03	37.89
260.246	5.12
260.463	123.9
260.679	130.05
260.895	97.28
261.112	119.81
261.328	60.42
261.544	58.37
261.761	158.72
261.977	-27.65
262.193	-17.41
262.409	62.46
262.626	17.41
262.842	78.85
263.058	15.36
263.274	35.84
263.49	54.27
263.707	64.51
263.923	103.42
264.139	3.07
264.355	91.13
264.571	117.76
264.787	187.39
265.004	183.29
265.22	87.04
265.436	-19.46
265.652	62.46
265.868	58.37
266.084	-46.08
266.3	99.33
266.516	-9.22
266.732	138.24
266.948	82.94
267.164	25.6
267.38	209.92
267.596	-11.26
267.812	140.29
268.028	95.23
268.244	23.55
268.46	31.74
268.676	19.46
268.892	82.94
269.108	17.41
269.324	5.12
269.54	7.17
269.756	119.81
269.972	62.46
270.188	37.89
270.403	-3.07
270.619	27.65
270.835	201.72
271.051	56.32
271.267	64.51
271.483	130.05
271.698	175.1
271.914	56.32
272.13	50.18
272.346	115.71
272.562	27.65
272.777	130.05
272.993	60.42
273.209	33.79
273.425	105.47
273.64	-3.07
273.856	37.89
274.072	54.27
274.287	19.46
274.503	117.76
274.719	201.72
274.934	-5.12
275.15	-23.55
275.366	48.13
275.581	87.04
275.797	21.5
276.012	136.19
276.228	-11.26
276.444	-25.6
276.659	150.53
276.875	-33.79
277.09	-1.02
277.306	37.89
277.521	183.29
277.737	95.23
277.952	80.89
278.168	-21.5
278.383	62.46
278.599	33.79
278.814	109.57
279.03	46.08
279.245	162.81
279.461	-1.02
279.676	70.65
279.892	84.99
280.107	-5.12
280.322	-5.12
280.538	99.33
280.753	19.46
280.969	72.7
281.184	56.32
281.399	203.77
281.615	48.13
281.83	136.19
282.045	-19.46
282.26	-50.18
282.476	72.7
282.691	134.14
282.906	62.46
283.122	111.61
283.337	-23.55
283.552	78.85
283.767	41.98
283.983	95.23
284.198	80.89
284.413	80.89
284.628	3.07
284.843	142.33
285.058	154.62
285.274	80.89
285.489	-15.36
285.704	144.38
285.919	3.07
286.134	105.47
286.349	41.98
286.564	58.37
286.779	117.76
286.995	60.42
287.21	-37.89
287.425	125.95
287.64	7.17
287.855	111.61
288.07	11.26
288.285	152.57
288.5	76.8
288.715	82.94
288.93	46.08
289.145	76.8
289.36	119.81
289.575	101.37
289.79	70.65
290.004	46.08
290.219	74.75
290.434	-31.74
290.649	66.56
290.864	23.55
291.079	3.07
291.294	41.98
291.509	99.33
291.724	1.02
291.938	68.61
292.153	87.04
292.368	132.09
292.583	82.94
292.798	142.33
293.012	109.57
293.227	119.81
293.442	68.61
293.657	97.28
293.871	91.13
294.086	-3.07
294.301	216.06
294.516	156.67
294.73	95.23
294.945	-5.12
295.16	72.7
295.374	160.77
295.589	105.47
295.804	-35.84
296.018	119.81
296.233	121.85
296.447	39.94
296.662	-41.98
296.877	214.01
297.091	150.53
297.306	23.55
297.52	99.33
297.735	115.71
297.949	95.23
298.164	35.84
298.378	205.82
298.593	-15.36
298.807	-29.7
299.022	19.46
299.236	175.1
299.451	56.32
299.665	9.22
299.88	66.56
300.094	62.46
300.309	74.75
300.523	56.32
300.737	44.03
300.952	140.29
301.166	142.33
301.381	-9.22
301.595	19.46
301.809	89.09
302.024	70.65
302.238	66.56
302.452	144.38
302.667	9.22
302.881	230.4
303.095	150.53
303.309	99.33
303.524	31.74
303.738	25.6
303.952	56.32
304.166	78.85
304.381	-54.27
304.595	226.3
304.809	-9.22
305.023	87.04
305.237	-56.32
305.452	76.8
305.666	113.66
305.88	189.44
306.094	93.18
306.308	50.18
306.522	103.42
306.736	91.13
306.95	134.14
307.164	46.08
307.379	3.07
307.593	171.01
307.807	132.09
308.021	115.71
308.235	84.99
308.449	-31.74
308.663	52.22
308.877	275.45
309.091	62.46
309.305	48.13
309.519	-125.95
309.733	203.77
309.947	-41.98
310.161	142.33
310.374	62.46
310.588	119.81
310.802	7.17
311.016	9.22
311.23	54.27
311.444	-13.31
311.658	76.8
311.872	101.37
312.085	142.33
312.299	125.95
312.513	166.91
312.727	60.42
312.941	21.5
313.154	66.56
313.368	97.28
313.582	46.08
313.796	78.85
314.009	29.7
314.223	115.71
314.437	39.94
314.651	78.85
314.864	-48.13
315.078	109.57
315.292	-25.6
315.505	70.65
315.719	52.22
315.933	84.99
316.146	-7.17
316.36	-17.41
316.573	162.81
316.787	177.15
317.001	123.9
317.214	33.79
317.428	64.51
317.641	17.41
317.855	89.09
318.068	5.12
318.282	95.23
318.495	115.71
318.709	111.61
318.922	82.94
319.136	160.77
319.349	175.1
319.563	70.65
319.776	95.23
319.99	-58.37
320.203	168.96
320.417	72.7
320.63	136.19
320.843	240.64
321.057	-11.26
321.27	35.84
321.483	107.52
321.697	158.72
321.91	64.51
322.124	52.22
322.337	50.18
322.55	7.17
322.763	54.27
322.977	97.28
323.19	15.36
323.403	66.56
323.617	123.9
323.83	11.26
324.043	93.18
324.256	27.65
324.469	-82.94
324.683	130.05
324.896	66.56
325.109	95.23
325.322	13.31
325.535	166.91
325.748	132.09
325.962	78.85
326.175	148.48
326.388	41.98
326.601	175.1
326.814	35.84
327.027	80.89
327.24	160.77
327.453	-19.46
327.666	80.89
327.879	187.39
328.092	111.61
328.305	37.89
328.518	13.31
328.731	66.56
328.944	-9.22
329.157	11.26
329.37	54.27
329.583	201.72
329.796	156.67
330.009	-25.6
330.222	76.8
330.435	158.72
330.648	5.12
330.861	117.76
331.073	56.32
331.286	177.15
331.499	138.24
331.712	60.42
331.925	70.65
332.138	56.32
332.35	105.47
332.563	25.6
332.776	136.19
332.989	-70.65
333.202	-58.37
333.414	78.85
333.627	-5.12
333.84	27.65
334.053	97.28
334.265	3.07
334.478	15.36
334.691	31.74
334.903	44.03
335.116	33.79
335.329	64.51
335.541	121.85
335.754	144.38
335.966	29.7
336.179	82.94
336.392	41.98
336.604	54.27
336.817	84.99
337.029	140.29
337.242	33.79
337.454	152.57
337.667	80.89
337.88	138.24
338.092	60.42
338.305	136.19
338.517	19.46
338.729	97.28
338.942	166.91
339.154	-1.02
339.367	15.36
339.579	56.32
339.792	-39.94
340.004	82.94
340.217	21.5
340.429	125.95
340.641	-11.26
340.854	91.13
341.066	9.22
341.278	144.38
341.491	228.35
341.703	27.65
341.915	5.12
342.128	134.14
342.34	130.05
342.552	5.12
342.764	-1.02
342.977	142.33
343.189	123.9
343.401	109.57
343.613	-31.74
343.826	87.04
344.038	-27.65
344.25	130.05
344.462	13.31
344.674	93.18
344.886	58.37
345.099	48.13
345.311	72.7
345.523	29.7
345.735	-44.03
345.947	62.46
346.159	39.94
346.371	29.7
346.583	50.18
346.795	236.54
347.007	15.36
347.219	105.47
347.431	31.74
347.643	101.37
347.855	74.75
348.067	123.9
348.279	-54.27
348.491	74.75
348.703	78.85
348.915	31.74
349.127	46.08
349.339	111.61
349.551	80.89
349.763	89.09
349.975	27.65
350.187	109.57
350.399	181.25
350.61	128
350.822	11.26
351.034	89.09
351.246	21.5
351.458	56.32
351.669	58.37
351.881	80.89
352.093	191.49
352.305	72.7
352.517	50.18
352.728	162.81
352.94	156.67
353.152	121.85
353.363	-33.79
353.575	82.94
353.787	144.38
353.999	156.67
354.21	265.21
354.422	-31.74
354.633	60.42
354.845	-1.02
355.057	37.89
355.268	50.18
355.48	138.24
355.692	-31.74
355.903	109.57
356.115	72.7
356.326	-56.32
356.538	160.77
356.749	97.28
356.961	105.47
357.172	91.13
357.384	33.79
357.595	244.73
357.807	1.02
358.018	66.56
358.23	3.07
358.441	197.63
358.653	62.46
358.864	39.94
359.075	-25.6
359.287	78.85
359.498	205.82
359.709	105.47
359.921	72.7
360.132	134.14
360.344	29.7
360.555	66.56
360.766	1.02
360.977	-5.12
361.189	56.32
361.4	58.37
361.611	181.25
361.823	146.43
362.034	64.51
362.245	19.46
362.456	35.84
362.667	33.79
362.879	-21.5
363.09	109.57
363.301	27.65
363.512	50.18
363.723	33.79
363.935	54.27
364.146	146.43
364.357	11.26
364.568	103.42
364.779	17.41
364.99	191.49
365.201	123.9
365.412	109.57
365.623	-13.31
365.834	76.8
366.045	107.52
366.256	91.13
366.467	87.04
366.678	58.37
366.889	156.67
367.1	109.57
367.311	136.19
367.522	-44.03
367.733	109.57
367.944	29.7
368.155	66.56
368.366	72.7
368.577	189.44
368.788	195.58
368.999	91.13
369.209	72.7
369.42	203.77
369.631	240.64
369.842	50.18
370.053	27.65
370.264	74.75
370.474	1.02
370.685	95.23
370.896	-33.79
371.107	132.09
371.317	74.75
371.528	13.31
371.739	113.66
371.95	93.18
372.16	80.89
372.371	56.32
372.582	15.36
372.792	154.62
373.003	138.24
373.214	31.74
373.424	56.32
373.635	-7.17
373.846	168.96
374.056	97.28
374.267	95.23
374.477	17.41
374.688	5.12
374.898	125.95
375.109	5.12
375.319	99.33
375.53	148.48
375.74	115.71
375.951	66.56
376.161	134.14
376.372	72.7
376.582	-11.26
376.793	132.09
377.003	21.5
377.214	19.46
377.424	62.46
377.635	41.98
377.845	17.41
378.055	173.05
378.266	-23.55
378.476	-31.74
378.686	117.76
378.897	44.03
379.107	189.44
379.317	123.9
379.528	93.18
379.738	95.23
379.948	-27.65
380.158	173.05
380.369	62.46
380.579	150.53
380.789	41.98
380.999	29.7
381.21	68.61
381.42	259.07
381.63	109.57
381.84	119.81
382.05	99.33
382.261	140.29
382.471	160.77
382.681	37.89
382.891	179.2
383.101	66.56
383.311	29.7
383.521	-68.61
383.731	146.43
383.941	166.91
384.151	136.19
384.361	-35.84
384.571	37.89
384.781	109.57
384.991	201.72
385.201	261.12
385.411	146.43
385.621	1.02
385.831	17.41
386.041	58.37
386.251	97.28
386.461	156.67
386.671	19.46
386.881	15.36
387.091	33.79
387.301	103.42
387.511	82.94
387.72	101.37
387.93	136.19
388.14	-15.36
388.35	166.91
388.56	128
388.769	185.34
388.979	107.52
389.189	62.46
389.399	35.84
389.609	107.52
389.818	207.87
390.028	64.51
390.238	29.7
390.447	37.89
390.657	87.04
390.867	7.17
391.076	-31.74
391.286	87.04
391.496	9.22
391.705	54.27
391.915	160.77
392.125	158.72
392.334	48.13
392.544	240.64
392.753	89.09
392.963	21.5
393.172	-1.02
393.382	62.46
393.591	144.38
393.801	44.03
394.01	87.04
394.22	109.57
394.429	25.6
394.639	21.5
394.848	84.99
395.058	41.98
395.267	39.94
395.477	105.47
395.686	80.89
395.895	214.01
396.105	148.48
396.314	123.9
396.524	-15.36
396.733	25.6
396.942	101.37
397.152	99.33
397.361	93.18
397.57	117.76
397.78	91.13
397.989	158.72
398.198	222.2
398.407	76.8
398.617	25.6
398.826	103.42
399.035	9.22
399.244	123.9
399.453	105.47
399.663	68.61
399.872	107.52
400.081	15.36
400.29	195.58
400.499	37.89
400.708	136.19
400.917	35.84
401.127	33.79
401.336	66.56
401.545	205.82
401.754	150.53
401.963	144.38
402.172	37.89
402.381	-41.98
402.59	74.75
402.799	97.28
403.008	138.24
403.217	84.99
403.426	144.38
403.635	35.84
403.844	64.51
404.053	39.94
404.262	48.13
404.471	148.48
404.68	44.03
404.888	33.79
405.097	105.47
405.306	56.32
405.515	105.47
405.724	95.23
405.933	132.09
406.142	64.51
406.35	84.99
406.559	44.03
406.768	54.27
406.977	171.01
407.185	29.7
407.394	140.29
407.603	41.98
407.812	29.7
408.02	142.33
408.229	123.9
408.438	58.37
408.646	-46.08
408.855	72.7
409.064	54.27
409.272	91.13
409.481	148.48
409.69	-11.26
409.898	-11.26
410.107	111.61
410.315	185.34
410.524	3.07
410.733	31.74
410.941	50.18
411.15	189.44
411.358	97.28
411.567	150.53
411.775	33.79
411.984	93.18
412.192	183.29
412.401	66.56
412.609	128
412.818	117.76
413.026	119.81
413.234	48.13
413.443	99.33
413.651	46.08
413.86	95.23
414.068	205.82
414.276	171.01
414.485	56.32
414.693	205.82
414.901	203.77
415.11	78.85
415.318	130.05
415.526	74.75
415.734	103.42
415.943	115.71
416.151	228.35
416.359	125.95
416.567	125.95
416.776	154.62
416.984	234.49
417.192	138.24
417.4	-25.6
417.608	-33.79
417.817	66.56
418.025	62.46
418.233	293.88
418.441	29.7
418.649	25.6
418.857	68.61
419.065	156.67
419.273	13.31
419.481	115.71
419.689	15.36
419.897	117.76
420.105	-23.55
420.313	66.56
420.521	154.62
420.729	115.71
420.937	27.65
421.145	25.6
421.353	91.13
421.561	222.2
421.769	101.37
421.977	-19.46
422.185	156.67
422.393	107.52
422.601	87.04
422.809	136.19
423.017	74.75
423.224	113.66
423.432	156.67
423.64	84.99
423.848	177.15
424.056	93.18
424.263	89.09
424.471	37.89
424.679	156.67
424.887	-1.02
425.094	113.66
425.302	105.47
425.51	44.03
425.718	183.29
425.925	138.24
426.133	70.65
426.341	197.63
426.548	101.37
426.756	76.8
426.964	230.4
427.171	115.71
427.379	123.9
427.586	132.09
427.794	144.38
428.001	152.57
428.209	191.49
428.417	236.54
428.624	150.53
428.832	109.57
429.039	175.1
429.247	177.15
429.454	87.04
429.662	248.83
429.869	136.19
430.076	156.67
430.284	187.39
430.491	201.72
430.699	142.33
430.906	242.68
431.114	179.2
431.321	259.07
431.528	113.66
431.736	156.67
431.943	103.42
432.15	205.82
432.358	289.79
432.565	316.41
432.772	11.26
432.979	246.78
433.187	207.87
433.394	367.61
433.601	146.43
433.808	232.44
434.016	345.08
434.223	193.53
434.43	267.26
434.637	259.07
434.844	361.47
435.052	287.74
435.259	293.88
435.466	281.6
435.673	297.98
435.88	326.65
436.087	250.88
436.294	379.9
436.501	404.47
436.708	250.88
436.915	418.81
437.122	418.81
437.329	318.46
437.537	390.14
437.743	386.04
437.95	394.23
438.157	437.24
438.364	367.61
438.571	461.82
438.778	525.3
438.985	537.59
439.192	539.64
439.399	467.96
439.606	556.02
439.813	576.5
440.02	658.42
440.227	771.06
440.433	574.46
440.64	625.65
440.847	539.64
441.054	672.76
441.261	836.6
441.467	644.09
441.674	594.93
441.881	852.98
442.088	691.19
442.294	848.88
442.501	824.31
442.708	902.13
442.914	924.66
443.121	984.05
443.328	957.43
443.534	1010.67
443.741	924.66
443.948	875.51
444.154	1002.48
444.361	1270.76
444.568	1139.69
444.774	1188.85
444.981	1141.74
445.187	1151.98
445.394	1293.29
445.6	1371.12
445.807	1528.81
446.013	1410.03
446.22	1426.41
446.426	1498.09
446.633	1668.07
446.839	1913.83
447.046	1541.1
447.252	1795.04
447.459	1721.32
447.665	1793
447.871	2032.61
448.078	2173.92
448.284	2036.7
448.491	2309.08
448.697	2268.13
448.903	2364.38
449.11	2620.38
449.316	2366.43
449.522	2597.85
449.728	2651.1
449.935	2905.04
450.141	2851.8
450.347	3220.43
450.553	2880.47
450.76	2954.19
450.966	3322.83
451.172	3367.88
451.378	3470.28
451.584	3445.71
451.791	3752.9
451.997	3871.68
452.203	3933.12
452.409	4029.38
452.615	4414.4
452.821	4195.26
453.027	4250.56
453.233	4899.77
453.44	4631.48
453.646	5034.93
453.852	5084.08
454.058	5475.24
454.264	5536.68
454.47	5882.79
454.676	5811.11
454.882	6237.09
455.088	6038.44
455.294	6519.71
455.5	6804.38
455.705	7162.77
455.911	7308.18
456.117	7463.82
456.323	7730.06
456.529	7656.33
456.735	8541.05
456.941	8706.94
457.147	8917.88
457.352	9143.16
457.558	9575.28
457.764	10064.74
457.97	10392.42
458.176	10904.41
458.381	11676.49
458.587	11336.53
458.793	12002.12
458.999	12268.36
459.204	13523.76
459.41	14080.81
459.616	14037.8
459.821	14916.38
460.027	15545.11
460.233	16020.24
460.438	16014.09
460.644	17093.37
460.85	17113.85
461.055	17869.55
461.261	18793.19
461.466	18498.28
461.672	18741.99
461.878	21060.29
462.083	20720.32
462.289	21033.66
462.494	22067.89
462.7	22260.4
462.905	22385.32
463.111	24375.95
463.316	25557.63
463.522	25956.98
463.727	26696.3
463.932	27841.11
464.138	29024.84
464.343	30267.95
464.549	29882.94
464.754	32242.2
464.959	33311.24
465.165	33329.67
465.37	33880.57
465.575	33563.14
465.781	35918.3
465.986	36923.85
466.191	36348.37
466.397	36227.54
466.602	35510.75
466.807	37530.05
467.012	38488.5
467.218	38629.81
467.423	38906.29
467.628	39989.66
467.833	42045.82
468.038	41316.75
468.244	40532.37
