Data from USB4F104151__130__10-46-25-957.txt Node

Date: Wed Feb 26 10:46:25 EST 2025
User: louis
Spectrometer: USB4F10415
Trigger mode: 4
Integration Time (sec): 1.000000E-1
Scans to average: 1
Electric dark correction enabled: true
Nonlinearity correction enabled: false
Boxcar width: 0
XAxis mode: Wavelengths
Number of Pixels in Spectrum: 3648
>>>>>Begin Spectral Data<<<<<
178.204	-379.9
178.424	-379.9
178.644	-379.9
178.864	-381.95
179.084	-394.23
179.304	-35.84
179.524	5.12
179.744	7.17
179.964	91.13
180.184	-46.08
180.404	60.42
180.624	-87.04
180.844	1.02
181.064	-107.52
181.283	46.08
181.503	5.12
181.723	60.42
181.943	-62.46
182.163	197.63
182.383	46.08
182.602	95.23
182.822	23.55
183.042	93.18
183.262	-1.02
183.482	-1.02
183.701	29.7
183.921	74.75
184.141	-31.74
184.361	33.79
184.58	29.7
184.8	78.85
185.02	-41.98
185.239	156.67
185.459	99.33
185.679	160.77
185.898	-113.66
186.118	78.85
186.338	-23.55
186.557	156.67
186.777	31.74
186.997	50.18
187.216	54.27
187.436	230.4
187.655	128
187.875	21.5
188.095	-13.31
188.314	152.57
188.534	130.05
188.753	-31.74
188.973	107.52
189.192	121.85
189.412	-46.08
189.631	66.56
189.851	58.37
190.07	152.57
190.29	-41.98
190.509	-44.03
190.729	58.37
190.948	162.81
191.168	261.12
191.387	130.05
191.607	52.22
191.826	103.42
192.045	72.7
192.265	-1.02
192.484	68.61
192.704	99.33
192.923	-15.36
193.142	199.68
193.362	31.74
193.581	84.99
193.8	33.79
194.02	54.27
194.239	46.08
194.458	78.85
194.678	3.07
194.897	15.36
195.116	87.04
195.335	87.04
195.555	48.13
195.774	-3.07
195.993	66.56
196.212	-3.07
196.432	-15.36
196.651	-3.07
196.87	46.08
197.089	185.34
197.308	78.85
197.528	84.99
197.747	-41.98
197.966	109.57
198.185	175.1
198.404	-27.65
198.623	74.75
198.842	168.96
199.062	80.89
199.281	130.05
199.5	17.41
199.719	142.33
199.938	41.98
200.157	48.13
200.376	62.46
200.595	162.81
200.814	21.5
201.033	-48.13
201.252	87.04
201.471	-33.79
201.69	132.09
201.909	17.41
202.128	109.57
202.347	84.99
202.566	60.42
202.785	1.02
203.004	-74.75
203.223	214.01
203.442	50.18
203.661	-107.52
203.879	78.85
204.098	84.99
204.317	-25.6
204.536	52.22
204.755	107.52
204.974	78.85
205.193	48.13
205.411	185.34
205.63	148.48
205.849	46.08
206.068	78.85
206.287	-7.17
206.505	66.56
206.724	-33.79
206.943	-39.94
207.162	25.6
207.381	48.13
207.599	11.26
207.818	41.98
208.037	-27.65
208.255	25.6
208.474	82.94
208.693	68.61
208.911	46.08
209.13	89.09
209.349	105.47
209.567	82.94
209.786	17.41
210.005	136.19
210.223	7.17
210.442	-62.46
210.661	29.7
210.879	70.65
211.098	56.32
211.316	70.65
211.535	50.18
211.753	31.74
211.972	66.56
212.191	52.22
212.409	-33.79
212.628	105.47
212.846	-41.98
213.065	54.27
213.283	158.72
213.502	27.65
213.72	58.37
213.938	93.18
214.157	19.46
214.375	80.89
214.594	29.7
214.812	64.51
215.031	46.08
215.249	37.89
215.467	31.74
215.686	113.66
215.904	35.84
216.122	39.94
216.341	130.05
216.559	111.61
216.778	162.81
216.996	166.91
217.214	25.6
217.432	50.18
217.651	-64.51
217.869	35.84
218.087	-5.12
218.306	21.5
218.524	52.22
218.742	-13.31
218.96	76.8
219.179	29.7
219.397	33.79
219.615	254.97
219.833	70.65
220.051	1.02
220.27	181.25
220.488	136.19
220.706	103.42
220.924	-1.02
221.142	9.22
221.36	132.09
221.578	15.36
221.796	29.7
222.015	54.27
222.233	58.37
222.451	185.34
222.669	27.65
222.887	97.28
223.105	-41.98
223.323	-21.5
223.541	-109.57
223.759	72.7
223.977	72.7
224.195	156.67
224.413	76.8
224.631	17.41
224.849	31.74
225.067	248.83
225.285	-68.61
225.503	78.85
225.721	-58.37
225.939	11.26
226.157	52.22
226.375	201.72
226.592	-5.12
226.81	-13.31
227.028	128
227.246	72.7
227.464	101.37
227.682	113.66
227.9	58.37
228.117	66.56
228.335	80.89
228.553	5.12
228.771	29.7
228.989	-3.07
229.206	76.8
229.424	-19.46
229.642	44.03
229.86	-103.42
230.077	130.05
230.295	44.03
230.513	123.9
230.731	101.37
230.948	162.81
231.166	128
231.384	-33.79
231.601	-39.94
231.819	128
232.037	19.46
232.254	15.36
232.472	19.46
232.689	-58.37
232.907	101.37
233.125	-60.42
233.342	35.84
233.56	-76.8
233.777	109.57
233.995	74.75
234.213	95.23
234.43	68.61
234.648	72.7
234.865	46.08
235.083	84.99
235.3	121.85
235.518	113.66
235.735	154.62
235.953	64.51
236.17	78.85
236.388	11.26
236.605	-27.65
236.822	109.57
237.04	93.18
237.257	152.57
237.475	50.18
237.692	17.41
237.909	84.99
238.127	93.18
238.344	84.99
238.562	29.7
238.779	-56.32
238.996	62.46
239.214	140.29
239.431	68.61
239.648	-27.65
239.865	70.65
240.083	80.89
240.3	-58.37
240.517	48.13
240.735	66.56
240.952	117.76
241.169	1.02
241.386	87.04
241.603	-1.02
241.821	15.36
242.038	76.8
242.255	78.85
242.472	-11.26
242.689	64.51
242.907	60.42
243.124	99.33
243.341	39.94
243.558	-23.55
243.775	-11.26
243.992	-7.17
244.209	44.03
244.426	168.96
244.643	66.56
244.86	11.26
245.078	99.33
245.295	33.79
245.512	-17.41
245.729	21.5
245.946	68.61
246.163	17.41
246.38	-33.79
246.597	130.05
246.814	3.07
247.031	13.31
247.248	109.57
247.464	87.04
247.681	58.37
247.898	37.89
248.115	175.1
248.332	-48.13
248.549	103.42
248.766	222.2
248.983	125.95
249.2	142.33
249.417	154.62
249.633	3.07
249.85	93.18
250.067	113.66
250.284	103.42
250.501	31.74
250.717	27.65
250.934	-1.02
251.151	39.94
251.368	39.94
251.585	119.81
251.801	74.75
252.018	-9.22
252.235	119.81
252.451	-3.07
252.668	44.03
252.885	31.74
253.102	99.33
253.318	7.17
253.535	37.89
253.752	27.65
253.968	1.02
254.185	-41.98
254.401	-11.26
254.618	37.89
254.835	-50.18
255.051	117.76
255.268	70.65
255.484	41.98
255.701	78.85
255.917	68.61
256.134	76.8
256.351	56.32
256.567	-19.46
256.784	78.85
257	-97.28
257.217	117.76
257.433	99.33
257.65	35.84
257.866	128
258.082	-35.84
258.299	-19.46
258.515	29.7
258.732	9.22
258.948	-56.32
259.165	60.42
259.381	13.31
259.597	111.61
259.814	21.5
260.03	5.12
260.246	-17.41
260.463	130.05
260.679	97.28
260.895	91.13
261.112	89.09
261.328	37.89
261.544	41.98
261.761	109.57
261.977	33.79
262.193	48.13
262.409	95.23
262.626	-15.36
262.842	11.26
263.058	-3.07
263.274	115.71
263.49	125.95
263.707	23.55
263.923	115.71
264.139	-60.42
264.355	41.98
264.571	123.9
264.787	99.33
265.004	89.09
265.22	27.65
265.436	66.56
265.652	-3.07
265.868	66.56
266.084	1.02
266.3	-31.74
266.516	-29.7
266.732	58.37
266.948	117.76
267.164	-44.03
267.38	87.04
267.596	119.81
267.812	113.66
268.028	123.9
268.244	-74.75
268.46	82.94
268.676	25.6
268.892	60.42
269.108	-1.02
269.324	9.22
269.54	-80.89
269.756	41.98
269.972	5.12
270.188	19.46
270.403	-39.94
270.619	35.84
270.835	136.19
271.051	-11.26
271.267	-7.17
271.483	29.7
271.698	115.71
271.914	15.36
272.13	70.65
272.346	70.65
272.562	31.74
272.777	52.22
272.993	52.22
273.209	-31.74
273.425	101.37
273.64	-23.55
273.856	54.27
274.072	-15.36
274.287	-7.17
274.503	9.22
274.719	134.14
274.934	-13.31
275.15	-68.61
275.366	95.23
275.581	-5.12
275.797	39.94
276.012	15.36
276.228	3.07
276.444	41.98
276.659	87.04
276.875	23.55
277.09	70.65
277.306	54.27
277.521	91.13
277.737	99.33
277.952	70.65
278.168	-11.26
278.383	46.08
278.599	7.17
278.814	95.23
279.03	7.17
279.245	74.75
279.461	-15.36
279.676	64.51
279.892	-29.7
280.107	19.46
280.322	-35.84
280.538	44.03
280.753	-41.98
280.969	31.74
281.184	11.26
281.399	87.04
281.615	82.94
281.83	105.47
282.045	-62.46
282.26	-105.47
282.476	-72.7
282.691	156.67
282.906	103.42
283.122	11.26
283.337	-72.7
283.552	89.09
283.767	-48.13
283.983	35.84
284.198	-48.13
284.413	117.76
284.628	-103.42
284.843	44.03
285.058	76.8
285.274	-5.12
285.489	-31.74
285.704	107.52
285.919	23.55
286.134	72.7
286.349	13.31
286.564	17.41
286.779	181.25
286.995	70.65
287.21	-99.33
287.425	41.98
287.64	1.02
287.855	76.8
288.07	-35.84
288.285	166.91
288.5	142.33
288.715	11.26
288.93	11.26
289.145	-9.22
289.36	123.9
289.575	99.33
289.79	185.34
290.004	-37.89
290.219	105.47
290.434	-5.12
290.649	-19.46
290.864	-5.12
291.079	54.27
291.294	105.47
291.509	117.76
291.724	101.37
291.938	58.37
292.153	103.42
292.368	35.84
292.583	-9.22
292.798	134.14
293.012	82.94
293.227	132.09
293.442	-76.8
293.657	181.25
293.871	99.33
294.086	82.94
294.301	164.86
294.516	103.42
294.73	48.13
294.945	-25.6
295.16	119.81
295.374	148.48
295.589	84.99
295.804	39.94
296.018	-46.08
296.233	211.96
296.447	9.22
296.662	72.7
296.877	181.25
297.091	31.74
297.306	1.02
297.52	13.31
297.735	66.56
297.949	-11.26
298.164	48.13
298.378	37.89
298.593	11.26
298.807	-25.6
299.022	5.12
299.236	179.2
299.451	46.08
299.665	64.51
299.88	5.12
300.094	70.65
300.309	48.13
300.523	62.46
300.737	-15.36
300.952	64.51
301.166	41.98
301.381	35.84
301.595	-19.46
301.809	107.52
302.024	29.7
302.238	-15.36
302.452	146.43
302.667	84.99
302.881	222.2
303.095	93.18
303.309	70.65
303.524	27.65
303.738	3.07
303.952	-19.46
304.166	64.51
304.381	-76.8
304.595	93.18
304.809	11.26
305.023	54.27
305.237	-66.56
305.452	105.47
305.666	101.37
305.88	123.9
306.094	183.29
306.308	111.61
306.522	181.25
306.736	62.46
306.95	101.37
307.164	-19.46
307.379	70.65
307.593	95.23
307.807	128
308.021	52.22
308.235	109.57
308.449	-82.94
308.663	29.7
308.877	220.16
309.091	27.65
309.305	9.22
309.519	-76.8
309.733	35.84
309.947	-97.28
310.161	62.46
310.374	130.05
310.588	168.96
310.802	-64.51
311.016	33.79
311.23	58.37
311.444	15.36
311.658	25.6
311.872	87.04
312.085	121.85
312.299	142.33
312.513	132.09
312.727	52.22
312.941	-19.46
313.154	76.8
313.368	46.08
313.582	7.17
313.796	27.65
314.009	9.22
314.223	185.34
314.437	93.18
314.651	105.47
314.864	27.65
315.078	41.98
315.292	-46.08
315.505	-41.98
315.719	148.48
315.933	125.95
316.146	21.5
316.36	-19.46
316.573	84.99
316.787	80.89
317.001	54.27
317.214	-58.37
317.428	62.46
317.641	-44.03
317.855	3.07
318.068	74.75
318.282	-39.94
318.495	166.91
318.709	166.91
318.922	64.51
319.136	183.29
319.349	144.38
319.563	-19.46
319.776	52.22
319.99	-103.42
320.203	107.52
320.417	58.37
320.63	5.12
320.843	207.87
321.057	54.27
321.27	76.8
321.483	54.27
321.697	160.77
321.91	87.04
322.124	-13.31
322.337	82.94
322.55	-11.26
322.763	70.65
322.977	-23.55
323.19	15.36
323.403	66.56
323.617	31.74
323.83	54.27
324.043	-33.79
324.256	84.99
324.469	-33.79
324.683	134.14
324.896	21.5
325.109	3.07
325.322	-74.75
325.535	93.18
325.748	41.98
325.962	158.72
326.175	37.89
326.388	1.02
326.601	166.91
326.814	-54.27
327.027	1.02
327.24	181.25
327.453	-37.89
327.666	183.29
327.879	156.67
328.092	41.98
328.305	39.94
328.518	74.75
328.731	33.79
328.944	5.12
329.157	29.7
329.37	-95.23
329.583	152.57
329.796	121.85
330.009	-27.65
330.222	134.14
330.435	150.53
330.648	41.98
330.861	111.61
331.073	117.76
331.286	89.09
331.499	66.56
331.712	-7.17
331.925	-52.22
332.138	-5.12
332.35	134.14
332.563	-66.56
332.776	117.76
332.989	25.6
333.202	-11.26
333.414	50.18
333.627	52.22
333.84	-5.12
334.053	84.99
334.265	68.61
334.478	-11.26
334.691	68.61
334.903	121.85
335.116	-7.17
335.329	66.56
335.541	37.89
335.754	236.54
335.966	-37.89
336.179	93.18
336.392	-1.02
336.604	-1.02
336.817	162.81
337.029	37.89
337.242	19.46
337.454	105.47
337.667	46.08
337.88	156.67
338.092	74.75
338.305	41.98
338.517	-25.6
338.729	99.33
338.942	175.1
339.154	-31.74
339.367	-66.56
339.579	80.89
339.792	-87.04
340.004	64.51
340.217	46.08
340.429	-17.41
340.641	-3.07
340.854	-60.42
341.066	-25.6
341.278	148.48
341.491	191.49
341.703	56.32
341.915	-11.26
342.128	89.09
342.34	109.57
342.552	-84.99
342.764	35.84
342.977	58.37
343.189	25.6
343.401	80.89
343.613	-58.37
343.826	46.08
344.038	-64.51
344.25	-37.89
344.462	3.07
344.674	119.81
344.886	68.61
345.099	44.03
345.311	91.13
345.523	29.7
345.735	-66.56
345.947	23.55
346.159	87.04
346.371	-19.46
346.583	39.94
346.795	207.87
347.007	84.99
347.219	23.55
347.431	27.65
347.643	109.57
347.855	-35.84
348.067	84.99
348.279	-23.55
348.491	7.17
348.703	66.56
348.915	25.6
349.127	-3.07
349.339	72.7
349.551	13.31
349.763	117.76
349.975	29.7
350.187	84.99
350.399	134.14
350.61	113.66
350.822	31.74
351.034	95.23
351.246	5.12
351.458	95.23
351.669	44.03
351.881	107.52
352.093	107.52
352.305	70.65
352.517	138.24
352.728	125.95
352.94	11.26
353.152	72.7
353.363	-25.6
353.575	160.77
353.787	175.1
353.999	62.46
354.21	123.9
354.422	44.03
354.633	21.5
354.845	48.13
355.057	142.33
355.268	-74.75
355.48	54.27
355.692	-74.75
355.903	-46.08
356.115	-70.65
356.326	-54.27
356.538	150.53
356.749	54.27
356.961	191.49
357.172	93.18
357.384	-7.17
357.595	95.23
357.807	23.55
358.018	-44.03
358.23	21.5
358.441	160.77
358.653	80.89
358.864	66.56
359.075	-23.55
359.287	9.22
359.498	39.94
359.709	107.52
359.921	5.12
360.132	60.42
360.344	-50.18
360.555	76.8
360.766	58.37
360.977	35.84
361.189	46.08
361.4	-19.46
361.611	181.25
361.823	105.47
362.034	48.13
362.245	-99.33
362.456	3.07
362.667	82.94
362.879	-41.98
363.09	3.07
363.301	70.65
363.512	68.61
363.723	70.65
363.935	46.08
364.146	136.19
364.357	-3.07
364.568	-21.5
364.779	-15.36
364.99	132.09
365.201	68.61
365.412	150.53
365.623	-9.22
365.834	25.6
366.045	68.61
366.256	95.23
366.467	93.18
366.678	31.74
366.889	33.79
367.1	54.27
367.311	89.09
367.522	56.32
367.733	105.47
367.944	82.94
368.155	56.32
368.366	95.23
368.577	144.38
368.788	128
368.999	5.12
369.209	44.03
369.42	226.3
369.631	252.92
369.842	128
370.053	-11.26
370.264	146.43
370.474	-31.74
370.685	35.84
370.896	17.41
371.107	132.09
371.317	52.22
371.528	134.14
371.739	224.25
371.95	72.7
372.16	103.42
372.371	-113.66
372.582	78.85
372.792	64.51
373.003	76.8
373.214	41.98
373.424	125.95
373.635	7.17
373.846	111.61
374.056	9.22
374.267	5.12
374.477	105.47
374.688	76.8
374.898	74.75
375.109	-17.41
375.319	82.94
375.53	146.43
375.74	113.66
375.951	25.6
376.161	113.66
376.372	113.66
376.582	37.89
376.793	35.84
377.003	-19.46
377.214	-111.61
377.424	58.37
377.635	27.65
377.845	46.08
378.055	95.23
378.266	-76.8
378.476	-7.17
378.686	31.74
378.897	41.98
379.107	205.82
379.317	80.89
379.528	-25.6
379.738	82.94
379.948	-93.18
380.158	154.62
380.369	56.32
380.579	78.85
380.789	80.89
380.999	97.28
381.21	183.29
381.42	109.57
381.63	-7.17
381.84	177.15
382.05	115.71
382.261	115.71
382.471	121.85
382.681	-1.02
382.891	142.33
383.101	3.07
383.311	-31.74
383.521	-13.31
383.731	-3.07
383.941	195.58
384.151	31.74
384.361	29.7
384.571	76.8
384.781	87.04
384.991	156.67
385.201	291.84
385.411	72.7
385.621	76.8
385.831	80.89
386.041	54.27
386.251	89.09
386.461	109.57
386.671	-21.5
386.881	82.94
387.091	58.37
387.301	84.99
387.511	87.04
387.72	29.7
387.93	89.09
388.14	3.07
388.35	119.81
388.56	173.05
388.769	168.96
388.979	68.61
389.189	-17.41
389.399	111.61
389.609	109.57
389.818	11.26
390.028	54.27
390.238	84.99
390.447	-82.94
390.657	84.99
390.867	29.7
391.076	-31.74
391.286	52.22
391.496	-11.26
391.705	27.65
391.915	177.15
392.125	111.61
392.334	23.55
392.544	87.04
392.753	70.65
392.963	56.32
393.172	41.98
393.382	-5.12
393.591	254.97
393.801	-50.18
394.01	207.87
394.22	117.76
394.429	80.89
394.639	-54.27
394.848	84.99
395.058	13.31
395.267	-15.36
395.477	82.94
395.686	134.14
395.895	193.53
396.105	132.09
396.314	68.61
396.524	97.28
396.733	25.6
396.942	179.2
397.152	52.22
397.361	117.76
397.57	224.25
397.78	52.22
397.989	56.32
398.198	142.33
398.407	-1.02
398.617	35.84
398.826	15.36
399.035	56.32
399.244	101.37
399.453	44.03
399.663	-13.31
399.872	23.55
400.081	17.41
400.29	187.39
400.499	-27.65
400.708	89.09
400.917	44.03
401.127	46.08
401.336	52.22
401.545	201.72
401.754	105.47
401.963	37.89
402.172	52.22
402.381	-25.6
402.59	35.84
402.799	54.27
403.008	97.28
403.217	72.7
403.426	97.28
403.635	-23.55
403.844	-29.7
404.053	44.03
404.262	-19.46
404.471	238.59
404.68	64.51
404.888	7.17
405.097	-60.42
405.306	44.03
405.515	50.18
405.724	17.41
405.933	121.85
406.142	41.98
406.35	240.64
406.559	-25.6
406.768	48.13
406.977	171.01
407.185	68.61
407.394	93.18
407.603	-74.75
407.812	17.41
408.02	101.37
408.229	44.03
408.438	62.46
408.646	-41.98
408.855	52.22
409.064	99.33
409.272	25.6
409.481	142.33
409.69	-46.08
409.898	-66.56
410.107	119.81
410.315	150.53
410.524	35.84
410.733	39.94
410.941	-23.55
411.15	39.94
411.358	19.46
411.567	154.62
411.775	37.89
411.984	1.02
412.192	158.72
412.401	54.27
412.609	125.95
412.818	158.72
413.026	107.52
413.234	25.6
413.443	107.52
413.651	-23.55
413.86	66.56
414.068	193.53
414.276	201.72
414.485	7.17
414.693	164.86
414.901	207.87
415.11	64.51
415.318	62.46
415.526	130.05
415.734	136.19
415.943	93.18
416.151	166.91
416.359	29.7
416.567	70.65
416.776	89.09
416.984	144.38
417.192	179.2
417.4	-5.12
417.608	13.31
417.817	-70.65
418.025	144.38
418.233	222.2
418.441	39.94
418.649	-27.65
418.857	66.56
419.065	119.81
419.273	-3.07
419.481	107.52
419.689	62.46
419.897	54.27
420.105	-27.65
420.313	78.85
420.521	156.67
420.729	128
420.937	-11.26
421.145	-23.55
421.353	87.04
421.561	254.97
421.769	80.89
421.977	95.23
422.185	25.6
422.393	41.98
422.601	107.52
422.809	84.99
423.017	31.74
423.224	50.18
423.432	87.04
423.64	11.26
423.848	109.57
424.056	27.65
424.263	136.19
424.471	93.18
424.679	150.53
424.887	-46.08
425.094	107.52
425.302	95.23
425.51	66.56
425.718	142.33
425.925	78.85
426.133	37.89
426.341	332.79
426.548	89.09
426.756	17.41
426.964	97.28
427.171	58.37
427.379	82.94
427.586	-3.07
427.794	80.89
428.001	160.77
428.209	72.7
428.417	162.81
428.624	150.53
428.832	84.99
429.039	115.71
429.247	164.86
429.454	97.28
429.662	283.64
429.869	91.13
430.076	80.89
430.284	134.14
430.491	271.36
430.699	87.04
430.906	240.64
431.114	84.99
431.321	150.53
431.528	181.25
431.736	150.53
431.943	173.05
432.15	234.49
432.358	232.44
432.565	320.51
432.772	74.75
432.979	261.12
433.187	54.27
433.394	279.55
433.601	119.81
433.808	240.64
434.016	234.49
434.223	248.83
434.43	197.63
434.637	312.32
434.844	300.03
435.052	177.15
435.259	250.88
435.466	297.98
435.673	254.97
435.88	246.78
436.087	320.51
436.294	326.65
436.501	316.41
436.708	271.36
436.915	304.12
437.122	394.23
437.329	238.59
437.537	351.23
437.743	334.84
437.95	467.96
438.157	328.7
438.364	367.61
438.571	304.12
438.778	472.06
438.985	541.69
439.192	541.69
439.399	453.63
439.606	527.35
439.813	484.34
440.02	560.12
440.227	664.57
440.433	562.17
440.64	596.98
440.847	500.73
441.054	562.17
441.261	726
441.467	576.5
441.674	648.18
441.881	740.34
442.088	654.33
442.294	818.16
442.501	762.87
442.708	869.36
442.914	740.34
443.121	885.75
443.328	838.64
443.534	812.02
443.741	867.31
443.948	752.63
444.154	1018.86
444.361	1182.7
444.568	1014.77
444.774	1063.92
444.981	1074.16
445.187	1188.85
445.394	1115.12
445.6	1246.19
445.807	1362.92
446.013	1199.09
446.22	1270.76
446.426	1444.84
446.633	1455.08
446.839	1643.49
447.046	1571.82
447.252	1623.02
447.459	1567.72
447.665	1594.34
447.871	1838.05
448.078	1952.74
448.284	1852.39
448.491	1973.22
448.697	2073.57
448.903	2147.3
449.11	2249.69
449.316	2100.19
449.522	2345.95
449.728	2577.37
449.935	2501.59
450.141	2454.49
450.347	2831.32
450.553	2714.58
450.76	2835.41
450.966	3001.3
451.172	3050.45
451.378	3025.87
451.584	3187.66
451.791	3406.8
451.997	3591.11
452.203	3580.87
452.409	3701.7
452.615	3976.13
452.821	3826.63
453.027	3802.05
453.233	4422.59
453.44	4205.5
453.646	4481.98
453.852	4621.24
454.058	4791.22
454.264	4934.58
454.47	5333.93
454.676	5219.25
454.882	5794.73
455.088	5598.12
455.294	5821.35
455.5	6181.79
455.705	6558.62
455.911	6532
456.117	6749.08
456.323	6917.01
456.529	6939.54
456.735	7680.91
456.941	7783.31
457.147	8180.61
457.352	8246.15
457.558	8571.77
457.764	9149.3
457.97	9298.8
458.176	9634.67
458.381	10079.08
458.587	10607.45
458.793	10965.85
458.999	10746.72
459.204	12286.79
459.41	12641.09
459.616	12389.19
459.821	13347.64
460.027	13703.98
460.233	14463.78
460.438	14459.68
460.644	15463.19
460.85	15112.99
461.055	16132.87
461.261	16923.39
461.466	16503.56
461.672	16861.95
461.878	18643.68
462.083	18436.84
462.289	18797.28
462.494	19749.59
462.7	19757.78
462.905	20171.47
463.111	21768.88
463.316	22610.6
463.522	23333.53
463.727	24027.79
463.932	24736.39
464.138	25576.06
464.343	26536.56
464.549	26915.43
464.754	28498.51
464.959	29678.14
465.165	29854.26
465.37	29346.37
465.575	29647.42
465.781	31754.78
465.986	32750.09
466.191	32154.13
466.397	32340.5
466.602	31650.33
466.807	33481.22
467.012	33962.49
467.218	34628.08
467.423	34980.33
467.628	35809.76
467.833	37472.71
468.038	36800.97
468.244	36561.36
468.449	38089.15
468.654	37345.73
