Data from USB4F104151__13__10-41-46-487.txt Node

Date: Wed Feb 26 10:41:46 EST 2025
User: louis
Spectrometer: USB4F10415
Trigger mode: 4
Integration Time (sec): 1.000000E-1
Scans to average: 1
Electric dark correction enabled: true
Nonlinearity correction enabled: false
Boxcar width: 0
XAxis mode: Wavelengths
Number of Pixels in Spectrum: 3648
>>>>>Begin Spectral Data<<<<<
178.204	-349.52
178.424	-349.52
178.644	-349.52
178.864	-316.75
179.084	-427.34
179.304	-87.38
179.524	-25.94
179.744	-15.7
179.964	86.7
180.184	0.68
180.404	76.46
180.624	-7.51
180.844	-1.37
181.064	-95.57
181.283	0.68
181.503	-17.75
181.723	86.7
181.943	-38.23
182.163	178.86
182.383	47.79
182.602	33.45
182.822	109.22
183.042	53.93
183.262	-46.42
183.482	21.16
183.701	-11.61
183.921	47.79
184.141	-13.65
184.361	15.02
184.58	101.03
184.8	10.92
185.02	12.97
185.239	58.03
185.459	148.14
185.679	164.52
185.898	10.92
186.118	55.98
186.338	113.32
186.557	66.22
186.777	10.92
186.997	4.78
187.216	109.22
187.436	187.05
187.655	88.75
187.875	115.37
188.095	43.69
188.314	68.27
188.534	109.22
188.753	-126.29
188.973	135.85
189.192	113.32
189.412	27.31
189.631	-1.37
189.851	146.09
190.07	123.56
190.29	-71
190.509	-75.09
190.729	51.88
190.948	193.19
191.168	342.69
191.387	64.17
191.607	6.83
191.826	90.79
192.045	70.31
192.265	45.74
192.484	96.94
192.704	-27.99
192.923	-46.42
193.142	213.67
193.362	133.8
193.581	166.57
193.8	98.99
194.02	113.32
194.239	49.83
194.458	105.13
194.678	86.7
194.897	109.22
195.116	103.08
195.335	21.16
195.555	74.41
195.774	66.22
195.993	213.67
196.212	-38.23
196.432	53.93
196.651	98.99
196.87	92.84
197.089	246.44
197.308	80.55
197.528	113.32
197.747	-32.08
197.966	58.03
198.185	195.24
198.404	8.87
198.623	127.66
198.842	191.14
199.062	131.75
199.281	146.09
199.5	21.16
199.719	107.18
199.938	117.42
200.157	43.69
200.376	158.38
200.595	49.83
200.814	144.04
201.033	10.92
201.252	131.75
201.471	88.75
201.69	19.11
201.909	47.79
202.128	135.85
202.347	84.65
202.566	0.68
202.785	-32.08
203.004	86.7
203.223	168.62
203.442	109.22
203.661	-5.46
203.879	121.51
204.098	148.14
204.317	-44.37
204.536	119.46
204.755	144.04
204.974	131.75
205.193	-7.51
205.411	199.34
205.63	39.59
205.849	152.23
206.068	49.83
206.287	-50.52
206.505	115.37
206.724	119.46
206.943	21.16
207.162	8.87
207.381	55.98
207.599	117.42
207.818	6.83
208.037	4.78
208.255	-38.23
208.474	62.12
208.693	68.27
208.911	-25.94
209.13	146.09
209.349	92.84
209.567	109.22
209.786	117.42
210.005	127.66
210.223	125.61
210.442	-87.38
210.661	23.21
210.879	68.27
211.098	70.31
211.316	98.99
211.535	154.28
211.753	84.65
211.972	150.18
212.191	74.41
212.409	-7.51
212.628	150.18
212.846	-5.46
213.065	144.04
213.283	162.47
213.502	117.42
213.72	43.69
213.938	60.07
214.157	35.5
214.375	109.22
214.594	80.55
214.812	178.86
215.031	33.45
215.249	60.07
215.467	135.85
215.686	125.61
215.904	127.66
216.122	53.93
216.341	191.14
216.559	105.13
216.778	137.9
216.996	121.51
217.214	70.31
217.432	43.69
217.651	8.87
217.869	66.22
218.087	72.36
218.306	21.16
218.524	29.35
218.742	60.07
218.96	127.66
219.179	-36.18
219.397	111.27
219.615	266.92
219.833	135.85
220.051	64.17
220.27	90.79
220.488	144.04
220.706	92.84
220.924	12.97
221.142	49.83
221.36	133.8
221.578	117.42
221.796	68.27
222.015	27.31
222.233	0.68
222.451	172.71
222.669	49.83
222.887	15.02
223.105	19.11
223.323	-7.51
223.541	-36.18
223.759	96.94
223.977	39.59
224.195	74.41
224.413	207.53
224.631	80.55
224.849	127.66
225.067	213.67
225.285	31.4
225.503	76.46
225.721	53.93
225.939	76.46
226.157	51.88
226.375	244.39
226.592	60.07
226.81	62.12
227.028	96.94
227.246	162.47
227.464	31.4
227.682	125.61
227.9	111.27
228.117	49.83
228.335	109.22
228.553	90.79
228.771	33.45
228.989	68.27
229.206	62.12
229.424	129.7
229.642	-7.51
229.86	-9.56
230.077	160.42
230.295	70.31
230.513	137.9
230.731	105.13
230.948	164.52
231.166	139.94
231.384	70.31
231.601	15.02
231.819	203.43
232.037	-40.28
232.254	-15.7
232.472	-17.75
232.689	-11.61
232.907	166.57
233.125	78.51
233.342	-5.46
233.56	8.87
233.777	-9.56
233.995	58.03
234.213	103.08
234.43	133.8
234.648	-32.08
234.865	47.79
235.083	107.18
235.3	98.99
235.518	105.13
235.735	152.23
235.953	66.22
236.17	80.55
236.388	6.83
236.605	115.37
236.822	129.7
237.04	156.33
237.257	105.13
237.475	33.45
237.692	76.46
237.909	131.75
238.127	4.78
238.344	94.89
238.562	105.13
238.779	55.98
238.996	27.31
239.214	88.75
239.431	53.93
239.648	27.31
239.865	121.51
240.083	174.76
240.3	29.35
240.517	94.89
240.735	15.02
240.952	127.66
241.169	90.79
241.386	98.99
241.603	84.65
241.821	-71
242.038	68.27
242.255	172.71
242.472	25.26
242.689	70.31
242.907	176.81
243.124	86.7
243.341	29.35
243.558	6.83
243.775	6.83
243.992	-77.14
244.209	84.65
244.426	193.19
244.643	92.84
244.86	62.12
245.078	129.7
245.295	86.7
245.512	72.36
245.729	-1.37
245.946	82.6
246.163	78.51
246.38	17.07
246.597	121.51
246.814	62.12
247.031	53.93
247.248	51.88
247.464	58.03
247.681	170.66
247.898	80.55
248.115	58.03
248.332	39.59
248.549	70.31
248.766	172.71
248.983	47.79
249.2	109.22
249.417	123.56
249.633	45.74
249.85	12.97
250.067	88.75
250.284	101.03
250.501	70.31
250.717	45.74
250.934	-54.61
251.151	-25.94
251.368	2.73
251.585	94.89
251.801	92.84
252.018	43.69
252.235	131.75
252.451	-9.56
252.668	78.51
252.885	178.86
253.102	29.35
253.318	70.31
253.535	35.5
253.752	43.69
253.968	-71
254.185	-21.85
254.401	60.07
254.618	58.03
254.835	-5.46
255.051	129.7
255.268	152.23
255.484	98.99
255.701	68.27
255.917	101.03
256.134	19.11
256.351	25.26
256.567	-73.04
256.784	92.84
257	19.11
257.217	178.86
257.433	141.99
257.65	31.4
257.866	162.47
258.082	-5.46
258.299	31.4
258.515	135.85
258.732	6.83
258.948	23.21
259.165	125.61
259.381	23.21
259.597	127.66
259.814	66.22
260.03	82.6
260.246	33.45
260.463	92.84
260.679	197.29
260.895	6.83
261.112	84.65
261.328	33.45
261.544	33.45
261.761	271.01
261.977	39.59
262.193	35.5
262.409	98.99
262.626	86.7
262.842	76.46
263.058	-44.37
263.274	68.27
263.49	78.51
263.707	62.12
263.923	121.51
264.139	-3.41
264.355	76.46
264.571	78.51
264.787	133.8
265.004	141.99
265.22	-7.51
265.436	45.74
265.652	-5.46
265.868	60.07
266.084	-5.46
266.3	80.55
266.516	25.26
266.732	94.89
266.948	49.83
267.164	60.07
267.38	160.42
267.596	62.12
267.812	135.85
268.028	82.6
268.244	35.5
268.46	84.65
268.676	6.83
268.892	80.55
269.108	17.07
269.324	10.92
269.54	-15.7
269.756	78.51
269.972	43.69
270.188	101.03
270.403	-1.37
270.619	98.99
270.835	154.28
271.051	92.84
271.267	-3.41
271.483	-40.28
271.698	123.56
271.914	84.65
272.13	64.17
272.346	43.69
272.562	98.99
272.777	240.3
272.993	-38.23
273.209	-23.89
273.425	51.88
273.64	0.68
273.856	80.55
274.072	6.83
274.287	17.07
274.503	78.51
274.719	164.52
274.934	49.83
275.15	-21.85
275.366	66.22
275.581	-3.41
275.797	72.36
276.012	51.88
276.228	45.74
276.444	47.79
276.659	156.33
276.875	-34.13
277.09	47.79
277.306	29.35
277.521	72.36
277.737	25.26
277.952	160.42
278.168	72.36
278.383	78.51
278.599	125.61
278.814	152.23
279.03	103.08
279.245	117.42
279.461	33.45
279.676	35.5
279.892	43.69
280.107	37.55
280.322	45.74
280.538	176.81
280.753	10.92
280.969	105.13
281.184	86.7
281.399	215.72
281.615	39.59
281.83	182.95
282.045	-62.8
282.26	103.08
282.476	70.31
282.691	53.93
282.906	162.47
283.122	92.84
283.337	64.17
283.552	58.03
283.767	98.99
283.983	111.27
284.198	37.55
284.413	33.45
284.628	6.83
284.843	94.89
285.058	201.38
285.274	-44.37
285.489	35.5
285.704	33.45
285.919	82.6
286.134	53.93
286.349	119.46
286.564	51.88
286.779	170.66
286.995	70.31
287.21	58.03
287.425	125.61
287.64	25.26
287.855	72.36
288.07	-9.56
288.285	129.7
288.5	203.43
288.715	68.27
288.93	17.07
289.145	-50.52
289.36	174.76
289.575	-17.75
289.79	146.09
290.004	-56.66
290.219	158.38
290.434	10.92
290.649	94.89
290.864	62.12
291.079	41.64
291.294	103.08
291.509	78.51
291.724	17.07
291.938	60.07
292.153	66.22
292.368	80.55
292.583	49.83
292.798	131.75
293.012	123.56
293.227	158.38
293.442	119.46
293.657	166.57
293.871	135.85
294.086	101.03
294.301	172.71
294.516	191.14
294.73	43.69
294.945	23.21
295.16	27.31
295.374	164.52
295.589	131.75
295.804	-1.37
296.018	96.94
296.233	217.77
296.447	27.31
296.662	25.26
296.877	207.53
297.091	88.75
297.306	35.5
297.52	33.45
297.735	109.22
297.949	39.59
298.164	45.74
298.378	47.79
298.593	-13.65
298.807	-15.7
299.022	76.46
299.236	215.72
299.451	4.78
299.665	80.55
299.88	76.46
300.094	121.51
300.309	17.07
300.523	90.79
300.737	-9.56
300.952	152.23
301.166	86.7
301.381	90.79
301.595	-11.61
301.809	58.03
302.024	88.75
302.238	-17.75
302.452	129.7
302.667	21.16
302.881	176.81
303.095	111.27
303.309	66.22
303.524	-38.23
303.738	103.08
303.952	55.98
304.166	51.88
304.381	-56.66
304.595	146.09
304.809	-11.61
305.023	47.79
305.237	21.16
305.452	101.03
305.666	49.83
305.88	137.9
306.094	152.23
306.308	144.04
306.522	127.66
306.736	80.55
306.95	127.66
307.164	31.4
307.379	33.45
307.593	111.27
307.807	162.47
308.021	82.6
308.235	60.07
308.449	-68.95
308.663	35.5
308.877	250.53
309.091	72.36
309.305	92.84
309.519	-23.89
309.733	219.82
309.947	-87.38
310.161	29.35
310.374	119.46
310.588	217.77
310.802	-9.56
311.016	92.84
311.23	109.22
311.444	27.31
311.658	88.75
311.872	101.03
312.085	166.57
312.299	225.96
312.513	166.57
312.727	68.27
312.941	-3.41
313.154	98.99
313.368	80.55
313.582	105.13
313.796	74.41
314.009	43.69
314.223	131.75
314.437	123.56
314.651	154.28
314.864	-5.46
315.078	84.65
315.292	-101.72
315.505	-25.94
315.719	158.38
315.933	90.79
316.146	58.03
316.36	-19.8
316.573	137.9
316.787	98.99
317.001	41.64
317.214	-52.56
317.428	86.7
317.641	6.83
317.855	43.69
318.068	53.93
318.282	66.22
318.495	277.16
318.709	51.88
318.922	27.31
319.136	139.94
319.349	109.22
319.563	60.07
319.776	203.43
319.99	-54.61
320.203	141.99
320.417	96.94
320.63	125.61
320.843	260.77
321.057	127.66
321.27	96.94
321.483	182.95
321.697	191.14
321.91	125.61
322.124	27.31
322.337	154.28
322.55	23.21
322.763	2.73
322.977	47.79
323.19	-25.94
323.403	86.7
323.617	121.51
323.83	174.76
324.043	78.51
324.256	27.31
324.469	-19.8
324.683	125.61
324.896	84.65
325.109	12.97
325.322	-66.9
325.535	117.42
325.748	154.28
325.962	84.65
326.175	66.22
326.388	115.37
326.601	176.81
326.814	74.41
327.027	162.47
327.24	180.9
327.453	-68.95
327.666	148.14
327.879	111.27
328.092	103.08
328.305	88.75
328.518	66.22
328.731	2.73
328.944	78.51
329.157	88.75
329.37	64.17
329.583	187.05
329.796	144.04
330.009	-34.13
330.222	139.94
330.435	107.18
330.648	12.97
330.861	78.51
331.073	12.97
331.286	125.61
331.499	53.93
331.712	-9.56
331.925	98.99
332.138	47.79
332.35	84.65
332.563	0.68
332.776	174.76
332.989	23.21
333.202	51.88
333.414	12.97
333.627	80.55
333.84	82.6
334.053	29.35
334.265	35.5
334.478	58.03
334.691	70.31
334.903	158.38
335.116	78.51
335.329	-23.89
335.541	144.04
335.754	180.9
335.966	94.89
336.179	101.03
336.392	84.65
336.604	55.98
336.817	152.23
337.029	49.83
337.242	76.46
337.454	111.27
337.667	78.51
337.88	185
338.092	98.99
338.305	76.46
338.517	103.08
338.729	137.9
338.942	213.67
339.154	-3.41
339.367	45.74
339.579	45.74
339.792	27.31
340.004	70.31
340.217	53.93
340.429	119.46
340.641	80.55
340.854	31.4
341.066	35.5
341.278	115.37
341.491	109.22
341.703	82.6
341.915	-11.61
342.128	164.52
342.34	146.09
342.552	-62.8
342.764	-30.04
342.977	60.07
343.189	88.75
343.401	80.55
343.613	-58.71
343.826	90.79
344.038	-30.04
344.25	150.18
344.462	-7.51
344.674	111.27
344.886	84.65
345.099	101.03
345.311	51.88
345.523	41.64
345.735	-62.8
345.947	43.69
346.159	117.42
346.371	23.21
346.583	66.22
346.795	248.49
347.007	109.22
347.219	-23.89
347.431	6.83
347.643	172.71
347.855	47.79
348.067	193.19
348.279	4.78
348.491	6.83
348.703	107.18
348.915	2.73
349.127	29.35
349.339	53.93
349.551	55.98
349.763	60.07
349.975	60.07
350.187	131.75
350.399	80.55
350.61	131.75
350.822	43.69
351.034	117.42
351.246	88.75
351.458	94.89
351.669	94.89
351.881	86.7
352.093	141.99
352.305	35.5
352.517	84.65
352.728	193.19
352.94	64.17
353.152	141.99
353.363	76.46
353.575	131.75
353.787	154.28
353.999	66.22
354.21	254.63
354.422	31.4
354.633	-13.65
354.845	31.4
355.057	123.56
355.268	76.46
355.48	96.94
355.692	15.02
355.903	25.26
356.115	-48.47
356.326	-50.52
356.538	109.22
356.749	135.85
356.961	123.56
357.172	23.21
357.384	-7.51
357.595	209.58
357.807	64.17
358.018	64.17
358.23	29.35
358.441	240.3
358.653	60.07
358.864	96.94
359.075	-7.51
359.287	152.23
359.498	164.52
359.709	103.08
359.921	8.87
360.132	113.32
360.344	37.55
360.555	66.22
360.766	37.55
360.977	2.73
361.189	115.37
361.4	72.36
361.611	174.76
361.823	223.91
362.034	86.7
362.245	-68.95
362.456	15.02
362.667	133.8
362.879	35.5
363.09	15.02
363.301	43.69
363.512	-17.75
363.723	35.5
363.935	68.27
364.146	152.23
364.357	125.61
364.568	121.51
364.779	-46.42
364.99	160.42
365.201	-30.04
365.412	174.76
365.623	-9.56
365.834	37.55
366.045	29.35
366.256	187.05
366.467	129.7
366.678	68.27
366.889	62.12
367.1	51.88
367.311	96.94
367.522	29.35
367.733	53.93
367.944	92.84
368.155	94.89
368.366	185
368.577	123.56
368.788	141.99
368.999	33.45
369.209	94.89
369.42	244.39
369.631	287.4
369.842	168.62
370.053	68.27
370.264	185
370.474	17.07
370.685	76.46
370.896	31.4
371.107	205.48
371.317	127.66
371.528	-1.37
371.739	189.1
371.95	109.22
372.16	107.18
372.371	-1.37
372.582	25.26
372.792	127.66
373.003	115.37
373.214	80.55
373.424	121.51
373.635	68.27
373.846	172.71
374.056	27.31
374.267	105.13
374.477	119.46
374.688	58.03
374.898	53.93
375.109	84.65
375.319	94.89
375.53	131.75
375.74	154.28
375.951	33.45
376.161	139.94
376.372	135.85
376.582	58.03
376.793	82.6
377.003	21.16
377.214	60.07
377.424	123.56
377.635	66.22
377.845	53.93
378.055	213.67
378.266	4.78
378.476	47.79
378.686	113.32
378.897	135.85
379.107	170.66
379.317	154.28
379.528	45.74
379.738	137.9
379.948	-25.94
380.158	166.57
380.369	-15.7
380.579	197.29
380.789	15.02
380.999	92.84
381.21	119.46
381.42	215.72
381.63	15.02
381.84	125.61
382.05	127.66
382.261	109.22
382.471	123.56
382.681	43.69
382.891	199.34
383.101	154.28
383.311	10.92
383.521	35.5
383.731	166.57
383.941	199.34
384.151	131.75
384.361	31.4
384.571	74.41
384.781	96.94
384.991	260.77
385.201	166.57
385.411	107.18
385.621	84.65
385.831	82.6
386.041	139.94
386.251	62.12
386.461	168.62
386.671	53.93
386.881	74.41
387.091	21.16
387.301	103.08
387.511	2.73
387.72	94.89
387.93	117.42
388.14	64.17
388.35	103.08
388.56	185
388.769	148.14
388.979	37.55
389.189	33.45
389.399	58.03
389.609	92.84
389.818	197.29
390.028	60.07
390.238	105.13
390.447	-15.7
390.657	109.22
390.867	68.27
391.076	-79.19
391.286	115.37
391.496	103.08
391.705	41.64
391.915	125.61
392.125	182.95
392.334	60.07
392.544	178.86
392.753	129.7
392.963	33.45
393.172	55.98
393.382	66.22
393.591	248.49
393.801	23.21
394.01	189.1
394.22	109.22
394.429	68.27
394.639	68.27
394.848	152.23
395.058	139.94
395.267	162.47
395.477	105.13
395.686	94.89
395.895	203.43
396.105	193.19
396.314	107.18
396.524	27.31
396.733	185
396.942	170.66
397.152	37.55
397.361	215.72
397.57	111.27
397.78	156.33
397.989	96.94
398.198	228.01
398.407	135.85
398.617	92.84
398.826	109.22
399.035	133.8
399.244	41.64
399.453	90.79
399.663	98.99
399.872	150.18
400.081	-25.94
400.29	205.48
400.499	-36.18
400.708	197.29
400.917	43.69
401.127	72.36
401.336	29.35
401.545	250.53
401.754	82.6
401.963	185
402.172	2.73
402.381	-5.46
402.59	51.88
402.799	23.21
403.008	230.06
403.217	88.75
403.426	191.14
403.635	6.83
403.844	125.61
404.053	17.07
404.262	58.03
404.471	199.34
404.68	166.57
404.888	70.31
405.097	43.69
405.306	82.6
405.515	172.71
405.724	90.79
405.933	137.9
406.142	125.61
406.35	113.32
406.559	74.41
406.768	64.17
406.977	162.47
407.185	133.8
407.394	131.75
407.603	10.92
407.812	96.94
408.02	162.47
408.229	105.13
408.438	60.07
408.646	6.83
408.855	121.51
409.064	58.03
409.272	15.02
409.481	162.47
409.69	-21.85
409.898	-13.65
410.107	86.7
410.315	123.56
410.524	-9.56
410.733	62.12
410.941	92.84
411.15	113.32
411.358	64.17
411.567	148.14
411.775	53.93
411.984	137.9
412.192	154.28
412.401	17.07
412.609	258.73
412.818	156.33
413.026	109.22
413.234	70.31
413.443	101.03
413.651	19.11
413.86	74.41
414.068	213.67
414.276	205.48
414.485	53.93
414.693	166.57
414.901	189.1
415.11	137.9
415.318	51.88
415.526	60.07
415.734	205.48
415.943	92.84
416.151	182.95
416.359	105.13
416.567	125.61
416.776	119.46
416.984	119.46
417.192	135.85
417.4	113.32
417.608	29.35
417.817	49.83
418.025	154.28
418.233	185
418.441	15.02
418.649	-21.85
418.857	105.13
419.065	250.53
419.273	96.94
419.481	82.6
419.689	90.79
419.897	19.11
420.105	25.26
420.313	180.9
420.521	176.81
420.729	158.38
420.937	94.89
421.145	-40.28
421.353	174.76
421.561	287.4
421.769	156.33
421.977	49.83
422.185	164.52
422.393	39.59
422.601	180.9
422.809	213.67
423.017	146.09
423.224	72.36
423.432	119.46
423.64	96.94
423.848	189.1
424.056	72.36
424.263	203.43
424.471	101.03
424.679	166.57
424.887	37.55
425.094	215.72
425.302	88.75
425.51	148.14
425.718	125.61
425.925	135.85
426.133	64.17
426.341	193.19
426.548	111.27
426.756	189.1
426.964	125.61
427.171	127.66
427.379	129.7
427.586	176.81
427.794	189.1
428.001	205.48
428.209	146.09
428.417	287.4
428.624	217.77
428.832	62.12
429.039	96.94
429.247	154.28
429.454	189.1
429.662	238.25
429.869	213.67
430.076	193.19
430.284	174.76
430.491	283.3
430.699	303.78
430.906	221.86
431.114	168.62
431.321	150.18
431.528	189.1
431.736	180.9
431.943	209.58
432.15	242.34
432.358	217.77
432.565	342.69
432.772	115.37
432.979	234.15
433.187	176.81
433.394	248.49
433.601	223.91
433.808	219.82
434.016	316.07
434.223	342.69
434.43	250.53
434.637	365.22
434.844	326.31
435.052	281.25
435.259	344.74
435.466	309.93
435.673	318.12
435.88	449.19
436.087	514.72
436.294	387.75
436.501	412.32
436.708	320.17
436.915	363.17
437.122	457.38
437.329	428.71
437.537	451.24
437.743	371.36
437.95	658.08
438.157	496.29
438.364	496.29
438.571	473.76
438.778	604.83
438.985	639.65
439.192	617.12
439.399	615.07
439.606	629.41
439.813	672.42
440.02	764.57
440.227	869.02
440.433	733.86
440.64	715.42
440.847	625.31
441.054	768.67
441.261	965.28
441.467	776.86
441.674	727.71
441.881	924.32
442.088	830.11
442.294	922.27
442.501	961.18
442.708	1084.06
442.914	1018.52
443.121	1098.39
443.328	1127.07
443.534	1254.04
443.741	1157.78
443.948	1186.46
444.154	1260.18
444.361	1495.7
444.568	1309.33
444.774	1315.48
444.981	1417.88
445.187	1577.62
445.394	1536.66
445.6	1505.94
445.807	1655.44
446.013	1747.6
446.22	1700.5
446.426	1882.77
446.633	1985.16
446.839	2138.76
447.046	1880.72
447.252	2138.76
447.459	2103.95
447.665	2239.11
447.871	2339.46
448.078	2466.44
448.284	2448.01
448.491	2742.91
448.697	2724.48
448.903	2775.68
449.11	2800.26
449.316	2855.55
449.522	3166.84
449.728	3195.51
449.935	3410.55
450.141	3215.99
450.347	3564.15
450.553	3484.28
450.76	3746.42
450.966	3883.63
451.172	3938.93
451.378	4233.83
451.584	4291.18
451.791	4627.04
451.997	4627.04
452.203	4727.39
452.409	4971.1
452.615	5114.46
452.821	5032.54
453.027	5106.27
453.233	5544.53
453.44	5597.78
453.646	5872.21
453.852	6042.19
454.058	6398.54
454.264	6578.76
454.47	7025.22
454.676	7033.41
454.882	7508.54
455.088	7342.65
455.294	7684.66
455.5	8155.69
455.705	8436.27
455.911	8602.15
456.117	8614.44
456.323	9396.76
456.529	9255.45
456.735	10193.42
456.941	10363.4
457.147	10584.59
457.352	10881.54
457.558	11188.74
457.764	11901.43
457.97	12284.4
458.176	12861.93
458.381	13474.27
458.587	13564.38
458.793	14272.98
458.999	14143.95
459.204	16234.93
459.41	16544.17
459.616	16382.38
459.821	17396.13
460.027	18102.68
460.233	18698.64
460.438	19091.85
460.644	20078.97
460.85	20287.86
461.055	21295.46
461.261	21948.76
461.466	21756.25
461.672	22073.69
461.878	24629.55
462.083	24316.22
462.289	25229.61
462.494	25817.38
462.7	25907.49
462.905	26603.8
463.111	28733.68
463.316	29890.79
463.522	30404.83
463.727	31621.32
463.932	32456.89
464.138	33595.56
464.343	35354.77
464.549	35274.9
464.754	37496.94
464.959	38361.19
465.165	39118.93
465.37	39333.97
465.575	39192.66
465.781	41234.49
465.986	43094.04
466.191	42289.19
466.397	42373.16
466.602	41844.78
466.807	43950.09
467.012	44603.39
467.218	45576.18
467.423	45592.56
