Data from USB4F104151__226__11-06-12-826.txt Node

Date: Wed Feb 26 11:06:12 EST 2025
User: louis
Spectrometer: USB4F10415
Trigger mode: 4
Integration Time (sec): 1.000000E-1
Scans to average: 1
Electric dark correction enabled: true
Nonlinearity correction enabled: false
Boxcar width: 0
XAxis mode: Wavelengths
Number of Pixels in Spectrum: 3648
>>>>>Begin Spectral Data<<<<<
178.204	-481.44
178.424	-481.44
178.644	-481.44
178.864	-448.68
179.084	-477.35
179.304	46.93
179.524	-49.32
179.744	-55.47
179.964	-8.36
180.184	-2.22
180.404	73.56
180.624	-28.84
180.844	10.07
181.064	-77.99
181.283	100.18
181.503	-57.51
181.723	48.98
181.943	-84.14
182.163	159.57
182.383	-57.51
182.602	104.28
182.822	83.8
183.042	22.36
183.262	-80.04
183.482	48.98
183.701	34.64
183.921	24.4
184.141	-57.51
184.361	106.32
184.58	130.9
184.8	34.64
185.02	-80.04
185.239	112.47
185.459	55.12
185.679	116.56
185.898	-108.71
186.118	-2.22
186.338	42.84
186.557	108.37
186.777	-108.71
186.997	-39.08
187.216	167.76
187.436	155.47
187.655	46.93
187.875	28.5
188.095	44.88
188.314	167.76
188.534	96.08
188.753	-49.32
188.973	57.17
189.192	182.1
189.412	34.64
189.631	46.93
189.851	44.88
190.07	132.95
190.29	-32.94
190.509	-18.6
190.729	24.4
190.948	102.23
191.168	192.34
191.387	91.99
191.607	38.74
191.826	46.93
192.045	-6.31
192.265	-14.51
192.484	67.41
192.704	77.65
192.923	-88.23
193.142	153.43
193.362	96.08
193.581	141.14
193.8	81.75
194.02	108.37
194.239	53.08
194.458	75.6
194.678	30.55
194.897	-6.31
195.116	44.88
195.335	5.97
195.555	42.84
195.774	14.17
195.993	139.09
196.212	22.36
196.432	1.88
196.651	-0.17
196.87	57.17
197.089	321.36
197.308	44.88
197.528	69.46
197.747	-20.65
197.966	24.4
198.185	147.28
198.404	-14.51
198.623	85.84
198.842	110.42
199.062	91.99
199.281	130.9
199.5	24.4
199.719	122.71
199.938	5.97
200.157	20.31
200.376	175.95
200.595	32.6
200.814	40.79
201.033	-4.27
201.252	169.81
201.471	128.85
201.69	71.51
201.909	55.12
202.128	112.47
202.347	71.51
202.566	3.93
202.785	-20.65
203.004	-0.17
203.223	259.92
203.442	32.6
203.661	3.93
203.879	38.74
204.098	24.4
204.317	-26.79
204.536	89.94
204.755	137.04
204.974	59.22
205.193	-2.22
205.411	126.8
205.63	114.52
205.849	14.17
206.068	-24.75
206.287	16.21
206.505	153.43
206.724	81.75
206.943	14.17
207.162	-16.55
207.381	-2.22
207.599	48.98
207.818	10.07
208.037	-88.23
208.255	40.79
208.474	91.99
208.693	18.26
208.911	34.64
209.13	1.88
209.349	100.18
209.567	32.6
209.786	89.94
210.005	108.37
210.223	10.07
210.442	-94.38
210.661	-49.32
210.879	38.74
211.098	59.22
211.316	20.31
211.535	94.04
211.753	26.45
211.972	112.47
212.191	1.88
212.409	-4.27
212.628	120.66
212.846	-14.51
213.065	-6.31
213.283	96.08
213.502	-82.09
213.72	16.21
213.938	22.36
214.157	-2.22
214.375	153.43
214.594	44.88
214.812	51.03
215.031	1.88
215.249	87.89
215.467	40.79
215.686	36.69
215.904	81.75
216.122	55.12
216.341	104.28
216.559	-34.99
216.778	149.33
216.996	171.86
217.214	28.5
217.432	-8.36
217.651	-67.75
217.869	-8.36
218.087	16.21
218.306	32.6
218.524	28.5
218.742	-65.71
218.96	122.71
219.179	-53.42
219.397	18.26
219.615	278.35
219.833	75.6
220.051	55.12
220.27	42.84
220.488	118.61
220.706	65.36
220.924	-92.33
221.142	-73.9
221.36	30.55
221.578	1.88
221.796	61.27
222.015	67.41
222.233	38.74
222.451	106.32
222.669	42.84
222.887	75.6
223.105	-75.95
223.323	-22.7
223.541	-43.18
223.759	55.12
223.977	-77.99
224.195	102.23
224.413	94.04
224.631	-22.7
224.849	57.17
225.067	266.07
225.285	10.07
225.503	-10.41
225.721	-106.67
225.939	46.93
226.157	32.6
226.375	198.48
226.592	18.26
226.81	71.51
227.028	110.42
227.246	112.47
227.464	-24.75
227.682	141.14
227.9	71.51
228.117	63.32
228.335	79.7
228.553	32.6
228.771	87.89
228.989	14.17
229.206	118.61
229.424	-110.76
229.642	-16.55
229.86	-41.13
230.077	104.28
230.295	12.12
230.513	165.71
230.731	65.36
230.948	145.24
231.166	188.24
231.384	-47.27
231.601	-30.89
231.819	124.76
232.037	3.93
232.254	-80.04
232.472	51.03
232.689	-22.7
232.907	83.8
233.125	44.88
233.342	-37.03
233.56	24.4
233.777	-6.31
233.995	-20.65
234.213	155.47
234.43	34.64
234.648	75.6
234.865	-12.46
235.083	8.02
235.3	46.93
235.518	57.17
235.735	89.94
235.953	48.98
236.17	42.84
236.388	34.64
236.605	48.98
236.822	132.95
237.04	53.08
237.257	75.6
237.475	-92.33
237.692	100.18
237.909	65.36
238.127	14.17
238.344	77.65
238.562	14.17
238.779	-75.95
238.996	-80.04
239.214	16.21
239.431	104.28
239.648	-18.6
239.865	71.51
240.083	44.88
240.3	32.6
240.517	-8.36
240.735	87.89
240.952	65.36
241.169	73.56
241.386	126.8
241.603	-71.85
241.821	-12.46
242.038	34.64
242.255	75.6
242.472	-53.42
242.689	69.46
242.907	122.71
243.124	48.98
243.341	-14.51
243.558	-59.56
243.775	-77.99
243.992	-123.05
244.209	48.98
244.426	175.95
244.643	81.75
244.86	32.6
245.078	118.61
245.295	18.26
245.512	-26.79
245.729	-69.8
245.946	44.88
246.163	46.93
246.38	44.88
246.597	98.13
246.814	57.17
247.031	79.7
247.248	28.5
247.464	91.99
247.681	18.26
247.898	12.12
248.115	40.79
248.332	12.12
248.549	130.9
248.766	161.62
248.983	73.56
249.2	118.61
249.417	89.94
249.633	34.64
249.85	83.8
250.067	34.64
250.284	51.03
250.501	22.36
250.717	67.41
250.934	-63.66
251.151	26.45
251.368	18.26
251.585	55.12
251.801	38.74
252.018	-47.27
252.235	87.89
252.451	-100.52
252.668	61.27
252.885	186.19
253.102	48.98
253.318	26.45
253.535	10.07
253.752	-39.08
253.968	24.4
254.185	-59.56
254.401	38.74
254.618	71.51
254.835	-77.99
255.051	73.56
255.268	110.42
255.484	42.84
255.701	28.5
255.917	102.23
256.134	-12.46
256.351	46.93
256.567	24.4
256.784	22.36
257	-43.18
257.217	104.28
257.433	110.42
257.65	14.17
257.866	98.13
258.082	-20.65
258.299	-2.22
258.515	51.03
258.732	14.17
258.948	-71.85
259.165	71.51
259.381	-39.08
259.597	10.07
259.814	-0.17
260.03	48.98
260.246	-37.03
260.463	94.04
260.679	69.46
260.895	46.93
261.112	-6.31
261.328	32.6
261.544	-57.51
261.761	200.53
261.977	-8.36
262.193	-34.99
262.409	42.84
262.626	59.22
262.842	57.17
263.058	-0.17
263.274	157.52
263.49	32.6
263.707	94.04
263.923	53.08
264.139	-47.27
264.355	40.79
264.571	85.84
264.787	173.91
265.004	67.41
265.22	38.74
265.436	5.97
265.652	1.88
265.868	-10.41
266.084	-28.84
266.3	18.26
266.516	-12.46
266.732	81.75
266.948	38.74
267.164	42.84
267.38	20.31
267.596	55.12
267.812	89.94
268.028	8.02
268.244	3.93
268.46	20.31
268.676	-0.17
268.892	85.84
269.108	-127.14
269.324	-43.18
269.54	-20.65
269.756	63.32
269.972	-18.6
270.188	-67.75
270.403	-102.57
270.619	20.31
270.835	73.56
271.051	38.74
271.267	-32.94
271.483	14.17
271.698	110.42
271.914	118.61
272.13	63.32
272.346	-26.79
272.562	32.6
272.777	36.69
272.993	28.5
273.209	130.9
273.425	3.93
273.64	-61.61
273.856	48.98
274.072	-69.8
274.287	-6.31
274.503	153.43
274.719	53.08
274.934	-63.66
275.15	-24.75
275.366	75.6
275.581	-43.18
275.797	55.12
276.012	57.17
276.228	-69.8
276.444	32.6
276.659	104.28
276.875	-30.89
277.09	-16.55
277.306	-47.27
277.521	16.21
277.737	3.93
277.952	87.89
278.168	51.03
278.383	57.17
278.599	-16.55
278.814	-0.17
279.03	42.84
279.245	96.08
279.461	-12.46
279.676	48.98
279.892	-16.55
280.107	-57.51
280.322	-49.32
280.538	10.07
280.753	-24.75
280.969	98.13
281.184	32.6
281.399	155.47
281.615	32.6
281.83	24.4
282.045	-34.99
282.26	32.6
282.476	-32.94
282.691	118.61
282.906	126.8
283.122	16.21
283.337	-49.32
283.552	100.18
283.767	32.6
283.983	16.21
284.198	38.74
284.413	8.02
284.628	-0.17
284.843	79.7
285.058	34.64
285.274	53.08
285.489	-108.71
285.704	94.04
285.919	-4.27
286.134	-14.51
286.349	18.26
286.564	-6.31
286.779	135
286.995	18.26
287.21	-12.46
287.425	116.56
287.64	-32.94
287.855	96.08
288.07	-80.04
288.285	153.43
288.5	69.46
288.715	44.88
288.93	-6.31
289.145	34.64
289.36	85.84
289.575	-24.75
289.79	157.52
290.004	-8.36
290.219	87.89
290.434	-129.19
290.649	-69.8
290.864	-2.22
291.079	32.6
291.294	71.51
291.509	94.04
291.724	-0.17
291.938	-18.6
292.153	5.97
292.368	-51.37
292.583	53.08
292.798	14.17
293.012	24.4
293.227	14.17
293.442	34.64
293.657	57.17
293.871	81.75
294.086	-47.27
294.301	120.66
294.516	192.34
294.73	24.4
294.945	-43.18
295.16	16.21
295.374	106.32
295.589	48.98
295.804	-12.46
296.018	96.08
296.233	126.8
296.447	79.7
296.662	-14.51
296.877	69.46
297.091	106.32
297.306	14.17
297.52	-12.46
297.735	100.18
297.949	1.88
298.164	85.84
298.378	57.17
298.593	-0.17
298.807	-39.08
299.022	98.13
299.236	116.56
299.451	10.07
299.665	-51.37
299.88	1.88
300.094	18.26
300.309	3.93
300.523	1.88
300.737	61.27
300.952	48.98
301.166	8.02
301.381	-0.17
301.595	24.4
301.809	46.93
302.024	-10.41
302.238	-18.6
302.452	100.18
302.667	-47.27
302.881	147.28
303.095	112.47
303.309	14.17
303.524	-16.55
303.738	18.26
303.952	3.93
304.166	3.93
304.381	-59.56
304.595	79.7
304.809	34.64
305.023	5.97
305.237	18.26
305.452	36.69
305.666	135
305.88	53.08
306.094	55.12
306.308	73.56
306.522	8.02
306.736	94.04
306.95	104.28
307.164	20.31
307.379	18.26
307.593	116.56
307.807	75.6
308.021	98.13
308.235	120.66
308.449	-67.75
308.663	-32.94
308.877	198.48
309.091	1.88
309.305	91.99
309.519	-159.91
309.733	173.91
309.947	-10.41
310.161	-0.17
310.374	110.42
310.588	96.08
310.802	-59.56
311.016	-8.36
311.23	-2.22
311.444	-34.99
311.658	-30.89
311.872	116.56
312.085	130.9
312.299	126.8
312.513	124.76
312.727	32.6
312.941	-41.13
313.154	28.5
313.368	106.32
313.582	-24.75
313.796	145.24
314.009	57.17
314.223	100.18
314.437	48.98
314.651	116.56
314.864	-10.41
315.078	53.08
315.292	-57.51
315.505	34.64
315.719	8.02
315.933	135
316.146	-6.31
316.36	-75.95
316.573	124.76
316.787	75.6
317.001	81.75
317.214	-37.03
317.428	12.12
317.641	-2.22
317.855	-24.75
318.068	98.13
318.282	38.74
318.495	120.66
318.709	32.6
318.922	-2.22
319.136	79.7
319.349	96.08
319.563	-16.55
319.776	14.17
319.99	-37.03
320.203	69.46
320.417	12.12
320.63	114.52
320.843	157.52
321.057	-18.6
321.27	-49.32
321.483	100.18
321.697	112.47
321.91	22.36
322.124	-30.89
322.337	44.88
322.55	-28.84
322.763	-18.6
322.977	8.02
323.19	-12.46
323.403	42.84
323.617	77.65
323.83	94.04
324.043	-61.61
324.256	24.4
324.469	-30.89
324.683	116.56
324.896	55.12
325.109	-12.46
325.322	-24.75
325.535	55.12
325.748	34.64
325.962	-100.52
326.175	83.8
326.388	3.93
326.601	85.84
326.814	-69.8
327.027	24.4
327.24	139.09
327.453	-129.19
327.666	124.76
327.879	91.99
328.092	61.27
328.305	5.97
328.518	-0.17
328.731	53.08
328.944	1.88
329.157	18.26
329.37	55.12
329.583	124.76
329.796	128.85
330.009	-73.9
330.222	79.7
330.435	128.85
330.648	87.89
330.861	55.12
331.073	28.5
331.286	-4.27
331.499	26.45
331.712	10.07
331.925	-28.84
332.138	22.36
332.35	102.23
332.563	24.4
332.776	38.74
332.989	-41.13
333.202	38.74
333.414	8.02
333.627	16.21
333.84	22.36
334.053	81.75
334.265	14.17
334.478	18.26
334.691	-39.08
334.903	81.75
335.116	-16.55
335.329	-39.08
335.541	1.88
335.754	106.32
335.966	-41.13
336.179	22.36
336.392	-26.79
336.604	-37.03
336.817	83.8
337.029	44.88
337.242	-22.7
337.454	143.19
337.667	-24.75
337.88	196.43
338.092	65.36
338.305	81.75
338.517	-4.27
338.729	38.74
338.942	180.05
339.154	-61.61
339.367	-69.8
339.579	110.42
339.792	-57.51
340.004	73.56
340.217	-10.41
340.429	-6.31
340.641	-16.55
340.854	-55.47
341.066	34.64
341.278	108.37
341.491	145.24
341.703	48.98
341.915	3.93
342.128	157.52
342.34	8.02
342.552	20.31
342.764	34.64
342.977	-4.27
343.189	18.26
343.401	8.02
343.613	-112.81
343.826	30.55
344.038	8.02
344.25	79.7
344.462	-30.89
344.674	77.65
344.886	34.64
345.099	61.27
345.311	44.88
345.523	-2.22
345.735	-43.18
345.947	57.17
346.159	51.03
346.371	24.4
346.583	-28.84
346.795	214.87
347.007	26.45
347.219	81.75
347.431	-12.46
347.643	30.55
347.855	8.02
348.067	112.47
348.279	24.4
348.491	32.6
348.703	83.8
348.915	79.7
349.127	-8.36
349.339	75.6
349.551	26.45
349.763	22.36
349.975	46.93
350.187	120.66
350.399	145.24
350.61	67.41
350.822	-28.84
351.034	75.6
351.246	36.69
351.458	85.84
351.669	51.03
351.881	157.52
352.093	51.03
352.305	91.99
352.517	91.99
352.728	53.08
352.94	65.36
353.152	22.36
353.363	-71.85
353.575	71.51
353.787	63.32
353.999	81.75
354.21	208.72
354.422	-73.9
354.633	-0.17
354.845	-10.41
355.057	34.64
355.268	-37.03
355.48	46.93
355.692	-88.23
355.903	77.65
356.115	-20.65
356.326	-18.6
356.538	69.46
356.749	100.18
356.961	192.34
357.172	-14.51
357.384	-55.47
357.595	212.82
357.807	-2.22
358.018	-49.32
358.23	3.93
358.441	139.09
358.653	48.98
358.864	30.55
359.075	-57.51
359.287	28.5
359.498	40.79
359.709	118.61
359.921	8.02
360.132	85.84
360.344	38.74
360.555	42.84
360.766	36.69
360.977	-131.24
361.189	108.37
361.4	18.26
361.611	114.52
361.823	87.89
362.034	73.56
362.245	-45.23
362.456	14.17
362.667	65.36
362.879	8.02
363.09	79.7
363.301	75.6
363.512	32.6
363.723	55.12
363.935	-16.55
364.146	79.7
364.357	1.88
364.568	89.94
364.779	-10.41
364.99	221.01
365.201	-18.6
365.412	139.09
365.623	-28.84
365.834	18.26
366.045	42.84
366.256	67.41
366.467	40.79
366.678	8.02
366.889	-39.08
367.1	1.88
367.311	32.6
367.522	38.74
367.733	14.17
367.944	59.22
368.155	5.97
368.366	73.56
368.577	89.94
368.788	57.17
368.999	-18.6
369.209	36.69
369.42	128.85
369.631	151.38
369.842	46.93
370.053	18.26
370.264	96.08
370.474	14.17
370.685	18.26
370.896	-8.36
371.107	112.47
371.317	32.6
371.528	28.5
371.739	79.7
371.95	32.6
372.16	59.22
372.371	-45.23
372.582	16.21
372.792	159.57
373.003	59.22
373.214	118.61
373.424	26.45
373.635	-2.22
373.846	155.47
374.056	-53.42
374.267	3.93
374.477	16.21
374.688	-24.75
374.898	143.19
375.109	-22.7
375.319	-28.84
375.53	44.88
375.74	8.02
375.951	-24.75
376.161	-32.94
376.372	81.75
376.582	44.88
376.793	110.42
377.003	-10.41
377.214	-37.03
377.424	132.95
377.635	-43.18
377.845	-47.27
378.055	79.7
378.266	-2.22
378.476	24.4
378.686	38.74
378.897	57.17
379.107	110.42
379.317	122.71
379.528	-53.42
379.738	94.04
379.948	-10.41
380.158	73.56
380.369	61.27
380.579	94.04
380.789	24.4
380.999	171.86
381.21	83.8
381.42	128.85
381.63	22.36
381.84	73.56
382.05	91.99
382.261	48.98
382.471	100.18
382.681	5.97
382.891	132.95
383.101	59.22
383.311	-4.27
383.521	-18.6
383.731	157.52
383.941	151.38
384.151	-16.55
384.361	3.93
384.571	85.84
384.781	106.32
384.991	233.3
385.201	126.8
385.411	32.6
385.621	42.84
385.831	32.6
386.041	61.27
386.251	73.56
386.461	73.56
386.671	8.02
386.881	26.45
387.091	-12.46
387.301	151.38
387.511	100.18
387.72	59.22
387.93	94.04
388.14	-39.08
388.35	10.07
388.56	44.88
388.769	102.23
388.979	36.69
389.189	10.07
389.399	48.98
389.609	77.65
389.818	57.17
390.028	57.17
390.238	73.56
390.447	-8.36
390.657	75.6
390.867	24.4
391.076	-123.05
391.286	67.41
391.496	22.36
391.705	44.88
391.915	48.98
392.125	112.47
392.334	18.26
392.544	173.91
392.753	14.17
392.963	-14.51
393.172	61.27
393.382	63.32
393.591	196.43
393.801	5.97
394.01	167.76
394.22	67.41
394.429	81.75
394.639	104.28
394.848	51.03
395.058	155.47
395.267	18.26
395.477	75.6
395.686	-8.36
395.895	167.76
396.105	178
396.314	110.42
396.524	10.07
396.733	34.64
396.942	85.84
397.152	94.04
397.361	143.19
397.57	96.08
397.78	69.46
397.989	67.41
398.198	175.95
398.407	-18.6
398.617	63.32
398.826	-4.27
399.035	-24.75
399.244	175.95
399.453	24.4
399.663	-18.6
399.872	-4.27
400.081	-14.51
400.29	112.47
400.499	-0.17
400.708	108.37
400.917	44.88
401.127	51.03
401.336	18.26
401.545	188.24
401.754	145.24
401.963	120.66
402.172	-14.51
402.381	3.93
402.59	-0.17
402.799	30.55
403.008	132.95
403.217	126.8
403.426	14.17
403.635	-84.14
403.844	5.97
404.053	-51.37
404.262	-2.22
404.471	202.58
404.68	106.32
404.888	89.94
405.097	-16.55
405.306	44.88
405.515	24.4
405.724	89.94
405.933	124.76
406.142	75.6
406.35	106.32
406.559	-18.6
406.768	83.8
406.977	116.56
407.185	83.8
407.394	40.79
407.603	12.12
407.812	122.71
408.02	165.71
408.229	24.4
408.438	34.64
408.646	-96.43
408.855	32.6
409.064	65.36
409.272	59.22
409.481	75.6
409.69	1.88
409.898	61.27
410.107	139.09
410.315	38.74
410.524	36.69
410.733	48.98
410.941	-2.22
411.15	26.45
411.358	10.07
411.567	141.14
411.775	73.56
411.984	18.26
412.192	73.56
412.401	18.26
412.609	155.47
412.818	153.43
413.026	71.51
413.234	59.22
413.443	22.36
413.651	-22.7
413.86	36.69
414.068	91.99
414.276	126.8
414.485	-10.41
414.693	202.58
414.901	178
415.11	55.12
415.318	71.51
415.526	69.46
415.734	81.75
415.943	65.36
416.151	110.42
416.359	10.07
416.567	85.84
416.776	89.94
416.984	118.61
417.192	184.15
417.4	-16.55
417.608	94.04
417.817	-2.22
418.025	81.75
418.233	141.14
418.441	-77.99
418.649	-90.28
418.857	79.7
419.065	184.15
419.273	-39.08
419.481	91.99
419.689	75.6
419.897	-39.08
420.105	1.88
420.313	69.46
420.521	145.24
420.729	102.23
420.937	-51.37
421.145	32.6
421.353	153.43
421.561	173.91
421.769	124.76
421.977	14.17
422.185	108.37
422.393	67.41
422.601	89.94
422.809	-16.55
423.017	75.6
423.224	81.75
423.432	57.17
423.64	44.88
423.848	44.88
424.056	-28.84
424.263	51.03
424.471	46.93
424.679	116.56
424.887	-57.51
425.094	139.09
425.302	94.04
425.51	89.94
425.718	120.66
425.925	81.75
426.133	-57.51
426.341	247.63
426.548	32.6
426.756	55.12
426.964	51.03
427.171	5.97
427.379	79.7
427.586	83.8
427.794	108.37
428.001	163.67
428.209	100.18
428.417	175.95
428.624	157.52
428.832	44.88
429.039	38.74
429.247	153.43
429.454	71.51
429.662	186.19
429.869	46.93
430.076	67.41
430.284	155.47
430.491	132.95
430.699	116.56
430.906	204.63
431.114	83.8
431.321	184.15
431.528	100.18
431.736	153.43
431.943	46.93
432.15	214.87
432.358	143.19
432.565	278.35
432.772	22.36
432.979	145.24
433.187	102.23
433.394	173.91
433.601	141.14
433.808	325.46
434.016	245.59
434.223	145.24
434.43	237.39
434.637	204.63
434.844	255.83
435.052	153.43
435.259	309.07
435.466	286.54
435.673	173.91
435.88	235.35
436.087	335.7
436.294	335.7
436.501	368.46
436.708	235.35
436.915	276.31
437.122	333.65
437.329	221.01
437.537	272.21
437.743	313.17
437.95	388.94
438.157	235.35
438.364	407.38
438.571	360.27
438.778	411.47
438.985	464.72
439.192	444.24
439.399	341.84
439.606	477.01
439.813	485.2
440.02	524.11
440.227	661.32
440.433	497.49
440.64	491.34
440.847	499.53
441.054	540.49
441.261	718.67
441.467	606.03
441.674	536.4
441.881	653.13
442.088	567.12
442.294	669.52
442.501	708.43
442.708	751.43
442.914	730.95
443.121	851.78
443.328	743.24
443.534	827.21
443.741	829.26
443.948	767.82
444.154	886.6
444.361	1070.92
444.568	950.09
444.774	964.42
444.981	921.42
445.187	1173.32
445.394	1146.69
445.6	991.05
445.807	1185.6
446.013	1191.75
446.22	1161.03
446.426	1130.31
446.633	1333.06
446.839	1492.8
447.046	1345.34
447.252	1523.52
447.459	1539.9
447.665	1621.82
447.871	1648.44
448.078	1828.67
448.284	1838.91
448.491	1767.23
448.697	1847.1
448.903	2150.2
449.11	2074.42
449.316	2021.17
449.522	2287.41
449.728	2225.97
449.935	2457.39
450.141	2428.72
450.347	2473.78
450.553	2477.87
450.76	2567.98
450.966	2852.65
451.172	2727.72
451.378	2842.41
451.584	2991.91
451.791	3274.53
451.997	3299.11
452.203	3290.92
452.409	3477.28
452.615	3583.77
452.821	3530.53
453.027	3620.64
453.233	4060.95
453.44	4050.71
453.646	4179.73
453.852	4216.6
454.058	4513.55
454.264	4607.76
454.47	5011.21
454.676	4933.39
454.882	5402.37
455.088	5220.1
455.294	5517.06
455.5	5857.02
455.705	6283
455.911	6250.23
456.117	6471.41
456.323	6721.26
456.529	6629.1
456.735	7227.11
456.941	7349.99
457.147	7714.53
457.352	7735.01
457.558	8179.42
457.764	8533.72
457.97	8941.26
458.176	9101
458.381	9529.03
458.587	9764.54
458.793	10372.79
458.999	10397.37
459.204	11445.93
459.41	11892.38
459.616	11876
459.821	12273.31
460.027	13010.57
460.233	13565.57
460.438	13622.92
460.644	14329.47
460.85	14755.44
461.055	15158.89
461.261	16041.57
461.466	15619.69
461.672	15836.77
461.878	17663.56
462.083	17530.44
462.289	17897.03
462.494	18622.01
462.7	18638.39
462.905	18908.72
463.111	20694.55
463.316	21540.36
463.522	21943.81
463.727	22541.82
463.932	23518.7
464.138	24344.03
464.343	25310.68
464.549	25597.39
464.754	27389.36
464.959	27968.94
465.165	28401.06
465.37	28171.69
465.575	28587.43
465.781	30334.34
465.986	31169.91
466.191	30985.6
466.397	31096.19
466.602	29918.6
466.807	31923.57
467.012	32431.46
467.218	33166.68
467.423	33086.81
467.628	34051.41
467.833	36105.52
468.038	34864.45
468.244	34702.66
468.449	36275.5
468.654	35796.28
468.859	35517.75
469.064	35575.09
469.269	34596.17
