Data from USB4F104151__37__10-42-35-982.txt Node

Date: Wed Feb 26 10:42:35 EST 2025
User: louis
Spectrometer: USB4F10415
Trigger mode: 4
Integration Time (sec): 1.000000E-1
Scans to average: 1
Electric dark correction enabled: true
Nonlinearity correction enabled: false
Boxcar width: 0
XAxis mode: Wavelengths
Number of Pixels in Spectrum: 3648
>>>>>Begin Spectral Data<<<<<
178.204	-364.03
178.424	-364.03
178.644	-364.03
178.864	-355.83
179.084	-415.23
179.304	-7.68
179.524	-19.97
179.744	10.75
179.964	61.95
180.184	33.28
180.404	-54.78
180.624	20.99
180.844	55.81
181.064	-114.17
181.283	-44.54
181.503	-26.11
181.723	84.48
181.943	-60.93
182.163	135.68
182.383	25.09
182.602	78.33
182.822	160.25
183.042	47.62
183.262	-50.69
183.482	-32.26
183.701	-5.63
183.921	37.38
184.141	-36.35
184.361	43.52
184.58	53.76
184.8	29.18
185.02	88.57
185.239	193.02
185.459	117.25
185.679	72.19
185.898	-44.54
186.118	84.48
186.338	43.52
186.557	94.72
186.777	0.51
186.997	14.85
187.216	47.62
187.436	188.93
187.655	23.04
187.875	98.81
188.095	12.8
188.314	102.91
188.534	170.49
188.753	-7.68
188.973	178.69
189.192	158.21
189.412	-5.63
189.631	57.86
189.851	107.01
190.07	164.35
190.29	-87.55
190.509	-42.5
190.729	57.86
190.948	135.68
191.168	326.14
191.387	107.01
191.607	4.61
191.826	29.18
192.045	113.15
192.265	-36.35
192.484	78.33
192.704	70.14
192.923	-5.63
193.142	184.83
193.362	82.43
193.581	127.49
193.8	41.47
194.02	150.01
194.239	53.76
194.458	164.35
194.678	10.75
194.897	6.66
195.116	107.01
195.335	31.23
195.555	61.95
195.774	-19.97
195.993	145.92
196.212	33.28
196.432	-13.82
196.651	55.81
196.87	92.67
197.089	279.04
197.308	70.14
197.528	31.23
197.747	-42.5
197.966	94.72
198.185	190.97
198.404	-1.54
198.623	133.63
198.842	90.62
199.062	109.05
199.281	141.82
199.5	66.05
199.719	72.19
199.938	61.95
200.157	57.86
200.376	145.92
200.595	209.4
200.814	45.57
201.033	39.42
201.252	170.49
201.471	152.06
201.69	107.01
201.909	35.33
202.128	117.25
202.347	78.33
202.566	37.38
202.785	0.51
203.004	-15.87
203.223	205.31
203.442	29.18
203.661	8.7
203.879	64
204.098	156.16
204.317	-24.06
204.536	143.87
204.755	102.91
204.974	82.43
205.193	66.05
205.411	131.58
205.63	119.29
205.849	43.52
206.068	117.25
206.287	10.75
206.505	162.3
206.724	64
206.943	35.33
207.162	43.52
207.381	53.76
207.599	37.38
207.818	35.33
208.037	6.66
208.255	55.81
208.474	80.38
208.693	123.39
208.911	49.66
209.13	182.78
209.349	82.43
209.567	156.16
209.786	109.05
210.005	90.62
210.223	20.99
210.442	-71.17
210.661	31.23
210.879	72.19
211.098	18.94
211.316	4.61
211.535	70.14
211.753	88.57
211.972	88.57
212.191	10.75
212.409	66.05
212.628	145.92
212.846	41.47
213.065	43.52
213.283	180.73
213.502	33.28
213.72	10.75
213.938	115.2
214.157	-13.82
214.375	168.45
214.594	-46.59
214.812	160.25
215.031	51.71
215.249	47.62
215.467	45.57
215.686	51.71
215.904	72.19
216.122	117.25
216.341	213.5
216.559	113.15
216.778	90.62
216.996	107.01
217.214	27.14
217.432	45.57
217.651	-97.79
217.869	23.04
218.087	39.42
218.306	61.95
218.524	84.48
218.742	80.38
218.96	74.24
219.179	-32.26
219.397	68.09
219.615	217.6
219.833	70.14
220.051	-9.73
220.27	121.34
220.488	113.15
220.706	115.2
220.924	-5.63
221.142	68.09
221.36	49.66
221.578	96.77
221.796	43.52
222.015	145.92
222.233	90.62
222.451	188.93
222.669	2.56
222.887	96.77
223.105	-13.82
223.323	59.9
223.541	-28.16
223.759	53.76
223.977	37.38
224.195	221.69
224.413	80.38
224.631	29.18
224.849	123.39
225.067	182.78
225.285	18.94
225.503	64
225.721	-81.41
225.939	111.1
226.157	117.25
226.375	258.56
226.592	-28.16
226.81	10.75
227.028	113.15
227.246	137.73
227.464	-1.54
227.682	131.58
227.9	152.06
228.117	59.9
228.335	102.91
228.553	100.86
228.771	82.43
228.989	25.09
229.206	76.29
229.424	47.62
229.642	51.71
229.86	35.33
230.077	121.34
230.295	86.53
230.513	147.97
230.731	78.33
230.948	190.97
231.166	117.25
231.384	35.33
231.601	55.81
231.819	131.58
232.037	6.66
232.254	49.66
232.472	12.8
232.689	96.77
232.907	111.1
233.125	12.8
233.342	57.86
233.56	35.33
233.777	-15.87
233.995	100.86
234.213	45.57
234.43	145.92
234.648	-5.63
234.865	-17.92
235.083	55.81
235.3	74.24
235.518	119.29
235.735	80.38
235.953	195.07
236.17	20.99
236.388	23.04
236.605	-3.58
236.822	133.63
237.04	96.77
237.257	51.71
237.475	78.33
237.692	37.38
237.909	66.05
238.127	-24.06
238.344	131.58
238.562	10.75
238.779	-5.63
238.996	29.18
239.214	37.38
239.431	129.53
239.648	-22.02
239.865	78.33
240.083	59.9
240.3	-3.58
240.517	-30.21
240.735	18.94
240.952	174.59
241.169	23.04
241.386	74.24
241.603	84.48
241.821	29.18
242.038	98.81
242.255	90.62
242.472	-40.45
242.689	125.44
242.907	82.43
243.124	102.91
243.341	-11.78
243.558	88.57
243.775	-1.54
243.992	-62.98
244.209	66.05
244.426	150.01
244.643	78.33
244.86	55.81
245.078	100.86
245.295	25.09
245.512	59.9
245.729	-5.63
245.946	152.06
246.163	92.67
246.38	-13.82
246.597	94.72
246.814	96.77
247.031	20.99
247.248	31.23
247.464	41.47
247.681	102.91
247.898	80.38
248.115	152.06
248.332	-67.07
248.549	131.58
248.766	74.24
248.983	84.48
249.2	94.72
249.417	72.19
249.633	25.09
249.85	94.72
250.067	109.05
250.284	49.66
250.501	27.14
250.717	139.77
250.934	10.75
251.151	14.85
251.368	74.24
251.585	74.24
251.801	41.47
252.018	8.7
252.235	158.21
252.451	-26.11
252.668	20.99
252.885	166.4
253.102	-5.63
253.318	88.57
253.535	94.72
253.752	-24.06
253.968	55.81
254.185	8.7
254.401	107.01
254.618	53.76
254.835	31.23
255.051	104.96
255.268	53.76
255.484	41.47
255.701	59.9
255.917	53.76
256.134	-26.11
256.351	-44.54
256.567	-22.02
256.784	111.1
257	-32.26
257.217	107.01
257.433	119.29
257.65	51.71
257.866	166.4
258.082	-38.4
258.299	-22.02
258.515	84.48
258.732	29.18
258.948	53.76
259.165	31.23
259.381	-42.5
259.597	64
259.814	-11.78
260.03	39.42
260.246	51.71
260.463	150.01
260.679	221.69
260.895	74.24
261.112	133.63
261.328	68.09
261.544	-3.58
261.761	195.07
261.977	98.81
262.193	53.76
262.409	92.67
262.626	33.28
262.842	25.09
263.058	45.57
263.274	137.73
263.49	-3.58
263.707	76.29
263.923	109.05
264.139	-62.98
264.355	104.96
264.571	43.52
264.787	-1.54
265.004	135.68
265.22	-7.68
265.436	10.75
265.652	92.67
265.868	20.99
266.084	16.9
266.3	25.09
266.516	-7.68
266.732	135.68
266.948	74.24
267.164	98.81
267.38	59.9
267.596	127.49
267.812	141.82
268.028	135.68
268.244	29.18
268.46	135.68
268.676	49.66
268.892	37.38
269.108	20.99
269.324	-62.98
269.54	-28.16
269.756	135.68
269.972	4.61
270.188	-9.73
270.403	80.38
270.619	20.99
270.835	195.07
271.051	-28.16
271.267	8.7
271.483	-50.69
271.698	133.63
271.914	125.44
272.13	-7.68
272.346	57.86
272.562	29.18
272.777	137.73
272.993	84.48
273.209	47.62
273.425	127.49
273.64	-60.93
273.856	172.54
274.072	14.85
274.287	10.75
274.503	174.59
274.719	133.63
274.934	92.67
275.15	-28.16
275.366	59.9
275.581	16.9
275.797	18.94
276.012	133.63
276.228	20.99
276.444	66.05
276.659	160.25
276.875	-7.68
277.09	70.14
277.306	104.96
277.521	113.15
277.737	135.68
277.952	139.77
278.168	70.14
278.383	92.67
278.599	16.9
278.814	23.04
279.03	90.62
279.245	168.45
279.461	25.09
279.676	168.45
279.892	53.76
280.107	23.04
280.322	-3.58
280.538	125.44
280.753	51.71
280.969	18.94
281.184	35.33
281.399	256.51
281.615	104.96
281.83	121.34
282.045	-28.16
282.26	-40.45
282.476	115.2
282.691	125.44
282.906	76.29
283.122	37.38
283.337	-17.92
283.552	82.43
283.767	86.53
283.983	172.54
284.198	74.24
284.413	162.3
284.628	59.9
284.843	139.77
285.058	80.38
285.274	53.76
285.489	14.85
285.704	84.48
285.919	35.33
286.134	49.66
286.349	49.66
286.564	72.19
286.779	145.92
286.995	-28.16
287.21	-62.98
287.425	100.86
287.64	14.85
287.855	129.53
288.07	-42.5
288.285	90.62
288.5	141.82
288.715	94.72
288.93	74.24
289.145	4.61
289.36	127.49
289.575	18.94
289.79	78.33
290.004	45.57
290.219	43.52
290.434	29.18
290.649	47.62
290.864	53.76
291.079	29.18
291.294	45.57
291.509	131.58
291.724	61.95
291.938	98.81
292.153	14.85
292.368	37.38
292.583	119.29
292.798	127.49
293.012	141.82
293.227	170.49
293.442	23.04
293.657	66.05
293.871	160.25
294.086	94.72
294.301	154.11
294.516	96.77
294.73	39.42
294.945	-75.26
295.16	57.86
295.374	141.82
295.589	158.21
295.804	-1.54
296.018	16.9
296.233	119.29
296.447	72.19
296.662	4.61
296.877	137.73
297.091	90.62
297.306	6.66
297.52	80.38
297.735	18.94
297.949	41.47
298.164	135.68
298.378	61.95
298.593	20.99
298.807	4.61
299.022	16.9
299.236	113.15
299.451	14.85
299.665	-11.78
299.88	82.43
300.094	164.35
300.309	4.61
300.523	121.34
300.737	27.14
300.952	57.86
301.166	74.24
301.381	-11.78
301.595	39.42
301.809	90.62
302.024	55.81
302.238	-71.17
302.452	143.87
302.667	94.72
302.881	113.15
303.095	162.3
303.309	53.76
303.524	-69.12
303.738	31.23
303.952	-17.92
304.166	47.62
304.381	-67.07
304.595	164.35
304.809	27.14
305.023	145.92
305.237	-32.26
305.452	45.57
305.666	57.86
305.88	92.67
306.094	156.16
306.308	78.33
306.522	94.72
306.736	86.53
306.95	164.35
307.164	43.52
307.379	8.7
307.593	127.49
307.807	121.34
308.021	31.23
308.235	94.72
308.449	-77.31
308.663	82.43
308.877	246.27
309.091	98.81
309.305	119.29
309.519	-67.07
309.733	115.2
309.947	-40.45
310.161	92.67
310.374	133.63
310.588	143.87
310.802	84.48
311.016	20.99
311.23	66.05
311.444	-34.3
311.658	43.52
311.872	102.91
312.085	135.68
312.299	74.24
312.513	176.64
312.727	8.7
312.941	-17.92
313.154	121.34
313.368	74.24
313.582	90.62
313.796	96.77
314.009	29.18
314.223	121.34
314.437	49.66
314.651	111.1
314.864	72.19
315.078	41.47
315.292	51.71
315.505	41.47
315.719	100.86
315.933	90.62
316.146	18.94
316.36	-54.78
316.573	129.53
316.787	61.95
317.001	86.53
317.214	33.28
317.428	104.96
317.641	-77.31
317.855	64
318.068	139.77
318.282	180.73
318.495	225.79
318.709	0.51
318.922	20.99
319.136	207.36
319.349	115.2
319.563	47.62
319.776	90.62
319.99	-7.68
320.203	125.44
320.417	4.61
320.63	168.45
320.843	266.75
321.057	66.05
321.27	92.67
321.483	78.33
321.697	113.15
321.91	90.62
322.124	107.01
322.337	80.38
322.55	-9.73
322.763	102.91
322.977	18.94
323.19	-11.78
323.403	68.09
323.617	98.81
323.83	43.52
324.043	123.39
324.256	109.05
324.469	-40.45
324.683	180.73
324.896	51.71
325.109	51.71
325.322	-48.64
325.535	119.29
325.748	211.45
325.962	-11.78
326.175	137.73
326.388	135.68
326.601	141.82
326.814	100.86
327.027	98.81
327.24	238.08
327.453	-38.4
327.666	57.86
327.879	168.45
328.092	78.33
328.305	74.24
328.518	88.57
328.731	23.04
328.944	82.43
329.157	82.43
329.37	115.2
329.583	180.73
329.796	172.54
330.009	-67.07
330.222	121.34
330.435	117.25
330.648	45.57
330.861	100.86
331.073	164.35
331.286	82.43
331.499	45.57
331.712	18.94
331.925	90.62
332.138	47.62
332.35	49.66
332.563	43.52
332.776	117.25
332.989	-11.78
333.202	18.94
333.414	53.76
333.627	51.71
333.84	-3.58
334.053	127.49
334.265	55.81
334.478	61.95
334.691	-17.92
334.903	59.9
335.116	53.76
335.329	31.23
335.541	119.29
335.754	201.21
335.966	-34.3
336.179	31.23
336.392	102.91
336.604	20.99
336.817	121.34
337.029	76.29
337.242	53.76
337.454	74.24
337.667	-7.68
337.88	139.77
338.092	66.05
338.305	141.82
338.517	25.09
338.729	109.05
338.942	141.82
339.154	72.19
339.367	16.9
339.579	92.67
339.792	-26.11
340.004	143.87
340.217	12.8
340.429	88.57
340.641	74.24
340.854	-62.98
341.066	47.62
341.278	113.15
341.491	143.87
341.703	80.38
341.915	78.33
342.128	107.01
342.34	111.1
342.552	18.94
342.764	80.38
342.977	12.8
343.189	74.24
343.401	43.52
343.613	-19.97
343.826	68.09
344.038	49.66
344.25	78.33
344.462	-24.06
344.674	59.9
344.886	80.38
345.099	68.09
345.311	29.18
345.523	0.51
345.735	-32.26
345.947	88.57
346.159	51.71
346.371	49.66
346.583	4.61
346.795	182.78
347.007	123.39
347.219	57.86
347.431	4.61
347.643	117.25
347.855	-9.73
348.067	133.63
348.279	-89.6
348.491	123.39
348.703	109.05
348.915	25.09
349.127	-44.54
349.339	115.2
349.551	-28.16
349.763	51.71
349.975	31.23
350.187	102.91
350.399	115.2
350.61	84.48
350.822	18.94
351.034	94.72
351.246	115.2
351.458	86.53
351.669	117.25
351.881	90.62
352.093	172.54
352.305	100.86
352.517	125.44
352.728	129.53
352.94	2.56
353.152	96.77
353.363	57.86
353.575	100.86
353.787	174.59
353.999	76.29
354.21	160.25
354.422	-75.26
354.633	55.81
354.845	-79.36
355.057	94.72
355.268	70.14
355.48	156.16
355.692	-9.73
355.903	86.53
356.115	96.77
356.326	-42.5
356.538	184.83
356.749	107.01
356.961	137.73
357.172	88.57
357.384	-42.5
357.595	244.22
357.807	109.05
358.018	33.28
358.23	-11.78
358.441	238.08
358.653	219.64
358.864	57.86
359.075	20.99
359.287	113.15
359.498	127.49
359.709	131.58
359.921	53.76
360.132	98.81
360.344	119.29
360.555	25.09
360.766	47.62
360.977	12.8
361.189	74.24
361.4	51.71
361.611	182.78
361.823	250.36
362.034	20.99
362.245	-38.4
362.456	76.29
362.667	115.2
362.879	-38.4
363.09	121.34
363.301	107.01
363.512	107.01
363.723	12.8
363.935	18.94
364.146	92.67
364.357	80.38
364.568	82.43
364.779	-52.74
364.99	162.3
365.201	27.14
365.412	141.82
365.623	-48.64
365.834	152.06
366.045	61.95
366.256	111.1
366.467	152.06
366.678	35.33
366.889	86.53
367.1	55.81
367.311	72.19
367.522	43.52
367.733	133.63
367.944	86.53
368.155	68.09
368.366	121.34
368.577	135.68
368.788	168.45
368.999	-26.11
369.209	66.05
369.42	227.84
369.631	190.97
369.842	84.48
370.053	88.57
370.264	96.77
370.474	-26.11
370.685	98.81
370.896	59.9
371.107	160.25
371.317	74.24
371.528	74.24
371.739	174.59
371.95	90.62
372.16	143.87
372.371	10.75
372.582	25.09
372.792	84.48
373.003	111.1
373.214	145.92
373.424	154.11
373.635	31.23
373.846	215.55
374.056	37.38
374.267	-28.16
374.477	64
374.688	4.61
374.898	37.38
375.109	127.49
375.319	53.76
375.53	35.33
375.74	170.49
375.951	-5.63
376.161	49.66
376.372	147.97
376.582	94.72
376.793	96.77
377.003	107.01
377.214	-7.68
377.424	57.86
377.635	-5.63
377.845	76.29
378.055	195.07
378.266	-34.3
378.476	166.4
378.686	139.77
378.897	107.01
379.107	43.52
379.317	84.48
379.528	23.04
379.738	76.29
379.948	-19.97
380.158	45.57
380.369	94.72
380.579	131.58
380.789	51.71
380.999	129.53
381.21	113.15
381.42	193.02
381.63	123.39
381.84	145.92
382.05	16.9
382.261	119.29
382.471	209.4
382.681	-56.83
382.891	184.83
383.101	104.96
383.311	-67.07
383.521	43.52
383.731	164.35
383.941	109.05
384.151	78.33
384.361	51.71
384.571	96.77
384.781	78.33
384.991	178.69
385.201	184.83
385.411	45.57
385.621	39.42
385.831	104.96
386.041	66.05
386.251	57.86
386.461	86.53
386.671	72.19
386.881	145.92
387.091	117.25
387.301	147.97
387.511	86.53
387.72	64
387.93	57.86
388.14	-40.45
388.35	88.57
388.56	145.92
388.769	145.92
388.979	115.2
389.189	14.85
389.399	121.34
389.609	61.95
389.818	109.05
390.028	39.42
390.238	86.53
390.447	-5.63
390.657	131.58
390.867	61.95
391.076	-40.45
391.286	-24.06
391.496	47.62
391.705	10.75
391.915	156.16
392.125	156.16
392.334	41.47
392.544	197.12
392.753	90.62
392.963	6.66
393.172	20.99
393.382	82.43
393.591	172.54
393.801	57.86
394.01	141.82
394.22	64
394.429	45.57
394.639	127.49
394.848	131.58
395.058	53.76
395.267	70.14
395.477	129.53
395.686	68.09
395.895	276.99
396.105	281.08
396.314	72.19
396.524	37.38
396.733	59.9
396.942	113.15
397.152	125.44
397.361	201.21
397.57	53.76
397.78	33.28
397.989	33.28
398.198	215.55
398.407	133.63
398.617	49.66
398.826	68.09
399.035	37.38
399.244	70.14
399.453	104.96
399.663	25.09
399.872	107.01
400.081	23.04
400.29	158.21
400.499	68.09
400.708	158.21
400.917	64
401.127	72.19
401.336	-28.16
401.545	219.64
401.754	100.86
401.963	180.73
402.172	39.42
402.381	4.61
402.59	6.66
402.799	-7.68
403.008	180.73
403.217	53.76
403.426	78.33
403.635	-5.63
403.844	74.24
404.053	64
404.262	82.43
404.471	137.73
404.68	111.1
404.888	96.77
405.097	92.67
405.306	94.72
405.515	80.38
405.724	-3.58
405.933	160.25
406.142	68.09
406.35	195.07
406.559	-5.63
406.768	121.34
406.977	201.21
407.185	104.96
407.394	64
407.603	-24.06
407.812	156.16
408.02	137.73
408.229	39.42
408.438	137.73
408.646	-11.78
408.855	70.14
409.064	125.44
409.272	72.19
409.481	82.43
409.69	53.76
409.898	-32.26
410.107	135.68
410.315	137.73
410.524	23.04
410.733	96.77
410.941	117.25
411.15	119.29
411.358	133.63
411.567	164.35
411.775	10.75
411.984	96.77
412.192	86.53
412.401	33.28
412.609	166.4
412.818	123.39
413.026	137.73
413.234	57.86
413.443	137.73
413.651	43.52
413.86	119.29
414.068	193.02
414.276	205.31
414.485	176.64
414.693	168.45
414.901	207.36
415.11	94.72
415.318	84.48
415.526	104.96
415.734	90.62
415.943	119.29
416.151	135.68
416.359	57.86
416.567	39.42
416.776	57.86
416.984	180.73
417.192	203.26
417.4	70.14
417.608	96.77
417.817	10.75
418.025	188.93
418.233	215.55
418.441	-52.74
418.649	-11.78
418.857	141.82
419.065	162.3
419.273	76.29
419.481	98.81
419.689	47.62
419.897	41.47
420.105	-65.02
420.313	143.87
420.521	229.88
420.729	80.38
420.937	6.66
421.145	49.66
421.353	135.68
421.561	201.21
421.769	90.62
421.977	64
422.185	193.02
422.393	33.28
422.601	145.92
422.809	172.54
423.017	107.01
423.224	176.64
423.432	152.06
423.64	127.49
423.848	178.69
424.056	12.8
424.263	168.45
424.471	43.52
424.679	168.45
424.887	55.81
425.094	244.22
425.302	111.1
425.51	78.33
425.718	123.39
425.925	61.95
426.133	121.34
426.341	238.08
426.548	94.72
426.756	82.43
426.964	88.57
427.171	35.33
427.379	98.81
427.586	135.68
427.794	174.59
428.001	207.36
428.209	158.21
428.417	264.7
428.624	133.63
428.832	100.86
429.039	150.01
429.247	102.91
429.454	199.16
429.662	197.12
429.869	127.49
430.076	240.12
430.284	182.78
430.491	264.7
430.699	229.88
430.906	221.69
431.114	131.58
431.321	180.73
431.528	137.73
431.736	178.69
431.943	240.12
432.15	119.29
432.358	238.08
432.565	268.8
432.772	14.85
432.979	240.12
433.187	168.45
433.394	336.38
433.601	238.08
433.808	291.32
434.016	317.95
434.223	340.47
434.43	223.74
434.637	352.76
434.844	383.48
435.052	270.84
435.259	338.43
435.466	401.91
435.673	311.8
435.88	383.48
436.087	365.05
436.294	403.96
436.501	360.95
436.708	283.13
436.915	395.77
437.122	350.71
437.329	371.19
437.537	471.54
437.743	428.54
437.95	559.61
438.157	467.45
438.364	410.11
438.571	532.98
438.778	565.75
438.985	575.99
439.192	633.33
439.399	537.08
439.606	659.96
439.813	651.77
440.02	797.17
440.227	805.36
440.433	686.58
440.64	678.39
440.847	698.87
441.054	754.16
441.261	879.09
441.467	774.64
441.674	801.27
441.881	932.34
442.088	836.08
442.294	1020.4
442.501	1030.64
442.708	1030.64
442.914	1071.6
443.121	1065.46
443.328	1143.28
443.534	1223.15
443.741	1227.25
443.948	1090.03
444.154	1286.64
444.361	1544.68
444.568	1270.25
444.774	1393.13
444.981	1313.26
445.187	1583.59
445.394	1438.19
445.6	1425.9
445.807	1612.26
446.013	1614.31
446.22	1618.41
446.426	1849.83
446.633	1866.21
446.839	2105.82
447.046	1849.83
447.252	2116.06
447.459	2150.88
447.665	2191.84
447.871	2220.51
448.078	2529.75
448.284	2466.27
448.491	2666.97
448.697	2617.82
448.903	2849.24
449.11	2730.45
449.316	2785.75
449.522	3138
449.728	3064.27
449.935	3277.26
450.141	3146.19
450.347	3563.98
450.553	3559.88
450.76	3543.5
450.966	3873.22
451.172	3938.76
451.378	4067.78
451.584	4172.22
451.791	4424.12
451.997	4547
452.203	4600.25
452.409	4899.25
452.615	5136.82
452.821	4848.05
453.027	5095.86
453.233	5753.26
453.44	5415.34
453.646	5736.87
453.852	6113.7
454.058	6218.15
454.264	6410.65
454.47	6742.43
454.676	7074.2
454.882	7403.92
455.088	7178.64
455.294	7448.97
455.5	8130.95
455.705	8653.18
455.911	8409.47
456.117	8933.75
456.323	8888.7
456.529	8874.36
456.735	9732.46
456.941	10217.83
457.147	10527.07
457.352	10764.64
457.558	11030.87
457.764	11786.57
457.97	12056.9
458.176	12712.25
458.381	13044.02
458.587	13164.86
458.793	13873.45
458.999	14094.63
459.204	16089.35
459.41	16296.2
459.616	16238.86
459.821	17268.98
460.027	17953.01
460.233	18370.79
460.438	18628.84
460.644	19896.53
460.85	20136.14
461.055	20869.31
461.261	21754.04
461.466	21446.84
461.672	21915.83
461.878	24385.68
462.083	24156.3
462.289	24643.72
462.494	25530.49
462.7	25954.42
462.905	26124.4
463.111	28414.03
463.316	29681.72
463.522	30287.92
463.727	31129.64
463.932	32143.38
464.138	33345.54
464.343	34680.81
464.549	34826.22
464.754	37062.6
464.959	38375.35
465.165	38981.55
465.37	38873.01
465.575	38721.46
465.781	41213.84
465.986	42604.41
466.191	41891.71
466.397	42461.05
466.602	41353.1
466.807	43370.35
467.012	44519.26
467.218	45256.53
467.423	45244.24
467.628	46178.11
