Data from USB4F104151__214__11-05-51-328.txt Node

Date: Wed Feb 26 11:05:51 EST 2025
User: louis
Spectrometer: USB4F10415
Trigger mode: 4
Integration Time (sec): 1.000000E-1
Scans to average: 1
Electric dark correction enabled: true
Nonlinearity correction enabled: false
Boxcar width: 0
XAxis mode: Wavelengths
Number of Pixels in Spectrum: 3648
>>>>>Begin Spectral Data<<<<<
178.204	-360.61
178.424	-360.61
178.644	-360.61
178.864	-374.95
179.084	-401.57
179.304	-10.41
179.524	24.4
179.744	-10.41
179.964	20.31
180.184	126.8
180.404	30.55
180.624	-71.85
180.844	-2.22
181.064	-65.71
181.283	-8.36
181.503	-80.04
181.723	46.93
181.943	-55.47
182.163	212.82
182.383	1.88
182.602	40.79
182.822	137.04
183.042	46.93
183.262	-41.13
183.482	-14.51
183.701	16.21
183.921	22.36
184.141	-30.89
184.361	12.12
184.58	100.18
184.8	59.22
185.02	14.17
185.239	81.75
185.459	106.32
185.679	87.89
185.898	-82.09
186.118	-16.55
186.338	-2.22
186.557	79.7
186.777	5.97
186.997	51.03
187.216	12.12
187.436	276.31
187.655	32.6
187.875	128.85
188.095	67.41
188.314	192.34
188.534	110.42
188.753	-88.23
188.973	89.94
189.192	169.81
189.412	-4.27
189.631	34.64
189.851	63.32
190.07	143.19
190.29	-43.18
190.509	-37.03
190.729	34.64
190.948	196.43
191.168	241.49
191.387	57.17
191.607	5.97
191.826	104.28
192.045	24.4
192.265	-12.46
192.484	75.6
192.704	87.89
192.923	-127.14
193.142	143.19
193.362	55.12
193.581	180.05
193.8	16.21
194.02	18.26
194.239	10.07
194.458	149.33
194.678	42.84
194.897	-41.13
195.116	124.76
195.335	36.69
195.555	20.31
195.774	32.6
195.993	108.37
196.212	-37.03
196.432	-24.75
196.651	-55.47
196.87	1.88
197.089	173.91
197.308	42.84
197.528	5.97
197.747	-55.47
197.966	44.88
198.185	106.32
198.404	12.12
198.623	161.62
198.842	102.23
199.062	137.04
199.281	112.47
199.5	22.36
199.719	20.31
199.938	46.93
200.157	46.93
200.376	128.85
200.595	118.61
200.814	34.64
201.033	-18.6
201.252	155.47
201.471	77.65
201.69	51.03
201.909	32.6
202.128	55.12
202.347	135
202.566	-8.36
202.785	-63.66
203.004	30.55
203.223	194.39
203.442	81.75
203.661	-53.42
203.879	108.37
204.098	165.71
204.317	18.26
204.536	87.89
204.755	159.57
204.974	106.32
205.193	-22.7
205.411	153.43
205.63	79.7
205.849	44.88
206.068	-12.46
206.287	-59.56
206.505	69.46
206.724	30.55
206.943	-71.85
207.162	55.12
207.381	100.18
207.599	-14.51
207.818	42.84
208.037	-26.79
208.255	85.84
208.474	157.52
208.693	77.65
208.911	69.46
209.13	83.8
209.349	46.93
209.567	73.56
209.786	-8.36
210.005	42.84
210.223	28.5
210.442	-133.29
210.661	1.88
210.879	18.26
211.098	-10.41
211.316	-10.41
211.535	81.75
211.753	81.75
211.972	73.56
212.191	-26.79
212.409	-59.56
212.628	34.64
212.846	63.32
213.065	38.74
213.283	98.13
213.502	40.79
213.72	-12.46
213.938	-18.6
214.157	-0.17
214.375	79.7
214.594	1.88
214.812	26.45
215.031	36.69
215.249	44.88
215.467	20.31
215.686	57.17
215.904	118.61
216.122	44.88
216.341	128.85
216.559	-28.84
216.778	120.66
216.996	108.37
217.214	98.13
217.432	48.98
217.651	-88.23
217.869	73.56
218.087	28.5
218.306	18.26
218.524	69.46
218.742	20.31
218.96	34.64
219.179	38.74
219.397	-12.46
219.615	292.69
219.833	24.4
220.051	-8.36
220.27	22.36
220.488	20.31
220.706	63.32
220.924	-59.56
221.142	-18.6
221.36	75.6
221.578	42.84
221.796	-2.22
222.015	61.27
222.233	-26.79
222.451	85.84
222.669	-0.17
222.887	128.85
223.105	-59.56
223.323	55.12
223.541	-51.37
223.759	85.84
223.977	44.88
224.195	229.2
224.413	124.76
224.631	-0.17
224.849	81.75
225.067	204.63
225.285	32.6
225.503	-55.47
225.721	-77.99
225.939	-18.6
226.157	20.31
226.375	194.39
226.592	-41.13
226.81	3.93
227.028	87.89
227.246	175.95
227.464	22.36
227.682	63.32
227.9	63.32
228.117	75.6
228.335	94.04
228.553	10.07
228.771	-61.61
228.989	59.22
229.206	63.32
229.424	-28.84
229.642	-80.04
229.86	-98.47
230.077	161.62
230.295	42.84
230.513	63.32
230.731	165.71
230.948	147.28
231.166	116.56
231.384	-10.41
231.601	-28.84
231.819	184.15
232.037	51.03
232.254	-43.18
232.472	-45.23
232.689	-10.41
232.907	141.14
233.125	67.41
233.342	-41.13
233.56	26.45
233.777	3.93
233.995	63.32
234.213	81.75
234.43	91.99
234.648	14.17
234.865	-8.36
235.083	112.47
235.3	106.32
235.518	36.69
235.735	100.18
235.953	57.17
236.17	8.02
236.388	-61.61
236.605	32.6
236.822	40.79
237.04	77.65
237.257	-0.17
237.475	-49.32
237.692	112.47
237.909	67.41
238.127	16.21
238.344	155.47
238.562	96.08
238.779	-28.84
238.996	-34.99
239.214	-22.7
239.431	-16.55
239.648	38.74
239.865	122.71
240.083	124.76
240.3	-43.18
240.517	3.93
240.735	-32.94
240.952	137.04
241.169	135
241.386	24.4
241.603	36.69
241.821	-34.99
242.038	51.03
242.255	67.41
242.472	-51.37
242.689	96.08
242.907	114.52
243.124	36.69
243.341	32.6
243.558	-22.7
243.775	-20.65
243.992	-59.56
244.209	116.56
244.426	126.8
244.643	24.4
244.86	-16.55
245.078	57.17
245.295	26.45
245.512	-24.75
245.729	14.17
245.946	22.36
246.163	44.88
246.38	26.45
246.597	53.08
246.814	73.56
247.031	32.6
247.248	46.93
247.464	42.84
247.681	44.88
247.898	94.04
248.115	-0.17
248.332	48.98
248.549	212.82
248.766	210.77
248.983	69.46
249.2	32.6
249.417	100.18
249.633	-8.36
249.85	79.7
250.067	59.22
250.284	-4.27
250.501	108.37
250.717	71.51
250.934	3.93
251.151	-12.46
251.368	-6.31
251.585	112.47
251.801	-8.36
252.018	-20.65
252.235	46.93
252.451	-65.71
252.668	-51.37
252.885	126.8
253.102	42.84
253.318	-18.6
253.535	44.88
253.752	-34.99
253.968	8.02
254.185	-57.51
254.401	112.47
254.618	135
254.835	-37.03
255.051	71.51
255.268	83.8
255.484	3.93
255.701	28.5
255.917	75.6
256.134	-10.41
256.351	26.45
256.567	-61.61
256.784	12.12
257	-104.62
257.217	94.04
257.433	83.8
257.65	63.32
257.866	139.09
258.082	-24.75
258.299	-39.08
258.515	36.69
258.732	-0.17
258.948	51.03
259.165	73.56
259.381	-49.32
259.597	20.31
259.814	-30.89
260.03	1.88
260.246	32.6
260.463	85.84
260.679	130.9
260.895	30.55
261.112	-8.36
261.328	-41.13
261.544	-24.75
261.761	137.04
261.977	-4.27
262.193	-30.89
262.409	83.8
262.626	12.12
262.842	-26.79
263.058	1.88
263.274	71.51
263.49	16.21
263.707	69.46
263.923	38.74
264.139	-51.37
264.355	22.36
264.571	124.76
264.787	114.52
265.004	106.32
265.22	32.6
265.436	-69.8
265.652	48.98
265.868	18.26
266.084	-24.75
266.3	-26.79
266.516	1.88
266.732	-26.79
266.948	-2.22
267.164	44.88
267.38	77.65
267.596	102.23
267.812	175.95
268.028	69.46
268.244	46.93
268.46	77.65
268.676	16.21
268.892	10.07
269.108	5.97
269.324	-73.9
269.54	-69.8
269.756	51.03
269.972	-18.6
270.188	73.56
270.403	-4.27
270.619	75.6
270.835	71.51
271.051	89.94
271.267	-30.89
271.483	-0.17
271.698	89.94
271.914	65.36
272.13	40.79
272.346	-82.09
272.562	32.6
272.777	100.18
272.993	16.21
273.209	-2.22
273.425	44.88
273.64	-114.86
273.856	14.17
274.072	-26.79
274.287	-12.46
274.503	153.43
274.719	46.93
274.934	59.22
275.15	-57.51
275.366	42.84
275.581	-73.9
275.797	87.89
276.012	59.22
276.228	3.93
276.444	77.65
276.659	98.13
276.875	-4.27
277.09	-32.94
277.306	-4.27
277.521	28.5
277.737	-10.41
277.952	22.36
278.168	57.17
278.383	57.17
278.599	-24.75
278.814	67.41
279.03	48.98
279.245	81.75
279.461	-0.17
279.676	-0.17
279.892	-28.84
280.107	-32.94
280.322	-10.41
280.538	36.69
280.753	-22.7
280.969	34.64
281.184	38.74
281.399	198.48
281.615	32.6
281.83	94.04
282.045	-16.55
282.26	-26.79
282.476	24.4
282.691	32.6
282.906	71.51
283.122	5.97
283.337	-32.94
283.552	28.5
283.767	-8.36
283.983	69.46
284.198	32.6
284.413	22.36
284.628	-104.62
284.843	57.17
285.058	36.69
285.274	28.5
285.489	-37.03
285.704	132.95
285.919	-12.46
286.134	-16.55
286.349	55.12
286.564	46.93
286.779	145.24
286.995	44.88
287.21	-73.9
287.425	51.03
287.64	16.21
287.855	59.22
288.07	-75.95
288.285	173.91
288.5	124.76
288.715	126.8
288.93	16.21
289.145	42.84
289.36	151.38
289.575	-16.55
289.79	75.6
290.004	-4.27
290.219	59.22
290.434	-53.42
290.649	-104.62
290.864	-34.99
291.079	48.98
291.294	42.84
291.509	98.13
291.724	28.5
291.938	-22.7
292.153	59.22
292.368	22.36
292.583	128.85
292.798	169.81
293.012	1.88
293.227	10.07
293.442	-18.6
293.657	65.36
293.871	143.19
294.086	104.28
294.301	229.2
294.516	44.88
294.73	28.5
294.945	-65.71
295.16	-28.84
295.374	130.9
295.589	149.33
295.804	30.55
296.018	77.65
296.233	69.46
296.447	63.32
296.662	1.88
296.877	116.56
297.091	63.32
297.306	-0.17
297.52	-6.31
297.735	-10.41
297.949	24.4
298.164	48.98
298.378	57.17
298.593	-65.71
298.807	-63.66
299.022	20.31
299.236	210.77
299.451	12.12
299.665	-18.6
299.88	-45.23
300.094	71.51
300.309	67.41
300.523	63.32
300.737	-16.55
300.952	-0.17
301.166	61.27
301.381	-16.55
301.595	-14.51
301.809	53.08
302.024	38.74
302.238	-90.28
302.452	194.39
302.667	10.07
302.881	102.23
303.095	57.17
303.309	100.18
303.524	16.21
303.738	-90.28
303.952	38.74
304.166	128.85
304.381	-84.14
304.595	173.91
304.809	8.02
305.023	1.88
305.237	-24.75
305.452	-14.51
305.666	118.61
305.88	69.46
306.094	85.84
306.308	51.03
306.522	-6.31
306.736	42.84
306.95	96.08
307.164	75.6
307.379	71.51
307.593	79.7
307.807	126.8
308.021	12.12
308.235	132.95
308.449	-43.18
308.663	-24.75
308.877	208.72
309.091	14.17
309.305	89.94
309.519	-88.23
309.733	81.75
309.947	-139.43
310.161	73.56
310.374	44.88
310.588	94.04
310.802	-12.46
311.016	85.84
311.23	26.45
311.444	-86.19
311.658	94.04
311.872	165.71
312.085	112.47
312.299	87.89
312.513	145.24
312.727	-20.65
312.941	-4.27
313.154	96.08
313.368	59.22
313.582	-51.37
313.796	24.4
314.009	-18.6
314.223	173.91
314.437	26.45
314.651	147.28
314.864	-39.08
315.078	1.88
315.292	-51.37
315.505	-0.17
315.719	5.97
315.933	112.47
316.146	-22.7
316.36	-4.27
316.573	100.18
316.787	75.6
317.001	83.8
317.214	-63.66
317.428	34.64
317.641	-67.75
317.855	-63.66
318.068	-6.31
318.282	34.64
318.495	192.34
318.709	108.37
318.922	18.26
319.136	126.8
319.349	139.09
319.563	-2.22
319.776	98.13
319.99	-96.43
320.203	83.8
320.417	48.98
320.63	65.36
320.843	132.95
321.057	46.93
321.27	-75.95
321.483	63.32
321.697	118.61
321.91	38.74
322.124	59.22
322.337	67.41
322.55	26.45
322.763	32.6
322.977	77.65
323.19	42.84
323.403	34.64
323.617	114.52
323.83	85.84
324.043	51.03
324.256	59.22
324.469	-22.7
324.683	71.51
324.896	126.8
325.109	5.97
325.322	-75.95
325.535	75.6
325.748	137.04
325.962	-55.47
326.175	96.08
326.388	57.17
326.601	116.56
326.814	26.45
327.027	98.13
327.24	139.09
327.453	-145.58
327.666	22.36
327.879	40.79
328.092	51.03
328.305	83.8
328.518	24.4
328.731	20.31
328.944	32.6
329.157	69.46
329.37	-20.65
329.583	128.85
329.796	81.75
330.009	-32.94
330.222	-32.94
330.435	135
330.648	53.08
330.861	75.6
331.073	46.93
331.286	108.37
331.499	89.94
331.712	26.45
331.925	30.55
332.138	53.08
332.35	83.8
332.563	-16.55
332.776	87.89
332.989	-4.27
333.202	26.45
333.414	-24.75
333.627	32.6
333.84	53.08
334.053	40.79
334.265	36.69
334.478	3.93
334.691	-14.51
334.903	48.98
335.116	75.6
335.329	14.17
335.541	22.36
335.754	137.04
335.966	71.51
336.179	32.6
336.392	24.4
336.604	20.31
336.817	132.95
337.029	87.89
337.242	12.12
337.454	87.89
337.667	5.97
337.88	161.62
338.092	69.46
338.305	100.18
338.517	22.36
338.729	151.38
338.942	151.38
339.154	-88.23
339.367	-37.03
339.579	96.08
339.792	-14.51
340.004	143.19
340.217	116.56
340.429	16.21
340.641	-37.03
340.854	-61.61
341.066	12.12
341.278	114.52
341.491	114.52
341.703	36.69
341.915	-65.71
342.128	32.6
342.34	51.03
342.552	-18.6
342.764	14.17
342.977	-12.46
343.189	42.84
343.401	79.7
343.613	-18.6
343.826	79.7
344.038	-20.65
344.25	67.41
344.462	-26.79
344.674	89.94
344.886	-4.27
345.099	89.94
345.311	28.5
345.523	32.6
345.735	-137.38
345.947	65.36
346.159	32.6
346.371	104.28
346.583	85.84
346.795	210.77
347.007	-2.22
347.219	12.12
347.431	-49.32
347.643	114.52
347.855	-88.23
348.067	59.22
348.279	-77.99
348.491	-2.22
348.703	65.36
348.915	63.32
349.127	3.93
349.339	-32.94
349.551	-34.99
349.763	83.8
349.975	55.12
350.187	118.61
350.399	155.47
350.61	132.95
350.822	65.36
351.034	42.84
351.246	-16.55
351.458	51.03
351.669	163.67
351.881	143.19
352.093	87.89
352.305	124.76
352.517	122.71
352.728	147.28
352.94	51.03
353.152	38.74
353.363	32.6
353.575	57.17
353.787	180.05
353.999	28.5
354.21	110.42
354.422	-37.03
354.633	-14.51
354.845	-30.89
355.057	-10.41
355.268	34.64
355.48	38.74
355.692	-69.8
355.903	38.74
356.115	-0.17
356.326	-39.08
356.538	126.8
356.749	159.57
356.961	132.95
357.172	96.08
357.384	-10.41
357.595	225.11
357.807	-45.23
358.018	-22.7
358.23	-10.41
358.441	124.76
358.653	26.45
358.864	42.84
359.075	-28.84
359.287	48.98
359.498	104.28
359.709	83.8
359.921	40.79
360.132	18.26
360.344	-4.27
360.555	53.08
360.766	36.69
360.977	5.97
361.189	130.9
361.4	-16.55
361.611	71.51
361.823	184.15
362.034	55.12
362.245	-51.37
362.456	98.13
362.667	100.18
362.879	-26.79
363.09	87.89
363.301	26.45
363.512	3.93
363.723	44.88
363.935	55.12
364.146	75.6
364.357	-16.55
364.568	36.69
364.779	-151.72
364.99	212.82
365.201	-14.51
365.412	63.32
365.623	-94.38
365.834	65.36
366.045	10.07
366.256	180.05
366.467	32.6
366.678	51.03
366.889	3.93
367.1	10.07
367.311	145.24
367.522	-61.61
367.733	98.13
367.944	102.23
368.155	135
368.366	122.71
368.577	225.11
368.788	87.89
368.999	-49.32
369.209	-24.75
369.42	218.96
369.631	268.11
369.842	63.32
370.053	-32.94
370.264	130.9
370.474	-59.56
370.685	8.02
370.896	40.79
371.107	139.09
371.317	26.45
371.528	-26.79
371.739	122.71
371.95	81.75
372.16	40.79
372.371	-16.55
372.582	3.93
372.792	38.74
373.003	51.03
373.214	73.56
373.424	124.76
373.635	-18.6
373.846	147.28
374.056	-20.65
374.267	87.89
374.477	63.32
374.688	-37.03
374.898	10.07
375.109	-57.51
375.319	28.5
375.53	112.47
375.74	91.99
375.951	-20.65
376.161	-47.27
376.372	79.7
376.582	1.88
376.793	120.66
377.003	-61.61
377.214	-4.27
377.424	85.84
377.635	69.46
377.845	-32.94
378.055	124.76
378.266	-84.14
378.476	-41.13
378.686	42.84
378.897	57.17
379.107	106.32
379.317	73.56
379.528	-14.51
379.738	18.26
379.948	8.02
380.158	104.28
380.369	108.37
380.579	114.52
380.789	141.14
380.999	55.12
381.21	128.85
381.42	159.57
381.63	-30.89
381.84	110.42
382.05	79.7
382.261	18.26
382.471	67.41
382.681	42.84
382.891	91.99
383.101	81.75
383.311	53.08
383.521	-4.27
383.731	75.6
383.941	169.81
384.151	51.03
384.361	12.12
384.571	32.6
384.781	53.08
384.991	180.05
385.201	159.57
385.411	57.17
385.621	53.08
385.831	118.61
386.041	116.56
386.251	30.55
386.461	71.51
386.671	-4.27
386.881	34.64
387.091	38.74
387.301	153.43
387.511	57.17
387.72	24.4
387.93	184.15
388.14	-82.09
388.35	40.79
388.56	110.42
388.769	67.41
388.979	57.17
389.189	28.5
389.399	122.71
389.609	137.04
389.818	106.32
390.028	69.46
390.238	-22.7
390.447	36.69
390.657	128.85
390.867	-28.84
391.076	-53.42
391.286	91.99
391.496	48.98
391.705	14.17
391.915	79.7
392.125	110.42
392.334	-43.18
392.544	132.95
392.753	118.61
392.963	-49.32
393.172	73.56
393.382	-24.75
393.591	192.34
393.801	8.02
394.01	157.52
394.22	116.56
394.429	-4.27
394.639	89.94
394.848	36.69
395.058	116.56
395.267	51.03
395.477	69.46
395.686	91.99
395.895	212.82
396.105	190.29
396.314	32.6
396.524	53.08
396.733	46.93
396.942	98.13
397.152	77.65
397.361	71.51
397.57	106.32
397.78	51.03
397.989	94.04
398.198	233.3
398.407	-26.79
398.617	85.84
398.826	65.36
399.035	12.12
399.244	81.75
399.453	79.7
399.663	139.09
399.872	77.65
400.081	-37.03
400.29	128.85
400.499	-39.08
400.708	128.85
400.917	73.56
401.127	22.36
401.336	22.36
401.545	229.2
401.754	110.42
401.963	108.37
402.172	42.84
402.381	-51.37
402.59	87.89
402.799	3.93
403.008	106.32
403.217	63.32
403.426	46.93
403.635	-55.47
403.844	38.74
404.053	59.22
404.262	14.17
404.471	116.56
404.68	5.97
404.888	-22.7
405.097	61.27
405.306	55.12
405.515	59.22
405.724	-12.46
405.933	122.71
406.142	149.33
406.35	171.86
406.559	24.4
406.768	18.26
406.977	204.63
407.185	143.19
407.394	128.85
407.603	22.36
407.812	48.98
408.02	108.37
408.229	10.07
408.438	34.64
408.646	-41.13
408.855	-26.79
409.064	114.52
409.272	-4.27
409.481	85.84
409.69	14.17
409.898	-28.84
410.107	57.17
410.315	79.7
410.524	42.84
410.733	61.27
410.941	91.99
411.15	120.66
411.358	147.28
411.567	106.32
411.775	57.17
411.984	55.12
412.192	81.75
412.401	-24.75
412.609	135
412.818	96.08
413.026	91.99
413.234	28.5
413.443	38.74
413.651	-8.36
413.86	102.23
414.068	198.48
414.276	169.81
414.485	53.08
414.693	155.47
414.901	200.53
415.11	67.41
415.318	59.22
415.526	59.22
415.734	102.23
415.943	1.88
416.151	110.42
416.359	81.75
416.567	57.17
416.776	149.33
416.984	91.99
417.192	110.42
417.4	61.27
417.608	26.45
417.817	16.21
418.025	69.46
418.233	100.18
418.441	-26.79
418.649	-32.94
418.857	85.84
419.065	161.62
419.273	22.36
419.481	69.46
419.689	46.93
419.897	20.31
420.105	-8.36
420.313	122.71
420.521	163.67
420.729	59.22
420.937	34.64
421.145	-22.7
421.353	157.52
421.561	122.71
421.769	75.6
421.977	3.93
422.185	118.61
422.393	46.93
422.601	151.38
422.809	178
423.017	59.22
423.224	38.74
423.432	102.23
423.64	-4.27
423.848	167.76
424.056	-32.94
424.263	108.37
424.471	73.56
424.679	122.71
424.887	12.12
425.094	120.66
425.302	-0.17
425.51	96.08
425.718	120.66
425.925	44.88
426.133	89.94
426.341	206.67
426.548	89.94
426.756	-37.03
426.964	110.42
427.171	26.45
427.379	32.6
427.586	53.08
427.794	141.14
428.001	94.04
428.209	128.85
428.417	182.1
428.624	186.19
428.832	67.41
429.039	53.08
429.247	139.09
429.454	163.67
429.662	239.44
429.869	135
430.076	145.24
430.284	182.1
430.491	216.91
430.699	128.85
430.906	212.82
431.114	112.47
431.321	100.18
431.528	112.47
431.736	139.09
431.943	184.15
432.15	159.57
432.358	227.15
432.565	175.95
432.772	-84.14
432.979	186.19
433.187	192.34
433.394	231.25
433.601	145.24
433.808	278.35
434.016	280.4
434.223	335.7
434.43	155.47
434.637	323.41
434.844	218.96
435.052	235.35
435.259	251.73
435.466	272.21
435.673	309.07
435.88	235.35
436.087	323.41
436.294	362.32
436.501	374.61
436.708	345.94
436.915	370.51
437.122	421.71
437.329	268.11
437.537	378.7
437.743	304.98
437.95	458.57
438.157	427.85
438.364	429.9
438.571	350.03
438.778	477.01
438.985	472.91
439.192	560.97
439.399	495.44
439.606	497.49
439.813	638.8
440.02	665.42
440.227	644.94
440.433	665.42
440.64	620.36
440.847	520.01
441.054	634.7
441.261	802.63
441.467	720.71
441.674	663.37
441.881	759.63
442.088	802.63
442.294	819.02
442.501	933.7
442.708	878.41
442.914	917.32
443.121	939.85
443.328	898.89
443.534	1029.96
443.741	927.56
443.948	954.18
444.154	1062.73
444.361	1390.4
444.568	1101.64
444.774	1144.64
444.981	1048.39
445.187	1376.06
445.394	1371.97
445.6	1308.48
445.807	1496.89
446.013	1390.4
446.22	1443.65
446.426	1595.2
446.633	1689.4
446.839	1802.04
447.046	1630.01
447.252	1886.01
447.459	1920.82
447.665	1851.19
447.871	2076.47
448.078	2271.03
448.284	2160.44
448.491	2295.6
448.697	2365.23
448.903	2459.44
449.11	2479.92
449.316	2627.37
449.522	2801.45
449.728	2897.71
449.935	2828.07
450.141	2922.28
450.347	3133.22
450.553	2998.06
450.76	3108.65
450.966	3305.25
451.172	3512.1
451.378	3460.9
451.584	3587.87
451.791	3888.92
451.997	4011.8
452.203	3979.03
452.409	4241.17
452.615	4599.57
452.821	4499.22
453.027	4390.67
453.233	4767.5
453.44	4996.87
453.646	5183.24
453.852	5330.69
454.058	5373.7
454.264	5666.56
454.47	5994.23
454.676	6170.36
454.882	6596.34
455.088	6207.22
455.294	6586.1
455.5	7055.08
455.705	7442.15
455.911	7245.54
456.117	7761.63
456.323	7960.28
456.529	7870.17
456.735	8648.4
456.941	8812.24
457.147	9144.01
457.352	9488.07
457.558	9850.56
457.764	10221.24
457.97	10630.84
458.176	10927.79
458.381	11636.39
458.587	11810.47
458.793	12392.09
458.999	12101.28
459.204	13981.31
459.41	14276.22
459.616	14163.58
459.821	15242.86
460.027	15695.46
460.233	16178.78
460.438	16543.32
460.644	17073.74
460.85	17653.32
461.055	18286.14
461.261	19322.41
461.466	19027.51
461.672	19222.06
461.878	21423.63
462.083	21339.66
462.289	21712.39
462.494	22550.01
462.7	22523.39
462.905	23076.34
463.111	24669.66
463.316	25849.29
463.522	26566.08
463.727	27362.74
463.932	28495.27
464.138	29302.17
464.343	30383.49
464.549	30494.08
464.754	32615.78
464.959	33561.94
465.165	34274.63
465.37	34170.19
465.575	33910.1
465.781	36111.66
465.986	37391.64
466.191	36545.83
466.397	37279
466.602	36062.51
466.807	38057.23
467.012	38857.99
467.218	39621.88
467.423	39546.11
467.628	40621.29
467.833	43039.94
468.038	42106.07
468.244	41409.76
468.449	43379.9
