Data from USB4F104151__136__11-03-45-144.txt Node

Date: Wed Feb 26 11:03:45 EST 2025
User: louis
Spectrometer: USB4F10415
Trigger mode: 4
Integration Time (sec): 1.000000E-1
Scans to average: 1
Electric dark correction enabled: true
Nonlinearity correction enabled: false
Boxcar width: 0
XAxis mode: Wavelengths
Number of Pixels in Spectrum: 3648
>>>>>Begin Spectral Data<<<<<
178.204	-416.76
178.424	-416.76
178.644	-416.76
178.864	-398.33
179.084	-461.82
179.304	-5.12
179.524	-29.7
179.744	17.41
179.964	31.74
180.184	37.89
180.404	74.75
180.624	27.65
180.844	-39.94
181.064	-56.32
181.283	44.03
181.503	-101.37
181.723	-1.02
181.943	-46.08
182.163	146.43
182.383	-29.7
182.602	95.23
182.822	136.19
183.042	70.65
183.262	-25.6
183.482	17.41
183.701	21.5
183.921	84.99
184.141	-46.08
184.361	19.46
184.58	31.74
184.8	54.27
185.02	5.12
185.239	84.99
185.459	62.46
185.679	168.96
185.898	-54.27
186.118	33.79
186.338	-31.74
186.557	136.19
186.777	-29.7
186.997	5.12
187.216	5.12
187.436	156.67
187.655	39.94
187.875	72.7
188.095	-52.22
188.314	52.22
188.534	125.95
188.753	11.26
188.973	185.34
189.192	134.14
189.412	-27.65
189.631	21.5
189.851	95.23
190.07	160.77
190.29	-64.51
190.509	-31.74
190.729	1.02
190.948	181.25
191.168	304.12
191.387	62.46
191.607	54.27
191.826	-5.12
192.045	5.12
192.265	-41.98
192.484	48.13
192.704	48.13
192.923	-15.36
193.142	214.01
193.362	160.77
193.581	173.05
193.8	64.51
194.02	17.41
194.239	29.7
194.458	64.51
194.678	21.5
194.897	-37.89
195.116	91.13
195.335	148.48
195.555	146.43
195.774	66.56
195.993	93.18
196.212	-1.02
196.432	11.26
196.651	-66.56
196.87	-23.55
197.089	252.92
197.308	60.42
197.528	89.09
197.747	-41.98
197.966	52.22
198.185	128
198.404	-19.46
198.623	109.57
198.842	89.09
199.062	97.28
199.281	82.94
199.5	107.52
199.719	-17.41
199.938	48.13
200.157	95.23
200.376	160.77
200.595	103.42
200.814	119.81
201.033	-80.89
201.252	113.66
201.471	78.85
201.69	89.09
201.909	9.22
202.128	89.09
202.347	87.04
202.566	-62.46
202.785	-25.6
203.004	9.22
203.223	254.97
203.442	132.09
203.661	-31.74
203.879	44.03
204.098	82.94
204.317	48.13
204.536	99.33
204.755	76.8
204.974	60.42
205.193	15.36
205.411	136.19
205.63	150.53
205.849	78.85
206.068	-19.46
206.287	-33.79
206.505	134.14
206.724	31.74
206.943	19.46
207.162	-72.7
207.381	66.56
207.599	-25.6
207.818	31.74
208.037	-62.46
208.255	48.13
208.474	80.89
208.693	89.09
208.911	23.55
209.13	62.46
209.349	76.8
209.567	199.68
209.786	105.47
210.005	56.32
210.223	19.46
210.442	-80.89
210.661	78.85
210.879	82.94
211.098	29.7
211.316	21.5
211.535	39.94
211.753	80.89
211.972	5.12
212.191	-7.17
212.409	11.26
212.628	78.85
212.846	37.89
213.065	13.31
213.283	121.85
213.502	-33.79
213.72	54.27
213.938	-17.41
214.157	5.12
214.375	62.46
214.594	41.98
214.812	84.99
215.031	-9.22
215.249	89.09
215.467	1.02
215.686	60.42
215.904	50.18
216.122	-37.89
216.341	105.47
216.559	19.46
216.778	89.09
216.996	105.47
217.214	13.31
217.432	1.02
217.651	-9.22
217.869	39.94
218.087	9.22
218.306	62.46
218.524	-11.26
218.742	-1.02
218.96	181.25
219.179	-62.46
219.397	48.13
219.615	279.55
219.833	80.89
220.051	-5.12
220.27	80.89
220.488	125.95
220.706	76.8
220.924	-15.36
221.142	-3.07
221.36	105.47
221.578	48.13
221.796	-3.07
222.015	-13.31
222.233	82.94
222.451	84.99
222.669	-13.31
222.887	62.46
223.105	50.18
223.323	56.32
223.541	-48.13
223.759	105.47
223.977	-37.89
224.195	128
224.413	80.89
224.631	39.94
224.849	115.71
225.067	228.35
225.285	-21.5
225.503	72.7
225.721	-87.04
225.939	5.12
226.157	52.22
226.375	177.15
226.592	-70.65
226.81	115.71
227.028	109.57
227.246	107.52
227.464	107.52
227.682	128
227.9	46.08
228.117	37.89
228.335	89.09
228.553	-13.31
228.771	70.65
228.989	50.18
229.206	1.02
229.424	13.31
229.642	15.36
229.86	-64.51
230.077	166.91
230.295	7.17
230.513	121.85
230.731	82.94
230.948	187.39
231.166	216.06
231.384	35.84
231.601	9.22
231.819	128
232.037	33.79
232.254	-56.32
232.472	39.94
232.689	39.94
232.907	111.61
233.125	3.07
233.342	-52.22
233.56	13.31
233.777	21.5
233.995	-5.12
234.213	52.22
234.43	64.51
234.648	3.07
234.865	50.18
235.083	39.94
235.3	107.52
235.518	58.37
235.735	183.29
235.953	117.76
236.17	52.22
236.388	11.26
236.605	27.65
236.822	93.18
237.04	107.52
237.257	113.66
237.475	-17.41
237.692	41.98
237.909	91.13
238.127	-58.37
238.344	121.85
238.562	25.6
238.779	-7.17
238.996	-50.18
239.214	27.65
239.431	62.46
239.648	-78.85
239.865	33.79
240.083	70.65
240.3	-17.41
240.517	-37.89
240.735	23.55
240.952	82.94
241.169	80.89
241.386	52.22
241.603	70.65
241.821	21.5
242.038	50.18
242.255	138.24
242.472	-13.31
242.689	46.08
242.907	144.38
243.124	132.09
243.341	27.65
243.558	-11.26
243.775	-39.94
243.992	-35.84
244.209	103.42
244.426	130.05
244.643	29.7
244.86	-21.5
245.078	54.27
245.295	-15.36
245.512	11.26
245.729	31.74
245.946	19.46
246.163	15.36
246.38	29.7
246.597	80.89
246.814	54.27
247.031	21.5
247.248	115.71
247.464	134.14
247.681	31.74
247.898	-1.02
248.115	9.22
248.332	17.41
248.549	148.48
248.766	168.96
248.983	23.55
249.2	33.79
249.417	62.46
249.633	-19.46
249.85	121.85
250.067	-37.89
250.284	93.18
250.501	66.56
250.717	95.23
250.934	-1.02
251.151	48.13
251.368	93.18
251.585	-27.65
251.801	68.61
252.018	-9.22
252.235	138.24
252.451	-39.94
252.668	39.94
252.885	144.38
253.102	103.42
253.318	66.56
253.535	31.74
253.752	-58.37
253.968	1.02
254.185	-74.75
254.401	107.52
254.618	-39.94
254.835	-23.55
255.051	138.24
255.268	13.31
255.484	50.18
255.701	62.46
255.917	11.26
256.134	-15.36
256.351	-64.51
256.567	-60.42
256.784	25.6
257	-107.52
257.217	123.9
257.433	109.57
257.65	-52.22
257.866	128
258.082	-13.31
258.299	-25.6
258.515	58.37
258.732	-7.17
258.948	-27.65
259.165	97.28
259.381	-11.26
259.597	109.57
259.814	62.46
260.03	52.22
260.246	3.07
260.463	25.6
260.679	72.7
260.895	19.46
261.112	17.41
261.328	35.84
261.544	31.74
261.761	177.15
261.977	31.74
262.193	-46.08
262.409	68.61
262.626	52.22
262.842	23.55
263.058	17.41
263.274	115.71
263.49	87.04
263.707	115.71
263.923	93.18
264.139	7.17
264.355	68.61
264.571	113.66
264.787	193.53
265.004	148.48
265.22	84.99
265.436	41.98
265.652	33.79
265.868	21.5
266.084	29.7
266.3	13.31
266.516	134.14
266.732	72.7
266.948	-33.79
267.164	-9.22
267.38	1.02
267.596	105.47
267.812	177.15
268.028	41.98
268.244	1.02
268.46	-13.31
268.676	7.17
268.892	39.94
269.108	-56.32
269.324	60.42
269.54	-128
269.756	89.09
269.972	17.41
270.188	62.46
270.403	-93.18
270.619	44.03
270.835	111.61
271.051	15.36
271.267	-37.89
271.483	-17.41
271.698	68.61
271.914	82.94
272.13	56.32
272.346	-17.41
272.562	52.22
272.777	68.61
272.993	31.74
273.209	-21.5
273.425	68.61
273.64	-33.79
273.856	121.85
274.072	-93.18
274.287	-39.94
274.503	82.94
274.719	62.46
274.934	1.02
275.15	-9.22
275.366	52.22
275.581	1.02
275.797	44.03
276.012	46.08
276.228	13.31
276.444	-11.26
276.659	123.9
276.875	-84.99
277.09	9.22
277.306	5.12
277.521	103.42
277.737	54.27
277.952	68.61
278.168	35.84
278.383	41.98
278.599	-27.65
278.814	99.33
279.03	54.27
279.245	99.33
279.461	11.26
279.676	164.86
279.892	-89.09
280.107	-17.41
280.322	-58.37
280.538	74.75
280.753	-128
280.969	-21.5
281.184	9.22
281.399	87.04
281.615	52.22
281.83	56.32
282.045	-144.38
282.26	-25.6
282.476	62.46
282.691	58.37
282.906	119.81
283.122	11.26
283.337	-23.55
283.552	29.7
283.767	48.13
283.983	82.94
284.198	39.94
284.413	80.89
284.628	3.07
284.843	1.02
285.058	140.29
285.274	46.08
285.489	-21.5
285.704	7.17
285.919	9.22
286.134	-27.65
286.349	3.07
286.564	-15.36
286.779	123.9
286.995	41.98
287.21	37.89
287.425	58.37
287.64	1.02
287.855	52.22
288.07	-91.13
288.285	93.18
288.5	117.76
288.715	19.46
288.93	23.55
289.145	-54.27
289.36	117.76
289.575	19.46
289.79	95.23
290.004	-15.36
290.219	76.8
290.434	-44.03
290.649	-21.5
290.864	-60.42
291.079	27.65
291.294	21.5
291.509	-1.02
291.724	27.65
291.938	37.89
292.153	113.66
292.368	35.84
292.583	-1.02
292.798	27.65
293.012	46.08
293.227	39.94
293.442	-7.17
293.657	107.52
293.871	103.42
294.086	-46.08
294.301	189.44
294.516	142.33
294.73	13.31
294.945	-29.7
295.16	-19.46
295.374	138.24
295.589	9.22
295.804	-68.61
296.018	25.6
296.233	140.29
296.447	72.7
296.662	-70.65
296.877	56.32
297.091	31.74
297.306	37.89
297.52	48.13
297.735	1.02
297.949	56.32
298.164	93.18
298.378	3.07
298.593	-19.46
298.807	1.02
299.022	-23.55
299.236	113.66
299.451	9.22
299.665	-21.5
299.88	29.7
300.094	31.74
300.309	56.32
300.523	80.89
300.737	-27.65
300.952	54.27
301.166	103.42
301.381	-15.36
301.595	-31.74
301.809	44.03
302.024	95.23
302.238	-60.42
302.452	179.2
302.667	-11.26
302.881	91.13
303.095	31.74
303.309	19.46
303.524	-25.6
303.738	11.26
303.952	-7.17
304.166	25.6
304.381	-117.76
304.595	89.09
304.809	5.12
305.023	76.8
305.237	-27.65
305.452	-50.18
305.666	150.53
305.88	115.71
306.094	97.28
306.308	128
306.522	15.36
306.736	84.99
306.95	82.94
307.164	-5.12
307.379	138.24
307.593	128
307.807	115.71
308.021	121.85
308.235	58.37
308.449	-62.46
308.663	-29.7
308.877	181.25
309.091	134.14
309.305	19.46
309.519	7.17
309.733	115.71
309.947	-113.66
310.161	19.46
310.374	99.33
310.588	144.38
310.802	-64.51
311.016	11.26
311.23	35.84
311.444	9.22
311.658	56.32
311.872	119.81
312.085	154.62
312.299	66.56
312.513	97.28
312.727	125.95
312.941	-54.27
313.154	-17.41
313.368	52.22
313.582	39.94
313.796	72.7
314.009	21.5
314.223	257.02
314.437	66.56
314.651	-3.07
314.864	-54.27
315.078	-17.41
315.292	-25.6
315.505	-15.36
315.719	33.79
315.933	121.85
316.146	44.03
316.36	66.56
316.573	66.56
316.787	93.18
317.001	27.65
317.214	48.13
317.428	74.75
317.641	-91.13
317.855	5.12
318.068	31.74
318.282	91.13
318.495	171.01
318.709	76.8
318.922	76.8
319.136	60.42
319.349	105.47
319.563	-11.26
319.776	9.22
319.99	-58.37
320.203	138.24
320.417	66.56
320.63	111.61
320.843	156.67
321.057	11.26
321.27	50.18
321.483	93.18
321.697	177.15
321.91	39.94
322.124	35.84
322.337	101.37
322.55	-3.07
322.763	66.56
322.977	23.55
323.19	29.7
323.403	21.5
323.617	37.89
323.83	84.99
324.043	37.89
324.256	105.47
324.469	21.5
324.683	123.9
324.896	17.41
325.109	62.46
325.322	-29.7
325.535	66.56
325.748	62.46
325.962	9.22
326.175	-46.08
326.388	56.32
326.601	123.9
326.814	33.79
327.027	9.22
327.24	148.48
327.453	-58.37
327.666	44.03
327.879	154.62
328.092	74.75
328.305	101.37
328.518	-62.46
328.731	5.12
328.944	-5.12
329.157	-11.26
329.37	9.22
329.583	148.48
329.796	87.04
330.009	-39.94
330.222	113.66
330.435	46.08
330.648	58.37
330.861	52.22
331.073	54.27
331.286	50.18
331.499	31.74
331.712	9.22
331.925	1.02
332.138	44.03
332.35	144.38
332.563	48.13
332.776	138.24
332.989	-68.61
333.202	-31.74
333.414	41.98
333.627	-7.17
333.84	-7.17
334.053	160.77
334.265	29.7
334.478	89.09
334.691	78.85
334.903	89.09
335.116	-11.26
335.329	23.55
335.541	125.95
335.754	125.95
335.966	-48.13
336.179	115.71
336.392	-19.46
336.604	3.07
336.817	95.23
337.029	78.85
337.242	23.55
337.454	58.37
337.667	17.41
337.88	179.2
338.092	113.66
338.305	15.36
338.517	-21.5
338.729	76.8
338.942	97.28
339.154	-9.22
339.367	-48.13
339.579	109.57
339.792	-11.26
340.004	-1.02
340.217	23.55
340.429	99.33
340.641	-35.84
340.854	-23.55
341.066	35.84
341.278	95.23
341.491	201.72
341.703	78.85
341.915	-50.18
342.128	37.89
342.34	52.22
342.552	-50.18
342.764	-7.17
342.977	-44.03
343.189	97.28
343.401	46.08
343.613	-13.31
343.826	1.02
344.038	-3.07
344.25	37.89
344.462	11.26
344.674	76.8
344.886	-25.6
345.099	58.37
345.311	64.51
345.523	-62.46
345.735	-164.86
345.947	17.41
346.159	46.08
346.371	19.46
346.583	31.74
346.795	205.82
347.007	97.28
347.219	76.8
347.431	19.46
347.643	246.78
347.855	-62.46
348.067	107.52
348.279	-64.51
348.491	82.94
348.703	87.04
348.915	9.22
349.127	-37.89
349.339	84.99
349.551	1.02
349.763	105.47
349.975	-21.5
350.187	119.81
350.399	189.44
350.61	7.17
350.822	-33.79
351.034	130.05
351.246	74.75
351.458	54.27
351.669	97.28
351.881	84.99
352.093	173.05
352.305	58.37
352.517	23.55
352.728	156.67
352.94	-7.17
353.152	19.46
353.363	-33.79
353.575	68.61
353.787	132.09
353.999	52.22
354.21	193.53
354.422	-66.56
354.633	-5.12
354.845	7.17
355.057	60.42
355.268	-15.36
355.48	113.66
355.692	-29.7
355.903	105.47
356.115	31.74
356.326	-62.46
356.538	123.9
356.749	46.08
356.961	74.75
357.172	52.22
357.384	35.84
357.595	271.36
357.807	7.17
358.018	-60.42
358.23	11.26
358.441	105.47
358.653	39.94
358.864	19.46
359.075	-31.74
359.287	101.37
359.498	150.53
359.709	72.7
359.921	-5.12
360.132	48.13
360.344	25.6
360.555	-23.55
360.766	54.27
360.977	54.27
361.189	62.46
361.4	37.89
361.611	144.38
361.823	140.29
362.034	25.6
362.245	-119.81
362.456	74.75
362.667	64.51
362.879	-25.6
363.09	17.41
363.301	-19.46
363.512	35.84
363.723	68.61
363.935	-5.12
364.146	130.05
364.357	-7.17
364.568	33.79
364.779	-109.57
364.99	199.68
365.201	3.07
365.412	74.75
365.623	-41.98
365.834	31.74
366.045	107.52
366.256	37.89
366.467	76.8
366.678	-31.74
366.889	-5.12
367.1	56.32
367.311	121.85
367.522	-33.79
367.733	103.42
367.944	50.18
368.155	11.26
368.366	115.71
368.577	224.25
368.788	121.85
368.999	-27.65
369.209	-1.02
369.42	171.01
369.631	263.16
369.842	125.95
370.053	-11.26
370.264	62.46
370.474	-27.65
370.685	109.57
370.896	-9.22
371.107	115.71
371.317	80.89
371.528	-29.7
371.739	117.76
371.95	78.85
372.16	146.43
372.371	-35.84
372.582	74.75
372.792	35.84
373.003	5.12
373.214	46.08
373.424	95.23
373.635	-15.36
373.846	91.13
374.056	27.65
374.267	101.37
374.477	82.94
374.688	-5.12
374.898	84.99
375.109	76.8
375.319	103.42
375.53	35.84
375.74	111.61
375.951	29.7
376.161	56.32
376.372	66.56
376.582	-70.65
376.793	35.84
377.003	37.89
377.214	-66.56
377.424	76.8
377.635	76.8
377.845	29.7
378.055	121.85
378.266	-1.02
378.476	1.02
378.686	76.8
378.897	70.65
379.107	119.81
379.317	35.84
379.528	-11.26
379.738	91.13
379.948	7.17
380.158	84.99
380.369	97.28
380.579	64.51
380.789	41.98
380.999	84.99
381.21	115.71
381.42	117.76
381.63	52.22
381.84	25.6
382.05	56.32
382.261	107.52
382.471	117.76
382.681	78.85
382.891	199.68
383.101	44.03
383.311	27.65
383.521	64.51
383.731	80.89
383.941	156.67
384.151	97.28
384.361	89.09
384.571	37.89
384.781	128
384.991	199.68
385.201	220.16
385.411	115.71
385.621	50.18
385.831	21.5
386.041	-9.22
386.251	33.79
386.461	185.34
386.671	33.79
386.881	-29.7
387.091	-50.18
387.301	168.96
387.511	-33.79
387.72	125.95
387.93	134.14
388.14	-78.85
388.35	105.47
388.56	35.84
388.769	117.76
388.979	11.26
389.189	-97.28
389.399	56.32
389.609	89.09
389.818	105.47
390.028	52.22
390.238	164.86
390.447	44.03
390.657	41.98
390.867	17.41
391.076	-111.61
391.286	39.94
391.496	-1.02
391.705	-23.55
391.915	156.67
392.125	179.2
392.334	-5.12
392.544	207.87
392.753	62.46
392.963	11.26
393.172	21.5
393.382	-66.56
393.591	164.86
393.801	-5.12
394.01	211.96
394.22	128
394.429	91.13
394.639	7.17
394.848	66.56
395.058	19.46
395.267	66.56
395.477	144.38
395.686	84.99
395.895	261.12
396.105	207.87
396.314	123.9
396.524	9.22
396.733	99.33
396.942	62.46
397.152	-7.17
397.361	173.05
397.57	72.7
397.78	39.94
397.989	58.37
398.198	248.83
398.407	-17.41
398.617	123.9
398.826	19.46
399.035	17.41
399.244	107.52
399.453	23.55
399.663	60.42
399.872	23.55
400.081	56.32
400.29	144.38
400.499	7.17
400.708	52.22
400.917	39.94
401.127	58.37
401.336	41.98
401.545	164.86
401.754	93.18
401.963	136.19
402.172	9.22
402.381	-9.22
402.59	68.61
402.799	58.37
403.008	154.62
403.217	23.55
403.426	44.03
403.635	-41.98
403.844	19.46
404.053	-9.22
404.262	33.79
404.471	179.2
404.68	70.65
404.888	60.42
405.097	13.31
405.306	1.02
405.515	31.74
405.724	-58.37
405.933	99.33
406.142	29.7
406.35	89.09
406.559	15.36
406.768	-7.17
406.977	166.91
407.185	-41.98
407.394	95.23
407.603	-101.37
407.812	50.18
408.02	76.8
408.229	-44.03
408.438	21.5
408.646	-72.7
408.855	74.75
409.064	25.6
409.272	7.17
409.481	48.13
409.69	-46.08
409.898	13.31
410.107	125.95
410.315	113.66
410.524	-33.79
410.733	-21.5
410.941	29.7
411.15	84.99
411.358	146.43
411.567	105.47
411.775	17.41
411.984	82.94
412.192	62.46
412.401	-68.61
412.609	123.9
412.818	138.24
413.026	87.04
413.234	50.18
413.443	41.98
413.651	-25.6
413.86	87.04
414.068	191.49
414.276	236.54
414.485	-1.02
414.693	193.53
414.901	209.92
415.11	-9.22
415.318	31.74
415.526	52.22
415.734	95.23
415.943	123.9
416.151	119.81
416.359	-41.98
416.567	97.28
416.776	58.37
416.984	93.18
417.192	130.05
417.4	64.51
417.608	58.37
417.817	-13.31
418.025	154.62
418.233	183.29
418.441	-50.18
418.649	7.17
418.857	72.7
419.065	152.57
419.273	-19.46
419.481	62.46
419.689	101.37
419.897	-7.17
420.105	84.99
420.313	166.91
420.521	183.29
420.729	199.68
420.937	44.03
421.145	-31.74
421.353	68.61
421.561	144.38
421.769	70.65
421.977	-68.61
422.185	134.14
422.393	41.98
422.601	166.91
422.809	115.71
423.017	52.22
423.224	39.94
423.432	111.61
423.64	19.46
423.848	134.14
424.056	27.65
424.263	87.04
424.471	44.03
424.679	179.2
424.887	-99.33
425.094	113.66
425.302	115.71
425.51	80.89
425.718	97.28
425.925	31.74
426.133	48.13
426.341	283.64
426.548	50.18
426.756	72.7
426.964	195.58
427.171	15.36
427.379	66.56
427.586	64.51
427.794	136.19
428.001	128
428.209	121.85
428.417	218.11
428.624	173.05
428.832	97.28
429.039	87.04
429.247	103.42
429.454	125.95
429.662	232.44
429.869	115.71
430.076	103.42
430.284	171.01
430.491	171.01
430.699	189.44
430.906	265.21
431.114	158.72
431.321	203.77
431.528	156.67
431.736	95.23
431.943	177.15
432.15	181.25
432.358	117.76
432.565	297.98
432.772	82.94
432.979	191.49
433.187	142.33
433.394	254.97
433.601	166.91
433.808	218.11
434.016	257.02
434.223	175.1
434.43	185.34
434.637	293.88
434.844	300.03
435.052	244.73
435.259	304.12
435.466	297.98
435.673	158.72
435.88	234.49
436.087	240.64
436.294	295.93
436.501	353.27
436.708	326.65
436.915	322.56
437.122	369.66
437.329	281.6
437.537	326.65
437.743	336.89
437.95	496.63
438.157	300.03
438.364	404.47
438.571	412.67
438.778	375.8
438.985	416.76
439.192	533.5
439.399	435.19
439.606	553.98
439.813	523.26
440.02	652.28
440.227	781.3
440.433	588.79
440.64	607.22
440.847	533.5
441.054	717.81
441.261	760.82
441.467	615.41
441.674	611.32
441.881	766.96
442.088	711.67
442.294	785.4
442.501	883.7
442.708	838.64
442.914	762.87
443.121	938.99
443.328	967.67
443.534	975.86
443.741	945.14
443.948	922.61
444.154	1020.91
444.361	1256.43
444.568	1115.12
444.774	1102.83
444.981	1090.54
445.187	1379.31
445.394	1194.99
445.6	1184.75
445.807	1487.85
446.013	1383.4
446.22	1362.92
446.426	1567.72
446.633	1475.56
446.839	1795.04
447.046	1489.9
447.252	1704.93
447.459	1854.44
447.665	1790.95
447.871	2028.51
448.078	2135.01
448.284	2032.61
448.491	2171.87
448.697	2264.03
448.903	2366.43
449.11	2272.22
449.316	2331.61
449.522	2579.42
449.728	2726.87
449.935	2741.21
450.141	2788.31
450.347	2997.2
450.553	2960.34
450.76	2960.34
450.966	3204.05
451.172	3351.5
451.378	3564.49
451.584	3439.56
451.791	3828.68
451.997	3840.97
452.203	3953.6
452.409	4207.55
452.615	4359.1
452.821	4299.71
453.027	4219.84
453.233	4729.78
453.44	4578.23
453.646	4934.58
453.852	4987.83
454.058	5194.67
454.264	5469.1
454.47	5931.94
454.676	5815.21
454.882	6484.89
455.088	6226.85
455.294	6554.52
455.5	6890.39
455.705	7244.69
455.911	7195.54
456.117	7353.23
456.323	7660.43
456.529	7904.14
456.735	8416.13
456.941	8790.91
457.147	9003.89
457.352	9317.23
457.558	9558.89
457.764	10152.81
457.97	10210.15
458.176	10896.22
458.381	11121.49
458.587	11590.48
458.793	12206.92
458.999	12161.86
459.204	13589.3
459.41	14054.19
459.616	14021.42
459.821	14707.49
460.027	15348.5
460.233	16036.62
460.438	16309
460.644	17255.16
460.85	17134.33
461.055	18025.2
461.261	18881.25
461.466	18254.57
461.672	19192.54
461.878	21048
462.083	20611.78
462.289	21351.1
462.494	22028.98
462.7	22158
462.905	22436.52
463.111	24750.73
463.316	25457.28
463.522	26016.37
463.727	26700.39
463.932	27789.91
464.138	28867.14
464.343	29723.19
464.549	29973.05
464.754	32094.74
464.959	32899.59
465.165	33673.73
465.37	33581.57
465.575	33131.01
465.781	35492.32
465.986	36622.8
466.191	36008.41
466.397	36649.42
466.602	35258.85
466.807	37099.98
467.012	37654.98
467.218	38248.89
467.423	38613.43
467.628	39686.56
467.833	41722.24
468.038	40796.56
468.244	40214.94
468.449	42363.26
468.654	41521.54
468.859	41345.42
469.064	41337.23
