Data from USB4F104151__175__11-05-01-435.txt Node

Date: Wed Feb 26 11:05:01 EST 2025
User: louis
Spectrometer: USB4F10415
Trigger mode: 4
Integration Time (sec): 1.000000E-1
Scans to average: 1
Electric dark correction enabled: true
Nonlinearity correction enabled: false
Boxcar width: 0
XAxis mode: Wavelengths
Number of Pixels in Spectrum: 3648
>>>>>Begin Spectral Data<<<<<
178.204	-401.06
178.424	-401.06
178.644	-401.06
178.864	-384.68
179.084	-468.64
179.304	-1.71
179.524	-32.43
179.744	22.87
179.964	29.01
180.184	-20.14
180.404	33.11
180.624	-30.38
180.844	16.73
181.064	-24.23
181.283	-9.9
181.503	6.49
181.723	10.58
181.943	-145.06
182.163	98.64
182.383	-48.81
182.602	20.82
182.822	110.93
183.042	29.01
183.262	18.77
183.482	-93.87
183.701	20.82
183.921	26.96
184.141	-87.72
184.361	31.06
184.58	108.88
184.8	51.54
185.02	-16.04
185.239	121.17
185.459	90.45
185.679	155.99
185.898	-71.34
186.118	35.16
186.338	106.84
186.557	80.21
186.777	-11.95
186.997	31.06
187.216	29.01
187.436	145.75
187.655	16.73
187.875	94.55
188.095	14.68
188.314	141.65
188.534	94.55
188.753	-28.33
188.973	139.6
189.192	69.97
189.412	41.3
189.631	86.36
189.851	102.74
190.07	149.84
190.29	-34.47
190.509	-36.52
190.729	29.01
190.948	209.23
191.168	256.34
191.387	-3.75
191.607	-32.43
191.826	39.25
192.045	-20.14
192.265	-5.8
192.484	31.06
192.704	55.64
192.923	-38.57
193.142	172.37
193.362	61.78
193.581	121.17
193.8	-11.95
194.02	104.79
194.239	82.26
194.458	74.07
194.678	-36.52
194.897	-36.52
195.116	57.68
195.335	115.03
195.555	92.5
195.774	8.53
195.993	88.4
196.212	-34.47
196.432	12.63
196.651	-40.62
196.87	2.39
197.089	291.15
197.308	18.77
197.528	47.44
197.747	-50.86
197.966	-11.95
198.185	133.46
198.404	-36.52
198.623	158.03
198.842	82.26
199.062	35.16
199.281	133.46
199.5	78.16
199.719	123.22
199.938	53.59
200.157	65.88
200.376	149.84
200.595	176.47
200.814	55.64
201.033	-9.9
201.252	115.03
201.471	31.06
201.69	125.27
201.909	2.39
202.128	119.12
202.347	2.39
202.566	33.11
202.785	-38.57
203.004	-69.29
203.223	246.1
203.442	-22.19
203.661	-91.82
203.879	98.64
204.098	98.64
204.317	-26.28
204.536	104.79
204.755	104.79
204.974	137.56
205.193	4.44
205.411	147.8
205.63	141.65
205.849	98.64
206.068	-46.76
206.287	-52.91
206.505	123.22
206.724	16.73
206.943	-52.91
207.162	41.3
207.381	119.12
207.599	84.31
207.818	0.34
208.037	-77.48
208.255	6.49
208.474	78.16
208.693	102.74
208.911	12.63
209.13	63.83
209.349	33.11
209.567	0.34
209.786	82.26
210.005	86.36
210.223	162.13
210.442	-104.11
210.661	61.78
210.879	41.3
211.098	4.44
211.316	8.53
211.535	49.49
211.753	-13.99
211.972	86.36
212.191	31.06
212.409	-7.85
212.628	88.4
212.846	12.63
213.065	-16.04
213.283	166.23
213.502	-54.95
213.72	-36.52
213.938	8.53
214.157	53.59
214.375	158.03
214.594	31.06
214.812	149.84
215.031	26.96
215.249	0.34
215.467	76.12
215.686	8.53
215.904	55.64
216.122	-16.04
216.341	162.13
216.559	74.07
216.778	29.01
216.996	80.21
217.214	-52.91
217.432	-52.91
217.651	-102.06
217.869	43.35
218.087	-13.99
218.306	8.53
218.524	-16.04
218.742	100.69
218.96	82.26
219.179	12.63
219.397	20.82
219.615	227.67
219.833	80.21
220.051	-63.15
220.27	143.7
220.488	96.6
220.706	0.34
220.924	-85.67
221.142	-9.9
221.36	67.92
221.578	78.16
221.796	88.4
222.015	31.06
222.233	53.59
222.451	180.56
222.669	43.35
222.887	104.79
223.105	16.73
223.323	22.87
223.541	-79.53
223.759	-1.71
223.977	-32.43
224.195	184.66
224.413	80.21
224.631	57.68
224.849	69.97
225.067	127.32
225.285	-26.28
225.503	4.44
225.721	-100.01
225.939	51.54
226.157	41.3
226.375	221.52
226.592	-87.72
226.81	65.88
227.028	115.03
227.246	51.54
227.464	96.6
227.682	94.55
227.9	82.26
228.117	31.06
228.335	104.79
228.553	41.3
228.771	63.83
228.989	59.73
229.206	121.17
229.424	18.77
229.642	12.63
229.86	-22.19
230.077	67.92
230.295	59.73
230.513	78.16
230.731	65.88
230.948	100.69
231.166	115.03
231.384	-5.8
231.601	-24.23
231.819	147.8
232.037	-110.25
232.254	-26.28
232.472	-57
232.689	24.92
232.907	94.55
233.125	-38.57
233.342	8.53
233.56	-54.95
233.777	-46.76
233.995	24.92
234.213	158.03
234.43	-7.85
234.648	39.25
234.865	-42.67
235.083	119.12
235.3	63.83
235.518	110.93
235.735	170.32
235.953	135.51
236.17	33.11
236.388	26.96
236.605	18.77
236.822	72.02
237.04	123.22
237.257	43.35
237.475	-30.38
237.692	-16.04
237.909	125.27
238.127	33.11
238.344	104.79
238.562	-26.28
238.779	-7.85
238.996	-46.76
239.214	57.68
239.431	67.92
239.648	45.4
239.865	76.12
240.083	63.83
240.3	-40.62
240.517	33.11
240.735	55.64
240.952	35.16
241.169	86.36
241.386	45.4
241.603	6.49
241.821	76.12
242.038	131.41
242.255	49.49
242.472	-34.47
242.689	39.25
242.907	57.68
243.124	33.11
243.341	31.06
243.558	-116.39
243.775	-134.82
243.992	-52.91
244.209	55.64
244.426	135.51
244.643	-11.95
244.86	22.87
245.078	117.08
245.295	53.59
245.512	43.35
245.729	-93.87
245.946	10.58
246.163	49.49
246.38	-3.75
246.597	65.88
246.814	63.83
247.031	61.78
247.248	41.3
247.464	69.97
247.681	47.44
247.898	76.12
248.115	-1.71
248.332	-28.33
248.549	37.2
248.766	117.08
248.983	49.49
249.2	51.54
249.417	63.83
249.633	6.49
249.85	31.06
250.067	74.07
250.284	59.73
250.501	43.35
250.717	6.49
250.934	-36.52
251.151	37.2
251.368	24.92
251.585	37.2
251.801	82.26
252.018	-46.76
252.235	104.79
252.451	-79.53
252.668	43.35
252.885	110.93
253.102	76.12
253.318	20.82
253.535	-7.85
253.752	35.16
253.968	-36.52
254.185	-52.91
254.401	51.54
254.618	26.96
254.835	-59.05
255.051	88.4
255.268	129.36
255.484	16.73
255.701	63.83
255.917	61.78
256.134	-32.43
256.351	-38.57
256.567	-69.29
256.784	-9.9
257	-73.39
257.217	-26.28
257.433	127.32
257.65	49.49
257.866	119.12
258.082	-42.67
258.299	-38.57
258.515	22.87
258.732	39.25
258.948	12.63
259.165	69.97
259.381	-1.71
259.597	47.44
259.814	8.53
260.03	24.92
260.246	20.82
260.463	78.16
260.679	125.27
260.895	-5.8
261.112	26.96
261.328	35.16
261.544	-46.76
261.761	125.27
261.977	-57
262.193	33.11
262.409	74.07
262.626	55.64
262.842	-34.47
263.058	63.83
263.274	106.84
263.49	-11.95
263.707	74.07
263.923	90.45
264.139	-54.95
264.355	8.53
264.571	72.02
264.787	121.17
265.004	123.22
265.22	-18.09
265.436	-46.76
265.652	-1.71
265.868	131.41
266.084	-7.85
266.3	67.92
266.516	-42.67
266.732	51.54
266.948	69.97
267.164	-24.23
267.38	104.79
267.596	31.06
267.812	205.14
268.028	98.64
268.244	-18.09
268.46	82.26
268.676	86.36
268.892	39.25
269.108	-48.81
269.324	-57
269.54	-38.57
269.756	69.97
269.972	-3.75
270.188	-36.52
270.403	-73.39
270.619	61.78
270.835	33.11
271.051	6.49
271.267	37.2
271.483	57.68
271.698	84.31
271.914	41.3
272.13	37.2
272.346	59.73
272.562	29.01
272.777	112.98
272.993	41.3
273.209	-22.19
273.425	106.84
273.64	-13.99
273.856	115.03
274.072	-110.25
274.287	26.96
274.503	100.69
274.719	37.2
274.934	-32.43
275.15	-81.58
275.366	26.96
275.581	-32.43
275.797	51.54
276.012	6.49
276.228	12.63
276.444	-32.43
276.659	47.44
276.875	0.34
277.09	39.25
277.306	12.63
277.521	106.84
277.737	-9.9
277.952	72.02
278.168	37.2
278.383	10.58
278.599	22.87
278.814	47.44
279.03	84.31
279.245	119.12
279.461	0.34
279.676	49.49
279.892	-83.63
280.107	14.68
280.322	-13.99
280.538	72.02
280.753	-28.33
280.969	47.44
281.184	8.53
281.399	84.31
281.615	47.44
281.83	31.06
282.045	-22.19
282.26	-18.09
282.476	8.53
282.691	55.64
282.906	57.68
283.122	37.2
283.337	-89.77
283.552	112.98
283.767	-57
283.983	104.79
284.198	-5.8
284.413	67.92
284.628	-26.28
284.843	-3.75
285.058	80.21
285.274	-24.23
285.489	-85.67
285.704	61.78
285.919	-11.95
286.134	-9.9
286.349	-1.71
286.564	-7.85
286.779	65.88
286.995	31.06
287.21	-77.48
287.425	86.36
287.64	-20.14
287.855	53.59
288.07	-40.62
288.285	45.4
288.5	162.13
288.715	37.2
288.93	-34.47
289.145	-38.57
289.36	26.96
289.575	-11.95
289.79	102.74
290.004	-16.04
290.219	102.74
290.434	-73.39
290.649	14.68
290.864	-61.1
291.079	16.73
291.294	-5.8
291.509	29.01
291.724	24.92
291.938	-48.81
292.153	39.25
292.368	35.16
292.583	14.68
292.798	31.06
293.012	18.77
293.227	119.12
293.442	-81.58
293.657	14.68
293.871	149.84
294.086	-13.99
294.301	139.6
294.516	127.32
294.73	41.3
294.945	-46.76
295.16	-3.75
295.374	129.36
295.589	100.69
295.804	31.06
296.018	117.08
296.233	51.54
296.447	59.73
296.662	0.34
296.877	115.03
297.091	45.4
297.306	35.16
297.52	49.49
297.735	49.49
297.949	-1.71
298.164	24.92
298.378	57.68
298.593	-79.53
298.807	-7.85
299.022	-13.99
299.236	104.79
299.451	-9.9
299.665	43.35
299.88	12.63
300.094	-1.71
300.309	24.92
300.523	123.22
300.737	33.11
300.952	37.2
301.166	-3.75
301.381	10.58
301.595	-32.43
301.809	24.92
302.024	-38.57
302.238	65.88
302.452	143.7
302.667	-18.09
302.881	47.44
303.095	37.2
303.309	59.73
303.524	-69.29
303.738	57.68
303.952	8.53
304.166	6.49
304.381	-153.26
304.595	121.17
304.809	-54.95
305.023	-3.75
305.237	-7.85
305.452	6.49
305.666	119.12
305.88	115.03
306.094	35.16
306.308	47.44
306.522	172.37
306.736	45.4
306.95	133.46
307.164	55.64
307.379	20.82
307.593	92.5
307.807	162.13
308.021	69.97
308.235	47.44
308.449	-112.3
308.663	16.73
308.877	158.03
309.091	-34.47
309.305	33.11
309.519	-100.01
309.733	86.36
309.947	-100.01
310.161	76.12
310.374	51.54
310.588	115.03
310.802	-44.71
311.016	-9.9
311.23	26.96
311.444	-46.76
311.658	86.36
311.872	127.32
312.085	96.6
312.299	115.03
312.513	158.03
312.727	57.68
312.941	-9.9
313.154	43.35
313.368	-7.85
313.582	12.63
313.796	59.73
314.009	84.31
314.223	108.88
314.437	65.88
314.651	88.4
314.864	-7.85
315.078	-7.85
315.292	-54.95
315.505	-63.15
315.719	31.06
315.933	82.26
316.146	4.44
316.36	-13.99
316.573	110.93
316.787	143.7
317.001	82.26
317.214	-40.62
317.428	63.83
317.641	12.63
317.855	4.44
318.068	8.53
318.282	8.53
318.495	119.12
318.709	90.45
318.922	10.58
319.136	143.7
319.349	67.92
319.563	-71.34
319.776	20.82
319.99	-79.53
320.203	35.16
320.417	22.87
320.63	55.64
320.843	119.12
321.057	106.84
321.27	41.3
321.483	102.74
321.697	92.5
321.91	45.4
322.124	47.44
322.337	94.55
322.55	-48.81
322.763	12.63
322.977	0.34
323.19	6.49
323.403	61.78
323.617	69.97
323.83	115.03
324.043	49.49
324.256	53.59
324.469	-97.96
324.683	88.4
324.896	-28.33
325.109	43.35
325.322	-16.04
325.535	115.03
325.748	139.6
325.962	-9.9
326.175	100.69
326.388	41.3
326.601	55.64
326.814	2.39
327.027	35.16
327.24	117.08
327.453	-118.44
327.666	47.44
327.879	147.8
328.092	35.16
328.305	121.17
328.518	-54.95
328.731	-34.47
328.944	59.73
329.157	104.79
329.37	-100.01
329.583	147.8
329.796	72.02
330.009	-26.28
330.222	123.22
330.435	80.21
330.648	55.64
330.861	84.31
331.073	82.26
331.286	31.06
331.499	6.49
331.712	4.44
331.925	10.58
332.138	33.11
332.35	65.88
332.563	-79.53
332.776	106.84
332.989	-7.85
333.202	-73.39
333.414	41.3
333.627	41.3
333.84	-44.71
334.053	92.5
334.265	-69.29
334.478	-3.75
334.691	16.73
334.903	29.01
335.116	-44.71
335.329	22.87
335.541	-3.75
335.754	147.8
335.966	-28.33
336.179	6.49
336.392	0.34
336.604	6.49
336.817	94.55
337.029	47.44
337.242	22.87
337.454	39.25
337.667	72.02
337.88	106.84
338.092	55.64
338.305	55.64
338.517	-65.19
338.729	57.68
338.942	164.18
339.154	-52.91
339.367	-9.9
339.579	-3.75
339.792	-26.28
340.004	61.78
340.217	-46.76
340.429	59.73
340.641	20.82
340.854	-46.76
341.066	-40.62
341.278	100.69
341.491	90.45
341.703	51.54
341.915	-22.19
342.128	51.54
342.34	108.88
342.552	-85.67
342.764	53.59
342.977	100.69
343.189	26.96
343.401	33.11
343.613	-22.19
343.826	-5.8
344.038	-7.85
344.25	-11.95
344.462	-20.14
344.674	102.74
344.886	-34.47
345.099	45.4
345.311	20.82
345.523	18.77
345.735	-50.86
345.947	98.64
346.159	133.46
346.371	-22.19
346.583	24.92
346.795	162.13
347.007	39.25
347.219	31.06
347.431	74.07
347.643	137.56
347.855	22.87
348.067	164.18
348.279	-46.76
348.491	8.53
348.703	47.44
348.915	-28.33
349.127	-136.87
349.339	80.21
349.551	-3.75
349.763	45.4
349.975	43.35
350.187	47.44
350.399	164.18
350.61	-7.85
350.822	4.44
351.034	14.68
351.246	10.58
351.458	115.03
351.669	-3.75
351.881	47.44
352.093	74.07
352.305	86.36
352.517	65.88
352.728	72.02
352.94	-20.14
353.152	86.36
353.363	-28.33
353.575	125.27
353.787	69.97
353.999	47.44
354.21	176.47
354.422	-18.09
354.633	31.06
354.845	20.82
355.057	6.49
355.268	37.2
355.48	96.6
355.692	6.49
355.903	96.6
356.115	-16.04
356.326	-75.43
356.538	90.45
356.749	86.36
356.961	188.75
357.172	-7.85
357.384	16.73
357.595	127.32
357.807	37.2
358.018	-20.14
358.23	31.06
358.441	160.08
358.653	110.93
358.864	-26.28
359.075	12.63
359.287	0.34
359.498	98.64
359.709	76.12
359.921	35.16
360.132	14.68
360.344	14.68
360.555	37.2
360.766	84.31
360.977	43.35
361.189	84.31
361.4	-34.47
361.611	129.36
361.823	127.32
362.034	10.58
362.245	-3.75
362.456	-11.95
362.667	98.64
362.879	-11.95
363.09	-52.91
363.301	63.83
363.512	51.54
363.723	-42.67
363.935	-42.67
364.146	24.92
364.357	20.82
364.568	104.79
364.779	-42.67
364.99	119.12
365.201	-77.48
365.412	86.36
365.623	-46.76
365.834	108.88
366.045	31.06
366.256	80.21
366.467	26.96
366.678	-61.1
366.889	-24.23
367.1	16.73
367.311	61.78
367.522	10.58
367.733	78.16
367.944	69.97
368.155	8.53
368.366	76.12
368.577	100.69
368.788	108.88
368.999	-24.23
369.209	6.49
369.42	201.04
369.631	186.71
369.842	96.6
370.053	-13.99
370.264	67.92
370.474	49.49
370.685	131.41
370.896	86.36
371.107	172.37
371.317	160.08
371.528	41.3
371.739	86.36
371.95	67.92
372.16	61.78
372.371	-77.48
372.582	-42.67
372.792	16.73
373.003	96.6
373.214	16.73
373.424	49.49
373.635	6.49
373.846	74.07
374.056	8.53
374.267	76.12
374.477	16.73
374.688	-87.72
374.898	69.97
375.109	55.64
375.319	-36.52
375.53	119.12
375.74	12.63
375.951	33.11
376.161	59.73
376.372	78.16
376.582	-1.71
376.793	8.53
377.003	24.92
377.214	22.87
377.424	76.12
377.635	72.02
377.845	10.58
378.055	108.88
378.266	-28.33
378.476	-63.15
378.686	37.2
378.897	108.88
379.107	45.4
379.317	69.97
379.528	-20.14
379.738	131.41
379.948	-3.75
380.158	49.49
380.369	-24.23
380.579	139.6
380.789	-106.15
380.999	100.69
381.21	110.93
381.42	149.84
381.63	86.36
381.84	82.26
382.05	65.88
382.261	162.13
382.471	49.49
382.681	0.34
382.891	178.51
383.101	112.98
383.311	-34.47
383.521	-79.53
383.731	65.88
383.941	104.79
384.151	121.17
384.361	-38.57
384.571	0.34
384.781	80.21
384.991	106.84
385.201	123.22
385.411	63.83
385.621	39.25
385.831	92.5
386.041	8.53
386.251	45.4
386.461	115.03
386.671	37.2
386.881	4.44
387.091	12.63
387.301	188.75
387.511	-11.95
387.72	74.07
387.93	145.75
388.14	-77.48
388.35	39.25
388.56	55.64
388.769	127.32
388.979	-24.23
389.189	-1.71
389.399	112.98
389.609	16.73
389.818	88.4
390.028	88.4
390.238	72.02
390.447	63.83
390.657	102.74
390.867	51.54
391.076	-73.39
391.286	100.69
391.496	20.82
391.705	6.49
391.915	67.92
392.125	125.27
392.334	10.58
392.544	63.83
392.753	-18.09
392.963	-5.8
393.172	76.12
393.382	-3.75
393.591	180.56
393.801	47.44
394.01	125.27
394.22	39.25
394.429	10.58
394.639	29.01
394.848	-26.28
395.058	147.8
395.267	20.82
395.477	98.64
395.686	31.06
395.895	168.27
396.105	164.18
396.314	49.49
396.524	10.58
396.733	-20.14
396.942	76.12
397.152	67.92
397.361	168.27
397.57	63.83
397.78	92.5
397.989	80.21
398.198	133.46
398.407	-20.14
398.617	16.73
398.826	31.06
399.035	-34.47
399.244	69.97
399.453	82.26
399.663	63.83
399.872	41.3
400.081	18.77
400.29	96.6
400.499	-13.99
400.708	96.6
400.917	53.59
401.127	-48.81
401.336	59.73
401.545	198.99
401.754	227.67
401.963	6.49
402.172	-42.67
402.381	-48.81
402.59	6.49
402.799	8.53
403.008	49.49
403.217	8.53
403.426	94.55
403.635	14.68
403.844	65.88
404.053	-20.14
404.262	0.34
404.471	135.51
404.68	63.83
404.888	-7.85
405.097	4.44
405.306	86.36
405.515	61.78
405.724	-30.38
405.933	92.5
406.142	98.64
406.35	110.93
406.559	-100.01
406.768	20.82
406.977	88.4
407.185	-9.9
407.394	29.01
407.603	-50.86
407.812	37.2
408.02	76.12
408.229	4.44
408.438	65.88
408.646	-120.49
408.855	29.01
409.064	74.07
409.272	-40.62
409.481	102.74
409.69	-28.33
409.898	-69.29
410.107	94.55
410.315	153.94
410.524	-79.53
410.733	20.82
410.941	-11.95
411.15	98.64
411.358	108.88
411.567	135.51
411.775	35.16
411.984	16.73
412.192	80.21
412.401	33.11
412.609	110.93
412.818	78.16
413.026	57.68
413.234	-11.95
413.443	-3.75
413.651	-26.28
413.86	35.16
414.068	123.22
414.276	137.56
414.485	-30.38
414.693	121.17
414.901	162.13
415.11	41.3
415.318	102.74
415.526	43.35
415.734	94.55
415.943	65.88
416.151	164.18
416.359	-1.71
416.567	26.96
416.776	61.78
416.984	57.68
417.192	127.32
417.4	-52.91
417.608	51.54
417.817	51.54
418.025	131.41
418.233	168.27
418.441	-95.91
418.649	-30.38
418.857	18.77
419.065	100.69
419.273	-7.85
419.481	-38.57
419.689	18.77
419.897	6.49
420.105	-7.85
420.313	131.41
420.521	170.32
420.729	100.69
420.937	6.49
421.145	20.82
421.353	112.98
421.561	119.12
421.769	57.68
421.977	45.4
422.185	129.36
422.393	59.73
422.601	57.68
422.809	74.07
423.017	98.64
423.224	98.64
423.432	72.02
423.64	67.92
423.848	80.21
424.056	-36.52
424.263	129.36
424.471	82.26
424.679	155.99
424.887	-85.67
425.094	51.54
425.302	78.16
425.51	47.44
425.718	108.88
425.925	45.4
426.133	14.68
426.341	262.48
426.548	53.59
426.756	2.39
426.964	65.88
427.171	37.2
427.379	86.36
427.586	92.5
427.794	115.03
428.001	119.12
428.209	72.02
428.417	131.41
428.624	155.99
428.832	24.92
429.039	45.4
429.247	51.54
429.454	100.69
429.662	145.75
429.869	72.02
430.076	31.06
430.284	186.71
430.491	196.95
430.699	108.88
430.906	203.09
431.114	18.77
431.321	160.08
431.528	117.08
431.736	143.7
431.943	160.08
432.15	149.84
432.358	172.37
432.565	196.95
432.772	-22.19
432.979	190.8
433.187	78.16
433.394	219.47
433.601	100.69
433.808	168.27
434.016	272.72
434.223	231.76
434.43	182.61
434.637	256.34
434.844	274.77
435.052	217.43
435.259	239.95
435.466	227.67
435.673	237.91
435.88	332.11
436.087	252.24
436.294	313.68
436.501	264.53
436.708	252.24
436.915	213.33
437.122	332.11
437.329	239.95
437.537	256.34
437.743	371.02
437.95	424.27
438.157	381.26
438.364	323.92
438.571	332.11
438.778	366.93
438.985	340.3
439.192	438.61
439.399	358.74
439.606	475.47
439.813	549.2
440.02	571.72
440.227	629.07
440.433	598.35
440.64	409.94
440.847	506.19
441.054	569.68
441.261	620.88
441.467	581.96
441.674	502.09
441.881	655.69
442.088	569.68
442.294	676.17
442.501	747.85
442.708	700.75
442.914	710.99
443.121	825.67
443.328	674.12
443.534	1014.09
443.741	870.73
443.948	762.19
444.154	954.69
444.361	1171.78
444.568	936.26
444.774	1075.52
444.981	895.3
445.187	1014.09
445.394	1100.1
445.6	1132.87
445.807	1245.51
446.013	1261.89
446.22	1194.31
446.426	1321.28
446.633	1425.73
446.839	1524.03
447.046	1380.67
447.252	1603.9
447.459	1642.81
447.665	1591.61
447.871	1689.92
448.078	1890.62
448.284	1741.11
448.491	1900.86
448.697	1923.38
448.903	2089.27
449.11	2156.85
449.316	2013.49
449.522	2244.92
449.728	2287.92
449.935	2449.71
450.141	2431.28
450.347	2609.45
450.553	2472.24
450.76	2703.66
450.966	2791.72
451.172	3010.86
451.378	3037.48
451.584	2910.5
451.791	3455.26
451.997	3291.43
452.203	3344.67
452.409	3586.33
452.615	3758.36
452.821	3748.12
453.027	3662.11
453.233	4155.67
453.44	4094.23
453.646	4239.64
453.852	4356.37
454.058	4526.35
454.264	4645.13
454.47	5042.44
454.676	5038.34
454.882	5587.2
455.088	5157.13
455.294	5632.26
455.5	5959.93
455.705	6373.62
455.911	6371.57
456.117	6439.16
456.323	6691.06
456.529	6541.55
456.735	7190.76
456.941	7473.38
457.147	7854.3
457.352	7860.45
457.558	8141.02
457.764	8890.57
457.97	9027.79
458.176	9269.45
458.381	9928.89
458.587	9898.17
458.793	10430.65
458.999	10510.52
459.204	11886.75
459.41	12089.5
459.616	11860.13
459.821	12634.26
460.027	13254.8
460.233	13850.75
460.438	13777.03
460.644	14735.48
460.85	14684.28
461.055	15505.51
461.261	16306.27
461.466	15902.82
461.672	16302.17
461.878	17913.92
462.083	17983.55
462.289	18124.86
462.494	18987.06
462.7	18982.96
462.905	19386.41
463.111	21274.64
463.316	21995.53
463.522	22650.88
463.727	22859.77
463.932	24176.61
464.138	25161.69
464.343	26126.28
464.549	26011.59
464.754	27983.79
464.959	28661.66
465.165	29007.77
465.37	28940.19
465.575	28899.23
465.781	30760.83
465.986	31727.47
466.191	31352.69
466.397	31893.36
466.602	30797.7
466.807	32681.83
467.012	33169.24
467.218	33687.38
467.423	33668.95
467.628	34879.3
467.833	36210.48
468.038	35456.82
468.244	35010.37
468.449	37162.78
468.654	36394.79
