Data from USB4F104151__40__10-42-50-580.txt Node

Date: Wed Feb 26 10:42:50 EST 2025
User: louis
Spectrometer: USB4F10415
Trigger mode: 4
Integration Time (sec): 1.000000E-1
Scans to average: 1
Electric dark correction enabled: true
Nonlinearity correction enabled: false
Boxcar width: 0
XAxis mode: Wavelengths
Number of Pixels in Spectrum: 3648
>>>>>Begin Spectral Data<<<<<
178.204	-427.34
178.424	-427.34
178.644	-427.34
178.864	-427.34
179.084	-382.29
179.304	4.78
179.524	23.21
179.744	-11.61
179.964	23.21
180.184	47.79
180.404	10.92
180.624	-103.76
180.844	39.59
181.064	-68.95
181.283	33.45
181.503	-30.04
181.723	31.4
181.943	-83.28
182.163	139.94
182.383	27.31
182.602	19.11
182.822	187.05
183.042	58.03
183.262	-40.28
183.482	-3.41
183.701	37.55
183.921	2.73
184.141	-40.28
184.361	74.41
184.58	64.17
184.8	41.64
185.02	-23.89
185.239	4.78
185.459	86.7
185.679	125.61
185.898	-17.75
186.118	43.69
186.338	49.83
186.557	96.94
186.777	-1.37
186.997	62.12
187.216	60.07
187.436	135.85
187.655	90.79
187.875	82.6
188.095	21.16
188.314	113.32
188.534	146.09
188.753	-105.81
188.973	178.86
189.192	160.42
189.412	19.11
189.631	17.07
189.851	21.16
190.07	131.75
190.29	-81.24
190.509	55.98
190.729	-13.65
190.948	119.46
191.168	209.58
191.387	-15.7
191.607	-17.75
191.826	33.45
192.045	6.83
192.265	-19.8
192.484	10.92
192.704	-9.56
192.923	-89.43
193.142	98.99
193.362	84.65
193.581	98.99
193.8	74.41
194.02	47.79
194.239	80.55
194.458	-44.37
194.678	23.21
194.897	2.73
195.116	74.41
195.335	-5.46
195.555	92.84
195.774	47.79
195.993	51.88
196.212	-60.76
196.432	-11.61
196.651	76.46
196.87	10.92
197.089	268.97
197.308	12.97
197.528	39.59
197.747	10.92
197.966	-15.7
198.185	72.36
198.404	-44.37
198.623	115.37
198.842	154.28
199.062	82.6
199.281	51.88
199.5	-21.85
199.719	27.31
199.938	68.27
200.157	58.03
200.376	131.75
200.595	148.14
200.814	41.64
201.033	-25.94
201.252	211.62
201.471	53.93
201.69	94.89
201.909	-21.85
202.128	88.75
202.347	27.31
202.566	4.78
202.785	-60.76
203.004	10.92
203.223	260.77
203.442	84.65
203.661	-50.52
203.879	90.79
204.098	113.32
204.317	-46.42
204.536	103.08
204.755	86.7
204.974	72.36
205.193	53.93
205.411	144.04
205.63	107.18
205.849	-9.56
206.068	41.64
206.287	-3.41
206.505	60.07
206.724	-15.7
206.943	27.31
207.162	60.07
207.381	76.46
207.599	29.35
207.818	105.13
208.037	-101.72
208.255	29.35
208.474	-1.37
208.693	45.74
208.911	39.59
209.13	41.64
209.349	70.31
209.567	76.46
209.786	4.78
210.005	78.51
210.223	31.4
210.442	-87.38
210.661	86.7
210.879	19.11
211.098	-5.46
211.316	29.35
211.535	0.68
211.753	-1.37
211.972	35.5
212.191	-79.19
212.409	-7.51
212.628	90.79
212.846	2.73
213.065	66.22
213.283	41.64
213.502	60.07
213.72	19.11
213.938	60.07
214.157	-27.99
214.375	53.93
214.594	-52.56
214.812	96.94
215.031	-66.9
215.249	41.64
215.467	66.22
215.686	19.11
215.904	60.07
216.122	90.79
216.341	213.67
216.559	4.78
216.778	8.87
216.996	115.37
217.214	-27.99
217.432	12.97
217.651	-36.18
217.869	-9.56
218.087	4.78
218.306	-23.89
218.524	113.32
218.742	-1.37
218.96	82.6
219.179	15.02
219.397	-9.56
219.615	158.38
219.833	86.7
220.051	-52.56
220.27	90.79
220.488	92.84
220.706	-36.18
220.924	47.79
221.142	23.21
221.36	137.9
221.578	51.88
221.796	23.21
222.015	39.59
222.233	-1.37
222.451	133.8
222.669	-73.04
222.887	70.31
223.105	39.59
223.323	2.73
223.541	-5.46
223.759	21.16
223.977	-7.51
224.195	185
224.413	101.03
224.631	45.74
224.849	68.27
225.067	242.34
225.285	-42.32
225.503	-1.37
225.721	-161.11
225.939	47.79
226.157	10.92
226.375	213.67
226.592	-107.86
226.81	27.31
227.028	127.66
227.246	162.47
227.464	62.12
227.682	70.31
227.9	105.13
228.117	23.21
228.335	15.02
228.553	17.07
228.771	70.31
228.989	-34.13
229.206	68.27
229.424	58.03
229.642	8.87
229.86	-46.42
230.077	107.18
230.295	72.36
230.513	105.13
230.731	90.79
230.948	193.19
231.166	195.24
231.384	25.26
231.601	-44.37
231.819	178.86
232.037	35.5
232.254	-25.94
232.472	27.31
232.689	78.51
232.907	33.45
233.125	-7.51
233.342	19.11
233.56	60.07
233.777	-9.56
233.995	47.79
234.213	101.03
234.43	37.55
234.648	43.69
234.865	35.5
235.083	15.02
235.3	51.88
235.518	41.64
235.735	158.38
235.953	17.07
236.17	2.73
236.388	-21.85
236.605	4.78
236.822	78.51
237.04	103.08
237.257	86.7
237.475	-60.76
237.692	41.64
237.909	29.35
238.127	10.92
238.344	43.69
238.562	74.41
238.779	19.11
238.996	-83.28
239.214	51.88
239.431	62.12
239.648	-17.75
239.865	117.42
240.083	-3.41
240.3	-21.85
240.517	-3.41
240.735	-19.8
240.952	80.55
241.169	144.04
241.386	68.27
241.603	37.55
241.821	-7.51
242.038	60.07
242.255	76.46
242.472	58.03
242.689	94.89
242.907	41.64
243.124	-17.75
243.341	-3.41
243.558	27.31
243.775	-9.56
243.992	-85.33
244.209	70.31
244.426	252.58
244.643	76.46
244.86	-79.19
245.078	129.7
245.295	113.32
245.512	29.35
245.729	-13.65
245.946	39.59
246.163	49.83
246.38	-42.32
246.597	60.07
246.814	23.21
247.031	103.08
247.248	23.21
247.464	115.37
247.681	58.03
247.898	70.31
248.115	47.79
248.332	-56.66
248.549	170.66
248.766	250.53
248.983	53.93
249.2	82.6
249.417	47.79
249.633	-7.51
249.85	37.55
250.067	35.5
250.284	64.17
250.501	33.45
250.717	41.64
250.934	-3.41
251.151	31.4
251.368	21.16
251.585	6.83
251.801	80.55
252.018	-17.75
252.235	111.27
252.451	-62.8
252.668	27.31
252.885	115.37
253.102	19.11
253.318	53.93
253.535	-54.61
253.752	60.07
253.968	4.78
254.185	-50.52
254.401	58.03
254.618	70.31
254.835	6.83
255.051	146.09
255.268	115.37
255.484	101.03
255.701	19.11
255.917	58.03
256.134	-36.18
256.351	55.98
256.567	17.07
256.784	78.51
257	-120.15
257.217	31.4
257.433	92.84
257.65	-15.7
257.866	74.41
258.082	27.31
258.299	17.07
258.515	31.4
258.732	41.64
258.948	-21.85
259.165	101.03
259.381	10.92
259.597	68.27
259.814	17.07
260.03	-1.37
260.246	-17.75
260.463	137.9
260.679	141.99
260.895	23.21
261.112	53.93
261.328	76.46
261.544	-64.85
261.761	129.7
261.977	-40.28
262.193	-54.61
262.409	164.52
262.626	62.12
262.842	51.88
263.058	-5.46
263.274	191.14
263.49	53.93
263.707	86.7
263.923	78.51
264.139	-105.81
264.355	105.13
264.571	74.41
264.787	43.69
265.004	109.23
265.22	27.31
265.436	-15.7
265.652	39.59
265.868	27.31
266.084	-19.8
266.3	45.74
266.516	-38.23
266.732	92.84
266.948	6.83
267.164	21.16
267.38	94.89
267.596	33.45
267.812	144.04
268.028	4.78
268.244	19.11
268.46	84.65
268.676	-44.37
268.892	60.07
269.108	27.31
269.324	-23.89
269.54	41.64
269.756	115.37
269.972	-11.61
270.188	47.79
270.403	31.4
270.619	-44.37
270.835	49.83
271.051	39.59
271.267	-30.04
271.483	-25.94
271.698	131.75
271.914	51.88
272.13	72.36
272.346	19.11
272.562	37.55
272.777	178.86
272.993	12.97
273.209	-75.09
273.425	101.03
273.64	-66.9
273.856	115.37
274.072	-19.8
274.287	-5.46
274.503	4.78
274.719	82.6
274.934	23.21
275.15	-19.8
275.366	4.78
275.581	-40.28
275.797	-5.46
276.012	90.79
276.228	43.69
276.444	45.74
276.659	123.56
276.875	-30.04
277.09	27.31
277.306	-25.94
277.521	-23.89
277.737	-7.51
277.952	51.88
278.168	66.22
278.383	78.51
278.599	2.73
278.814	88.75
279.03	33.45
279.245	55.98
279.461	60.07
279.676	74.41
279.892	25.26
280.107	-32.08
280.322	-9.56
280.538	90.79
280.753	-3.41
280.969	60.07
281.184	29.35
281.399	123.56
281.615	58.03
281.83	45.74
282.045	17.07
282.26	-83.28
282.476	98.99
282.691	41.64
282.906	60.07
283.122	-7.51
283.337	-3.41
283.552	43.69
283.767	55.98
283.983	60.07
284.198	68.27
284.413	25.26
284.628	-79.19
284.843	-15.7
285.058	92.84
285.274	-19.8
285.489	-36.18
285.704	82.6
285.919	-71
286.134	-11.61
286.349	15.02
286.564	-38.23
286.779	60.07
286.995	2.73
287.21	-128.34
287.425	131.75
287.64	25.26
287.855	41.64
288.07	-122.2
288.285	156.33
288.5	156.33
288.715	66.22
288.93	43.69
289.145	-87.38
289.36	39.59
289.575	29.35
289.79	131.75
290.004	-5.46
290.219	158.38
290.434	-5.46
290.649	-19.8
290.864	78.51
291.079	-50.52
291.294	111.27
291.509	-38.23
291.724	-75.09
291.938	39.59
292.153	76.46
292.368	72.36
292.583	-1.37
292.798	121.51
293.012	64.17
293.227	19.11
293.442	39.59
293.657	72.36
293.871	127.66
294.086	80.55
294.301	47.79
294.516	152.23
294.73	74.41
294.945	-62.8
295.16	12.97
295.374	82.6
295.589	129.7
295.804	-54.61
296.018	31.4
296.233	64.17
296.447	92.84
296.662	4.78
296.877	70.31
297.091	37.55
297.306	-21.85
297.52	-103.76
297.735	80.55
297.949	37.55
298.164	49.83
298.378	31.4
298.593	37.55
298.807	29.35
299.022	55.98
299.236	105.13
299.451	-30.04
299.665	23.21
299.88	29.35
300.094	53.93
300.309	-38.23
300.523	53.93
300.737	-46.42
300.952	101.03
301.166	72.36
301.381	86.7
301.595	21.16
301.809	47.79
302.024	-17.75
302.238	-21.85
302.452	115.37
302.667	-23.89
302.881	62.12
303.095	201.38
303.309	86.7
303.524	-3.41
303.738	-27.99
303.952	-21.85
304.166	47.79
304.381	-66.9
304.595	160.42
304.809	-25.94
305.023	-42.32
305.237	17.07
305.452	-27.99
305.666	98.99
305.88	131.75
306.094	121.51
306.308	219.82
306.522	111.27
306.736	123.56
306.95	31.4
307.164	-9.56
307.379	17.07
307.593	68.27
307.807	103.08
308.021	131.75
308.235	103.08
308.449	-105.81
308.663	-13.65
308.877	172.71
309.091	-27.99
309.305	84.65
309.519	-50.52
309.733	111.27
309.947	-25.94
310.161	62.12
310.374	84.65
310.588	49.83
310.802	-27.99
311.016	-32.08
311.23	66.22
311.444	-54.61
311.658	119.46
311.872	76.46
312.085	70.31
312.299	154.28
312.513	113.32
312.727	4.78
312.941	-46.42
313.154	60.07
313.368	139.94
313.582	74.41
313.796	80.55
314.009	35.5
314.223	123.56
314.437	49.83
314.651	45.74
314.864	-50.52
315.078	-1.37
315.292	-36.18
315.505	-27.99
315.719	72.36
315.933	35.5
316.146	-3.41
316.36	-36.18
316.573	117.42
316.787	92.84
317.001	27.31
317.214	-5.46
317.428	33.45
317.641	19.11
317.855	-3.41
318.068	39.59
318.282	43.69
318.495	219.82
318.709	94.89
318.922	4.78
319.136	141.99
319.349	103.08
319.563	-30.04
319.776	23.21
319.99	-48.47
320.203	78.51
320.417	-23.89
320.63	90.79
320.843	121.51
321.057	60.07
321.27	66.22
321.483	47.79
321.697	125.61
321.91	76.46
322.124	152.23
322.337	35.5
322.55	-17.75
322.763	72.36
322.977	66.22
323.19	-103.76
323.403	43.69
323.617	17.07
323.83	96.94
324.043	-17.75
324.256	-5.46
324.469	-19.8
324.683	68.27
324.896	-13.65
325.109	21.16
325.322	-54.61
325.535	43.69
325.748	123.56
325.962	-21.85
326.175	15.02
326.388	-11.61
326.601	92.84
326.814	-19.8
327.027	-21.85
327.24	137.9
327.453	-46.42
327.666	82.6
327.879	152.23
328.092	121.51
328.305	137.9
328.518	17.07
328.731	-13.65
328.944	53.93
329.157	98.99
329.37	55.98
329.583	178.86
329.796	135.85
330.009	4.78
330.222	70.31
330.435	25.26
330.648	86.7
330.861	33.45
331.073	53.93
331.286	88.75
331.499	78.51
331.712	-38.23
331.925	0.68
332.138	25.26
332.35	90.79
332.563	-40.28
332.776	117.42
332.989	47.79
333.202	-27.99
333.414	31.4
333.627	58.03
333.84	-58.71
334.053	10.92
334.265	64.17
334.478	-25.94
334.691	76.46
334.903	43.69
335.116	-9.56
335.329	53.93
335.541	68.27
335.754	82.6
335.966	-44.37
336.179	90.79
336.392	35.5
336.604	8.87
336.817	74.41
337.029	23.21
337.242	-42.32
337.454	101.03
337.667	55.98
337.88	111.27
338.092	70.31
338.305	47.79
338.517	-19.8
338.729	158.38
338.942	103.08
339.154	-95.57
339.367	-91.48
339.579	86.7
339.792	2.73
340.004	62.12
340.217	47.79
340.429	27.31
340.641	-23.89
340.854	-23.89
341.066	23.21
341.278	94.89
341.491	166.57
341.703	78.51
341.915	15.02
342.128	82.6
342.34	150.18
342.552	-44.37
342.764	0.68
342.977	4.78
343.189	45.74
343.401	96.94
343.613	-85.33
343.826	0.68
344.038	-1.37
344.25	47.79
344.462	-75.09
344.674	49.83
344.886	23.21
345.099	-52.56
345.311	133.8
345.523	-36.18
345.735	-87.38
345.947	23.21
346.159	43.69
346.371	80.55
346.583	-50.52
346.795	197.29
347.007	68.27
347.219	131.75
347.431	-68.95
347.643	64.17
347.855	-9.56
348.067	170.66
348.279	-17.75
348.491	10.92
348.703	23.21
348.915	76.46
349.127	-25.94
349.339	-9.56
349.551	17.07
349.763	-3.41
349.975	35.5
350.187	58.03
350.399	62.12
350.61	25.26
350.822	27.31
351.034	17.07
351.246	135.85
351.458	60.07
351.669	107.18
351.881	60.07
352.093	135.85
352.305	72.36
352.517	39.59
352.728	101.03
352.94	141.99
353.152	105.13
353.363	-7.51
353.575	53.93
353.787	96.94
353.999	82.6
354.21	221.86
354.422	-54.61
354.633	82.6
354.845	21.16
355.057	27.31
355.268	43.69
355.48	49.83
355.692	-64.85
355.903	-25.94
356.115	2.73
356.326	-157.01
356.538	127.66
356.749	39.59
356.961	158.38
357.172	23.21
357.384	8.87
357.595	205.48
357.807	-50.52
358.018	-11.61
358.23	31.4
358.441	166.57
358.653	98.99
358.864	-48.47
359.075	21.16
359.287	78.51
359.498	72.36
359.709	107.18
359.921	49.83
360.132	64.17
360.344	62.12
360.555	39.59
360.766	72.36
360.977	-1.37
361.189	158.38
361.4	-1.37
361.611	96.94
361.823	29.35
362.034	27.31
362.245	-5.46
362.456	37.55
362.667	6.83
362.879	4.78
363.09	35.5
363.301	146.09
363.512	109.23
363.723	-30.04
363.935	51.88
364.146	115.37
364.357	70.31
364.568	6.83
364.779	-48.47
364.99	141.99
365.201	64.17
365.412	197.29
365.623	-64.85
365.834	72.36
366.045	39.59
366.256	64.17
366.467	70.31
366.678	76.46
366.889	-19.8
367.1	-11.61
367.311	72.36
367.522	-56.66
367.733	70.31
367.944	90.79
368.155	23.21
368.366	35.5
368.577	64.17
368.788	64.17
368.999	82.6
369.209	60.07
369.42	234.15
369.631	246.44
369.842	15.02
370.053	-7.51
370.264	49.83
370.474	-32.08
370.685	72.36
370.896	64.17
371.107	113.32
371.317	78.51
371.528	60.07
371.739	109.23
371.95	84.65
372.16	133.8
372.371	35.5
372.582	-9.56
372.792	133.8
373.003	70.31
373.214	98.99
373.424	156.33
373.635	-19.8
373.846	146.09
374.056	-21.85
374.267	150.18
374.477	109.23
374.688	47.79
374.898	19.11
375.109	-11.61
375.319	6.83
375.53	96.94
375.74	2.73
375.951	51.88
376.161	19.11
376.372	72.36
376.582	-13.65
376.793	111.27
377.003	-7.51
377.214	-66.9
377.424	107.18
377.635	17.07
377.845	21.16
378.055	144.04
378.266	15.02
378.476	-1.37
378.686	-21.85
378.897	35.5
379.107	78.51
379.317	98.99
379.528	78.51
379.738	37.55
379.948	-64.85
380.158	86.7
380.369	94.89
380.579	141.99
380.789	72.36
380.999	84.65
381.21	127.66
381.42	191.14
381.63	39.59
381.84	101.03
382.05	35.5
382.261	84.65
382.471	98.99
382.681	-62.8
382.891	115.37
383.101	72.36
383.311	-79.19
383.521	-38.23
383.731	129.7
383.941	139.94
384.151	60.07
384.361	45.74
384.571	41.64
384.781	60.07
384.991	193.19
385.201	236.2
385.411	72.36
385.621	19.11
385.831	-7.51
386.041	15.02
386.251	29.35
386.461	96.94
386.671	58.03
386.881	92.84
387.091	31.4
387.301	162.47
387.511	15.02
387.72	76.46
387.93	117.42
388.14	-15.7
388.35	29.35
388.56	129.7
388.769	49.83
388.979	62.12
389.189	-38.23
389.399	53.93
389.609	101.03
389.818	74.41
390.028	23.21
390.238	94.89
390.447	-46.42
390.657	94.89
390.867	-17.75
391.076	-7.51
391.286	17.07
391.496	-48.47
391.705	-11.61
391.915	152.23
392.125	86.7
392.334	51.88
392.544	117.42
392.753	37.55
392.963	-36.18
393.172	58.03
393.382	-11.61
393.591	152.23
393.801	-11.61
394.01	98.99
394.22	62.12
394.429	-11.61
394.639	-1.37
394.848	90.79
395.058	51.88
395.267	43.69
395.477	111.27
395.686	55.98
395.895	185
396.105	246.44
396.314	103.08
396.524	-52.56
396.733	17.07
396.942	45.74
397.152	35.5
397.361	15.02
397.57	17.07
397.78	51.88
397.989	45.74
398.198	164.52
398.407	-7.51
398.617	64.17
398.826	88.75
399.035	43.69
399.244	-36.18
399.453	53.93
399.663	17.07
399.872	66.22
400.081	-32.08
400.29	144.04
400.499	37.55
400.708	101.03
400.917	25.26
401.127	51.88
401.336	17.07
401.545	195.24
401.754	146.09
401.963	84.65
402.172	29.35
402.381	-25.94
402.59	84.65
402.799	8.87
403.008	72.36
403.217	45.74
403.426	90.79
403.635	-48.47
403.844	76.46
404.053	82.6
404.262	-21.85
404.471	131.75
404.68	150.18
404.888	55.98
405.097	39.59
405.306	92.84
405.515	27.31
405.724	-9.56
405.933	55.98
406.142	-7.51
406.35	148.14
406.559	31.4
406.768	15.02
406.977	144.04
407.185	47.79
407.394	92.84
407.603	-50.52
407.812	101.03
408.02	123.56
408.229	-30.04
408.438	39.59
408.646	-89.43
408.855	-34.13
409.064	29.35
409.272	51.88
409.481	103.08
409.69	-23.89
409.898	-30.04
410.107	64.17
410.315	113.32
410.524	2.73
410.733	43.69
410.941	25.26
411.15	125.61
411.358	166.57
411.567	221.86
411.775	70.31
411.984	31.4
412.192	88.75
412.401	49.83
412.609	180.9
412.818	101.03
413.026	17.07
413.234	58.03
413.443	35.5
413.651	49.83
413.86	-46.42
414.068	189.1
414.276	144.04
414.485	66.22
414.693	152.23
414.901	217.77
415.11	10.92
415.318	86.7
415.526	49.83
415.734	66.22
415.943	64.17
416.151	127.66
416.359	6.83
416.567	25.26
416.776	94.89
416.984	119.46
417.192	133.8
417.4	6.83
417.608	-11.61
417.817	-77.14
418.025	162.47
418.233	172.71
418.441	-60.76
418.649	-32.08
418.857	4.78
419.065	109.23
419.273	-40.28
419.481	0.68
419.689	68.27
419.897	131.75
420.105	-38.23
420.313	117.42
420.521	166.57
420.729	109.23
420.937	-62.8
421.145	-50.52
421.353	35.5
421.561	164.52
421.769	78.51
421.977	66.22
422.185	109.23
422.393	2.73
422.601	125.61
422.809	90.79
423.017	90.79
423.224	68.27
423.432	139.94
423.64	21.16
423.848	139.94
424.056	-27.99
424.263	80.55
424.471	33.45
424.679	162.47
424.887	-27.99
425.094	127.66
425.302	45.74
425.51	33.45
425.718	125.61
425.925	96.94
426.133	43.69
426.341	219.82
426.548	121.51
426.756	17.07
426.964	84.65
427.171	-1.37
427.379	96.94
427.586	121.51
427.794	98.99
428.001	144.04
428.209	84.65
428.417	156.33
428.624	94.89
428.832	123.56
429.039	4.78
429.247	19.11
429.454	82.6
429.662	225.96
429.869	174.76
430.076	105.13
430.284	125.61
430.491	166.57
430.699	94.89
430.906	150.18
431.114	84.65
431.321	88.75
431.528	144.04
431.736	135.85
431.943	205.48
432.15	207.53
432.358	189.1
432.565	256.68
432.772	35.5
432.979	217.77
433.187	144.04
433.394	213.67
433.601	86.7
433.808	217.77
434.016	258.73
434.223	221.86
434.43	225.96
434.637	234.15
434.844	373.41
435.052	322.21
435.259	228.01
435.466	291.49
435.673	230.06
435.88	285.35
436.087	383.65
436.294	283.3
436.501	238.25
436.708	195.24
436.915	281.25
437.122	307.88
437.329	152.23
437.537	309.93
437.743	348.84
437.95	395.94
438.157	340.65
438.364	412.32
438.571	385.7
438.778	336.55
438.985	432.8
439.192	541.35
439.399	344.74
439.606	484
439.813	516.77
440.02	656.03
440.227	680.61
440.433	600.74
440.64	553.63
440.847	508.58
441.054	570.02
441.261	756.38
441.467	576.16
441.674	606.88
441.881	711.33
442.088	613.03
442.294	701.09
442.501	723.62
442.708	844.45
442.914	754.34
443.121	856.73
443.328	762.53
443.534	1032.86
443.741	852.64
443.948	774.81
444.154	957.08
444.361	1004.19
444.568	938.65
444.774	1143.45
444.981	903.84
445.187	1137.31
445.394	1186.46
445.6	1112.73
445.807	1405.59
446.013	1313.43
446.22	1186.46
446.426	1378.97
446.633	1602.19
446.839	1757.84
447.046	1366.68
447.252	1565.33
447.459	1702.54
447.665	1649.3
447.871	1872.53
448.078	1874.57
448.284	1954.44
448.491	1944.21
448.697	2122.38
448.903	2157.19
449.11	2167.43
449.316	2142.86
449.522	2357.89
449.728	2407.05
449.935	2519.68
450.141	2460.29
450.347	2790.02
450.553	2749.06
450.76	2712.19
450.966	2931.33
451.172	2976.38
451.378	3089.02
451.584	3078.78
451.791	3408.5
451.997	3449.46
452.203	3588.72
452.409	3709.55
452.615	3783.28
452.821	3791.47
453.027	3760.75
453.233	4330.09
453.44	4162.16
453.646	4256.36
453.852	4600.42
454.058	4743.78
454.264	4733.54
454.47	5278.3
454.676	5235.29
454.882	5710.42
455.088	5544.53
455.294	5745.23
455.5	6138.44
455.705	6523.46
455.911	6500.94
456.117	6713.92
456.323	7125.57
456.529	6937.15
456.735	7578.17
456.941	7891.51
457.147	7950.9
457.352	8325.68
457.558	8550.95
457.764	9148.96
457.97	9007.65
458.176	9437.72
458.381	10025.49
458.587	10170.9
458.793	10768.9
458.999	10854.92
459.204	11962.87
459.41	12554.73
459.616	12259.82
459.821	13201.89
460.027	13472.22
460.233	14379.47
460.438	14328.27
460.644	15202.75
460.85	15358.4
461.055	15741.37
461.261	16794.03
461.466	16255.41
461.672	16439.73
461.878	18682.25
462.083	18477.46
462.289	18768.27
462.494	19501.44
462.7	19571.07
462.905	19896.7
463.111	21451.11
463.316	22456.66
463.522	22907.21
463.727	23804.22
463.932	24611.12
464.138	25221.42
464.343	26462.49
464.549	26919.18
464.754	28389.63
464.959	29065.46
465.165	29927.65
465.37	29397.23
465.575	29511.91
465.781	31635.66
465.986	32430.27
466.191	31674.57
466.397	32184.51
466.602	31559.88
466.807	33116.34
467.012	34005.16
467.218	34533.53
467.423	34547.87
467.628	35729.55
467.833	36946.04
468.038	36644.99
468.244	35969.16
468.449	37781.61
468.654	36745.34
