Data from USB4F104151__90__10-44-40-368.txt Node

Date: Wed Feb 26 10:44:40 EST 2025
User: louis
Spectrometer: USB4F10415
Trigger mode: 4
Integration Time (sec): 1.000000E-1
Scans to average: 1
Electric dark correction enabled: true
Nonlinearity correction enabled: false
Boxcar width: 0
XAxis mode: Wavelengths
Number of Pixels in Spectrum: 3648
>>>>>Begin Spectral Data<<<<<
178.204	-401.91
178.424	-401.91
178.644	-401.91
178.864	-393.72
179.084	-358.91
179.304	9.73
179.524	-47.62
179.744	-12.8
179.964	128.51
180.184	11.78
180.404	97.79
180.624	-88.57
180.844	46.59
181.064	-66.05
181.283	-47.62
181.503	-104.96
181.723	73.21
181.943	-57.86
182.163	200.19
182.383	19.97
182.602	19.97
182.822	124.41
183.042	99.84
183.262	-41.47
183.482	-49.66
183.701	40.45
183.921	62.98
184.141	28.16
184.361	54.78
184.58	81.41
184.8	71.17
185.02	-29.18
185.239	148.99
185.459	-2.56
185.679	89.6
185.898	-111.1
186.118	36.35
186.338	71.17
186.557	89.6
186.777	-53.76
186.997	11.78
187.216	34.3
187.436	187.9
187.655	15.87
187.875	65.02
188.095	81.41
188.314	214.52
188.534	167.42
188.753	24.06
188.973	144.89
189.192	237.05
189.412	28.16
189.631	-16.9
189.851	95.74
190.07	97.79
190.29	-33.28
190.509	-41.47
190.729	40.45
190.948	116.22
191.168	288.25
191.387	110.08
191.607	-4.61
191.826	136.7
192.045	44.54
192.265	15.87
192.484	116.22
192.704	36.35
192.923	-4.61
193.142	189.95
193.362	50.69
193.581	169.47
193.8	79.36
194.02	52.74
194.239	24.06
194.458	132.61
194.678	3.58
194.897	-23.04
195.116	73.21
195.335	60.93
195.555	65.02
195.774	38.4
195.993	75.26
196.212	48.64
196.432	42.5
196.651	40.45
196.87	-41.47
197.089	140.8
197.308	44.54
197.528	50.69
197.747	-70.14
197.966	103.93
198.185	157.18
198.404	-37.38
198.623	112.13
198.842	105.98
199.062	140.8
199.281	69.12
199.5	3.58
199.719	65.02
199.938	118.27
200.157	62.98
200.376	126.46
200.595	142.85
200.814	103.93
201.033	-49.66
201.252	212.48
201.471	85.5
201.69	89.6
201.909	38.4
202.128	146.94
202.347	108.03
202.566	-23.04
202.785	-25.09
203.004	-4.61
203.223	218.62
203.442	26.11
203.661	-4.61
203.879	75.26
204.098	58.88
204.317	-66.05
204.536	60.93
204.755	79.36
204.974	110.08
205.193	-27.14
205.411	228.86
205.63	112.13
205.849	34.3
206.068	54.78
206.287	-33.28
206.505	81.41
206.724	97.79
206.943	30.21
207.162	-31.23
207.381	120.32
207.599	13.82
207.818	36.35
208.037	32.26
208.255	130.56
208.474	83.45
208.693	3.58
208.911	30.21
209.13	99.84
209.349	69.12
209.567	89.6
209.786	122.37
210.005	140.8
210.223	46.59
210.442	-94.72
210.661	52.74
210.879	83.45
211.098	50.69
211.316	11.78
211.535	73.21
211.753	75.26
211.972	89.6
212.191	3.58
212.409	81.41
212.628	101.89
212.846	-102.91
213.065	46.59
213.283	73.21
213.502	132.61
213.72	120.32
213.938	22.02
214.157	-27.14
214.375	151.04
214.594	-49.66
214.812	54.78
215.031	54.78
215.249	60.93
215.467	26.11
215.686	79.36
215.904	36.35
216.122	120.32
216.341	169.47
216.559	89.6
216.778	15.87
216.996	122.37
217.214	54.78
217.432	-4.61
217.651	-16.9
217.869	79.36
218.087	69.12
218.306	-37.38
218.524	28.16
218.742	56.83
218.96	67.07
219.179	-2.56
219.397	62.98
219.615	243.2
219.833	122.37
220.051	-2.56
220.27	89.6
220.488	105.98
220.706	89.6
220.924	28.16
221.142	1.54
221.36	112.13
221.578	54.78
221.796	38.4
222.015	19.97
222.233	19.97
222.451	103.93
222.669	5.63
222.887	7.68
223.105	11.78
223.323	56.83
223.541	1.54
223.759	87.55
223.977	-20.99
224.195	222.72
224.413	134.65
224.631	40.45
224.849	148.99
225.067	146.94
225.285	56.83
225.503	112.13
225.721	-129.53
225.939	54.78
226.157	89.6
226.375	220.67
226.592	-10.75
226.81	-43.52
227.028	122.37
227.246	112.13
227.464	65.02
227.682	120.32
227.9	24.06
228.117	65.02
228.335	67.07
228.553	97.79
228.771	40.45
228.989	62.98
229.206	56.83
229.424	-43.52
229.642	52.74
229.86	-0.51
230.077	103.93
230.295	87.55
230.513	93.69
230.731	136.7
230.948	134.65
231.166	157.18
231.384	26.11
231.601	-29.18
231.819	210.43
232.037	52.74
232.254	36.35
232.472	75.26
232.689	19.97
232.907	120.32
233.125	-12.8
233.342	-18.94
233.56	-14.85
233.777	34.3
233.995	5.63
234.213	140.8
234.43	89.6
234.648	85.5
234.865	-6.66
235.083	167.42
235.3	77.31
235.518	85.5
235.735	173.57
235.953	73.21
236.17	93.69
236.388	28.16
236.605	54.78
236.822	-43.52
237.04	95.74
237.257	67.07
237.475	-16.9
237.692	85.5
237.909	89.6
238.127	11.78
238.344	56.83
238.562	65.02
238.779	-37.38
238.996	-39.42
239.214	110.08
239.431	83.45
239.648	54.78
239.865	81.41
240.083	185.85
240.3	105.98
240.517	19.97
240.735	24.06
240.952	89.6
241.169	-6.66
241.386	77.31
241.603	54.78
241.821	-61.95
242.038	136.7
242.255	138.75
242.472	-76.29
242.689	171.52
242.907	67.07
243.124	95.74
243.341	101.89
243.558	-59.9
243.775	-82.43
243.992	5.63
244.209	48.64
244.426	214.52
244.643	118.27
244.86	105.98
245.078	48.64
245.295	91.65
245.512	13.82
245.729	32.26
245.946	97.79
246.163	3.58
246.38	-12.8
246.597	60.93
246.814	89.6
247.031	48.64
247.248	58.88
247.464	101.89
247.681	50.69
247.898	142.85
248.115	69.12
248.332	-35.33
248.549	99.84
248.766	144.89
248.983	97.79
249.2	114.17
249.417	110.08
249.633	-29.18
249.85	93.69
250.067	110.08
250.284	26.11
250.501	46.59
250.717	105.98
250.934	-10.75
251.151	11.78
251.368	50.69
251.585	56.83
251.801	165.37
252.018	-29.18
252.235	132.61
252.451	-47.62
252.668	9.73
252.885	128.51
253.102	101.89
253.318	30.21
253.535	-59.9
253.752	-23.04
253.968	42.5
254.185	-49.66
254.401	42.5
254.618	171.52
254.835	7.68
255.051	216.57
255.268	28.16
255.484	85.5
255.701	-16.9
255.917	75.26
256.134	-16.9
256.351	42.5
256.567	-25.09
256.784	17.92
257	-49.66
257.217	48.64
257.433	85.5
257.65	46.59
257.866	136.7
258.082	-23.04
258.299	34.3
258.515	65.02
258.732	17.92
258.948	56.83
259.165	83.45
259.381	-55.81
259.597	95.74
259.814	-37.38
260.03	32.26
260.246	-27.14
260.463	120.32
260.679	155.13
260.895	105.98
261.112	36.35
261.328	-12.8
261.544	36.35
261.761	136.7
261.977	58.88
262.193	5.63
262.409	128.51
262.626	89.6
262.842	103.93
263.058	42.5
263.274	77.31
263.49	62.98
263.707	130.56
263.923	167.42
264.139	-86.53
264.355	69.12
264.571	189.95
264.787	50.69
265.004	91.65
265.22	75.26
265.436	3.58
265.652	54.78
265.868	112.13
266.084	-55.81
266.3	13.82
266.516	-27.14
266.732	93.69
266.948	91.65
267.164	-4.61
267.38	183.81
267.596	60.93
267.812	134.65
268.028	177.66
268.244	7.68
268.46	75.26
268.676	38.4
268.892	7.68
269.108	22.02
269.324	75.26
269.54	-84.48
269.756	144.89
269.972	-29.18
270.188	85.5
270.403	-8.7
270.619	19.97
270.835	81.41
271.051	22.02
271.267	-10.75
271.483	36.35
271.698	99.84
271.914	101.89
272.13	71.17
272.346	30.21
272.562	28.16
272.777	95.74
272.993	73.21
273.209	71.17
273.425	136.7
273.64	-10.75
273.856	122.37
274.072	60.93
274.287	5.63
274.503	69.12
274.719	62.98
274.934	56.83
275.15	-64
275.366	13.82
275.581	7.68
275.797	87.55
276.012	-4.61
276.228	38.4
276.444	101.89
276.659	192
276.875	-6.66
277.09	3.58
277.306	50.69
277.521	103.93
277.737	15.87
277.952	71.17
278.168	36.35
278.383	-2.56
278.599	65.02
278.814	26.11
279.03	54.78
279.245	142.85
279.461	81.41
279.676	71.17
279.892	19.97
280.107	-80.38
280.322	-53.76
280.538	79.36
280.753	5.63
280.969	-33.28
281.184	163.33
281.399	196.09
281.615	91.65
281.83	15.87
282.045	-4.61
282.26	11.78
282.476	50.69
282.691	105.98
282.906	44.54
283.122	-0.51
283.337	-2.56
283.552	132.61
283.767	-12.8
283.983	157.18
284.198	26.11
284.413	93.69
284.628	44.54
284.843	-10.75
285.058	122.37
285.274	-4.61
285.489	44.54
285.704	110.08
285.919	13.82
286.134	3.58
286.349	103.93
286.564	24.06
286.779	155.13
286.995	17.92
287.21	-90.62
287.425	75.26
287.64	-12.8
287.855	103.93
288.07	-66.05
288.285	245.24
288.5	161.28
288.715	15.87
288.93	122.37
289.145	-14.85
289.36	241.15
289.575	42.5
289.79	67.07
290.004	-25.09
290.219	167.42
290.434	13.82
290.649	30.21
290.864	65.02
291.079	44.54
291.294	114.17
291.509	71.17
291.724	140.8
291.938	44.54
292.153	34.3
292.368	24.06
292.583	116.22
292.798	24.06
293.012	50.69
293.227	77.31
293.442	-20.99
293.657	97.79
293.871	146.94
294.086	103.93
294.301	144.89
294.516	128.51
294.73	50.69
294.945	7.68
295.16	19.97
295.374	138.75
295.589	132.61
295.804	-4.61
296.018	40.45
296.233	93.69
296.447	62.98
296.662	79.36
296.877	144.89
297.091	138.75
297.306	30.21
297.52	5.63
297.735	91.65
297.949	24.06
298.164	128.51
298.378	93.69
298.593	1.54
298.807	-45.57
299.022	42.5
299.236	79.36
299.451	32.26
299.665	-39.42
299.88	-4.61
300.094	36.35
300.309	52.74
300.523	108.03
300.737	-43.52
300.952	99.84
301.166	24.06
301.381	-88.57
301.595	26.11
301.809	52.74
302.024	22.02
302.238	54.78
302.452	140.8
302.667	36.35
302.881	142.85
303.095	157.18
303.309	99.84
303.524	11.78
303.738	38.4
303.952	48.64
304.166	34.3
304.381	-86.53
304.595	87.55
304.809	-25.09
305.023	38.4
305.237	-20.99
305.452	9.73
305.666	22.02
305.88	56.83
306.094	124.41
306.308	124.41
306.522	179.71
306.736	-16.9
306.95	83.45
307.164	-49.66
307.379	13.82
307.593	124.41
307.807	148.99
308.021	34.3
308.235	73.21
308.449	-43.52
308.663	77.31
308.877	247.29
309.091	-20.99
309.305	95.74
309.519	-57.86
309.733	255.48
309.947	-139.77
310.161	130.56
310.374	19.97
310.588	85.5
310.802	-23.04
311.016	28.16
311.23	85.5
311.444	-45.57
311.658	26.11
311.872	120.32
312.085	132.61
312.299	140.8
312.513	148.99
312.727	24.06
312.941	-49.66
313.154	89.6
313.368	-8.7
313.582	36.35
313.796	42.5
314.009	17.92
314.223	124.41
314.437	71.17
314.651	114.17
314.864	46.59
315.078	19.97
315.292	-61.95
315.505	17.92
315.719	89.6
315.933	62.98
316.146	-61.95
316.36	-35.33
316.573	93.69
316.787	71.17
317.001	116.22
317.214	-2.56
317.428	48.64
317.641	-53.76
317.855	30.21
318.068	83.45
318.282	34.3
318.495	245.24
318.709	95.74
318.922	93.69
319.136	183.81
319.349	122.37
319.563	-25.09
319.776	87.55
319.99	9.73
320.203	60.93
320.417	134.65
320.63	165.37
320.843	179.71
321.057	120.32
321.27	11.78
321.483	87.55
321.697	136.7
321.91	52.74
322.124	97.79
322.337	108.03
322.55	-0.51
322.763	87.55
322.977	52.74
323.19	-70.14
323.403	48.64
323.617	48.64
323.83	153.09
324.043	9.73
324.256	126.46
324.469	-72.19
324.683	34.3
324.896	-35.33
325.109	93.69
325.322	-4.61
325.535	89.6
325.748	122.37
325.962	40.45
326.175	32.26
326.388	71.17
326.601	44.54
326.814	34.3
327.027	38.4
327.24	177.66
327.453	-80.38
327.666	69.12
327.879	146.94
328.092	54.78
328.305	22.02
328.518	87.55
328.731	-27.14
328.944	7.68
329.157	3.58
329.37	44.54
329.583	175.61
329.796	126.46
330.009	-66.05
330.222	151.04
330.435	85.5
330.648	32.26
330.861	93.69
331.073	52.74
331.286	95.74
331.499	81.41
331.712	71.17
331.925	17.92
332.138	26.11
332.35	93.69
332.563	-0.51
332.776	60.93
332.989	-31.23
333.202	50.69
333.414	148.99
333.627	62.98
333.84	36.35
334.053	75.26
334.265	79.36
334.478	24.06
334.691	83.45
334.903	69.12
335.116	-2.56
335.329	22.02
335.541	52.74
335.754	126.46
335.966	-53.76
336.179	95.74
336.392	89.6
336.604	148.99
336.817	114.17
337.029	79.36
337.242	65.02
337.454	105.98
337.667	38.4
337.88	62.98
338.092	58.88
338.305	81.41
338.517	-55.81
338.729	60.93
338.942	89.6
339.154	-68.09
339.367	36.35
339.579	110.08
339.792	75.26
340.004	54.78
340.217	30.21
340.429	83.45
340.641	15.87
340.854	-39.42
341.066	1.54
341.278	151.04
341.491	126.46
341.703	79.36
341.915	-37.38
342.128	22.02
342.34	85.5
342.552	3.58
342.764	105.98
342.977	54.78
343.189	151.04
343.401	99.84
343.613	-102.91
343.826	89.6
344.038	15.87
344.25	75.26
344.462	-72.19
344.674	34.3
344.886	81.41
345.099	77.31
345.311	77.31
345.523	40.45
345.735	-102.91
345.947	65.02
346.159	116.22
346.371	36.35
346.583	7.68
346.795	157.18
347.007	42.5
347.219	26.11
347.431	83.45
347.643	73.21
347.855	79.36
348.067	140.8
348.279	-74.24
348.491	48.64
348.703	148.99
348.915	22.02
349.127	26.11
349.339	83.45
349.551	26.11
349.763	83.45
349.975	101.89
350.187	95.74
350.399	126.46
350.61	71.17
350.822	110.08
351.034	32.26
351.246	110.08
351.458	105.98
351.669	134.65
351.881	146.94
352.093	140.8
352.305	112.13
352.517	116.22
352.728	89.6
352.94	69.12
353.152	99.84
353.363	-49.66
353.575	140.8
353.787	128.51
353.999	101.89
354.21	222.72
354.422	5.63
354.633	-37.38
354.845	85.5
355.057	85.5
355.268	124.41
355.48	124.41
355.692	-76.29
355.903	36.35
356.115	-47.62
356.326	-33.28
356.538	173.57
356.749	165.37
356.961	79.36
357.172	46.59
357.384	9.73
357.595	241.15
357.807	-33.28
358.018	-4.61
358.23	-6.66
358.441	167.42
358.653	75.26
358.864	69.12
359.075	15.87
359.287	110.08
359.498	62.98
359.709	110.08
359.921	52.74
360.132	148.99
360.344	9.73
360.555	-27.14
360.766	105.98
360.977	97.79
361.189	48.64
361.4	-0.51
361.611	173.57
361.823	134.65
362.034	42.5
362.245	-27.14
362.456	69.12
362.667	17.92
362.879	-20.99
363.09	26.11
363.301	79.36
363.512	19.97
363.723	19.97
363.935	-8.7
364.146	73.21
364.357	26.11
364.568	15.87
364.779	-43.52
364.99	97.79
365.201	13.82
365.412	159.23
365.623	-23.04
365.834	114.17
366.045	69.12
366.256	95.74
366.467	105.98
366.678	5.63
366.889	42.5
367.1	52.74
367.311	65.02
367.522	15.87
367.733	124.41
367.944	91.65
368.155	30.21
368.366	144.89
368.577	112.13
368.788	50.69
368.999	1.54
369.209	-4.61
369.42	196.09
369.631	185.85
369.842	140.8
370.053	42.5
370.264	101.89
370.474	32.26
370.685	83.45
370.896	73.21
371.107	97.79
371.317	62.98
371.528	-31.23
371.739	69.12
371.95	173.57
372.16	95.74
372.371	-29.18
372.582	-68.09
372.792	48.64
373.003	130.56
373.214	79.36
373.424	81.41
373.635	67.07
373.846	101.89
374.056	-45.57
374.267	67.07
374.477	42.5
374.688	-61.95
374.898	95.74
375.109	65.02
375.319	122.37
375.53	126.46
375.74	103.93
375.951	114.17
376.161	67.07
376.372	114.17
376.582	91.65
376.793	155.13
377.003	-61.95
377.214	48.64
377.424	101.89
377.635	13.82
377.845	1.54
378.055	122.37
378.266	28.16
378.476	60.93
378.686	200.19
378.897	87.55
379.107	105.98
379.317	126.46
379.528	71.17
379.738	132.61
379.948	1.54
380.158	179.71
380.369	40.45
380.579	177.66
380.789	54.78
380.999	42.5
381.21	171.52
381.42	175.61
381.63	50.69
381.84	179.71
382.05	83.45
382.261	112.13
382.471	140.8
382.681	11.78
382.891	200.19
383.101	81.41
383.311	-10.75
383.521	26.11
383.731	146.94
383.941	71.17
384.151	83.45
384.361	-23.04
384.571	114.17
384.781	34.3
384.991	122.37
385.201	142.85
385.411	151.04
385.621	40.45
385.831	75.26
386.041	60.93
386.251	-43.52
386.461	77.31
386.671	38.4
386.881	105.98
387.091	24.06
387.301	112.13
387.511	11.78
387.72	128.51
387.93	146.94
388.14	-43.52
388.35	79.36
388.56	146.94
388.769	75.26
388.979	38.4
389.189	11.78
389.399	79.36
389.609	140.8
389.818	116.22
390.028	65.02
390.238	89.6
390.447	62.98
390.657	79.36
390.867	-57.86
391.076	-31.23
391.286	17.92
391.496	-8.7
391.705	132.61
391.915	138.75
392.125	132.61
392.334	44.54
392.544	153.09
392.753	54.78
392.963	-49.66
393.172	-12.8
393.382	11.78
393.591	204.28
393.801	3.58
394.01	187.9
394.22	85.5
394.429	48.64
394.639	15.87
394.848	77.31
395.058	60.93
395.267	-18.94
395.477	118.27
395.686	95.74
395.895	220.67
396.105	138.75
396.314	126.46
396.524	85.5
396.733	83.45
396.942	155.13
397.152	140.8
397.361	132.61
397.57	40.45
397.78	46.59
397.989	103.93
398.198	202.24
398.407	46.59
398.617	3.58
398.826	32.26
399.035	38.4
399.244	44.54
399.453	85.5
399.663	3.58
399.872	81.41
400.081	69.12
400.29	118.27
400.499	-6.66
400.708	105.98
400.917	48.64
401.127	46.59
401.336	-10.75
401.545	228.86
401.754	155.13
401.963	126.46
402.172	19.97
402.381	-27.14
402.59	15.87
402.799	87.55
403.008	60.93
403.217	22.02
403.426	101.89
403.635	-37.38
403.844	89.6
404.053	44.54
404.262	60.93
404.471	122.37
404.68	69.12
404.888	38.4
405.097	62.98
405.306	46.59
405.515	126.46
405.724	75.26
405.933	124.41
406.142	187.9
406.35	151.04
406.559	38.4
406.768	87.55
406.977	118.27
407.185	40.45
407.394	32.26
407.603	11.78
407.812	151.04
408.02	124.41
408.229	114.17
408.438	56.83
408.646	-59.9
408.855	1.54
409.064	42.5
409.272	38.4
409.481	95.74
409.69	26.11
409.898	40.45
410.107	69.12
410.315	153.09
410.524	34.3
410.733	17.92
410.941	108.03
411.15	91.65
411.358	161.28
411.567	73.21
411.775	87.55
411.984	24.06
412.192	26.11
412.401	97.79
412.609	128.51
412.818	87.55
413.026	103.93
413.234	48.64
413.443	46.59
413.651	46.59
413.86	91.65
414.068	153.09
414.276	124.41
414.485	28.16
414.693	239.1
414.901	177.66
415.11	44.54
415.318	75.26
415.526	122.37
415.734	120.32
415.943	179.71
416.151	173.57
416.359	101.89
416.567	83.45
416.776	114.17
416.984	253.44
417.192	71.17
417.4	-31.23
417.608	50.69
417.817	-2.56
418.025	93.69
418.233	249.34
418.441	-25.09
418.649	75.26
418.857	187.9
419.065	177.66
419.273	-14.85
419.481	56.83
419.689	48.64
419.897	-10.75
420.105	-33.28
420.313	99.84
420.521	151.04
420.729	165.37
420.937	79.36
421.145	44.54
421.353	124.41
421.561	179.71
421.769	134.65
421.977	30.21
422.185	169.47
422.393	81.41
422.601	126.46
422.809	95.74
423.017	87.55
423.224	60.93
423.432	216.57
423.64	105.98
423.848	196.09
424.056	24.06
424.263	67.07
424.471	56.83
424.679	128.51
424.887	-16.9
425.094	83.45
425.302	126.46
425.51	30.21
425.718	118.27
425.925	58.88
426.133	71.17
426.341	189.95
426.548	19.97
426.756	30.21
426.964	169.47
427.171	38.4
427.379	112.13
427.586	105.98
427.794	112.13
428.001	167.42
428.209	169.47
428.417	146.94
428.624	87.55
428.832	214.52
429.039	108.03
429.247	52.74
429.454	165.37
429.662	239.1
429.869	208.38
430.076	192
430.284	169.47
430.491	138.75
430.699	165.37
430.906	228.86
431.114	177.66
431.321	202.24
431.528	142.85
431.736	171.52
431.943	177.66
432.15	155.13
432.358	194.05
432.565	265.72
432.772	73.21
432.979	187.9
433.187	194.05
433.394	265.72
433.601	116.22
433.808	181.76
434.016	194.05
434.223	208.38
434.43	288.25
434.637	265.72
434.844	177.66
435.052	232.96
435.259	312.83
435.466	290.3
435.673	253.44
435.88	314.88
436.087	327.16
436.294	312.83
436.501	329.21
436.708	202.24
436.915	359.93
437.122	361.98
437.329	257.53
437.537	345.59
437.743	331.26
437.95	404.99
438.157	429.56
438.364	404.99
438.571	433.66
438.778	433.66
438.985	366.07
439.192	531.96
439.399	482.81
439.606	464.38
439.813	396.79
440.02	599.54
440.227	701.94
440.433	587.26
440.64	454.14
440.847	466.42
441.054	597.49
441.261	759.28
441.467	583.16
441.674	603.64
441.881	716.28
442.088	624.12
442.294	734.71
442.501	845.3
442.708	841.2
442.914	724.47
443.121	878.07
443.328	851.44
443.534	978.42
443.741	988.66
443.948	773.62
444.154	1002.99
444.361	1177.07
444.568	1095.15
444.774	1089.01
444.981	1050.1
445.187	1242.61
445.394	1187.31
445.6	1250.8
445.807	1304.04
446.013	1191.41
446.22	1234.41
446.426	1400.3
446.633	1578.47
446.839	1621.48
447.046	1471.98
447.252	1627.62
447.459	1664.49
447.665	1717.73
447.871	1773.03
448.078	1842.66
448.284	1846.76
448.491	1969.63
448.697	2051.55
448.903	2223.58
449.11	2268.64
449.316	2291.17
449.522	2354.65
449.728	2436.57
449.935	2541.02
450.141	2559.45
450.347	2792.92
450.553	2780.63
450.76	2930.13
450.966	3059.15
451.172	3050.96
451.378	3057.11
451.584	3188.18
451.791	3497.42
451.997	3534.28
452.203	3761.61
452.409	3759.56
452.615	3884.48
452.821	3888.58
453.027	3794.37
453.233	4304.32
453.44	4218.3
453.646	4576.7
453.852	4677.05
454.058	4732.34
454.264	4931
454.47	5365.17
454.676	5408.17
454.882	5615.02
455.088	5531.05
455.294	5754.28
455.5	6350.24
455.705	6610.33
455.911	6671.77
456.117	6686.11
456.323	7009.69
456.529	7120.28
456.735	7857.54
456.941	8031.62
457.147	8058.25
457.352	8557.95
457.558	8512.89
457.764	9229.68
457.97	9153.91
458.176	9790.83
458.381	10106.21
458.587	10378.59
458.793	10954.07
458.999	11003.22
459.204	12236.1
459.41	12901.69
459.616	12444.99
459.821	13305.14
460.027	13663.54
460.233	14255.4
460.438	14771.49
460.644	15248.66
460.85	15396.12
461.055	16243.98
461.261	16909.57
461.466	16592.13
461.672	16971.01
461.878	18896.1
462.083	18631.91
462.289	19070.17
462.494	19832.02
462.7	20020.43
462.905	20266.19
463.111	22133.93
463.316	22883.49
463.522	23563.42
463.727	24095.89
463.932	25029.76
464.138	25685.11
464.343	26829.93
464.549	26868.84
464.754	28847.18
464.959	29619.26
465.165	30088.24
465.37	29848.63
465.575	29996.09
465.781	32343.06
465.986	32838.67
466.191	32480.27
466.397	33018.89
466.602	32109.59
466.807	33958.91
467.012	34917.36
467.218	35136.49
467.423	35169.26
467.628	36058.07
467.833	37753.79
468.038	37549
468.244	36836.3
468.449	38652.85
468.654	37293
