Data from USB4F104151__301__11-21-37-825.txt Node

Date: Wed Feb 26 11:21:37 EST 2025
User: louis
Spectrometer: USB4F10415
Trigger mode: 4
Integration Time (sec): 1.000000E-1
Scans to average: 1
Electric dark correction enabled: true
Nonlinearity correction enabled: false
Boxcar width: 0
XAxis mode: Wavelengths
Number of Pixels in Spectrum: 3648
>>>>>Begin Spectral Data<<<<<
178.204	-311.46
178.424	-311.46
178.644	-311.46
178.864	-383.14
179.084	-413.86
179.304	-41.13
179.524	-30.89
179.744	-16.55
179.964	8.02
180.184	1.88
180.404	94.04
180.624	-55.47
180.844	-18.6
181.064	3.93
181.283	36.69
181.503	-30.89
181.723	48.98
181.943	-30.89
182.163	225.11
182.383	1.88
182.602	147.28
182.822	184.15
183.042	57.17
183.262	3.93
183.482	-14.51
183.701	-4.27
183.921	24.4
184.141	-4.27
184.361	147.28
184.58	120.66
184.8	163.67
185.02	-20.65
185.239	169.81
185.459	71.51
185.679	59.22
185.898	-12.46
186.118	110.42
186.338	61.27
186.557	192.34
186.777	-80.04
186.997	44.88
187.216	36.69
187.436	241.49
187.655	16.21
187.875	106.32
188.095	24.4
188.314	137.04
188.534	89.94
188.753	-77.99
188.973	118.61
189.192	225.11
189.412	67.41
189.631	-26.79
189.851	94.04
190.07	128.85
190.29	51.03
190.509	10.07
190.729	104.28
190.948	182.1
191.168	257.87
191.387	79.7
191.607	26.45
191.826	96.08
192.045	48.98
192.265	79.7
192.484	126.8
192.704	57.17
192.923	-32.94
193.142	221.01
193.362	120.66
193.581	212.82
193.8	87.89
194.02	14.17
194.239	91.99
194.458	137.04
194.678	12.12
194.897	51.03
195.116	63.32
195.335	3.93
195.555	12.12
195.774	-39.08
195.993	188.24
196.212	108.37
196.432	-47.27
196.651	8.02
196.87	40.79
197.089	261.97
197.308	34.64
197.528	104.28
197.747	-16.55
197.966	132.95
198.185	175.95
198.404	73.56
198.623	124.76
198.842	91.99
199.062	77.65
199.281	69.46
199.5	77.65
199.719	81.75
199.938	104.28
200.157	87.89
200.376	151.38
200.595	200.53
200.814	106.32
201.033	1.88
201.252	163.67
201.471	36.69
201.69	161.62
201.909	48.98
202.128	73.56
202.347	81.75
202.566	-12.46
202.785	-26.79
203.004	10.07
203.223	276.31
203.442	89.94
203.661	-47.27
203.879	98.13
204.098	126.8
204.317	-10.41
204.536	180.05
204.755	77.65
204.974	87.89
205.193	-24.75
205.411	112.47
205.63	57.17
205.849	102.23
206.068	44.88
206.287	-6.31
206.505	48.98
206.724	55.12
206.943	48.98
207.162	-0.17
207.381	38.74
207.599	79.7
207.818	81.75
208.037	22.36
208.255	94.04
208.474	94.04
208.693	83.8
208.911	-8.36
209.13	128.85
209.349	-2.22
209.567	87.89
209.786	65.36
210.005	143.19
210.223	46.93
210.442	-90.28
210.661	91.99
210.879	110.42
211.098	-14.51
211.316	16.21
211.535	120.66
211.753	51.03
211.972	151.38
212.191	-26.79
212.409	3.93
212.628	108.37
212.846	-30.89
213.065	61.27
213.283	141.14
213.502	91.99
213.72	83.8
213.938	61.27
214.157	-6.31
214.375	178
214.594	-6.31
214.812	75.6
215.031	38.74
215.249	53.08
215.467	51.03
215.686	108.37
215.904	30.55
216.122	163.67
216.341	143.19
216.559	32.6
216.778	196.43
216.996	155.47
217.214	63.32
217.432	18.26
217.651	3.93
217.869	77.65
218.087	69.46
218.306	-26.79
218.524	61.27
218.742	30.55
218.96	132.95
219.179	30.55
219.397	-6.31
219.615	206.67
219.833	145.24
220.051	-26.79
220.27	163.67
220.488	75.6
220.706	79.7
220.924	-30.89
221.142	1.88
221.36	71.51
221.578	114.52
221.796	53.08
222.015	22.36
222.233	26.45
222.451	188.24
222.669	-30.89
222.887	42.84
223.105	18.26
223.323	36.69
223.541	-26.79
223.759	77.65
223.977	75.6
224.195	257.87
224.413	118.61
224.631	112.47
224.849	83.8
225.067	212.82
225.285	-14.51
225.503	65.36
225.721	-47.27
225.939	91.99
226.157	16.21
226.375	225.11
226.592	-30.89
226.81	63.32
227.028	151.38
227.246	178
227.464	71.51
227.682	124.76
227.9	51.03
228.117	81.75
228.335	102.23
228.553	69.46
228.771	-8.36
228.989	71.51
229.206	98.13
229.424	40.79
229.642	-2.22
229.86	24.4
230.077	184.15
230.295	94.04
230.513	104.28
230.731	57.17
230.948	235.35
231.166	202.58
231.384	85.84
231.601	32.6
231.819	186.19
232.037	-20.65
232.254	12.12
232.472	3.93
232.689	32.6
232.907	102.23
233.125	1.88
233.342	51.03
233.56	63.32
233.777	120.66
233.995	-24.75
234.213	233.3
234.43	98.13
234.648	18.26
234.865	53.08
235.083	102.23
235.3	100.18
235.518	100.18
235.735	157.52
235.953	141.14
236.17	42.84
236.388	53.08
236.605	3.93
236.822	126.8
237.04	149.33
237.257	71.51
237.475	-6.31
237.692	22.36
237.909	94.04
238.127	5.97
238.344	141.14
238.562	24.4
238.779	-2.22
238.996	-45.23
239.214	85.84
239.431	161.62
239.648	30.55
239.865	53.08
240.083	77.65
240.3	65.36
240.517	5.97
240.735	106.32
240.952	122.71
241.169	116.56
241.386	102.23
241.603	-24.75
241.821	-69.8
242.038	85.84
242.255	149.33
242.472	36.69
242.689	22.36
242.907	135
243.124	102.23
243.341	116.56
243.558	-10.41
243.775	-10.41
243.992	-2.22
244.209	89.94
244.426	163.67
244.643	106.32
244.86	40.79
245.078	91.99
245.295	89.94
245.512	44.88
245.729	-14.51
245.946	53.08
246.163	100.18
246.38	-10.41
246.597	100.18
246.814	51.03
247.031	36.69
247.248	83.8
247.464	79.7
247.681	3.93
247.898	122.71
248.115	81.75
248.332	26.45
248.549	194.39
248.766	159.57
248.983	96.08
249.2	87.89
249.417	124.76
249.633	83.8
249.85	34.64
250.067	38.74
250.284	77.65
250.501	71.51
250.717	114.52
250.934	3.93
251.151	65.36
251.368	38.74
251.585	124.76
251.801	44.88
252.018	-45.23
252.235	83.8
252.451	-43.18
252.668	-12.46
252.885	85.84
253.102	22.36
253.318	22.36
253.535	44.88
253.752	-10.41
253.968	32.6
254.185	-10.41
254.401	128.85
254.618	77.65
254.835	-47.27
255.051	128.85
255.268	130.9
255.484	57.17
255.701	63.32
255.917	83.8
256.134	36.69
256.351	71.51
256.567	-18.6
256.784	81.75
257	-45.23
257.217	130.9
257.433	124.76
257.65	77.65
257.866	137.04
258.082	-37.03
258.299	-16.55
258.515	98.13
258.732	-10.41
258.948	-53.42
259.165	81.75
259.381	-2.22
259.597	91.99
259.814	32.6
260.03	40.79
260.246	118.61
260.463	120.66
260.679	126.8
260.895	24.4
261.112	34.64
261.328	51.03
261.544	5.97
261.761	112.47
261.977	3.93
262.193	20.31
262.409	83.8
262.626	46.93
262.842	44.88
263.058	42.84
263.274	165.71
263.49	100.18
263.707	-0.17
263.923	130.9
264.139	-6.31
264.355	51.03
264.571	173.91
264.787	110.42
265.004	192.34
265.22	18.26
265.436	-16.55
265.652	-22.7
265.868	53.08
266.084	-53.42
266.3	36.69
266.516	-12.46
266.732	89.94
266.948	67.41
267.164	-37.03
267.38	83.8
267.596	106.32
267.812	161.62
268.028	63.32
268.244	51.03
268.46	1.88
268.676	34.64
268.892	-28.84
269.108	-75.95
269.324	-0.17
269.54	8.02
269.756	159.57
269.972	40.79
270.188	-34.99
270.403	-20.65
270.619	3.93
270.835	94.04
271.051	77.65
271.267	48.98
271.483	75.6
271.698	149.33
271.914	106.32
272.13	69.46
272.346	-14.51
272.562	77.65
272.777	122.71
272.993	40.79
273.209	10.07
273.425	89.94
273.64	-65.71
273.856	94.04
274.072	28.5
274.287	-71.85
274.503	100.18
274.719	110.42
274.934	63.32
275.15	-65.71
275.366	112.47
275.581	26.45
275.797	77.65
276.012	98.13
276.228	85.84
276.444	42.84
276.659	110.42
276.875	36.69
277.09	89.94
277.306	-16.55
277.521	48.98
277.737	73.56
277.952	102.23
278.168	61.27
278.383	118.61
278.599	143.19
278.814	67.41
279.03	8.02
279.245	83.8
279.461	3.93
279.676	73.56
279.892	-24.75
280.107	-92.33
280.322	12.12
280.538	51.03
280.753	-43.18
280.969	75.6
281.184	61.27
281.399	81.75
281.615	30.55
281.83	8.02
282.045	-75.95
282.26	10.07
282.476	26.45
282.691	157.52
282.906	67.41
283.122	73.56
283.337	22.36
283.552	96.08
283.767	-12.46
283.983	126.8
284.198	40.79
284.413	106.32
284.628	-104.62
284.843	75.6
285.058	126.8
285.274	100.18
285.489	48.98
285.704	85.84
285.919	-0.17
286.134	69.46
286.349	-10.41
286.564	85.84
286.779	178
286.995	34.64
287.21	24.4
287.425	73.56
287.64	71.51
287.855	118.61
288.07	28.5
288.285	108.37
288.5	159.57
288.715	147.28
288.93	18.26
289.145	-86.19
289.36	73.56
289.575	20.31
289.79	102.23
290.004	28.5
290.219	165.71
290.434	-22.7
290.649	-2.22
290.864	18.26
291.079	-28.84
291.294	40.79
291.509	38.74
291.724	10.07
291.938	26.45
292.153	67.41
292.368	65.36
292.583	77.65
292.798	118.61
293.012	106.32
293.227	55.12
293.442	51.03
293.657	42.84
293.871	8.02
294.086	75.6
294.301	247.63
294.516	145.24
294.73	69.46
294.945	-59.56
295.16	108.37
295.374	40.79
295.589	114.52
295.804	-39.08
296.018	53.08
296.233	159.57
296.447	75.6
296.662	-12.46
296.877	61.27
297.091	130.9
297.306	20.31
297.52	3.93
297.735	46.93
297.949	141.14
298.164	143.19
298.378	65.36
298.593	-0.17
298.807	48.98
299.022	116.56
299.236	48.98
299.451	126.8
299.665	-4.27
299.88	110.42
300.094	106.32
300.309	-45.23
300.523	18.26
300.737	8.02
300.952	130.9
301.166	83.8
301.381	8.02
301.595	10.07
301.809	-8.36
302.024	57.17
302.238	-26.79
302.452	120.66
302.667	-16.55
302.881	167.76
303.095	118.61
303.309	85.84
303.524	40.79
303.738	20.31
303.952	36.69
304.166	65.36
304.381	-94.38
304.595	151.38
304.809	81.75
305.023	34.64
305.237	96.08
305.452	-0.17
305.666	167.76
305.88	71.51
306.094	102.23
306.308	171.86
306.522	155.47
306.736	61.27
306.95	34.64
307.164	20.31
307.379	16.21
307.593	46.93
307.807	231.25
308.021	141.14
308.235	34.64
308.449	-20.65
308.663	3.93
308.877	184.15
309.091	51.03
309.305	51.03
309.519	-22.7
309.733	75.6
309.947	-49.32
310.161	24.4
310.374	137.04
310.588	149.33
310.802	-34.99
311.016	3.93
311.23	30.55
311.444	-82.09
311.658	71.51
311.872	128.85
312.085	104.28
312.299	114.52
312.513	128.85
312.727	85.84
312.941	-55.47
313.154	61.27
313.368	73.56
313.582	75.6
313.796	114.52
314.009	24.4
314.223	130.9
314.437	32.6
314.651	124.76
314.864	59.22
315.078	26.45
315.292	-22.7
315.505	-14.51
315.719	57.17
315.933	139.09
316.146	-61.61
316.36	-12.46
316.573	175.95
316.787	61.27
317.001	5.97
317.214	8.02
317.428	63.32
317.641	42.84
317.855	28.5
318.068	40.79
318.282	22.36
318.495	169.81
318.709	77.65
318.922	14.17
319.136	169.81
319.349	161.62
319.563	-4.27
319.776	108.37
319.99	-61.61
320.203	124.76
320.417	81.75
320.63	89.94
320.843	182.1
321.057	81.75
321.27	-49.32
321.483	163.67
321.697	149.33
321.91	89.94
322.124	73.56
322.337	65.36
322.55	8.02
322.763	100.18
322.977	8.02
323.19	1.88
323.403	110.42
323.617	110.42
323.83	141.14
324.043	12.12
324.256	-10.41
324.469	-30.89
324.683	116.56
324.896	-32.94
325.109	91.99
325.322	-20.65
325.535	108.37
325.748	137.04
325.962	16.21
326.175	85.84
326.388	159.57
326.601	83.8
326.814	48.98
327.027	42.84
327.24	182.1
327.453	-16.55
327.666	130.9
327.879	165.71
328.092	100.18
328.305	40.79
328.518	79.7
328.731	-45.23
328.944	-28.84
329.157	77.65
329.37	85.84
329.583	208.72
329.796	118.61
330.009	48.98
330.222	94.04
330.435	28.5
330.648	63.32
330.861	24.4
331.073	120.66
331.286	98.13
331.499	83.8
331.712	-6.31
331.925	-8.36
332.138	110.42
332.35	112.47
332.563	-57.51
332.776	155.47
332.989	48.98
333.202	48.98
333.414	10.07
333.627	-12.46
333.84	18.26
334.053	106.32
334.265	-4.27
334.478	16.21
334.691	18.26
334.903	120.66
335.116	44.88
335.329	98.13
335.541	130.9
335.754	98.13
335.966	-16.55
336.179	-6.31
336.392	1.88
336.604	83.8
336.817	141.14
337.029	110.42
337.242	1.88
337.454	61.27
337.667	-4.27
337.88	114.52
338.092	102.23
338.305	63.32
338.517	-8.36
338.729	94.04
338.942	159.57
339.154	-102.57
339.367	-37.03
339.579	-4.27
339.792	16.21
340.004	122.71
340.217	89.94
340.429	104.28
340.641	-34.99
340.854	12.12
341.066	114.52
341.278	124.76
341.491	192.34
341.703	75.6
341.915	-30.89
342.128	102.23
342.34	73.56
342.552	-10.41
342.764	42.84
342.977	14.17
343.189	91.99
343.401	65.36
343.613	-8.36
343.826	91.99
344.038	8.02
344.25	-0.17
344.462	-24.75
344.674	77.65
344.886	48.98
345.099	38.74
345.311	-10.41
345.523	1.88
345.735	-80.04
345.947	83.8
346.159	79.7
346.371	14.17
346.583	96.08
346.795	204.63
347.007	-2.22
347.219	96.08
347.431	128.85
347.643	163.67
347.855	-16.55
348.067	155.47
348.279	-16.55
348.491	94.04
348.703	40.79
348.915	77.65
349.127	-18.6
349.339	100.18
349.551	-47.27
349.763	75.6
349.975	67.41
350.187	137.04
350.399	155.47
350.61	120.66
350.822	98.13
351.034	77.65
351.246	75.6
351.458	36.69
351.669	8.02
351.881	180.05
352.093	149.33
352.305	147.28
352.517	135
352.728	180.05
352.94	87.89
353.152	79.7
353.363	-28.84
353.575	149.33
353.787	147.28
353.999	42.84
354.21	186.19
354.422	24.4
354.633	1.88
354.845	108.37
355.057	-4.27
355.268	75.6
355.48	85.84
355.692	53.08
355.903	34.64
356.115	-30.89
356.326	-49.32
356.538	145.24
356.749	104.28
356.961	175.95
357.172	40.79
357.384	-41.13
357.595	225.11
357.807	-4.27
358.018	-26.79
358.23	65.36
358.441	118.61
358.653	110.42
358.864	85.84
359.075	-51.37
359.287	145.24
359.498	161.62
359.709	108.37
359.921	96.08
360.132	-6.31
360.344	71.51
360.555	104.28
360.766	53.08
360.977	48.98
361.189	110.42
361.4	26.45
361.611	126.8
361.823	83.8
362.034	91.99
362.245	-22.7
362.456	-30.89
362.667	157.52
362.879	-4.27
363.09	26.45
363.301	32.6
363.512	61.27
363.723	30.55
363.935	-10.41
364.146	51.03
364.357	73.56
364.568	75.6
364.779	-55.47
364.99	178
365.201	-26.79
365.412	126.8
365.623	-75.95
365.834	108.37
366.045	36.69
366.256	118.61
366.467	67.41
366.678	38.74
366.889	57.17
367.1	16.21
367.311	79.7
367.522	51.03
367.733	184.15
367.944	65.36
368.155	-59.56
368.366	130.9
368.577	153.43
368.788	182.1
368.999	8.02
369.209	26.45
369.42	198.48
369.631	188.24
369.842	48.98
370.053	44.88
370.264	143.19
370.474	32.6
370.685	-0.17
370.896	44.88
371.107	184.15
371.317	63.32
371.528	38.74
371.739	194.39
371.95	65.36
372.16	65.36
372.371	-32.94
372.582	12.12
372.792	75.6
373.003	77.65
373.214	71.51
373.424	91.99
373.635	-18.6
373.846	85.84
374.056	89.94
374.267	67.41
374.477	44.88
374.688	57.17
374.898	30.55
375.109	18.26
375.319	1.88
375.53	200.53
375.74	98.13
375.951	89.94
376.161	65.36
376.372	167.76
376.582	83.8
376.793	26.45
377.003	26.45
377.214	22.36
377.424	114.52
377.635	100.18
377.845	67.41
378.055	53.08
378.266	-84.14
378.476	55.12
378.686	22.36
378.897	116.56
379.107	79.7
379.317	149.33
379.528	65.36
379.738	65.36
379.948	12.12
380.158	112.47
380.369	40.79
380.579	94.04
380.789	48.98
380.999	102.23
381.21	118.61
381.42	200.53
381.63	71.51
381.84	175.95
382.05	87.89
382.261	135
382.471	77.65
382.681	42.84
382.891	87.89
383.101	34.64
383.311	-12.46
383.521	-2.22
383.731	128.85
383.941	126.8
384.151	112.47
384.361	71.51
384.571	143.19
384.781	42.84
384.991	135
385.201	161.62
385.411	73.56
385.621	91.99
385.831	96.08
386.041	32.6
386.251	40.79
386.461	167.76
386.671	67.41
386.881	112.47
387.091	85.84
387.301	175.95
387.511	24.4
387.72	24.4
387.93	114.52
388.14	-0.17
388.35	1.88
388.56	85.84
388.769	67.41
388.979	-10.41
389.189	-45.23
389.399	89.94
389.609	128.85
389.818	53.08
390.028	55.12
390.238	104.28
390.447	14.17
390.657	91.99
390.867	30.55
391.076	69.46
391.286	141.14
391.496	69.46
391.705	89.94
391.915	210.77
392.125	188.24
392.334	42.84
392.544	210.77
392.753	155.47
392.963	34.64
393.172	46.93
393.382	3.93
393.591	204.63
393.801	42.84
394.01	118.61
394.22	61.27
394.429	26.45
394.639	24.4
394.848	51.03
395.058	14.17
395.267	94.04
395.477	102.23
395.686	46.93
395.895	167.76
396.105	212.82
396.314	85.84
396.524	46.93
396.733	87.89
396.942	141.14
397.152	169.81
397.361	32.6
397.57	180.05
397.78	51.03
397.989	145.24
398.198	216.91
398.407	48.98
398.617	59.22
398.826	75.6
399.035	-51.37
399.244	100.18
399.453	100.18
399.663	83.8
399.872	59.22
400.081	59.22
400.29	182.1
400.499	69.46
400.708	106.32
400.917	75.6
401.127	59.22
401.336	46.93
401.545	231.25
401.754	120.66
401.963	126.8
402.172	40.79
402.381	-6.31
402.59	32.6
402.799	51.03
403.008	135
403.217	85.84
403.426	67.41
403.635	-39.08
403.844	36.69
404.053	1.88
404.262	116.56
404.471	216.91
404.68	61.27
404.888	63.32
405.097	48.98
405.306	53.08
405.515	81.75
405.724	3.93
405.933	114.52
406.142	73.56
406.35	163.67
406.559	65.36
406.768	75.6
406.977	94.04
407.185	155.47
407.394	108.37
407.603	-34.99
407.812	73.56
408.02	175.95
408.229	1.88
408.438	73.56
408.646	-45.23
408.855	38.74
409.064	59.22
409.272	157.52
409.481	167.76
409.69	75.6
409.898	-4.27
410.107	87.89
410.315	182.1
410.524	-39.08
410.733	67.41
410.941	100.18
411.15	118.61
411.358	44.88
411.567	120.66
411.775	114.52
411.984	69.46
412.192	141.14
412.401	-24.75
412.609	79.7
412.818	137.04
413.026	108.37
413.234	83.8
413.443	36.69
413.651	36.69
413.86	-39.08
414.068	153.43
414.276	155.47
414.485	-6.31
414.693	241.49
414.901	229.2
415.11	55.12
415.318	-47.27
415.526	91.99
415.734	155.47
415.943	94.04
416.151	143.19
416.359	24.4
416.567	34.64
416.776	126.8
416.984	116.56
417.192	178
417.4	59.22
417.608	20.31
417.817	-20.65
418.025	165.71
418.233	145.24
418.441	-16.55
418.649	-73.9
418.857	79.7
419.065	165.71
419.273	3.93
419.481	59.22
419.689	130.9
419.897	46.93
420.105	-45.23
420.313	91.99
420.521	141.14
420.729	130.9
420.937	18.26
421.145	10.07
421.353	108.37
421.561	147.28
421.769	57.17
421.977	3.93
422.185	122.71
422.393	-14.51
422.601	118.61
422.809	145.24
423.017	87.89
423.224	26.45
423.432	137.04
423.64	89.94
423.848	114.52
424.056	24.4
424.263	120.66
424.471	63.32
424.679	169.81
424.887	-4.27
425.094	143.19
425.302	173.91
425.51	22.36
425.718	81.75
425.925	48.98
426.133	20.31
426.341	255.83
426.548	48.98
426.756	32.6
426.964	143.19
427.171	-10.41
427.379	67.41
427.586	91.99
427.794	102.23
428.001	167.76
428.209	59.22
428.417	218.96
428.624	169.81
428.832	102.23
429.039	40.79
429.247	122.71
429.454	128.85
429.662	159.57
429.869	102.23
430.076	53.08
430.284	161.62
430.491	208.72
430.699	157.52
430.906	229.2
431.114	83.8
431.321	169.81
431.528	135
431.736	128.85
431.943	202.58
432.15	188.24
432.358	225.11
432.565	274.26
432.772	38.74
432.979	171.86
433.187	110.42
433.394	247.63
433.601	153.43
433.808	270.16
434.016	157.52
434.223	311.12
434.43	182.1
434.637	249.68
434.844	276.31
435.052	225.11
435.259	278.35
435.466	284.5
435.673	278.35
435.88	225.11
436.087	284.5
436.294	296.78
436.501	235.35
436.708	210.77
436.915	266.07
437.122	331.6
437.329	311.12
437.537	214.87
437.743	323.41
437.95	479.05
438.157	331.6
438.364	327.5
438.571	409.42
438.778	407.38
438.985	458.57
439.192	493.39
439.399	337.74
439.606	403.28
439.813	497.49
440.02	563.02
440.227	626.51
440.433	585.55
440.64	507.73
440.847	436.05
441.054	509.77
441.261	624.46
441.467	634.7
441.674	565.07
441.881	696.14
442.088	542.54
442.294	683.85
442.501	677.71
442.708	773.96
442.914	673.61
443.121	733
443.328	882.5
443.534	829.26
443.741	821.06
443.948	763.72
444.154	974.66
444.361	1015.62
444.568	907.08
444.774	872.26
444.981	902.98
445.187	1148.74
445.394	962.37
445.6	1042.25
445.807	1226.56
446.013	1220.42
446.22	1085.25
446.426	1265.47
446.633	1353.54
446.839	1529.66
447.046	1326.91
447.252	1523.52
447.459	1509.18
447.665	1494.85
447.871	1673.02
448.078	1769.27
448.284	1799.99
448.491	1830.71
448.697	1906.49
448.903	1935.16
449.11	1980.22
449.316	1994.55
449.522	2172.72
449.728	2217.78
449.935	2354.99
450.141	2285.36
450.347	2527.02
450.553	2441.01
450.76	2580.27
450.966	2617.13
451.172	2764.59
451.378	2926.38
451.584	2869.03
451.791	3065.64
451.997	3178.28
452.203	3290.92
452.409	3354.4
452.615	3440.42
452.821	3514.14
453.027	3524.38
453.233	4038.42
453.44	3878.68
453.646	4038.42
453.852	4089.62
454.058	4312.85
454.264	4431.63
454.47	4673.29
454.676	4792.08
454.882	5095.18
455.088	5005.06
455.294	5392.13
455.5	5658.37
455.705	5840.64
455.911	5854.97
456.117	6229.75
456.323	6201.08
456.529	6412.02
456.735	6852.33
456.941	7075.56
457.147	7220.97
457.352	7499.49
457.558	7745.25
457.764	8206.04
457.97	8347.35
458.176	8625.87
458.381	8922.83
458.587	9447.11
458.793	9766.59
458.999	9828.03
459.204	11114.16
459.41	11607.72
459.616	11290.28
459.821	11980.45
460.027	12056.22
460.233	12965.52
460.438	13020.81
460.644	13643.4
460.85	13758.08
461.055	14335.61
461.261	14863.99
461.466	14884.47
461.672	14950
461.878	16711.25
462.083	16471.64
462.289	17217.1
462.494	17772.1
462.7	17954.37
462.905	17856.07
463.111	19734.06
463.316	20497.95
463.522	20799
463.727	21677.58
463.932	22586.88
464.138	23074.29
464.343	24272.35
464.549	24083.94
464.754	25867.72
464.959	26822.08
465.165	27133.37
465.37	27069.88
465.575	27127.22
465.781	28622.24
465.986	29474.2
466.191	29107.61
466.397	29382.04
466.602	28816.8
466.807	30322.05
467.012	31208.83
467.218	31591.8
467.423	31413.62
467.628	32386.41
467.833	34067.79
468.038	33437.02
468.244	32851.3
468.449	34663.75
468.654	34045.26
468.859	33879.38
