Data from USB4F104151__53__10-43-29-975.txt Node

Date: Wed Feb 26 10:43:29 EST 2025
User: louis
Spectrometer: USB4F10415
Trigger mode: 4
Integration Time (sec): 1.000000E-1
Scans to average: 1
Electric dark correction enabled: true
Nonlinearity correction enabled: false
Boxcar width: 0
XAxis mode: Wavelengths
Number of Pixels in Spectrum: 3648
>>>>>Begin Spectral Data<<<<<
178.204	-442.87
178.424	-442.87
178.644	-442.87
178.864	-451.07
179.084	-434.68
179.304	-57.86
179.524	32.26
179.744	65.02
179.964	38.4
180.184	17.92
180.404	22.02
180.624	-66.05
180.844	26.11
181.064	-45.57
181.283	7.68
181.503	-68.09
181.723	28.16
181.943	-131.58
182.163	179.71
182.383	24.06
182.602	79.36
182.822	151.04
183.042	42.5
183.262	24.06
183.482	-29.18
183.701	83.45
183.921	62.98
184.141	-90.62
184.361	169.47
184.58	103.93
184.8	116.22
185.02	1.54
185.239	132.61
185.459	52.74
185.679	214.52
185.898	-76.29
186.118	7.68
186.338	46.59
186.557	140.8
186.777	-45.57
186.997	17.92
187.216	11.78
187.436	212.48
187.655	62.98
187.875	-4.61
188.095	36.35
188.314	122.37
188.534	146.94
188.753	-14.85
188.973	112.13
189.192	185.85
189.412	60.93
189.631	-37.38
189.851	165.37
190.07	165.37
190.29	-80.38
190.509	32.26
190.729	3.58
190.948	171.52
191.168	300.54
191.387	62.98
191.607	-18.94
191.826	42.5
192.045	11.78
192.265	30.21
192.484	69.12
192.704	65.02
192.923	-4.61
193.142	165.37
193.362	116.22
193.581	163.33
193.8	65.02
194.02	89.6
194.239	62.98
194.458	67.07
194.678	13.82
194.897	50.69
195.116	28.16
195.335	71.17
195.555	99.84
195.774	89.6
195.993	101.89
196.212	48.64
196.432	50.69
196.651	3.58
196.87	54.78
197.089	192
197.308	91.65
197.528	108.03
197.747	-16.9
197.966	1.54
198.185	112.13
198.404	-55.81
198.623	91.65
198.842	128.51
199.062	62.98
199.281	44.54
199.5	9.73
199.719	71.17
199.938	54.78
200.157	146.94
200.376	116.22
200.595	99.84
200.814	60.93
201.033	-59.9
201.252	136.7
201.471	17.92
201.69	81.41
201.909	54.78
202.128	83.45
202.347	50.69
202.566	116.22
202.785	-96.77
203.004	-68.09
203.223	249.34
203.442	30.21
203.661	7.68
203.879	26.11
204.098	79.36
204.317	-107.01
204.536	105.98
204.755	79.36
204.974	46.59
205.193	30.21
205.411	132.61
205.63	112.13
205.849	81.41
206.068	-0.51
206.287	17.92
206.505	101.89
206.724	62.98
206.943	-39.42
207.162	38.4
207.381	24.06
207.599	73.21
207.818	50.69
208.037	17.92
208.255	91.65
208.474	69.12
208.693	95.74
208.911	-4.61
209.13	155.13
209.349	87.55
209.567	93.69
209.786	126.46
210.005	108.03
210.223	40.45
210.442	-29.18
210.661	24.06
210.879	126.46
211.098	-27.14
211.316	67.07
211.535	136.7
211.753	67.07
211.972	-29.18
212.191	87.55
212.409	-12.8
212.628	165.37
212.846	89.6
213.065	11.78
213.283	128.51
213.502	40.45
213.72	40.45
213.938	140.8
214.157	22.02
214.375	116.22
214.594	22.02
214.812	-8.7
215.031	5.63
215.249	3.58
215.467	87.55
215.686	75.26
215.904	126.46
216.122	69.12
216.341	108.03
216.559	87.55
216.778	52.74
216.996	83.45
217.214	75.26
217.432	44.54
217.651	-35.33
217.869	91.65
218.087	30.21
218.306	-55.81
218.524	-4.61
218.742	56.83
218.96	24.06
219.179	-27.14
219.397	54.78
219.615	212.48
219.833	105.98
220.051	-18.94
220.27	87.55
220.488	77.31
220.706	114.17
220.924	34.3
221.142	-33.28
221.36	52.74
221.578	-25.09
221.796	-14.85
222.015	-2.56
222.233	28.16
222.451	163.33
222.669	-31.23
222.887	95.74
223.105	28.16
223.323	71.17
223.541	-47.62
223.759	62.98
223.977	1.54
224.195	126.46
224.413	69.12
224.631	-10.75
224.849	58.88
225.067	273.92
225.285	-53.76
225.503	-14.85
225.721	-35.33
225.939	69.12
226.157	13.82
226.375	173.57
226.592	-14.85
226.81	1.54
227.028	46.59
227.246	122.37
227.464	81.41
227.682	65.02
227.9	112.13
228.117	-66.05
228.335	105.98
228.553	-0.51
228.771	9.73
228.989	52.74
229.206	62.98
229.424	-49.66
229.642	-27.14
229.86	-0.51
230.077	95.74
230.295	34.3
230.513	108.03
230.731	48.64
230.948	228.86
231.166	165.37
231.384	-23.04
231.601	-0.51
231.819	163.33
232.037	36.35
232.254	-78.33
232.472	52.74
232.689	-0.51
232.907	124.41
233.125	-39.42
233.342	34.3
233.56	7.68
233.777	-61.95
233.995	-2.56
234.213	128.51
234.43	46.59
234.648	-6.66
234.865	-6.66
235.083	140.8
235.3	46.59
235.518	5.63
235.735	132.61
235.953	44.54
236.17	38.4
236.388	91.65
236.605	46.59
236.822	112.13
237.04	140.8
237.257	11.78
237.475	-25.09
237.692	48.64
237.909	11.78
238.127	44.54
238.344	99.84
238.562	38.4
238.779	-25.09
238.996	-49.66
239.214	67.07
239.431	83.45
239.648	36.35
239.865	58.88
240.083	85.5
240.3	-39.42
240.517	42.5
240.735	11.78
240.952	171.52
241.169	34.3
241.386	95.74
241.603	7.68
241.821	-14.85
242.038	11.78
242.255	114.17
242.472	26.11
242.689	19.97
242.907	40.45
243.124	52.74
243.341	67.07
243.558	-45.57
243.775	-53.76
243.992	-104.96
244.209	132.61
244.426	194.05
244.643	26.11
244.86	36.35
245.078	52.74
245.295	-4.61
245.512	38.4
245.729	-47.62
245.946	93.69
246.163	56.83
246.38	1.54
246.597	87.55
246.814	48.64
247.031	60.93
247.248	81.41
247.464	91.65
247.681	11.78
247.898	40.45
248.115	30.21
248.332	-18.94
248.549	134.65
248.766	136.7
248.983	46.59
249.2	91.65
249.417	40.45
249.633	-8.7
249.85	44.54
250.067	44.54
250.284	81.41
250.501	34.3
250.717	-8.7
250.934	-49.66
251.151	-55.81
251.368	-14.85
251.585	105.98
251.801	36.35
252.018	-35.33
252.235	138.75
252.451	-20.99
252.668	34.3
252.885	105.98
253.102	7.68
253.318	52.74
253.535	97.79
253.752	24.06
253.968	-0.51
254.185	-43.52
254.401	30.21
254.618	108.03
254.835	-25.09
255.051	73.21
255.268	87.55
255.484	1.54
255.701	42.5
255.917	130.56
256.134	-78.33
256.351	60.93
256.567	-109.05
256.784	17.92
257	-27.14
257.217	83.45
257.433	110.08
257.65	17.92
257.866	171.52
258.082	32.26
258.299	-43.52
258.515	54.78
258.732	-2.56
258.948	-37.38
259.165	26.11
259.381	-35.33
259.597	116.22
259.814	-2.56
260.03	-14.85
260.246	-51.71
260.463	105.98
260.679	105.98
260.895	44.54
261.112	30.21
261.328	93.69
261.544	-4.61
261.761	126.46
261.977	-12.8
262.193	-27.14
262.409	7.68
262.626	77.31
262.842	9.73
263.058	38.4
263.274	58.88
263.49	122.37
263.707	54.78
263.923	120.32
264.139	-84.48
264.355	5.63
264.571	79.36
264.787	28.16
265.004	128.51
265.22	17.92
265.436	48.64
265.652	73.21
265.868	71.17
266.084	-100.86
266.3	15.87
266.516	-43.52
266.732	-31.23
266.948	93.69
267.164	134.65
267.38	69.12
267.596	116.22
267.812	105.98
268.028	52.74
268.244	11.78
268.46	56.83
268.676	65.02
268.892	73.21
269.108	-37.38
269.324	11.78
269.54	-68.09
269.756	73.21
269.972	-10.75
270.188	15.87
270.403	-8.7
270.619	46.59
270.835	44.54
271.051	60.93
271.267	83.45
271.483	-6.66
271.698	79.36
271.914	99.84
272.13	-6.66
272.346	73.21
272.562	26.11
272.777	171.52
272.993	5.63
273.209	42.5
273.425	28.16
273.64	-37.38
273.856	50.69
274.072	-4.61
274.287	34.3
274.503	101.89
274.719	120.32
274.934	-16.9
275.15	-49.66
275.366	97.79
275.581	36.35
275.797	13.82
276.012	112.13
276.228	1.54
276.444	34.3
276.659	105.98
276.875	-27.14
277.09	42.5
277.306	22.02
277.521	65.02
277.737	77.31
277.952	83.45
278.168	54.78
278.383	28.16
278.599	52.74
278.814	108.03
279.03	46.59
279.245	77.31
279.461	-10.75
279.676	128.51
279.892	-94.72
280.107	-100.86
280.322	-51.71
280.538	134.65
280.753	-64
280.969	116.22
281.184	24.06
281.399	196.09
281.615	3.58
281.83	40.45
282.045	-10.75
282.26	-29.18
282.476	28.16
282.691	95.74
282.906	-31.23
283.122	62.98
283.337	5.63
283.552	144.89
283.767	19.97
283.983	62.98
284.198	9.73
284.413	81.41
284.628	-39.42
284.843	85.5
285.058	50.69
285.274	3.58
285.489	1.54
285.704	103.93
285.919	-39.42
286.134	-2.56
286.349	101.89
286.564	-4.61
286.779	91.65
286.995	9.73
287.21	-49.66
287.425	79.36
287.64	-53.76
287.855	62.98
288.07	-47.62
288.285	161.28
288.5	-8.7
288.715	30.21
288.93	91.65
289.145	1.54
289.36	11.78
289.575	15.87
289.79	144.89
290.004	1.54
290.219	54.78
290.434	-2.56
290.649	-70.14
290.864	26.11
291.079	73.21
291.294	97.79
291.509	75.26
291.724	19.97
291.938	-45.57
292.153	40.45
292.368	50.69
292.583	77.31
292.798	89.6
293.012	44.54
293.227	77.31
293.442	60.93
293.657	85.5
293.871	67.07
294.086	62.98
294.301	173.57
294.516	83.45
294.73	-47.62
294.945	-55.81
295.16	54.78
295.374	120.32
295.589	122.37
295.804	77.31
296.018	85.5
296.233	189.95
296.447	24.06
296.662	46.59
296.877	97.79
297.091	3.58
297.306	-16.9
297.52	32.26
297.735	83.45
297.949	7.68
298.164	81.41
298.378	-31.23
298.593	11.78
298.807	-59.9
299.022	85.5
299.236	110.08
299.451	19.97
299.665	-10.75
299.88	17.92
300.094	65.02
300.309	40.45
300.523	58.88
300.737	3.58
300.952	122.37
301.166	28.16
301.381	-16.9
301.595	-39.42
301.809	62.98
302.024	32.26
302.238	-23.04
302.452	153.09
302.667	-0.51
302.881	93.69
303.095	60.93
303.309	60.93
303.524	-39.42
303.738	62.98
303.952	24.06
304.166	22.02
304.381	-82.43
304.595	95.74
304.809	-12.8
305.023	97.79
305.237	5.63
305.452	28.16
305.666	99.84
305.88	89.6
306.094	167.42
306.308	42.5
306.522	71.17
306.736	114.17
306.95	52.74
307.164	34.3
307.379	-4.61
307.593	146.94
307.807	189.95
308.021	120.32
308.235	22.02
308.449	-55.81
308.663	-55.81
308.877	187.9
309.091	67.07
309.305	56.83
309.519	-141.82
309.733	134.65
309.947	-55.81
310.161	71.17
310.374	165.37
310.588	81.41
310.802	-70.14
311.016	50.69
311.23	83.45
311.444	1.54
311.658	26.11
311.872	108.03
312.085	173.57
312.299	161.28
312.513	132.61
312.727	-33.28
312.941	-51.71
313.154	38.4
313.368	-31.23
313.582	67.07
313.796	56.83
314.009	48.64
314.223	142.85
314.437	1.54
314.651	89.6
314.864	-16.9
315.078	19.97
315.292	-23.04
315.505	-20.99
315.719	69.12
315.933	85.5
316.146	60.93
316.36	-10.75
316.573	159.23
316.787	157.18
317.001	77.31
317.214	-41.47
317.428	-4.61
317.641	-14.85
317.855	11.78
318.068	24.06
318.282	71.17
318.495	140.8
318.709	105.98
318.922	48.64
319.136	138.75
319.349	126.46
319.563	-45.57
319.776	159.23
319.99	-64
320.203	105.98
320.417	19.97
320.63	77.31
320.843	181.76
321.057	44.54
321.27	65.02
321.483	60.93
321.697	212.48
321.91	91.65
322.124	77.31
322.337	120.32
322.55	38.4
322.763	30.21
322.977	48.64
323.19	-0.51
323.403	24.06
323.617	103.93
323.83	122.37
324.043	34.3
324.256	40.45
324.469	-47.62
324.683	71.17
324.896	99.84
325.109	34.3
325.322	-70.14
325.535	69.12
325.748	54.78
325.962	22.02
326.175	28.16
326.388	67.07
326.601	60.93
326.814	-68.09
327.027	36.35
327.24	83.45
327.453	-113.15
327.666	48.64
327.879	40.45
328.092	85.5
328.305	50.69
328.518	11.78
328.731	9.73
328.944	73.21
329.157	28.16
329.37	22.02
329.583	122.37
329.796	101.89
330.009	-76.29
330.222	-4.61
330.435	171.52
330.648	71.17
330.861	-14.85
331.073	73.21
331.286	42.5
331.499	1.54
331.712	22.02
331.925	22.02
332.138	22.02
332.35	110.08
332.563	-4.61
332.776	116.22
332.989	-23.04
333.202	116.22
333.414	-27.14
333.627	19.97
333.84	-37.38
334.053	36.35
334.265	46.59
334.478	-31.23
334.691	-27.14
334.903	75.26
335.116	-6.66
335.329	99.84
335.541	13.82
335.754	99.84
335.966	13.82
336.179	69.12
336.392	34.3
336.604	-2.56
336.817	89.6
337.029	75.26
337.242	28.16
337.454	110.08
337.667	-2.56
337.88	157.18
338.092	65.02
338.305	9.73
338.517	-14.85
338.729	155.13
338.942	95.74
339.154	-27.14
339.367	3.58
339.579	85.5
339.792	-70.14
340.004	89.6
340.217	38.4
340.429	103.93
340.641	13.82
340.854	-33.28
341.066	62.98
341.278	128.51
341.491	220.67
341.703	99.84
341.915	-0.51
342.128	65.02
342.34	73.21
342.552	-53.76
342.764	144.89
342.977	-20.99
343.189	30.21
343.401	40.45
343.613	-2.56
343.826	83.45
344.038	17.92
344.25	50.69
344.462	19.97
344.674	11.78
344.886	32.26
345.099	58.88
345.311	146.94
345.523	9.73
345.735	-94.72
345.947	30.21
346.159	75.26
346.371	-55.81
346.583	1.54
346.795	155.13
347.007	-4.61
347.219	58.88
347.431	13.82
347.643	128.51
347.855	24.06
348.067	177.66
348.279	-18.94
348.491	-41.47
348.703	99.84
348.915	-0.51
349.127	26.11
349.339	-29.18
349.551	-6.66
349.763	105.98
349.975	32.26
350.187	17.92
350.399	120.32
350.61	87.55
350.822	17.92
351.034	9.73
351.246	83.45
351.458	179.71
351.669	95.74
351.881	155.13
352.093	101.89
352.305	163.33
352.517	122.37
352.728	114.17
352.94	85.5
353.152	114.17
353.363	34.3
353.575	28.16
353.787	167.42
353.999	134.65
354.21	132.61
354.422	-57.86
354.633	-0.51
354.845	30.21
355.057	91.65
355.268	40.45
355.48	130.56
355.692	-10.75
355.903	-0.51
356.115	-78.33
356.326	-154.11
356.538	101.89
356.749	3.58
356.961	165.37
357.172	22.02
357.384	-80.38
357.595	200.19
357.807	-0.51
358.018	50.69
358.23	9.73
358.441	87.55
358.653	128.51
358.864	93.69
359.075	30.21
359.287	171.52
359.498	89.6
359.709	103.93
359.921	79.36
360.132	110.08
360.344	83.45
360.555	65.02
360.766	54.78
360.977	13.82
361.189	110.08
361.4	-33.28
361.611	101.89
361.823	79.36
362.034	103.93
362.245	-84.48
362.456	19.97
362.667	105.98
362.879	-51.71
363.09	60.93
363.301	97.79
363.512	50.69
363.723	32.26
363.935	36.35
364.146	114.17
364.357	73.21
364.568	17.92
364.779	15.87
364.99	58.88
365.201	7.68
365.412	153.09
365.623	-43.52
365.834	138.75
366.045	79.36
366.256	112.13
366.467	103.93
366.678	62.98
366.889	11.78
367.1	40.45
367.311	69.12
367.522	28.16
367.733	120.32
367.944	89.6
368.155	11.78
368.366	155.13
368.577	118.27
368.788	155.13
368.999	-29.18
369.209	56.83
369.42	275.96
369.631	157.18
369.842	89.6
370.053	5.63
370.264	130.56
370.474	-27.14
370.685	87.55
370.896	36.35
371.107	120.32
371.317	44.54
371.528	-37.38
371.739	110.08
371.95	42.5
372.16	144.89
372.371	-31.23
372.582	5.63
372.792	71.17
373.003	30.21
373.214	-43.52
373.424	155.13
373.635	26.11
373.846	83.45
374.056	13.82
374.267	93.69
374.477	142.85
374.688	-31.23
374.898	22.02
375.109	69.12
375.319	105.98
375.53	124.41
375.74	103.93
375.951	42.5
376.161	87.55
376.372	54.78
376.582	-80.38
376.793	-43.52
377.003	-47.62
377.214	50.69
377.424	95.74
377.635	67.07
377.845	50.69
378.055	173.57
378.266	-18.94
378.476	-6.66
378.686	65.02
378.897	5.63
379.107	67.07
379.317	132.61
379.528	30.21
379.738	101.89
379.948	-18.94
380.158	116.22
380.369	134.65
380.579	103.93
380.789	28.16
380.999	62.98
381.21	116.22
381.42	165.37
381.63	17.92
381.84	60.93
382.05	83.45
382.261	185.85
382.471	97.79
382.681	-4.61
382.891	155.13
383.101	93.69
383.311	-37.38
383.521	40.45
383.731	110.08
383.941	118.27
384.151	11.78
384.361	30.21
384.571	97.79
384.781	91.65
384.991	163.33
385.201	144.89
385.411	95.74
385.621	48.64
385.831	52.74
386.041	38.4
386.251	-25.09
386.461	120.32
386.671	24.06
386.881	124.41
387.091	13.82
387.301	44.54
387.511	56.83
387.72	95.74
387.93	77.31
388.14	-55.81
388.35	22.02
388.56	95.74
388.769	60.93
388.979	114.17
389.189	17.92
389.399	54.78
389.609	110.08
389.818	105.98
390.028	28.16
390.238	77.31
390.447	-68.09
390.657	126.46
390.867	83.45
391.076	-37.38
391.286	71.17
391.496	95.74
391.705	28.16
391.915	103.93
392.125	140.8
392.334	-35.33
392.544	146.94
392.753	56.83
392.963	-10.75
393.172	132.61
393.382	42.5
393.591	259.58
393.801	40.45
394.01	138.75
394.22	81.41
394.429	110.08
394.639	-20.99
394.848	99.84
395.058	87.55
395.267	28.16
395.477	73.21
395.686	50.69
395.895	243.2
396.105	108.03
396.314	60.93
396.524	-14.85
396.733	48.64
396.942	44.54
397.152	85.5
397.361	122.37
397.57	36.35
397.78	26.11
397.989	155.13
398.198	181.76
398.407	34.3
398.617	3.58
398.826	13.82
399.035	-10.75
399.244	87.55
399.453	114.17
399.663	67.07
399.872	93.69
400.081	11.78
400.29	214.52
400.499	-25.09
400.708	132.61
400.917	5.63
401.127	-27.14
401.336	15.87
401.545	230.91
401.754	110.08
401.963	101.89
402.172	58.88
402.381	-55.81
402.59	93.69
402.799	17.92
403.008	116.22
403.217	5.63
403.426	85.5
403.635	-6.66
403.844	1.54
404.053	38.4
404.262	28.16
404.471	249.34
404.68	56.83
404.888	44.54
405.097	54.78
405.306	50.69
405.515	65.02
405.724	99.84
405.933	83.45
406.142	120.32
406.35	116.22
406.559	93.69
406.768	26.11
406.977	181.76
407.185	128.51
407.394	89.6
407.603	-43.52
407.812	-31.23
408.02	202.24
408.229	26.11
408.438	81.41
408.646	-53.76
408.855	-78.33
409.064	17.92
409.272	81.41
409.481	108.03
409.69	-37.38
409.898	-45.57
410.107	128.51
410.315	112.13
410.524	-14.85
410.733	-35.33
410.941	83.45
411.15	65.02
411.358	144.89
411.567	179.71
411.775	67.07
411.984	110.08
412.192	95.74
412.401	-23.04
412.609	144.89
412.818	132.61
413.026	52.74
413.234	58.88
413.443	79.36
413.651	1.54
413.86	97.79
414.068	247.29
414.276	148.99
414.485	-6.66
414.693	110.08
414.901	155.13
415.11	83.45
415.318	93.69
415.526	22.02
415.734	128.51
415.943	54.78
416.151	138.75
416.359	95.74
416.567	83.45
416.776	93.69
416.984	83.45
417.192	103.93
417.4	13.82
417.608	69.12
417.817	3.58
418.025	146.94
418.233	179.71
418.441	-51.71
418.649	67.07
418.857	85.5
419.065	198.14
419.273	-29.18
419.481	114.17
419.689	101.89
419.897	32.26
420.105	-33.28
420.313	157.18
420.521	159.23
420.729	144.89
420.937	71.17
421.145	1.54
421.353	212.48
421.561	136.7
421.769	122.37
421.977	69.12
422.185	69.12
422.393	136.7
422.601	97.79
422.809	165.37
423.017	89.6
423.224	50.69
423.432	183.81
423.64	87.55
423.848	245.24
424.056	-12.8
424.263	95.74
424.471	7.68
424.679	71.17
424.887	-14.85
425.094	85.5
425.302	132.61
425.51	-23.04
425.718	122.37
425.925	67.07
426.133	11.78
426.341	204.28
426.548	105.98
426.756	73.21
426.964	108.03
427.171	-33.28
427.379	73.21
427.586	146.94
427.794	110.08
428.001	122.37
428.209	97.79
428.417	222.72
428.624	136.7
428.832	89.6
429.039	144.89
429.247	56.83
429.454	148.99
429.662	292.35
429.869	165.37
430.076	62.98
430.284	165.37
430.491	216.57
430.699	110.08
430.906	198.14
431.114	93.69
431.321	179.71
431.528	120.32
431.736	175.61
431.943	214.52
432.15	218.62
432.358	165.37
432.565	265.72
432.772	26.11
432.979	140.8
433.187	151.04
433.394	230.91
433.601	177.66
433.808	194.05
434.016	269.82
434.223	251.39
434.43	282.11
434.637	280.06
434.844	253.44
435.052	267.77
435.259	331.26
435.466	249.34
435.673	302.59
435.88	388.6
436.087	413.18
436.294	386.55
436.501	327.16
436.708	275.96
436.915	380.41
437.122	423.42
437.329	357.88
437.537	374.27
437.743	400.89
437.95	534.01
438.157	415.23
438.364	456.19
438.571	472.57
438.778	538.1
438.985	544.25
439.192	634.36
439.399	445.95
439.606	548.34
439.813	546.3
440.02	730.61
440.227	683.51
440.433	644.6
440.64	640.5
440.847	646.65
441.054	703.99
441.261	775.67
441.467	726.52
441.674	728.56
441.881	886.26
442.088	824.82
442.294	726.52
442.501	914.93
442.708	941.55
442.914	888.31
443.121	1033.71
443.328	1009.14
443.534	1123.82
443.741	1015.28
443.948	974.32
444.154	1193.45
444.361	1353.2
444.568	1175.02
444.774	1252.84
444.981	1129.97
445.187	1435.11
445.394	1357.29
445.6	1355.24
445.807	1590.76
446.013	1535.46
446.22	1496.55
446.426	1672.68
446.633	1877.48
446.839	2145.76
447.046	1676.77
447.252	1996.26
447.459	2065.89
447.665	2065.89
447.871	2211.29
448.078	2457.05
448.284	2387.42
448.491	2459.1
448.697	2422.24
448.903	2667.99
449.11	2678.23
449.316	2713.05
449.522	2915.8
449.728	3034.58
449.935	3190.22
450.141	3073.49
450.347	3327.44
450.553	3231.18
450.76	3438.03
450.966	3632.58
451.172	3714.5
451.378	3794.37
451.584	3890.63
451.791	4195.78
451.997	4324.8
452.203	4220.35
452.409	4562.36
452.615	4777.4
452.821	4533.69
453.027	4619.71
453.233	5451.18
453.44	5178.8
453.646	5440.94
453.852	5744.04
454.058	5944.74
454.264	6077.86
454.47	6540.7
454.676	6407.58
454.882	7146.9
455.088	6919.57
455.294	7167.38
455.5	7554.44
455.705	8179.08
455.911	7933.32
456.117	8316.29
456.323	8723.83
456.529	8729.98
456.735	9444.72
456.941	9389.42
457.147	9903.46
457.352	10153.32
457.558	10552.67
457.764	11083.09
457.97	11595.09
458.176	12082.5
458.381	12725.57
458.587	12750.14
458.793	13182.26
458.999	13522.23
459.204	15152.41
459.41	15709.46
459.616	15136.03
459.821	16284.94
460.027	17069.31
460.233	17530.1
460.438	17857.78
460.644	18822.37
460.85	18869.47
461.055	19834.07
461.261	20726.98
461.466	20470.98
461.672	20581.57
461.878	23041.18
462.083	22613.16
462.289	23311.52
462.494	24220.81
462.7	24294.54
462.905	25074.82
463.111	26889.32
463.316	28171.35
463.522	28658.76
463.727	29797.43
463.932	30823.47
464.138	31364.13
464.343	32734.22
464.549	33033.22
464.754	35568.61
464.959	36162.52
465.165	37051.34
465.37	36330.45
465.575	36772.81
465.781	39275.43
465.986	40262.55
466.191	39506.85
466.397	40205.21
466.602	39226.28
466.807	41481.1
467.012	42283.9
467.218	42842.99
467.423	42920.82
467.628	44393.31
467.833	46416.7
468.038	45120.34
468.244	44438.36
