Data from USB4F104151__182__11-05-08-234.txt Node

Date: Wed Feb 26 11:05:08 EST 2025
User: louis
Spectrometer: USB4F10415
Trigger mode: 4
Integration Time (sec): 1.000000E-1
Scans to average: 1
Electric dark correction enabled: true
Nonlinearity correction enabled: false
Boxcar width: 0
XAxis mode: Wavelengths
Number of Pixels in Spectrum: 3648
>>>>>Begin Spectral Data<<<<<
178.204	-416.42
178.424	-416.42
178.644	-416.42
178.864	-367.27
179.084	-393.89
179.304	52.56
179.524	-76.46
179.744	27.99
179.964	87.38
180.184	68.95
180.404	83.28
180.624	-55.98
180.844	58.71
181.064	-101.03
181.283	-31.4
181.503	-82.6
181.723	-31.4
181.943	-146.09
182.163	89.43
182.383	-68.27
182.602	81.24
182.822	204.11
183.042	128.34
183.262	-10.92
183.482	36.18
183.701	52.56
183.921	56.66
184.141	-21.16
184.361	163.15
184.58	25.94
184.8	44.37
185.02	5.46
185.239	68.95
185.459	48.47
185.679	152.92
185.898	-66.22
186.118	56.66
186.338	81.24
186.557	150.87
186.777	-37.55
186.997	27.99
187.216	52.56
187.436	154.96
187.655	75.09
187.875	124.24
188.095	25.94
188.314	107.86
188.534	124.24
188.753	27.99
188.973	89.43
189.192	154.96
189.412	15.7
189.631	46.42
189.851	56.66
190.07	167.25
190.29	15.7
190.509	-0.68
190.729	73.04
190.948	130.39
191.168	228.69
191.387	56.66
191.607	7.51
191.826	120.15
192.045	-19.11
192.265	83.28
192.484	95.57
192.704	15.7
192.923	-105.13
193.142	120.15
193.362	140.63
193.581	62.8
193.8	142.68
194.02	25.94
194.239	93.52
194.458	120.15
194.678	-49.83
194.897	15.7
195.116	87.38
195.335	120.15
195.555	38.23
195.774	17.75
195.993	81.24
196.212	7.51
196.432	58.71
196.651	-0.68
196.87	89.43
197.089	283.99
197.308	66.9
197.528	124.24
197.747	-31.4
197.966	83.28
198.185	144.72
198.404	-21.16
198.623	71
198.842	71
199.062	111.96
199.281	73.04
199.5	89.43
199.719	75.09
199.938	89.43
200.157	60.76
200.376	132.44
200.595	107.86
200.814	138.58
201.033	54.61
201.252	120.15
201.471	83.28
201.69	130.39
201.909	95.57
202.128	136.53
202.347	122.2
202.566	52.56
202.785	-64.17
203.004	-51.88
203.223	218.45
203.442	62.8
203.661	-68.27
203.879	103.76
204.098	200.02
204.317	-19.11
204.536	118.1
204.755	148.82
204.974	159.06
205.193	62.8
205.411	111.96
205.63	7.51
205.849	40.28
206.068	36.18
206.287	21.85
206.505	111.96
206.724	21.85
206.943	34.13
207.162	25.94
207.381	120.15
207.599	36.18
207.818	40.28
208.037	-19.11
208.255	81.24
208.474	68.95
208.693	62.8
208.911	56.66
209.13	81.24
209.349	73.04
209.567	83.28
209.786	68.95
210.005	83.28
210.223	73.04
210.442	-123.56
210.661	60.76
210.879	66.9
211.098	68.95
211.316	81.24
211.535	77.14
211.753	64.85
211.972	64.85
212.191	-45.74
212.409	17.75
212.628	179.54
212.846	60.76
213.065	60.76
213.283	150.87
213.502	38.23
213.72	79.19
213.938	48.47
214.157	25.94
214.375	97.62
214.594	71
214.812	107.86
215.031	50.52
215.249	23.89
215.467	48.47
215.686	-8.87
215.904	138.58
216.122	56.66
216.341	42.32
216.559	169.3
216.778	40.28
216.996	97.62
217.214	-25.26
217.432	64.85
217.651	3.41
217.869	77.14
218.087	44.37
218.306	54.61
218.524	1.37
218.742	52.56
218.96	120.15
219.179	89.43
219.397	30.04
219.615	247.12
219.833	118.1
220.051	-68.27
220.27	132.44
220.488	173.39
220.706	111.96
220.924	56.66
221.142	-19.11
221.36	54.61
221.578	99.67
221.796	36.18
222.015	91.48
222.233	15.7
222.451	175.44
222.669	-41.64
222.887	116.05
223.105	13.65
223.323	68.95
223.541	-60.07
223.759	46.42
223.977	-12.97
224.195	163.15
224.413	114
224.631	27.99
224.849	97.62
225.067	191.83
225.285	3.41
225.503	9.56
225.721	-115.37
225.939	48.47
226.157	68.95
226.375	269.65
226.592	64.85
226.81	50.52
227.028	91.48
227.246	197.97
227.464	-19.11
227.682	173.39
227.9	126.29
228.117	48.47
228.335	34.13
228.553	34.13
228.771	62.8
228.989	11.61
229.206	81.24
229.424	13.65
229.642	62.8
229.86	-21.16
230.077	105.81
230.295	42.32
230.513	128.34
230.731	105.81
230.948	122.2
231.166	171.35
231.384	-45.74
231.601	-21.16
231.819	193.87
232.037	15.7
232.254	-17.07
232.472	52.56
232.689	-10.92
232.907	128.34
233.125	-0.68
233.342	-17.07
233.56	-6.83
233.777	21.85
233.995	-45.74
234.213	118.1
234.43	122.2
234.648	75.09
234.865	-29.35
235.083	-2.73
235.3	58.71
235.518	38.23
235.735	87.38
235.953	83.28
236.17	21.85
236.388	30.04
236.605	1.37
236.822	38.23
237.04	146.77
237.257	95.57
237.475	13.65
237.692	7.51
237.909	-25.26
238.127	75.09
238.344	105.81
238.562	109.91
238.779	30.04
238.996	-64.17
239.214	89.43
239.431	58.71
239.648	-8.87
239.865	126.29
240.083	97.62
240.3	-2.73
240.517	7.51
240.735	9.56
240.952	122.2
241.169	91.48
241.386	116.05
241.603	9.56
241.821	-94.89
242.038	140.63
242.255	171.35
242.472	-49.83
242.689	134.48
242.907	71
243.124	19.8
243.341	42.32
243.558	107.86
243.775	-0.68
243.992	-29.35
244.209	99.67
244.426	208.21
244.643	60.76
244.86	19.8
245.078	71
245.295	114
245.512	40.28
245.729	-53.93
245.946	50.52
246.163	126.29
246.38	-2.73
246.597	89.43
246.814	118.1
247.031	75.09
247.248	38.23
247.464	150.87
247.681	44.37
247.898	21.85
248.115	83.28
248.332	-10.92
248.549	85.33
248.766	122.2
248.983	101.72
249.2	23.89
249.417	128.34
249.633	-2.73
249.85	52.56
250.067	9.56
250.284	56.66
250.501	71
250.717	91.48
250.934	15.7
251.151	-17.07
251.368	46.42
251.585	87.38
251.801	30.04
252.018	-23.21
252.235	134.48
252.451	48.47
252.668	-15.02
252.885	126.29
253.102	93.52
253.318	23.89
253.535	3.41
253.752	-4.78
253.968	-10.92
254.185	36.18
254.401	36.18
254.618	77.14
254.835	-15.02
255.051	111.96
255.268	62.8
255.484	48.47
255.701	85.33
255.917	73.04
256.134	-60.07
256.351	87.38
256.567	-68.27
256.784	68.95
257	13.65
257.217	56.66
257.433	144.72
257.65	60.76
257.866	148.82
258.082	-111.27
258.299	-41.64
258.515	36.18
258.732	56.66
258.948	-12.97
259.165	101.72
259.381	-21.16
259.597	134.48
259.814	79.19
260.03	-25.26
260.246	124.24
260.463	91.48
260.679	83.28
260.895	38.23
261.112	52.56
261.328	3.41
261.544	-21.16
261.761	85.33
261.977	17.75
262.193	-4.78
262.409	148.82
262.626	68.95
262.842	56.66
263.058	46.42
263.274	99.67
263.49	25.94
263.707	32.08
263.923	60.76
264.139	-15.02
264.355	66.9
264.571	148.82
264.787	91.48
265.004	214.35
265.22	73.04
265.436	-29.35
265.652	48.47
265.868	71
266.084	-12.97
266.3	66.9
266.516	-45.74
266.732	124.24
266.948	38.23
267.164	-6.83
267.38	81.24
267.596	15.7
267.812	171.35
268.028	152.92
268.244	73.04
268.46	42.32
268.676	19.8
268.892	77.14
269.108	-68.27
269.324	-55.98
269.54	-35.5
269.756	85.33
269.972	17.75
270.188	148.82
270.403	-49.83
270.619	50.52
270.835	9.56
271.051	107.86
271.267	-2.73
271.483	85.33
271.698	66.9
271.914	64.85
272.13	66.9
272.346	-15.02
272.562	15.7
272.777	134.48
272.993	60.76
273.209	-37.55
273.425	157.01
273.64	-64.17
273.856	120.15
274.072	-60.07
274.287	-27.31
274.503	77.14
274.719	34.13
274.934	17.75
275.15	-66.22
275.366	21.85
275.581	17.75
275.797	99.67
276.012	85.33
276.228	23.89
276.444	62.8
276.659	85.33
276.875	-33.45
277.09	1.37
277.306	-4.78
277.521	66.9
277.737	32.08
277.952	81.24
278.168	56.66
278.383	3.41
278.599	1.37
278.814	75.09
279.03	66.9
279.245	157.01
279.461	15.7
279.676	116.05
279.892	-53.93
280.107	-4.78
280.322	-19.11
280.538	54.61
280.753	-8.87
280.969	93.52
281.184	-12.97
281.399	126.29
281.615	17.75
281.83	38.23
282.045	-74.41
282.26	34.13
282.476	-47.79
282.691	75.09
282.906	68.95
283.122	27.99
283.337	-31.4
283.552	64.85
283.767	11.61
283.983	7.51
284.198	1.37
284.413	159.06
284.628	101.72
284.843	116.05
285.058	60.76
285.274	-70.31
285.489	13.65
285.704	46.42
285.919	-6.83
286.134	11.61
286.349	7.51
286.564	36.18
286.779	38.23
286.995	-53.93
287.21	-41.64
287.425	163.15
287.64	-8.87
287.855	154.96
288.07	-37.55
288.285	163.15
288.5	97.62
288.715	95.57
288.93	-115.37
289.145	42.32
289.36	85.33
289.575	36.18
289.79	154.96
290.004	34.13
290.219	99.67
290.434	-121.51
290.649	-35.5
290.864	-10.92
291.079	-6.83
291.294	66.9
291.509	111.96
291.724	36.18
291.938	46.42
292.153	114
292.368	75.09
292.583	32.08
292.798	103.76
293.012	103.76
293.227	95.57
293.442	54.61
293.657	171.35
293.871	120.15
294.086	40.28
294.301	177.49
294.516	144.72
294.73	159.06
294.945	7.51
295.16	38.23
295.374	79.19
295.589	130.39
295.804	-8.87
296.018	21.85
296.233	130.39
296.447	56.66
296.662	-51.88
296.877	163.15
297.091	79.19
297.306	-19.11
297.52	17.75
297.735	62.8
297.949	93.52
298.164	75.09
298.378	71
298.593	-131.75
298.807	-27.31
299.022	152.92
299.236	154.96
299.451	5.46
299.665	107.86
299.88	23.89
300.094	11.61
300.309	60.76
300.523	3.41
300.737	19.8
300.952	11.61
301.166	17.75
301.381	5.46
301.595	15.7
301.809	27.99
302.024	1.37
302.238	-35.5
302.452	138.58
302.667	36.18
302.881	114
303.095	60.76
303.309	97.62
303.524	34.13
303.738	17.75
303.952	44.37
304.166	48.47
304.381	-117.42
304.595	126.29
304.809	-45.74
305.023	32.08
305.237	17.75
305.452	44.37
305.666	154.96
305.88	140.63
306.094	101.72
306.308	103.76
306.522	58.71
306.736	77.14
306.95	79.19
307.164	48.47
307.379	62.8
307.593	122.2
307.807	146.77
308.021	124.24
308.235	89.43
308.449	-62.12
308.663	79.19
308.877	247.12
309.091	77.14
309.305	95.57
309.519	-37.55
309.733	83.28
309.947	-60.07
310.161	9.56
310.374	89.43
310.588	95.57
310.802	21.85
311.016	60.76
311.23	97.62
311.444	-25.26
311.658	116.05
311.872	128.34
312.085	128.34
312.299	169.3
312.513	99.67
312.727	130.39
312.941	-27.31
313.154	91.48
313.368	-4.78
313.582	42.32
313.796	62.8
314.009	64.85
314.223	132.44
314.437	54.61
314.651	89.43
314.864	-31.4
315.078	3.41
315.292	19.8
315.505	-27.31
315.719	52.56
315.933	77.14
316.146	50.52
316.36	-72.36
316.573	30.04
316.787	103.76
317.001	38.23
317.214	-6.83
317.428	1.37
317.641	-27.31
317.855	50.52
318.068	50.52
318.282	81.24
318.495	167.25
318.709	101.72
318.922	97.62
319.136	148.82
319.349	169.3
319.563	-0.68
319.776	40.28
319.99	-41.64
320.203	56.66
320.417	46.42
320.63	101.72
320.843	189.78
321.057	163.15
321.27	40.28
321.483	97.62
321.697	138.58
321.91	75.09
322.124	60.76
322.337	73.04
322.55	-29.35
322.763	56.66
322.977	21.85
323.19	19.8
323.403	73.04
323.617	75.09
323.83	175.44
324.043	40.28
324.256	36.18
324.469	-10.92
324.683	75.09
324.896	-31.4
325.109	40.28
325.322	-29.35
325.535	32.08
325.748	95.57
325.962	-17.07
326.175	7.51
326.388	42.32
326.601	165.2
326.814	34.13
327.027	25.94
327.24	202.07
327.453	-82.6
327.666	126.29
327.879	146.77
328.092	146.77
328.305	99.67
328.518	17.75
328.731	-23.21
328.944	68.95
329.157	62.8
329.37	7.51
329.583	157.01
329.796	173.39
330.009	-27.31
330.222	116.05
330.435	93.52
330.648	17.75
330.861	107.86
331.073	13.65
331.286	138.58
331.499	77.14
331.712	-49.83
331.925	25.94
332.138	77.14
332.35	87.38
332.563	95.57
332.776	159.06
332.989	-0.68
333.202	9.56
333.414	68.95
333.627	-0.68
333.84	77.14
334.053	68.95
334.265	23.89
334.478	-60.07
334.691	27.99
334.903	5.46
335.116	21.85
335.329	-23.21
335.541	19.8
335.754	208.21
335.966	7.51
336.179	62.8
336.392	30.04
336.604	40.28
336.817	62.8
337.029	13.65
337.242	17.75
337.454	167.25
337.667	46.42
337.88	146.77
338.092	81.24
338.305	66.9
338.517	-19.11
338.729	148.82
338.942	148.82
339.154	-47.79
339.367	-8.87
339.579	95.57
339.792	-8.87
340.004	93.52
340.217	-6.83
340.429	73.04
340.641	30.04
340.854	-45.74
341.066	64.85
341.278	187.73
341.491	189.78
341.703	-21.16
341.915	-29.35
342.128	75.09
342.34	42.32
342.552	-23.21
342.764	144.72
342.977	13.65
343.189	19.8
343.401	93.52
343.613	-33.45
343.826	116.05
344.038	-12.97
344.25	25.94
344.462	3.41
344.674	165.2
344.886	101.72
345.099	34.13
345.311	173.39
345.523	15.7
345.735	-58.03
345.947	114
346.159	1.37
346.371	64.85
346.583	81.24
346.795	214.35
347.007	15.7
347.219	124.24
347.431	-35.5
347.643	152.92
347.855	42.32
348.067	124.24
348.279	-62.12
348.491	3.41
348.703	183.63
348.915	52.56
349.127	7.51
349.339	122.2
349.551	93.52
349.763	107.86
349.975	-19.11
350.187	103.76
350.399	114
350.61	122.2
350.822	-21.16
351.034	128.34
351.246	64.85
351.458	34.13
351.669	44.37
351.881	138.58
352.093	60.76
352.305	142.68
352.517	103.76
352.728	152.92
352.94	34.13
353.152	107.86
353.363	46.42
353.575	116.05
353.787	159.06
353.999	46.42
354.21	165.2
354.422	-31.4
354.633	73.04
354.845	73.04
355.057	73.04
355.268	54.61
355.48	126.29
355.692	34.13
355.903	30.04
356.115	25.94
356.326	-80.55
356.538	89.43
356.749	124.24
356.961	179.54
357.172	-6.83
357.384	40.28
357.595	218.45
357.807	-31.4
358.018	-68.27
358.23	32.08
358.441	81.24
358.653	56.66
358.864	-10.92
359.075	-78.51
359.287	75.09
359.498	91.48
359.709	50.52
359.921	19.8
360.132	58.71
360.344	85.33
360.555	58.71
360.766	77.14
360.977	27.99
361.189	132.44
361.4	25.94
361.611	89.43
361.823	140.63
362.034	150.87
362.245	-6.83
362.456	3.41
362.667	38.23
362.879	-33.45
363.09	79.19
363.301	150.87
363.512	9.56
363.723	44.37
363.935	30.04
364.146	85.33
364.357	-35.5
364.568	38.23
364.779	-45.74
364.99	116.05
365.201	7.51
365.412	81.24
365.623	-2.73
365.834	99.67
366.045	-8.87
366.256	109.91
366.467	68.95
366.678	44.37
366.889	-70.31
367.1	42.32
367.311	79.19
367.522	54.61
367.733	97.62
367.944	122.2
368.155	30.04
368.366	138.58
368.577	99.67
368.788	140.63
368.999	36.18
369.209	21.85
369.42	183.63
369.631	122.2
369.842	77.14
370.053	-12.97
370.264	77.14
370.474	-47.79
370.685	150.87
370.896	36.18
371.107	128.34
371.317	64.85
371.528	93.52
371.739	60.76
371.95	142.68
372.16	71
372.371	30.04
372.582	-8.87
372.792	54.61
373.003	32.08
373.214	89.43
373.424	52.56
373.635	-23.21
373.846	77.14
374.056	142.68
374.267	99.67
374.477	89.43
374.688	-43.69
374.898	95.57
375.109	40.28
375.319	36.18
375.53	99.67
375.74	95.57
375.951	114
376.161	138.58
376.372	95.57
376.582	60.76
376.793	124.24
377.003	-0.68
377.214	-15.02
377.424	32.08
377.635	21.85
377.845	36.18
378.055	154.96
378.266	-53.93
378.476	-17.07
378.686	77.14
378.897	73.04
379.107	99.67
379.317	62.8
379.528	-35.5
379.738	171.35
379.948	-62.12
380.158	142.68
380.369	118.1
380.579	89.43
380.789	58.71
380.999	126.29
381.21	132.44
381.42	214.35
381.63	62.8
381.84	116.05
382.05	68.95
382.261	109.91
382.471	111.96
382.681	9.56
382.891	154.96
383.101	83.28
383.311	-4.78
383.521	21.85
383.731	97.62
383.941	71
384.151	85.33
384.361	44.37
384.571	62.8
384.781	87.38
384.991	193.87
385.201	165.2
385.411	118.1
385.621	93.52
385.831	136.53
386.041	118.1
386.251	27.99
386.461	146.77
386.671	23.89
386.881	-8.87
387.091	91.48
387.301	25.94
387.511	-4.78
387.72	60.76
387.93	66.9
388.14	-58.03
388.35	71
388.56	154.96
388.769	146.77
388.979	118.1
389.189	-43.69
389.399	3.41
389.609	111.96
389.818	144.72
390.028	7.51
390.238	11.61
390.447	-25.26
390.657	85.33
390.867	27.99
391.076	-113.32
391.286	107.86
391.496	40.28
391.705	66.9
391.915	165.2
392.125	87.38
392.334	21.85
392.544	111.96
392.753	122.2
392.963	-105.13
393.172	30.04
393.382	-41.64
393.591	212.31
393.801	-49.83
394.01	157.01
394.22	200.02
394.429	19.8
394.639	40.28
394.848	17.75
395.058	120.15
395.267	52.56
395.477	56.66
395.686	83.28
395.895	206.16
396.105	238.93
396.314	132.44
396.524	25.94
396.733	42.32
396.942	204.11
397.152	50.52
397.361	177.49
397.57	30.04
397.78	42.32
397.989	54.61
398.198	161.11
398.407	97.62
398.617	56.66
398.826	-29.35
399.035	42.32
399.244	66.9
399.453	9.56
399.663	103.76
399.872	103.76
400.081	-43.69
400.29	107.86
400.499	19.8
400.708	122.2
400.917	73.04
401.127	21.85
401.336	-35.5
401.545	173.39
401.754	89.43
401.963	126.29
402.172	-90.79
402.381	-8.87
402.59	42.32
402.799	79.19
403.008	187.73
403.217	40.28
403.426	38.23
403.635	-74.41
403.844	38.23
404.053	34.13
404.262	-12.97
404.471	206.16
404.68	56.66
404.888	17.75
405.097	23.89
405.306	48.47
405.515	128.34
405.724	50.52
405.933	116.05
406.142	-21.16
406.35	126.29
406.559	27.99
406.768	60.76
406.977	152.92
407.185	81.24
407.394	89.43
407.603	-4.78
407.812	-6.83
408.02	111.96
408.229	95.57
408.438	30.04
408.646	-72.36
408.855	95.57
409.064	58.71
409.272	21.85
409.481	66.9
409.69	-53.93
409.898	3.41
410.107	144.72
410.315	130.39
410.524	-10.92
410.733	-12.97
410.941	48.47
411.15	116.05
411.358	89.43
411.567	179.54
411.775	93.52
411.984	5.46
412.192	142.68
412.401	15.7
412.609	54.61
412.818	157.01
413.026	101.72
413.234	-12.97
413.443	122.2
413.651	17.75
413.86	75.09
414.068	187.73
414.276	193.87
414.485	-21.16
414.693	204.11
414.901	202.07
415.11	50.52
415.318	36.18
415.526	52.56
415.734	152.92
415.943	64.85
416.151	142.68
416.359	75.09
416.567	97.62
416.776	154.96
416.984	126.29
417.192	177.49
417.4	7.51
417.608	68.95
417.817	-39.59
418.025	136.53
418.233	163.15
418.441	-8.87
418.649	30.04
418.857	107.86
419.065	138.58
419.273	-19.11
419.481	95.57
419.689	17.75
419.897	17.75
420.105	-6.83
420.313	159.06
420.521	212.31
420.729	169.3
420.937	68.95
421.145	-35.5
421.353	226.64
421.561	99.67
421.769	154.96
421.977	27.99
422.185	122.2
422.393	11.61
422.601	99.67
422.809	25.94
423.017	150.87
423.224	23.89
423.432	148.82
423.64	48.47
423.848	126.29
424.056	30.04
424.263	206.16
424.471	-17.07
424.679	185.68
424.887	44.37
425.094	118.1
425.302	58.71
425.51	44.37
425.718	136.53
425.925	71
426.133	1.37
426.341	228.69
426.548	-2.73
426.756	66.9
426.964	146.77
427.171	62.8
427.379	150.87
427.586	146.77
427.794	105.81
428.001	142.68
428.209	175.44
428.417	163.15
428.624	175.44
428.832	42.32
429.039	109.91
429.247	183.63
429.454	161.11
429.662	200.02
429.869	140.63
430.076	138.58
430.284	89.43
430.491	189.78
430.699	23.89
430.906	275.79
431.114	75.09
431.321	93.52
431.528	157.01
431.736	140.63
431.943	152.92
432.15	253.27
432.358	245.07
432.565	191.83
432.772	150.87
432.979	126.29
433.187	181.59
433.394	236.88
433.601	187.73
433.808	243.03
434.016	236.88
434.223	240.98
434.43	195.92
434.637	212.31
434.844	320.85
435.052	232.79
435.259	265.55
435.466	292.18
435.673	228.69
435.88	255.31
436.087	353.62
436.294	316.75
436.501	347.47
436.708	247.12
436.915	320.85
437.122	386.38
437.329	261.46
437.537	326.99
437.743	333.14
437.95	458.06
438.157	433.49
438.364	396.62
438.571	314.7
438.778	408.91
438.985	501.07
439.192	406.86
439.399	462.16
439.606	523.6
439.813	544.08
440.02	634.19
440.227	675.15
440.433	562.51
440.64	587.08
440.847	478.54
441.054	595.28
441.261	716.11
441.467	644.43
441.674	601.42
441.881	757.07
442.088	658.76
442.294	826.7
442.501	806.22
442.708	861.51
442.914	732.49
443.121	804.17
443.328	959.81
443.534	941.38
443.741	871.75
443.948	847.18
444.154	1094.98
444.361	1201.48
444.568	1080.64
444.774	974.15
444.981	982.34
445.187	1299.78
445.394	1209.67
445.6	1166.66
445.807	1242.43
446.013	1224
446.22	1305.92
446.426	1396.03
446.633	1555.77
446.839	1834.3
447.046	1486.14
447.252	1690.94
447.459	1754.43
447.665	1664.32
447.871	1895.74
448.078	2004.28
448.284	2104.63
448.491	2080.05
448.697	2168.12
448.903	2227.51
449.11	2219.32
449.316	2266.42
449.522	2512.18
449.728	2567.47
449.935	2667.82
450.141	2653.48
450.347	2977.06
450.553	2815.27
450.76	2874.67
450.966	3046.69
451.172	3142.95
451.378	3351.84
451.584	3364.13
451.791	3577.12
451.997	3663.13
452.203	3749.15
452.409	3839.26
452.615	4164.89
452.821	3919.13
453.027	3968.28
453.233	4500.75
453.44	4490.51
453.646	4652.3
453.852	4994.31
454.058	5035.27
454.264	5197.06
454.47	5575.94
454.676	5618.94
454.882	6175.99
455.088	5934.33
455.294	6102.26
455.5	6606.06
455.705	6999.27
455.911	6890.73
456.117	7128.3
456.323	7300.33
456.529	7288.04
456.735	8078.55
456.941	8150.23
457.147	8506.58
457.352	8916.17
457.558	9223.37
457.764	9706.69
457.97	9833.66
458.176	10284.22
458.381	10734.77
458.587	11029.68
458.793	11586.72
458.999	11330.73
459.204	12958.86
459.41	13331.59
459.616	13157.52
459.821	14003.33
460.027	14447.74
460.233	15268.97
460.438	15182.96
460.644	16432.22
460.85	16440.41
461.055	16979.03
461.261	17812.55
461.466	17669.19
461.672	18039.87
461.878	19950.63
462.083	19893.29
462.289	20169.76
462.494	20978.71
462.7	21079.06
462.905	21476.37
463.111	22914.04
463.316	24138.72
463.522	24726.49
463.727	25422.8
463.932	26561.47
464.138	27159.48
464.343	28371.88
464.549	28650.4
464.754	30540.68
464.959	31316.86
465.165	32129.9
465.37	32035.69
465.575	31796.08
465.781	34167.63
465.986	35058.49
466.191	34300.75
466.397	34599.75
466.602	34118.48
466.807	35545.91
467.012	36592.42
467.218	36920.1
467.423	36872.99
467.628	38517.51
467.833	40217.33
468.038	39310.08
468.244	38105.87
468.449	40829.67
468.654	39879.41
468.859	39543.55
