Data from USB4F104151__234__11-06-25-225.txt Node

Date: Wed Feb 26 11:06:25 EST 2025
User: louis
Spectrometer: USB4F10415
Trigger mode: 4
Integration Time (sec): 1.000000E-1
Scans to average: 1
Electric dark correction enabled: true
Nonlinearity correction enabled: false
Boxcar width: 0
XAxis mode: Wavelengths
Number of Pixels in Spectrum: 3648
>>>>>Begin Spectral Data<<<<<
178.204	-330.23
178.424	-330.23
178.644	-330.23
178.864	-367.1
179.084	-442.87
179.304	42.5
179.524	-49.66
179.744	13.82
179.964	-18.94
180.184	75.26
180.404	-2.56
180.624	5.63
180.844	-2.56
181.064	-49.66
181.283	11.78
181.503	-80.38
181.723	54.78
181.943	-117.25
182.163	155.13
182.383	-61.95
182.602	22.02
182.822	128.51
183.042	97.79
183.262	-49.66
183.482	-74.24
183.701	-0.51
183.921	54.78
184.141	-14.85
184.361	44.54
184.58	67.07
184.8	75.26
185.02	-45.57
185.239	118.27
185.459	85.5
185.679	157.18
185.898	-123.39
186.118	116.22
186.338	26.11
186.557	136.7
186.777	-80.38
186.997	13.82
187.216	-29.18
187.436	97.79
187.655	95.74
187.875	128.51
188.095	36.35
188.314	108.03
188.534	114.17
188.753	-27.14
188.973	132.61
189.192	208.38
189.412	-57.86
189.631	32.26
189.851	56.83
190.07	151.04
190.29	-55.81
190.509	22.02
190.729	42.5
190.948	73.21
191.168	253.44
191.387	177.66
191.607	71.17
191.826	128.51
192.045	75.26
192.265	32.26
192.484	54.78
192.704	19.97
192.923	-59.9
193.142	196.09
193.362	134.65
193.581	99.84
193.8	38.4
194.02	54.78
194.239	5.63
194.458	79.36
194.678	17.92
194.897	17.92
195.116	65.02
195.335	24.06
195.555	95.74
195.774	-6.66
195.993	134.65
196.212	44.54
196.432	-14.85
196.651	-23.04
196.87	34.3
197.089	220.67
197.308	81.41
197.528	46.59
197.747	-37.38
197.966	38.4
198.185	95.74
198.404	32.26
198.623	89.6
198.842	60.93
199.062	103.93
199.281	99.84
199.5	132.61
199.719	81.41
199.938	97.79
200.157	73.21
200.376	118.27
200.595	93.69
200.814	24.06
201.033	-12.8
201.252	218.62
201.471	40.45
201.69	85.5
201.909	91.65
202.128	116.22
202.347	13.82
202.566	-14.85
202.785	-39.42
203.004	-23.04
203.223	251.39
203.442	19.97
203.661	-64
203.879	75.26
204.098	108.03
204.317	-47.62
204.536	-2.56
204.755	114.17
204.974	101.89
205.193	-8.7
205.411	91.65
205.63	192
205.849	48.64
206.068	44.54
206.287	44.54
206.505	118.27
206.724	-6.66
206.943	22.02
207.162	83.45
207.381	148.99
207.599	52.74
207.818	62.98
208.037	26.11
208.255	15.87
208.474	67.07
208.693	54.78
208.911	32.26
209.13	128.51
209.349	95.74
209.567	65.02
209.786	99.84
210.005	71.17
210.223	75.26
210.442	-123.39
210.661	58.88
210.879	71.17
211.098	24.06
211.316	9.73
211.535	112.13
211.753	71.17
211.972	110.08
212.191	13.82
212.409	30.21
212.628	159.23
212.846	-2.56
213.065	73.21
213.283	144.89
213.502	48.64
213.72	60.93
213.938	13.82
214.157	60.93
214.375	77.31
214.594	30.21
214.812	118.27
215.031	32.26
215.249	30.21
215.467	60.93
215.686	140.8
215.904	87.55
216.122	81.41
216.341	192
216.559	93.69
216.778	54.78
216.996	185.85
217.214	-12.8
217.432	44.54
217.651	3.58
217.869	13.82
218.087	122.37
218.306	-20.99
218.524	13.82
218.742	99.84
218.96	155.13
219.179	79.36
219.397	-14.85
219.615	284.16
219.833	58.88
220.051	7.68
220.27	169.47
220.488	148.99
220.706	50.69
220.924	-16.9
221.142	-23.04
221.36	54.78
221.578	130.56
221.796	77.31
222.015	38.4
222.233	114.17
222.451	161.28
222.669	-6.66
222.887	77.31
223.105	-8.7
223.323	26.11
223.541	-55.81
223.759	157.18
223.977	26.11
224.195	155.13
224.413	81.41
224.631	89.6
224.849	28.16
225.067	196.09
225.285	34.3
225.503	67.07
225.721	-107.01
225.939	13.82
226.157	38.4
226.375	286.2
226.592	-16.9
226.81	71.17
227.028	108.03
227.246	142.85
227.464	97.79
227.682	155.13
227.9	116.22
228.117	99.84
228.335	101.89
228.553	73.21
228.771	26.11
228.989	95.74
229.206	118.27
229.424	42.5
229.642	17.92
229.86	-66.05
230.077	138.75
230.295	75.26
230.513	116.22
230.731	128.51
230.948	142.85
231.166	163.33
231.384	54.78
231.601	3.58
231.819	108.03
232.037	7.68
232.254	19.97
232.472	99.84
232.689	-16.9
232.907	79.36
233.125	54.78
233.342	9.73
233.56	-27.14
233.777	48.64
233.995	99.84
234.213	112.13
234.43	132.61
234.648	69.12
234.865	34.3
235.083	58.88
235.3	65.02
235.518	83.45
235.735	165.37
235.953	93.69
236.17	24.06
236.388	24.06
236.605	91.65
236.822	120.32
237.04	140.8
237.257	44.54
237.475	-39.42
237.692	99.84
237.909	17.92
238.127	34.3
238.344	46.59
238.562	19.97
238.779	50.69
238.996	-43.52
239.214	32.26
239.431	79.36
239.648	28.16
239.865	101.89
240.083	87.55
240.3	42.5
240.517	-107.01
240.735	73.21
240.952	128.51
241.169	85.5
241.386	50.69
241.603	60.93
241.821	-51.71
242.038	108.03
242.255	169.47
242.472	-51.71
242.689	97.79
242.907	95.74
243.124	65.02
243.341	58.88
243.558	-88.57
243.775	-49.66
243.992	-18.94
244.209	54.78
244.426	187.9
244.643	134.65
244.86	28.16
245.078	120.32
245.295	50.69
245.512	54.78
245.729	48.64
245.946	85.5
246.163	48.64
246.38	114.17
246.597	103.93
246.814	1.54
247.031	56.83
247.248	36.35
247.464	77.31
247.681	44.54
247.898	32.26
248.115	85.5
248.332	3.58
248.549	126.46
248.766	189.95
248.983	46.59
249.2	22.02
249.417	118.27
249.633	81.41
249.85	56.83
250.067	34.3
250.284	58.88
250.501	69.12
250.717	110.08
250.934	-23.04
251.151	-27.14
251.368	-14.85
251.585	56.83
251.801	71.17
252.018	-49.66
252.235	108.03
252.451	-27.14
252.668	17.92
252.885	134.65
253.102	58.88
253.318	-10.75
253.535	-10.75
253.752	-0.51
253.968	-6.66
254.185	-2.56
254.401	48.64
254.618	122.37
254.835	5.63
255.051	151.04
255.268	87.55
255.484	134.65
255.701	9.73
255.917	30.21
256.134	30.21
256.351	97.79
256.567	-4.61
256.784	50.69
257	-86.53
257.217	130.56
257.433	142.85
257.65	22.02
257.866	177.66
258.082	-20.99
258.299	-0.51
258.515	7.68
258.732	32.26
258.948	56.83
259.165	28.16
259.381	28.16
259.597	28.16
259.814	44.54
260.03	71.17
260.246	48.64
260.463	91.65
260.679	153.09
260.895	65.02
261.112	155.13
261.328	36.35
261.544	-27.14
261.761	161.28
261.977	13.82
262.193	73.21
262.409	110.08
262.626	56.83
262.842	22.02
263.058	56.83
263.274	120.32
263.49	34.3
263.707	116.22
263.923	91.65
264.139	-72.19
264.355	42.5
264.571	114.17
264.787	140.8
265.004	136.7
265.22	1.54
265.436	-33.28
265.652	44.54
265.868	79.36
266.084	5.63
266.3	15.87
266.516	-49.66
266.732	99.84
266.948	17.92
267.164	54.78
267.38	77.31
267.596	44.54
267.812	120.32
268.028	32.26
268.244	58.88
268.46	50.69
268.676	93.69
268.892	-16.9
269.108	-35.33
269.324	-37.38
269.54	-100.86
269.756	105.98
269.972	-23.04
270.188	69.12
270.403	-64
270.619	30.21
270.835	99.84
271.051	40.45
271.267	1.54
271.483	15.87
271.698	189.95
271.914	69.12
272.13	-14.85
272.346	-2.56
272.562	42.5
272.777	114.17
272.993	-37.38
273.209	-37.38
273.425	138.75
273.64	-78.33
273.856	93.69
274.072	-41.47
274.287	26.11
274.503	105.98
274.719	138.75
274.934	11.78
275.15	-37.38
275.366	58.88
275.581	56.83
275.797	79.36
276.012	19.97
276.228	15.87
276.444	48.64
276.659	132.61
276.875	-6.66
277.09	79.36
277.306	108.03
277.521	60.93
277.737	13.82
277.952	120.32
278.168	83.45
278.383	40.45
278.599	50.69
278.814	118.27
279.03	30.21
279.245	179.71
279.461	34.3
279.676	101.89
279.892	-33.28
280.107	-0.51
280.322	26.11
280.538	87.55
280.753	32.26
280.969	50.69
281.184	-10.75
281.399	275.96
281.615	26.11
281.83	60.93
282.045	-47.62
282.26	-10.75
282.476	11.78
282.691	15.87
282.906	-12.8
283.122	110.08
283.337	3.58
283.552	105.98
283.767	3.58
283.983	110.08
284.198	-4.61
284.413	56.83
284.628	-37.38
284.843	13.82
285.058	81.41
285.274	13.82
285.489	-43.52
285.704	79.36
285.919	3.58
286.134	11.78
286.349	50.69
286.564	48.64
286.779	105.98
286.995	40.45
287.21	-90.62
287.425	54.78
287.64	58.88
287.855	103.93
288.07	-41.47
288.285	71.17
288.5	99.84
288.715	87.55
288.93	48.64
289.145	-16.9
289.36	194.05
289.575	26.11
289.79	108.03
290.004	-27.14
290.219	32.26
290.434	38.4
290.649	48.64
290.864	7.68
291.079	56.83
291.294	50.69
291.509	103.93
291.724	3.58
291.938	38.4
292.153	126.46
292.368	46.59
292.583	71.17
292.798	81.41
293.012	13.82
293.227	69.12
293.442	-53.76
293.657	116.22
293.871	157.18
294.086	67.07
294.301	155.13
294.516	134.65
294.73	60.93
294.945	-12.8
295.16	46.59
295.374	89.6
295.589	58.88
295.804	-10.75
296.018	126.46
296.233	155.13
296.447	65.02
296.662	-20.99
296.877	79.36
297.091	151.04
297.306	85.5
297.52	87.55
297.735	7.68
297.949	-6.66
298.164	71.17
298.378	42.5
298.593	26.11
298.807	-23.04
299.022	26.11
299.236	175.61
299.451	3.58
299.665	17.92
299.88	5.63
300.094	140.8
300.309	83.45
300.523	44.54
300.737	36.35
300.952	163.33
301.166	99.84
301.381	-27.14
301.595	58.88
301.809	118.27
302.024	46.59
302.238	19.97
302.452	167.42
302.667	67.07
302.881	200.19
303.095	97.79
303.309	26.11
303.524	19.97
303.738	73.21
303.952	17.92
304.166	144.89
304.381	-57.86
304.595	146.94
304.809	44.54
305.023	48.64
305.237	19.97
305.452	46.59
305.666	85.5
305.88	112.13
306.094	48.64
306.308	79.36
306.522	56.83
306.736	30.21
306.95	73.21
307.164	79.36
307.379	3.58
307.593	91.65
307.807	110.08
308.021	175.61
308.235	67.07
308.449	-6.66
308.663	91.65
308.877	204.28
309.091	116.22
309.305	62.98
309.519	-59.9
309.733	120.32
309.947	-27.14
310.161	69.12
310.374	79.36
310.588	171.52
310.802	13.82
311.016	46.59
311.23	136.7
311.444	65.02
311.658	48.64
311.872	151.04
312.085	192
312.299	83.45
312.513	208.38
312.727	32.26
312.941	19.97
313.154	46.59
313.368	71.17
313.582	-10.75
313.796	54.78
314.009	38.4
314.223	136.7
314.437	126.46
314.651	95.74
314.864	19.97
315.078	87.55
315.292	-92.67
315.505	62.98
315.719	81.41
315.933	26.11
316.146	-25.09
316.36	-18.94
316.573	122.37
316.787	56.83
317.001	93.69
317.214	-86.53
317.428	69.12
317.641	9.73
317.855	-10.75
318.068	108.03
318.282	75.26
318.495	208.38
318.709	71.17
318.922	26.11
319.136	142.85
319.349	97.79
319.563	-43.52
319.776	157.18
319.99	-113.15
320.203	124.41
320.417	44.54
320.63	65.02
320.843	130.56
321.057	112.13
321.27	83.45
321.483	144.89
321.697	116.22
321.91	142.85
322.124	85.5
322.337	169.47
322.55	-4.61
322.763	91.65
322.977	9.73
323.19	99.84
323.403	-0.51
323.617	99.84
323.83	22.02
324.043	44.54
324.256	28.16
324.469	5.63
324.683	114.17
324.896	-27.14
325.109	46.59
325.322	-4.61
325.535	79.36
325.748	110.08
325.962	-14.85
326.175	48.64
326.388	89.6
326.601	91.65
326.814	9.73
327.027	62.98
327.24	112.13
327.453	-133.63
327.666	24.06
327.879	136.7
328.092	177.66
328.305	89.6
328.518	13.82
328.731	3.58
328.944	65.02
329.157	69.12
329.37	17.92
329.583	206.33
329.796	130.56
330.009	-74.24
330.222	24.06
330.435	42.5
330.648	26.11
330.861	112.13
331.073	19.97
331.286	103.93
331.499	56.83
331.712	-53.76
331.925	54.78
332.138	85.5
332.35	60.93
332.563	-49.66
332.776	157.18
332.989	-4.61
333.202	-18.94
333.414	13.82
333.627	93.69
333.84	-2.56
334.053	79.36
334.265	11.78
334.478	103.93
334.691	7.68
334.903	110.08
335.116	-47.62
335.329	28.16
335.541	75.26
335.754	157.18
335.966	22.02
336.179	36.35
336.392	-16.9
336.604	-76.29
336.817	120.32
337.029	67.07
337.242	73.21
337.454	48.64
337.667	91.65
337.88	120.32
338.092	136.7
338.305	103.93
338.517	46.59
338.729	77.31
338.942	206.33
339.154	-23.04
339.367	-96.77
339.579	89.6
339.792	-6.66
340.004	67.07
340.217	32.26
340.429	52.74
340.641	7.68
340.854	-55.81
341.066	-4.61
341.278	142.85
341.491	173.57
341.703	97.79
341.915	42.5
342.128	81.41
342.34	48.64
342.552	1.54
342.764	54.78
342.977	5.63
343.189	95.74
343.401	42.5
343.613	-47.62
343.826	-25.09
344.038	9.73
344.25	134.65
344.462	46.59
344.674	128.51
344.886	91.65
345.099	118.27
345.311	130.56
345.523	50.69
345.735	-12.8
345.947	120.32
346.159	89.6
346.371	30.21
346.583	-23.04
346.795	183.81
347.007	13.82
347.219	62.98
347.431	38.4
347.643	196.09
347.855	1.54
348.067	228.86
348.279	9.73
348.491	44.54
348.703	126.46
348.915	7.68
349.127	-31.23
349.339	77.31
349.551	-43.52
349.763	97.79
349.975	89.6
350.187	169.47
350.399	175.61
350.61	114.17
350.822	-45.57
351.034	108.03
351.246	73.21
351.458	56.83
351.669	38.4
351.881	40.45
352.093	122.37
352.305	136.7
352.517	81.41
352.728	89.6
352.94	44.54
353.152	108.03
353.363	-64
353.575	118.27
353.787	198.14
353.999	48.64
354.21	169.47
354.422	30.21
354.633	22.02
354.845	87.55
355.057	95.74
355.268	-49.66
355.48	183.81
355.692	26.11
355.903	9.73
356.115	-35.33
356.326	-31.23
356.538	97.79
356.749	36.35
356.961	148.99
357.172	79.36
357.384	13.82
357.595	261.63
357.807	11.78
358.018	1.54
358.23	69.12
358.441	216.57
358.653	110.08
358.864	65.02
359.075	-43.52
359.287	130.56
359.498	105.98
359.709	75.26
359.921	77.31
360.132	71.17
360.344	62.98
360.555	40.45
360.766	62.98
360.977	99.84
361.189	101.89
361.4	67.07
361.611	97.79
361.823	169.47
362.034	93.69
362.245	-139.77
362.456	54.78
362.667	116.22
362.879	-47.62
363.09	105.98
363.301	79.36
363.512	42.5
363.723	40.45
363.935	58.88
364.146	124.41
364.357	114.17
364.568	112.13
364.779	-64
364.99	210.43
365.201	1.54
365.412	173.57
365.623	-57.86
365.834	87.55
366.045	46.59
366.256	177.66
366.467	93.69
366.678	3.58
366.889	105.98
367.1	-0.51
367.311	175.61
367.522	62.98
367.733	132.61
367.944	101.89
368.155	30.21
368.366	165.37
368.577	189.95
368.788	67.07
368.999	17.92
369.209	99.84
369.42	216.57
369.631	153.09
369.842	99.84
370.053	69.12
370.264	110.08
370.474	-29.18
370.685	65.02
370.896	5.63
371.107	105.98
371.317	112.13
371.528	54.78
371.739	181.76
371.95	67.07
372.16	101.89
372.371	-2.56
372.582	36.35
372.792	36.35
373.003	69.12
373.214	62.98
373.424	44.54
373.635	26.11
373.846	220.67
374.056	-14.85
374.267	69.12
374.477	46.59
374.688	30.21
374.898	142.85
375.109	95.74
375.319	87.55
375.53	91.65
375.74	93.69
375.951	-12.8
376.161	54.78
376.372	60.93
376.582	73.21
376.793	187.9
377.003	124.41
377.214	26.11
377.424	58.88
377.635	62.98
377.845	-0.51
378.055	126.46
378.266	-43.52
378.476	71.17
378.686	24.06
378.897	99.84
379.107	196.09
379.317	134.65
379.528	26.11
379.738	128.51
379.948	44.54
380.158	71.17
380.369	77.31
380.579	103.93
380.789	130.56
380.999	99.84
381.21	136.7
381.42	230.91
381.63	73.21
381.84	114.17
382.05	48.64
382.261	161.28
382.471	222.72
382.681	-12.8
382.891	177.66
383.101	134.65
383.311	-92.67
383.521	54.78
383.731	116.22
383.941	89.6
384.151	79.36
384.361	65.02
384.571	46.59
384.781	116.22
384.991	140.8
385.201	208.38
385.411	148.99
385.621	134.65
385.831	56.83
386.041	24.06
386.251	9.73
386.461	132.61
386.671	9.73
386.881	38.4
387.091	52.74
387.301	105.98
387.511	81.41
387.72	144.89
387.93	91.65
388.14	7.68
388.35	85.5
388.56	165.37
388.769	83.45
388.979	62.98
389.189	44.54
389.399	77.31
389.609	163.33
389.818	83.45
390.028	69.12
390.238	103.93
390.447	-12.8
390.657	99.84
390.867	-23.04
391.076	-59.9
391.286	126.46
391.496	91.65
391.705	5.63
391.915	142.85
392.125	128.51
392.334	85.5
392.544	173.57
392.753	65.02
392.963	-16.9
393.172	120.32
393.382	36.35
393.591	228.86
393.801	34.3
394.01	177.66
394.22	198.14
394.429	48.64
394.639	75.26
394.848	93.69
395.058	36.35
395.267	15.87
395.477	159.23
395.686	75.26
395.895	208.38
396.105	140.8
396.314	146.94
396.524	120.32
396.733	60.93
396.942	189.95
397.152	179.71
397.361	103.93
397.57	95.74
397.78	-8.7
397.989	34.3
398.198	232.96
398.407	34.3
398.617	155.13
398.826	67.07
399.035	-14.85
399.244	124.41
399.453	50.69
399.663	95.74
399.872	67.07
400.081	24.06
400.29	157.18
400.499	24.06
400.708	101.89
400.917	11.78
401.127	40.45
401.336	9.73
401.545	177.66
401.754	105.98
401.963	-20.99
402.172	7.68
402.381	-47.62
402.59	32.26
402.799	9.73
403.008	241.15
403.217	17.92
403.426	99.84
403.635	-78.33
403.844	-27.14
404.053	-45.57
404.262	62.98
404.471	151.04
404.68	19.97
404.888	73.21
405.097	56.83
405.306	67.07
405.515	118.27
405.724	44.54
405.933	95.74
406.142	60.93
406.35	126.46
406.559	17.92
406.768	50.69
406.977	212.48
407.185	97.79
407.394	108.03
407.603	-57.86
407.812	146.94
408.02	144.89
408.229	19.97
408.438	97.79
408.646	9.73
408.855	124.41
409.064	130.56
409.272	65.02
409.481	85.5
409.69	46.59
409.898	11.78
410.107	22.02
410.315	126.46
410.524	52.74
410.733	93.69
410.941	62.98
411.15	116.22
411.358	69.12
411.567	208.38
411.775	67.07
411.984	136.7
412.192	132.61
412.401	60.93
412.609	171.52
412.818	224.76
413.026	83.45
413.234	40.45
413.443	46.59
413.651	13.82
413.86	22.02
414.068	157.18
414.276	155.13
414.485	97.79
414.693	243.2
414.901	235
415.11	75.26
415.318	144.89
415.526	56.83
415.734	157.18
415.943	122.37
416.151	114.17
416.359	85.5
416.567	89.6
416.776	65.02
416.984	108.03
417.192	128.51
417.4	-18.94
417.608	97.79
417.817	-88.57
418.025	32.26
418.233	126.46
418.441	-2.56
418.649	-23.04
418.857	118.27
419.065	198.14
419.273	28.16
419.481	71.17
419.689	75.26
419.897	-0.51
420.105	-37.38
420.313	169.47
420.521	249.34
420.729	126.46
420.937	-37.38
421.145	30.21
421.353	40.45
421.561	183.81
421.769	77.31
421.977	13.82
422.185	62.98
422.393	38.4
422.601	91.65
422.809	79.36
423.017	62.98
423.224	110.08
423.432	120.32
423.64	91.65
423.848	187.9
424.056	60.93
424.263	99.84
424.471	56.83
424.679	79.36
424.887	11.78
425.094	179.71
425.302	210.43
425.51	75.26
425.718	202.24
425.925	116.22
426.133	1.54
426.341	206.33
426.548	67.07
426.756	60.93
426.964	175.61
427.171	15.87
427.379	42.5
427.586	17.92
427.794	89.6
428.001	216.57
428.209	81.41
428.417	239.1
428.624	146.94
428.832	173.57
429.039	67.07
429.247	67.07
429.454	192
429.662	273.92
429.869	112.13
430.076	116.22
430.284	144.89
430.491	194.05
430.699	218.62
430.906	230.91
431.114	153.09
431.321	167.42
431.528	146.94
431.736	224.76
431.943	208.38
432.15	183.81
432.358	210.43
432.565	302.59
432.772	40.45
432.979	259.58
433.187	128.51
433.394	261.63
433.601	187.9
433.808	310.78
434.016	282.11
434.223	306.68
434.43	226.81
434.637	181.76
434.844	361.98
435.052	284.16
435.259	366.07
435.466	421.37
435.673	316.92
435.88	318.97
436.087	382.46
436.294	343.55
436.501	325.12
436.708	333.31
436.915	441.85
437.122	452.09
437.329	339.45
437.537	353.79
437.743	447.99
437.95	511.48
438.157	404.99
438.364	491
438.571	468.47
438.778	579.06
438.985	626.17
439.192	556.54
439.399	450.04
439.606	579.06
439.813	548.34
440.02	755.19
440.227	703.99
440.433	695.8
440.64	667.13
440.847	601.59
441.054	681.46
441.261	800.24
441.467	763.38
441.674	667.13
441.881	726.52
442.088	792.05
442.294	830.96
442.501	978.42
442.708	914.93
442.914	951.79
443.121	921.07
443.328	1025.52
443.534	1080.82
443.741	1015.28
443.948	941.55
444.154	1205.74
444.361	1248.75
444.568	1183.21
444.774	1230.32
444.981	1121.77
445.187	1381.87
445.394	1340.91
445.6	1383.91
445.807	1486.31
446.013	1490.41
446.22	1500.65
446.426	1549.8
446.633	1744.36
446.839	1891.81
447.046	1615.34
447.252	1963.49
447.459	1857
447.665	1975.78
447.871	2100.7
448.078	2258.4
448.284	2213.34
448.491	2332.12
448.697	2319.84
448.903	2584.02
449.11	2604.5
449.316	2592.22
449.522	2799.06
449.728	2758.1
449.935	2823.64
450.141	2909.65
450.347	3188.18
450.553	3208.66
450.76	3116.5
450.966	3413.45
451.172	3452.36
451.378	3589.58
451.584	3610.06
451.791	4023.75
451.997	3982.79
452.203	4101.57
452.409	4263.36
452.615	4480.44
452.821	4355.52
453.027	4427.2
453.233	5064.11
453.44	4844.98
453.646	4994.48
453.852	5316.01
454.058	5680.55
454.264	5633.45
454.47	6090.15
454.676	6006.18
454.882	6831.51
455.088	6501.79
455.294	6763.93
455.5	7148.95
455.705	7665.04
455.911	7499.15
456.117	7683.47
456.323	8230.27
456.529	8029.57
456.735	8641.92
456.941	8977.78
457.147	9487.73
457.352	9463.15
457.558	9917.8
457.764	10409.31
457.97	10855.77
458.176	11253.08
458.381	11634
458.587	11914.57
458.793	12350.79
458.999	12817.72
459.204	14142.76
459.41	14327.08
459.616	14290.21
459.821	15240.47
460.027	15881.49
460.233	16454.92
460.438	16862.46
460.644	17753.33
460.85	17904.88
461.055	18588.9
461.261	19434.71
461.466	18937.06
461.672	19350.74
461.878	21605.56
462.083	21114.05
462.289	22074.54
462.494	22463.66
462.7	22744.23
462.905	23061.66
463.111	25177.22
463.316	26346.61
463.522	26948.71
463.727	27653.21
463.932	29076.55
464.138	29656.12
464.343	30821.42
464.549	30938.15
464.754	33025.03
464.959	33977.34
465.165	34575.34
465.37	34753.52
465.575	34149.37
465.781	36643.79
465.986	37739.46
466.191	37139.4
466.397	37395.4
466.602	36639.7
466.807	38757.3
467.012	39379.88
467.218	40057.76
467.423	39916.45
467.628	41606.02
467.833	43465.58
468.038	42419.06
468.244	42120.06
468.449	43940.71
468.654	43139.95
