Data from USB4F104151__210__11-05-45-329.txt Node

Date: Wed Feb 26 11:05:45 EST 2025
User: louis
Spectrometer: USB4F10415
Trigger mode: 4
Integration Time (sec): 1.000000E-1
Scans to average: 1
Electric dark correction enabled: true
Nonlinearity correction enabled: false
Boxcar width: 0
XAxis mode: Wavelengths
Number of Pixels in Spectrum: 3648
>>>>>Begin Spectral Data<<<<<
178.204	-443.56
178.424	-443.56
178.644	-443.56
178.864	-416.93
179.084	-371.88
179.304	0.85
179.524	-29.87
179.744	66.39
179.964	47.96
180.184	58.2
180.404	2.9
180.624	17.24
180.844	-13.48
181.064	-115.88
181.283	37.72
181.503	-83.11
181.723	11.09
181.943	-44.2
182.163	136.02
182.383	-13.48
182.602	123.73
182.822	72.53
183.042	90.96
183.262	-48.3
183.482	-19.63
183.701	56.15
183.921	76.63
184.141	-1.19
184.361	60.24
184.58	4.95
184.8	82.77
185.02	31.57
185.239	82.77
185.459	72.53
185.679	168.79
185.898	-33.96
186.118	52.05
186.338	-27.82
186.557	136.02
186.777	-119.98
186.997	-36.01
187.216	19.29
187.436	142.16
187.655	95.06
187.875	117.59
188.095	43.86
188.314	199.51
188.534	152.4
188.753	29.52
188.973	125.78
189.192	150.36
189.412	13.14
189.631	86.87
189.851	60.24
190.07	95.06
190.29	-9.39
190.509	9.05
190.729	50
190.948	142.16
191.168	232.27
191.387	86.87
191.607	90.96
191.826	144.21
192.045	107.35
192.265	13.14
192.484	52.05
192.704	27.48
192.923	-33.96
193.142	232.27
193.362	129.88
193.581	185.17
193.8	39.76
194.02	129.88
194.239	2.9
194.458	13.14
194.678	56.15
194.897	66.39
195.116	54.1
195.335	131.92
195.555	64.34
195.774	70.48
195.993	64.34
196.212	76.63
196.432	-1.19
196.651	19.29
196.87	21.33
197.089	277.33
197.308	21.33
197.528	119.64
197.747	17.24
197.966	90.96
198.185	185.17
198.404	-29.87
198.623	111.44
198.842	158.55
199.062	133.97
199.281	133.97
199.5	95.06
199.719	152.4
199.938	90.96
200.157	107.35
200.376	50
200.595	117.59
200.814	35.67
201.033	13.14
201.252	181.07
201.471	41.81
201.69	82.77
201.909	11.09
202.128	86.87
202.347	88.92
202.566	68.44
202.785	-64.68
203.004	23.38
203.223	310.1
203.442	56.15
203.661	-36.01
203.879	93.01
204.098	123.73
204.317	-48.3
204.536	117.59
204.755	105.3
204.974	43.86
205.193	19.29
205.411	168.79
205.63	105.3
205.849	93.01
206.068	45.91
206.287	41.81
206.505	181.07
206.724	52.05
206.943	-29.87
207.162	-13.48
207.381	-7.34
207.599	80.72
207.818	58.2
208.037	-19.63
208.255	88.92
208.474	68.44
208.693	72.53
208.911	-5.29
209.13	50
209.349	31.57
209.567	193.36
209.786	201.55
210.005	121.68
210.223	45.91
210.442	-97.45
210.661	0.85
210.879	66.39
211.098	93.01
211.316	80.72
211.535	82.77
211.753	54.1
211.972	43.86
212.191	-7.34
212.409	-25.77
212.628	140.12
212.846	41.81
213.065	93.01
213.283	84.82
213.502	29.52
213.72	166.74
213.938	23.38
214.157	-36.01
214.375	144.21
214.594	-13.48
214.812	95.06
215.031	84.82
215.249	9.05
215.467	29.52
215.686	78.68
215.904	76.63
216.122	31.57
216.341	148.31
216.559	56.15
216.778	201.55
216.996	133.97
217.214	35.67
217.432	-15.53
217.651	-52.39
217.869	101.2
218.087	25.43
218.306	2.9
218.524	33.62
218.742	41.81
218.96	70.48
219.179	-23.72
219.397	105.3
219.615	285.52
219.833	95.06
220.051	-40.11
220.27	101.2
220.488	121.68
220.706	105.3
220.924	2.9
221.142	76.63
221.36	144.21
221.578	99.16
221.796	43.86
222.015	121.68
222.233	138.07
222.451	160.59
222.669	0.85
222.887	105.3
223.105	-62.63
223.323	9.05
223.541	39.76
223.759	136.02
223.977	9.05
224.195	129.88
224.413	142.16
224.631	125.78
224.849	29.52
225.067	236.37
225.285	-25.77
225.503	154.45
225.721	-91.31
225.939	62.29
226.157	47.96
226.375	195.41
226.592	-56.49
226.81	41.81
227.028	121.68
227.246	168.79
227.464	138.07
227.682	90.96
227.9	84.82
228.117	70.48
228.335	133.97
228.553	82.77
228.771	-33.96
228.989	39.76
229.206	117.59
229.424	54.1
229.642	2.9
229.86	-36.01
230.077	144.21
230.295	17.24
230.513	95.06
230.731	72.53
230.948	258.9
231.166	113.49
231.384	2.9
231.601	41.81
231.819	148.31
232.037	25.43
232.254	-13.48
232.472	25.43
232.689	13.14
232.907	117.59
233.125	13.14
233.342	-111.78
233.56	33.62
233.777	-38.06
233.995	111.44
234.213	117.59
234.43	82.77
234.648	35.67
234.865	-5.29
235.083	31.57
235.3	58.2
235.518	7
235.735	111.44
235.953	158.55
236.17	25.43
236.388	-40.11
236.605	76.63
236.822	93.01
237.04	29.52
237.257	80.72
237.475	-3.24
237.692	-9.39
237.909	142.16
238.127	33.62
238.344	93.01
238.562	103.25
238.779	7
238.996	29.52
239.214	41.81
239.431	33.62
239.648	-62.63
239.865	90.96
240.083	45.91
240.3	-3.24
240.517	-23.72
240.735	17.24
240.952	142.16
241.169	80.72
241.386	95.06
241.603	52.05
241.821	-48.3
242.038	-15.53
242.255	125.78
242.472	-68.78
242.689	97.11
242.907	150.36
243.124	78.68
243.341	-13.48
243.558	4.95
243.775	-48.3
243.992	-66.73
244.209	88.92
244.426	205.65
244.643	21.33
244.86	17.24
245.078	172.88
245.295	54.1
245.512	-40.11
245.729	43.86
245.946	136.02
246.163	2.9
246.38	19.29
246.597	41.81
246.814	27.48
247.031	-27.82
247.248	-29.87
247.464	35.67
247.681	119.64
247.898	41.81
248.115	54.1
248.332	-7.34
248.549	117.59
248.766	119.64
248.983	113.49
249.2	37.72
249.417	78.68
249.633	35.67
249.85	74.58
250.067	70.48
250.284	7
250.501	15.19
250.717	68.44
250.934	15.19
251.151	21.33
251.368	123.73
251.585	45.91
251.801	64.34
252.018	13.14
252.235	117.59
252.451	29.52
252.668	-7.34
252.885	95.06
253.102	-23.72
253.318	-17.58
253.535	0.85
253.752	68.44
253.968	2.9
254.185	-48.3
254.401	97.11
254.618	64.34
254.835	-5.29
255.051	58.2
255.268	90.96
255.484	105.3
255.701	25.43
255.917	84.82
256.134	23.38
256.351	66.39
256.567	-42.15
256.784	99.16
257	4.95
257.217	125.78
257.433	86.87
257.65	25.43
257.866	101.2
258.082	-23.72
258.299	58.2
258.515	58.2
258.732	-15.53
258.948	41.81
259.165	45.91
259.381	27.48
259.597	23.38
259.814	64.34
260.03	21.33
260.246	15.19
260.463	127.83
260.679	86.87
260.895	41.81
261.112	41.81
261.328	54.1
261.544	-23.72
261.761	170.83
261.977	47.96
262.193	37.72
262.409	74.58
262.626	66.39
262.842	82.77
263.058	60.24
263.274	99.16
263.49	80.72
263.707	109.4
263.923	72.53
264.139	-122.02
264.355	58.2
264.571	170.83
264.787	99.16
265.004	150.36
265.22	-21.67
265.436	113.49
265.652	21.33
265.868	66.39
266.084	-17.58
266.3	52.05
266.516	-19.63
266.732	29.52
266.948	35.67
267.164	78.68
267.38	-1.19
267.596	11.09
267.812	97.11
268.028	66.39
268.244	13.14
268.46	47.96
268.676	33.62
268.892	27.48
269.108	21.33
269.324	-13.48
269.54	-140.46
269.756	127.83
269.972	-3.24
270.188	9.05
270.403	-76.97
270.619	76.63
270.835	129.88
271.051	66.39
271.267	-5.29
271.483	13.14
271.698	111.44
271.914	52.05
272.13	113.49
272.346	62.29
272.562	31.57
272.777	144.21
272.993	-23.72
273.209	37.72
273.425	103.25
273.64	37.72
273.856	181.07
274.072	-66.73
274.287	13.14
274.503	45.91
274.719	119.64
274.934	15.19
275.15	-134.31
275.366	45.91
275.581	-13.48
275.797	31.57
276.012	35.67
276.228	-15.53
276.444	56.15
276.659	133.97
276.875	4.95
277.09	66.39
277.306	2.9
277.521	29.52
277.737	-79.02
277.952	62.29
278.168	47.96
278.383	86.87
278.599	50
278.814	70.48
279.03	25.43
279.245	80.72
279.461	-5.29
279.676	86.87
279.892	-21.67
280.107	-56.49
280.322	-60.59
280.538	80.72
280.753	27.48
280.969	105.3
281.184	86.87
281.399	176.98
281.615	105.3
281.83	60.24
282.045	64.34
282.26	66.39
282.476	-44.2
282.691	146.26
282.906	35.67
283.122	86.87
283.337	7
283.552	95.06
283.767	-38.06
283.983	119.64
284.198	33.62
284.413	54.1
284.628	37.72
284.843	47.96
285.058	154.45
285.274	19.29
285.489	-70.83
285.704	93.01
285.919	133.97
286.134	7
286.349	11.09
286.564	47.96
286.779	119.64
286.995	21.33
287.21	-107.69
287.425	187.22
287.64	-36.01
287.855	76.63
288.07	-74.92
288.285	113.49
288.5	127.83
288.715	176.98
288.93	0.85
289.145	58.2
289.36	119.64
289.575	-9.39
289.79	144.21
290.004	15.19
290.219	136.02
290.434	-72.87
290.649	4.95
290.864	-9.39
291.079	15.19
291.294	78.68
291.509	72.53
291.724	0.85
291.938	58.2
292.153	101.2
292.368	-1.19
292.583	133.97
292.798	88.92
293.012	86.87
293.227	127.83
293.442	-31.91
293.657	101.2
293.871	133.97
294.086	111.44
294.301	271.19
294.516	146.26
294.73	80.72
294.945	2.9
295.16	66.39
295.374	150.36
295.589	84.82
295.804	-5.29
296.018	78.68
296.233	105.3
296.447	56.15
296.662	-3.24
296.877	70.48
297.091	39.76
297.306	52.05
297.52	-31.91
297.735	80.72
297.949	105.3
298.164	25.43
298.378	33.62
298.593	-25.77
298.807	-25.77
299.022	-7.34
299.236	152.4
299.451	13.14
299.665	62.29
299.88	41.81
300.094	-17.58
300.309	15.19
300.523	43.86
300.737	-25.77
300.952	66.39
301.166	142.16
301.381	13.14
301.595	-27.82
301.809	17.24
302.024	58.2
302.238	62.29
302.452	138.07
302.667	56.15
302.881	129.88
303.095	54.1
303.309	99.16
303.524	41.81
303.738	68.44
303.952	80.72
304.166	58.2
304.381	-56.49
304.595	129.88
304.809	-1.19
305.023	109.4
305.237	45.91
305.452	101.2
305.666	60.24
305.88	127.83
306.094	113.49
306.308	148.31
306.522	156.5
306.736	41.81
306.95	19.29
307.164	41.81
307.379	78.68
307.593	148.31
307.807	78.68
308.021	103.25
308.235	129.88
308.449	-56.49
308.663	84.82
308.877	242.51
309.091	105.3
309.305	88.92
309.519	-40.11
309.733	129.88
309.947	13.14
310.161	64.34
310.374	105.3
310.588	172.88
310.802	33.62
311.016	-9.39
311.23	-3.24
311.444	17.24
311.658	74.58
311.872	170.83
312.085	76.63
312.299	179.03
312.513	93.01
312.727	82.77
312.941	-1.19
313.154	13.14
313.368	90.96
313.582	121.68
313.796	99.16
314.009	-25.77
314.223	107.35
314.437	66.39
314.651	117.59
314.864	99.16
315.078	0.85
315.292	-27.82
315.505	56.15
315.719	156.5
315.933	168.79
316.146	72.53
316.36	-23.72
316.573	234.32
316.787	142.16
317.001	78.68
317.214	58.2
317.428	101.2
317.641	21.33
317.855	-31.91
318.068	187.22
318.282	76.63
318.495	224.08
318.709	64.34
318.922	21.33
319.136	156.5
319.349	142.16
319.563	-11.43
319.776	-15.53
319.99	9.05
320.203	72.53
320.417	105.3
320.63	109.4
320.843	162.64
321.057	39.76
321.27	-21.67
321.483	140.12
321.697	117.59
321.91	66.39
322.124	43.86
322.337	66.39
322.55	-56.49
322.763	33.62
322.977	4.95
323.19	41.81
323.403	50
323.617	31.57
323.83	183.12
324.043	-44.2
324.256	13.14
324.469	-7.34
324.683	144.21
324.896	43.86
325.109	4.95
325.322	17.24
325.535	144.21
325.748	103.25
325.962	-5.29
326.175	41.81
326.388	101.2
326.601	72.53
326.814	15.19
327.027	47.96
327.24	125.78
327.453	-46.25
327.666	31.57
327.879	152.4
328.092	203.6
328.305	58.2
328.518	60.24
328.731	2.9
328.944	76.63
329.157	140.12
329.37	45.91
329.583	172.88
329.796	166.74
330.009	-44.2
330.222	74.58
330.435	129.88
330.648	101.2
330.861	21.33
331.073	66.39
331.286	142.16
331.499	78.68
331.712	-13.48
331.925	29.52
332.138	113.49
332.35	191.31
332.563	-48.3
332.776	199.51
332.989	-15.53
333.202	78.68
333.414	27.48
333.627	23.38
333.84	64.34
334.053	103.25
334.265	-17.58
334.478	-36.01
334.691	43.86
334.903	-42.15
335.116	39.76
335.329	0.85
335.541	74.58
335.754	185.17
335.966	-13.48
336.179	-1.19
336.392	-27.82
336.604	33.62
336.817	119.64
337.029	119.64
337.242	29.52
337.454	7
337.667	41.81
337.88	133.97
338.092	54.1
338.305	76.63
338.517	0.85
338.729	138.07
338.942	119.64
339.154	-46.25
339.367	-1.19
339.579	19.29
339.792	31.57
340.004	13.14
340.217	95.06
340.429	43.86
340.641	-46.25
340.854	-40.11
341.066	39.76
341.278	111.44
341.491	148.31
341.703	127.83
341.915	-21.67
342.128	103.25
342.34	76.63
342.552	-29.87
342.764	17.24
342.977	-9.39
343.189	90.96
343.401	-21.67
343.613	-27.82
343.826	54.1
344.038	21.33
344.25	144.21
344.462	23.38
344.674	113.49
344.886	-40.11
345.099	99.16
345.311	86.87
345.523	31.57
345.735	-138.41
345.947	64.34
346.159	43.86
346.371	-13.48
346.583	31.57
346.795	205.65
347.007	17.24
347.219	50
347.431	37.72
347.643	148.31
347.855	-11.43
348.067	152.4
348.279	13.14
348.491	66.39
348.703	70.48
348.915	-25.77
349.127	-66.73
349.339	66.39
349.551	60.24
349.763	27.48
349.975	-7.34
350.187	148.31
350.399	123.73
350.61	78.68
350.822	0.85
351.034	93.01
351.246	41.81
351.458	21.33
351.669	39.76
351.881	109.4
352.093	150.36
352.305	172.88
352.517	4.95
352.728	78.68
352.94	19.29
353.152	103.25
353.363	39.76
353.575	72.53
353.787	248.66
353.999	39.76
354.21	306
354.422	-11.43
354.633	11.09
354.845	17.24
355.057	99.16
355.268	62.29
355.48	107.35
355.692	-40.11
355.903	109.4
356.115	-40.11
356.326	-72.87
356.538	168.79
356.749	11.09
356.961	189.27
357.172	90.96
357.384	-5.29
357.595	154.45
357.807	-48.3
358.018	17.24
358.23	27.48
358.441	80.72
358.653	125.78
358.864	95.06
359.075	2.9
359.287	90.96
359.498	111.44
359.709	84.82
359.921	7
360.132	9.05
360.344	82.77
360.555	-31.91
360.766	97.11
360.977	105.3
361.189	72.53
361.4	-23.72
361.611	64.34
361.823	54.1
362.034	23.38
362.245	21.33
362.456	86.87
362.667	111.44
362.879	-38.06
363.09	95.06
363.301	64.34
363.512	136.02
363.723	54.1
363.935	52.05
364.146	27.48
364.357	-13.48
364.568	52.05
364.779	-5.29
364.99	172.88
365.201	60.24
365.412	109.4
365.623	-72.87
365.834	164.69
366.045	84.82
366.256	82.77
366.467	37.72
366.678	-17.58
366.889	54.1
367.1	39.76
367.311	72.53
367.522	-3.24
367.733	111.44
367.944	23.38
368.155	127.83
368.366	129.88
368.577	117.59
368.788	133.97
368.999	2.9
369.209	-19.63
369.42	191.31
369.631	217.94
369.842	142.16
370.053	-3.24
370.264	115.54
370.474	-33.96
370.685	54.1
370.896	74.58
371.107	131.92
371.317	82.77
371.528	74.58
371.739	152.4
371.95	154.45
372.16	-31.91
372.371	-1.19
372.582	0.85
372.792	82.77
373.003	131.92
373.214	31.57
373.424	72.53
373.635	-105.64
373.846	101.2
374.056	15.19
374.267	23.38
374.477	74.58
374.688	-42.15
374.898	99.16
375.109	29.52
375.319	74.58
375.53	105.3
375.74	219.99
375.951	-36.01
376.161	2.9
376.372	162.64
376.582	-42.15
376.793	82.77
377.003	-27.82
377.214	37.72
377.424	-5.29
377.635	43.86
377.845	39.76
378.055	41.81
378.266	21.33
378.476	95.06
378.686	76.63
378.897	29.52
379.107	93.01
379.317	35.67
379.528	-44.2
379.738	70.48
379.948	47.96
380.158	127.83
380.369	-5.29
380.579	88.92
380.789	31.57
380.999	76.63
381.21	125.78
381.42	131.92
381.63	58.2
381.84	150.36
382.05	76.63
382.261	162.64
382.471	164.69
382.681	0.85
382.891	162.64
383.101	148.31
383.311	50
383.521	25.43
383.731	56.15
383.941	129.88
384.151	-17.58
384.361	58.2
384.571	-36.01
384.781	-9.39
384.991	144.21
385.201	174.93
385.411	70.48
385.621	95.06
385.831	113.49
386.041	64.34
386.251	129.88
386.461	148.31
386.671	60.24
386.881	127.83
387.091	0.85
387.301	187.22
387.511	56.15
387.72	90.96
387.93	50
388.14	-19.63
388.35	105.3
388.56	111.44
388.769	148.31
388.979	99.16
389.189	50
389.399	90.96
389.609	107.35
389.818	70.48
390.028	78.68
390.238	103.25
390.447	-126.12
390.657	82.77
390.867	64.34
391.076	-33.96
391.286	66.39
391.496	43.86
391.705	-1.19
391.915	113.49
392.125	72.53
392.334	-17.58
392.544	60.24
392.753	52.05
392.963	35.67
393.172	107.35
393.382	-5.29
393.591	148.31
393.801	25.43
394.01	183.12
394.22	109.4
394.429	47.96
394.639	0.85
394.848	127.83
395.058	133.97
395.267	-27.82
395.477	52.05
395.686	90.96
395.895	160.59
396.105	256.85
396.314	97.11
396.524	72.53
396.733	31.57
396.942	109.4
397.152	107.35
397.361	70.48
397.57	41.81
397.78	60.24
397.989	123.73
398.198	193.36
398.407	-15.53
398.617	35.67
398.826	39.76
399.035	-11.43
399.244	222.03
399.453	82.77
399.663	21.33
399.872	70.48
400.081	-17.58
400.29	158.55
400.499	86.87
400.708	99.16
400.917	45.91
401.127	74.58
401.336	68.44
401.545	234.32
401.754	138.07
401.963	158.55
402.172	72.53
402.381	-15.53
402.59	41.81
402.799	68.44
403.008	58.2
403.217	129.88
403.426	76.63
403.635	-9.39
403.844	82.77
404.053	27.48
404.262	-29.87
404.471	183.12
404.68	90.96
404.888	29.52
405.097	2.9
405.306	47.96
405.515	150.36
405.724	23.38
405.933	115.54
406.142	113.49
406.35	76.63
406.559	11.09
406.768	58.2
406.977	142.16
407.185	107.35
407.394	70.48
407.603	13.14
407.812	60.24
408.02	158.55
408.229	115.54
408.438	35.67
408.646	-9.39
408.855	2.9
409.064	193.36
409.272	-27.82
409.481	107.35
409.69	41.81
409.898	-74.92
410.107	88.92
410.315	72.53
410.524	-13.48
410.733	45.91
410.941	21.33
411.15	117.59
411.358	133.97
411.567	113.49
411.775	82.77
411.984	109.4
412.192	148.31
412.401	19.29
412.609	193.36
412.818	168.79
413.026	60.24
413.234	68.44
413.443	60.24
413.651	15.19
413.86	25.43
414.068	125.78
414.276	185.17
414.485	123.73
414.693	232.27
414.901	140.12
415.11	-27.82
415.318	21.33
415.526	78.68
415.734	66.39
415.943	97.11
416.151	129.88
416.359	-44.2
416.567	47.96
416.776	62.29
416.984	97.11
417.192	203.6
417.4	74.58
417.608	-23.72
417.817	27.48
418.025	66.39
418.233	213.84
418.441	-46.25
418.649	-3.24
418.857	97.11
419.065	164.69
419.273	64.34
419.481	117.59
419.689	31.57
419.897	37.72
420.105	-3.24
420.313	144.21
420.521	160.59
420.729	144.21
420.937	21.33
421.145	-3.24
421.353	86.87
421.561	164.69
421.769	113.49
421.977	11.09
422.185	117.59
422.393	39.76
422.601	150.36
422.809	56.15
423.017	113.49
423.224	97.11
423.432	80.72
423.64	133.97
423.848	181.07
424.056	31.57
424.263	117.59
424.471	29.52
424.679	230.23
424.887	70.48
425.094	150.36
425.302	142.16
425.51	45.91
425.718	133.97
425.925	31.57
426.133	74.58
426.341	187.22
426.548	21.33
426.756	54.1
426.964	183.12
427.171	64.34
427.379	86.87
427.586	86.87
427.794	62.29
428.001	166.74
428.209	95.06
428.417	187.22
428.624	179.03
428.832	99.16
429.039	103.25
429.247	27.48
429.454	123.73
429.662	187.22
429.869	105.3
430.076	136.02
430.284	205.65
430.491	230.23
430.699	244.56
430.906	226.13
431.114	156.5
431.321	187.22
431.528	47.96
431.736	195.41
431.943	199.51
432.15	203.6
432.358	201.55
432.565	295.76
432.772	60.24
432.979	289.62
433.187	45.91
433.394	246.61
433.601	99.16
433.808	248.66
434.016	236.37
434.223	185.17
434.43	205.65
434.637	269.14
434.844	379.73
435.052	246.61
435.259	295.76
435.466	262.99
435.673	213.84
435.88	277.33
436.087	346.96
436.294	310.1
436.501	322.38
436.708	277.33
436.915	283.47
437.122	439.12
437.329	240.47
437.537	336.72
437.743	371.54
437.95	514.89
438.157	432.97
438.364	441.17
438.571	410.45
438.778	418.64
438.985	418.64
439.192	475.98
439.399	422.73
439.606	529.23
439.813	576.33
440.02	695.11
440.227	617.29
440.433	611.15
440.64	488.27
440.847	492.37
441.054	652.11
441.261	770.89
441.467	664.4
441.674	658.25
441.881	715.59
442.088	664.4
442.294	785.23
442.501	848.71
442.708	846.66
442.914	883.53
443.121	895.82
443.328	869.19
443.534	942.92
443.741	934.73
443.948	879.43
444.154	1168.2
444.361	1168.2
444.568	1133.38
444.774	1114.95
444.981	1114.95
445.187	1338.18
445.394	1309.51
445.6	1233.73
445.807	1397.57
446.013	1350.46
446.22	1229.63
446.426	1555.26
446.633	1577.79
446.839	1704.76
447.046	1336.13
447.252	1823.55
447.459	1786.68
447.665	1776.44
447.871	1923.9
448.078	2024.25
448.284	2026.29
448.491	2198.32
448.697	2059.06
448.903	2294.58
449.11	2409.26
449.316	2251.57
449.522	2485.04
449.728	2677.55
449.935	2702.12
450.141	2618.16
450.347	2876.2
450.553	2870.06
450.76	3023.66
450.966	3093.29
451.172	3293.99
451.378	3296.04
451.584	3449.63
451.791	3646.24
451.997	3580.7
452.203	3732.25
452.409	4070.17
452.615	4250.39
452.821	3990.3
453.027	4045.59
453.233	4668.17
453.44	4475.67
453.646	4750.09
453.852	4856.59
454.058	5032.71
454.264	5331.72
454.47	5614.34
454.676	5563.14
454.882	6214.39
455.088	5749.5
455.294	6200.05
455.5	6484.72
455.705	6994.67
455.911	6857.45
456.117	7140.07
456.323	7582.43
456.529	7400.16
456.735	8129.24
456.941	8264.41
457.147	8630.99
457.352	8860.37
457.558	9198.28
457.764	9499.33
457.97	9765.57
458.176	10164.92
458.381	10672.82
458.587	10922.67
458.793	11485.86
458.999	11438.76
459.204	12923.54
459.41	13408.9
459.616	13013.65
459.821	13679.24
460.027	14453.37
460.233	15084.14
460.438	15209.07
460.644	16192.09
460.85	16382.56
461.055	17162.83
461.261	17605.19
461.466	17101.39
461.672	17504.84
461.878	19843.62
462.083	19526.19
462.289	20011.56
462.494	20668.95
462.7	20652.57
462.905	21318.16
463.111	22956.54
463.316	23998.95
463.522	24496.61
463.727	25172.44
463.932	26292.68
464.138	27179.45
464.343	28117.42
464.549	28549.54
464.754	30501.25
464.959	31185.27
465.165	31908.21
465.37	31492.47
465.575	31338.87
465.781	33556.82
465.986	34894.14
466.191	34081.1
466.397	34523.46
466.602	33143.13
466.807	35232.06
467.012	35807.54
467.218	36512.04
467.423	36383.02
467.628	37421.34
467.833	39700.73
468.038	38666.5
468.244	38359.31
468.449	40007.92
468.654	39276.8
468.859	38932.74
