Data from USB4F104151__68__10-44-00-573.txt Node

Date: Wed Feb 26 10:44:00 EST 2025
User: louis
Spectrometer: USB4F10415
Trigger mode: 4
Integration Time (sec): 1.000000E-1
Scans to average: 1
Electric dark correction enabled: true
Nonlinearity correction enabled: false
Boxcar width: 0
XAxis mode: Wavelengths
Number of Pixels in Spectrum: 3648
>>>>>Begin Spectral Data<<<<<
178.204	-334.16
178.424	-334.16
178.644	-334.16
178.864	-397.65
179.084	-358.74
179.304	75.43
179.524	-35.16
179.744	5.8
179.964	30.38
180.184	5.8
180.404	11.95
180.624	-6.49
180.844	9.9
181.064	-69.97
181.283	-16.73
181.503	-63.83
181.723	52.91
181.943	-74.07
182.163	163.5
182.383	-16.73
182.602	95.91
182.822	93.87
183.042	44.71
183.262	-20.82
183.482	20.14
183.701	22.19
183.921	59.05
184.141	9.9
184.361	73.39
184.58	54.95
184.8	116.39
185.02	-26.96
185.239	112.3
185.459	87.72
185.679	128.68
185.898	-147.8
186.118	13.99
186.338	34.47
186.557	120.49
186.777	5.8
186.997	83.63
187.216	32.43
187.436	95.91
187.655	-35.16
187.875	85.67
188.095	-24.92
188.314	50.86
188.534	50.86
188.753	-49.49
188.973	63.15
189.192	108.2
189.412	-35.16
189.631	50.86
189.851	24.23
190.07	85.67
190.29	-14.68
190.509	-18.77
190.729	-35.16
190.948	132.78
191.168	233.13
191.387	87.72
191.607	57
191.826	61.1
192.045	1.71
192.265	-65.88
192.484	165.54
192.704	-10.58
192.923	-74.07
193.142	186.02
193.362	104.11
193.581	89.77
193.8	16.04
194.02	67.24
194.239	95.91
194.458	5.8
194.678	36.52
194.897	-6.49
195.116	57
195.335	46.76
195.555	3.75
195.774	-6.49
195.993	132.78
196.212	42.67
196.432	-49.49
196.651	-47.44
196.87	77.48
197.089	190.12
197.308	48.81
197.528	122.54
197.747	-61.78
197.966	20.14
198.185	122.54
198.404	-24.92
198.623	100.01
198.842	83.63
199.062	42.67
199.281	120.49
199.5	108.2
199.719	63.15
199.938	3.75
200.157	54.95
200.376	91.82
200.595	42.67
200.814	116.39
201.033	16.04
201.252	124.58
201.471	65.19
201.69	79.53
201.909	100.01
202.128	147.11
202.347	75.43
202.566	28.33
202.785	-55.64
203.004	-20.82
203.223	247.46
203.442	54.95
203.661	-43.35
203.879	85.67
204.098	140.97
204.317	-57.68
204.536	71.34
204.755	61.1
204.974	140.97
205.193	-47.44
205.411	155.3
205.63	85.67
205.849	106.15
206.068	-2.39
206.287	-8.53
206.505	110.25
206.724	-29.01
206.943	18.09
207.162	-6.49
207.381	40.62
207.599	32.43
207.818	50.86
208.037	-49.49
208.255	108.2
208.474	87.72
208.693	-33.11
208.911	18.09
209.13	7.85
209.349	63.15
209.567	112.3
209.786	87.72
210.005	77.48
210.223	-22.87
210.442	-74.07
210.661	63.15
210.879	87.72
211.098	65.19
211.316	22.19
211.535	136.87
211.753	46.76
211.972	40.62
212.191	-10.58
212.409	1.71
212.628	112.3
212.846	-4.44
213.065	69.29
213.283	116.39
213.502	52.91
213.72	-4.44
213.938	-43.35
214.157	38.57
214.375	52.91
214.594	-4.44
214.812	63.15
215.031	77.48
215.249	-10.58
215.467	28.33
215.686	54.95
215.904	85.67
216.122	61.1
216.341	239.27
216.559	-31.06
216.778	140.97
216.996	132.78
217.214	-2.39
217.432	-26.96
217.651	-29.01
217.869	167.59
218.087	-4.44
218.306	-92.5
218.524	40.62
218.742	-2.39
218.96	79.53
219.179	-37.2
219.397	-12.63
219.615	179.88
219.833	73.39
220.051	-0.34
220.27	147.11
220.488	140.97
220.706	75.43
220.924	32.43
221.142	54.95
221.36	30.38
221.578	44.71
221.796	-10.58
222.015	20.14
222.233	67.24
222.451	124.58
222.669	-37.2
222.887	61.1
223.105	22.19
223.323	34.47
223.541	34.47
223.759	50.86
223.977	81.58
224.195	138.92
224.413	114.34
224.631	83.63
224.849	13.99
225.067	288.42
225.285	-14.68
225.503	-26.96
225.721	-135.51
225.939	-35.16
226.157	46.76
226.375	181.93
226.592	26.28
226.81	54.95
227.028	130.73
227.246	175.78
227.464	63.15
227.682	112.3
227.9	81.58
228.117	59.05
228.335	73.39
228.553	44.71
228.771	52.91
228.989	65.19
229.206	110.25
229.424	42.67
229.642	-45.4
229.86	32.43
230.077	93.87
230.295	-10.58
230.513	151.21
230.731	89.77
230.948	151.21
231.166	208.55
231.384	22.19
231.601	7.85
231.819	259.75
232.037	13.99
232.254	-137.56
232.472	-2.39
232.689	18.09
232.907	50.86
233.125	-20.82
233.342	-59.73
233.56	-12.63
233.777	44.71
233.995	-10.58
234.213	177.83
234.43	136.87
234.648	1.71
234.865	16.04
235.083	83.63
235.3	71.34
235.518	32.43
235.735	65.19
235.953	83.63
236.17	63.15
236.388	-8.53
236.605	83.63
236.822	83.63
237.04	157.35
237.257	77.48
237.475	-31.06
237.692	79.53
237.909	-4.44
238.127	-24.92
238.344	75.43
238.562	67.24
238.779	-84.31
238.996	-39.25
239.214	71.34
239.431	65.19
239.648	-55.64
239.865	-8.53
240.083	116.39
240.3	-65.88
240.517	-80.21
240.735	79.53
240.952	59.05
241.169	40.62
241.386	102.06
241.603	-39.25
241.821	-51.54
242.038	71.34
242.255	28.33
242.472	-45.4
242.689	65.19
242.907	106.15
243.124	50.86
243.341	104.11
243.558	44.71
243.775	-29.01
243.992	-55.64
244.209	89.77
244.426	124.58
244.643	67.24
244.86	22.19
245.078	65.19
245.295	89.77
245.512	16.04
245.729	-100.69
245.946	79.53
246.163	69.29
246.38	9.9
246.597	-59.73
246.814	116.39
247.031	-29.01
247.248	44.71
247.464	52.91
247.681	34.47
247.898	-2.39
248.115	-20.82
248.332	-43.35
248.549	151.21
248.766	112.3
248.983	122.54
249.2	97.96
249.417	89.77
249.633	-26.96
249.85	102.06
250.067	20.14
250.284	67.24
250.501	81.58
250.717	71.34
250.934	-41.3
251.151	67.24
251.368	81.58
251.585	-6.49
251.801	42.67
252.018	18.09
252.235	85.67
252.451	-82.26
252.668	26.28
252.885	114.34
253.102	46.76
253.318	61.1
253.535	-33.11
253.752	18.09
253.968	36.52
254.185	-53.59
254.401	57
254.618	59.05
254.835	-0.34
255.051	124.58
255.268	50.86
255.484	48.81
255.701	38.57
255.917	38.57
256.134	-65.88
256.351	-18.77
256.567	-2.39
256.784	-61.78
257	-153.94
257.217	11.95
257.433	102.06
257.65	7.85
257.866	132.78
258.082	-65.88
258.299	-24.92
258.515	61.1
258.732	-61.78
258.948	-45.4
259.165	57
259.381	-98.64
259.597	40.62
259.814	-57.68
260.03	-47.44
260.246	32.43
260.463	100.01
260.679	155.3
260.895	3.75
261.112	93.87
261.328	-45.4
261.544	-20.82
261.761	231.08
261.977	-39.25
262.193	-115.03
262.409	149.16
262.626	57
262.842	32.43
263.058	32.43
263.274	57
263.49	46.76
263.707	116.39
263.923	102.06
264.139	-37.2
264.355	73.39
264.571	18.09
264.787	26.28
265.004	106.15
265.22	40.62
265.436	-59.73
265.652	7.85
265.868	57
266.084	-94.55
266.3	83.63
266.516	-20.82
266.732	-14.68
266.948	67.24
267.164	-24.92
267.38	85.67
267.596	73.39
267.812	122.54
268.028	1.71
268.244	50.86
268.46	54.95
268.676	30.38
268.892	32.43
269.108	-26.96
269.324	-41.3
269.54	63.15
269.756	61.1
269.972	-55.64
270.188	67.24
270.403	-22.87
270.619	50.86
270.835	85.67
271.051	-4.44
271.267	-8.53
271.483	-112.98
271.698	81.58
271.914	87.72
272.13	46.76
272.346	-45.4
272.562	73.39
272.777	87.72
272.993	18.09
273.209	-22.87
273.425	28.33
273.64	5.8
273.856	-10.58
274.072	11.95
274.287	-0.34
274.503	59.05
274.719	3.75
274.934	-14.68
275.15	-98.64
275.366	-2.39
275.581	-4.44
275.797	67.24
276.012	32.43
276.228	30.38
276.444	63.15
276.659	128.68
276.875	-74.07
277.09	-16.73
277.306	-26.96
277.521	108.2
277.737	112.3
277.952	75.43
278.168	54.95
278.383	79.53
278.599	36.52
278.814	11.95
279.03	46.76
279.245	155.3
279.461	52.91
279.676	177.83
279.892	-55.64
280.107	26.28
280.322	-29.01
280.538	40.62
280.753	9.9
280.969	112.3
281.184	3.75
281.399	147.11
281.615	-24.92
281.83	65.19
282.045	-18.77
282.26	22.19
282.476	50.86
282.691	140.97
282.906	38.57
283.122	30.38
283.337	1.71
283.552	85.67
283.767	34.47
283.983	79.53
284.198	7.85
284.413	-18.77
284.628	-84.31
284.843	26.28
285.058	116.39
285.274	-8.53
285.489	-16.73
285.704	73.39
285.919	11.95
286.134	-76.12
286.349	54.95
286.564	-12.63
286.779	87.72
286.995	63.15
287.21	65.19
287.425	46.76
287.64	9.9
287.855	42.67
288.07	1.71
288.285	83.63
288.5	89.77
288.715	108.2
288.93	30.38
289.145	-8.53
289.36	108.2
289.575	46.76
289.79	159.4
290.004	20.14
290.219	34.47
290.434	-16.73
290.649	59.05
290.864	-90.45
291.079	9.9
291.294	34.47
291.509	124.58
291.724	-37.2
291.938	22.19
292.153	65.19
292.368	7.85
292.583	124.58
292.798	28.33
293.012	128.68
293.227	85.67
293.442	-45.4
293.657	149.16
293.871	116.39
294.086	16.04
294.301	157.35
294.516	108.2
294.73	-8.53
294.945	-45.4
295.16	36.52
295.374	147.11
295.589	116.39
295.804	-10.58
296.018	20.14
296.233	95.91
296.447	24.23
296.662	-31.06
296.877	79.53
297.091	91.82
297.306	18.09
297.52	5.8
297.735	50.86
297.949	18.09
298.164	50.86
298.378	-10.58
298.593	-31.06
298.807	-24.92
299.022	134.82
299.236	181.93
299.451	-53.59
299.665	11.95
299.88	-72.02
300.094	18.09
300.309	42.67
300.523	100.01
300.737	-4.44
300.952	52.91
301.166	79.53
301.381	-6.49
301.595	46.76
301.809	36.52
302.024	-14.68
302.238	-22.87
302.452	83.63
302.667	11.95
302.881	116.39
303.095	155.3
303.309	87.72
303.524	48.81
303.738	38.57
303.952	28.33
304.166	110.25
304.381	-80.21
304.595	67.24
304.809	-8.53
305.023	112.3
305.237	-35.16
305.452	7.85
305.666	65.19
305.88	100.01
306.094	85.67
306.308	75.43
306.522	151.21
306.736	-10.58
306.95	61.1
307.164	-39.25
307.379	-0.34
307.593	91.82
307.807	40.62
308.021	69.29
308.235	16.04
308.449	7.85
308.663	30.38
308.877	196.26
309.091	120.49
309.305	71.34
309.519	-65.88
309.733	147.11
309.947	-35.16
310.161	161.45
310.374	48.81
310.588	97.96
310.802	-2.39
311.016	48.81
311.23	89.77
311.444	-51.54
311.658	44.71
311.872	132.78
312.085	87.72
312.299	145.06
312.513	118.44
312.727	16.04
312.941	-0.34
313.154	85.67
313.368	32.43
313.582	-22.87
313.796	-16.73
314.009	-51.54
314.223	120.49
314.437	-31.06
314.651	93.87
314.864	20.14
315.078	-39.25
315.292	-10.58
315.505	-20.82
315.719	140.97
315.933	34.47
316.146	-74.07
316.36	-12.63
316.573	116.39
316.787	65.19
317.001	50.86
317.214	-37.2
317.428	-2.39
317.641	-59.73
317.855	30.38
318.068	20.14
318.282	91.82
318.495	143.02
318.709	59.05
318.922	9.9
319.136	163.5
319.349	110.25
319.563	38.57
319.776	50.86
319.99	-86.36
320.203	130.73
320.417	69.29
320.63	83.63
320.843	89.77
321.057	79.53
321.27	54.95
321.483	81.58
321.697	118.44
321.91	143.02
322.124	28.33
322.337	65.19
322.55	54.95
322.763	36.52
322.977	-53.59
323.19	-33.11
323.403	73.39
323.617	108.2
323.83	97.96
324.043	20.14
324.256	-63.83
324.469	-2.39
324.683	95.91
324.896	42.67
325.109	1.71
325.322	-45.4
325.535	24.23
325.748	138.92
325.962	38.57
326.175	50.86
326.388	87.72
326.601	130.73
326.814	30.38
327.027	22.19
327.24	106.15
327.453	-47.44
327.666	77.48
327.879	120.49
328.092	34.47
328.305	46.76
328.518	-37.2
328.731	36.52
328.944	28.33
329.157	50.86
329.37	95.91
329.583	110.25
329.796	190.12
330.009	-153.94
330.222	69.29
330.435	132.78
330.648	59.05
330.861	42.67
331.073	-8.53
331.286	157.35
331.499	1.71
331.712	-16.73
331.925	11.95
332.138	28.33
332.35	79.53
332.563	-26.96
332.776	93.87
332.989	-8.53
333.202	108.2
333.414	26.28
333.627	5.8
333.84	-4.44
334.053	110.25
334.265	5.8
334.478	-16.73
334.691	61.1
334.903	59.05
335.116	22.19
335.329	-10.58
335.541	69.29
335.754	165.54
335.966	-84.31
336.179	13.99
336.392	11.95
336.604	-0.34
336.817	118.44
337.029	48.81
337.242	54.95
337.454	1.71
337.667	-18.77
337.88	171.69
338.092	50.86
338.305	87.72
338.517	-53.59
338.729	112.3
338.942	138.92
339.154	16.04
339.367	-2.39
339.579	40.62
339.792	-31.06
340.004	91.82
340.217	24.23
340.429	91.82
340.641	38.57
340.854	-80.21
341.066	120.49
341.278	59.05
341.491	196.26
341.703	40.62
341.915	-29.01
342.128	118.44
342.34	57
342.552	16.04
342.764	67.24
342.977	11.95
343.189	89.77
343.401	50.86
343.613	-61.78
343.826	57
344.038	-65.88
344.25	-6.49
344.462	3.75
344.674	30.38
344.886	20.14
345.099	11.95
345.311	9.9
345.523	-14.68
345.735	-104.79
345.947	7.85
346.159	42.67
346.371	108.2
346.583	26.28
346.795	218.79
347.007	-6.49
347.219	59.05
347.431	38.57
347.643	83.63
347.855	16.04
348.067	97.96
348.279	-39.25
348.491	40.62
348.703	71.34
348.915	20.14
349.127	-4.44
349.339	83.63
349.551	-45.4
349.763	108.2
349.975	65.19
350.187	46.76
350.399	108.2
350.61	134.82
350.822	-20.82
351.034	95.91
351.246	57
351.458	112.3
351.669	120.49
351.881	128.68
352.093	89.77
352.305	122.54
352.517	16.04
352.728	87.72
352.94	65.19
353.152	54.95
353.363	-14.68
353.575	77.48
353.787	192.17
353.999	130.73
354.21	132.78
354.422	-112.98
354.633	-10.58
354.845	-8.53
355.057	34.47
355.268	-8.53
355.48	67.24
355.692	-41.3
355.903	40.62
356.115	-98.64
356.326	-90.45
356.538	145.06
356.749	22.19
356.961	192.17
357.172	50.86
357.384	-16.73
357.595	247.46
357.807	-55.64
358.018	-24.92
358.23	1.71
358.441	145.06
358.653	83.63
358.864	-2.39
359.075	48.81
359.287	36.52
359.498	134.82
359.709	83.63
359.921	57
360.132	77.48
360.344	34.47
360.555	85.67
360.766	140.97
360.977	-14.68
361.189	85.67
361.4	57
361.611	69.29
361.823	42.67
362.034	54.95
362.245	-49.49
362.456	67.24
362.667	102.06
362.879	-65.88
363.09	13.99
363.301	3.75
363.512	18.09
363.723	-16.73
363.935	-29.01
364.146	112.3
364.357	-8.53
364.568	87.72
364.779	-110.93
364.99	128.68
365.201	-41.3
365.412	89.77
365.623	-72.02
365.834	11.95
366.045	67.24
366.256	83.63
366.467	81.58
366.678	-22.87
366.889	26.28
367.1	-33.11
367.311	106.15
367.522	13.99
367.733	97.96
367.944	122.54
368.155	30.38
368.366	114.34
368.577	149.16
368.788	36.52
368.999	-10.58
369.209	-20.82
369.42	188.07
369.631	214.7
369.842	110.25
370.053	32.43
370.264	54.95
370.474	3.75
370.685	48.81
370.896	28.33
371.107	89.77
371.317	87.72
371.528	16.04
371.739	163.5
371.95	112.3
372.16	112.3
372.371	-20.82
372.582	48.81
372.792	93.87
373.003	65.19
373.214	34.47
373.424	140.97
373.635	11.95
373.846	147.11
374.056	11.95
374.267	52.91
374.477	5.8
374.688	22.19
374.898	26.28
375.109	65.19
375.319	79.53
375.53	112.3
375.74	116.39
375.951	7.85
376.161	-2.39
376.372	42.67
376.582	-47.44
376.793	79.53
377.003	-31.06
377.214	-63.83
377.424	87.72
377.635	20.14
377.845	-10.58
378.055	132.78
378.266	5.8
378.476	71.34
378.686	91.82
378.897	30.38
379.107	13.99
379.317	40.62
379.528	-20.82
379.738	120.49
379.948	-84.31
380.158	69.29
380.369	44.71
380.579	106.15
380.789	32.43
380.999	71.34
381.21	61.1
381.42	183.98
381.63	40.62
381.84	73.39
382.05	42.67
382.261	151.21
382.471	124.58
382.681	1.71
382.891	143.02
383.101	83.63
383.311	-80.21
383.521	11.95
383.731	50.86
383.941	136.87
384.151	85.67
384.361	-8.53
384.571	9.9
384.781	20.14
384.991	126.63
385.201	149.16
385.411	73.39
385.621	122.54
385.831	44.71
386.041	-16.73
386.251	28.33
386.461	85.67
386.671	130.73
386.881	61.1
387.091	42.67
387.301	61.1
387.511	38.57
387.72	126.63
387.93	77.48
388.14	-121.17
388.35	52.91
388.56	157.35
388.769	89.77
388.979	75.43
389.189	69.29
389.399	75.43
389.609	59.05
389.818	95.91
390.028	-16.73
390.238	93.87
390.447	-57.68
390.657	163.5
390.867	38.57
391.076	-8.53
391.286	106.15
391.496	36.52
391.705	40.62
391.915	95.91
392.125	108.2
392.334	-18.77
392.544	110.25
392.753	110.25
392.963	-4.44
393.172	116.39
393.382	-12.63
393.591	163.5
393.801	22.19
394.01	89.77
394.22	40.62
394.429	54.95
394.639	-24.92
394.848	116.39
395.058	44.71
395.267	-35.16
395.477	93.87
395.686	73.39
395.895	202.41
396.105	208.55
396.314	95.91
396.524	48.81
396.733	20.14
396.942	73.39
397.152	104.11
397.361	102.06
397.57	128.68
397.78	85.67
397.989	91.82
398.198	171.69
398.407	46.76
398.617	106.15
398.826	18.09
399.035	30.38
399.244	77.48
399.453	67.24
399.663	26.28
399.872	28.33
400.081	-14.68
400.29	91.82
400.499	-16.73
400.708	155.3
400.917	59.05
401.127	-2.39
401.336	-35.16
401.545	145.06
401.754	153.26
401.963	79.53
402.172	95.91
402.381	-39.25
402.59	69.29
402.799	91.82
403.008	52.91
403.217	75.43
403.426	112.3
403.635	-69.97
403.844	40.62
404.053	52.91
404.262	30.38
404.471	155.3
404.68	59.05
404.888	32.43
405.097	-2.39
405.306	67.24
405.515	50.86
405.724	36.52
405.933	79.53
406.142	81.58
406.35	102.06
406.559	-47.44
406.768	42.67
406.977	118.44
407.185	102.06
407.394	116.39
407.603	-53.59
407.812	67.24
408.02	77.48
408.229	77.48
408.438	67.24
408.646	-12.63
408.855	26.28
409.064	26.28
409.272	54.95
409.481	75.43
409.69	-37.2
409.898	24.23
410.107	38.57
410.315	50.86
410.524	-6.49
410.733	63.15
410.941	28.33
411.15	147.11
411.358	136.87
411.567	136.87
411.775	18.09
411.984	71.34
412.192	79.53
412.401	-55.64
412.609	210.6
412.818	196.26
413.026	30.38
413.234	7.85
413.443	149.16
413.651	7.85
413.86	126.63
414.068	116.39
414.276	175.78
414.485	75.43
414.693	186.02
414.901	138.92
415.11	-39.25
415.318	145.06
415.526	48.81
415.734	89.77
415.943	89.77
416.151	147.11
416.359	28.33
416.567	44.71
416.776	38.57
416.984	126.63
417.192	179.88
417.4	48.81
417.608	-45.4
417.817	-41.3
418.025	57
418.233	118.44
418.441	34.47
418.649	-33.11
418.857	120.49
419.065	165.54
419.273	95.91
419.481	59.05
419.689	85.67
419.897	7.85
420.105	-98.64
420.313	151.21
420.521	179.88
420.729	153.26
420.937	54.95
421.145	-49.49
421.353	97.96
421.561	134.82
421.769	71.34
421.977	9.9
422.185	153.26
422.393	-16.73
422.601	108.2
422.809	40.62
423.017	28.33
423.224	91.82
423.432	91.82
423.64	50.86
423.848	122.54
424.056	34.47
424.263	97.96
424.471	28.33
424.679	124.58
424.887	-8.53
425.094	81.58
425.302	100.01
425.51	104.11
425.718	104.11
425.925	9.9
426.133	11.95
426.341	235.18
426.548	-8.53
426.756	85.67
426.964	77.48
427.171	30.38
427.379	26.28
427.586	108.2
427.794	57
428.001	93.87
428.209	124.58
428.417	112.3
428.624	110.25
428.832	91.82
429.039	95.91
429.247	71.34
429.454	104.11
429.662	274.09
429.869	132.78
430.076	36.52
430.284	112.3
430.491	239.27
430.699	169.64
430.906	226.98
431.114	118.44
431.321	128.68
431.528	181.93
431.736	145.06
431.943	149.16
432.15	124.58
432.358	259.75
432.565	233.13
432.772	63.15
432.979	159.4
433.187	57
433.394	249.51
433.601	112.3
433.808	251.56
434.016	165.54
434.223	245.41
434.43	181.93
434.637	245.41
434.844	190.12
435.052	173.74
435.259	165.54
435.466	231.08
435.673	255.65
435.88	304.81
436.087	239.27
436.294	286.37
436.501	272.04
436.708	233.13
436.915	284.33
437.122	358.05
437.329	276.13
437.537	269.99
437.743	308.9
437.95	394.92
438.157	306.85
438.364	378.53
438.571	319.14
438.778	364.2
438.985	456.36
439.192	392.87
439.399	450.21
439.606	419.49
439.813	464.55
440.02	581.28
440.227	609.95
440.433	530.08
440.64	487.08
440.847	450.21
441.054	509.6
441.261	712.35
441.467	513.7
441.674	505.51
441.881	614.05
442.088	609.95
442.294	685.73
442.501	700.06
442.708	677.54
442.914	763.55
443.121	845.47
443.328	771.74
443.534	935.58
443.741	734.88
443.948	745.12
444.154	835.23
444.361	986.78
444.568	988.83
444.774	915.1
444.981	915.1
445.187	1138.33
445.394	1015.45
445.6	1107.61
445.807	1216.15
446.013	1142.43
446.22	1195.67
446.426	1394.33
446.633	1420.95
446.839	1570.45
447.046	1238.68
447.252	1580.69
447.459	1556.11
447.665	1494.68
447.871	1619.6
448.078	1810.06
448.284	1834.64
448.491	1863.31
448.697	1873.55
448.903	1939.09
449.11	1984.14
449.316	2027.15
449.522	2188.94
449.728	2305.67
449.935	2356.87
450.141	2324.1
450.347	2446.98
450.553	2465.41
450.76	2578.05
450.966	2623.11
451.172	2754.18
451.378	2784.9
451.584	2940.54
451.791	3094.14
451.997	3180.15
452.203	3313.27
452.409	3585.65
452.615	3610.23
452.821	3503.73
453.027	3667.57
453.233	4111.98
453.44	4025.97
453.646	4052.59
453.852	4234.86
454.058	4517.48
454.264	4484.71
454.47	4791.91
454.676	5054.05
454.882	5355.1
455.088	4978.27
455.294	5430.87
455.5	5756.5
455.705	6116.94
455.911	5899.86
456.117	6125.13
456.323	6495.82
456.529	6581.83
456.735	6964.8
456.941	7413.31
457.147	7482.94
457.352	7607.86
457.558	8015.41
457.764	8347.18
457.97	8517.16
458.176	8900.13
458.381	9326.11
458.587	9494.04
458.793	9983.51
458.999	9842.2
459.204	11044.35
459.41	11677.18
459.616	11544.06
459.821	12174.83
460.027	12797.42
460.233	13293.02
460.438	13256.16
460.644	14130.64
460.85	14196.18
461.055	14814.66
461.261	15330.75
461.466	15123.91
461.672	15263.17
461.878	17442.21
462.083	17190.31
462.289	17442.21
462.494	18263.44
462.7	18611.6
462.905	18711.95
463.111	20092.28
463.316	21001.58
463.522	21175.66
463.727	22060.38
463.932	22916.43
464.138	23442.76
464.343	24479.03
464.549	24845.62
464.754	26639.64
464.959	27135.24
465.165	27837.7
465.37	27507.97
465.575	27397.38
465.781	29269.23
465.986	30110.94
466.191	29832.42
466.397	30299.36
466.602	29400.3
466.807	31116.5
467.012	31280.33
467.218	32177.34
467.423	32324.8
467.628	33273.01
467.833	34749.59
468.038	34196.64
468.244	33799.33
468.449	35171.47
468.654	34514.08
468.859	34446.49
