Data from USB4F104151__125__10-46-19-858.txt Node

Date: Wed Feb 26 10:46:19 EST 2025
User: louis
Spectrometer: USB4F10415
Trigger mode: 4
Integration Time (sec): 1.000000E-1
Scans to average: 1
Electric dark correction enabled: true
Nonlinearity correction enabled: false
Boxcar width: 0
XAxis mode: Wavelengths
Number of Pixels in Spectrum: 3648
>>>>>Begin Spectral Data<<<<<
178.204	-406.69
178.424	-406.69
178.644	-406.69
178.864	-414.88
179.084	-378.02
179.304	-15.53
179.524	-23.72
179.744	33.62
179.964	27.48
180.184	29.52
180.404	9.05
180.624	-11.43
180.844	-17.58
181.064	23.38
181.283	0.85
181.503	-93.35
181.723	37.72
181.943	-70.83
182.163	129.88
182.383	23.38
182.602	41.81
182.822	185.17
183.042	72.53
183.262	-11.43
183.482	41.81
183.701	25.43
183.921	-1.19
184.141	-36.01
184.361	111.44
184.58	27.48
184.8	99.16
185.02	90.96
185.239	68.44
185.459	144.21
185.679	78.68
185.898	-74.92
186.118	27.48
186.338	29.52
186.557	31.57
186.777	-81.07
186.997	0.85
187.216	39.76
187.436	195.41
187.655	29.52
187.875	109.4
188.095	15.19
188.314	168.79
188.534	142.16
188.753	23.38
188.973	176.98
189.192	170.83
189.412	21.33
189.631	-38.06
189.851	117.59
190.07	195.41
190.29	-111.78
190.509	2.9
190.729	11.09
190.948	125.78
191.168	320.34
191.387	84.82
191.607	54.1
191.826	74.58
192.045	70.48
192.265	-7.34
192.484	172.88
192.704	23.38
192.923	-23.72
193.142	191.31
193.362	117.59
193.581	121.68
193.8	52.05
194.02	133.97
194.239	115.54
194.458	144.21
194.678	103.25
194.897	74.58
195.116	45.91
195.335	21.33
195.555	84.82
195.774	-21.67
195.993	129.88
196.212	7
196.432	50
196.651	-9.39
196.87	11.09
197.089	213.84
197.308	41.81
197.528	58.2
197.747	82.77
197.966	156.5
198.185	105.3
198.404	17.24
198.623	117.59
198.842	101.2
199.062	203.6
199.281	138.07
199.5	35.67
199.719	97.11
199.938	101.2
200.157	170.83
200.376	160.59
200.595	158.55
200.814	103.25
201.033	7
201.252	189.27
201.471	60.24
201.69	150.36
201.909	123.73
202.128	9.05
202.347	97.11
202.566	-9.39
202.785	-15.53
203.004	31.57
203.223	252.75
203.442	76.63
203.661	21.33
203.879	90.96
204.098	191.31
204.317	-7.34
204.536	105.3
204.755	148.31
204.974	148.31
205.193	9.05
205.411	162.64
205.63	146.26
205.849	74.58
206.068	0.85
206.287	-50.35
206.505	146.26
206.724	19.29
206.943	-58.54
207.162	23.38
207.381	215.89
207.599	9.05
207.818	121.68
208.037	-27.82
208.255	140.12
208.474	50
208.693	60.24
208.911	-44.2
209.13	121.68
209.349	136.02
209.567	113.49
209.786	121.68
210.005	64.34
210.223	95.06
210.442	-25.77
210.661	27.48
210.879	103.25
211.098	107.35
211.316	119.64
211.535	146.26
211.753	90.96
211.972	101.2
212.191	-3.24
212.409	27.48
212.628	111.44
212.846	52.05
213.065	86.87
213.283	68.44
213.502	82.77
213.72	47.96
213.938	90.96
214.157	23.38
214.375	95.06
214.594	23.38
214.812	131.92
215.031	76.63
215.249	-1.19
215.467	39.76
215.686	121.68
215.904	162.64
216.122	84.82
216.341	191.31
216.559	109.4
216.778	129.88
216.996	131.92
217.214	4.95
217.432	19.29
217.651	-42.15
217.869	119.64
218.087	72.53
218.306	4.95
218.524	62.29
218.742	54.1
218.96	158.55
219.179	93.01
219.397	54.1
219.615	301.9
219.833	121.68
220.051	19.29
220.27	158.55
220.488	47.96
220.706	113.49
220.924	17.24
221.142	-54.44
221.36	97.11
221.578	-1.19
221.796	4.95
222.015	7
222.233	68.44
222.451	189.27
222.669	-31.91
222.887	148.31
223.105	7
223.323	-25.77
223.541	4.95
223.759	-11.43
223.977	103.25
224.195	197.46
224.413	107.35
224.631	56.15
224.849	52.05
225.067	176.98
225.285	50
225.503	17.24
225.721	-142.5
225.939	80.72
226.157	7
226.375	119.64
226.592	-19.63
226.81	21.33
227.028	136.02
227.246	154.45
227.464	-58.54
227.682	107.35
227.9	47.96
228.117	13.14
228.335	68.44
228.553	29.52
228.771	31.57
228.989	-5.29
229.206	148.31
229.424	52.05
229.642	66.39
229.86	23.38
230.077	168.79
230.295	119.64
230.513	156.5
230.731	86.87
230.948	138.07
231.166	234.32
231.384	93.01
231.601	-9.39
231.819	230.23
232.037	27.48
232.254	15.19
232.472	-25.77
232.689	-42.15
232.907	183.12
233.125	-5.29
233.342	25.43
233.56	68.44
233.777	47.96
233.995	39.76
234.213	183.12
234.43	109.4
234.648	56.15
234.865	64.34
235.083	58.2
235.3	64.34
235.518	50
235.735	209.75
235.953	93.01
236.17	133.97
236.388	64.34
236.605	50
236.822	127.83
237.04	105.3
237.257	129.88
237.475	-25.77
237.692	62.29
237.909	82.77
238.127	33.62
238.344	72.53
238.562	133.97
238.779	-25.77
238.996	31.57
239.214	50
239.431	121.68
239.648	50
239.865	86.87
240.083	111.44
240.3	60.24
240.517	17.24
240.735	72.53
240.952	195.41
241.169	80.72
241.386	129.88
241.603	-5.29
241.821	-40.11
242.038	109.4
242.255	181.07
242.472	-23.72
242.689	68.44
242.907	80.72
243.124	86.87
243.341	47.96
243.558	-52.39
243.775	31.57
243.992	-3.24
244.209	117.59
244.426	246.61
244.643	23.38
244.86	43.86
245.078	133.97
245.295	84.82
245.512	90.96
245.729	9.05
245.946	62.29
246.163	97.11
246.38	84.82
246.597	17.24
246.814	115.54
247.031	43.86
247.248	50
247.464	105.3
247.681	23.38
247.898	174.93
248.115	45.91
248.332	-9.39
248.549	191.31
248.766	195.41
248.983	88.92
249.2	109.4
249.417	111.44
249.633	47.96
249.85	131.92
250.067	97.11
250.284	19.29
250.501	164.69
250.717	50
250.934	-17.58
251.151	37.72
251.368	31.57
251.585	127.83
251.801	93.01
252.018	-33.96
252.235	133.97
252.451	-9.39
252.668	76.63
252.885	168.79
253.102	103.25
253.318	37.72
253.535	64.34
253.752	-17.58
253.968	7
254.185	-25.77
254.401	66.39
254.618	101.2
254.835	47.96
255.051	154.45
255.268	105.3
255.484	80.72
255.701	62.29
255.917	50
256.134	-44.2
256.351	9.05
256.567	23.38
256.784	-42.15
257	-23.72
257.217	150.36
257.433	119.64
257.65	72.53
257.866	142.16
258.082	58.2
258.299	13.14
258.515	58.2
258.732	86.87
258.948	9.05
259.165	115.54
259.381	29.52
259.597	154.45
259.814	-36.01
260.03	76.63
260.246	111.44
260.463	133.97
260.679	160.59
260.895	2.9
261.112	50
261.328	113.49
261.544	37.72
261.761	164.69
261.977	35.67
262.193	-7.34
262.409	62.29
262.626	43.86
262.842	31.57
263.058	52.05
263.274	121.68
263.49	54.1
263.707	117.59
263.923	156.5
264.139	-103.59
264.355	136.02
264.571	138.07
264.787	74.58
265.004	78.68
265.22	23.38
265.436	0.85
265.652	7
265.868	133.97
266.084	-64.68
266.3	107.35
266.516	15.19
266.732	154.45
266.948	138.07
267.164	-54.44
267.38	123.73
267.596	160.59
267.812	230.23
268.028	60.24
268.244	56.15
268.46	50
268.676	52.05
268.892	162.64
269.108	-31.91
269.324	-13.48
269.54	-3.24
269.756	129.88
269.972	2.9
270.188	29.52
270.403	-13.48
270.619	39.76
270.835	97.11
271.051	60.24
271.267	29.52
271.483	-7.34
271.698	136.02
271.914	179.03
272.13	62.29
272.346	-21.67
272.562	86.87
272.777	164.69
272.993	19.29
273.209	23.38
273.425	101.2
273.64	-31.91
273.856	80.72
274.072	-25.77
274.287	-25.77
274.503	150.36
274.719	144.21
274.934	82.77
275.15	-5.29
275.366	23.38
275.581	-21.67
275.797	-19.63
276.012	70.48
276.228	29.52
276.444	93.01
276.659	62.29
276.875	-50.35
277.09	0.85
277.306	64.34
277.521	70.48
277.737	70.48
277.952	56.15
278.168	-17.58
278.383	39.76
278.599	58.2
278.814	150.36
279.03	45.91
279.245	195.41
279.461	37.72
279.676	105.3
279.892	-31.91
280.107	25.43
280.322	-17.58
280.538	129.88
280.753	-42.15
280.969	7
281.184	11.09
281.399	172.88
281.615	58.2
281.83	45.91
282.045	-7.34
282.26	-21.67
282.476	136.02
282.691	62.29
282.906	78.68
283.122	95.06
283.337	54.1
283.552	103.25
283.767	72.53
283.983	162.64
284.198	107.35
284.413	62.29
284.628	-5.29
284.843	7
285.058	99.16
285.274	-9.39
285.489	66.39
285.704	99.16
285.919	-21.67
286.134	15.19
286.349	54.1
286.564	90.96
286.779	156.5
286.995	47.96
287.21	33.62
287.425	15.19
287.64	-1.19
287.855	78.68
288.07	-38.06
288.285	93.01
288.5	136.02
288.715	127.83
288.93	76.63
289.145	25.43
289.36	127.83
289.575	29.52
289.79	162.64
290.004	-15.53
290.219	117.59
290.434	0.85
290.649	41.81
290.864	4.95
291.079	60.24
291.294	70.48
291.509	64.34
291.724	15.19
291.938	35.67
292.153	21.33
292.368	-31.91
292.583	70.48
292.798	140.12
293.012	78.68
293.227	111.44
293.442	21.33
293.657	166.74
293.871	129.88
294.086	131.92
294.301	179.03
294.516	66.39
294.73	97.11
294.945	-44.2
295.16	27.48
295.374	90.96
295.589	133.97
295.804	-42.15
296.018	105.3
296.233	136.02
296.447	41.81
296.662	31.57
296.877	113.49
297.091	133.97
297.306	88.92
297.52	74.58
297.735	86.87
297.949	140.12
298.164	43.86
298.378	66.39
298.593	-66.73
298.807	90.96
299.022	-9.39
299.236	205.65
299.451	72.53
299.665	-15.53
299.88	64.34
300.094	172.88
300.309	27.48
300.523	121.68
300.737	-33.96
300.952	97.11
301.166	11.09
301.381	-25.77
301.595	-33.96
301.809	39.76
302.024	88.92
302.238	31.57
302.452	111.44
302.667	43.86
302.881	156.5
303.095	148.31
303.309	31.57
303.524	17.24
303.738	43.86
303.952	-46.25
304.166	99.16
304.381	-21.67
304.595	207.7
304.809	-1.19
305.023	33.62
305.237	54.1
305.452	93.01
305.666	133.97
305.88	82.77
306.094	131.92
306.308	88.92
306.522	105.3
306.736	170.83
306.95	93.01
307.164	119.64
307.379	47.96
307.593	211.79
307.807	150.36
308.021	62.29
308.235	162.64
308.449	-46.25
308.663	58.2
308.877	138.07
309.091	35.67
309.305	97.11
309.519	-119.98
309.733	109.4
309.947	-13.48
310.161	43.86
310.374	-1.19
310.588	224.08
310.802	-3.24
311.016	15.19
311.23	115.54
311.444	37.72
311.658	25.43
311.872	93.01
312.085	117.59
312.299	154.45
312.513	144.21
312.727	95.06
312.941	13.14
313.154	60.24
313.368	158.55
313.582	54.1
313.796	56.15
314.009	78.68
314.223	129.88
314.437	133.97
314.651	105.3
314.864	37.72
315.078	7
315.292	-27.82
315.505	37.72
315.719	158.55
315.933	107.35
316.146	17.24
316.36	31.57
316.573	185.17
316.787	164.69
317.001	131.92
317.214	-76.97
317.428	11.09
317.641	-48.3
317.855	109.4
318.068	50
318.282	29.52
318.495	174.93
318.709	78.68
318.922	62.29
319.136	121.68
319.349	64.34
319.563	62.29
319.776	113.49
319.99	-17.58
320.203	107.35
320.417	127.83
320.63	84.82
320.843	146.26
321.057	64.34
321.27	107.35
321.483	97.11
321.697	222.03
321.91	47.96
322.124	27.48
322.337	117.59
322.55	11.09
322.763	76.63
322.977	105.3
323.19	4.95
323.403	37.72
323.617	47.96
323.83	115.54
324.043	170.83
324.256	31.57
324.469	-17.58
324.683	82.77
324.896	7
325.109	84.82
325.322	-52.39
325.535	150.36
325.748	90.96
325.962	29.52
326.175	97.11
326.388	54.1
326.601	125.78
326.814	39.76
327.027	25.43
327.24	187.22
327.453	-83.11
327.666	45.91
327.879	119.64
328.092	140.12
328.305	101.2
328.518	2.9
328.731	-19.63
328.944	0.85
329.157	86.87
329.37	13.14
329.583	113.49
329.796	211.79
330.009	-54.44
330.222	97.11
330.435	123.73
330.648	35.67
330.861	56.15
331.073	45.91
331.286	201.55
331.499	72.53
331.712	-40.11
331.925	115.54
332.138	125.78
332.35	142.16
332.563	72.53
332.776	62.29
332.989	-15.53
333.202	95.06
333.414	70.48
333.627	23.38
333.84	84.82
334.053	88.92
334.265	9.05
334.478	66.39
334.691	27.48
334.903	64.34
335.116	13.14
335.329	56.15
335.541	103.25
335.754	191.31
335.966	-5.29
336.179	29.52
336.392	88.92
336.604	47.96
336.817	109.4
337.029	129.88
337.242	66.39
337.454	97.11
337.667	43.86
337.88	166.74
338.092	43.86
338.305	117.59
338.517	31.57
338.729	70.48
338.942	129.88
339.154	33.62
339.367	52.05
339.579	90.96
339.792	-15.53
340.004	131.92
340.217	64.34
340.429	74.58
340.641	-13.48
340.854	-27.82
341.066	93.01
341.278	189.27
341.491	179.03
341.703	84.82
341.915	-44.2
342.128	117.59
342.34	95.06
342.552	101.2
342.764	17.24
342.977	45.91
343.189	121.68
343.401	80.72
343.613	-132.26
343.826	88.92
344.038	47.96
344.25	29.52
344.462	-40.11
344.674	93.01
344.886	-1.19
345.099	86.87
345.311	101.2
345.523	58.2
345.735	-33.96
345.947	-1.19
346.159	68.44
346.371	121.68
346.583	41.81
346.795	232.27
347.007	35.67
347.219	76.63
347.431	68.44
347.643	174.93
347.855	17.24
348.067	148.31
348.279	-66.73
348.491	101.2
348.703	82.77
348.915	39.76
349.127	64.34
349.339	58.2
349.551	0.85
349.763	90.96
349.975	103.25
350.187	88.92
350.399	140.12
350.61	70.48
350.822	31.57
351.034	66.39
351.246	72.53
351.458	93.01
351.669	97.11
351.881	129.88
352.093	174.93
352.305	191.31
352.517	105.3
352.728	101.2
352.94	107.35
353.152	195.41
353.363	-13.48
353.575	115.54
353.787	50
353.999	142.16
354.21	179.03
354.422	-52.39
354.633	-17.58
354.845	43.86
355.057	35.67
355.268	146.26
355.48	179.03
355.692	33.62
355.903	105.3
356.115	45.91
356.326	-111.78
356.538	183.12
356.749	31.57
356.961	156.5
357.172	101.2
357.384	29.52
357.595	158.55
357.807	99.16
358.018	19.29
358.23	56.15
358.441	115.54
358.653	133.97
358.864	-33.96
359.075	35.67
359.287	76.63
359.498	117.59
359.709	115.54
359.921	115.54
360.132	93.01
360.344	23.38
360.555	23.38
360.766	164.69
360.977	156.5
361.189	78.68
361.4	47.96
361.611	93.01
361.823	187.22
362.034	54.1
362.245	-15.53
362.456	70.48
362.667	125.78
362.879	93.01
363.09	127.83
363.301	109.4
363.512	50
363.723	7
363.935	27.48
364.146	66.39
364.357	19.29
364.568	90.96
364.779	-25.77
364.99	224.08
365.201	35.67
365.412	131.92
365.623	-31.91
365.834	60.24
366.045	84.82
366.256	54.1
366.467	109.4
366.678	11.09
366.889	154.45
367.1	-21.67
367.311	107.35
367.522	9.05
367.733	45.91
367.944	97.11
368.155	19.29
368.366	133.97
368.577	148.31
368.788	160.59
368.999	31.57
369.209	60.24
369.42	199.51
369.631	258.9
369.842	105.3
370.053	11.09
370.264	179.03
370.474	23.38
370.685	115.54
370.896	54.1
371.107	179.03
371.317	127.83
371.528	-3.24
371.739	127.83
371.95	66.39
372.16	115.54
372.371	15.19
372.582	13.14
372.792	70.48
373.003	43.86
373.214	107.35
373.424	150.36
373.635	2.9
373.846	293.71
374.056	47.96
374.267	86.87
374.477	99.16
374.688	-50.35
374.898	21.33
375.109	7
375.319	56.15
375.53	174.93
375.74	86.87
375.951	21.33
376.161	74.58
376.372	209.75
376.582	47.96
376.793	62.29
377.003	-5.29
377.214	0.85
377.424	105.3
377.635	56.15
377.845	7
378.055	78.68
378.266	21.33
378.476	121.68
378.686	52.05
378.897	76.63
379.107	97.11
379.317	101.2
379.528	78.68
379.738	119.64
379.948	2.9
380.158	105.3
380.369	70.48
380.579	84.82
380.789	37.72
380.999	138.07
381.21	136.02
381.42	211.79
381.63	99.16
381.84	76.63
382.05	74.58
382.261	217.94
382.471	129.88
382.681	-17.58
382.891	181.07
383.101	107.35
383.311	0.85
383.521	66.39
383.731	129.88
383.941	133.97
384.151	74.58
384.361	64.34
384.571	107.35
384.781	56.15
384.991	271.19
385.201	224.08
385.411	170.83
385.621	111.44
385.831	80.72
386.041	33.62
386.251	70.48
386.461	125.78
386.671	105.3
386.881	93.01
387.091	50
387.301	150.36
387.511	11.09
387.72	84.82
387.93	140.12
388.14	47.96
388.35	185.17
388.56	105.3
388.769	172.88
388.979	76.63
389.189	43.86
389.399	23.38
389.609	88.92
389.818	152.4
390.028	80.72
390.238	105.3
390.447	56.15
390.657	138.07
390.867	31.57
391.076	-15.53
391.286	80.72
391.496	47.96
391.705	7
391.915	109.4
392.125	152.4
392.334	72.53
392.544	193.36
392.753	64.34
392.963	45.91
393.172	76.63
393.382	33.62
393.591	213.84
393.801	70.48
394.01	215.89
394.22	131.92
394.429	105.3
394.639	101.2
394.848	131.92
395.058	7
395.267	66.39
395.477	119.64
395.686	86.87
395.895	219.99
396.105	191.31
396.314	84.82
396.524	27.48
396.733	50
396.942	203.6
397.152	113.49
397.361	107.35
397.57	50
397.78	88.92
397.989	111.44
398.198	203.6
398.407	109.4
398.617	86.87
398.826	113.49
399.035	21.33
399.244	133.97
399.453	88.92
399.663	138.07
399.872	125.78
400.081	70.48
400.29	123.73
400.499	56.15
400.708	76.63
400.917	19.29
401.127	50
401.336	47.96
401.545	179.03
401.754	150.36
401.963	136.02
402.172	86.87
402.381	-17.58
402.59	64.34
402.799	115.54
403.008	162.64
403.217	58.2
403.426	97.11
403.635	-50.35
403.844	43.86
404.053	31.57
404.262	58.2
404.471	164.69
404.68	99.16
404.888	95.06
405.097	68.44
405.306	121.68
405.515	146.26
405.724	13.14
405.933	64.34
406.142	62.29
406.35	138.07
406.559	43.86
406.768	115.54
406.977	215.89
407.185	105.3
407.394	113.49
407.603	-31.91
407.812	166.74
408.02	150.36
408.229	107.35
408.438	101.2
408.646	-17.58
408.855	99.16
409.064	160.59
409.272	31.57
409.481	136.02
409.69	74.58
409.898	39.76
410.107	154.45
410.315	111.44
410.524	-42.15
410.733	82.77
410.941	101.2
411.15	127.83
411.358	84.82
411.567	152.4
411.775	54.1
411.984	74.58
412.192	170.83
412.401	-21.67
412.609	197.46
412.818	209.75
413.026	105.3
413.234	2.9
413.443	60.24
413.651	-50.35
413.86	50
414.068	224.08
414.276	160.59
414.485	76.63
414.693	174.93
414.901	170.83
415.11	27.48
415.318	39.76
415.526	97.11
415.734	117.59
415.943	127.83
416.151	232.27
416.359	82.77
416.567	90.96
416.776	181.07
416.984	95.06
417.192	246.61
417.4	156.5
417.608	19.29
417.817	4.95
418.025	193.36
418.233	181.07
418.441	-42.15
418.649	47.96
418.857	68.44
419.065	203.6
419.273	111.44
419.481	25.43
419.689	47.96
419.897	70.48
420.105	45.91
420.313	109.4
420.521	162.64
420.729	189.27
420.937	33.62
421.145	-23.72
421.353	140.12
421.561	209.75
421.769	138.07
421.977	2.9
422.185	256.85
422.393	86.87
422.601	176.98
422.809	60.24
423.017	109.4
423.224	154.45
423.432	138.07
423.64	97.11
423.848	152.4
424.056	21.33
424.263	119.64
424.471	80.72
424.679	203.6
424.887	45.91
425.094	191.31
425.302	181.07
425.51	21.33
425.718	76.63
425.925	82.77
426.133	15.19
426.341	250.71
426.548	133.97
426.756	93.01
426.964	76.63
427.171	174.93
427.379	125.78
427.586	88.92
427.794	107.35
428.001	185.17
428.209	170.83
428.417	207.7
428.624	107.35
428.832	217.94
429.039	189.27
429.247	84.82
429.454	109.4
429.662	258.9
429.869	211.79
430.076	113.49
430.284	265.04
430.491	226.13
430.699	166.74
430.906	342.86
431.114	152.4
431.321	283.47
431.528	181.07
431.736	217.94
431.943	172.88
432.15	209.75
432.358	150.36
432.565	365.39
432.772	93.01
432.979	277.33
433.187	90.96
433.394	273.23
433.601	123.73
433.808	324.43
434.016	234.32
434.223	205.65
434.43	250.71
434.637	342.86
434.844	338.77
435.052	285.52
435.259	332.62
435.466	328.53
435.673	269.14
435.88	324.43
436.087	420.69
436.294	443.21
436.501	389.97
436.708	301.9
436.915	314.19
437.122	463.69
437.329	379.73
437.537	357.2
437.743	475.98
437.95	549.71
438.157	338.77
438.364	486.22
438.571	394.06
438.778	473.93
438.985	619.34
439.192	537.42
439.399	549.71
439.606	568.14
439.813	645.96
440.02	686.92
440.227	727.88
440.433	682.83
440.64	588.62
440.847	666.44
441.054	734.03
441.261	867.14
441.467	748.36
441.674	807.75
441.881	875.34
442.088	779.08
442.294	830.28
442.501	789.32
442.708	926.54
442.914	858.95
443.121	1022.79
443.328	1069.89
443.534	1143.62
443.741	998.21
443.948	961.35
444.154	1090.37
444.361	1364.8
444.568	1172.29
444.774	1219.39
444.981	1157.96
445.187	1454.91
445.394	1469.25
445.6	1387.33
445.807	1565.5
446.013	1465.15
446.22	1471.29
446.426	1590.08
446.633	1739.58
446.839	1868.6
447.046	1653.56
447.252	1858.36
447.459	1919.8
447.665	1876.79
447.871	2181.94
448.078	2237.24
448.284	2206.52
448.491	2302.77
448.697	2480.94
448.903	2515.76
449.11	2593.58
449.316	2528.05
449.522	2693.93
449.728	2994.98
449.935	2968.36
450.141	2923.3
450.347	3222.31
450.553	3109.67
450.76	3472.16
450.966	3429.15
451.172	3365.67
451.378	3666.72
451.584	3883.8
451.791	4068.12
451.997	4131.61
452.203	4113.17
452.409	4434.71
452.615	4518.67
452.821	4434.71
453.027	4576.02
453.233	5145.35
453.44	4879.11
453.646	5073.67
453.852	5309.19
454.058	5587.71
454.264	5788.41
454.47	6212.34
454.676	6015.74
454.882	6771.44
455.088	6607.6
455.294	6947.56
455.5	7303.91
455.705	7830.24
455.911	7727.84
456.117	7813.85
456.323	8354.52
456.529	8284.89
456.735	8848.08
456.941	9251.53
457.147	9585.35
457.352	9661.12
457.558	9947.84
457.764	10638
457.97	10867.38
458.176	11137.71
458.381	11936.42
458.587	12061.34
458.793	12866.19
458.999	12587.67
459.204	14156.41
459.41	14512.76
459.616	14316.15
459.821	15551.08
460.027	15946.34
460.233	17031.76
460.438	17013.33
460.644	17986.11
460.85	17676.87
461.055	18721.34
461.261	19866.15
461.466	18647.61
461.672	19556.91
461.878	21817.86
462.083	21535.24
462.289	22100.48
462.494	22759.93
462.7	23187.96
462.905	23507.44
463.111	25350.61
463.316	26567.1
463.522	26767.8
463.727	28064.17
463.932	28715.42
464.138	29770.13
464.343	30863.74
464.549	31029.63
464.754	33395.03
464.959	34140.49
465.165	34502.98
465.37	34357.58
465.575	34656.58
465.781	36675.88
465.986	37835.03
466.191	37372.19
466.397	37931.28
466.602	36917.54
466.807	39106.82
467.012	39289.09
467.218	40009.97
467.423	40313.07
467.628	41388.25
467.833	43495.61
468.038	42766.54
468.244	41842.9
468.449	43913.4
468.654	43212.99
468.859	42664.14
