Data from USB4F104151__225__11-06-12-025.txt Node

Date: Wed Feb 26 11:06:12 EST 2025
User: louis
Spectrometer: USB4F10415
Trigger mode: 4
Integration Time (sec): 1.000000E-1
Scans to average: 1
Electric dark correction enabled: true
Nonlinearity correction enabled: false
Boxcar width: 0
XAxis mode: Wavelengths
Number of Pixels in Spectrum: 3648
>>>>>Begin Spectral Data<<<<<
178.204	-356.69
178.424	-356.69
178.644	-356.69
178.864	-399.7
179.084	-379.22
179.304	-12.63
179.524	-8.53
179.744	-16.73
179.964	40.62
180.184	114.34
180.404	-31.06
180.624	-8.53
180.844	-14.68
181.064	-22.87
181.283	-49.49
181.503	-55.64
181.723	65.19
181.943	-155.99
182.163	192.17
182.383	-55.64
182.602	147.11
182.822	204.46
183.042	46.76
183.262	30.38
183.482	-6.49
183.701	-20.82
183.921	20.14
184.141	-47.44
184.361	110.25
184.58	102.06
184.8	61.1
185.02	28.33
185.239	87.72
185.459	28.33
185.679	202.41
185.898	-4.44
186.118	26.28
186.338	34.47
186.557	93.87
186.777	-14.68
186.997	-0.34
187.216	77.48
187.436	276.13
187.655	81.58
187.875	95.91
188.095	104.11
188.314	173.74
188.534	57
188.753	-61.78
188.973	128.68
189.192	132.78
189.412	-37.2
189.631	40.62
189.851	61.1
190.07	155.3
190.29	-59.73
190.509	-41.3
190.729	46.76
190.948	157.35
191.168	220.84
191.387	97.96
191.607	79.53
191.826	65.19
192.045	67.24
192.265	36.52
192.484	22.19
192.704	34.47
192.923	-47.44
193.142	169.64
193.362	143.02
193.581	231.08
193.8	81.58
194.02	147.11
194.239	179.88
194.458	42.67
194.678	28.33
194.897	1.71
195.116	44.71
195.335	1.71
195.555	57
195.774	-12.63
195.993	186.02
196.212	69.29
196.432	-45.4
196.651	32.43
196.87	-39.25
197.089	216.74
197.308	102.06
197.528	122.54
197.747	-47.44
197.966	44.71
198.185	161.45
198.404	-0.34
198.623	81.58
198.842	130.73
199.062	128.68
199.281	95.91
199.5	34.47
199.719	114.34
199.938	34.47
200.157	57
200.376	102.06
200.595	124.58
200.814	106.15
201.033	44.71
201.252	192.17
201.471	104.11
201.69	102.06
201.909	75.43
202.128	79.53
202.347	34.47
202.566	91.82
202.785	-61.78
203.004	24.23
203.223	235.18
203.442	97.96
203.661	-39.25
203.879	116.39
204.098	89.77
204.317	30.38
204.536	50.86
204.755	81.58
204.974	120.49
205.193	34.47
205.411	169.64
205.63	118.44
205.849	61.1
206.068	81.58
206.287	-18.77
206.505	147.11
206.724	36.52
206.943	-53.59
207.162	57
207.381	71.34
207.599	40.62
207.818	95.91
208.037	-96.6
208.255	59.05
208.474	-33.11
208.693	63.15
208.911	9.9
209.13	136.87
209.349	81.58
209.567	26.28
209.786	116.39
210.005	116.39
210.223	93.87
210.442	1.71
210.661	32.43
210.879	63.15
211.098	61.1
211.316	114.34
211.535	95.91
211.753	46.76
211.972	75.43
212.191	7.85
212.409	65.19
212.628	89.77
212.846	36.52
213.065	63.15
213.283	122.54
213.502	71.34
213.72	69.29
213.938	11.95
214.157	122.54
214.375	161.45
214.594	-69.97
214.812	9.9
215.031	57
215.249	-20.82
215.467	57
215.686	28.33
215.904	97.96
216.122	118.44
216.341	126.63
216.559	-22.87
216.778	132.78
216.996	132.78
217.214	-18.77
217.432	-16.73
217.651	-37.2
217.869	34.47
218.087	44.71
218.306	46.76
218.524	30.38
218.742	128.68
218.96	153.26
219.179	32.43
219.397	32.43
219.615	241.32
219.833	102.06
220.051	13.99
220.27	83.63
220.488	118.44
220.706	26.28
220.924	-31.06
221.142	46.76
221.36	38.57
221.578	61.1
221.796	50.86
222.015	52.91
222.233	118.44
222.451	188.07
222.669	-14.68
222.887	34.47
223.105	40.62
223.323	85.67
223.541	-63.83
223.759	54.95
223.977	26.28
224.195	71.34
224.413	71.34
224.631	7.85
224.849	52.91
225.067	151.21
225.285	20.14
225.503	38.57
225.721	-104.79
225.939	81.58
226.157	79.53
226.375	247.46
226.592	-22.87
226.81	5.8
227.028	169.64
227.246	153.26
227.464	104.11
227.682	102.06
227.9	63.15
228.117	18.09
228.335	46.76
228.553	73.39
228.771	-10.58
228.989	65.19
229.206	112.3
229.424	38.57
229.642	-8.53
229.86	30.38
230.077	69.29
230.295	48.81
230.513	118.44
230.731	102.06
230.948	239.27
231.166	153.26
231.384	50.86
231.601	-135.51
231.819	81.58
232.037	5.8
232.254	11.95
232.472	30.38
232.689	61.1
232.907	140.97
233.125	-41.3
233.342	28.33
233.56	-12.63
233.777	-59.73
233.995	30.38
234.213	136.87
234.43	128.68
234.648	18.09
234.865	48.81
235.083	13.99
235.3	87.72
235.518	134.82
235.735	136.87
235.953	116.39
236.17	-12.63
236.388	77.48
236.605	77.48
236.822	102.06
237.04	169.64
237.257	73.39
237.475	-43.35
237.692	85.67
237.909	11.95
238.127	5.8
238.344	104.11
238.562	65.19
238.779	18.09
238.996	-2.39
239.214	24.23
239.431	75.43
239.648	11.95
239.865	79.53
240.083	136.87
240.3	-10.58
240.517	-31.06
240.735	40.62
240.952	233.13
241.169	57
241.386	138.92
241.603	36.52
241.821	-6.49
242.038	136.87
242.255	108.2
242.472	-41.3
242.689	163.5
242.907	77.48
243.124	48.81
243.341	13.99
243.558	67.24
243.775	-65.88
243.992	-92.5
244.209	100.01
244.426	216.74
244.643	75.43
244.86	50.86
245.078	134.82
245.295	52.91
245.512	24.23
245.729	-31.06
245.946	-6.49
246.163	16.04
246.38	-20.82
246.597	124.58
246.814	89.77
247.031	57
247.248	57
247.464	61.1
247.681	87.72
247.898	97.96
248.115	34.47
248.332	-49.49
248.549	183.98
248.766	218.79
248.983	28.33
249.2	59.05
249.417	114.34
249.633	28.33
249.85	102.06
250.067	50.86
250.284	104.11
250.501	112.3
250.717	120.49
250.934	-53.59
251.151	73.39
251.368	67.24
251.585	87.72
251.801	52.91
252.018	-18.77
252.235	136.87
252.451	-2.39
252.668	-4.44
252.885	120.49
253.102	22.19
253.318	50.86
253.535	-12.63
253.752	-26.96
253.968	22.19
254.185	-16.73
254.401	145.06
254.618	153.26
254.835	57
255.051	169.64
255.268	46.76
255.484	32.43
255.701	20.14
255.917	87.72
256.134	-45.4
256.351	28.33
256.567	-0.34
256.784	71.34
257	13.99
257.217	73.39
257.433	77.48
257.65	50.86
257.866	167.59
258.082	38.57
258.299	-24.92
258.515	36.52
258.732	28.33
258.948	24.23
259.165	97.96
259.381	-26.96
259.597	34.47
259.814	46.76
260.03	63.15
260.246	71.34
260.463	151.21
260.679	34.47
260.895	50.86
261.112	42.67
261.328	3.75
261.544	-45.4
261.761	214.7
261.977	42.67
262.193	-49.49
262.409	153.26
262.626	95.91
262.842	63.15
263.058	-59.73
263.274	126.63
263.49	5.8
263.707	42.67
263.923	75.43
264.139	-108.88
264.355	85.67
264.571	147.11
264.787	42.67
265.004	134.82
265.22	38.57
265.436	26.28
265.652	26.28
265.868	50.86
266.084	-53.59
266.3	77.48
266.516	-24.92
266.732	42.67
266.948	71.34
267.164	-37.2
267.38	175.78
267.596	91.82
267.812	179.88
268.028	24.23
268.244	61.1
268.46	128.68
268.676	-16.73
268.892	79.53
269.108	-39.25
269.324	-8.53
269.54	-69.97
269.756	106.15
269.972	-41.3
270.188	-43.35
270.403	-69.97
270.619	38.57
270.835	140.97
271.051	75.43
271.267	-65.88
271.483	65.19
271.698	138.92
271.914	87.72
272.13	40.62
272.346	-18.77
272.562	24.23
272.777	116.39
272.993	-6.49
273.209	54.95
273.425	85.67
273.64	42.67
273.856	79.53
274.072	-20.82
274.287	40.62
274.503	24.23
274.719	75.43
274.934	-16.73
275.15	-2.39
275.366	69.29
275.581	11.95
275.797	46.76
276.012	91.82
276.228	54.95
276.444	16.04
276.659	143.02
276.875	-14.68
277.09	20.14
277.306	-14.68
277.521	75.43
277.737	18.09
277.952	81.58
278.168	54.95
278.383	75.43
278.599	118.44
278.814	71.34
279.03	71.34
279.245	198.31
279.461	85.67
279.676	48.81
279.892	-6.49
280.107	-67.92
280.322	-33.11
280.538	50.86
280.753	32.43
280.969	114.34
281.184	95.91
281.399	153.26
281.615	-18.77
281.83	143.02
282.045	-61.78
282.26	69.29
282.476	57
282.691	143.02
282.906	102.06
283.122	1.71
283.337	13.99
283.552	71.34
283.767	22.19
283.983	147.11
284.198	30.38
284.413	132.78
284.628	-61.78
284.843	34.47
285.058	175.78
285.274	-26.96
285.489	-57.68
285.704	71.34
285.919	11.95
286.134	42.67
286.349	42.67
286.564	-2.39
286.779	87.72
286.995	13.99
287.21	-86.36
287.425	75.43
287.64	71.34
287.855	13.99
288.07	-14.68
288.285	124.58
288.5	145.06
288.715	75.43
288.93	38.57
289.145	75.43
289.36	106.15
289.575	9.9
289.79	85.67
290.004	38.57
290.219	124.58
290.434	40.62
290.649	-6.49
290.864	52.91
291.079	-16.73
291.294	85.67
291.509	102.06
291.724	87.72
291.938	24.23
292.153	73.39
292.368	-10.58
292.583	-8.53
292.798	73.39
293.012	34.47
293.227	100.01
293.442	-67.92
293.657	32.43
293.871	177.83
294.086	44.71
294.301	214.7
294.516	128.68
294.73	50.86
294.945	-57.68
295.16	28.33
295.374	120.49
295.589	77.48
295.804	73.39
296.018	97.96
296.233	181.93
296.447	67.24
296.662	57
296.877	159.4
297.091	128.68
297.306	97.96
297.52	32.43
297.735	140.97
297.949	46.76
298.164	138.92
298.378	38.57
298.593	22.19
298.807	65.19
299.022	63.15
299.236	188.07
299.451	-49.49
299.665	-12.63
299.88	40.62
300.094	63.15
300.309	-47.44
300.523	59.05
300.737	34.47
300.952	120.49
301.166	63.15
301.381	-39.25
301.595	3.75
301.809	26.28
302.024	89.77
302.238	89.77
302.452	181.93
302.667	87.72
302.881	67.24
303.095	110.25
303.309	13.99
303.524	34.47
303.738	67.24
303.952	7.85
304.166	112.3
304.381	-78.16
304.595	243.37
304.809	-33.11
305.023	36.52
305.237	-29.01
305.452	50.86
305.666	44.71
305.88	16.04
306.094	167.59
306.308	59.05
306.522	128.68
306.736	46.76
306.95	83.63
307.164	16.04
307.379	-0.34
307.593	196.26
307.807	87.72
308.021	130.73
308.235	102.06
308.449	-112.98
308.663	102.06
308.877	196.26
309.091	128.68
309.305	63.15
309.519	-106.84
309.733	143.02
309.947	-2.39
310.161	108.2
310.374	110.25
310.588	87.72
310.802	-49.49
311.016	-57.68
311.23	85.67
311.444	-20.82
311.658	1.71
311.872	108.2
312.085	100.01
312.299	118.44
312.513	89.77
312.727	20.14
312.941	-20.82
313.154	34.47
313.368	28.33
313.582	63.15
313.796	69.29
314.009	5.8
314.223	179.88
314.437	16.04
314.651	102.06
314.864	-39.25
315.078	26.28
315.292	-12.63
315.505	5.8
315.719	126.63
315.933	95.91
316.146	-33.11
316.36	38.57
316.573	208.55
316.787	77.48
317.001	73.39
317.214	-59.73
317.428	54.95
317.641	-24.92
317.855	5.8
318.068	61.1
318.282	-4.44
318.495	124.58
318.709	9.9
318.922	9.9
319.136	145.06
319.349	147.11
319.563	24.23
319.776	136.87
319.99	-10.58
320.203	52.91
320.417	9.9
320.63	124.58
320.843	179.88
321.057	34.47
321.27	52.91
321.483	79.53
321.697	147.11
321.91	100.01
322.124	71.34
322.337	22.19
322.55	-45.4
322.763	59.05
322.977	95.91
323.19	-18.77
323.403	71.34
323.617	143.02
323.83	120.49
324.043	46.76
324.256	79.53
324.469	-24.92
324.683	57
324.896	28.33
325.109	1.71
325.322	-41.3
325.535	57
325.748	136.87
325.962	-37.2
326.175	3.75
326.388	132.78
326.601	177.83
326.814	-0.34
327.027	16.04
327.24	161.45
327.453	-63.83
327.666	69.29
327.879	143.02
328.092	179.88
328.305	71.34
328.518	28.33
328.731	-35.16
328.944	32.43
329.157	73.39
329.37	28.33
329.583	171.69
329.796	169.64
330.009	5.8
330.222	89.77
330.435	63.15
330.648	81.58
330.861	50.86
331.073	42.67
331.286	134.82
331.499	30.38
331.712	-47.44
331.925	-24.92
332.138	24.23
332.35	75.43
332.563	50.86
332.776	157.35
332.989	20.14
333.202	26.28
333.414	11.95
333.627	71.34
333.84	52.91
334.053	102.06
334.265	28.33
334.478	91.82
334.691	22.19
334.903	11.95
335.116	71.34
335.329	89.77
335.541	138.92
335.754	136.87
335.966	22.19
336.179	57
336.392	-14.68
336.604	7.85
336.817	85.67
337.029	73.39
337.242	13.99
337.454	155.3
337.667	108.2
337.88	200.36
338.092	42.67
338.305	38.57
338.517	40.62
338.729	46.76
338.942	171.69
339.154	-47.44
339.367	-6.49
339.579	52.91
339.792	-20.82
340.004	151.21
340.217	-26.96
340.429	61.1
340.641	18.09
340.854	16.04
341.066	22.19
341.278	75.43
341.491	222.89
341.703	67.24
341.915	1.71
342.128	112.3
342.34	73.39
342.552	-6.49
342.764	24.23
342.977	73.39
343.189	61.1
343.401	7.85
343.613	-37.2
343.826	116.39
344.038	7.85
344.25	26.28
344.462	22.19
344.674	-24.92
344.886	-20.82
345.099	52.91
345.311	26.28
345.523	22.19
345.735	-4.44
345.947	71.34
346.159	75.43
346.371	54.95
346.583	5.8
346.795	206.5
347.007	69.29
347.219	59.05
347.431	16.04
347.643	106.15
347.855	-45.4
348.067	104.11
348.279	-26.96
348.491	52.91
348.703	120.49
348.915	40.62
349.127	11.95
349.339	40.62
349.551	-14.68
349.763	67.24
349.975	34.47
350.187	50.86
350.399	97.96
350.61	136.87
350.822	73.39
351.034	102.06
351.246	69.29
351.458	95.91
351.669	-8.53
351.881	87.72
352.093	140.97
352.305	100.01
352.517	132.78
352.728	167.59
352.94	54.95
353.152	118.44
353.363	-43.35
353.575	52.91
353.787	175.78
353.999	73.39
354.21	143.02
354.422	-2.39
354.633	11.95
354.845	54.95
355.057	28.33
355.268	30.38
355.48	89.77
355.692	-137.56
355.903	91.82
356.115	-72.02
356.326	75.43
356.538	257.7
356.749	100.01
356.961	153.26
357.172	69.29
357.384	20.14
357.595	173.74
357.807	32.43
358.018	20.14
358.23	13.99
358.441	91.82
358.653	81.58
358.864	32.43
359.075	-2.39
359.287	-39.25
359.498	140.97
359.709	118.44
359.921	-6.49
360.132	52.91
360.344	-0.34
360.555	28.33
360.766	26.28
360.977	-49.49
361.189	28.33
361.4	-37.2
361.611	173.74
361.823	128.68
362.034	38.57
362.245	-20.82
362.456	97.96
362.667	116.39
362.879	16.04
363.09	63.15
363.301	89.77
363.512	57
363.723	-47.44
363.935	-18.77
364.146	116.39
364.357	18.09
364.568	61.1
364.779	-43.35
364.99	124.58
365.201	-16.73
365.412	118.44
365.623	-37.2
365.834	32.43
366.045	38.57
366.256	132.78
366.467	85.67
366.678	20.14
366.889	54.95
367.1	-6.49
367.311	157.35
367.522	-2.39
367.733	112.3
367.944	128.68
368.155	67.24
368.366	97.96
368.577	179.88
368.788	89.77
368.999	65.19
369.209	69.29
369.42	261.8
369.631	198.31
369.842	108.2
370.053	-31.06
370.264	114.34
370.474	-67.92
370.685	46.76
370.896	-10.58
371.107	169.64
371.317	59.05
371.528	-31.06
371.739	143.02
371.95	46.76
372.16	32.43
372.371	-53.59
372.582	95.91
372.792	114.34
373.003	28.33
373.214	114.34
373.424	173.74
373.635	-22.87
373.846	188.07
374.056	59.05
374.267	75.43
374.477	110.25
374.688	16.04
374.898	73.39
375.109	83.63
375.319	13.99
375.53	73.39
375.74	136.87
375.951	13.99
376.161	57
376.372	153.26
376.582	11.95
376.793	112.3
377.003	32.43
377.214	118.44
377.424	83.63
377.635	97.96
377.845	36.52
378.055	145.06
378.266	-18.77
378.476	89.77
378.686	36.52
378.897	48.81
379.107	169.64
379.317	40.62
379.528	-12.63
379.738	34.47
379.948	-78.16
380.158	118.44
380.369	106.15
380.579	63.15
380.789	-4.44
380.999	77.48
381.21	97.96
381.42	190.12
381.63	13.99
381.84	116.39
382.05	22.19
382.261	116.39
382.471	175.78
382.681	24.23
382.891	151.21
383.101	34.47
383.311	9.9
383.521	-24.92
383.731	112.3
383.941	126.63
384.151	81.58
384.361	65.19
384.571	116.39
384.781	65.19
384.991	241.32
385.201	124.58
385.411	140.97
385.621	85.67
385.831	102.06
386.041	69.29
386.251	18.09
386.461	210.6
386.671	63.15
386.881	79.53
387.091	20.14
387.301	100.01
387.511	97.96
387.72	110.25
387.93	167.59
388.14	-110.93
388.35	9.9
388.56	65.19
388.769	161.45
388.979	11.95
389.189	42.67
389.399	128.68
389.609	77.48
389.818	196.26
390.028	69.29
390.238	108.2
390.447	-84.31
390.657	116.39
390.867	50.86
391.076	16.04
391.286	116.39
391.496	22.19
391.705	69.29
391.915	216.74
392.125	147.11
392.334	65.19
392.544	136.87
392.753	30.38
392.963	67.24
393.172	97.96
393.382	54.95
393.591	161.45
393.801	61.1
394.01	116.39
394.22	161.45
394.429	-53.59
394.639	46.76
394.848	83.63
395.058	40.62
395.267	36.52
395.477	48.81
395.686	48.81
395.895	243.37
396.105	243.37
396.314	40.62
396.524	114.34
396.733	67.24
396.942	181.93
397.152	1.71
397.361	124.58
397.57	38.57
397.78	7.85
397.989	95.91
398.198	253.61
398.407	81.58
398.617	89.77
398.826	71.34
399.035	83.63
399.244	85.67
399.453	65.19
399.663	104.11
399.872	89.77
400.081	-45.4
400.29	179.88
400.499	26.28
400.708	130.73
400.917	26.28
401.127	75.43
401.336	59.05
401.545	245.41
401.754	132.78
401.963	63.15
402.172	-4.44
402.381	-35.16
402.59	155.3
402.799	61.1
403.008	138.92
403.217	108.2
403.426	73.39
403.635	1.71
403.844	-8.53
404.053	26.28
404.262	-59.73
404.471	175.78
404.68	30.38
404.888	-31.06
405.097	100.01
405.306	97.96
405.515	151.21
405.724	48.81
405.933	91.82
406.142	143.02
406.35	93.87
406.559	65.19
406.768	-16.73
406.977	126.63
407.185	52.91
407.394	93.87
407.603	-76.12
407.812	132.78
408.02	126.63
408.229	20.14
408.438	77.48
408.646	36.52
408.855	48.81
409.064	65.19
409.272	89.77
409.481	116.39
409.69	9.9
409.898	85.67
410.107	149.16
410.315	122.54
410.524	13.99
410.733	34.47
410.941	85.67
411.15	130.73
411.358	5.8
411.567	192.17
411.775	5.8
411.984	48.81
412.192	-4.44
412.401	36.52
412.609	157.35
412.818	77.48
413.026	61.1
413.234	71.34
413.443	28.33
413.651	32.43
413.86	52.91
414.068	130.73
414.276	218.79
414.485	83.63
414.693	145.06
414.901	196.26
415.11	61.1
415.318	61.1
415.526	75.43
415.734	124.58
415.943	50.86
416.151	138.92
416.359	91.82
416.567	114.34
416.776	46.76
416.984	118.44
417.192	179.88
417.4	9.9
417.608	-24.92
417.817	104.11
418.025	130.73
418.233	145.06
418.441	38.57
418.649	9.9
418.857	132.78
419.065	177.83
419.273	32.43
419.481	46.76
419.689	34.47
419.897	73.39
420.105	26.28
420.313	75.43
420.521	208.55
420.729	138.92
420.937	54.95
421.145	-55.64
421.353	97.96
421.561	124.58
421.769	52.91
421.977	-20.82
422.185	67.24
422.393	85.67
422.601	124.58
422.809	163.5
423.017	134.82
423.224	-2.39
423.432	112.3
423.64	116.39
423.848	132.78
424.056	32.43
424.263	132.78
424.471	63.15
424.679	161.45
424.887	-57.68
425.094	143.02
425.302	52.91
425.51	79.53
425.718	167.59
425.925	75.43
426.133	67.24
426.341	151.21
426.548	126.63
426.756	24.23
426.964	81.58
427.171	32.43
427.379	95.91
427.586	79.53
427.794	151.21
428.001	157.35
428.209	130.73
428.417	138.92
428.624	75.43
428.832	110.25
429.039	102.06
429.247	93.87
429.454	116.39
429.662	269.99
429.869	202.41
430.076	202.41
430.284	108.2
430.491	175.78
430.699	188.07
430.906	208.55
431.114	112.3
431.321	186.02
431.528	175.78
431.736	167.59
431.943	81.58
432.15	212.65
432.358	216.74
432.565	245.41
432.772	7.85
432.979	239.27
433.187	132.78
433.394	255.65
433.601	151.21
433.808	210.6
434.016	151.21
434.223	220.84
434.43	212.65
434.637	247.46
434.844	196.26
435.052	194.22
435.259	245.41
435.466	288.42
435.673	208.55
435.88	259.75
436.087	351.91
436.294	321.19
436.501	337.57
436.708	274.09
436.915	294.57
437.122	335.53
437.329	276.13
437.537	284.33
437.743	358.05
437.95	487.08
438.157	382.63
438.364	372.39
438.571	386.72
438.778	392.87
438.985	409.25
439.192	456.36
439.399	380.58
439.606	452.26
439.813	421.54
440.02	626.34
440.227	618.15
440.433	507.55
440.64	442.02
440.847	439.97
441.054	521.89
441.261	650.91
441.467	568.99
441.674	577.19
441.881	671.39
442.088	669.34
442.294	679.58
442.501	704.16
442.708	755.36
442.914	724.64
443.121	917.15
443.328	847.52
443.534	915.1
443.741	847.52
443.948	741.02
444.154	849.57
444.361	1072.79
444.568	974.49
444.774	1042.07
444.981	951.96
445.187	1128.09
445.394	1103.51
445.6	1146.52
445.807	1250.97
446.013	1189.53
446.22	1189.53
446.426	1345.17
446.633	1443.48
446.839	1660.56
447.046	1318.55
447.252	1504.92
447.459	1590.93
447.665	1648.27
447.871	1709.71
448.078	1756.82
448.284	1722
448.491	1873.55
448.697	1982.09
448.903	2084.49
449.11	2072.2
449.316	2018.96
449.522	2186.89
449.728	2389.64
449.935	2418.31
450.141	2346.63
450.347	2537.09
450.553	2598.53
450.76	2659.97
450.966	2733.7
451.172	2887.29
451.378	2930.3
451.584	3116.67
451.791	3358.33
451.997	3288.7
452.203	3401.33
452.409	3638.9
452.615	3599.99
452.821	3552.88
453.027	3767.92
453.233	4068.97
453.44	4085.36
453.646	4292.2
453.852	4417.13
454.058	4554.34
454.264	4720.23
454.47	5070.43
454.676	5070.43
454.882	5365.34
455.088	5473.88
455.294	5418.58
455.5	5801.55
455.705	6344.27
455.911	6317.64
456.117	6278.73
456.323	6608.45
456.529	6499.91
456.735	6999.62
456.941	7405.11
457.147	7726.64
457.352	7960.11
457.558	8115.76
457.764	8613.42
457.97	8850.98
458.176	9203.23
458.381	9651.74
458.587	9799.19
458.793	10307.09
458.999	10313.23
459.204	11476.48
459.41	11808.25
459.616	11730.42
459.821	12408.3
460.027	13207.01
460.233	13782.49
460.438	13829.59
460.644	14398.93
460.85	14573
461.055	15214.02
461.261	16027.06
461.466	15889.85
461.672	15781.31
461.878	17808.79
462.083	17690.01
462.289	18089.37
462.494	18736.52
462.7	18955.66
462.905	19217.8
463.111	20948.33
463.316	21933.4
463.522	22031.71
463.727	22783.31
463.932	23698.75
464.138	24227.13
464.343	25312.55
464.549	25597.22
464.754	27630.85
464.959	28333.31
465.165	28488.95
465.37	28187.9
465.575	28495.1
465.781	30547.16
465.986	31519.95
466.191	30672.09
466.397	30966.99
466.602	30530.78
466.807	32222.4
467.012	32732.34
467.218	33025.2
467.423	33445.04
467.628	34165.92
467.833	35875.98
468.038	34948.25
468.244	34708.63
468.449	36271.23
