Data from USB4F104151__103__10-45-26-563.txt Node

Date: Wed Feb 26 10:45:26 EST 2025
User: louis
Spectrometer: USB4F10415
Trigger mode: 4
Integration Time (sec): 1.000000E-1
Scans to average: 1
Electric dark correction enabled: true
Nonlinearity correction enabled: false
Boxcar width: 0
XAxis mode: Wavelengths
Number of Pixels in Spectrum: 3648
>>>>>Begin Spectral Data<<<<<
178.204	-403.45
178.424	-403.45
178.644	-403.45
178.864	-440.31
179.084	-354.3
179.304	-18.43
179.524	-63.49
179.744	-2.05
179.964	36.86
180.184	57.34
180.404	57.34
180.624	-18.43
180.844	2.05
181.064	-22.53
181.283	20.48
181.503	-55.3
181.723	6.14
181.943	-57.34
182.163	147.45
182.383	-20.48
182.602	59.39
182.822	182.27
183.042	61.44
183.262	-92.16
183.482	65.54
183.701	18.43
183.921	79.87
184.141	8.19
184.361	83.97
184.58	81.92
184.8	63.49
185.02	18.43
185.239	133.12
185.459	26.62
185.679	77.82
185.898	-79.87
186.118	8.19
186.338	-6.14
186.557	141.31
186.777	-61.44
186.997	59.39
187.216	45.06
187.436	182.27
187.655	108.54
187.875	114.69
188.095	131.07
188.314	122.88
188.534	96.25
188.753	-106.49
188.973	69.63
189.192	208.89
189.412	-12.29
189.631	4.1
189.851	47.1
190.07	219.13
190.29	-71.68
190.509	-18.43
190.729	38.91
190.948	83.97
191.168	186.37
191.387	57.34
191.607	-22.53
191.826	69.63
192.045	71.68
192.265	-16.38
192.484	90.11
192.704	57.34
192.923	-10.24
193.142	198.65
193.362	124.93
193.581	167.93
193.8	120.83
194.02	126.97
194.239	34.82
194.458	34.82
194.678	-22.53
194.897	26.62
195.116	71.68
195.335	100.35
195.555	61.44
195.774	-59.39
195.993	43.01
196.212	-75.77
196.432	-20.48
196.651	-81.92
196.87	-61.44
197.089	174.08
197.308	100.35
197.528	43.01
197.747	-38.91
197.966	77.82
198.185	133.12
198.404	-53.25
198.623	79.87
198.842	133.12
199.062	108.54
199.281	55.3
199.5	22.53
199.719	71.68
199.938	61.44
200.157	102.4
200.376	59.39
200.595	110.59
200.814	61.44
201.033	-49.15
201.252	126.97
201.471	34.82
201.69	-18.43
201.909	49.15
202.128	88.06
202.347	12.29
202.566	30.72
202.785	-98.3
203.004	-67.58
203.223	215.04
203.442	92.16
203.661	-90.11
203.879	96.25
204.098	157.69
204.317	-34.82
204.536	51.2
204.755	65.54
204.974	172.03
205.193	2.05
205.411	69.63
205.63	86.01
205.849	8.19
206.068	51.2
206.287	-104.45
206.505	104.45
206.724	-53.25
206.943	12.29
207.162	40.96
207.381	86.01
207.599	-16.38
207.818	81.92
208.037	40.96
208.255	18.43
208.474	98.3
208.693	90.11
208.911	6.14
209.13	63.49
209.349	38.91
209.567	26.62
209.786	26.62
210.005	55.3
210.223	40.96
210.442	-96.25
210.661	18.43
210.879	98.3
211.098	-8.19
211.316	28.67
211.535	55.3
211.753	43.01
211.972	120.83
212.191	-20.48
212.409	-12.29
212.628	75.77
212.846	-22.53
213.065	18.43
213.283	92.16
213.502	53.25
213.72	6.14
213.938	-6.14
214.157	-20.48
214.375	145.41
214.594	-38.91
214.812	77.82
215.031	-6.14
215.249	151.55
215.467	83.97
215.686	16.38
215.904	12.29
216.122	-26.62
216.341	149.5
216.559	-32.77
216.778	65.54
216.996	88.06
217.214	34.82
217.432	-10.24
217.651	-112.64
217.869	63.49
218.087	28.67
218.306	-20.48
218.524	22.53
218.742	40.96
218.96	120.83
219.179	20.48
219.397	38.91
219.615	251.9
219.833	155.65
220.051	-34.82
220.27	79.87
220.488	34.82
220.706	75.77
220.924	6.14
221.142	-67.58
221.36	47.1
221.578	51.2
221.796	28.67
222.015	51.2
222.233	-10.24
222.451	225.28
222.669	-69.63
222.887	88.06
223.105	4.1
223.323	65.54
223.541	-43.01
223.759	16.38
223.977	81.92
224.195	221.18
224.413	110.59
224.631	45.06
224.849	96.25
225.067	229.37
225.285	-2.05
225.503	32.77
225.721	-75.77
225.939	30.72
226.157	28.67
226.375	194.56
226.592	-2.05
226.81	53.25
227.028	30.72
227.246	73.73
227.464	86.01
227.682	133.12
227.9	45.06
228.117	104.45
228.335	77.82
228.553	47.1
228.771	28.67
228.989	-10.24
229.206	34.82
229.424	-49.15
229.642	-69.63
229.86	-69.63
230.077	106.49
230.295	30.72
230.513	153.6
230.731	159.74
230.948	180.22
231.166	137.21
231.384	43.01
231.601	-26.62
231.819	169.98
232.037	-30.72
232.254	30.72
232.472	-16.38
232.689	-38.91
232.907	59.39
233.125	-40.96
233.342	-92.16
233.56	47.1
233.777	-16.38
233.995	55.3
234.213	59.39
234.43	133.12
234.648	59.39
234.865	-2.05
235.083	114.69
235.3	-2.05
235.518	34.82
235.735	112.64
235.953	71.68
236.17	12.29
236.388	4.1
236.605	28.67
236.822	92.16
237.04	129.02
237.257	-8.19
237.475	-43.01
237.692	-6.14
237.909	118.78
238.127	-2.05
238.344	104.45
238.562	28.67
238.779	-18.43
238.996	-63.49
239.214	-4.1
239.431	40.96
239.648	-4.1
239.865	49.15
240.083	131.07
240.3	-2.05
240.517	69.63
240.735	53.25
240.952	212.99
241.169	32.77
241.386	104.45
241.603	-14.34
241.821	-34.82
242.038	71.68
242.255	180.22
242.472	-24.58
242.689	45.06
242.907	16.38
243.124	-12.29
243.341	8.19
243.558	49.15
243.775	-86.01
243.992	-67.58
244.209	40.96
244.426	151.55
244.643	90.11
244.86	34.82
245.078	147.45
245.295	47.1
245.512	-12.29
245.729	-4.1
245.946	16.38
246.163	55.3
246.38	94.21
246.597	36.86
246.814	4.1
247.031	104.45
247.248	20.48
247.464	34.82
247.681	112.64
247.898	180.22
248.115	61.44
248.332	-94.21
248.549	112.64
248.766	182.27
248.983	96.25
249.2	57.34
249.417	165.89
249.633	-90.11
249.85	90.11
250.067	83.97
250.284	-4.1
250.501	90.11
250.717	77.82
250.934	-45.06
251.151	-43.01
251.368	38.91
251.585	0
251.801	38.91
252.018	-71.68
252.235	32.77
252.451	-26.62
252.668	2.05
252.885	120.83
253.102	40.96
253.318	-51.2
253.535	14.34
253.752	32.77
253.968	92.16
254.185	-94.21
254.401	12.29
254.618	65.54
254.835	0
255.051	86.01
255.268	96.25
255.484	73.73
255.701	20.48
255.917	59.39
256.134	-22.53
256.351	2.05
256.567	0
256.784	43.01
257	-69.63
257.217	32.77
257.433	40.96
257.65	96.25
257.866	102.4
258.082	-34.82
258.299	-8.19
258.515	18.43
258.732	55.3
258.948	26.62
259.165	49.15
259.381	-38.91
259.597	63.49
259.814	-73.73
260.03	67.58
260.246	-59.39
260.463	96.25
260.679	86.01
260.895	114.69
261.112	40.96
261.328	63.49
261.544	0
261.761	126.97
261.977	-8.19
262.193	-51.2
262.409	32.77
262.626	38.91
262.842	59.39
263.058	-6.14
263.274	12.29
263.49	34.82
263.707	90.11
263.923	71.68
264.139	-102.4
264.355	65.54
264.571	147.45
264.787	55.3
265.004	153.6
265.22	20.48
265.436	47.1
265.652	104.45
265.868	55.3
266.084	-22.53
266.3	16.38
266.516	-67.58
266.732	16.38
266.948	18.43
267.164	2.05
267.38	71.68
267.596	24.58
267.812	139.26
268.028	61.44
268.244	-57.34
268.46	26.62
268.676	0
268.892	2.05
269.108	0
269.324	-16.38
269.54	-53.25
269.756	30.72
269.972	-92.16
270.188	75.77
270.403	-14.34
270.619	28.67
270.835	24.58
271.051	79.87
271.267	61.44
271.483	61.44
271.698	147.45
271.914	73.73
272.13	36.86
272.346	2.05
272.562	118.78
272.777	180.22
272.993	-2.05
273.209	16.38
273.425	32.77
273.64	-45.06
273.856	36.86
274.072	14.34
274.287	-16.38
274.503	98.3
274.719	79.87
274.934	65.54
275.15	-79.87
275.366	-8.19
275.581	4.1
275.797	-28.67
276.012	57.34
276.228	-12.29
276.444	77.82
276.659	92.16
276.875	-12.29
277.09	49.15
277.306	-14.34
277.521	51.2
277.737	-24.58
277.952	83.97
278.168	-30.72
278.383	-36.86
278.599	61.44
278.814	104.45
279.03	-2.05
279.245	147.45
279.461	12.29
279.676	61.44
279.892	-55.3
280.107	-69.63
280.322	-43.01
280.538	-6.14
280.753	-22.53
280.969	45.06
281.184	-8.19
281.399	157.69
281.615	75.77
281.83	30.72
282.045	-59.39
282.26	-51.2
282.476	92.16
282.691	28.67
282.906	86.01
283.122	24.58
283.337	18.43
283.552	34.82
283.767	-86.01
283.983	40.96
284.198	40.96
284.413	47.1
284.628	-40.96
284.843	88.06
285.058	151.55
285.274	16.38
285.489	-10.24
285.704	90.11
285.919	67.58
286.134	-77.82
286.349	20.48
286.564	26.62
286.779	161.79
286.995	38.91
287.21	-77.82
287.425	55.3
287.64	4.1
287.855	18.43
288.07	-53.25
288.285	79.87
288.5	71.68
288.715	73.73
288.93	8.19
289.145	-57.34
289.36	102.4
289.575	-59.39
289.79	122.88
290.004	49.15
290.219	118.78
290.434	14.34
290.649	-61.44
290.864	-53.25
291.079	4.1
291.294	61.44
291.509	-24.58
291.724	-63.49
291.938	-8.19
292.153	151.55
292.368	14.34
292.583	49.15
292.798	71.68
293.012	59.39
293.227	69.63
293.442	36.86
293.657	65.54
293.871	114.69
294.086	79.87
294.301	223.23
294.516	63.49
294.73	34.82
294.945	6.14
295.16	45.06
295.374	110.59
295.589	92.16
295.804	18.43
296.018	47.1
296.233	71.68
296.447	-22.53
296.662	51.2
296.877	61.44
297.091	73.73
297.306	67.58
297.52	36.86
297.735	61.44
297.949	22.53
298.164	53.25
298.378	69.63
298.593	-143.36
298.807	14.34
299.022	43.01
299.236	122.88
299.451	73.73
299.665	-18.43
299.88	49.15
300.094	124.93
300.309	59.39
300.523	20.48
300.737	20.48
300.952	18.43
301.166	71.68
301.381	-8.19
301.595	-2.05
301.809	38.91
302.024	18.43
302.238	-14.34
302.452	10.24
302.667	-24.58
302.881	51.2
303.095	90.11
303.309	22.53
303.524	45.06
303.738	57.34
303.952	-38.91
304.166	-10.24
304.381	-28.67
304.595	137.21
304.809	6.14
305.023	10.24
305.237	20.48
305.452	-51.2
305.666	26.62
305.88	22.53
306.094	51.2
306.308	36.86
306.522	65.54
306.736	65.54
306.95	98.3
307.164	-20.48
307.379	73.73
307.593	102.4
307.807	147.45
308.021	65.54
308.235	90.11
308.449	-145.41
308.663	-36.86
308.877	266.24
309.091	71.68
309.305	96.25
309.519	-129.02
309.733	69.63
309.947	-36.86
310.161	77.82
310.374	81.92
310.588	157.69
310.802	-32.77
311.016	-28.67
311.23	55.3
311.444	26.62
311.658	28.67
311.872	151.55
312.085	126.97
312.299	47.1
312.513	63.49
312.727	20.48
312.941	-30.72
313.154	49.15
313.368	59.39
313.582	28.67
313.796	32.77
314.009	-55.3
314.223	83.97
314.437	36.86
314.651	133.12
314.864	18.43
315.078	47.1
315.292	-38.91
315.505	-24.58
315.719	63.49
315.933	106.49
316.146	-16.38
316.36	53.25
316.573	38.91
316.787	63.49
317.001	26.62
317.214	-81.92
317.428	-6.14
317.641	-110.59
317.855	16.38
318.068	30.72
318.282	-12.29
318.495	106.49
318.709	90.11
318.922	-53.25
319.136	159.74
319.349	108.54
319.563	-38.91
319.776	59.39
319.99	16.38
320.203	114.69
320.417	96.25
320.63	43.01
320.843	98.3
321.057	28.67
321.27	4.1
321.483	43.01
321.697	159.74
321.91	-2.05
322.124	102.4
322.337	36.86
322.55	45.06
322.763	20.48
322.977	2.05
323.19	8.19
323.403	45.06
323.617	67.58
323.83	100.35
324.043	8.19
324.256	75.77
324.469	-79.87
324.683	36.86
324.896	61.44
325.109	-24.58
325.322	-43.01
325.535	118.78
325.748	165.89
325.962	40.96
326.175	83.97
326.388	-2.05
326.601	86.01
326.814	38.91
327.027	51.2
327.24	212.99
327.453	-102.4
327.666	26.62
327.879	139.26
328.092	88.06
328.305	12.29
328.518	12.29
328.731	-92.16
328.944	-24.58
329.157	34.82
329.37	81.92
329.583	145.41
329.796	137.21
330.009	-79.87
330.222	75.77
330.435	108.54
330.648	98.3
330.861	16.38
331.073	69.63
331.286	88.06
331.499	18.43
331.712	-59.39
331.925	55.3
332.138	-38.91
332.35	45.06
332.563	-8.19
332.776	131.07
332.989	-22.53
333.202	59.39
333.414	40.96
333.627	65.54
333.84	16.38
334.053	135.17
334.265	32.77
334.478	18.43
334.691	-22.53
334.903	75.77
335.116	2.05
335.329	-6.14
335.541	129.02
335.754	167.93
335.966	28.67
336.179	69.63
336.392	-34.82
336.604	24.58
336.817	53.25
337.029	61.44
337.242	81.92
337.454	67.58
337.667	28.67
337.88	176.13
338.092	129.02
338.305	40.96
338.517	20.48
338.729	40.96
338.942	151.55
339.154	10.24
339.367	-88.06
339.579	-22.53
339.792	-18.43
340.004	57.34
340.217	67.58
340.429	-14.34
340.641	-73.73
340.854	30.72
341.066	30.72
341.278	141.31
341.491	200.7
341.703	-38.91
341.915	-47.1
342.128	59.39
342.34	73.73
342.552	-16.38
342.764	-24.58
342.977	-49.15
343.189	22.53
343.401	59.39
343.613	-108.54
343.826	102.4
344.038	47.1
344.25	38.91
344.462	-51.2
344.674	67.58
344.886	12.29
345.099	55.3
345.311	69.63
345.523	16.38
345.735	-22.53
345.947	61.44
346.159	71.68
346.371	47.1
346.583	14.34
346.795	174.08
347.007	38.91
347.219	45.06
347.431	8.19
347.643	153.6
347.855	-34.82
348.067	122.88
348.279	-131.07
348.491	55.3
348.703	-16.38
348.915	-6.14
349.127	-18.43
349.339	45.06
349.551	0
349.763	36.86
349.975	30.72
350.187	65.54
350.399	30.72
350.61	32.77
350.822	69.63
351.034	-10.24
351.246	-57.34
351.458	-4.1
351.669	14.34
351.881	90.11
352.093	151.55
352.305	163.84
352.517	92.16
352.728	98.3
352.94	16.38
353.152	51.2
353.363	-18.43
353.575	16.38
353.787	155.65
353.999	94.21
354.21	172.03
354.422	-8.19
354.633	16.38
354.845	24.58
355.057	2.05
355.268	-6.14
355.48	75.77
355.692	-40.96
355.903	18.43
356.115	-38.91
356.326	-192.51
356.538	159.74
356.749	36.86
356.961	69.63
357.172	36.86
357.384	-26.62
357.595	251.9
357.807	-59.39
358.018	-65.54
358.23	59.39
358.441	141.31
358.653	55.3
358.864	-8.19
359.075	-22.53
359.287	55.3
359.498	120.83
359.709	16.38
359.921	2.05
360.132	34.82
360.344	-34.82
360.555	-14.34
360.766	51.2
360.977	-2.05
361.189	88.06
361.4	-106.49
361.611	124.93
361.823	98.3
362.034	92.16
362.245	-40.96
362.456	43.01
362.667	40.96
362.879	-49.15
363.09	24.58
363.301	26.62
363.512	36.86
363.723	36.86
363.935	81.92
364.146	69.63
364.357	38.91
364.568	32.77
364.779	8.19
364.99	65.54
365.201	-36.86
365.412	92.16
365.623	-108.54
365.834	77.82
366.045	-34.82
366.256	40.96
366.467	96.25
366.678	-67.58
366.889	-86.01
367.1	-2.05
367.311	65.54
367.522	-47.1
367.733	94.21
367.944	151.55
368.155	28.67
368.366	118.78
368.577	43.01
368.788	100.35
368.999	-53.25
369.209	28.67
369.42	159.74
369.631	176.13
369.842	6.14
370.053	-32.77
370.264	61.44
370.474	-51.2
370.685	53.25
370.896	43.01
371.107	153.6
371.317	133.12
371.528	-43.01
371.739	61.44
371.95	51.2
372.16	59.39
372.371	-34.82
372.582	-34.82
372.792	34.82
373.003	90.11
373.214	86.01
373.424	61.44
373.635	-51.2
373.846	178.17
374.056	26.62
374.267	8.19
374.477	28.67
374.688	-36.86
374.898	126.97
375.109	18.43
375.319	92.16
375.53	114.69
375.74	131.07
375.951	-20.48
376.161	43.01
376.372	10.24
376.582	14.34
376.793	83.97
377.003	20.48
377.214	-34.82
377.424	67.58
377.635	30.72
377.845	43.01
378.055	124.93
378.266	-10.24
378.476	57.34
378.686	-2.05
378.897	71.68
379.107	75.77
379.317	83.97
379.528	-20.48
379.738	120.83
379.948	-16.38
380.158	108.54
380.369	45.06
380.579	83.97
380.789	10.24
380.999	122.88
381.21	90.11
381.42	141.31
381.63	-12.29
381.84	61.44
382.05	65.54
382.261	180.22
382.471	73.73
382.681	-94.21
382.891	102.4
383.101	81.92
383.311	10.24
383.521	-61.44
383.731	38.91
383.941	75.77
384.151	-14.34
384.361	-36.86
384.571	0
384.781	16.38
384.991	161.79
385.201	229.37
385.411	26.62
385.621	32.77
385.831	43.01
386.041	-4.1
386.251	79.87
386.461	102.4
386.671	40.96
386.881	53.25
387.091	96.25
387.301	61.44
387.511	18.43
387.72	43.01
387.93	47.1
388.14	-32.77
388.35	77.82
388.56	141.31
388.769	75.77
388.979	67.58
389.189	-6.14
389.399	12.29
389.609	69.63
389.818	92.16
390.028	16.38
390.238	116.73
390.447	45.06
390.657	67.58
390.867	36.86
391.076	-92.16
391.286	28.67
391.496	-8.19
391.705	24.58
391.915	159.74
392.125	133.12
392.334	10.24
392.544	59.39
392.753	24.58
392.963	6.14
393.172	-2.05
393.382	-79.87
393.591	202.75
393.801	-73.73
394.01	200.7
394.22	98.3
394.429	-63.49
394.639	43.01
394.848	110.59
395.058	104.45
395.267	83.97
395.477	67.58
395.686	51.2
395.895	161.79
396.105	161.79
396.314	75.77
396.524	49.15
396.733	24.58
396.942	155.65
397.152	71.68
397.361	104.45
397.57	22.53
397.78	-20.48
397.989	10.24
398.198	223.23
398.407	-65.54
398.617	0
398.826	40.96
399.035	-4.1
399.244	106.49
399.453	36.86
399.663	28.67
399.872	40.96
400.081	-90.11
400.29	63.49
400.499	-36.86
400.708	81.92
400.917	63.49
401.127	43.01
401.336	-2.05
401.545	174.08
401.754	75.77
401.963	43.01
402.172	-63.49
402.381	36.86
402.59	88.06
402.799	20.48
403.008	163.84
403.217	98.3
403.426	4.1
403.635	-12.29
403.844	38.91
404.053	6.14
404.262	-32.77
404.471	172.03
404.68	153.6
404.888	86.01
405.097	45.06
405.306	120.83
405.515	57.34
405.724	43.01
405.933	86.01
406.142	30.72
406.35	157.69
406.559	79.87
406.768	47.1
406.977	106.49
407.185	55.3
407.394	47.1
407.603	-10.24
407.812	45.06
408.02	110.59
408.229	47.1
408.438	28.67
408.646	-59.39
408.855	22.53
409.064	116.73
409.272	-4.1
409.481	43.01
409.69	18.43
409.898	-26.62
410.107	108.54
410.315	163.84
410.524	-73.73
410.733	67.58
410.941	12.29
411.15	69.63
411.358	90.11
411.567	81.92
411.775	0
411.984	77.82
412.192	90.11
412.401	-45.06
412.609	239.61
412.818	118.78
413.026	149.5
413.234	36.86
413.443	45.06
413.651	36.86
413.86	36.86
414.068	86.01
414.276	196.61
414.485	-14.34
414.693	215.04
414.901	251.9
415.11	129.02
415.318	75.77
415.526	12.29
415.734	147.45
415.943	47.1
416.151	77.82
416.359	18.43
416.567	4.1
416.776	129.02
416.984	100.35
417.192	221.18
417.4	-10.24
417.608	14.34
417.817	10.24
418.025	135.17
418.233	200.7
418.441	-100.35
418.649	-2.05
418.857	100.35
419.065	137.21
419.273	55.3
419.481	-8.19
419.689	71.68
419.897	-43.01
420.105	-6.14
420.313	141.31
420.521	47.1
420.729	172.03
420.937	79.87
421.145	6.14
421.353	122.88
421.561	159.74
421.769	69.63
421.977	18.43
422.185	86.01
422.393	36.86
422.601	86.01
422.809	67.58
423.017	67.58
423.224	133.12
423.432	118.78
423.64	69.63
423.848	57.34
424.056	4.1
424.263	129.02
424.471	71.68
424.679	188.41
424.887	-53.25
425.094	161.79
425.302	122.88
425.51	49.15
425.718	133.12
425.925	81.92
426.133	20.48
426.341	262.14
426.548	-16.38
426.756	0
426.964	122.88
427.171	-16.38
427.379	176.13
427.586	110.59
427.794	178.17
428.001	131.07
428.209	51.2
428.417	141.31
428.624	118.78
428.832	90.11
429.039	145.41
429.247	45.06
429.454	124.93
429.662	174.08
429.869	153.6
430.076	151.55
430.284	215.04
430.491	178.17
430.699	196.61
430.906	212.99
431.114	122.88
431.321	90.11
431.528	184.32
431.736	194.56
431.943	210.94
432.15	137.21
432.358	159.74
432.565	282.62
432.772	69.63
432.979	163.84
433.187	90.11
433.394	260.09
433.601	190.46
433.808	210.94
434.016	245.76
434.223	227.32
434.43	174.08
434.637	278.52
434.844	247.8
435.052	278.52
435.259	305.15
435.466	329.72
435.673	237.56
435.88	243.71
436.087	313.34
436.294	397.31
436.501	313.34
436.708	253.95
436.915	305.15
437.122	385.02
437.329	299
437.537	313.34
437.743	305.15
437.95	409.59
438.157	417.79
438.364	421.88
438.571	397.31
438.778	380.92
438.985	462.84
439.192	561.14
439.399	464.89
439.606	569.34
439.813	444.41
440.02	641.01
440.227	636.92
440.433	540.66
440.64	522.23
440.847	464.89
441.054	634.87
441.261	727.03
441.467	632.82
441.674	677.88
441.881	745.46
442.088	645.11
442.294	780.28
442.501	772.08
442.708	872.43
442.914	851.95
443.121	868.34
443.328	880.63
443.534	989.17
443.741	974.83
443.948	729.08
444.154	1107.95
444.361	1134.57
444.568	1062.9
444.774	1066.99
444.981	976.88
445.187	1253.36
445.394	1146.86
445.6	1253.36
445.807	1380.33
446.013	1415.15
446.22	1304.56
446.426	1464.3
446.633	1648.61
446.839	1812.45
447.046	1544.17
447.252	1746.92
447.459	1798.12
447.665	1773.54
447.871	1865.7
448.078	2109.41
448.284	1929.19
448.491	2168.8
448.697	2062.3
448.903	2334.68
449.11	2273.25
449.316	2277.34
449.522	2541.53
449.728	2535.39
449.935	2650.07
450.141	2695.13
450.347	2955.22
450.553	2883.54
450.76	2893.78
450.966	3233.74
451.172	3207.12
451.378	3272.65
451.584	3418.06
451.791	3635.14
451.997	3663.82
452.203	3850.18
452.409	4093.89
452.615	4292.54
452.821	4040.64
453.027	4077.51
453.233	4673.46
453.44	4399.04
453.646	4757.43
453.852	5048.24
454.058	5056.43
454.264	5275.57
454.47	5674.92
454.676	5654.44
454.882	6137.76
455.088	5898.15
455.294	6174.63
455.5	6526.88
455.705	7128.98
455.911	7126.93
456.117	7266.19
456.323	7550.86
456.529	7427.98
456.735	8437.63
456.941	8435.58
457.147	8679.29
457.352	8832.89
457.558	9389.94
457.764	9604.97
457.97	9920.36
458.176	10342.24
458.381	10655.58
458.587	11042.65
458.793	11683.66
458.999	11442
459.204	13004.6
459.41	13291.32
459.616	13383.48
459.821	14073.64
460.027	14784.29
460.233	15267.61
460.438	15232.79
460.644	16279.3
460.85	16609.03
461.055	16930.56
461.261	18198.25
461.466	17432.31
461.672	17833.71
461.878	20025.04
462.083	19543.77
462.289	20244.17
462.494	20879.04
462.7	21219
462.905	21227.2
463.111	23000.74
463.316	24520.33
463.522	24805
463.727	25192.06
463.932	26631.79
464.138	27438.69
464.343	28446.29
464.549	28579.4
464.754	30367.28
464.959	31747.61
465.165	32210.45
465.37	31944.22
465.575	31729.18
465.781	33785.34
465.986	35028.46
466.191	34147.83
466.397	34610.67
466.602	33617.41
466.807	35679.71
467.012	36333.01
467.218	36761.04
467.423	36851.15
467.628	38262.2
467.833	39736.74
468.038	39372.2
468.244	38940.08
468.449	40422.81
468.654	39722.4
468.859	39765.41
469.064	39708.07
