Data from USB4F104151__190__11-05-19-532.txt Node

Date: Wed Feb 26 11:05:19 EST 2025
User: louis
Spectrometer: USB4F10415
Trigger mode: 4
Integration Time (sec): 1.000000E-1
Scans to average: 1
Electric dark correction enabled: true
Nonlinearity correction enabled: false
Boxcar width: 0
XAxis mode: Wavelengths
Number of Pixels in Spectrum: 3648
>>>>>Begin Spectral Data<<<<<
178.204	-374.44
178.424	-374.44
178.644	-374.44
178.864	-394.92
179.084	-466.6
179.304	37.2
179.524	-38.57
179.744	-18.09
179.964	-30.38
180.184	33.11
180.404	33.11
180.624	-57
180.844	-59.05
181.064	-50.86
181.283	61.78
181.503	-1.71
181.723	90.45
181.943	-28.33
182.163	239.95
182.383	12.63
182.602	74.07
182.822	160.08
183.042	123.22
183.262	4.44
183.482	47.44
183.701	90.45
183.921	14.68
184.141	-63.15
184.361	41.3
184.58	61.78
184.8	45.4
185.02	-30.38
185.239	26.96
185.459	39.25
185.679	86.36
185.898	-138.92
186.118	80.21
186.338	-7.85
186.557	108.88
186.777	0.34
186.997	10.58
187.216	-13.99
187.436	164.18
187.655	35.16
187.875	45.4
188.095	33.11
188.314	172.37
188.534	102.74
188.753	61.78
188.973	184.66
189.192	153.94
189.412	-28.33
189.631	-36.52
189.851	104.79
190.07	180.56
190.29	-104.11
190.509	-3.75
190.729	41.3
190.948	49.49
191.168	280.91
191.387	96.6
191.607	8.53
191.826	43.35
192.045	14.68
192.265	45.4
192.484	194.9
192.704	49.49
192.923	-65.19
193.142	201.04
193.362	112.98
193.581	90.45
193.8	84.31
194.02	145.75
194.239	59.73
194.458	112.98
194.678	-13.99
194.897	-5.8
195.116	61.78
195.335	131.41
195.555	65.88
195.774	-7.85
195.993	53.59
196.212	8.53
196.432	112.98
196.651	43.35
196.87	51.54
197.089	221.52
197.308	63.83
197.528	45.4
197.747	-32.43
197.966	92.5
198.185	102.74
198.404	20.82
198.623	145.75
198.842	135.51
199.062	94.55
199.281	69.97
199.5	0.34
199.719	135.51
199.938	57.68
200.157	94.55
200.376	47.44
200.595	147.8
200.814	31.06
201.033	-24.23
201.252	110.93
201.471	49.49
201.69	61.78
201.909	76.12
202.128	104.79
202.347	129.36
202.566	10.58
202.785	-24.23
203.004	22.87
203.223	317.78
203.442	0.34
203.661	-67.24
203.879	131.41
204.098	57.68
204.317	-73.39
204.536	96.6
204.755	133.46
204.974	86.36
205.193	-30.38
205.411	155.99
205.63	123.22
205.849	14.68
206.068	76.12
206.287	14.68
206.505	100.69
206.724	65.88
206.943	37.2
207.162	-69.29
207.381	98.64
207.599	86.36
207.818	-11.95
208.037	14.68
208.255	14.68
208.474	69.97
208.693	6.49
208.911	-42.67
209.13	76.12
209.349	153.94
209.567	76.12
209.786	63.83
210.005	145.75
210.223	33.11
210.442	-130.73
210.661	14.68
210.879	37.2
211.098	18.77
211.316	8.53
211.535	76.12
211.753	100.69
211.972	74.07
212.191	-13.99
212.409	-1.71
212.628	80.21
212.846	18.77
213.065	123.22
213.283	69.97
213.502	29.01
213.72	14.68
213.938	33.11
214.157	10.58
214.375	153.94
214.594	14.68
214.812	123.22
215.031	24.92
215.249	78.16
215.467	104.79
215.686	12.63
215.904	155.99
216.122	67.92
216.341	145.75
216.559	125.27
216.778	104.79
216.996	166.23
217.214	24.92
217.432	-26.28
217.651	-28.33
217.869	94.55
218.087	8.53
218.306	51.54
218.524	20.82
218.742	-28.33
218.96	121.17
219.179	-13.99
219.397	18.77
219.615	213.33
219.833	53.59
220.051	-42.67
220.27	96.6
220.488	92.5
220.706	155.99
220.924	-97.96
221.142	-93.87
221.36	143.7
221.578	82.26
221.796	-3.75
222.015	-40.62
222.233	31.06
222.451	153.94
222.669	4.44
222.887	88.4
223.105	18.77
223.323	74.07
223.541	-73.39
223.759	14.68
223.977	18.77
224.195	164.18
224.413	141.65
224.631	78.16
224.849	35.16
225.067	182.61
225.285	-34.47
225.503	0.34
225.721	-89.77
225.939	74.07
226.157	96.6
226.375	250.19
226.592	-7.85
226.81	72.02
227.028	102.74
227.246	178.51
227.464	55.64
227.682	194.9
227.9	67.92
228.117	45.4
228.335	84.31
228.553	35.16
228.771	8.53
228.989	158.03
229.206	125.27
229.424	45.4
229.642	51.54
229.86	-26.28
230.077	18.77
230.295	69.97
230.513	47.44
230.731	69.97
230.948	151.89
231.166	145.75
231.384	63.83
231.601	-26.28
231.819	176.47
232.037	22.87
232.254	-9.9
232.472	49.49
232.689	78.16
232.907	96.6
233.125	-1.71
233.342	-46.76
233.56	22.87
233.777	39.25
233.995	59.73
234.213	84.31
234.43	129.36
234.648	55.64
234.865	-9.9
235.083	162.13
235.3	90.45
235.518	211.28
235.735	145.75
235.953	47.44
236.17	59.73
236.388	10.58
236.605	0.34
236.822	110.93
237.04	117.08
237.257	6.49
237.475	-24.23
237.692	78.16
237.909	57.68
238.127	90.45
238.344	31.06
238.562	125.27
238.779	-16.04
238.996	22.87
239.214	123.22
239.431	57.68
239.648	-48.81
239.865	76.12
240.083	43.35
240.3	12.63
240.517	74.07
240.735	59.73
240.952	127.32
241.169	104.79
241.386	18.77
241.603	43.35
241.821	-13.99
242.038	72.02
242.255	119.12
242.472	-48.81
242.689	115.03
242.907	61.78
243.124	47.44
243.341	43.35
243.558	20.82
243.775	53.59
243.992	-40.62
244.209	90.45
244.426	160.08
244.643	26.96
244.86	37.2
245.078	110.93
245.295	20.82
245.512	74.07
245.729	2.39
245.946	176.47
246.163	37.2
246.38	20.82
246.597	55.64
246.814	53.59
247.031	-5.8
247.248	24.92
247.464	127.32
247.681	82.26
247.898	96.6
248.115	14.68
248.332	14.68
248.549	108.88
248.766	207.19
248.983	137.56
249.2	98.64
249.417	135.51
249.633	12.63
249.85	61.78
250.067	35.16
250.284	41.3
250.501	63.83
250.717	92.5
250.934	-20.14
251.151	26.96
251.368	29.01
251.585	57.68
251.801	47.44
252.018	-34.47
252.235	102.74
252.451	-46.76
252.668	-22.19
252.885	108.88
253.102	57.68
253.318	-24.23
253.535	-54.95
253.752	4.44
253.968	59.73
254.185	-52.91
254.401	-11.95
254.618	106.84
254.835	-34.47
255.051	117.08
255.268	100.69
255.484	84.31
255.701	33.11
255.917	76.12
256.134	63.83
256.351	69.97
256.567	-67.24
256.784	2.39
257	-20.14
257.217	110.93
257.433	147.8
257.65	86.36
257.866	125.27
258.082	-38.57
258.299	-24.23
258.515	59.73
258.732	-13.99
258.948	4.44
259.165	65.88
259.381	-5.8
259.597	119.12
259.814	45.4
260.03	18.77
260.246	-32.43
260.463	76.12
260.679	104.79
260.895	74.07
261.112	57.68
261.328	90.45
261.544	-71.34
261.761	190.8
261.977	-50.86
262.193	24.92
262.409	127.32
262.626	72.02
262.842	18.77
263.058	43.35
263.274	65.88
263.49	39.25
263.707	78.16
263.923	63.83
264.139	-97.96
264.355	49.49
264.571	6.49
264.787	55.64
265.004	121.17
265.22	72.02
265.436	-44.71
265.652	82.26
265.868	69.97
266.084	-61.1
266.3	-54.95
266.516	14.68
266.732	31.06
266.948	55.64
267.164	-3.75
267.38	61.78
267.596	47.44
267.812	137.56
268.028	26.96
268.244	51.54
268.46	63.83
268.676	-3.75
268.892	74.07
269.108	-16.04
269.324	-34.47
269.54	-71.34
269.756	78.16
269.972	-11.95
270.188	51.54
270.403	112.98
270.619	-38.57
270.835	24.92
271.051	65.88
271.267	-16.04
271.483	-7.85
271.698	84.31
271.914	86.36
272.13	18.77
272.346	-7.85
272.562	-16.04
272.777	149.84
272.993	20.82
273.209	-9.9
273.425	100.69
273.64	-59.05
273.856	129.36
274.072	-52.91
274.287	16.73
274.503	112.98
274.719	61.78
274.934	-42.67
275.15	51.54
275.366	10.58
275.581	37.2
275.797	-38.57
276.012	57.68
276.228	26.96
276.444	55.64
276.659	74.07
276.875	-11.95
277.09	61.78
277.306	35.16
277.521	121.17
277.737	31.06
277.952	55.64
278.168	-18.09
278.383	53.59
278.599	76.12
278.814	51.54
279.03	63.83
279.245	102.74
279.461	115.03
279.676	129.36
279.892	-28.33
280.107	-30.38
280.322	61.78
280.538	106.84
280.753	-44.71
280.969	41.3
281.184	49.49
281.399	86.36
281.615	53.59
281.83	86.36
282.045	-87.72
282.26	-38.57
282.476	61.78
282.691	74.07
282.906	29.01
283.122	135.51
283.337	45.4
283.552	80.21
283.767	10.58
283.983	110.93
284.198	-50.86
284.413	24.92
284.628	8.53
284.843	24.92
285.058	47.44
285.274	24.92
285.489	-9.9
285.704	45.4
285.919	-46.76
286.134	24.92
286.349	53.59
286.564	33.11
286.779	108.88
286.995	26.96
287.21	-67.24
287.425	24.92
287.64	-44.71
287.855	123.22
288.07	-44.71
288.285	39.25
288.5	72.02
288.715	123.22
288.93	-9.9
289.145	8.53
289.36	133.46
289.575	-13.99
289.79	131.41
290.004	16.73
290.219	100.69
290.434	-59.05
290.649	-40.62
290.864	45.4
291.079	26.96
291.294	41.3
291.509	90.45
291.724	43.35
291.938	10.58
292.153	43.35
292.368	-5.8
292.583	121.17
292.798	76.12
293.012	61.78
293.227	29.01
293.442	82.26
293.657	137.56
293.871	37.2
294.086	10.58
294.301	123.22
294.516	151.89
294.73	22.87
294.945	-42.67
295.16	35.16
295.374	102.74
295.589	92.5
295.804	35.16
296.018	12.63
296.233	119.12
296.447	80.21
296.662	8.53
296.877	92.5
297.091	106.84
297.306	12.63
297.52	43.35
297.735	26.96
297.949	59.73
298.164	31.06
298.378	121.17
298.593	-24.23
298.807	39.25
299.022	86.36
299.236	137.56
299.451	37.2
299.665	37.2
299.88	65.88
300.094	86.36
300.309	-73.39
300.523	80.21
300.737	69.97
300.952	106.84
301.166	26.96
301.381	-11.95
301.595	6.49
301.809	90.45
302.024	33.11
302.238	-5.8
302.452	164.18
302.667	-11.95
302.881	166.23
303.095	72.02
303.309	139.6
303.524	4.44
303.738	2.39
303.952	57.68
304.166	82.26
304.381	-73.39
304.595	100.69
304.809	35.16
305.023	-13.99
305.237	-73.39
305.452	18.77
305.666	51.54
305.88	117.08
306.094	184.66
306.308	112.98
306.522	57.68
306.736	65.88
306.95	82.26
307.164	67.92
307.379	-24.23
307.593	135.51
307.807	143.7
308.021	98.64
308.235	121.17
308.449	-97.96
308.663	63.83
308.877	155.99
309.091	76.12
309.305	158.03
309.519	-65.19
309.733	131.41
309.947	-93.87
310.161	115.03
310.374	151.89
310.588	141.65
310.802	-71.34
311.016	33.11
311.23	55.64
311.444	53.59
311.658	33.11
311.872	145.75
312.085	143.7
312.299	100.69
312.513	172.37
312.727	123.22
312.941	-59.05
313.154	94.55
313.368	74.07
313.582	51.54
313.796	29.01
314.009	102.74
314.223	147.8
314.437	29.01
314.651	49.49
314.864	-11.95
315.078	-40.62
315.292	-106.15
315.505	-28.33
315.719	45.4
315.933	26.96
316.146	14.68
316.36	24.92
316.573	151.89
316.787	86.36
317.001	39.25
317.214	-18.09
317.428	55.64
317.641	0.34
317.855	78.16
318.068	88.4
318.282	37.2
318.495	211.28
318.709	76.12
318.922	76.12
319.136	65.88
319.349	207.19
319.563	100.69
319.776	176.47
319.99	-46.76
320.203	6.49
320.417	47.44
320.63	160.08
320.843	166.23
321.057	45.4
321.27	-34.47
321.483	78.16
321.697	127.32
321.91	6.49
322.124	96.6
322.337	12.63
322.55	-22.19
322.763	8.53
322.977	-11.95
323.19	-16.04
323.403	59.73
323.617	29.01
323.83	29.01
324.043	12.63
324.256	94.55
324.469	-57
324.683	106.84
324.896	45.4
325.109	-3.75
325.322	-67.24
325.535	178.51
325.748	84.31
325.962	39.25
326.175	18.77
326.388	65.88
326.601	119.12
326.814	63.83
327.027	41.3
327.24	100.69
327.453	-36.52
327.666	67.92
327.879	125.27
328.092	55.64
328.305	82.26
328.518	-11.95
328.731	-44.71
328.944	45.4
329.157	33.11
329.37	33.11
329.583	190.8
329.796	174.42
330.009	-93.87
330.222	106.84
330.435	145.75
330.648	20.82
330.861	10.58
331.073	-5.8
331.286	125.27
331.499	12.63
331.712	-7.85
331.925	121.17
332.138	10.58
332.35	94.55
332.563	-36.52
332.776	145.75
332.989	69.97
333.202	24.92
333.414	47.44
333.627	51.54
333.84	-20.14
334.053	51.54
334.265	-22.19
334.478	55.64
334.691	147.8
334.903	51.54
335.116	-3.75
335.329	47.44
335.541	86.36
335.754	149.84
335.966	47.44
336.179	14.68
336.392	16.73
336.604	74.07
336.817	121.17
337.029	67.92
337.242	121.17
337.454	53.59
337.667	4.44
337.88	102.74
338.092	160.08
338.305	63.83
338.517	41.3
338.729	-7.85
338.942	141.65
339.154	-63.15
339.367	-40.62
339.579	61.78
339.792	-5.8
340.004	121.17
340.217	72.02
340.429	37.2
340.641	-34.47
340.854	4.44
341.066	6.49
341.278	135.51
341.491	162.13
341.703	82.26
341.915	-5.8
342.128	110.93
342.34	12.63
342.552	12.63
342.764	108.88
342.977	47.44
343.189	63.83
343.401	33.11
343.613	-63.15
343.826	-1.71
344.038	-59.05
344.25	88.4
344.462	-40.62
344.674	139.6
344.886	14.68
345.099	133.46
345.311	53.59
345.523	-20.14
345.735	-40.62
345.947	139.6
346.159	84.31
346.371	43.35
346.583	10.58
346.795	172.37
347.007	57.68
347.219	78.16
347.431	-16.04
347.643	112.98
347.855	-16.04
348.067	162.13
348.279	57.68
348.491	-3.75
348.703	143.7
348.915	65.88
349.127	-57
349.339	33.11
349.551	-5.8
349.763	57.68
349.975	33.11
350.187	149.84
350.399	123.22
350.61	84.31
350.822	8.53
351.034	35.16
351.246	31.06
351.458	67.92
351.669	100.69
351.881	31.06
352.093	51.54
352.305	53.59
352.517	61.78
352.728	166.23
352.94	94.55
353.152	94.55
353.363	-34.47
353.575	53.59
353.787	145.75
353.999	37.2
354.21	63.83
354.422	4.44
354.633	69.97
354.845	22.87
355.057	26.96
355.268	67.92
355.48	90.45
355.692	-13.99
355.903	29.01
356.115	-22.19
356.326	-75.43
356.538	145.75
356.749	106.84
356.961	78.16
357.172	86.36
357.384	16.73
357.595	215.38
357.807	37.2
358.018	-26.28
358.23	78.16
358.441	115.03
358.653	115.03
358.864	49.49
359.075	-75.43
359.287	86.36
359.498	51.54
359.709	59.73
359.921	84.31
360.132	98.64
360.344	117.08
360.555	-24.23
360.766	29.01
360.977	-59.05
361.189	84.31
361.4	43.35
361.611	194.9
361.823	119.12
362.034	86.36
362.245	24.92
362.456	63.83
362.667	63.83
362.879	-63.15
363.09	35.16
363.301	16.73
363.512	63.83
363.723	-48.81
363.935	-5.8
364.146	94.55
364.357	18.77
364.568	78.16
364.779	-122.54
364.99	141.65
365.201	43.35
365.412	96.6
365.623	-100.01
365.834	37.2
366.045	43.35
366.256	61.78
366.467	84.31
366.678	31.06
366.889	16.73
367.1	33.11
367.311	166.23
367.522	74.07
367.733	86.36
367.944	115.03
368.155	-38.57
368.366	133.46
368.577	51.54
368.788	94.55
368.999	0.34
369.209	53.59
369.42	188.75
369.631	254.29
369.842	139.6
370.053	-61.1
370.264	61.78
370.474	0.34
370.685	31.06
370.896	61.78
371.107	117.08
371.317	80.21
371.528	51.54
371.739	178.51
371.95	112.98
372.16	133.46
372.371	-83.63
372.582	18.77
372.792	41.3
373.003	26.96
373.214	57.68
373.424	137.56
373.635	-18.09
373.846	104.79
374.056	45.4
374.267	45.4
374.477	53.59
374.688	-7.85
374.898	72.02
375.109	41.3
375.319	72.02
375.53	121.17
375.74	88.4
375.951	-9.9
376.161	33.11
376.372	164.18
376.582	29.01
376.793	-34.47
377.003	-42.67
377.214	39.25
377.424	125.27
377.635	20.82
377.845	76.12
378.055	139.6
378.266	-1.71
378.476	88.4
378.686	80.21
378.897	108.88
379.107	131.41
379.317	158.03
379.528	22.87
379.738	65.88
379.948	-69.29
380.158	84.31
380.369	90.45
380.579	72.02
380.789	43.35
380.999	84.31
381.21	88.4
381.42	125.27
381.63	10.58
381.84	104.79
382.05	102.74
382.261	143.7
382.471	94.55
382.681	18.77
382.891	184.66
383.101	94.55
383.311	-28.33
383.521	-32.43
383.731	121.17
383.941	12.63
384.151	39.25
384.361	57.68
384.571	106.84
384.781	57.68
384.991	254.29
385.201	201.04
385.411	106.84
385.621	26.96
385.831	117.08
386.041	10.58
386.251	-3.75
386.461	90.45
386.671	61.78
386.881	55.64
387.091	41.3
387.301	121.17
387.511	45.4
387.72	96.6
387.93	149.84
388.14	-69.29
388.35	119.12
388.56	55.64
388.769	63.83
388.979	37.2
389.189	-5.8
389.399	51.54
389.609	43.35
389.818	112.98
390.028	131.41
390.238	112.98
390.447	-69.29
390.657	78.16
390.867	-24.23
391.076	-28.33
391.286	72.02
391.496	-42.67
391.705	8.53
391.915	186.71
392.125	106.84
392.334	8.53
392.544	135.51
392.753	-9.9
392.963	69.97
393.172	31.06
393.382	-13.99
393.591	162.13
393.801	2.39
394.01	205.14
394.22	127.32
394.429	76.12
394.639	-11.95
394.848	45.4
395.058	133.46
395.267	31.06
395.477	69.97
395.686	43.35
395.895	172.37
396.105	162.13
396.314	112.98
396.524	-63.15
396.733	41.3
396.942	74.07
397.152	65.88
397.361	131.41
397.57	6.49
397.78	69.97
397.989	137.56
398.198	244.05
398.407	39.25
398.617	2.39
398.826	59.73
399.035	41.3
399.244	90.45
399.453	37.2
399.663	20.82
399.872	84.31
400.081	8.53
400.29	137.56
400.499	-5.8
400.708	123.22
400.917	74.07
401.127	72.02
401.336	47.44
401.545	178.51
401.754	106.84
401.963	96.6
402.172	20.82
402.381	-69.29
402.59	2.39
402.799	39.25
403.008	211.28
403.217	65.88
403.426	90.45
403.635	-30.38
403.844	0.34
404.053	-18.09
404.262	69.97
404.471	178.51
404.68	151.89
404.888	119.12
405.097	53.59
405.306	-13.99
405.515	172.37
405.724	8.53
405.933	125.27
406.142	49.49
406.35	108.88
406.559	49.49
406.768	61.78
406.977	188.75
407.185	92.5
407.394	96.6
407.603	-7.85
407.812	80.21
408.02	151.89
408.229	84.31
408.438	45.4
408.646	-79.53
408.855	8.53
409.064	57.68
409.272	18.77
409.481	94.55
409.69	14.68
409.898	-22.19
410.107	145.75
410.315	123.22
410.524	90.45
410.733	78.16
410.941	51.54
411.15	153.94
411.358	127.32
411.567	155.99
411.775	67.92
411.984	86.36
412.192	63.83
412.401	47.44
412.609	164.18
412.818	201.04
413.026	123.22
413.234	37.2
413.443	26.96
413.651	33.11
413.86	-26.28
414.068	182.61
414.276	235.86
414.485	53.59
414.693	98.64
414.901	227.67
415.11	35.16
415.318	55.64
415.526	29.01
415.734	90.45
415.943	72.02
416.151	127.32
416.359	63.83
416.567	67.92
416.776	145.75
416.984	108.88
417.192	174.42
417.4	63.83
417.608	33.11
417.817	26.96
418.025	67.92
418.233	209.23
418.441	8.53
418.649	14.68
418.857	67.92
419.065	160.08
419.273	37.2
419.481	125.27
419.689	65.88
419.897	59.73
420.105	29.01
420.313	110.93
420.521	88.4
420.729	133.46
420.937	100.69
421.145	-81.58
421.353	92.5
421.561	166.23
421.769	72.02
421.977	-13.99
422.185	115.03
422.393	-20.14
422.601	174.42
422.809	129.36
423.017	74.07
423.224	86.36
423.432	180.56
423.64	20.82
423.848	65.88
424.056	-1.71
424.263	190.8
424.471	24.92
424.679	225.62
424.887	-46.76
425.094	192.85
425.302	61.78
425.51	-3.75
425.718	143.7
425.925	49.49
426.133	61.78
426.341	221.52
426.548	-7.85
426.756	100.69
426.964	129.36
427.171	-34.47
427.379	57.68
427.586	22.87
427.794	162.13
428.001	94.55
428.209	102.74
428.417	231.76
428.624	155.99
428.832	123.22
429.039	119.12
429.247	158.03
429.454	131.41
429.662	287.06
429.869	176.47
430.076	112.98
430.284	205.14
430.491	178.51
430.699	196.95
430.906	274.77
431.114	174.42
431.321	147.8
431.528	166.23
431.736	223.57
431.943	270.67
432.15	190.8
432.358	221.52
432.565	303.44
432.772	57.68
432.979	151.89
433.187	164.18
433.394	282.96
433.601	176.47
433.808	317.78
434.016	295.25
434.223	252.24
434.43	221.52
434.637	311.63
434.844	342.35
435.052	237.91
435.259	366.93
435.466	274.77
435.673	307.54
435.88	301.39
436.087	358.74
436.294	420.17
436.501	389.46
436.708	278.87
436.915	321.87
437.122	416.08
437.329	305.49
437.537	416.08
437.743	397.65
437.95	514.38
438.157	450.89
438.364	414.03
438.571	420.17
438.778	473.42
438.985	547.15
439.192	504.14
439.399	485.71
439.606	489.81
439.813	551.24
440.02	663.88
440.227	780.62
440.433	637.26
440.64	631.12
440.847	676.17
441.054	643.4
441.261	799.05
441.467	710.99
441.674	706.89
441.881	905.54
442.088	809.29
442.294	905.54
442.501	926.02
442.708	962.89
442.914	870.73
443.121	981.32
443.328	960.84
443.534	1143.11
443.741	1077.57
443.948	1001.8
444.154	1141.06
444.361	1331.52
444.568	1345.86
444.774	1222.98
444.981	1165.64
445.187	1354.05
445.394	1419.58
445.6	1366.34
445.807	1601.85
446.013	1583.42
446.22	1571.13
446.426	1673.53
446.633	1739.07
446.839	1857.85
447.046	1700.16
447.252	1907
447.459	1995.06
447.665	2060.6
447.871	2101.56
448.078	2300.21
448.284	2267.44
448.491	2388.27
448.697	2529.58
448.903	2552.11
449.11	2660.65
449.316	2642.22
449.522	2865.45
449.728	2824.49
449.935	3035.43
450.141	3004.71
450.347	3252.52
450.553	3168.55
450.76	3285.28
450.966	3500.32
451.172	3655.97
451.378	3680.54
451.584	3727.64
451.791	4116.76
451.997	4200.73
452.203	4229.4
452.409	4411.67
452.615	4770.06
452.821	4499.73
453.027	4776.2
453.233	5257.48
453.44	5034.25
453.646	5251.33
453.852	5572.86
454.058	5568.77
454.264	6019.32
454.47	6308.09
454.676	6306.04
454.882	6729.97
455.088	6508.79
455.294	6940.91
455.5	7493.86
455.705	7891.16
455.911	7721.18
456.117	8141.02
456.323	8282.33
456.529	8206.55
456.735	9220.3
456.941	9230.54
457.147	9642.18
457.352	9969.85
457.558	10133.69
457.764	11012.27
457.97	11155.63
458.176	11622.56
458.381	12081.31
458.587	12353.69
458.793	13043.85
458.999	12832.91
459.204	14624.89
459.41	15138.93
459.616	14973.04
459.821	15822.95
460.027	16392.28
460.233	17043.54
460.438	17039.44
460.644	18481.21
460.85	18319.42
461.055	19085.36
461.261	19949.6
461.466	19466.28
461.672	20176.93
461.878	22484.99
462.083	22212.61
462.289	22648.83
462.494	23646.19
462.7	23590.89
462.905	23795.69
463.111	26058.7
463.316	27463.6
463.522	27830.19
463.727	28084.14
463.932	29613.97
464.138	30396.29
464.343	31795.06
464.549	31911.79
464.754	33914.7
464.959	35174.2
465.165	35794.74
465.37	35288.89
465.575	35241.79
465.781	37402.39
465.986	39053.06
466.191	38129.42
466.397	38500.11
466.602	37873.43
466.807	39425.79
467.012	40359.66
467.218	41109.22
467.423	41254.62
467.628	42583.76
467.833	44797.61
468.038	43708.09
468.244	43263.68
468.449	44983.97
