Data from USB4F104151__112__10-45-52-459.txt Node

Date: Wed Feb 26 10:45:52 EST 2025
User: louis
Spectrometer: USB4F10415
Trigger mode: 4
Integration Time (sec): 1.000000E-1
Scans to average: 1
Electric dark correction enabled: true
Nonlinearity correction enabled: false
Boxcar width: 0
XAxis mode: Wavelengths
Number of Pixels in Spectrum: 3648
>>>>>Begin Spectral Data<<<<<
178.204	-391.16
178.424	-391.16
178.644	-391.16
178.864	-432.12
179.084	-393.21
179.304	-55.3
179.524	-10.24
179.744	-16.38
179.964	45.06
180.184	20.48
180.404	8.19
180.624	2.05
180.844	16.38
181.064	-57.34
181.283	38.91
181.503	-38.91
181.723	47.1
181.943	-49.15
182.163	190.46
182.383	-69.63
182.602	51.2
182.822	196.6
183.042	102.4
183.262	-40.96
183.482	-22.53
183.701	-26.62
183.921	94.21
184.141	-57.34
184.361	47.1
184.58	137.21
184.8	-14.34
185.02	-12.29
185.239	53.25
185.459	38.91
185.679	126.97
185.898	-32.77
186.118	34.82
186.338	67.58
186.557	102.4
186.777	-110.59
186.997	-63.49
187.216	-28.67
187.436	163.84
187.655	40.96
187.875	73.73
188.095	-28.67
188.314	167.93
188.534	180.22
188.753	-28.67
188.973	92.16
189.192	153.6
189.412	51.2
189.631	53.25
189.851	116.73
190.07	106.49
190.29	-49.15
190.509	-106.49
190.729	16.38
190.948	106.49
191.168	233.47
191.387	81.92
191.607	-57.34
191.826	63.49
192.045	6.14
192.265	16.38
192.484	71.68
192.704	-10.24
192.923	-79.87
193.142	202.75
193.362	57.34
193.581	155.65
193.8	57.34
194.02	139.26
194.239	-4.1
194.458	86.01
194.678	16.38
194.897	18.43
195.116	34.82
195.335	81.92
195.555	24.58
195.774	26.62
195.993	135.17
196.212	53.25
196.432	-14.34
196.651	-45.06
196.87	-20.48
197.089	266.24
197.308	86.01
197.528	24.58
197.747	-53.25
197.966	49.15
198.185	135.17
198.404	-26.62
198.623	110.59
198.842	75.77
199.062	98.3
199.281	83.97
199.5	45.06
199.719	53.25
199.938	16.38
200.157	53.25
200.376	141.31
200.595	141.31
200.814	65.53
201.033	-26.62
201.252	178.17
201.471	65.53
201.69	47.1
201.909	51.2
202.128	86.01
202.347	38.91
202.566	32.77
202.785	-55.3
203.004	12.29
203.223	303.1
203.442	38.91
203.661	-16.38
203.879	129.02
204.098	55.3
204.317	-43.01
204.536	14.34
204.755	112.64
204.974	124.93
205.193	-55.3
205.411	147.45
205.63	102.4
205.849	57.34
206.068	61.44
206.287	-8.19
206.505	122.88
206.724	8.19
206.943	-32.77
207.162	63.49
207.381	65.53
207.599	122.88
207.818	81.92
208.037	53.25
208.255	18.43
208.474	79.87
208.693	-16.38
208.911	16.38
209.13	69.63
209.349	178.17
209.567	112.64
209.786	-6.14
210.005	94.21
210.223	61.44
210.442	-77.82
210.661	49.15
210.879	49.15
211.098	30.72
211.316	43.01
211.535	98.3
211.753	81.92
211.972	94.21
212.191	-53.25
212.409	-36.86
212.628	14.34
212.846	-75.77
213.065	32.77
213.283	53.25
213.502	16.38
213.72	10.24
213.938	-38.91
214.157	-6.14
214.375	34.82
214.594	14.34
214.812	67.58
215.031	34.82
215.249	49.15
215.467	47.1
215.686	32.77
215.904	110.59
216.122	8.19
216.341	102.4
216.559	45.06
216.778	122.88
216.996	151.55
217.214	51.2
217.432	12.29
217.651	-49.15
217.869	32.77
218.087	30.72
218.306	24.58
218.524	49.15
218.742	4.1
218.96	57.34
219.179	-20.48
219.397	51.2
219.615	212.99
219.833	77.82
220.051	26.62
220.27	34.82
220.488	38.91
220.706	110.59
220.924	12.29
221.142	34.82
221.36	59.39
221.578	90.11
221.796	71.68
222.015	-4.1
222.233	57.34
222.451	208.89
222.669	2.05
222.887	45.06
223.105	-0
223.323	-14.34
223.541	-4.1
223.759	100.35
223.977	-2.05
224.195	176.13
224.413	83.97
224.631	73.73
224.849	88.06
225.067	272.38
225.285	38.91
225.503	-20.48
225.721	-30.72
225.939	100.35
226.157	69.63
226.375	188.41
226.592	-86.01
226.81	-6.14
227.028	61.44
227.246	112.64
227.464	90.11
227.682	86.01
227.9	106.49
228.117	59.39
228.335	36.86
228.553	88.06
228.771	43.01
228.989	28.67
229.206	147.45
229.424	53.25
229.642	71.68
229.86	6.14
230.077	135.17
230.295	120.83
230.513	124.93
230.731	34.82
230.948	268.28
231.166	126.97
231.384	14.34
231.601	16.38
231.819	79.87
232.037	12.29
232.254	-75.77
232.472	88.06
232.689	-24.58
232.907	129.02
233.125	34.82
233.342	34.82
233.56	2.05
233.777	73.73
233.995	-30.72
234.213	151.55
234.43	61.44
234.648	47.1
234.865	47.1
235.083	22.53
235.3	22.53
235.518	92.16
235.735	75.77
235.953	69.63
236.17	61.44
236.388	40.96
236.605	20.48
236.822	49.15
237.04	135.17
237.257	69.63
237.475	51.2
237.692	34.82
237.909	57.34
238.127	55.3
238.344	43.01
238.562	-69.63
238.779	-92.16
238.996	-22.53
239.214	55.3
239.431	71.68
239.648	-30.72
239.865	155.65
240.083	88.06
240.3	-34.82
240.517	-32.77
240.735	38.91
240.952	118.78
241.169	131.07
241.386	81.92
241.603	20.48
241.821	10.24
242.038	116.73
242.255	77.82
242.472	-49.15
242.689	38.91
242.907	86.01
243.124	16.38
243.341	28.67
243.558	2.05
243.775	-12.29
243.992	-30.72
244.209	83.97
244.426	137.21
244.643	4.1
244.86	65.53
245.078	90.11
245.295	114.69
245.512	30.72
245.729	-14.34
245.946	86.01
246.163	26.62
246.38	-4.1
246.597	65.53
246.814	6.14
247.031	65.53
247.248	77.82
247.464	-12.29
247.681	-24.58
247.898	40.96
248.115	30.72
248.332	34.82
248.549	147.45
248.766	167.93
248.983	149.5
249.2	94.21
249.417	108.54
249.633	32.77
249.85	81.92
250.067	-0
250.284	53.25
250.501	36.86
250.717	131.07
250.934	36.86
251.151	2.05
251.368	-0
251.585	51.2
251.801	75.77
252.018	40.96
252.235	139.26
252.451	-75.77
252.668	30.72
252.885	40.96
253.102	32.77
253.318	-12.29
253.535	-36.86
253.752	-0
253.968	-2.05
254.185	-112.64
254.401	47.1
254.618	24.58
254.835	-22.53
255.051	139.26
255.268	63.49
255.484	59.39
255.701	-45.06
255.917	71.68
256.134	-8.19
256.351	4.1
256.567	34.82
256.784	-12.29
257	-63.49
257.217	94.21
257.433	77.82
257.65	32.77
257.866	114.69
258.082	-36.86
258.299	-26.62
258.515	114.69
258.732	-4.1
258.948	-43.01
259.165	88.06
259.381	-86.01
259.597	-0
259.814	38.91
260.03	20.48
260.246	22.53
260.463	59.39
260.679	153.6
260.895	18.43
261.112	4.1
261.328	-65.54
261.544	-12.29
261.761	114.69
261.977	20.48
262.193	-129.02
262.409	53.25
262.626	65.53
262.842	43.01
263.058	-22.53
263.274	81.92
263.49	73.73
263.707	53.25
263.923	124.93
264.139	-100.35
264.355	47.1
264.571	36.86
264.787	81.92
265.004	73.73
265.22	20.48
265.436	22.53
265.652	-36.86
265.868	67.58
266.084	-79.87
266.3	32.77
266.516	-45.06
266.732	96.25
266.948	45.06
267.164	-2.05
267.38	122.88
267.596	36.86
267.812	169.98
268.028	32.77
268.244	38.91
268.46	69.63
268.676	16.38
268.892	14.34
269.108	-40.96
269.324	-16.38
269.54	-2.05
269.756	47.1
269.972	-153.6
270.188	6.14
270.403	-16.38
270.619	71.68
270.835	57.34
271.051	10.24
271.267	-73.73
271.483	-36.86
271.698	88.06
271.914	102.4
272.13	63.49
272.346	-2.05
272.562	-0
272.777	98.3
272.993	94.21
273.209	-30.72
273.425	32.77
273.64	-45.06
273.856	63.49
274.072	-22.53
274.287	40.96
274.503	18.43
274.719	65.53
274.934	45.06
275.15	57.34
275.366	-47.1
275.581	-14.34
275.797	22.53
276.012	63.49
276.228	-34.82
276.444	8.19
276.659	114.69
276.875	69.63
277.09	10.24
277.306	-24.58
277.521	4.1
277.737	-2.05
277.952	90.11
278.168	4.1
278.383	75.77
278.599	24.58
278.814	28.67
279.03	67.58
279.245	90.11
279.461	38.91
279.676	92.16
279.892	-40.96
280.107	-90.11
280.322	-20.48
280.538	67.58
280.753	-14.34
280.969	81.92
281.184	90.11
281.399	59.39
281.615	47.1
281.83	47.1
282.045	18.43
282.26	-28.67
282.476	120.83
282.691	120.83
282.906	51.2
283.122	-8.19
283.337	-0
283.552	129.02
283.767	-43.01
283.983	65.53
284.198	40.96
284.413	77.82
284.628	-26.62
284.843	38.91
285.058	51.2
285.274	-2.05
285.489	-22.53
285.704	155.65
285.919	45.06
286.134	36.86
286.349	8.19
286.564	36.86
286.779	114.69
286.995	-16.38
287.21	-22.53
287.425	124.93
287.64	-10.24
287.855	55.3
288.07	-63.49
288.285	116.73
288.5	86.01
288.715	106.49
288.93	28.67
289.145	28.67
289.36	47.1
289.575	71.68
289.79	131.07
290.004	-20.48
290.219	26.62
290.434	8.19
290.649	-24.58
290.864	69.63
291.079	45.06
291.294	55.3
291.509	118.78
291.724	24.58
291.938	-6.14
292.153	49.15
292.368	14.34
292.583	28.67
292.798	108.54
293.012	10.24
293.227	96.25
293.442	16.38
293.657	61.44
293.871	36.86
294.086	-45.06
294.301	83.97
294.516	53.25
294.73	63.49
294.945	32.77
295.16	28.67
295.374	63.49
295.589	163.84
295.804	79.87
296.018	73.73
296.233	45.06
296.447	53.25
296.662	55.3
296.877	57.34
297.091	20.48
297.306	131.07
297.52	22.53
297.735	57.34
297.949	49.15
298.164	28.67
298.378	-53.25
298.593	2.05
298.807	-47.1
299.022	14.34
299.236	88.06
299.451	-61.44
299.665	55.3
299.88	77.82
300.094	65.53
300.309	47.1
300.523	96.25
300.737	18.43
300.952	26.62
301.166	81.92
301.381	-2.05
301.595	-22.53
301.809	53.25
302.024	-34.82
302.238	-126.97
302.452	151.55
302.667	-24.58
302.881	112.64
303.095	149.5
303.309	98.3
303.524	-69.63
303.738	40.96
303.952	36.86
304.166	131.07
304.381	-174.08
304.595	147.45
304.809	24.58
305.023	-28.67
305.237	20.48
305.452	57.34
305.666	69.63
305.88	45.06
306.094	131.07
306.308	55.3
306.522	131.07
306.736	30.72
306.95	92.16
307.164	18.43
307.379	73.73
307.593	61.44
307.807	51.2
308.021	106.49
308.235	32.77
308.449	-106.49
308.663	53.25
308.877	200.7
309.091	30.72
309.305	81.92
309.519	-51.2
309.733	71.68
309.947	-73.73
310.161	10.24
310.374	20.48
310.588	118.78
310.802	-10.24
311.016	36.86
311.23	-8.19
311.444	-34.82
311.658	59.39
311.872	79.87
312.085	61.44
312.299	108.54
312.513	122.88
312.727	12.29
312.941	2.05
313.154	92.16
313.368	51.2
313.582	-36.86
313.796	34.82
314.009	32.77
314.223	178.17
314.437	77.82
314.651	51.2
314.864	-67.58
315.078	-18.43
315.292	-18.43
315.505	-16.38
315.719	61.44
315.933	83.97
316.146	-40.96
316.36	65.53
316.573	176.13
316.787	-32.77
317.001	69.63
317.214	-38.91
317.428	20.48
317.641	-38.91
317.855	-55.3
318.068	51.2
318.282	-30.72
318.495	229.37
318.709	22.53
318.922	4.1
319.136	153.6
319.349	131.07
319.563	53.25
319.776	34.82
319.99	-100.35
320.203	135.17
320.417	57.34
320.63	135.17
320.843	133.12
321.057	83.97
321.27	-2.05
321.483	61.44
321.697	147.45
321.91	120.83
322.124	18.43
322.337	34.82
322.55	-106.49
322.763	-12.29
322.977	-77.82
323.19	63.49
323.403	-4.1
323.617	149.5
323.83	122.88
324.043	43.01
324.256	38.91
324.469	10.24
324.683	135.17
324.896	-6.14
325.109	53.25
325.322	-67.58
325.535	92.16
325.748	75.77
325.962	18.43
326.175	59.39
326.388	61.44
326.601	94.21
326.814	-30.72
327.027	-40.96
327.24	145.41
327.453	-45.06
327.666	110.59
327.879	124.93
328.092	49.15
328.305	-0
328.518	-8.19
328.731	14.34
328.944	-0
329.157	-14.34
329.37	28.67
329.583	212.99
329.796	118.78
330.009	-30.72
330.222	98.3
330.435	75.77
330.648	22.53
330.861	32.77
331.073	16.38
331.286	110.59
331.499	45.06
331.712	-18.43
331.925	-34.82
332.138	-28.67
332.35	88.06
332.563	16.38
332.776	98.3
332.989	-43.01
333.202	14.34
333.414	57.34
333.627	49.15
333.84	30.72
334.053	4.1
334.265	-49.15
334.478	83.97
334.691	-83.97
334.903	26.62
335.116	45.06
335.329	6.14
335.541	165.89
335.754	167.93
335.966	-10.24
336.179	-61.44
336.392	-79.87
336.604	86.01
336.817	141.31
337.029	51.2
337.242	59.39
337.454	100.35
337.667	57.34
337.88	161.79
338.092	67.58
338.305	51.2
338.517	-20.48
338.729	-2.05
338.942	67.58
339.154	24.58
339.367	-16.38
339.579	106.49
339.792	-26.62
340.004	59.39
340.217	-12.29
340.429	45.06
340.641	-18.43
340.854	-20.48
341.066	-38.91
341.278	69.63
341.491	161.79
341.703	-16.38
341.915	36.86
342.128	67.58
342.34	14.34
342.552	-28.67
342.764	83.97
342.977	61.44
343.189	55.3
343.401	53.25
343.613	-106.49
343.826	49.15
344.038	-40.96
344.25	-4.1
344.462	51.2
344.674	49.15
344.886	8.19
345.099	94.21
345.311	-40.96
345.523	20.48
345.735	-45.06
345.947	57.34
346.159	63.49
346.371	73.73
346.583	26.62
346.795	172.03
347.007	40.96
347.219	63.49
347.431	81.92
347.643	43.01
347.855	-6.14
348.067	139.26
348.279	-6.14
348.491	77.82
348.703	98.3
348.915	40.96
349.127	-67.58
349.339	8.19
349.551	-24.58
349.763	6.14
349.975	-6.14
350.187	73.73
350.399	221.18
350.61	98.3
350.822	26.62
351.034	106.49
351.246	2.05
351.458	94.21
351.669	22.53
351.881	174.08
352.093	135.17
352.305	106.49
352.517	98.3
352.728	135.17
352.94	81.92
353.152	100.35
353.363	-63.49
353.575	79.87
353.787	165.89
353.999	61.44
354.21	143.36
354.422	34.82
354.633	-71.68
354.845	100.35
355.057	36.86
355.268	-32.77
355.48	63.49
355.692	-90.11
355.903	-2.05
356.115	-8.19
356.326	-45.06
356.538	120.83
356.749	16.38
356.961	174.08
357.172	77.82
357.384	12.29
357.595	212.99
357.807	2.05
358.018	-0
358.23	-108.54
358.441	153.6
358.653	40.96
358.864	51.2
359.075	14.34
359.287	22.53
359.498	65.53
359.709	40.96
359.921	53.25
360.132	92.16
360.344	55.3
360.555	-8.19
360.766	-43.01
360.977	30.72
361.189	143.36
361.4	28.67
361.611	94.21
361.823	63.49
362.034	22.53
362.245	-114.69
362.456	12.29
362.667	139.26
362.879	20.48
363.09	8.19
363.301	-16.38
363.512	-0
363.723	-8.19
363.935	-45.06
364.146	94.21
364.357	20.48
364.568	57.34
364.779	-77.82
364.99	194.56
365.201	26.62
365.412	114.69
365.623	24.58
365.834	57.34
366.045	-34.82
366.256	4.1
366.467	79.87
366.678	-26.62
366.889	75.77
367.1	24.58
367.311	98.3
367.522	24.58
367.733	98.3
367.944	38.91
368.155	24.58
368.366	147.45
368.577	139.26
368.788	90.11
368.999	-38.91
369.209	69.63
369.42	196.6
369.631	196.6
369.842	94.21
370.053	-4.1
370.264	55.3
370.474	-20.48
370.685	40.96
370.896	28.67
371.107	108.54
371.317	-12.29
371.528	14.34
371.739	49.15
371.95	88.06
372.16	102.4
372.371	-65.54
372.582	51.2
372.792	36.86
373.003	45.06
373.214	38.91
373.424	83.97
373.635	16.38
373.846	100.35
374.056	-24.58
374.267	75.77
374.477	-8.19
374.688	-96.25
374.898	131.07
375.109	108.54
375.319	81.92
375.53	38.91
375.74	22.53
375.951	-20.48
376.161	61.44
376.372	122.88
376.582	45.06
376.793	-14.34
377.003	-49.15
377.214	12.29
377.424	92.16
377.635	-38.91
377.845	55.3
378.055	112.64
378.266	-38.91
378.476	49.15
378.686	149.5
378.897	-6.14
379.107	102.4
379.317	69.63
379.528	-16.38
379.738	157.69
379.948	-24.58
380.158	94.21
380.369	83.97
380.579	165.89
380.789	-67.58
380.999	86.01
381.21	153.6
381.42	155.65
381.63	-57.34
381.84	57.34
382.05	34.82
382.261	176.13
382.471	98.3
382.681	-10.24
382.891	131.07
383.101	28.67
383.311	-55.3
383.521	-26.62
383.731	73.73
383.941	67.58
384.151	79.87
384.361	4.1
384.571	45.06
384.781	59.39
384.991	172.03
385.201	235.52
385.411	63.49
385.621	96.25
385.831	49.15
386.041	36.86
386.251	26.62
386.461	96.25
386.671	2.05
386.881	-0
387.091	94.21
387.301	104.45
387.511	88.06
387.72	73.73
387.93	2.05
388.14	-22.53
388.35	57.34
388.56	106.49
388.769	63.49
388.979	-75.77
389.189	-0
389.399	51.2
389.609	86.01
389.818	98.3
390.028	86.01
390.238	45.06
390.447	24.58
390.657	51.2
390.867	18.43
391.076	-24.58
391.286	49.15
391.496	59.39
391.705	40.96
391.915	131.07
392.125	118.78
392.334	-26.62
392.544	172.03
392.753	-0
392.963	36.86
393.172	67.58
393.382	12.29
393.591	110.59
393.801	-18.43
394.01	174.08
394.22	104.45
394.429	-10.24
394.639	92.16
394.848	106.49
395.058	69.63
395.267	57.34
395.477	81.92
395.686	36.86
395.895	208.89
396.105	217.08
396.314	83.97
396.524	47.1
396.733	10.24
396.942	139.26
397.152	24.58
397.361	129.02
397.57	131.07
397.78	147.45
397.989	57.34
398.198	143.36
398.407	24.58
398.617	-20.48
398.826	131.07
399.035	30.72
399.244	151.55
399.453	34.82
399.663	-53.25
399.872	69.63
400.081	-77.82
400.29	165.89
400.499	-8.19
400.708	102.4
400.917	100.35
401.127	-18.43
401.336	32.77
401.545	200.7
401.754	147.45
401.963	157.69
402.172	79.87
402.381	-28.67
402.59	26.62
402.799	18.43
403.008	143.36
403.217	67.58
403.426	63.49
403.635	6.14
403.844	88.06
404.053	51.2
404.262	-12.29
404.471	137.21
404.68	151.55
404.888	43.01
405.097	24.58
405.306	45.06
405.515	98.3
405.724	14.34
405.933	94.21
406.142	63.49
406.35	120.83
406.559	22.53
406.768	100.35
406.977	135.17
407.185	106.49
407.394	141.31
407.603	-51.2
407.812	40.96
408.02	63.49
408.229	26.62
408.438	145.41
408.646	-34.82
408.855	51.2
409.064	77.82
409.272	69.63
409.481	10.24
409.69	-77.82
409.898	-22.53
410.107	53.25
410.315	67.58
410.524	43.01
410.733	79.87
410.941	75.77
411.15	65.53
411.358	102.4
411.567	135.17
411.775	55.3
411.984	55.3
412.192	100.35
412.401	6.14
412.609	178.17
412.818	149.5
413.026	63.49
413.234	32.77
413.443	-0
413.651	-4.1
413.86	122.88
414.068	32.77
414.276	143.36
414.485	10.24
414.693	174.08
414.901	120.83
415.11	-6.14
415.318	34.82
415.526	36.86
415.734	69.63
415.943	20.48
416.151	182.27
416.359	28.67
416.567	53.25
416.776	71.68
416.984	143.36
417.192	137.21
417.4	-47.1
417.608	53.25
417.817	-67.58
418.025	116.73
418.233	151.55
418.441	51.2
418.649	-69.63
418.857	16.38
419.065	178.17
419.273	88.06
419.481	47.1
419.689	10.24
419.897	-12.29
420.105	-47.1
420.313	137.21
420.521	141.31
420.729	137.21
420.937	-0
421.145	-10.24
421.353	106.49
421.561	135.17
421.769	104.45
421.977	4.1
422.185	96.25
422.393	63.49
422.601	88.06
422.809	10.24
423.017	65.53
423.224	-24.58
423.432	129.02
423.64	10.24
423.848	126.97
424.056	-10.24
424.263	81.92
424.471	10.24
424.679	202.75
424.887	-83.97
425.094	241.66
425.302	81.92
425.51	30.72
425.718	100.35
425.925	34.82
426.133	-6.14
426.341	258.04
426.548	59.39
426.756	-26.62
426.964	75.77
427.171	-6.14
427.379	104.45
427.586	131.07
427.794	124.93
428.001	96.25
428.209	180.22
428.417	159.74
428.624	65.53
428.832	159.74
429.039	22.53
429.247	49.15
429.454	81.92
429.662	198.65
429.869	131.07
430.076	18.43
430.284	165.89
430.491	184.32
430.699	51.2
430.906	221.18
431.114	92.16
431.321	137.21
431.528	129.02
431.736	184.32
431.943	155.65
432.15	135.17
432.358	167.93
432.565	233.47
432.772	4.1
432.979	169.98
433.187	147.45
433.394	202.75
433.601	114.69
433.808	217.08
434.016	245.76
434.223	204.8
434.43	94.21
434.637	309.24
434.844	243.71
435.052	286.72
435.259	266.24
435.466	210.94
435.673	245.76
435.88	278.52
436.087	272.38
436.294	262.14
436.501	305.15
436.708	182.27
436.915	274.43
437.122	305.15
437.329	204.8
437.537	296.96
437.743	339.96
437.95	417.79
438.157	376.83
438.364	440.31
438.571	376.83
438.778	358.39
438.985	389.11
439.192	481.27
439.399	389.11
439.606	436.22
439.813	636.92
440.02	604.15
440.227	552.95
440.433	452.6
440.64	442.36
440.847	419.83
441.054	550.9
441.261	690.17
441.467	641.01
441.674	526.33
441.881	696.31
442.088	630.77
442.294	626.68
442.501	727.03
442.708	745.46
442.914	765.94
443.121	745.46
443.328	806.9
443.534	907.25
443.741	837.62
443.948	776.18
444.154	911.35
444.361	1075.18
444.568	983.02
444.774	806.9
444.981	933.87
445.187	1095.66
445.394	1124.33
445.6	972.79
445.807	1157.1
446.013	1204.21
446.22	1183.73
446.426	1325.04
446.633	1386.47
446.839	1548.26
447.046	1386.47
447.252	1511.4
447.459	1492.97
447.665	1544.17
447.871	1703.91
448.078	1794.02
448.284	1822.69
448.491	1826.79
448.697	1914.85
448.903	2105.31
449.11	2007.01
449.316	2013.15
449.522	2258.91
449.728	2230.24
449.935	2351.07
450.141	2318.3
450.347	2482.14
450.553	2494.43
450.76	2488.28
450.966	2731.99
451.172	2777.05
451.378	2885.59
451.584	2920.4
451.791	3186.64
451.997	3364.81
452.203	3428.3
452.409	3377.1
452.615	3729.35
452.821	3571.66
453.027	3622.86
453.233	4126.66
453.44	4018.11
453.646	4118.47
453.852	4372.41
454.058	4476.86
454.264	4609.98
454.47	4902.84
454.676	4792.25
454.882	5216.18
455.088	5117.87
455.294	5367.73
455.5	5644.2
455.705	6326.18
455.911	5994.4
456.117	6211.49
456.323	6502.3
456.529	6475.68
456.735	7004.05
456.941	7421.84
457.147	7559.05
457.352	7618.44
457.558	7989.13
457.764	8515.45
457.97	8603.52
458.176	9029.49
458.381	9328.5
458.587	9809.77
458.793	10164.07
458.999	9942.89
459.204	11312.98
459.41	11702.09
459.616	11552.59
459.821	12250.95
460.027	12840.76
460.233	13403.96
460.438	13397.81
460.644	13954.86
460.85	14319.4
461.055	15068.95
461.261	15286.04
461.466	15296.28
461.672	15591.19
461.878	17522.42
462.083	17291
462.289	17641.2
462.494	18028.27
462.7	18601.7
462.905	18622.18
463.111	20131.53
463.316	21176
463.522	21319.35
463.727	21972.66
463.932	23191.2
464.138	23559.83
464.343	24430.22
464.549	24819.33
464.754	26812.01
464.959	27324
465.165	27518.56
465.37	27717.21
465.575	27629.15
465.781	29378.11
465.986	30563.89
466.191	29939.26
466.397	30387.76
466.602	29423.17
466.807	31014.44
467.012	31548.96
467.218	32237.08
467.423	32355.86
467.628	33629.69
467.833	35405.28
468.038	34215.41
468.244	33836.54
468.449	35548.64
468.654	34264.57
468.859	34260.47
469.064	34964.97
469.269	33644.03
469.474	34113.02
