Data from USB4F104151__55__10-43-34-175.txt Node

Date: Wed Feb 26 10:43:34 EST 2025
User: louis
Spectrometer: USB4F10415
Trigger mode: 4
Integration Time (sec): 1.000000E-1
Scans to average: 1
Electric dark correction enabled: true
Nonlinearity correction enabled: false
Boxcar width: 0
XAxis mode: Wavelengths
Number of Pixels in Spectrum: 3648
>>>>>Begin Spectral Data<<<<<
178.204	-402.08
178.424	-402.08
178.644	-402.08
178.864	-385.7
179.084	-371.37
179.304	34.13
179.524	48.47
179.744	36.18
179.964	97.62
180.184	-19.11
180.404	27.99
180.624	-72.36
180.844	-70.31
181.064	-68.27
181.283	-37.55
181.503	-33.45
181.723	56.66
181.943	-107.18
182.163	171.35
182.383	9.56
182.602	23.89
182.822	150.87
183.042	-19.11
183.262	7.51
183.482	-27.31
183.701	38.23
183.921	73.04
184.141	-64.17
184.361	89.43
184.58	5.46
184.8	11.61
185.02	-94.89
185.239	99.67
185.459	44.37
185.679	118.1
185.898	-94.89
186.118	87.38
186.338	-53.93
186.557	50.52
186.777	-58.03
186.997	-2.73
187.216	-33.45
187.436	124.24
187.655	114
187.875	109.91
188.095	-6.83
188.314	111.96
188.534	159.06
188.753	73.04
188.973	114
189.192	197.97
189.412	-0.68
189.631	7.51
189.851	40.28
190.07	169.3
190.29	-68.27
190.509	40.28
190.729	9.56
190.948	97.62
191.168	154.96
191.387	23.89
191.607	40.28
191.826	40.28
192.045	124.24
192.265	21.85
192.484	27.99
192.704	9.56
192.923	-74.41
193.142	208.21
193.362	71
193.581	150.87
193.8	81.24
194.02	97.62
194.239	38.23
194.458	126.29
194.678	17.75
194.897	50.52
195.116	44.37
195.335	23.89
195.555	5.46
195.774	-4.78
195.993	116.05
196.212	46.42
196.432	-33.45
196.651	23.89
196.87	-45.74
197.089	222.55
197.308	38.23
197.528	89.43
197.747	-78.51
197.966	-0.68
198.185	81.24
198.404	-55.98
198.623	19.8
198.842	171.35
199.062	93.52
199.281	114
199.5	56.66
199.719	-8.87
199.938	27.99
200.157	71
200.376	85.33
200.595	105.81
200.814	58.71
201.033	-12.97
201.252	93.52
201.471	46.42
201.69	89.43
201.909	52.56
202.128	107.86
202.347	66.9
202.566	46.42
202.785	-64.17
203.004	-10.92
203.223	212.31
203.442	25.94
203.661	-41.64
203.879	42.32
204.098	130.39
204.317	-45.74
204.536	132.44
204.755	85.33
204.974	83.28
205.193	77.14
205.411	212.31
205.63	52.56
205.849	62.8
206.068	21.85
206.287	-90.79
206.505	152.91
206.724	21.85
206.943	5.46
207.162	-37.55
207.381	116.05
207.599	40.28
207.818	58.71
208.037	27.99
208.255	15.7
208.474	48.47
208.693	81.24
208.911	1.37
209.13	66.9
209.349	89.43
209.567	89.43
209.786	140.63
210.005	40.28
210.223	89.43
210.442	-168.62
210.661	-8.87
210.879	71
211.098	42.32
211.316	-2.73
211.535	62.8
211.753	-41.64
211.972	89.43
212.191	23.89
212.409	36.18
212.628	95.57
212.846	-33.45
213.065	124.24
213.283	52.56
213.502	-4.78
213.72	32.08
213.938	25.94
214.157	-33.45
214.375	134.48
214.594	-55.98
214.812	68.95
215.031	34.13
215.249	64.85
215.467	44.37
215.686	23.89
215.904	79.19
216.122	52.56
216.341	93.52
216.559	27.99
216.778	148.82
216.996	81.24
217.214	71
217.432	-19.11
217.651	3.41
217.869	-10.92
218.087	48.47
218.306	-25.26
218.524	19.8
218.742	-49.83
218.96	95.57
219.179	30.04
219.397	38.23
219.615	204.11
219.833	124.24
220.051	-33.45
220.27	40.28
220.488	216.4
220.706	95.57
220.924	87.38
221.142	11.61
221.36	60.76
221.578	50.52
221.796	30.04
222.015	40.28
222.233	34.13
222.451	197.97
222.669	-41.64
222.887	111.96
223.105	27.99
223.323	27.99
223.541	-84.65
223.759	15.7
223.977	-12.97
224.195	157.01
224.413	44.37
224.631	-37.55
224.849	40.28
225.067	177.49
225.285	-74.41
225.503	-25.26
225.721	-148.14
225.939	50.52
226.157	21.85
226.375	159.06
226.592	13.65
226.81	73.04
227.028	89.43
227.246	130.39
227.464	21.85
227.682	107.86
227.9	93.52
228.117	111.96
228.335	73.04
228.553	68.95
228.771	-0.68
228.989	103.76
229.206	64.85
229.424	-0.68
229.642	-17.07
229.86	-0.68
230.077	118.1
230.295	71
230.513	87.38
230.731	79.19
230.948	116.05
231.166	185.68
231.384	23.89
231.601	7.51
231.819	193.87
232.037	-66.22
232.254	-35.5
232.472	23.89
232.689	-66.22
232.907	95.57
233.125	5.46
233.342	-35.5
233.56	-2.73
233.777	-60.07
233.995	52.56
234.213	30.04
234.43	44.37
234.648	9.56
234.865	38.23
235.083	97.62
235.3	-45.74
235.518	171.35
235.735	144.72
235.953	99.67
236.17	73.04
236.388	27.99
236.605	-15.02
236.822	75.09
237.04	132.44
237.257	5.46
237.475	-45.74
237.692	122.2
237.909	93.52
238.127	-64.17
238.344	3.41
238.562	32.08
238.779	-58.03
238.996	-66.22
239.214	-29.35
239.431	52.56
239.648	42.32
239.865	120.15
240.083	56.66
240.3	32.08
240.517	-39.59
240.735	9.56
240.952	216.4
241.169	7.51
241.386	142.68
241.603	68.95
241.821	-66.22
242.038	136.53
242.255	54.61
242.472	-35.5
242.689	118.1
242.907	62.8
243.124	130.39
243.341	73.04
243.558	-8.87
243.775	-80.55
243.992	-31.4
244.209	81.24
244.426	218.45
244.643	109.91
244.86	-19.11
245.078	42.32
245.295	40.28
245.512	-10.92
245.729	52.56
245.946	111.96
246.163	-4.78
246.38	114
246.597	66.9
246.814	89.43
247.031	25.94
247.248	23.89
247.464	81.24
247.681	-55.98
247.898	73.04
248.115	-21.16
248.332	-12.97
248.549	122.2
248.766	171.35
248.983	118.1
249.2	66.9
249.417	71
249.633	9.56
249.85	-2.73
250.067	75.09
250.284	30.04
250.501	17.75
250.717	46.42
250.934	-115.37
251.151	25.94
251.368	-0.68
251.585	-0.68
251.801	58.71
252.018	-31.4
252.235	214.35
252.451	-51.88
252.668	34.13
252.885	81.24
253.102	13.65
253.318	-4.78
253.535	-82.6
253.752	17.75
253.968	9.56
254.185	-37.55
254.401	-0.68
254.618	30.04
254.835	-12.97
255.051	122.2
255.268	81.24
255.484	-12.97
255.701	99.67
255.917	83.28
256.134	-94.89
256.351	52.56
256.567	-68.27
256.784	13.65
257	-66.22
257.217	128.34
257.433	122.2
257.65	64.85
257.866	175.44
258.082	-25.26
258.299	15.7
258.515	36.18
258.732	-64.17
258.948	9.56
259.165	46.42
259.381	19.8
259.597	114
259.814	-39.59
260.03	-43.69
260.246	9.56
260.463	111.96
260.679	81.24
260.895	32.08
261.112	-0.68
261.328	-0.68
261.544	-37.55
261.761	206.16
261.977	-43.69
262.193	-70.31
262.409	89.43
262.626	68.95
262.842	68.95
263.058	-21.16
263.274	54.61
263.49	75.09
263.707	95.57
263.923	97.62
264.139	-78.51
264.355	25.94
264.571	93.52
264.787	-41.64
265.004	107.86
265.22	19.8
265.436	-12.97
265.652	95.57
265.868	58.71
266.084	-58.03
266.3	7.51
266.516	-4.78
266.732	120.15
266.948	-12.97
267.164	52.56
267.38	48.47
267.596	103.76
267.812	191.83
268.028	48.47
268.244	-35.5
268.46	11.61
268.676	-33.45
268.892	58.71
269.108	-15.02
269.324	42.32
269.54	-10.92
269.756	93.52
269.972	-88.75
270.188	36.18
270.403	-37.55
270.619	32.08
270.835	91.48
271.051	13.65
271.267	44.37
271.483	-31.4
271.698	142.68
271.914	34.13
272.13	62.8
272.346	-6.83
272.562	130.39
272.777	130.39
272.993	-29.35
273.209	-39.59
273.425	103.76
273.64	-92.84
273.856	163.15
274.072	-60.07
274.287	42.32
274.503	-25.26
274.719	140.63
274.934	-0.68
275.15	-123.56
275.366	27.99
275.581	5.46
275.797	58.71
276.012	34.13
276.228	9.56
276.444	46.42
276.659	134.48
276.875	-139.94
277.09	-8.87
277.306	13.65
277.521	146.77
277.737	58.71
277.952	64.85
278.168	21.85
278.383	64.85
278.599	42.32
278.814	136.53
279.03	71
279.245	97.62
279.461	23.89
279.676	97.62
279.892	1.37
280.107	-78.51
280.322	-19.11
280.538	46.42
280.753	-49.83
280.969	60.76
281.184	68.95
281.399	146.77
281.615	13.65
281.83	87.38
282.045	27.99
282.26	21.85
282.476	44.37
282.691	99.67
282.906	79.19
283.122	17.75
283.337	42.32
283.552	77.14
283.767	-98.99
283.983	30.04
284.198	27.99
284.413	19.8
284.628	-90.79
284.843	21.85
285.058	167.25
285.274	85.33
285.489	-76.46
285.704	85.33
285.919	-25.26
286.134	42.32
286.349	101.72
286.564	-10.92
286.779	114
286.995	-33.45
287.21	-6.83
287.425	73.04
287.64	-35.5
287.855	11.61
288.07	-66.22
288.285	138.58
288.5	99.67
288.715	107.86
288.93	21.85
289.145	-58.03
289.36	107.86
289.575	48.47
289.79	56.66
290.004	-51.88
290.219	60.76
290.434	-21.16
290.649	-2.73
290.864	7.51
291.079	60.76
291.294	-25.26
291.509	99.67
291.724	-8.87
291.938	17.75
292.153	71
292.368	54.61
292.583	19.8
292.798	118.1
293.012	95.57
293.227	36.18
293.442	-4.78
293.657	62.8
293.871	134.48
294.086	52.56
294.301	122.2
294.516	68.95
294.73	25.94
294.945	-47.79
295.16	101.72
295.374	120.15
295.589	103.76
295.804	34.13
296.018	7.51
296.233	105.81
296.447	-6.83
296.662	-51.88
296.877	87.38
297.091	132.44
297.306	15.7
297.52	-17.07
297.735	105.81
297.949	54.61
298.164	73.04
298.378	77.14
298.593	-8.87
298.807	-12.97
299.022	-29.35
299.236	122.2
299.451	-2.73
299.665	-21.16
299.88	58.71
300.094	3.41
300.309	13.65
300.523	89.43
300.737	-33.45
300.952	68.95
301.166	118.1
301.381	-15.02
301.595	-35.5
301.809	60.76
302.024	66.9
302.238	-0.68
302.452	138.58
302.667	27.99
302.881	210.26
303.095	157.01
303.309	89.43
303.524	101.72
303.738	-15.02
303.952	-23.21
304.166	19.8
304.381	-21.16
304.595	122.2
304.809	-74.41
305.023	73.04
305.237	58.71
305.452	-4.78
305.666	56.66
305.88	128.34
306.094	71
306.308	101.72
306.522	120.15
306.736	7.51
306.95	150.87
307.164	30.04
307.379	44.37
307.593	140.63
307.807	120.15
308.021	83.28
308.235	71
308.449	-39.59
308.663	50.52
308.877	208.21
309.091	77.14
309.305	32.08
309.519	-27.31
309.733	179.54
309.947	-80.55
310.161	64.85
310.374	85.33
310.588	124.24
310.802	3.41
311.016	-29.35
311.23	64.85
311.444	-70.31
311.658	-35.5
311.872	148.82
312.085	146.77
312.299	58.71
312.513	130.39
312.727	60.76
312.941	-66.22
313.154	1.37
313.368	50.52
313.582	44.37
313.796	150.87
314.009	-21.16
314.223	58.71
314.437	-4.78
314.651	99.67
314.864	21.85
315.078	17.75
315.292	-90.79
315.505	42.32
315.719	83.28
315.933	-8.87
316.146	-10.92
316.36	-23.21
316.573	89.43
316.787	71
317.001	3.41
317.214	-47.79
317.428	120.15
317.641	-31.4
317.855	-15.02
318.068	30.04
318.282	15.7
318.495	224.59
318.709	71
318.922	58.71
319.136	42.32
319.349	89.43
319.563	-25.26
319.776	34.13
319.99	25.94
320.203	66.9
320.417	-12.97
320.63	134.48
320.843	116.05
321.057	-0.68
321.27	32.08
321.483	36.18
321.697	171.35
321.91	48.47
322.124	128.34
322.337	68.95
322.55	5.46
322.763	87.38
322.977	66.9
323.19	36.18
323.403	38.23
323.617	21.85
323.83	107.86
324.043	-25.26
324.256	60.76
324.469	-29.35
324.683	183.63
324.896	42.32
325.109	23.89
325.322	-33.45
325.535	66.9
325.748	124.24
325.962	25.94
326.175	93.52
326.388	-10.92
326.601	150.87
326.814	-0.68
327.027	79.19
327.24	163.15
327.453	-156.33
327.666	27.99
327.879	175.44
328.092	-33.45
328.305	52.56
328.518	5.46
328.731	-23.21
328.944	38.23
329.157	17.75
329.37	30.04
329.583	161.11
329.796	122.2
330.009	-47.79
330.222	66.9
330.435	81.24
330.648	44.37
330.861	5.46
331.073	64.85
331.286	93.52
331.499	87.38
331.712	-51.88
331.925	68.95
332.138	38.23
332.35	62.8
332.563	27.99
332.776	122.2
332.989	-49.83
333.202	42.32
333.414	40.28
333.627	36.18
333.84	-15.02
334.053	93.52
334.265	21.85
334.478	27.99
334.691	-21.16
334.903	40.28
335.116	34.13
335.329	3.41
335.541	116.05
335.754	146.77
335.966	-29.35
336.179	-4.78
336.392	-4.78
336.604	23.89
336.817	15.7
337.029	87.38
337.242	81.24
337.454	75.09
337.667	40.28
337.88	89.43
338.092	40.28
338.305	97.62
338.517	21.85
338.729	64.85
338.942	75.09
339.154	-6.83
339.367	-76.46
339.579	52.56
339.792	-41.64
340.004	148.82
340.217	-49.83
340.429	9.56
340.641	-92.84
340.854	-12.97
341.066	-6.83
341.278	130.39
341.491	195.92
341.703	40.28
341.915	7.51
342.128	152.91
342.34	52.56
342.552	11.61
342.764	68.95
342.977	-8.87
343.189	50.52
343.401	73.04
343.613	-4.78
343.826	5.46
344.038	1.37
344.25	40.28
344.462	-103.08
344.674	52.56
344.886	19.8
345.099	58.71
345.311	148.82
345.523	-33.45
345.735	-98.99
345.947	93.52
346.159	-31.4
346.371	38.23
346.583	11.61
346.795	189.78
347.007	38.23
347.219	54.61
347.431	21.85
347.643	81.24
347.855	-68.27
348.067	71
348.279	-105.13
348.491	21.85
348.703	58.71
348.915	48.47
349.127	1.37
349.339	23.89
349.551	-39.59
349.763	114
349.975	-72.36
350.187	154.96
350.399	93.52
350.61	132.44
350.822	27.99
351.034	44.37
351.246	89.43
351.458	-0.68
351.669	101.72
351.881	130.39
352.093	154.96
352.305	165.2
352.517	17.75
352.728	83.28
352.94	42.32
353.152	99.67
353.363	15.7
353.575	48.47
353.787	83.28
353.999	120.15
354.21	208.21
354.422	-31.4
354.633	89.43
354.845	68.95
355.057	25.94
355.268	46.42
355.48	122.2
355.692	-29.35
355.903	38.23
356.115	-19.11
356.326	-98.99
356.538	46.42
356.749	73.04
356.961	150.87
357.172	-66.22
357.384	30.04
357.595	232.79
357.807	-15.02
358.018	-53.93
358.23	13.65
358.441	116.05
358.653	75.09
358.864	48.47
359.075	-6.83
359.287	66.9
359.498	60.76
359.709	105.81
359.921	77.14
360.132	34.13
360.344	25.94
360.555	-29.35
360.766	40.28
360.977	-76.46
361.189	124.24
361.4	126.29
361.611	75.09
361.823	75.09
362.034	-58.03
362.245	-37.55
362.456	27.99
362.667	34.13
362.879	-8.87
363.09	181.59
363.301	81.24
363.512	42.32
363.723	60.76
363.935	5.46
364.146	138.58
364.357	23.89
364.568	48.47
364.779	3.41
364.99	197.97
365.201	-43.69
365.412	120.15
365.623	-37.55
365.834	-15.02
366.045	-8.87
366.256	118.1
366.467	48.47
366.678	-62.12
366.889	-2.73
367.1	-33.45
367.311	89.43
367.522	21.85
367.733	77.14
367.944	30.04
368.155	-25.26
368.366	120.15
368.577	81.24
368.788	97.62
368.999	3.41
369.209	107.86
369.42	169.3
369.631	212.31
369.842	56.66
370.053	30.04
370.264	120.15
370.474	3.41
370.685	-0.68
370.896	-35.5
371.107	101.72
371.317	54.61
371.528	23.89
371.739	77.14
371.95	150.87
372.16	48.47
372.371	-6.83
372.582	-21.16
372.792	52.56
373.003	77.14
373.214	36.18
373.424	54.61
373.635	-58.03
373.846	154.96
374.056	7.51
374.267	118.1
374.477	163.15
374.688	-0.68
374.898	7.51
375.109	38.23
375.319	58.71
375.53	150.87
375.74	79.19
375.951	19.8
376.161	87.38
376.372	124.24
376.582	-0.68
376.793	87.38
377.003	-68.27
377.214	11.61
377.424	93.52
377.635	48.47
377.845	32.08
378.055	177.49
378.266	54.61
378.476	79.19
378.686	19.8
378.897	13.65
379.107	132.44
379.317	97.62
379.528	91.48
379.738	50.52
379.948	-37.55
380.158	66.9
380.369	83.28
380.579	54.61
380.789	19.8
380.999	54.61
381.21	138.58
381.42	234.83
381.63	60.76
381.84	64.85
382.05	54.61
382.261	95.57
382.471	40.28
382.681	-31.4
382.891	220.5
383.101	-33.45
383.311	15.7
383.521	17.75
383.731	118.1
383.941	157.01
384.151	89.43
384.361	7.51
384.571	32.08
384.781	25.94
384.991	71
385.201	169.3
385.411	54.61
385.621	56.66
385.831	38.23
386.041	-33.45
386.251	71
386.461	171.35
386.671	27.99
386.881	56.66
387.091	36.18
387.301	36.18
387.511	77.14
387.72	97.62
387.93	99.67
388.14	-49.83
388.35	79.19
388.56	83.28
388.769	138.58
388.979	-4.78
389.189	3.41
389.399	48.47
389.609	200.02
389.818	44.37
390.028	40.28
390.238	142.68
390.447	3.41
390.657	38.23
390.867	91.48
391.076	-17.07
391.286	54.61
391.496	-23.21
391.705	5.46
391.915	136.53
392.125	195.92
392.334	-23.21
392.544	134.48
392.753	34.13
392.963	19.8
393.172	-8.87
393.382	-84.65
393.591	142.68
393.801	77.14
394.01	148.82
394.22	77.14
394.429	81.24
394.639	44.37
394.848	77.14
395.058	58.71
395.267	27.99
395.477	11.61
395.686	89.43
395.895	179.54
396.105	177.49
396.314	138.58
396.524	-8.87
396.733	30.04
396.942	103.76
397.152	32.08
397.361	152.91
397.57	9.56
397.78	-0.68
397.989	99.67
398.198	140.63
398.407	17.75
398.617	111.96
398.826	54.61
399.035	-10.92
399.244	56.66
399.453	32.08
399.663	83.28
399.872	93.52
400.081	-68.27
400.29	204.11
400.499	9.56
400.708	144.72
400.917	3.41
401.127	66.9
401.336	-23.21
401.545	126.29
401.754	157.01
401.963	103.76
402.172	-23.21
402.381	17.75
402.59	-8.87
402.799	17.75
403.008	144.72
403.217	103.76
403.426	-21.16
403.635	-76.46
403.844	30.04
404.053	54.61
404.262	-72.36
404.471	179.54
404.68	30.04
404.888	-23.21
405.097	11.61
405.306	32.08
405.515	99.67
405.724	-21.16
405.933	111.96
406.142	71
406.35	163.15
406.559	-31.4
406.768	-12.97
406.977	163.15
407.185	32.08
407.394	114
407.603	3.41
407.812	64.85
408.02	99.67
408.229	38.23
408.438	124.24
408.646	-92.84
408.855	-8.87
409.064	66.9
409.272	-21.16
409.481	87.38
409.69	-31.4
409.898	7.51
410.107	128.34
410.315	124.24
410.524	-29.35
410.733	66.9
410.941	3.41
411.15	81.24
411.358	128.34
411.567	165.2
411.775	11.61
411.984	62.8
412.192	109.91
412.401	7.51
412.609	159.06
412.818	93.52
413.026	93.52
413.234	-10.92
413.443	13.65
413.651	-49.83
413.86	79.19
414.068	175.44
414.276	136.53
414.485	-2.73
414.693	152.91
414.901	208.21
415.11	91.48
415.318	54.61
415.526	71
415.734	111.96
415.943	64.85
416.151	111.96
416.359	50.52
416.567	152.91
416.776	109.91
416.984	146.77
417.192	181.59
417.4	36.18
417.608	54.61
417.817	-0.68
418.025	148.82
418.233	64.85
418.441	-4.78
418.649	-29.35
418.857	163.15
419.065	146.77
419.273	-29.35
419.481	11.61
419.689	-0.68
419.897	36.18
420.105	-21.16
420.313	195.92
420.521	154.96
420.729	105.81
420.937	27.99
421.145	-41.64
421.353	111.96
421.561	114
421.769	179.54
421.977	-23.21
422.185	87.38
422.393	73.04
422.601	85.33
422.809	66.9
423.017	89.43
423.224	89.43
423.432	169.3
423.64	58.71
423.848	169.3
424.056	56.66
424.263	146.77
424.471	5.46
424.679	144.72
424.887	-2.73
425.094	122.2
425.302	185.68
425.51	93.52
425.718	97.62
425.925	101.72
426.133	-29.35
426.341	193.87
426.548	19.8
426.756	40.28
426.964	189.78
427.171	60.76
427.379	75.09
427.586	95.57
427.794	105.81
428.001	189.78
428.209	11.61
428.417	238.93
428.624	128.34
428.832	173.39
429.039	64.85
429.247	124.24
429.454	150.87
429.662	179.54
429.869	89.43
430.076	52.56
430.284	152.91
430.491	185.68
430.699	179.54
430.906	210.26
431.114	181.59
431.321	89.43
431.528	130.39
431.736	109.91
431.943	247.12
432.15	144.72
432.358	150.87
432.565	265.55
432.772	165.2
432.979	263.51
433.187	193.87
433.394	300.37
433.601	81.24
433.808	193.87
434.016	288.08
434.223	191.83
434.43	281.94
434.637	214.35
434.844	277.84
435.052	243.03
435.259	359.76
435.466	290.13
435.673	341.33
435.88	283.98
436.087	349.52
436.294	279.89
436.501	456.01
436.708	273.75
436.915	335.18
437.122	398.67
437.329	251.22
437.537	413.01
437.743	390.48
437.95	429.39
438.157	439.63
438.364	476.49
438.571	453.97
438.778	550.22
438.985	558.41
439.192	634.19
439.399	505.17
439.606	478.54
439.813	589.13
440.02	699.72
440.227	892.23
440.433	716.11
440.64	695.63
440.847	589.13
441.054	638.28
441.261	896.33
441.467	773.45
441.674	720.2
441.881	888.14
442.088	800.07
442.294	836.94
442.501	943.43
442.708	1017.16
442.914	974.15
443.121	1025.35
443.328	959.81
443.534	1168.71
443.741	1154.37
443.948	951.62
444.154	1189.19
444.361	1348.93
444.568	1181
444.774	1334.59
444.981	1133.89
445.187	1449.28
445.394	1355.07
445.6	1320.26
445.807	1516.86
446.013	1504.57
446.22	1523.01
446.426	1752.38
446.633	1762.62
446.839	1924.41
447.046	1686.84
447.252	1959.22
447.459	1938.74
447.665	2073.91
447.871	2174.26
448.078	2338.1
448.284	2401.58
448.491	2471.22
448.697	2510.13
448.903	2618.67
449.11	2680.11
449.316	2649.39
449.522	2866.47
449.728	2983.21
449.935	3050.79
450.141	3130.66
450.347	3441.95
450.553	3339.55
450.76	3564.83
450.966	3659.04
451.172	3726.62
451.378	3902.75
451.584	3964.18
451.791	4318.48
451.997	4293.91
452.203	4349.2
452.409	4443.41
452.615	4637.97
452.821	4668.69
453.027	4687.12
453.233	5446.91
453.44	5025.03
453.646	5377.28
453.852	5473.54
454.058	5883.13
454.264	6163.7
454.47	6391.03
454.676	6495.47
454.882	7118.06
455.088	6833.39
455.294	7308.52
455.5	7904.48
455.705	8133.85
455.911	8144.09
456.117	8318.17
456.323	8455.38
456.529	8529.11
456.735	9489.6
456.941	9557.19
457.147	9993.4
457.352	10409.14
457.558	10636.47
457.764	11257
457.97	11619.49
458.176	11904.16
458.381	12721.3
458.587	12887.18
458.793	13552.77
458.999	13370.51
459.204	15187.05
459.41	15711.33
459.616	15465.58
459.821	16405.6
460.027	17183.82
460.233	17837.13
460.438	17837.13
460.644	18818.1
460.85	19076.15
461.055	20069.41
461.261	20821.02
461.466	20296.74
461.672	20546.59
461.878	23198.71
462.083	23208.95
462.289	23372.78
462.494	24251.36
462.7	24595.42
462.905	25035.74
463.111	26698.69
463.316	28038.06
463.522	28709.79
463.727	29383.57
463.932	30630.79
464.138	31746.93
464.343	32932.7
464.549	33307.48
464.754	35412.79
464.959	36207.4
465.165	37231.39
465.37	36549.42
465.575	36418.35
465.781	39236.35
465.986	40383.21
466.191	39858.93
466.397	39664.38
466.602	39363.32
466.807	41169.63
467.012	41865.94
467.218	42957.51
467.423	43100.87
467.628	44131
467.833	46504.59
468.038	45341.35
468.244	44757.67
468.449	46557.84
468.654	45980.31
468.859	45576.86
469.064	45976.22
