Data from USB4F104151__31__10-42-28-782.txt Node

Date: Wed Feb 26 10:42:28 EST 2025
User: louis
Spectrometer: USB4F10415
Trigger mode: 4
Integration Time (sec): 1.000000E-1
Scans to average: 1
Electric dark correction enabled: true
Nonlinearity correction enabled: false
Boxcar width: 0
XAxis mode: Wavelengths
Number of Pixels in Spectrum: 3648
>>>>>Begin Spectral Data<<<<<
178.204	-342.35
178.424	-342.35
178.644	-342.35
178.864	-354.64
179.084	-426.32
179.304	-0.34
179.524	11.95
179.744	-10.58
179.964	30.38
180.184	104.11
180.404	3.75
180.624	-12.63
180.844	52.91
181.064	-117.08
181.283	32.43
181.503	-86.36
181.723	-8.53
181.943	-45.4
182.163	102.06
182.383	44.71
182.602	130.73
182.822	16.04
183.042	1.71
183.262	30.38
183.482	-4.44
183.701	34.47
183.921	44.71
184.141	-31.06
184.361	26.28
184.58	7.85
184.8	36.52
185.02	24.23
185.239	69.29
185.459	54.95
185.679	202.41
185.898	-82.26
186.118	28.33
186.338	75.43
186.557	110.25
186.777	-45.4
186.997	-76.12
187.216	24.23
187.436	253.61
187.655	108.2
187.875	120.49
188.095	67.24
188.314	157.35
188.534	85.67
188.753	-45.4
188.973	108.2
189.192	167.59
189.412	114.34
189.631	-4.44
189.851	118.44
190.07	79.53
190.29	-41.3
190.509	-14.68
190.729	-24.92
190.948	157.35
191.168	317.09
191.387	110.25
191.607	93.87
191.826	50.86
192.045	20.14
192.265	65.19
192.484	11.95
192.704	44.71
192.923	-24.92
193.142	165.54
193.362	167.59
193.581	71.34
193.8	26.28
194.02	81.58
194.239	18.09
194.458	57
194.678	22.19
194.897	34.47
195.116	126.63
195.335	83.63
195.555	132.78
195.774	38.57
195.993	112.3
196.212	69.29
196.432	-12.63
196.651	-2.39
196.87	81.58
197.089	308.9
197.308	59.05
197.528	128.68
197.747	-51.54
197.966	20.14
198.185	130.73
198.404	16.04
198.623	167.59
198.842	153.26
199.062	91.82
199.281	122.54
199.5	126.63
199.719	95.91
199.938	22.19
200.157	52.91
200.376	54.95
200.595	204.46
200.814	48.81
201.033	34.47
201.252	124.58
201.471	38.57
201.69	89.77
201.909	48.81
202.128	104.11
202.347	83.63
202.566	-0.34
202.785	-104.79
203.004	16.04
203.223	237.22
203.442	-12.63
203.661	5.8
203.879	116.39
204.098	110.25
204.317	-37.2
204.536	95.91
204.755	89.77
204.974	165.54
205.193	57
205.411	124.58
205.63	95.91
205.849	34.47
206.068	67.24
206.287	28.33
206.505	169.64
206.724	89.77
206.943	-51.54
207.162	32.43
207.381	73.39
207.599	11.95
207.818	61.1
208.037	-18.77
208.255	83.63
208.474	81.58
208.693	24.23
208.911	34.47
209.13	118.44
209.349	61.1
209.567	73.39
209.786	106.15
210.005	97.96
210.223	61.1
210.442	-137.56
210.661	-24.92
210.879	75.43
211.098	81.58
211.316	-2.39
211.535	46.76
211.753	65.19
211.972	44.71
212.191	42.67
212.409	-0.34
212.628	97.96
212.846	11.95
213.065	69.29
213.283	79.53
213.502	71.34
213.72	-4.44
213.938	71.34
214.157	-14.68
214.375	124.58
214.594	48.81
214.812	155.3
215.031	22.19
215.249	81.58
215.467	108.2
215.686	22.19
215.904	59.05
216.122	87.72
216.341	61.1
216.559	44.71
216.778	69.29
216.996	140.97
217.214	1.71
217.432	-26.96
217.651	-100.69
217.869	81.58
218.087	34.47
218.306	48.81
218.524	24.23
218.742	-41.3
218.96	9.9
219.179	95.91
219.397	106.15
219.615	194.22
219.833	91.82
220.051	-29.01
220.27	52.91
220.488	151.21
220.706	-47.44
220.924	-47.44
221.142	-24.92
221.36	59.05
221.578	30.38
221.796	59.05
222.015	1.71
222.233	30.38
222.451	143.02
222.669	3.75
222.887	36.52
223.105	-51.54
223.323	5.8
223.541	18.09
223.759	69.29
223.977	59.05
224.195	171.69
224.413	124.58
224.631	89.77
224.849	97.96
225.067	149.16
225.285	40.62
225.503	-26.96
225.721	-74.07
225.939	46.76
226.157	87.72
226.375	231.08
226.592	-88.4
226.81	1.71
227.028	104.11
227.246	120.49
227.464	138.92
227.682	-18.77
227.9	108.2
228.117	85.67
228.335	91.82
228.553	57
228.771	13.99
228.989	63.15
229.206	71.34
229.424	-24.92
229.642	20.14
229.86	-2.39
230.077	147.11
230.295	71.34
230.513	157.35
230.731	91.82
230.948	169.64
231.166	159.4
231.384	16.04
231.601	-45.4
231.819	183.98
232.037	9.9
232.254	22.19
232.472	-2.39
232.689	-8.53
232.907	134.82
233.125	44.71
233.342	-29.01
233.56	-57.68
233.777	-47.44
233.995	42.67
234.213	40.62
234.43	114.34
234.648	18.09
234.865	-10.58
235.083	30.38
235.3	11.95
235.518	59.05
235.735	181.93
235.953	40.62
236.17	36.52
236.388	-8.53
236.605	28.33
236.822	73.39
237.04	114.34
237.257	93.87
237.475	-12.63
237.692	-16.73
237.909	140.97
238.127	-10.58
238.344	138.92
238.562	73.39
238.779	-47.44
238.996	-4.44
239.214	28.33
239.431	28.33
239.648	-12.63
239.865	40.62
240.083	38.57
240.3	-45.4
240.517	87.72
240.735	40.62
240.952	155.3
241.169	130.73
241.386	59.05
241.603	1.71
241.821	28.33
242.038	122.54
242.255	71.34
242.472	18.09
242.689	128.68
242.907	100.01
243.124	57
243.341	-4.44
243.558	42.67
243.775	-39.25
243.992	-26.96
244.209	128.68
244.426	145.06
244.643	24.23
244.86	65.19
245.078	145.06
245.295	73.39
245.512	61.1
245.729	-4.44
245.946	50.86
246.163	71.34
246.38	48.81
246.597	11.95
246.814	28.33
247.031	16.04
247.248	50.86
247.464	138.92
247.681	116.39
247.898	32.43
248.115	87.72
248.332	-29.01
248.549	140.97
248.766	214.7
248.983	97.96
249.2	9.9
249.417	95.91
249.633	28.33
249.85	130.73
250.067	28.33
250.284	79.53
250.501	128.68
250.717	26.28
250.934	-14.68
251.151	73.39
251.368	5.8
251.585	42.67
251.801	73.39
252.018	-35.16
252.235	134.82
252.451	-67.92
252.668	-10.58
252.885	116.39
253.102	67.24
253.318	34.47
253.535	28.33
253.752	108.2
253.968	44.71
254.185	-14.68
254.401	36.52
254.618	48.81
254.835	46.76
255.051	112.3
255.268	128.68
255.484	97.96
255.701	120.49
255.917	91.82
256.134	-18.77
256.351	11.95
256.567	7.85
256.784	3.75
257	44.71
257.217	136.87
257.433	71.34
257.65	91.82
257.866	106.15
258.082	-12.63
258.299	-6.49
258.515	120.49
258.732	97.96
258.948	-24.92
259.165	7.85
259.381	-20.82
259.597	42.67
259.814	122.54
260.03	50.86
260.246	57
260.463	128.68
260.679	71.34
260.895	67.24
261.112	46.76
261.328	73.39
261.544	57
261.761	163.5
261.977	40.62
262.193	-16.73
262.409	110.25
262.626	69.29
262.842	20.14
263.058	34.47
263.274	159.4
263.49	79.53
263.707	100.01
263.923	147.11
264.139	-51.54
264.355	120.49
264.571	157.35
264.787	167.59
265.004	149.16
265.22	40.62
265.436	-63.83
265.652	1.71
265.868	50.86
266.084	-74.07
266.3	30.38
266.516	-39.25
266.732	18.09
266.948	50.86
267.164	67.24
267.38	132.78
267.596	85.67
267.812	222.89
268.028	18.09
268.244	-0.34
268.46	73.39
268.676	59.05
268.892	79.53
269.108	34.47
269.324	18.09
269.54	-43.35
269.756	128.68
269.972	-33.11
270.188	89.77
270.403	13.99
270.619	-29.01
270.835	114.34
271.051	-6.49
271.267	-26.96
271.483	22.19
271.698	147.11
271.914	65.19
272.13	79.53
272.346	-61.78
272.562	48.81
272.777	108.2
272.993	67.24
273.209	1.71
273.425	83.63
273.64	26.28
273.856	138.92
274.072	-39.25
274.287	48.81
274.503	46.76
274.719	91.82
274.934	18.09
275.15	-16.73
275.366	18.09
275.581	-72.02
275.797	-22.87
276.012	40.62
276.228	-20.82
276.444	40.62
276.659	112.3
276.875	-2.39
277.09	-4.44
277.306	26.28
277.521	42.67
277.737	120.49
277.952	79.53
278.168	44.71
278.383	71.34
278.599	48.81
278.814	181.93
279.03	22.19
279.245	126.63
279.461	-4.44
279.676	85.67
279.892	-4.44
280.107	-47.44
280.322	-20.82
280.538	134.82
280.753	50.86
280.969	38.57
281.184	114.34
281.399	177.83
281.615	42.67
281.83	46.76
282.045	-2.39
282.26	-2.39
282.476	163.5
282.691	36.52
282.906	59.05
283.122	59.05
283.337	-92.5
283.552	100.01
283.767	95.91
283.983	200.36
284.198	67.24
284.413	95.91
284.628	-10.58
284.843	34.47
285.058	147.11
285.274	77.48
285.489	-8.53
285.704	87.72
285.919	30.38
286.134	36.52
286.349	65.19
286.564	71.34
286.779	136.87
286.995	89.77
287.21	-59.73
287.425	120.49
287.64	-67.92
287.855	73.39
288.07	-37.2
288.285	132.78
288.5	126.63
288.715	110.25
288.93	1.71
289.145	16.04
289.36	97.96
289.575	52.91
289.79	157.35
290.004	-20.82
290.219	145.06
290.434	-2.39
290.649	16.04
290.864	46.76
291.079	95.91
291.294	44.71
291.509	128.68
291.724	48.81
291.938	9.9
292.153	65.19
292.368	34.47
292.583	173.74
292.798	100.01
293.012	65.19
293.227	91.82
293.442	-14.68
293.657	79.53
293.871	138.92
294.086	77.48
294.301	190.12
294.516	120.49
294.73	-18.77
294.945	-37.2
295.16	73.39
295.374	140.97
295.589	130.73
295.804	-37.2
296.018	7.85
296.233	140.97
296.447	136.87
296.662	-45.4
296.877	71.34
297.091	54.95
297.306	24.23
297.52	-16.73
297.735	57
297.949	108.2
298.164	95.91
298.378	85.67
298.593	-84.31
298.807	-6.49
299.022	16.04
299.236	140.97
299.451	-37.2
299.665	-39.25
299.88	30.38
300.094	34.47
300.309	75.43
300.523	97.96
300.737	-10.58
300.952	61.1
301.166	151.21
301.381	48.81
301.595	-8.53
301.809	36.52
302.024	-16.73
302.238	-18.77
302.452	136.87
302.667	63.15
302.881	157.35
303.095	50.86
303.309	63.15
303.524	-6.49
303.738	30.38
303.952	20.14
304.166	91.82
304.381	-53.59
304.595	130.73
304.809	32.43
305.023	91.82
305.237	40.62
305.452	36.52
305.666	171.69
305.88	48.81
306.094	100.01
306.308	100.01
306.522	85.67
306.736	85.67
306.95	40.62
307.164	-10.58
307.379	3.75
307.593	140.97
307.807	106.15
308.021	97.96
308.235	57
308.449	-82.26
308.663	95.91
308.877	255.65
309.091	40.62
309.305	157.35
309.519	-41.3
309.733	91.82
309.947	-110.93
310.161	18.09
310.374	159.4
310.588	190.12
310.802	-16.73
311.016	22.19
311.23	42.67
311.444	9.9
311.658	22.19
311.872	153.26
312.085	128.68
312.299	116.39
312.513	147.11
312.727	30.38
312.941	-55.64
313.154	71.34
313.368	-6.49
313.582	38.57
313.796	165.54
314.009	20.14
314.223	155.3
314.437	22.19
314.651	126.63
314.864	42.67
315.078	-22.87
315.292	-20.82
315.505	16.04
315.719	5.8
315.933	36.52
316.146	-24.92
316.36	-39.25
316.573	116.39
316.787	108.2
317.001	54.95
317.214	-29.01
317.428	124.58
317.641	-10.58
317.855	30.38
318.068	9.9
318.282	-12.63
318.495	167.59
318.709	26.28
318.922	-8.53
319.136	118.44
319.349	124.58
319.563	-18.77
319.776	165.54
319.99	-94.55
320.203	106.15
320.417	67.24
320.63	95.91
320.843	216.74
321.057	50.86
321.27	46.76
321.483	114.34
321.697	208.55
321.91	11.95
322.124	42.67
322.337	104.11
322.55	28.33
322.763	63.15
322.977	100.01
323.19	7.85
323.403	120.49
323.617	91.82
323.83	151.21
324.043	114.34
324.256	77.48
324.469	-45.4
324.683	85.67
324.896	75.43
325.109	59.05
325.322	-47.44
325.535	67.24
325.748	54.95
325.962	11.95
326.175	75.43
326.388	71.34
326.601	151.21
326.814	13.99
327.027	40.62
327.24	108.2
327.453	-39.25
327.666	87.72
327.879	196.26
328.092	114.34
328.305	40.62
328.518	83.63
328.731	50.86
328.944	52.91
329.157	110.25
329.37	-16.73
329.583	263.85
329.796	112.3
330.009	13.99
330.222	85.67
330.435	106.15
330.648	83.63
330.861	106.15
331.073	69.29
331.286	67.24
331.499	65.19
331.712	16.04
331.925	95.91
332.138	118.44
332.35	57
332.563	-98.64
332.776	136.87
332.989	40.62
333.202	20.14
333.414	65.19
333.627	57
333.84	-22.87
334.053	165.54
334.265	100.01
334.478	36.52
334.691	9.9
334.903	46.76
335.116	83.63
335.329	108.2
335.541	83.63
335.754	167.59
335.966	7.85
336.179	18.09
336.392	24.23
336.604	38.57
336.817	97.96
337.029	91.82
337.242	153.26
337.454	44.71
337.667	20.14
337.88	122.54
338.092	77.48
338.305	138.92
338.517	-8.53
338.729	54.95
338.942	157.35
339.154	-74.07
339.367	-39.25
339.579	97.96
339.792	13.99
340.004	132.78
340.217	73.39
340.429	59.05
340.641	42.67
340.854	1.71
341.066	24.23
341.278	71.34
341.491	263.85
341.703	22.19
341.915	5.8
342.128	100.01
342.34	87.72
342.552	30.38
342.764	89.77
342.977	48.81
343.189	116.39
343.401	44.71
343.613	-61.78
343.826	89.77
344.038	-8.53
344.25	100.01
344.462	32.43
344.674	79.53
344.886	95.91
345.099	59.05
345.311	114.34
345.523	-72.02
345.735	-57.68
345.947	30.38
346.159	-2.39
346.371	32.43
346.583	42.67
346.795	75.43
347.007	42.67
347.219	71.34
347.431	59.05
347.643	122.54
347.855	26.28
348.067	145.06
348.279	-45.4
348.491	16.04
348.703	143.02
348.915	38.57
349.127	-45.4
349.339	5.8
349.551	-39.25
349.763	93.87
349.975	34.47
350.187	157.35
350.399	106.15
350.61	171.69
350.822	13.99
351.034	52.91
351.246	155.3
351.458	91.82
351.669	145.06
351.881	161.45
352.093	153.26
352.305	126.63
352.517	89.77
352.728	114.34
352.94	30.38
353.152	71.34
353.363	9.9
353.575	118.44
353.787	177.83
353.999	128.68
354.21	126.63
354.422	-2.39
354.633	13.99
354.845	46.76
355.057	46.76
355.268	3.75
355.48	102.06
355.692	-0.34
355.903	91.82
356.115	-29.01
356.326	-125.27
356.538	143.02
356.749	220.84
356.961	183.98
357.172	40.62
357.384	67.24
357.595	208.55
357.807	3.75
358.018	7.85
358.23	54.95
358.441	143.02
358.653	136.87
358.864	-0.34
359.075	-53.59
359.287	85.67
359.498	97.96
359.709	161.45
359.921	52.91
360.132	95.91
360.344	102.06
360.555	89.77
360.766	-31.06
360.977	38.57
361.189	159.4
361.4	52.91
361.611	114.34
361.823	100.01
362.034	63.15
362.245	24.23
362.456	9.9
362.667	112.3
362.879	-8.53
363.09	79.53
363.301	114.34
363.512	7.85
363.723	79.53
363.935	-49.49
364.146	106.15
364.357	77.48
364.568	83.63
364.779	-78.16
364.99	132.78
365.201	-10.58
365.412	143.02
365.623	-90.45
365.834	22.19
366.045	124.58
366.256	163.5
366.467	183.98
366.678	-47.44
366.889	65.19
367.1	-59.73
367.311	87.72
367.522	118.44
367.733	73.39
367.944	26.28
368.155	16.04
368.366	61.1
368.577	34.47
368.788	163.5
368.999	97.96
369.209	54.95
369.42	167.59
369.631	222.89
369.842	132.78
370.053	16.04
370.264	-4.44
370.474	-18.77
370.685	48.81
370.896	11.95
371.107	181.93
371.317	81.58
371.528	32.43
371.739	91.82
371.95	91.82
372.16	71.34
372.371	-35.16
372.582	24.23
372.792	73.39
373.003	5.8
373.214	83.63
373.424	120.49
373.635	-0.34
373.846	87.72
374.056	3.75
374.267	16.04
374.477	18.09
374.688	40.62
374.898	54.95
375.109	34.47
375.319	75.43
375.53	116.39
375.74	44.71
375.951	-4.44
376.161	118.44
376.372	112.3
376.582	-0.34
376.793	46.76
377.003	102.06
377.214	-49.49
377.424	63.15
377.635	100.01
377.845	30.38
378.055	118.44
378.266	38.57
378.476	-4.44
378.686	97.96
378.897	71.34
379.107	134.82
379.317	95.91
379.528	42.67
379.738	153.26
379.948	-35.16
380.158	89.77
380.369	104.11
380.579	120.49
380.789	34.47
380.999	83.63
381.21	73.39
381.42	292.52
381.63	-37.2
381.84	52.91
382.05	95.91
382.261	104.11
382.471	155.3
382.681	40.62
382.891	147.11
383.101	120.49
383.311	28.33
383.521	-39.25
383.731	73.39
383.941	138.92
384.151	118.44
384.361	50.86
384.571	38.57
384.781	71.34
384.991	208.55
385.201	229.03
385.411	100.01
385.621	65.19
385.831	67.24
386.041	59.05
386.251	71.34
386.461	177.83
386.671	7.85
386.881	149.16
387.091	30.38
387.301	147.11
387.511	77.48
387.72	54.95
387.93	130.73
388.14	-4.44
388.35	124.58
388.56	75.43
388.769	134.82
388.979	77.48
389.189	24.23
389.399	77.48
389.609	65.19
389.818	118.44
390.028	77.48
390.238	87.72
390.447	95.91
390.657	38.57
390.867	-69.97
391.076	-39.25
391.286	32.43
391.496	36.52
391.705	97.96
391.915	143.02
392.125	124.58
392.334	36.52
392.544	167.59
392.753	63.15
392.963	-6.49
393.172	91.82
393.382	57
393.591	171.69
393.801	44.71
394.01	188.07
394.22	122.54
394.429	36.52
394.639	79.53
394.848	89.77
395.058	130.73
395.267	91.82
395.477	87.72
395.686	128.68
395.895	175.78
396.105	263.85
396.314	54.95
396.524	7.85
396.733	3.75
396.942	149.16
397.152	106.15
397.361	104.11
397.57	97.96
397.78	30.38
397.989	89.77
398.198	212.65
398.407	52.91
398.617	-20.82
398.826	112.3
399.035	34.47
399.244	71.34
399.453	46.76
399.663	54.95
399.872	128.68
400.081	-10.58
400.29	79.53
400.499	18.09
400.708	110.25
400.917	-29.01
401.127	134.82
401.336	65.19
401.545	229.03
401.754	108.2
401.963	71.34
402.172	13.99
402.381	9.9
402.59	50.86
402.799	118.44
403.008	177.83
403.217	91.82
403.426	83.63
403.635	-84.31
403.844	18.09
404.053	143.02
404.262	16.04
404.471	169.64
404.68	30.38
404.888	22.19
405.097	22.19
405.306	77.48
405.515	79.53
405.724	24.23
405.933	157.35
406.142	173.74
406.35	171.69
406.559	89.77
406.768	20.14
406.977	198.31
407.185	44.71
407.394	79.53
407.603	-43.35
407.812	22.19
408.02	188.07
408.229	87.72
408.438	114.34
408.646	-39.25
408.855	102.06
409.064	34.47
409.272	112.3
409.481	110.25
409.69	3.75
409.898	38.57
410.107	143.02
410.315	93.87
410.524	-22.87
410.733	67.24
410.941	48.81
411.15	204.46
411.358	61.1
411.567	155.3
411.775	77.48
411.984	65.19
412.192	81.58
412.401	65.19
412.609	157.35
412.818	130.73
413.026	48.81
413.234	1.71
413.443	50.86
413.651	7.85
413.86	42.67
414.068	151.21
414.276	165.54
414.485	32.43
414.693	202.41
414.901	224.94
415.11	42.67
415.318	167.59
415.526	93.87
415.734	116.39
415.943	34.47
416.151	81.58
416.359	75.43
416.567	67.24
416.776	167.59
416.984	159.4
417.192	198.31
417.4	54.95
417.608	7.85
417.817	30.38
418.025	59.05
418.233	208.55
418.441	-49.49
418.649	40.62
418.857	89.77
419.065	163.5
419.273	46.76
419.481	65.19
419.689	28.33
419.897	-22.87
420.105	24.23
420.313	126.63
420.521	169.64
420.729	171.69
420.937	153.26
421.145	-37.2
421.353	165.54
421.561	239.27
421.769	145.06
421.977	20.14
422.185	116.39
422.393	79.53
422.601	69.29
422.809	75.43
423.017	120.49
423.224	110.25
423.432	188.07
423.64	-18.77
423.848	143.02
424.056	65.19
424.263	132.78
424.471	18.09
424.679	97.96
424.887	28.33
425.094	116.39
425.302	65.19
425.51	9.9
425.718	140.97
425.925	63.15
426.133	38.57
426.341	218.79
426.548	34.47
426.756	57
426.964	93.87
427.171	136.87
427.379	143.02
427.586	157.35
427.794	97.96
428.001	106.15
428.209	130.73
428.417	171.69
428.624	177.83
428.832	153.26
429.039	161.45
429.247	124.58
429.454	159.4
429.662	253.61
429.869	128.68
430.076	157.35
430.284	220.84
430.491	241.32
430.699	155.3
430.906	206.5
431.114	155.3
431.321	169.64
431.528	124.58
431.736	132.78
431.943	243.37
432.15	179.88
432.358	151.21
432.565	347.81
432.772	122.54
432.979	239.27
433.187	188.07
433.394	327.33
433.601	188.07
433.808	349.86
434.016	329.38
434.223	331.43
434.43	220.84
434.637	298.66
434.844	403.11
435.052	272.04
435.259	300.71
435.466	353.96
435.673	325.29
435.88	380.58
436.087	423.59
436.294	407.2
436.501	386.72
436.708	349.86
436.915	407.2
437.122	466.6
437.329	368.29
437.537	439.97
437.743	480.93
437.95	517.79
438.157	497.32
438.364	485.03
438.571	523.94
438.778	501.41
438.985	501.41
439.192	530.08
439.399	546.47
439.606	523.94
439.813	669.34
440.02	708.26
440.227	800.41
440.433	728.74
440.64	710.3
440.847	738.98
441.054	839.33
441.261	845.47
441.467	784.03
441.674	790.17
441.881	868
442.088	726.69
442.294	937.63
442.501	988.83
442.708	988.83
442.914	1017.5
443.121	1136.28
443.328	1103.51
443.534	1218.2
443.741	1218.2
443.948	1173.14
444.154	1318.55
444.361	1408.66
444.568	1308.31
444.774	1349.27
444.981	1285.78
445.187	1545.88
445.394	1633.94
445.6	1580.69
445.807	1814.16
446.013	1697.42
446.22	1586.83
446.426	1861.26
446.633	1918.61
446.839	2229.9
447.046	1896.08
447.252	2129.55
447.459	2203.27
447.665	2113.16
447.871	2301.58
448.078	2498.18
448.284	2504.32
448.491	2643.59
448.697	2715.27
448.903	2807.42
449.11	3102.33
449.316	2823.81
449.522	3073.66
449.728	3155.58
449.935	3425.91
450.141	3436.15
450.347	3606.13
450.553	3565.17
450.76	3718.77
450.966	3833.46
451.172	3915.37
451.378	4218.47
451.584	4216.43
451.791	4656.74
451.997	4693.6
452.203	4796
452.409	4859.49
452.615	5121.63
452.821	4941.41
453.027	5160.54
453.233	5629.52
453.44	5611.09
453.646	5842.51
453.852	6110.8
454.058	6383.18
454.264	6469.19
454.47	6893.12
454.676	7214.65
454.882	7740.98
455.088	7153.21
455.294	7644.73
455.5	8357.42
455.705	8662.57
455.911	8443.43
456.117	8828.45
456.323	9297.44
456.529	9195.04
456.735	10016.27
456.941	10403.34
457.147	10784.26
457.352	10956.29
457.558	11165.18
457.764	11894.26
457.97	12273.14
458.176	12850.66
458.381	13426.14
458.587	13809.11
458.793	14372.3
458.999	14478.8
459.204	16055.73
459.41	17012.14
459.616	16598.45
459.821	17532.32
460.027	18341.27
460.233	19160.45
460.438	19295.62
460.644	20315.51
460.85	20546.93
461.055	21491.04
461.261	22396.24
461.466	22103.39
461.672	22078.81
461.878	24923.44
462.083	24481.08
462.289	25185.58
462.494	26240.28
462.7	26451.22
462.905	26565.91
463.111	28951.79
463.316	30246.11
463.522	30702.81
463.727	31845.57
463.932	32863.41
464.138	34180.26
464.343	35224.72
464.549	35159.19
464.754	38227.04
464.959	39081.05
465.165	39939.15
465.37	39558.22
465.575	39459.92
465.781	42325.03
465.986	43226.14
466.191	42775.58
466.397	42777.63
466.602	42200.1
466.807	44569.6
467.012	45280.25
467.218	46216.17
467.423	46126.06
467.628	47328.22
467.833	49660.85
468.038	48937.92
468.244	48024.53
