Data from USB4F104151__172__11-04-57-535.txt Node

Date: Wed Feb 26 11:04:57 EST 2025
User: louis
Spectrometer: USB4F10415
Trigger mode: 4
Integration Time (sec): 1.000000E-1
Scans to average: 1
Electric dark correction enabled: true
Nonlinearity correction enabled: false
Boxcar width: 0
XAxis mode: Wavelengths
Number of Pixels in Spectrum: 3648
>>>>>Begin Spectral Data<<<<<
178.204	-407.55
178.424	-407.55
178.644	-407.55
178.864	-462.84
179.084	-380.92
179.304	-4.1
179.524	-104.45
179.744	12.29
179.964	59.39
180.184	75.77
180.404	-10.24
180.624	-36.86
180.844	-12.29
181.064	-34.82
181.283	28.67
181.503	-28.67
181.723	55.3
181.943	-108.54
182.163	194.56
182.383	90.11
182.602	61.44
182.822	147.45
183.042	120.83
183.262	-28.67
183.482	14.34
183.701	36.86
183.921	49.15
184.141	-43.01
184.361	28.67
184.58	12.29
184.8	79.87
185.02	-28.67
185.239	75.77
185.459	69.63
185.679	61.44
185.898	-40.96
186.118	14.34
186.338	108.54
186.557	126.97
186.777	-67.58
186.997	40.96
187.216	45.06
187.436	202.75
187.655	88.06
187.875	57.34
188.095	-8.19
188.314	67.58
188.534	135.17
188.753	-65.54
188.973	40.96
189.192	169.98
189.412	24.58
189.631	16.38
189.851	53.25
190.07	159.74
190.29	-53.25
190.509	-6.14
190.729	40.96
190.948	157.69
191.168	217.08
191.387	8.19
191.607	131.07
191.826	38.91
192.045	55.3
192.265	8.19
192.484	10.24
192.704	118.78
192.923	-61.44
193.142	161.79
193.362	90.11
193.581	176.13
193.8	73.73
194.02	102.4
194.239	30.72
194.458	126.97
194.678	14.34
194.897	-34.82
195.116	55.3
195.335	47.1
195.555	83.97
195.774	55.3
195.993	153.6
196.212	43.01
196.432	-6.14
196.651	-49.15
196.87	-10.24
197.089	223.23
197.308	69.63
197.528	112.64
197.747	38.91
197.966	53.25
198.185	139.26
198.404	8.19
198.623	133.12
198.842	51.2
199.062	129.02
199.281	114.69
199.5	-22.53
199.719	100.35
199.938	67.58
200.157	69.63
200.376	51.2
200.595	145.41
200.814	77.82
201.033	6.14
201.252	145.41
201.471	96.25
201.69	40.96
201.909	90.11
202.128	110.59
202.347	81.92
202.566	108.54
202.785	8.19
203.004	-43.01
203.223	206.84
203.442	38.91
203.661	-106.49
203.879	61.44
204.098	153.6
204.317	-57.34
204.536	184.32
204.755	137.21
204.974	147.45
205.193	34.82
205.411	139.26
205.63	110.59
205.849	28.67
206.068	106.49
206.287	-43.01
206.505	165.89
206.724	81.92
206.943	8.19
207.162	10.24
207.381	108.54
207.599	53.25
207.818	102.4
208.037	32.77
208.255	98.3
208.474	159.74
208.693	32.77
208.911	-16.38
209.13	133.12
209.349	102.4
209.567	104.45
209.786	65.53
210.005	102.4
210.223	49.15
210.442	-126.97
210.661	32.77
210.879	36.86
211.098	79.87
211.316	-16.38
211.535	45.06
211.753	126.97
211.972	81.92
212.191	2.05
212.409	36.86
212.628	131.07
212.846	65.53
213.065	32.77
213.283	124.93
213.502	24.58
213.72	8.19
213.938	-57.34
214.157	10.24
214.375	147.45
214.594	69.63
214.812	90.11
215.031	-16.38
215.249	67.58
215.467	96.25
215.686	32.77
215.904	75.77
216.122	-0
216.341	139.26
216.559	-4.1
216.778	120.83
216.996	215.04
217.214	26.62
217.432	-2.05
217.651	-28.67
217.869	18.43
218.087	38.91
218.306	47.1
218.524	34.82
218.742	18.43
218.96	40.96
219.179	-22.53
219.397	71.68
219.615	172.03
219.833	165.89
220.051	-38.91
220.27	88.06
220.488	114.69
220.706	6.14
220.924	12.29
221.142	-6.14
221.36	94.21
221.578	57.34
221.796	59.39
222.015	79.87
222.233	112.64
222.451	161.79
222.669	-88.06
222.887	34.82
223.105	-16.38
223.323	18.43
223.541	-10.24
223.759	22.53
223.977	18.43
224.195	137.21
224.413	69.63
224.631	69.63
224.849	86.01
225.067	172.03
225.285	-86.01
225.503	34.82
225.721	-147.45
225.939	40.96
226.157	102.4
226.375	208.89
226.592	2.05
226.81	65.53
227.028	43.01
227.246	49.15
227.464	77.82
227.682	69.63
227.9	118.78
228.117	38.91
228.335	32.77
228.553	40.96
228.771	116.73
228.989	49.15
229.206	151.55
229.424	57.34
229.642	-0
229.86	-22.53
230.077	83.97
230.295	90.11
230.513	75.77
230.731	102.4
230.948	174.08
231.166	149.5
231.384	59.39
231.601	51.2
231.819	102.4
232.037	16.38
232.254	16.38
232.472	8.19
232.689	-0
232.907	53.25
233.125	12.29
233.342	-26.62
233.56	-4.1
233.777	43.01
233.995	71.68
234.213	73.73
234.43	79.87
234.648	61.44
234.865	6.14
235.083	83.97
235.3	51.2
235.518	129.02
235.735	129.02
235.953	28.67
236.17	43.01
236.388	73.73
236.605	77.82
236.822	131.07
237.04	69.63
237.257	69.63
237.475	18.43
237.692	86.01
237.909	104.45
238.127	36.86
238.344	98.3
238.562	69.63
238.779	-30.72
238.996	-26.62
239.214	28.67
239.431	71.68
239.648	79.87
239.865	122.88
240.083	176.13
240.3	10.24
240.517	-30.72
240.735	38.91
240.952	69.63
241.169	94.21
241.386	116.73
241.603	34.82
241.821	-98.3
242.038	106.49
242.255	129.02
242.472	-2.05
242.689	112.64
242.907	100.35
243.124	14.34
243.341	51.2
243.558	26.62
243.775	-20.48
243.992	-65.54
244.209	98.3
244.426	241.66
244.643	43.01
244.86	63.49
245.078	86.01
245.295	63.49
245.512	-24.58
245.729	-40.96
245.946	81.92
246.163	24.58
246.38	51.2
246.597	-4.1
246.814	165.89
247.031	38.91
247.248	38.91
247.464	63.49
247.681	120.83
247.898	71.68
248.115	126.97
248.332	-0
248.549	151.55
248.766	208.89
248.983	104.45
249.2	118.78
249.417	96.25
249.633	63.49
249.85	-8.19
250.067	-0
250.284	83.97
250.501	65.53
250.717	88.06
250.934	-45.06
251.151	49.15
251.368	2.05
251.585	120.83
251.801	18.43
252.018	-49.15
252.235	110.59
252.451	-26.62
252.668	2.05
252.885	47.1
253.102	43.01
253.318	-26.62
253.535	120.83
253.752	129.02
253.968	-24.58
254.185	-34.82
254.401	10.24
254.618	53.25
254.835	26.62
255.051	77.82
255.268	104.45
255.484	61.44
255.701	32.77
255.917	28.67
256.134	-55.3
256.351	79.87
256.567	-28.67
256.784	4.1
257	-26.62
257.217	149.5
257.433	92.16
257.65	-8.19
257.866	77.82
258.082	22.53
258.299	10.24
258.515	57.34
258.732	49.15
258.948	28.67
259.165	51.2
259.381	55.3
259.597	94.21
259.814	65.53
260.03	59.39
260.246	71.68
260.463	139.26
260.679	114.69
260.895	55.3
261.112	81.92
261.328	-53.25
261.544	-38.91
261.761	149.5
261.977	16.38
262.193	-20.48
262.409	61.44
262.626	102.4
262.842	81.92
263.058	36.86
263.274	24.58
263.49	55.3
263.707	79.87
263.923	49.15
264.139	12.29
264.355	45.06
264.571	139.26
264.787	114.69
265.004	110.59
265.22	112.64
265.436	24.58
265.652	36.86
265.868	47.1
266.084	-12.29
266.3	12.29
266.516	-28.67
266.732	153.6
266.948	49.15
267.164	34.82
267.38	143.36
267.596	38.91
267.812	169.98
268.028	81.92
268.244	69.63
268.46	131.07
268.676	20.48
268.892	51.2
269.108	-90.11
269.324	-38.91
269.54	-2.05
269.756	120.83
269.972	-40.96
270.188	-65.54
270.403	-49.15
270.619	18.43
270.835	104.45
271.051	8.19
271.267	18.43
271.483	24.58
271.698	106.49
271.914	34.82
272.13	-43.01
272.346	-55.3
272.562	53.25
272.777	167.93
272.993	4.1
273.209	-28.67
273.425	90.11
273.64	-69.63
273.856	100.35
274.072	-6.14
274.287	18.43
274.503	90.11
274.719	75.77
274.934	-40.96
275.15	20.48
275.366	36.86
275.581	-26.62
275.797	26.62
276.012	-30.72
276.228	92.16
276.444	38.91
276.659	112.64
276.875	49.15
277.09	73.73
277.306	45.06
277.521	124.93
277.737	38.91
277.952	98.3
278.168	86.01
278.383	92.16
278.599	10.24
278.814	92.16
279.03	32.77
279.245	65.53
279.461	18.43
279.676	92.16
279.892	-26.62
280.107	-73.73
280.322	20.48
280.538	47.1
280.753	18.43
280.969	55.3
281.184	114.69
281.399	167.93
281.615	53.25
281.83	110.59
282.045	-20.48
282.26	47.1
282.476	2.05
282.691	92.16
282.906	61.44
283.122	-14.34
283.337	-4.1
283.552	102.4
283.767	77.82
283.983	59.39
284.198	-6.14
284.413	38.91
284.628	-4.1
284.843	79.87
285.058	169.98
285.274	47.1
285.489	-34.82
285.704	129.02
285.919	36.86
286.134	-2.05
286.349	-16.38
286.564	26.62
286.779	122.88
286.995	43.01
287.21	-96.25
287.425	71.68
287.64	45.06
287.855	79.87
288.07	-32.77
288.285	116.73
288.5	116.73
288.715	106.49
288.93	30.72
289.145	49.15
289.36	83.97
289.575	45.06
289.79	176.13
290.004	18.43
290.219	174.08
290.434	-10.24
290.649	-36.86
290.864	28.67
291.079	-2.05
291.294	63.49
291.509	32.77
291.724	30.72
291.938	63.49
292.153	163.84
292.368	32.77
292.583	24.58
292.798	92.16
293.012	67.58
293.227	102.4
293.442	-10.24
293.657	178.17
293.871	178.17
294.086	63.49
294.301	133.12
294.516	157.69
294.73	63.49
294.945	-6.14
295.16	45.06
295.374	47.1
295.589	112.64
295.804	69.63
296.018	59.39
296.233	129.02
296.447	51.2
296.662	65.53
296.877	135.17
297.091	22.53
297.306	24.58
297.52	71.68
297.735	51.2
297.949	26.62
298.164	32.77
298.378	88.06
298.593	-16.38
298.807	100.35
299.022	-12.29
299.236	159.74
299.451	-2.05
299.665	38.91
299.88	6.14
300.094	32.77
300.309	36.86
300.523	110.59
300.737	57.34
300.952	90.11
301.166	69.63
301.381	24.58
301.595	-28.67
301.809	88.06
302.024	18.43
302.238	4.1
302.452	94.21
302.667	-16.38
302.881	186.37
303.095	102.4
303.309	104.45
303.524	45.06
303.738	-71.68
303.952	-28.67
304.166	51.2
304.381	-112.64
304.595	290.81
304.809	8.19
305.023	49.15
305.237	22.53
305.452	-4.1
305.666	24.58
305.88	157.69
306.094	110.59
306.308	24.58
306.522	129.02
306.736	18.43
306.95	145.41
307.164	20.48
307.379	79.87
307.593	172.03
307.807	133.12
308.021	57.34
308.235	65.53
308.449	-102.4
308.663	102.4
308.877	227.32
309.091	79.87
309.305	67.58
309.519	-151.55
309.733	186.37
309.947	-53.25
310.161	198.65
310.374	94.21
310.588	161.79
310.802	-36.86
311.016	92.16
311.23	67.58
311.444	26.62
311.658	79.87
311.872	157.69
312.085	172.03
312.299	118.78
312.513	198.65
312.727	26.62
312.941	-88.06
313.154	30.72
313.368	34.82
313.582	75.77
313.796	14.34
314.009	92.16
314.223	198.65
314.437	67.58
314.651	81.92
314.864	61.44
315.078	90.11
315.292	-118.78
315.505	20.48
315.719	94.21
315.933	98.3
316.146	-90.11
316.36	57.34
316.573	172.03
316.787	186.37
317.001	51.2
317.214	-45.06
317.428	71.68
317.641	-30.72
317.855	-26.62
318.068	94.21
318.282	94.21
318.495	204.8
318.709	63.49
318.922	69.63
319.136	126.97
319.349	143.36
319.563	71.68
319.776	43.01
319.99	-98.3
320.203	77.82
320.417	24.58
320.63	86.01
320.843	200.7
321.057	94.21
321.27	32.77
321.483	55.3
321.697	196.6
321.91	73.73
322.124	79.87
322.337	141.31
322.55	75.77
322.763	28.67
322.977	12.29
323.19	4.1
323.403	133.12
323.617	67.58
323.83	186.37
324.043	73.73
324.256	53.25
324.469	2.05
324.683	157.69
324.896	20.48
325.109	77.82
325.322	-30.72
325.535	124.93
325.748	32.77
325.962	-32.77
326.175	102.4
326.388	100.35
326.601	77.82
326.814	55.3
327.027	-2.05
327.24	186.37
327.453	-151.55
327.666	104.45
327.879	129.02
328.092	139.26
328.305	57.34
328.518	73.73
328.731	90.11
328.944	71.68
329.157	92.16
329.37	38.91
329.583	98.3
329.796	223.23
330.009	-18.43
330.222	118.78
330.435	88.06
330.648	-10.24
330.861	92.16
331.073	126.97
331.286	131.07
331.499	53.25
331.712	40.96
331.925	-16.38
332.138	98.3
332.35	178.17
332.563	67.58
332.776	145.41
332.989	55.3
333.202	28.67
333.414	43.01
333.627	32.77
333.84	63.49
334.053	69.63
334.265	10.24
334.478	40.96
334.691	22.53
334.903	98.3
335.116	4.1
335.329	-4.1
335.541	86.01
335.754	161.79
335.966	106.49
336.179	71.68
336.392	-6.14
336.604	28.67
336.817	145.41
337.029	88.06
337.242	18.43
337.454	141.31
337.667	73.73
337.88	102.4
338.092	59.39
338.305	22.53
338.517	2.05
338.729	77.82
338.942	190.46
339.154	28.67
339.367	-55.3
339.579	51.2
339.792	-4.1
340.004	120.83
340.217	49.15
340.429	116.73
340.641	36.86
340.854	20.48
341.066	6.14
341.278	110.59
341.491	92.16
341.703	51.2
341.915	49.15
342.128	149.5
342.34	161.79
342.552	-20.48
342.764	92.16
342.977	6.14
343.189	81.92
343.401	18.43
343.613	-22.53
343.826	-4.1
344.038	-24.58
344.25	81.92
344.462	34.82
344.674	112.64
344.886	14.34
345.099	45.06
345.311	71.68
345.523	38.91
345.735	-18.43
345.947	43.01
346.159	30.72
346.371	71.68
346.583	-6.14
346.795	215.04
347.007	61.44
347.219	77.82
347.431	24.58
347.643	129.02
347.855	-8.19
348.067	157.69
348.279	-40.96
348.491	55.3
348.703	102.4
348.915	73.73
349.127	-79.87
349.339	26.62
349.551	10.24
349.763	14.34
349.975	49.15
350.187	90.11
350.399	59.39
350.61	79.87
350.822	-40.96
351.034	143.36
351.246	81.92
351.458	139.26
351.669	49.15
351.881	100.35
352.093	147.45
352.305	88.06
352.517	73.73
352.728	81.92
352.94	114.69
353.152	30.72
353.363	-63.49
353.575	49.15
353.787	106.49
353.999	-8.19
354.21	131.07
354.422	-16.38
354.633	40.96
354.845	106.49
355.057	122.88
355.268	53.25
355.48	122.88
355.692	-4.1
355.903	-6.14
356.115	8.19
356.326	-47.1
356.538	147.45
356.749	65.53
356.961	159.74
357.172	86.01
357.384	-24.58
357.595	194.56
357.807	32.77
358.018	-24.58
358.23	83.97
358.441	167.93
358.653	69.63
358.864	59.39
359.075	61.44
359.287	51.2
359.498	88.06
359.709	75.77
359.921	81.92
360.132	73.73
360.344	79.87
360.555	32.77
360.766	40.96
360.977	98.3
361.189	63.49
361.4	30.72
361.611	55.3
361.823	102.4
362.034	36.86
362.245	-75.77
362.456	40.96
362.667	67.58
362.879	-0
363.09	34.82
363.301	90.11
363.512	34.82
363.723	36.86
363.935	-45.06
364.146	110.59
364.357	-53.25
364.568	114.69
364.779	-24.58
364.99	159.74
365.201	38.91
365.412	79.87
365.623	-34.82
365.834	53.25
366.045	94.21
366.256	36.86
366.467	118.78
366.678	43.01
366.889	38.91
367.1	-43.01
367.311	110.59
367.522	-8.19
367.733	98.3
367.944	61.44
368.155	69.63
368.366	102.4
368.577	114.69
368.788	116.73
368.999	-63.49
369.209	69.63
369.42	188.41
369.631	172.03
369.842	131.07
370.053	18.43
370.264	102.4
370.474	-28.67
370.685	57.34
370.896	8.19
371.107	145.41
371.317	69.63
371.528	8.19
371.739	71.68
371.95	110.59
372.16	149.5
372.371	4.1
372.582	32.77
372.792	32.77
373.003	69.63
373.214	67.58
373.424	98.3
373.635	-45.06
373.846	204.8
374.056	61.44
374.267	81.92
374.477	73.73
374.688	40.96
374.898	114.69
375.109	61.44
375.319	53.25
375.53	90.11
375.74	149.5
375.951	-40.96
376.161	174.08
376.372	124.93
376.582	-6.14
376.793	22.53
377.003	4.1
377.214	69.63
377.424	83.97
377.635	55.3
377.845	-20.48
378.055	182.27
378.266	-38.91
378.476	40.96
378.686	75.77
378.897	65.53
379.107	120.83
379.317	40.96
379.528	-47.1
379.738	18.43
379.948	-51.2
380.158	90.11
380.369	53.25
380.579	102.4
380.789	79.87
380.999	163.84
381.21	135.17
381.42	178.17
381.63	63.49
381.84	20.48
382.05	110.59
382.261	155.65
382.471	157.69
382.681	-36.86
382.891	221.18
383.101	114.69
383.311	22.53
383.521	45.06
383.731	141.31
383.941	79.87
384.151	45.06
384.361	38.91
384.571	139.26
384.781	71.68
384.991	180.22
385.201	200.7
385.411	79.87
385.621	120.83
385.831	112.64
386.041	79.87
386.251	30.72
386.461	143.36
386.671	32.77
386.881	-4.1
387.091	67.58
387.301	116.73
387.511	-12.29
387.72	139.26
387.93	139.26
388.14	-43.01
388.35	163.84
388.56	124.93
388.769	98.3
388.979	83.97
389.189	-4.1
389.399	83.97
389.609	47.1
389.818	65.53
390.028	86.01
390.238	77.82
390.447	65.53
390.657	86.01
390.867	-0
391.076	-51.2
391.286	106.49
391.496	-14.34
391.705	69.63
391.915	116.73
392.125	124.93
392.334	-38.91
392.544	126.97
392.753	63.49
392.963	43.01
393.172	86.01
393.382	8.19
393.591	217.08
393.801	2.05
394.01	188.41
394.22	104.45
394.429	-36.86
394.639	47.1
394.848	108.54
395.058	124.93
395.267	4.1
395.477	67.58
395.686	163.84
395.895	229.37
396.105	163.84
396.314	73.73
396.524	40.96
396.733	43.01
396.942	118.78
397.152	122.88
397.361	102.4
397.57	24.58
397.78	79.87
397.989	102.4
398.198	208.89
398.407	51.2
398.617	83.97
398.826	104.45
399.035	34.82
399.244	202.75
399.453	114.69
399.663	61.44
399.872	28.67
400.081	28.67
400.29	131.07
400.499	-22.53
400.708	108.54
400.917	40.96
401.127	63.49
401.336	16.38
401.545	256
401.754	102.4
401.963	73.73
402.172	120.83
402.381	-20.48
402.59	96.25
402.799	55.3
403.008	104.45
403.217	120.83
403.426	139.26
403.635	-45.06
403.844	116.73
404.053	63.49
404.262	26.62
404.471	176.13
404.68	131.07
404.888	149.5
405.097	61.44
405.306	106.49
405.515	90.11
405.724	40.96
405.933	65.53
406.142	79.87
406.35	90.11
406.559	38.91
406.768	126.97
406.977	196.6
407.185	55.3
407.394	61.44
407.603	10.24
407.812	63.49
408.02	180.22
408.229	79.87
408.438	40.96
408.646	32.77
408.855	94.21
409.064	96.25
409.272	90.11
409.481	120.83
409.69	51.2
409.898	12.29
410.107	79.87
410.315	61.44
410.524	10.24
410.733	81.92
410.941	67.58
411.15	198.65
411.358	208.89
411.567	94.21
411.775	94.21
411.984	67.58
412.192	114.69
412.401	59.39
412.609	278.52
412.818	141.31
413.026	110.59
413.234	73.73
413.443	12.29
413.651	26.62
413.86	47.1
414.068	186.37
414.276	178.17
414.485	67.58
414.693	215.04
414.901	137.21
415.11	53.25
415.318	114.69
415.526	61.44
415.734	116.73
415.943	126.97
416.151	163.84
416.359	83.97
416.567	98.3
416.776	143.36
416.984	133.12
417.192	219.13
417.4	40.96
417.608	22.53
417.817	55.3
418.025	135.17
418.233	131.07
418.441	-38.91
418.649	16.38
418.857	110.59
419.065	165.89
419.273	-32.77
419.481	30.72
419.689	49.15
419.897	16.38
420.105	-14.34
420.313	57.34
420.521	180.22
420.729	206.84
420.937	88.06
421.145	26.62
421.353	163.84
421.561	167.93
421.769	75.77
421.977	-36.86
422.185	73.73
422.393	36.86
422.601	90.11
422.809	90.11
423.017	124.93
423.224	67.58
423.432	59.39
423.64	73.73
423.848	202.75
424.056	71.68
424.263	219.13
424.471	49.15
424.679	208.89
424.887	114.69
425.094	81.92
425.302	49.15
425.51	59.39
425.718	69.63
425.925	36.86
426.133	151.55
426.341	159.74
426.548	2.05
426.756	32.77
426.964	34.82
427.171	81.92
427.379	206.84
427.586	90.11
427.794	98.3
428.001	161.79
428.209	116.73
428.417	278.52
428.624	153.6
428.832	79.87
429.039	157.69
429.247	131.07
429.454	174.08
429.662	249.85
429.869	178.17
430.076	139.26
430.284	204.8
430.491	231.42
430.699	147.45
430.906	210.94
431.114	176.13
431.321	178.17
431.528	182.27
431.736	94.21
431.943	188.41
432.15	161.79
432.358	237.56
432.565	339.96
432.772	36.86
432.979	249.85
433.187	145.41
433.394	292.86
433.601	129.02
433.808	247.8
434.016	251.9
434.223	260.09
434.43	286.72
434.637	331.77
434.844	301.05
435.052	241.66
435.259	335.87
435.466	241.66
435.673	325.63
435.88	327.67
436.087	370.68
436.294	368.63
436.501	329.72
436.708	303.1
436.915	372.73
437.122	382.97
437.329	342.01
437.537	368.63
437.743	372.73
437.95	487.42
438.157	446.46
438.364	380.92
438.571	378.87
438.778	432.12
438.985	489.46
439.192	493.56
439.399	403.45
439.606	501.75
439.813	471.03
440.02	616.44
440.227	628.73
440.433	548.86
440.64	589.82
440.847	507.9
441.054	647.16
441.261	737.27
441.467	626.68
441.674	608.25
441.881	710.65
442.088	663.54
442.294	718.84
442.501	946.16
442.708	796.66
442.914	733.17
443.121	872.43
443.328	868.34
443.534	991.22
443.741	985.07
443.948	770.04
444.154	1140.72
444.361	1259.5
444.568	1085.42
444.774	1054.7
444.981	1058.8
445.187	1273.84
445.394	1249.26
445.6	1308.65
445.807	1339.37
446.013	1325.04
446.22	1341.42
446.426	1486.83
446.633	1587.18
446.839	1726.44
447.046	1445.87
447.252	1728.49
447.459	1783.78
447.665	1724.39
447.871	1931.23
448.078	2023.39
448.284	1896.42
448.491	2097.12
448.697	2160.61
448.903	2406.36
449.11	2316.25
449.316	2258.91
449.522	2531.29
449.728	2637.78
449.935	2572.25
450.141	2654.17
450.347	2914.26
450.553	2836.44
450.76	2949.07
450.966	2918.36
451.172	3217.36
451.378	3317.71
451.584	3442.64
451.791	3561.42
451.997	3719.11
452.203	3882.95
452.409	3938.24
452.615	3973.06
452.821	3968.96
453.027	4007.87
453.233	4538.3
453.44	4480.96
453.646	4573.11
453.852	4716.47
454.058	5087.15
454.264	5205.94
454.47	5560.24
454.676	5701.54
454.882	6051.75
455.088	5691.31
455.294	6170.53
455.5	6467.49
455.705	7071.64
455.911	6944.66
456.117	7073.68
456.323	7260.05
456.529	7276.43
456.735	8089.48
456.941	8245.12
457.147	8587.13
457.352	8898.42
457.558	8980.34
457.764	9666.41
457.97	9871.21
458.176	10266.47
458.381	10729.31
458.587	10921.82
458.793	11274.07
458.999	11386.71
459.204	12875.58
459.41	13403.96
459.616	13219.64
459.821	13973.29
460.027	14370.6
460.233	15161.11
460.438	15154.97
460.644	16224.01
460.85	16285.45
461.055	17143.55
461.261	18126.57
461.466	17372.92
461.672	17696.5
461.878	19865.3
462.083	19388.12
462.289	20057.81
462.494	20868.8
462.7	20995.78
462.905	21178.04
463.111	22879.91
463.316	24092.3
463.522	24618.63
463.727	25562.75
463.932	26349.17
464.138	27405.92
464.343	28376.65
464.549	28163.67
464.754	30305.84
464.959	31196.71
465.165	32024.09
465.37	31720.99
465.575	31553.05
465.781	33728
465.986	34629.1
466.191	34280.95
466.397	34461.17
466.602	33693.18
466.807	35534.31
467.012	36810.19
467.218	36627.92
467.423	37244.36
467.628	37989.82
467.833	39787.94
468.038	39138.73
468.244	38385.08
468.449	40080.8
468.654	39282.09
