Data from USB4F104151__93__10-45-03-765.txt Node

Date: Wed Feb 26 10:45:03 EST 2025
User: louis
Spectrometer: USB4F10415
Trigger mode: 4
Integration Time (sec): 1.000000E-1
Scans to average: 1
Electric dark correction enabled: true
Nonlinearity correction enabled: false
Boxcar width: 0
XAxis mode: Wavelengths
Number of Pixels in Spectrum: 3648
>>>>>Begin Spectral Data<<<<<
178.204	-363.69
178.424	-363.69
178.644	-363.69
178.864	-408.74
179.084	-449.7
179.304	60.24
179.524	-62.63
179.744	19.29
179.964	66.39
180.184	25.43
180.404	103.25
180.624	-33.96
180.844	-74.92
181.064	-87.21
181.283	-17.58
181.503	-79.02
181.723	80.72
181.943	-89.26
182.163	144.21
182.383	-66.73
182.602	52.05
182.822	129.88
183.042	23.38
183.262	-44.2
183.482	52.05
183.701	15.19
183.921	152.4
184.141	-64.68
184.361	101.2
184.58	23.38
184.8	90.96
185.02	-19.63
185.239	136.02
185.459	2.9
185.679	76.63
185.898	-85.16
186.118	35.67
186.338	47.96
186.557	76.63
186.777	-50.35
186.997	9.05
187.216	62.29
187.436	179.03
187.655	68.44
187.875	148.31
188.095	-36.01
188.314	-17.58
188.534	146.26
188.753	50
188.973	195.41
189.192	168.79
189.412	9.05
189.631	31.57
189.851	80.72
190.07	72.53
190.29	-68.78
190.509	-17.58
190.729	-1.19
190.948	45.91
191.168	219.99
191.387	41.81
191.607	88.92
191.826	37.72
192.045	23.38
192.265	-1.19
192.484	64.34
192.704	25.43
192.923	-105.64
193.142	144.21
193.362	148.31
193.581	164.69
193.8	23.38
194.02	84.82
194.239	11.09
194.458	84.82
194.678	37.72
194.897	-50.35
195.116	80.72
195.335	70.48
195.555	-33.96
195.774	-52.39
195.993	72.53
196.212	2.9
196.432	-56.49
196.651	-7.34
196.87	31.57
197.089	234.32
197.308	101.2
197.528	80.72
197.747	-70.83
197.966	105.3
198.185	88.92
198.404	-13.48
198.623	121.68
198.842	162.64
199.062	99.16
199.281	113.49
199.5	7
199.719	140.12
199.938	62.29
200.157	39.76
200.376	66.39
200.595	90.96
200.814	90.96
201.033	-48.3
201.252	33.62
201.471	-9.39
201.69	47.96
201.909	70.48
202.128	142.16
202.347	138.07
202.566	15.19
202.785	-89.26
203.004	-91.31
203.223	228.18
203.442	29.52
203.661	-19.63
203.879	50
204.098	60.24
204.317	-148.65
204.536	111.44
204.755	41.81
204.974	136.02
205.193	0.85
205.411	121.68
205.63	123.73
205.849	90.96
206.068	-11.43
206.287	50
206.505	166.74
206.724	37.72
206.943	41.81
207.162	9.05
207.381	52.05
207.599	-5.29
207.818	29.52
208.037	-76.97
208.255	-17.58
208.474	7
208.693	86.87
208.911	31.57
209.13	97.11
209.349	66.39
209.567	68.44
209.786	43.86
210.005	35.67
210.223	17.24
210.442	-62.63
210.661	47.96
210.879	29.52
211.098	-62.63
211.316	54.1
211.535	80.72
211.753	43.86
211.972	33.62
212.191	-7.34
212.409	56.15
212.628	15.19
212.846	15.19
213.065	-5.29
213.283	60.24
213.502	27.48
213.72	-5.29
213.938	-19.63
214.157	15.19
214.375	123.73
214.594	13.14
214.812	109.4
215.031	-46.25
215.249	-29.87
215.467	97.11
215.686	64.34
215.904	95.06
216.122	33.62
216.341	84.82
216.559	50
216.778	105.3
216.996	127.83
217.214	-17.58
217.432	-3.24
217.651	0.85
217.869	-5.29
218.087	21.33
218.306	-5.29
218.524	95.06
218.742	107.35
218.96	68.44
219.179	-15.53
219.397	0.85
219.615	234.32
219.833	191.31
220.051	-68.78
220.27	99.16
220.488	103.25
220.706	60.24
220.924	-19.63
221.142	60.24
221.36	103.25
221.578	31.57
221.796	-13.48
222.015	60.24
222.233	11.09
222.451	133.97
222.669	19.29
222.887	58.2
223.105	17.24
223.323	15.19
223.541	-95.4
223.759	-9.39
223.977	37.72
224.195	119.64
224.413	76.63
224.631	138.07
224.849	66.39
225.067	172.88
225.285	-29.87
225.503	66.39
225.721	-158.89
225.939	78.68
226.157	84.82
226.375	156.5
226.592	-33.96
226.81	-7.34
227.028	144.21
227.246	136.02
227.464	31.57
227.682	99.16
227.9	115.54
228.117	4.95
228.335	64.34
228.553	-11.43
228.771	-9.39
228.989	-5.29
229.206	68.44
229.424	-58.54
229.642	56.15
229.86	-31.91
230.077	138.07
230.295	84.82
230.513	168.79
230.731	35.67
230.948	179.03
231.166	138.07
231.384	58.2
231.601	-17.58
231.819	170.83
232.037	39.76
232.254	-64.68
232.472	41.81
232.689	-13.48
232.907	168.79
233.125	50
233.342	-5.29
233.56	37.72
233.777	9.05
233.995	-17.58
234.213	125.78
234.43	56.15
234.648	50
234.865	-25.77
235.083	88.92
235.3	70.48
235.518	93.01
235.735	148.31
235.953	68.44
236.17	2.9
236.388	-44.2
236.605	35.67
236.822	123.73
237.04	162.64
237.257	109.4
237.475	-89.26
237.692	41.81
237.909	111.44
238.127	9.05
238.344	35.67
238.562	58.2
238.779	-126.12
238.996	-1.19
239.214	13.14
239.431	60.24
239.648	66.39
239.865	37.72
240.083	47.96
240.3	-23.72
240.517	-42.15
240.735	41.81
240.952	156.5
241.169	97.11
241.386	95.06
241.603	9.05
241.821	60.24
242.038	111.44
242.255	146.26
242.472	-29.87
242.689	47.96
242.907	33.62
243.124	62.29
243.341	41.81
243.558	-31.91
243.775	-1.19
243.992	-29.87
244.209	68.44
244.426	222.03
244.643	66.39
244.86	7
245.078	60.24
245.295	54.1
245.512	2.9
245.729	-21.67
245.946	103.25
246.163	144.21
246.38	62.29
246.597	7
246.814	2.9
247.031	52.05
247.248	19.29
247.464	88.92
247.681	45.91
247.898	80.72
248.115	142.16
248.332	7
248.549	144.21
248.766	152.4
248.983	27.48
249.2	95.06
249.417	90.96
249.633	-1.19
249.85	84.82
250.067	15.19
250.284	31.57
250.501	70.48
250.717	43.86
250.934	-109.74
251.151	82.77
251.368	68.44
251.585	37.72
251.801	72.53
252.018	-25.77
252.235	115.54
252.451	-38.06
252.668	74.58
252.885	111.44
253.102	-15.53
253.318	-29.87
253.535	45.91
253.752	-13.48
253.968	17.24
254.185	-48.3
254.401	2.9
254.618	-1.19
254.835	-46.25
255.051	154.45
255.268	41.81
255.484	47.96
255.701	35.67
255.917	72.53
256.134	15.19
256.351	37.72
256.567	13.14
256.784	7
257	-36.01
257.217	117.59
257.433	90.96
257.65	-5.29
257.866	179.03
258.082	-46.25
258.299	-13.48
258.515	39.76
258.732	-66.73
258.948	-11.43
259.165	-33.96
259.381	-38.06
259.597	131.92
259.814	7
260.03	7
260.246	52.05
260.463	127.83
260.679	219.99
260.895	-11.43
261.112	127.83
261.328	95.06
261.544	-29.87
261.761	148.31
261.977	-29.87
262.193	-66.73
262.409	109.4
262.626	56.15
262.842	103.25
263.058	-9.39
263.274	45.91
263.49	97.11
263.707	84.82
263.923	62.29
264.139	-52.39
264.355	-52.39
264.571	154.45
264.787	111.44
265.004	146.26
265.22	43.86
265.436	43.86
265.652	-25.77
265.868	66.39
266.084	-87.21
266.3	95.06
266.516	-23.72
266.732	54.1
266.948	35.67
267.164	0.85
267.38	43.86
267.596	50
267.812	187.22
268.028	23.38
268.244	43.86
268.46	19.29
268.676	37.72
268.892	-9.39
269.108	-85.16
269.324	-99.5
269.54	58.2
269.756	50
269.972	56.15
270.188	-5.29
270.403	-27.82
270.619	35.67
270.835	95.06
271.051	90.96
271.267	45.91
271.483	27.48
271.698	66.39
271.914	68.44
272.13	76.63
272.346	-27.82
272.562	-17.58
272.777	144.21
272.993	39.76
273.209	35.67
273.425	68.44
273.64	-31.91
273.856	99.16
274.072	19.29
274.287	-1.19
274.503	50
274.719	111.44
274.934	11.09
275.15	-11.43
275.366	52.05
275.581	-27.82
275.797	-36.01
276.012	11.09
276.228	56.15
276.444	68.44
276.659	74.58
276.875	-70.83
277.09	-15.53
277.306	-50.35
277.521	41.81
277.737	17.24
277.952	19.29
278.168	-3.24
278.383	50
278.599	4.95
278.814	78.68
279.03	41.81
279.245	66.39
279.461	95.06
279.676	109.4
279.892	-33.96
280.107	-87.21
280.322	-105.64
280.538	29.52
280.753	-31.91
280.969	52.05
281.184	21.33
281.399	154.45
281.615	72.53
281.83	45.91
282.045	-40.11
282.26	-29.87
282.476	21.33
282.691	84.82
282.906	82.77
283.122	27.48
283.337	-23.72
283.552	72.53
283.767	-42.15
283.983	133.97
284.198	37.72
284.413	21.33
284.628	-25.77
284.843	31.57
285.058	119.64
285.274	0.85
285.489	7
285.704	82.77
285.919	-36.01
286.134	-1.19
286.349	47.96
286.564	29.52
286.779	70.48
286.995	-46.25
287.21	-64.68
287.425	-9.39
287.64	7
287.855	76.63
288.07	-54.44
288.285	41.81
288.5	144.21
288.715	33.62
288.93	-3.24
289.145	19.29
289.36	185.17
289.575	2.9
289.79	148.31
290.004	-36.01
290.219	103.25
290.434	-33.96
290.649	-60.59
290.864	39.76
291.079	-27.82
291.294	115.54
291.509	76.63
291.724	84.82
291.938	-11.43
292.153	64.34
292.368	31.57
292.583	29.52
292.798	19.29
293.012	-7.34
293.227	-11.43
293.442	-21.67
293.657	47.96
293.871	127.83
294.086	-21.67
294.301	148.31
294.516	11.09
294.73	4.95
294.945	-1.19
295.16	70.48
295.374	70.48
295.589	56.15
295.804	-38.06
296.018	29.52
296.233	90.96
296.447	84.82
296.662	-107.69
296.877	74.58
297.091	2.9
297.306	7
297.52	4.95
297.735	41.81
297.949	-1.19
298.164	76.63
298.378	-11.43
298.593	-48.3
298.807	70.48
299.022	-15.53
299.236	146.26
299.451	-33.96
299.665	-9.39
299.88	80.72
300.094	95.06
300.309	-62.63
300.523	84.82
300.737	2.9
300.952	33.62
301.166	60.24
301.381	37.72
301.595	-48.3
301.809	-7.34
302.024	37.72
302.238	9.05
302.452	115.54
302.667	-13.48
302.881	148.31
303.095	129.88
303.309	142.16
303.524	-58.54
303.738	-36.01
303.952	4.95
304.166	84.82
304.381	-97.45
304.595	68.44
304.809	-23.72
305.023	9.05
305.237	11.09
305.452	0.85
305.666	60.24
305.88	35.67
306.094	66.39
306.308	66.39
306.522	119.64
306.736	66.39
306.95	70.48
307.164	2.9
307.379	-21.67
307.593	117.59
307.807	150.36
308.021	115.54
308.235	33.62
308.449	-89.26
308.663	-21.67
308.877	174.93
309.091	97.11
309.305	88.92
309.519	-97.45
309.733	146.26
309.947	-40.11
310.161	107.35
310.374	176.98
310.588	93.01
310.802	-15.53
311.016	-7.34
311.23	109.4
311.444	-101.55
311.658	29.52
311.872	222.03
312.085	142.16
312.299	131.92
312.513	97.11
312.727	43.86
312.941	-1.19
313.154	78.68
313.368	56.15
313.582	29.52
313.796	23.38
314.009	-27.82
314.223	99.16
314.437	99.16
314.651	41.81
314.864	86.87
315.078	9.05
315.292	-111.78
315.505	68.44
315.719	72.53
315.933	121.68
316.146	-74.92
316.36	-19.63
316.573	142.16
316.787	74.58
317.001	54.1
317.214	17.24
317.428	84.82
317.641	-11.43
317.855	-48.3
318.068	50
318.282	58.2
318.495	146.26
318.709	95.06
318.922	68.44
319.136	150.36
319.349	144.21
319.563	-15.53
319.776	68.44
319.99	-99.5
320.203	47.96
320.417	7
320.63	97.11
320.843	207.7
321.057	111.44
321.27	21.33
321.483	76.63
321.697	142.16
321.91	78.68
322.124	27.48
322.337	47.96
322.55	93.01
322.763	23.38
322.977	107.35
323.19	52.05
323.403	41.81
323.617	105.3
323.83	66.39
324.043	-13.48
324.256	60.24
324.469	0.85
324.683	117.59
324.896	-23.72
325.109	60.24
325.322	-89.26
325.535	47.96
325.748	88.92
325.962	-50.35
326.175	56.15
326.388	56.15
326.601	107.35
326.814	9.05
327.027	11.09
327.24	150.36
327.453	-19.63
327.666	68.44
327.879	146.26
328.092	45.91
328.305	-9.39
328.518	39.76
328.731	-7.34
328.944	17.24
329.157	45.91
329.37	9.05
329.583	107.35
329.796	150.36
330.009	-93.35
330.222	183.12
330.435	86.87
330.648	37.72
330.861	41.81
331.073	86.87
331.286	80.72
331.499	88.92
331.712	-29.87
331.925	-85.16
332.138	-5.29
332.35	70.48
332.563	-36.01
332.776	125.78
332.989	9.05
333.202	-29.87
333.414	95.06
333.627	-5.29
333.84	17.24
334.053	-3.24
334.265	-44.2
334.478	-15.53
334.691	-11.43
334.903	52.05
335.116	-42.15
335.329	2.9
335.541	58.2
335.754	127.83
335.966	21.33
336.179	101.2
336.392	13.14
336.604	23.38
336.817	97.11
337.029	27.48
337.242	25.43
337.454	123.73
337.667	-42.15
337.88	176.98
338.092	43.86
338.305	111.44
338.517	2.9
338.729	27.48
338.942	111.44
339.154	-42.15
339.367	-21.67
339.579	99.16
339.792	-33.96
340.004	74.58
340.217	17.24
340.429	136.02
340.641	25.43
340.854	-36.01
341.066	35.67
341.278	119.64
341.491	136.02
341.703	115.54
341.915	-36.01
342.128	127.83
342.34	86.87
342.552	-15.53
342.764	41.81
342.977	-1.19
343.189	47.96
343.401	117.59
343.613	-122.02
343.826	-1.19
344.038	0.85
344.25	117.59
344.462	-5.29
344.674	60.24
344.886	15.19
345.099	-31.91
345.311	99.16
345.523	45.91
345.735	-68.78
345.947	78.68
346.159	93.01
346.371	-23.72
346.583	29.52
346.795	172.88
347.007	43.86
347.219	60.24
347.431	-48.3
347.643	168.79
347.855	13.14
348.067	148.31
348.279	-64.68
348.491	103.25
348.703	117.59
348.915	-44.2
349.127	-44.2
349.339	-29.87
349.551	-36.01
349.763	82.77
349.975	21.33
350.187	97.11
350.399	93.01
350.61	39.76
350.822	-64.68
351.034	37.72
351.246	47.96
351.458	29.52
351.669	45.91
351.881	183.12
352.093	111.44
352.305	148.31
352.517	19.29
352.728	140.12
352.94	39.76
353.152	35.67
353.363	2.9
353.575	2.9
353.787	129.88
353.999	58.2
354.21	140.12
354.422	-99.5
354.633	76.63
354.845	-3.24
355.057	101.2
355.268	4.95
355.48	113.49
355.692	-70.83
355.903	84.82
356.115	74.58
356.326	-31.91
356.538	174.93
356.749	29.52
356.961	123.73
357.172	27.48
357.384	-54.44
357.595	125.78
357.807	41.81
358.018	9.05
358.23	-25.77
358.441	209.75
358.653	64.34
358.864	74.58
359.075	0.85
359.287	74.58
359.498	45.91
359.709	189.27
359.921	-17.58
360.132	19.29
360.344	76.63
360.555	-21.67
360.766	107.35
360.977	74.58
361.189	160.59
361.4	62.29
361.611	168.79
361.823	76.63
362.034	-17.58
362.245	-36.01
362.456	47.96
362.667	43.86
362.879	-97.45
363.09	156.5
363.301	54.1
363.512	27.48
363.723	-9.39
363.935	2.9
364.146	70.48
364.357	39.76
364.568	95.06
364.779	-29.87
364.99	133.97
365.201	-113.83
365.412	142.16
365.623	-40.11
365.834	56.15
366.045	23.38
366.256	136.02
366.467	52.05
366.678	19.29
366.889	-1.19
367.1	-7.34
367.311	64.34
367.522	-25.77
367.733	117.59
367.944	90.96
368.155	-60.59
368.366	68.44
368.577	113.49
368.788	121.68
368.999	-11.43
369.209	78.68
369.42	287.57
369.631	252.75
369.842	88.92
370.053	-21.67
370.264	144.21
370.474	-54.44
370.685	107.35
370.896	62.29
371.107	146.26
371.317	31.57
371.528	-42.15
371.739	125.78
371.95	45.91
372.16	103.25
372.371	-38.06
372.582	56.15
372.792	119.64
373.003	60.24
373.214	70.48
373.424	84.82
373.635	-19.63
373.846	103.25
374.056	60.24
374.267	25.43
374.477	140.12
374.688	-68.78
374.898	47.96
375.109	27.48
375.319	13.14
375.53	172.88
375.74	113.49
375.951	105.3
376.161	64.34
376.372	60.24
376.582	-56.49
376.793	41.81
377.003	11.09
377.214	-9.39
377.424	31.57
377.635	50
377.845	25.43
378.055	123.73
378.266	-3.24
378.476	2.9
378.686	129.88
378.897	60.24
379.107	113.49
379.317	82.77
379.528	-33.96
379.738	103.25
379.948	-91.31
380.158	140.12
380.369	11.09
380.579	35.67
380.789	-7.34
380.999	68.44
381.21	95.06
381.42	170.83
381.63	9.05
381.84	150.36
382.05	119.64
382.261	109.4
382.471	88.92
382.681	15.19
382.891	179.03
383.101	45.91
383.311	-42.15
383.521	29.52
383.731	90.96
383.941	88.92
384.151	33.62
384.361	17.24
384.571	60.24
384.781	-7.34
384.991	187.22
385.201	160.59
385.411	60.24
385.621	80.72
385.831	21.33
386.041	60.24
386.251	70.48
386.461	146.26
386.671	29.52
386.881	-15.53
387.091	7
387.301	148.31
387.511	68.44
387.72	152.4
387.93	56.15
388.14	-15.53
388.35	39.76
388.56	142.16
388.769	121.68
388.979	-19.63
389.189	-1.19
389.399	64.34
389.609	9.05
389.818	111.44
390.028	60.24
390.238	103.25
390.447	-9.39
390.657	25.43
390.867	-48.3
391.076	13.14
391.286	43.86
391.496	54.1
391.705	33.62
391.915	148.31
392.125	72.53
392.334	15.19
392.544	150.36
392.753	43.86
392.963	-58.54
393.172	25.43
393.382	23.38
393.591	170.83
393.801	-5.29
394.01	78.68
394.22	105.3
394.429	-29.87
394.639	4.95
394.848	52.05
395.058	17.24
395.267	29.52
395.477	58.2
395.686	47.96
395.895	115.54
396.105	156.5
396.314	47.96
396.524	-31.91
396.733	-19.63
396.942	131.92
397.152	99.16
397.361	68.44
397.57	-25.77
397.78	56.15
397.989	47.96
398.198	201.55
398.407	-11.43
398.617	-7.34
398.826	41.81
399.035	74.58
399.244	109.4
399.453	90.96
399.663	-52.39
399.872	80.72
400.081	-21.67
400.29	74.58
400.499	-33.96
400.708	166.74
400.917	39.76
401.127	93.01
401.336	84.82
401.545	219.99
401.754	19.29
401.963	80.72
402.172	9.05
402.381	-29.87
402.59	17.24
402.799	58.2
403.008	105.3
403.217	37.72
403.426	43.86
403.635	-21.67
403.844	-46.25
404.053	-11.43
404.262	31.57
404.471	60.24
404.68	113.49
404.888	105.3
405.097	56.15
405.306	19.29
405.515	115.54
405.724	-11.43
405.933	183.12
406.142	111.44
406.35	47.96
406.559	11.09
406.768	37.72
406.977	123.73
407.185	142.16
407.394	7
407.603	2.9
407.812	84.82
408.02	84.82
408.229	23.38
408.438	74.58
408.646	-50.35
408.855	80.72
409.064	86.87
409.272	33.62
409.481	19.29
409.69	21.33
409.898	-27.82
410.107	43.86
410.315	90.96
410.524	-29.87
410.733	103.25
410.941	56.15
411.15	35.67
411.358	136.02
411.567	162.64
411.775	-1.19
411.984	74.58
412.192	74.58
412.401	43.86
412.609	172.88
412.818	78.68
413.026	164.69
413.234	58.2
413.443	88.92
413.651	-15.53
413.86	0.85
414.068	107.35
414.276	117.59
414.485	-76.97
414.693	181.07
414.901	191.31
415.11	17.24
415.318	-3.24
415.526	103.25
415.734	140.12
415.943	111.44
416.151	199.51
416.359	25.43
416.567	125.78
416.776	105.3
416.984	101.2
417.192	138.07
417.4	-66.73
417.608	-1.19
417.817	52.05
418.025	52.05
418.233	195.41
418.441	17.24
418.649	-58.54
418.857	101.2
419.065	140.12
419.273	-21.67
419.481	90.96
419.689	19.29
419.897	-33.96
420.105	-15.53
420.313	181.07
420.521	168.79
420.729	111.44
420.937	9.05
421.145	-50.35
421.353	152.4
421.561	107.35
421.769	93.01
421.977	9.05
422.185	148.31
422.393	9.05
422.601	156.5
422.809	66.39
423.017	13.14
423.224	50
423.432	25.43
423.64	50
423.848	78.68
424.056	31.57
424.263	109.4
424.471	41.81
424.679	125.78
424.887	37.72
425.094	189.27
425.302	9.05
425.51	9.05
425.718	115.54
425.925	78.68
426.133	76.63
426.341	174.93
426.548	80.72
426.756	70.48
426.964	86.87
427.171	80.72
427.379	68.44
427.586	58.2
427.794	93.01
428.001	174.93
428.209	129.88
428.417	217.94
428.624	90.96
428.832	146.26
429.039	82.77
429.247	56.15
429.454	133.97
429.662	228.18
429.869	93.01
430.076	115.54
430.284	133.97
430.491	111.44
430.699	68.44
430.906	213.84
431.114	95.06
431.321	84.82
431.528	93.01
431.736	213.84
431.943	209.75
432.15	148.31
432.358	170.83
432.565	236.37
432.772	33.62
432.979	209.75
433.187	129.88
433.394	324.43
433.601	119.64
433.808	301.9
434.016	316.24
434.223	228.18
434.43	205.65
434.637	244.56
434.844	250.71
435.052	174.93
435.259	310.1
435.466	260.95
435.673	258.9
435.88	312.14
436.087	379.73
436.294	377.68
436.501	328.53
436.708	287.57
436.915	306
437.122	412.5
437.329	244.56
437.537	353.1
437.743	289.62
437.95	430.93
438.157	387.92
438.364	402.26
438.571	357.2
438.778	430.93
438.985	488.27
439.192	504.65
439.399	518.99
439.606	562
439.813	490.32
440.02	541.52
440.227	686.92
440.433	570.19
440.64	652.11
440.847	469.84
441.054	684.87
441.261	748.36
441.467	713.55
441.674	586.57
441.881	713.55
442.088	615.24
442.294	754.51
442.501	789.32
442.708	811.85
442.914	740.17
443.121	848.71
443.328	934.73
443.534	992.07
443.741	967.49
443.948	924.49
444.154	1121.09
444.361	1266.5
444.568	1039.17
444.774	1061.7
444.981	1018.69
445.187	1239.87
445.394	1176.39
445.6	1172.29
445.807	1446.72
446.013	1334.08
446.22	1293.12
446.426	1499.97
446.633	1588.03
446.839	1735.48
447.046	1538.88
447.252	1801.02
447.459	1721.15
447.665	1753.91
447.871	1950.52
448.078	1932.09
448.284	2132.79
448.491	2061.11
448.697	2145.08
448.903	2292.53
449.11	2353.97
449.316	2466.61
449.522	2554.67
449.728	2642.73
449.935	2661.16
450.141	2706.22
450.347	2915.11
450.553	2706.22
450.76	2997.03
450.966	3142.44
451.172	3246.88
451.378	3396.39
451.584	3431.2
451.791	3662.62
451.997	3676.96
452.203	3820.32
452.409	3943.19
452.615	4016.92
452.821	4023.06
453.027	4123.41
453.233	4582.16
453.44	4444.95
453.646	4668.17
453.852	4862.73
454.058	5049.1
454.264	5305.09
454.47	5657.34
454.676	5743.36
454.882	6200.05
455.088	5808.89
455.294	6208.25
455.5	6728.43
455.705	7031.53
455.911	6867.69
456.117	7238.37
456.323	7285.48
456.529	7461.6
456.735	7996.12
456.941	8264.41
457.147	8635.09
457.352	8876.75
457.558	9071.31
457.764	9609.92
457.97	9933.5
458.176	10140.35
458.381	10846.9
458.587	10930.86
458.793	11524.77
458.999	11621.03
459.204	12925.58
459.41	13345.42
459.616	13214.35
459.821	14246.52
460.027	14617.21
460.233	15125.1
460.438	15604.33
460.644	16171.61
460.85	16515.67
461.055	16960.08
461.261	17994.31
461.466	17349.2
461.672	17965.64
461.878	19939.88
462.083	19702.31
462.289	20261.41
462.494	20888.09
462.7	21092.88
462.905	21338.64
463.111	22995.45
463.316	24515.04
463.522	25027.03
463.727	25506.26
463.932	26307.01
464.138	27230.65
464.343	28514.72
464.549	28486.05
464.754	30593.41
464.959	31543.67
465.165	31603.06
465.37	31639.92
465.575	31940.97
465.781	33628.5
465.986	34652.48
466.191	34160.97
466.397	34670.92
466.602	33911.12
466.807	35232.06
467.012	36430.12
467.218	36817.19
467.423	37071.14
467.628	38469.9
467.833	39987.44
468.038	39293.18
468.244	38691.08
468.449	40540.39
468.654	39149.82
468.859	39889.14
469.064	39684.34
