Data from USB4F104151__149__11-04-23-732.txt Node

Date: Wed Feb 26 11:04:23 EST 2025
User: louis
Spectrometer: USB4F10415
Trigger mode: 4
Integration Time (sec): 1.000000E-1
Scans to average: 1
Electric dark correction enabled: true
Nonlinearity correction enabled: false
Boxcar width: 0
XAxis mode: Wavelengths
Number of Pixels in Spectrum: 3648
>>>>>Begin Spectral Data<<<<<
178.204	-383.99
178.424	-383.99
178.644	-383.99
178.864	-402.43
179.084	-345.08
179.304	87.04
179.524	25.6
179.744	25.6
179.964	44.03
180.184	80.89
180.404	-35.84
180.624	-35.84
180.844	-39.94
181.064	-76.8
181.283	-19.46
181.503	-37.89
181.723	-17.41
181.943	-54.27
182.163	152.57
182.383	1.02
182.602	82.94
182.822	158.72
183.042	7.17
183.262	23.55
183.482	5.12
183.701	48.13
183.921	23.55
184.141	19.46
184.361	84.99
184.58	97.28
184.8	-9.22
185.02	13.31
185.239	103.42
185.459	64.51
185.679	130.05
185.898	-52.22
186.118	97.28
186.338	134.14
186.557	158.72
186.777	35.84
186.997	23.55
187.216	39.94
187.436	211.96
187.655	101.37
187.875	115.71
188.095	-3.07
188.314	199.68
188.534	64.51
188.753	56.32
188.973	91.13
189.192	203.77
189.412	70.65
189.631	138.24
189.851	138.24
190.07	138.24
190.29	7.17
190.509	3.07
190.729	5.12
190.948	138.24
191.168	279.55
191.387	89.09
191.607	19.46
191.826	39.94
192.045	-9.22
192.265	27.65
192.484	115.71
192.704	13.31
192.923	-37.89
193.142	177.15
193.362	58.37
193.581	146.43
193.8	78.85
194.02	60.42
194.239	105.47
194.458	74.75
194.678	99.33
194.897	7.17
195.116	13.31
195.335	25.6
195.555	87.04
195.774	-37.89
195.993	101.37
196.212	109.57
196.432	-3.07
196.651	21.5
196.87	-25.6
197.089	263.16
197.308	140.29
197.528	68.61
197.747	-21.5
197.966	41.98
198.185	158.72
198.404	-5.12
198.623	48.13
198.842	91.13
199.062	179.2
199.281	46.08
199.5	52.22
199.719	130.05
199.938	58.37
200.157	99.33
200.376	84.99
200.595	84.99
200.814	128
201.033	29.7
201.252	158.72
201.471	117.76
201.69	80.89
201.909	101.37
202.128	109.57
202.347	62.46
202.566	68.61
202.785	-95.23
203.004	-5.12
203.223	269.31
203.442	128
203.661	-13.31
203.879	33.79
204.098	158.72
204.317	-56.32
204.536	84.99
204.755	152.57
204.974	76.8
205.193	9.22
205.411	93.18
205.63	121.85
205.849	-5.12
206.068	84.99
206.287	48.13
206.505	181.25
206.724	33.79
206.943	11.26
207.162	68.61
207.381	68.61
207.599	44.03
207.818	52.22
208.037	-46.08
208.255	21.5
208.474	46.08
208.693	17.41
208.911	117.76
209.13	87.04
209.349	60.42
209.567	115.71
209.786	121.85
210.005	76.8
210.223	9.22
210.442	-101.37
210.661	-7.17
210.879	62.46
211.098	-25.6
211.316	52.22
211.535	87.04
211.753	101.37
211.972	216.06
212.191	54.27
212.409	62.46
212.628	138.24
212.846	5.12
213.065	99.33
213.283	140.29
213.502	105.47
213.72	52.22
213.938	58.37
214.157	23.55
214.375	138.24
214.594	52.22
214.812	-3.07
215.031	62.46
215.249	132.09
215.467	72.7
215.686	66.56
215.904	87.04
216.122	115.71
216.341	168.96
216.559	78.85
216.778	109.57
216.996	103.42
217.214	7.17
217.432	-23.55
217.651	-64.51
217.869	52.22
218.087	31.74
218.306	13.31
218.524	-7.17
218.742	70.65
218.96	121.85
219.179	15.36
219.397	52.22
219.615	185.34
219.833	60.42
220.051	-9.22
220.27	84.99
220.488	179.2
220.706	68.61
220.924	-60.42
221.142	54.27
221.36	41.98
221.578	39.94
221.796	66.56
222.015	60.42
222.233	41.98
222.451	175.1
222.669	-46.08
222.887	164.86
223.105	50.18
223.323	41.98
223.541	13.31
223.759	62.46
223.977	72.7
224.195	177.15
224.413	101.37
224.631	-13.31
224.849	56.32
225.067	185.34
225.285	46.08
225.503	89.09
225.721	-115.71
225.939	76.8
226.157	99.33
226.375	95.23
226.592	21.5
226.81	13.31
227.028	185.34
227.246	136.19
227.464	91.13
227.682	160.77
227.9	80.89
228.117	50.18
228.335	68.61
228.553	-3.07
228.771	-5.12
228.989	93.18
229.206	50.18
229.424	72.7
229.642	-7.17
229.86	-29.7
230.077	84.99
230.295	44.03
230.513	138.24
230.731	123.9
230.948	248.83
231.166	181.25
231.384	33.79
231.601	-19.46
231.819	158.72
232.037	-44.03
232.254	72.7
232.472	9.22
232.689	23.55
232.907	168.96
233.125	-19.46
233.342	54.27
233.56	27.65
233.777	27.65
233.995	1.02
234.213	109.57
234.43	109.57
234.648	33.79
234.865	62.46
235.083	113.66
235.3	78.85
235.518	62.46
235.735	160.77
235.953	117.76
236.17	37.89
236.388	68.61
236.605	121.85
236.822	136.19
237.04	154.62
237.257	80.89
237.475	-29.7
237.692	60.42
237.909	41.98
238.127	5.12
238.344	101.37
238.562	109.57
238.779	-41.98
238.996	-25.6
239.214	37.89
239.431	164.86
239.648	44.03
239.865	111.61
240.083	27.65
240.3	52.22
240.517	78.85
240.735	46.08
240.952	107.52
241.169	134.14
241.386	68.61
241.603	41.98
241.821	-7.17
242.038	84.99
242.255	70.65
242.472	-50.18
242.689	107.52
242.907	154.62
243.124	39.94
243.341	23.55
243.558	68.61
243.775	-68.61
243.992	-64.51
244.209	62.46
244.426	175.1
244.643	84.99
244.86	74.75
245.078	134.14
245.295	101.37
245.512	44.03
245.729	84.99
245.946	46.08
246.163	95.23
246.38	-5.12
246.597	44.03
246.814	-17.41
247.031	46.08
247.248	27.65
247.464	130.05
247.681	41.98
247.898	33.79
248.115	97.28
248.332	-27.65
248.549	121.85
248.766	152.57
248.983	107.52
249.2	74.75
249.417	226.3
249.633	37.89
249.85	134.14
250.067	23.55
250.284	70.65
250.501	52.22
250.717	140.29
250.934	-74.75
251.151	46.08
251.368	60.42
251.585	74.75
251.801	54.27
252.018	-23.55
252.235	78.85
252.451	-33.79
252.668	41.98
252.885	173.05
253.102	105.47
253.318	93.18
253.535	1.02
253.752	-3.07
253.968	11.26
254.185	-37.89
254.401	105.47
254.618	107.52
254.835	-37.89
255.051	164.86
255.268	138.24
255.484	21.5
255.701	-1.02
255.917	132.09
256.134	-56.32
256.351	134.14
256.567	-11.26
256.784	-5.12
257	-39.94
257.217	158.72
257.433	39.94
257.65	23.55
257.866	263.16
258.082	-21.5
258.299	-1.02
258.515	58.37
258.732	95.23
258.948	5.12
259.165	46.08
259.381	-37.89
259.597	181.25
259.814	60.42
260.03	39.94
260.246	46.08
260.463	68.61
260.679	150.53
260.895	25.6
261.112	11.26
261.328	13.31
261.544	11.26
261.761	185.34
261.977	3.07
262.193	66.56
262.409	64.51
262.626	105.47
262.842	19.46
263.058	-70.65
263.274	99.33
263.49	76.8
263.707	84.99
263.923	123.9
264.139	-48.13
264.355	74.75
264.571	113.66
264.787	107.52
265.004	164.86
265.22	41.98
265.436	11.26
265.652	-11.26
265.868	37.89
266.084	-31.74
266.3	7.17
266.516	-35.84
266.732	105.47
266.948	52.22
267.164	62.46
267.38	62.46
267.596	74.75
267.812	238.59
268.028	72.7
268.244	82.94
268.46	3.07
268.676	-5.12
268.892	117.76
269.108	-17.41
269.324	5.12
269.54	-48.13
269.756	130.05
269.972	29.7
270.188	152.57
270.403	70.65
270.619	76.8
270.835	128
271.051	23.55
271.267	-19.46
271.483	-46.08
271.698	72.7
271.914	111.61
272.13	21.5
272.346	-11.26
272.562	109.57
272.777	128
272.993	48.13
273.209	60.42
273.425	134.14
273.64	-17.41
273.856	103.42
274.072	-39.94
274.287	7.17
274.503	105.47
274.719	125.95
274.934	44.03
275.15	-25.6
275.366	-11.26
275.581	-25.6
275.797	27.65
276.012	41.98
276.228	-35.84
276.444	80.89
276.659	123.9
276.875	-29.7
277.09	-19.46
277.306	41.98
277.521	80.89
277.737	80.89
277.952	109.57
278.168	-19.46
278.383	35.84
278.599	97.28
278.814	142.33
279.03	48.13
279.245	183.29
279.461	132.09
279.676	144.38
279.892	-48.13
280.107	-23.55
280.322	-29.7
280.538	52.22
280.753	3.07
280.969	13.31
281.184	105.47
281.399	166.91
281.615	35.84
281.83	52.22
282.045	-44.03
282.26	56.32
282.476	37.89
282.691	125.95
282.906	58.37
283.122	13.31
283.337	-19.46
283.552	84.99
283.767	-7.17
283.983	91.13
284.198	56.32
284.413	68.61
284.628	-3.07
284.843	66.56
285.058	103.42
285.274	9.22
285.489	-64.51
285.704	146.43
285.919	9.22
286.134	56.32
286.349	9.22
286.564	41.98
286.779	44.03
286.995	56.32
287.21	-19.46
287.425	84.99
287.64	19.46
287.855	89.09
288.07	-15.36
288.285	78.85
288.5	74.75
288.715	91.13
288.93	7.17
289.145	46.08
289.36	156.67
289.575	39.94
289.79	95.23
290.004	3.07
290.219	136.19
290.434	54.27
290.649	60.42
290.864	74.75
291.079	29.7
291.294	191.49
291.509	142.33
291.724	-39.94
291.938	1.02
292.153	87.04
292.368	44.03
292.583	70.65
292.798	70.65
293.012	119.81
293.227	41.98
293.442	-3.07
293.657	138.24
293.871	125.95
294.086	115.71
294.301	125.95
294.516	125.95
294.73	109.57
294.945	21.5
295.16	70.65
295.374	115.71
295.589	140.29
295.804	7.17
296.018	74.75
296.233	91.13
296.447	68.61
296.662	-19.46
296.877	154.62
297.091	175.1
297.306	99.33
297.52	37.89
297.735	64.51
297.949	33.79
298.164	66.56
298.378	144.38
298.593	-44.03
298.807	-41.98
299.022	27.65
299.236	134.14
299.451	35.84
299.665	54.27
299.88	111.61
300.094	93.18
300.309	78.85
300.523	19.46
300.737	66.56
300.952	-15.36
301.166	66.56
301.381	-9.22
301.595	76.8
301.809	21.5
302.024	37.89
302.238	-41.98
302.452	160.77
302.667	19.46
302.881	158.72
303.095	97.28
303.309	56.32
303.524	93.18
303.738	-54.27
303.952	39.94
304.166	144.38
304.381	-19.46
304.595	109.57
304.809	-7.17
305.023	25.6
305.237	60.42
305.452	29.7
305.666	121.85
305.88	148.48
306.094	128
306.308	87.04
306.522	132.09
306.736	31.74
306.95	103.42
307.164	52.22
307.379	80.89
307.593	121.85
307.807	109.57
308.021	107.52
308.235	93.18
308.449	-87.04
308.663	91.13
308.877	226.3
309.091	39.94
309.305	52.22
309.519	-140.29
309.733	115.71
309.947	-41.98
310.161	197.63
310.374	189.44
310.588	199.68
310.802	58.37
311.016	9.22
311.23	72.7
311.444	-11.26
311.658	62.46
311.872	150.53
312.085	146.43
312.299	56.32
312.513	160.77
312.727	121.85
312.941	-7.17
313.154	152.57
313.368	62.46
313.582	17.41
313.796	93.18
314.009	97.28
314.223	164.86
314.437	58.37
314.651	78.85
314.864	33.79
315.078	33.79
315.292	-41.98
315.505	27.65
315.719	175.1
315.933	164.86
316.146	-70.65
316.36	3.07
316.573	152.57
316.787	78.85
317.001	125.95
317.214	-78.85
317.428	76.8
317.641	23.55
317.855	48.13
318.068	68.61
318.282	95.23
318.495	177.15
318.709	99.33
318.922	128
319.136	187.39
319.349	105.47
319.563	3.07
319.776	95.23
319.99	-74.75
320.203	101.37
320.417	72.7
320.63	93.18
320.843	140.29
321.057	107.52
321.27	11.26
321.483	150.53
321.697	175.1
321.91	123.9
322.124	37.89
322.337	101.37
322.55	52.22
322.763	97.28
322.977	70.65
323.19	62.46
323.403	31.74
323.617	62.46
323.83	150.53
324.043	99.33
324.256	37.89
324.469	21.5
324.683	125.95
324.896	-23.55
325.109	33.79
325.322	-64.51
325.535	78.85
325.748	109.57
325.962	41.98
326.175	58.37
326.388	84.99
326.601	95.23
326.814	60.42
327.027	76.8
327.24	158.72
327.453	-25.6
327.666	56.32
327.879	193.53
328.092	111.61
328.305	84.99
328.518	17.41
328.731	27.65
328.944	62.46
329.157	23.55
329.37	-60.42
329.583	144.38
329.796	115.71
330.009	-29.7
330.222	142.33
330.435	99.33
330.648	50.18
330.861	-25.6
331.073	130.05
331.286	166.91
331.499	64.51
331.712	29.7
331.925	15.36
332.138	113.66
332.35	128
332.563	33.79
332.776	82.94
332.989	-62.46
333.202	54.27
333.414	7.17
333.627	64.51
333.84	-1.02
334.053	60.42
334.265	9.22
334.478	-33.79
334.691	56.32
334.903	44.03
335.116	58.37
335.329	-13.31
335.541	27.65
335.754	232.44
335.966	5.12
336.179	-25.6
336.392	1.02
336.604	-15.36
336.817	95.23
337.029	93.18
337.242	35.84
337.454	82.94
337.667	27.65
337.88	103.42
338.092	64.51
338.305	101.37
338.517	93.18
338.729	119.81
338.942	113.66
339.154	7.17
339.367	-41.98
339.579	144.38
339.792	-33.79
340.004	130.05
340.217	99.33
340.429	95.23
340.641	-21.5
340.854	76.8
341.066	-9.22
341.278	109.57
341.491	250.88
341.703	48.13
341.915	-25.6
342.128	138.24
342.34	117.76
342.552	-52.22
342.764	39.94
342.977	-3.07
343.189	68.61
343.401	74.75
343.613	-58.37
343.826	37.89
344.038	-41.98
344.25	56.32
344.462	11.26
344.674	121.85
344.886	35.84
345.099	62.46
345.311	84.99
345.523	58.37
345.735	-123.9
345.947	78.85
346.159	160.77
346.371	27.65
346.583	-41.98
346.795	191.49
347.007	25.6
347.219	52.22
347.431	29.7
347.643	121.85
347.855	-23.55
348.067	158.72
348.279	15.36
348.491	89.09
348.703	117.76
348.915	78.85
349.127	-25.6
349.339	-11.26
349.551	48.13
349.763	177.15
349.975	7.17
350.187	134.14
350.399	179.2
350.61	89.09
350.822	29.7
351.034	93.18
351.246	101.37
351.458	99.33
351.669	156.67
351.881	189.44
352.093	148.48
352.305	134.14
352.517	68.61
352.728	164.86
352.94	39.94
353.152	89.09
353.363	64.51
353.575	168.96
353.787	125.95
353.999	99.33
354.21	156.67
354.422	-41.98
354.633	39.94
354.845	76.8
355.057	15.36
355.268	80.89
355.48	95.23
355.692	-29.7
355.903	52.22
356.115	-33.79
356.326	-15.36
356.538	138.24
356.749	95.23
356.961	130.05
357.172	7.17
357.384	-5.12
357.595	230.4
357.807	46.08
358.018	54.27
358.23	-15.36
358.441	154.62
358.653	78.85
358.864	50.18
359.075	-76.8
359.287	87.04
359.498	156.67
359.709	138.24
359.921	111.61
360.132	52.22
360.344	-37.89
360.555	15.36
360.766	109.57
360.977	74.75
361.189	142.33
361.4	37.89
361.611	101.37
361.823	193.53
362.034	82.94
362.245	-7.17
362.456	84.99
362.667	66.56
362.879	-31.74
363.09	-1.02
363.301	105.47
363.512	84.99
363.723	1.02
363.935	58.37
364.146	115.71
364.357	-3.07
364.568	99.33
364.779	-58.37
364.99	101.37
365.201	52.22
365.412	130.05
365.623	-44.03
365.834	56.32
366.045	80.89
366.256	50.18
366.467	142.33
366.678	68.61
366.889	95.23
367.1	60.42
367.311	76.8
367.522	-31.74
367.733	82.94
367.944	105.47
368.155	-27.65
368.366	87.04
368.577	70.65
368.788	89.09
368.999	-33.79
369.209	50.18
369.42	197.63
369.631	226.3
369.842	144.38
370.053	76.8
370.264	66.56
370.474	52.22
370.685	101.37
370.896	99.33
371.107	185.34
371.317	62.46
371.528	52.22
371.739	125.95
371.95	123.9
372.16	101.37
372.371	-21.5
372.582	27.65
372.792	44.03
373.003	27.65
373.214	136.19
373.424	119.81
373.635	-17.41
373.846	132.09
374.056	60.42
374.267	31.74
374.477	9.22
374.688	1.02
374.898	33.79
375.109	35.84
375.319	74.75
375.53	146.43
375.74	168.96
375.951	3.07
376.161	87.04
376.372	109.57
376.582	62.46
376.793	109.57
377.003	41.98
377.214	17.41
377.424	128
377.635	119.81
377.845	15.36
378.055	80.89
378.266	-35.84
378.476	37.89
378.686	64.51
378.897	111.61
379.107	134.14
379.317	117.76
379.528	5.12
379.738	144.38
379.948	-11.26
380.158	199.68
380.369	107.52
380.579	138.24
380.789	62.46
380.999	105.47
381.21	144.38
381.42	244.73
381.63	62.46
381.84	109.57
382.05	123.9
382.261	205.82
382.471	197.63
382.681	52.22
382.891	168.96
383.101	125.95
383.311	15.36
383.521	82.94
383.731	74.75
383.941	146.43
384.151	189.44
384.361	3.07
384.571	80.89
384.781	66.56
384.991	191.49
385.201	228.35
385.411	177.15
385.621	23.55
385.831	62.46
386.041	21.5
386.251	13.31
386.461	234.49
386.671	-27.65
386.881	105.47
387.091	72.7
387.301	103.42
387.511	44.03
387.72	99.33
387.93	193.53
388.14	-5.12
388.35	78.85
388.56	74.75
388.769	128
388.979	80.89
389.189	-9.22
389.399	44.03
389.609	119.81
389.818	220.16
390.028	101.37
390.238	105.47
390.447	39.94
390.657	109.57
390.867	91.13
391.076	-58.37
391.286	91.13
391.496	33.79
391.705	33.79
391.915	205.82
392.125	87.04
392.334	44.03
392.544	142.33
392.753	130.05
392.963	78.85
393.172	62.46
393.382	-17.41
393.591	203.77
393.801	134.14
394.01	144.38
394.22	140.29
394.429	33.79
394.639	95.23
394.848	134.14
395.058	48.13
395.267	37.89
395.477	76.8
395.686	142.33
395.895	148.48
396.105	187.39
396.314	119.81
396.524	31.74
396.733	-11.26
396.942	117.76
397.152	89.09
397.361	128
397.57	54.27
397.78	56.32
397.989	46.08
398.198	232.44
398.407	13.31
398.617	41.98
398.826	27.65
399.035	95.23
399.244	142.33
399.453	41.98
399.663	115.71
399.872	103.42
400.081	13.31
400.29	195.58
400.499	7.17
400.708	144.38
400.917	9.22
401.127	27.65
401.336	-27.65
401.545	207.87
401.754	134.14
401.963	80.89
402.172	58.37
402.381	41.98
402.59	72.7
402.799	117.76
403.008	107.52
403.217	84.99
403.426	105.47
403.635	-64.51
403.844	136.19
404.053	37.89
404.262	66.56
404.471	166.91
404.68	105.47
404.888	78.85
405.097	11.26
405.306	29.7
405.515	64.51
405.724	78.85
405.933	93.18
406.142	29.7
406.35	146.43
406.559	62.46
406.768	1.02
406.977	148.48
407.185	105.47
407.394	66.56
407.603	-17.41
407.812	125.95
408.02	181.25
408.229	60.42
408.438	144.38
408.646	-44.03
408.855	80.89
409.064	105.47
409.272	39.94
409.481	130.05
409.69	17.41
409.898	21.5
410.107	142.33
410.315	84.99
410.524	50.18
410.733	132.09
410.941	29.7
411.15	97.28
411.358	146.43
411.567	228.35
411.775	13.31
411.984	84.99
412.192	140.29
412.401	64.51
412.609	142.33
412.818	162.81
413.026	97.28
413.234	70.65
413.443	84.99
413.651	3.07
413.86	33.79
414.068	185.34
414.276	146.43
414.485	-23.55
414.693	183.29
414.901	148.48
415.11	41.98
415.318	95.23
415.526	17.41
415.734	136.19
415.943	105.47
416.151	138.24
416.359	78.85
416.567	58.37
416.776	162.81
416.984	175.1
417.192	207.87
417.4	44.03
417.608	27.65
417.817	29.7
418.025	87.04
418.233	269.31
418.441	21.5
418.649	50.18
418.857	105.47
419.065	187.39
419.273	-35.84
419.481	-15.36
419.689	3.07
419.897	50.18
420.105	9.22
420.313	109.57
420.521	150.53
420.729	164.86
420.937	62.46
421.145	-25.6
421.353	166.91
421.561	281.6
421.769	175.1
421.977	44.03
422.185	146.43
422.393	19.46
422.601	142.33
422.809	111.61
423.017	-9.22
423.224	103.42
423.432	109.57
423.64	17.41
423.848	146.43
424.056	27.65
424.263	164.86
424.471	103.42
424.679	252.92
424.887	-35.84
425.094	171.01
425.302	62.46
425.51	-78.85
425.718	82.94
425.925	99.33
426.133	41.98
426.341	220.16
426.548	52.22
426.756	56.32
426.964	97.28
427.171	70.65
427.379	128
427.586	93.18
427.794	99.33
428.001	209.92
428.209	115.71
428.417	199.68
428.624	101.37
428.832	87.04
429.039	58.37
429.247	160.77
429.454	144.38
429.662	209.92
429.869	181.25
430.076	173.05
430.284	111.61
430.491	240.64
430.699	166.91
430.906	207.87
431.114	84.99
431.321	181.25
431.528	95.23
431.736	185.34
431.943	226.3
432.15	218.11
432.358	201.72
432.565	310.27
432.772	54.27
432.979	197.63
433.187	238.59
433.394	187.39
433.601	111.61
433.808	259.07
434.016	257.02
434.223	209.92
434.43	316.41
434.637	271.36
434.844	289.79
435.052	326.65
435.259	166.91
435.466	265.21
435.673	330.75
435.88	295.93
436.087	312.32
436.294	412.67
436.501	353.27
436.708	336.89
436.915	347.13
437.122	467.96
437.329	322.56
437.537	279.55
437.743	396.28
437.95	508.92
438.157	478.2
438.364	410.62
438.571	558.07
438.778	519.16
438.985	547.83
439.192	492.54
439.399	470.01
439.606	543.74
439.813	531.45
440.02	728.05
440.227	674.81
440.433	637.94
440.64	607.22
440.847	584.7
441.054	609.27
441.261	789.49
441.467	793.59
441.674	642.04
441.881	846.84
442.088	750.58
442.294	769.01
442.501	900.08
442.708	820.21
442.914	893.94
443.121	1014.77
443.328	893.94
443.534	990.19
443.741	1000.43
443.948	988.14
444.154	1068.02
444.361	1178.61
444.568	1141.74
444.774	1096.69
444.981	1100.78
445.187	1383.4
445.394	1238
445.6	1205.23
445.807	1362.92
446.013	1436.65
446.22	1432.55
446.426	1483.75
446.633	1641.45
446.839	1801.19
447.046	1541.1
447.252	1876.96
447.459	1713.13
447.665	1838.05
447.871	1934.31
448.078	2106.34
448.284	2110.43
448.491	2216.93
448.697	2374.62
448.903	2339.8
449.11	2382.81
449.316	2331.61
449.522	2581.46
449.728	2780.12
449.935	2782.17
450.141	2792.41
450.347	3019.73
450.553	3011.54
450.76	3046.35
450.966	3273.68
451.172	3392.46
451.378	3433.42
451.584	3445.71
451.791	3830.73
451.997	3828.68
452.203	3828.68
452.409	4201.41
452.615	4193.22
452.821	4166.59
453.027	4324.29
453.233	4707.26
453.44	4660.15
453.646	4780.98
453.852	5122.99
454.058	5356.46
454.264	5364.65
454.47	5927.85
454.676	5698.47
454.882	6443.93
455.088	6075.3
455.294	6511.52
455.5	6794.14
455.705	7105.43
455.911	7093.14
456.117	7306.13
456.323	7764.87
456.529	7734.15
456.735	8328.06
456.941	8549.25
457.147	8891.26
457.352	9126.77
457.558	9440.11
457.764	10036.07
457.97	10208.1
458.176	10718.04
458.381	11252.56
458.587	11164.5
458.793	11993.93
458.999	11852.62
459.204	13517.62
459.41	13790
459.616	13611.82
459.821	14576.42
460.027	15088.41
460.233	15917.84
460.438	15754
460.644	16827.14
460.85	16775.94
461.055	17574.64
461.261	18596.58
461.466	18107.12
461.672	18561.76
461.878	20484.81
462.083	20634.31
462.289	20771.52
462.494	21349.05
462.7	21912.24
462.905	22231.72
463.111	23935.63
463.316	24812.17
463.522	25653.88
463.727	26235.5
463.932	27210.34
464.138	28187.22
464.343	29440.57
464.549	29477.44
464.754	32035.35
464.959	32231.96
465.165	32655.89
465.37	32649.74
465.575	32754.19
465.781	34796.01
465.986	36159.96
466.191	35514.85
466.397	35398.12
466.602	35021.29
466.807	36676.05
467.012	37085.64
467.218	37917.12
467.423	37906.88
467.628	39350.7
467.833	40817.04
468.038	40044.96
