Data from USB4F104151__252__11-20-05-534.txt Node

Date: Wed Feb 26 11:20:05 EST 2025
User: louis
Spectrometer: USB4F10415
Trigger mode: 4
Integration Time (sec): 1.000000E-1
Scans to average: 1
Electric dark correction enabled: true
Nonlinearity correction enabled: false
Boxcar width: 0
XAxis mode: Wavelengths
Number of Pixels in Spectrum: 3648
>>>>>Begin Spectral Data<<<<<
178.204	-411.13
178.424	-411.13
178.644	-411.13
178.864	-435.71
179.084	-378.36
179.304	-44.54
179.524	-15.87
179.744	96.77
179.964	49.66
180.184	31.23
180.404	-71.17
180.624	-79.36
180.844	-34.3
181.064	-69.12
181.283	2.56
181.503	45.57
181.723	88.57
181.943	-26.11
182.163	223.74
182.383	-22.02
182.602	94.72
182.822	107.01
183.042	51.71
183.262	-40.45
183.482	86.53
183.701	14.85
183.921	27.14
184.141	-50.69
184.361	68.09
184.58	33.28
184.8	-3.58
185.02	25.09
185.239	127.49
185.459	143.87
185.679	80.38
185.898	-71.17
186.118	61.95
186.338	72.19
186.557	37.38
186.777	41.47
186.997	-24.06
187.216	8.7
187.436	188.93
187.655	113.15
187.875	59.9
188.095	27.14
188.314	150.01
188.534	107.01
188.753	-48.64
188.973	133.63
189.192	201.21
189.412	57.86
189.631	29.18
189.851	78.33
190.07	86.53
190.29	6.66
190.509	82.43
190.729	25.09
190.948	94.72
191.168	188.93
191.387	0.51
191.607	35.33
191.826	94.72
192.045	68.09
192.265	10.75
192.484	70.14
192.704	66.05
192.923	-58.88
193.142	133.63
193.362	86.53
193.581	127.49
193.8	33.28
194.02	-28.16
194.239	84.48
194.458	51.71
194.678	45.57
194.897	35.33
195.116	-13.82
195.335	53.76
195.555	115.2
195.774	49.66
195.993	156.16
196.212	84.48
196.432	-26.11
196.651	8.7
196.87	61.95
197.089	215.55
197.308	31.23
197.528	35.33
197.747	-34.3
197.966	133.63
198.185	147.97
198.404	-32.26
198.623	141.82
198.842	145.92
199.062	113.15
199.281	74.24
199.5	14.85
199.719	109.05
199.938	98.81
200.157	111.1
200.376	84.48
200.595	139.77
200.814	49.66
201.033	8.7
201.252	61.95
201.471	78.33
201.69	66.05
201.909	57.86
202.128	88.57
202.347	57.86
202.566	29.18
202.785	-19.97
203.004	-42.5
203.223	242.17
203.442	109.05
203.661	25.09
203.879	57.86
204.098	90.62
204.317	8.7
204.536	137.73
204.755	80.38
204.974	158.21
205.193	111.1
205.411	129.53
205.63	104.96
205.849	111.1
206.068	-73.21
206.287	8.7
206.505	174.59
206.724	25.09
206.943	-38.4
207.162	-58.88
207.381	109.05
207.599	84.48
207.818	27.14
208.037	-52.74
208.255	57.86
208.474	47.62
208.693	23.04
208.911	-11.78
209.13	113.15
209.349	156.16
209.567	64
209.786	57.86
210.005	102.91
210.223	-22.02
210.442	-71.17
210.661	-5.63
210.879	23.04
211.098	96.77
211.316	6.66
211.535	37.38
211.753	84.48
211.972	92.67
212.191	23.04
212.409	16.9
212.628	209.4
212.846	-7.68
213.065	10.75
213.283	131.58
213.502	23.04
213.72	55.81
213.938	10.75
214.157	29.18
214.375	162.3
214.594	41.47
214.812	145.92
215.031	35.33
215.249	92.67
215.467	37.38
215.686	74.24
215.904	98.81
216.122	31.23
216.341	133.63
216.559	27.14
216.778	49.66
216.996	150.01
217.214	53.76
217.432	-30.21
217.651	-17.92
217.869	84.48
218.087	53.76
218.306	92.67
218.524	37.38
218.742	100.86
218.96	94.72
219.179	88.57
219.397	59.9
219.615	250.36
219.833	51.71
220.051	-52.74
220.27	113.15
220.488	64
220.706	86.53
220.924	51.71
221.142	39.42
221.36	55.81
221.578	147.97
221.796	-40.45
222.015	55.81
222.233	-9.73
222.451	213.5
222.669	-7.68
222.887	70.14
223.105	18.94
223.323	-3.58
223.541	-62.98
223.759	111.1
223.977	16.9
224.195	139.77
224.413	31.23
224.631	55.81
224.849	49.66
225.067	209.4
225.285	43.52
225.503	41.47
225.721	-22.02
225.939	4.61
226.157	53.76
226.375	254.46
226.592	14.85
226.81	68.09
227.028	125.44
227.246	92.67
227.464	94.72
227.682	18.94
227.9	109.05
228.117	-17.92
228.335	51.71
228.553	6.66
228.771	-3.58
228.989	33.28
229.206	162.3
229.424	12.8
229.642	45.57
229.86	-7.68
230.077	96.77
230.295	55.81
230.513	131.58
230.731	51.71
230.948	215.55
231.166	113.15
231.384	57.86
231.601	-5.63
231.819	164.35
232.037	0.51
232.254	-28.16
232.472	86.53
232.689	-42.5
232.907	76.29
233.125	-9.73
233.342	-7.68
233.56	35.33
233.777	31.23
233.995	18.94
234.213	53.76
234.43	98.81
234.648	109.05
234.865	-7.68
235.083	47.62
235.3	35.33
235.518	20.99
235.735	121.34
235.953	68.09
236.17	18.94
236.388	6.66
236.605	-22.02
236.822	135.68
237.04	133.63
237.257	74.24
237.475	-42.5
237.692	166.4
237.909	68.09
238.127	70.14
238.344	80.38
238.562	64
238.779	-28.16
238.996	-58.88
239.214	20.99
239.431	90.62
239.648	41.47
239.865	143.87
240.083	111.1
240.3	53.76
240.517	-48.64
240.735	51.71
240.952	117.25
241.169	68.09
241.386	119.29
241.603	51.71
241.821	-34.3
242.038	203.26
242.255	92.67
242.472	-52.74
242.689	57.86
242.907	129.53
243.124	12.8
243.341	20.99
243.558	-15.87
243.775	-65.02
243.992	-50.69
244.209	92.67
244.426	188.93
244.643	61.95
244.86	2.56
245.078	150.01
245.295	123.39
245.512	-9.73
245.729	-65.02
245.946	84.48
246.163	104.96
246.38	10.75
246.597	145.92
246.814	23.04
247.031	107.01
247.248	35.33
247.464	121.34
247.681	-9.73
247.898	102.91
248.115	12.8
248.332	6.66
248.549	113.15
248.766	131.58
248.983	29.18
249.2	94.72
249.417	78.33
249.633	64
249.85	127.49
250.067	41.47
250.284	74.24
250.501	55.81
250.717	68.09
250.934	-30.21
251.151	0.51
251.368	57.86
251.585	137.73
251.801	68.09
252.018	-22.02
252.235	141.82
252.451	-42.5
252.668	-38.4
252.885	84.48
253.102	33.28
253.318	90.62
253.535	37.38
253.752	-13.82
253.968	41.47
254.185	-17.92
254.401	74.24
254.618	8.7
254.835	-7.68
255.051	125.44
255.268	27.14
255.484	35.33
255.701	31.23
255.917	51.71
256.134	-28.16
256.351	16.9
256.567	-89.6
256.784	47.62
257	-83.45
257.217	117.25
257.433	150.01
257.65	78.33
257.866	197.12
258.082	0.51
258.299	-38.4
258.515	39.42
258.732	-1.54
258.948	35.33
259.165	82.43
259.381	23.04
259.597	84.48
259.814	18.94
260.03	51.71
260.246	20.99
260.463	143.87
260.679	166.4
260.895	66.05
261.112	68.09
261.328	47.62
261.544	59.9
261.761	238.08
261.977	-9.73
262.193	-30.21
262.409	88.57
262.626	-7.68
262.842	53.76
263.058	12.8
263.274	133.63
263.49	39.42
263.707	35.33
263.923	96.77
264.139	-93.69
264.355	4.61
264.571	123.39
264.787	109.05
265.004	199.16
265.22	51.71
265.436	45.57
265.652	8.7
265.868	100.86
266.084	-38.4
266.3	23.04
266.516	-19.97
266.732	61.95
266.948	18.94
267.164	-13.82
267.38	102.91
267.596	49.66
267.812	168.45
268.028	18.94
268.244	98.81
268.46	59.9
268.676	20.99
268.892	70.14
269.108	-54.78
269.324	-3.58
269.54	-19.97
269.756	53.76
269.972	-9.73
270.188	14.85
270.403	-30.21
270.619	18.94
270.835	129.53
271.051	0.51
271.267	16.9
271.483	35.33
271.698	113.15
271.914	86.53
272.13	-28.16
272.346	16.9
272.562	31.23
272.777	150.01
272.993	14.85
273.209	0.51
273.425	162.3
273.64	0.51
273.856	145.92
274.072	8.7
274.287	25.09
274.503	154.11
274.719	137.73
274.934	61.95
275.15	-99.84
275.366	72.19
275.581	-71.17
275.797	55.81
276.012	37.38
276.228	-5.63
276.444	80.38
276.659	162.3
276.875	-22.02
277.09	27.14
277.306	41.47
277.521	33.28
277.737	27.14
277.952	92.67
278.168	80.38
278.383	92.67
278.599	117.25
278.814	84.48
279.03	123.39
279.245	152.06
279.461	6.66
279.676	139.77
279.892	16.9
280.107	-11.78
280.322	20.99
280.538	39.42
280.753	23.04
280.969	64
281.184	70.14
281.399	180.73
281.615	-15.87
281.83	82.43
282.045	-83.45
282.26	-30.21
282.476	70.14
282.691	78.33
282.906	16.9
283.122	4.61
283.337	14.85
283.552	35.33
283.767	8.7
283.983	121.34
284.198	-5.63
284.413	88.57
284.628	-52.74
284.843	-26.11
285.058	113.15
285.274	88.57
285.489	8.7
285.704	115.2
285.919	43.52
286.134	86.53
286.349	86.53
286.564	0.51
286.779	139.77
286.995	-3.58
287.21	14.85
287.425	61.95
287.64	-26.11
287.855	84.48
288.07	14.85
288.285	96.77
288.5	100.86
288.715	43.52
288.93	43.52
289.145	14.85
289.36	74.24
289.575	-11.78
289.79	147.97
290.004	2.56
290.219	94.72
290.434	-32.26
290.649	4.61
290.864	27.14
291.079	43.52
291.294	20.99
291.509	49.66
291.724	-5.63
291.938	25.09
292.153	51.71
292.368	14.85
292.583	72.19
292.798	111.1
293.012	33.28
293.227	6.66
293.442	16.9
293.657	121.34
293.871	96.77
294.086	72.19
294.301	150.01
294.516	123.39
294.73	88.57
294.945	-13.82
295.16	115.2
295.374	88.57
295.589	178.69
295.804	0.51
296.018	20.99
296.233	98.81
296.447	61.95
296.662	74.24
296.877	166.4
297.091	76.29
297.306	0.51
297.52	35.33
297.735	31.23
297.949	20.99
298.164	29.18
298.378	35.33
298.593	-5.63
298.807	12.8
299.022	150.01
299.236	143.87
299.451	107.01
299.665	80.38
299.88	4.61
300.094	37.38
300.309	76.29
300.523	98.81
300.737	-15.87
300.952	90.62
301.166	49.66
301.381	-58.88
301.595	-22.02
301.809	45.57
302.024	16.9
302.238	47.62
302.452	207.36
302.667	100.86
302.881	82.43
303.095	25.09
303.309	117.25
303.524	57.86
303.738	-42.5
303.952	-5.63
304.166	80.38
304.381	-87.55
304.595	137.73
304.809	25.09
305.023	74.24
305.237	41.47
305.452	74.24
305.666	70.14
305.88	143.87
306.094	139.77
306.308	160.25
306.522	172.54
306.736	109.05
306.95	68.09
307.164	8.7
307.379	35.33
307.593	47.62
307.807	147.97
308.021	55.81
308.235	37.38
308.449	-5.63
308.663	45.57
308.877	205.31
309.091	25.09
309.305	96.77
309.519	-48.64
309.733	127.49
309.947	-19.97
310.161	18.94
310.374	102.91
310.588	66.05
310.802	-71.17
311.016	59.9
311.23	16.9
311.444	-50.69
311.658	2.56
311.872	98.81
312.085	137.73
312.299	178.69
312.513	158.21
312.727	35.33
312.941	-30.21
313.154	88.57
313.368	43.52
313.582	10.75
313.796	16.9
314.009	-9.73
314.223	117.25
314.437	84.48
314.651	104.96
314.864	-7.68
315.078	23.04
315.292	-83.45
315.505	-44.54
315.719	137.73
315.933	49.66
316.146	0.51
316.36	59.9
316.573	125.44
316.787	23.04
317.001	80.38
317.214	-62.98
317.428	-3.58
317.641	31.23
317.855	104.96
318.068	53.76
318.282	72.19
318.495	184.83
318.709	102.91
318.922	12.8
319.136	137.73
319.349	133.63
319.563	-26.11
319.776	133.63
319.99	-32.26
320.203	47.62
320.417	55.81
320.63	64
320.843	180.73
321.057	-15.87
321.27	66.05
321.483	39.42
321.697	133.63
321.91	131.58
322.124	64
322.337	64
322.55	-40.45
322.763	45.57
322.977	-40.45
323.19	-24.06
323.403	82.43
323.617	66.05
323.83	100.86
324.043	20.99
324.256	-22.02
324.469	-71.17
324.683	92.67
324.896	84.48
325.109	59.9
325.322	-19.97
325.535	107.01
325.748	55.81
325.962	119.29
326.175	18.94
326.388	-19.97
326.601	156.16
326.814	0.51
327.027	68.09
327.24	84.48
327.453	-52.74
327.666	137.73
327.879	164.35
328.092	139.77
328.305	102.91
328.518	8.7
328.731	-5.63
328.944	2.56
329.157	92.67
329.37	0.51
329.583	211.45
329.796	182.78
330.009	-73.21
330.222	102.91
330.435	76.29
330.648	2.56
330.861	64
331.073	53.76
331.286	113.15
331.499	18.94
331.712	-3.58
331.925	-28.16
332.138	94.72
332.35	111.1
332.563	74.24
332.776	129.53
332.989	-19.97
333.202	68.09
333.414	47.62
333.627	37.38
333.84	66.05
334.053	53.76
334.265	57.86
334.478	-1.54
334.691	111.1
334.903	70.14
335.116	-22.02
335.329	76.29
335.541	100.86
335.754	125.44
335.966	-60.93
336.179	166.4
336.392	45.57
336.604	72.19
336.817	121.34
337.029	41.47
337.242	82.43
337.454	113.15
337.667	92.67
337.88	180.73
338.092	37.38
338.305	-22.02
338.517	-22.02
338.729	78.33
338.942	254.46
339.154	-75.26
339.367	-42.5
339.579	51.71
339.792	-54.78
340.004	129.53
340.217	76.29
340.429	59.9
340.641	8.7
340.854	-13.82
341.066	51.71
341.278	43.52
341.491	221.69
341.703	127.49
341.915	35.33
342.128	135.68
342.34	113.15
342.552	-17.92
342.764	-30.21
342.977	35.33
343.189	145.92
343.401	23.04
343.613	-56.83
343.826	12.8
344.038	-1.54
344.25	102.91
344.462	-22.02
344.674	98.81
344.886	-52.74
345.099	111.1
345.311	16.9
345.523	8.7
345.735	-67.07
345.947	107.01
346.159	92.67
346.371	90.62
346.583	-34.3
346.795	217.6
347.007	74.24
347.219	113.15
347.431	66.05
347.643	135.68
347.855	51.71
348.067	203.26
348.279	-83.45
348.491	90.62
348.703	197.12
348.915	51.71
349.127	-71.17
349.339	-52.74
349.551	23.04
349.763	102.91
349.975	41.47
350.187	107.01
350.399	137.73
350.61	80.38
350.822	-24.06
351.034	72.19
351.246	45.57
351.458	123.39
351.669	47.62
351.881	113.15
352.093	199.16
352.305	102.91
352.517	80.38
352.728	78.33
352.94	90.62
353.152	94.72
353.363	-85.5
353.575	94.72
353.787	180.73
353.999	74.24
354.21	172.54
354.422	31.23
354.633	49.66
354.845	14.85
355.057	70.14
355.268	39.42
355.48	6.66
355.692	-22.02
355.903	29.18
356.115	-48.64
356.326	-24.06
356.538	109.05
356.749	25.09
356.961	141.82
357.172	39.42
357.384	-34.3
357.595	209.4
357.807	-69.12
358.018	18.94
358.23	-60.93
358.441	154.11
358.653	16.9
358.864	104.96
359.075	6.66
359.287	102.91
359.498	100.86
359.709	23.04
359.921	33.28
360.132	57.86
360.344	55.81
360.555	74.24
360.766	59.9
360.977	-7.68
361.189	57.86
361.4	35.33
361.611	113.15
361.823	145.92
362.034	94.72
362.245	-95.74
362.456	8.7
362.667	64
362.879	43.52
363.09	74.24
363.301	135.68
363.512	96.77
363.723	-62.98
363.935	37.38
364.146	123.39
364.357	-13.82
364.568	98.81
364.779	-42.5
364.99	223.74
365.201	-22.02
365.412	82.43
365.623	-50.69
365.834	55.81
366.045	100.86
366.256	96.77
366.467	96.77
366.678	84.48
366.889	20.99
367.1	61.95
367.311	41.47
367.522	55.81
367.733	47.62
367.944	20.99
368.155	72.19
368.366	127.49
368.577	182.78
368.788	156.16
368.999	-17.92
369.209	43.52
369.42	225.79
369.631	297.47
369.842	109.05
370.053	-28.16
370.264	129.53
370.474	-34.3
370.685	168.45
370.896	-11.78
371.107	92.67
371.317	8.7
371.528	43.52
371.739	135.68
371.95	121.34
372.16	-19.97
372.371	-34.3
372.582	18.94
372.792	61.95
373.003	111.1
373.214	66.05
373.424	137.73
373.635	-36.35
373.846	231.93
374.056	45.57
374.267	117.25
374.477	61.95
374.688	68.09
374.898	49.66
375.109	33.28
375.319	-11.78
375.53	111.1
375.74	80.38
375.951	8.7
376.161	119.29
376.372	29.18
376.582	61.95
376.793	14.85
377.003	27.14
377.214	-17.92
377.424	107.01
377.635	0.51
377.845	-3.58
378.055	150.01
378.266	-44.54
378.476	88.57
378.686	94.72
378.897	94.72
379.107	156.16
379.317	150.01
379.528	41.47
379.738	82.43
379.948	-46.59
380.158	94.72
380.369	158.21
380.579	104.96
380.789	121.34
380.999	84.48
381.21	137.73
381.42	227.84
381.63	70.14
381.84	129.53
382.05	94.72
382.261	92.67
382.471	47.62
382.681	49.66
382.891	238.08
383.101	94.72
383.311	0.51
383.521	-24.06
383.731	145.92
383.941	143.87
384.151	119.29
384.361	-32.26
384.571	78.33
384.781	25.09
384.991	188.93
385.201	107.01
385.411	88.57
385.621	84.48
385.831	49.66
386.041	35.33
386.251	37.38
386.461	129.53
386.671	45.57
386.881	74.24
387.091	-34.3
387.301	72.19
387.511	29.18
387.72	82.43
387.93	158.21
388.14	-17.92
388.35	33.28
388.56	139.77
388.769	133.63
388.979	35.33
389.189	78.33
389.399	76.29
389.609	164.35
389.818	51.71
390.028	82.43
390.238	82.43
390.447	-50.69
390.657	18.94
390.867	35.33
391.076	-73.21
391.286	113.15
391.496	139.77
391.705	78.33
391.915	219.64
392.125	84.48
392.334	25.09
392.544	172.54
392.753	135.68
392.963	-42.5
393.172	18.94
393.382	18.94
393.591	238.08
393.801	43.52
394.01	203.26
394.22	74.24
394.429	41.47
394.639	43.52
394.848	78.33
395.058	31.23
395.267	72.19
395.477	66.05
395.686	41.47
395.895	207.36
396.105	229.88
396.314	92.67
396.524	45.57
396.733	33.28
396.942	139.77
397.152	137.73
397.361	137.73
397.57	90.62
397.78	76.29
397.989	127.49
398.198	211.45
398.407	76.29
398.617	8.7
398.826	-38.4
399.035	94.72
399.244	94.72
399.453	33.28
399.663	-17.92
399.872	51.71
400.081	-19.97
400.29	100.86
400.499	47.62
400.708	154.11
400.917	29.18
401.127	-11.78
401.336	33.28
401.545	164.35
401.754	152.06
401.963	154.11
402.172	4.61
402.381	-9.73
402.59	4.61
402.799	113.15
403.008	47.62
403.217	-22.02
403.426	117.25
403.635	20.99
403.844	55.81
404.053	23.04
404.262	70.14
404.471	205.31
404.68	109.05
404.888	29.18
405.097	-22.02
405.306	98.81
405.515	94.72
405.724	33.28
405.933	111.1
406.142	115.2
406.35	113.15
406.559	-3.58
406.768	92.67
406.977	156.16
407.185	166.4
407.394	14.85
407.603	-81.41
407.812	-11.78
408.02	147.97
408.229	113.15
408.438	66.05
408.646	20.99
408.855	25.09
409.064	6.66
409.272	-54.78
409.481	139.77
409.69	-9.73
409.898	-65.02
410.107	49.66
410.315	131.58
410.524	45.57
410.733	57.86
410.941	16.9
411.15	168.45
411.358	123.39
411.567	80.38
411.775	100.86
411.984	76.29
412.192	164.35
412.401	72.19
412.609	147.97
412.818	102.91
413.026	84.48
413.234	100.86
413.443	86.53
413.651	23.04
413.86	31.23
414.068	113.15
414.276	172.54
414.485	-75.26
414.693	158.21
414.901	211.45
415.11	94.72
415.318	0.51
415.526	-3.58
415.734	92.67
415.943	88.57
416.151	72.19
416.359	86.53
416.567	64
416.776	72.19
416.984	164.35
417.192	160.25
417.4	6.66
417.608	64
417.817	-1.54
418.025	121.34
418.233	193.02
418.441	-24.06
418.649	16.9
418.857	119.29
419.065	182.78
419.273	88.57
419.481	80.38
419.689	12.8
419.897	-15.87
420.105	-42.5
420.313	92.67
420.521	115.2
420.729	135.68
420.937	115.2
421.145	-58.88
421.353	72.19
421.561	102.91
421.769	121.34
421.977	35.33
422.185	133.63
422.393	92.67
422.601	145.92
422.809	104.96
423.017	90.62
423.224	121.34
423.432	123.39
423.64	14.85
423.848	125.44
424.056	16.9
424.263	197.12
424.471	23.04
424.679	184.83
424.887	33.28
425.094	170.49
425.302	74.24
425.51	80.38
425.718	66.05
425.925	109.05
426.133	92.67
426.341	197.12
426.548	172.54
426.756	33.28
426.964	129.53
427.171	-3.58
427.379	117.25
427.586	164.35
427.794	68.09
428.001	113.15
428.209	107.01
428.417	156.16
428.624	158.21
428.832	145.92
429.039	111.1
429.247	98.81
429.454	92.67
429.662	254.46
429.869	119.29
430.076	115.2
430.284	145.92
430.491	207.36
430.699	129.53
430.906	217.6
431.114	84.48
431.321	123.39
431.528	113.15
431.736	117.25
431.943	74.24
432.15	145.92
432.358	190.97
432.565	270.84
432.772	61.95
432.979	150.01
433.187	125.44
433.394	184.83
433.601	150.01
433.808	219.64
434.016	295.42
434.223	248.32
434.43	260.6
434.637	176.64
434.844	358.91
435.052	242.17
435.259	309.76
435.466	272.89
435.673	285.18
435.88	336.38
436.087	307.71
436.294	356.86
436.501	303.61
436.708	266.75
436.915	352.76
437.122	322.04
437.329	397.82
437.537	432.63
437.743	268.8
437.95	463.35
438.157	444.92
438.364	414.2
438.571	389.63
438.778	453.11
438.985	397.82
439.192	520.7
439.399	420.35
439.606	416.25
439.813	528.89
440.02	612.85
440.227	680.44
440.433	555.51
440.64	561.66
440.847	586.23
441.054	662.01
441.261	756.21
441.467	682.49
441.674	586.23
441.881	784.88
442.088	680.44
442.294	772.6
442.501	735.73
442.708	823.8
442.914	854.51
443.121	879.09
443.328	901.62
443.534	1016.3
443.741	946.67
443.948	854.51
444.154	1047.02
444.361	1182.19
444.568	1124.85
444.774	1057.26
444.981	995.82
445.187	1327.6
445.394	1133.04
445.6	1122.8
445.807	1327.6
446.013	1253.87
446.22	1262.06
446.426	1509.86
446.633	1563.11
446.839	1688.04
447.046	1456.62
447.252	1720.81
447.459	1710.57
447.665	1655.27
447.871	1827.3
448.078	1903.07
448.284	1997.28
448.491	2040.29
448.697	2185.69
448.903	2286.05
449.11	2331.1
449.316	2167.26
449.522	2435.55
449.728	2513.37
449.935	2539.99
450.141	2652.63
450.347	2806.23
450.553	2826.71
450.76	2836.95
450.966	3131.86
451.172	3090.9
451.378	3316.17
451.584	3234.25
451.791	3504.59
451.997	3707.34
452.203	3684.81
452.409	3951.04
452.615	4059.59
452.821	4086.21
453.027	4071.87
453.233	4540.86
453.44	4250.05
453.646	4628.92
453.852	4874.68
454.058	4862.39
454.264	5140.91
454.47	5482.92
454.676	5403.05
454.882	5906.85
455.088	5644.71
455.294	5984.68
455.5	6468
455.705	6767
455.911	6840.73
456.117	6840.73
456.323	7346.58
456.529	7104.92
456.735	7819.66
456.941	8053.13
457.147	8190.34
457.352	8704.38
457.558	8679.8
457.764	9316.72
457.97	9732.46
458.176	9970.02
458.381	10465.63
458.587	10756.44
458.793	11231.57
458.999	11297.11
459.204	12775.74
459.41	13113.66
459.616	13134.14
459.821	13705.52
460.027	14143.78
460.233	14686.5
460.438	14754.08
460.644	15567.12
460.85	15984.91
461.055	16638.21
461.261	17414.39
461.466	16935.17
461.672	17393.91
461.878	19585.24
462.083	18981.09
462.289	19667.16
462.494	20459.72
462.7	20459.72
462.905	20844.74
463.111	22653.09
463.316	23814.29
463.522	23861.4
463.727	24885.38
463.932	25854.07
464.138	26511.47
464.343	27500.64
464.549	27713.63
464.754	29866.04
464.959	30269.49
465.165	31287.33
465.37	30722.09
465.575	30769.19
465.781	33026.06
465.986	33662.97
466.191	33261.57
466.397	33607.68
466.602	32653.33
466.807	34508.79
467.012	35456.99
467.218	35885.02
467.423	35815.39
467.628	37314.5
467.833	39153.58
468.038	37990.33
468.244	37638.08
468.449	39206.83
468.654	38567.86
468.859	38619.06
