Data from USB4F104151__240__11-06-34-524.txt Node

Date: Wed Feb 26 11:06:34 EST 2025
User: louis
Spectrometer: USB4F10415
Trigger mode: 4
Integration Time (sec): 1.000000E-1
Scans to average: 1
Electric dark correction enabled: true
Nonlinearity correction enabled: false
Boxcar width: 0
XAxis mode: Wavelengths
Number of Pixels in Spectrum: 3648
>>>>>Begin Spectral Data<<<<<
178.204	-321.02
178.424	-321.02
178.644	-321.02
178.864	-349.69
179.084	-409.08
179.304	35.33
179.524	37.38
179.744	-30.21
179.964	45.57
180.184	-13.82
180.404	84.48
180.624	-24.06
180.844	10.75
181.064	-85.5
181.283	-26.11
181.503	-30.21
181.723	-3.58
181.943	-136.7
182.163	213.5
182.383	64
182.602	82.43
182.822	127.49
183.042	27.14
183.262	4.61
183.482	35.33
183.701	-15.87
183.921	33.28
184.141	-40.45
184.361	25.09
184.58	23.04
184.8	45.57
185.02	-83.45
185.239	80.38
185.459	88.57
185.679	137.73
185.898	-58.88
186.118	92.67
186.338	39.42
186.557	158.21
186.777	59.9
186.997	33.28
187.216	35.33
187.436	211.45
187.655	137.73
187.875	123.39
188.095	53.76
188.314	117.25
188.534	160.25
188.753	-62.98
188.973	109.05
189.192	139.77
189.412	2.56
189.631	-36.35
189.851	41.47
190.07	141.82
190.29	-26.11
190.509	-1.54
190.729	66.05
190.948	188.93
191.168	225.79
191.387	27.14
191.607	-7.68
191.826	111.1
192.045	68.09
192.265	-24.06
192.484	45.57
192.704	53.76
192.923	-22.02
193.142	229.88
193.362	127.49
193.581	119.29
193.8	41.47
194.02	61.95
194.239	8.7
194.458	41.47
194.678	49.66
194.897	35.33
195.116	39.42
195.335	84.48
195.555	25.09
195.774	2.56
195.993	129.53
196.212	68.09
196.432	-71.17
196.651	-9.73
196.87	92.67
197.089	268.8
197.308	47.62
197.528	111.1
197.747	-95.74
197.966	78.33
198.185	154.11
198.404	-1.54
198.623	158.21
198.842	102.91
199.062	127.49
199.281	156.16
199.5	47.62
199.719	66.05
199.938	100.86
200.157	96.77
200.376	125.44
200.595	98.81
200.814	84.48
201.033	-17.92
201.252	223.74
201.471	-65.02
201.69	88.57
201.909	61.95
202.128	127.49
202.347	76.29
202.566	8.7
202.785	-26.11
203.004	-44.54
203.223	238.08
203.442	10.75
203.661	-30.21
203.879	66.05
204.098	107.01
204.317	-3.58
204.536	80.38
204.755	104.96
204.974	143.87
205.193	0.51
205.411	45.57
205.63	107.01
205.849	160.25
206.068	10.75
206.287	12.8
206.505	111.1
206.724	-1.54
206.943	76.29
207.162	68.09
207.381	49.66
207.599	66.05
207.818	74.24
208.037	-7.68
208.255	88.57
208.474	102.91
208.693	86.53
208.911	-28.16
209.13	125.44
209.349	121.34
209.567	107.01
209.786	90.62
210.005	47.62
210.223	61.95
210.442	-118.27
210.661	-52.74
210.879	86.53
211.098	68.09
211.316	131.58
211.535	111.1
211.753	131.58
211.972	0.51
212.191	16.9
212.409	2.56
212.628	18.94
212.846	6.66
213.065	68.09
213.283	129.53
213.502	23.04
213.72	10.75
213.938	76.29
214.157	25.09
214.375	125.44
214.594	90.62
214.812	123.39
215.031	43.52
215.249	98.81
215.467	66.05
215.686	84.48
215.904	39.42
216.122	41.47
216.341	164.35
216.559	61.95
216.778	113.15
216.996	205.31
217.214	49.66
217.432	43.52
217.651	-81.41
217.869	35.33
218.087	104.96
218.306	25.09
218.524	-9.73
218.742	-11.78
218.96	119.29
219.179	-28.16
219.397	10.75
219.615	262.65
219.833	117.25
220.051	-11.78
220.27	172.54
220.488	80.38
220.706	96.77
220.924	29.18
221.142	12.8
221.36	82.43
221.578	100.86
221.796	16.9
222.015	2.56
222.233	53.76
222.451	164.35
222.669	-140.8
222.887	127.49
223.105	-34.3
223.323	-7.68
223.541	-19.97
223.759	-1.54
223.977	-13.82
224.195	154.11
224.413	47.62
224.631	92.67
224.849	92.67
225.067	166.4
225.285	27.14
225.503	4.61
225.721	-44.54
225.939	72.19
226.157	86.53
226.375	236.03
226.592	-19.97
226.81	-5.63
227.028	145.92
227.246	145.92
227.464	35.33
227.682	53.76
227.9	154.11
228.117	109.05
228.335	55.81
228.553	86.53
228.771	102.91
228.989	82.43
229.206	49.66
229.424	-15.87
229.642	33.28
229.86	-79.36
230.077	129.53
230.295	107.01
230.513	78.33
230.731	111.1
230.948	209.4
231.166	121.34
231.384	94.72
231.601	31.23
231.819	205.31
232.037	18.94
232.254	-62.98
232.472	61.95
232.689	-54.78
232.907	76.29
233.125	55.81
233.342	-38.4
233.56	31.23
233.777	-5.63
233.995	25.09
234.213	100.86
234.43	84.48
234.648	-40.45
234.865	20.99
235.083	90.62
235.3	74.24
235.518	51.71
235.735	66.05
235.953	129.53
236.17	20.99
236.388	41.47
236.605	61.95
236.822	55.81
237.04	211.45
237.257	76.29
237.475	-13.82
237.692	43.52
237.909	123.39
238.127	-26.11
238.344	150.01
238.562	16.9
238.779	-13.82
238.996	-71.17
239.214	59.9
239.431	115.2
239.648	35.33
239.865	80.38
240.083	117.25
240.3	35.33
240.517	-42.5
240.735	47.62
240.952	174.59
241.169	172.54
241.386	74.24
241.603	8.7
241.821	-28.16
242.038	43.52
242.255	86.53
242.472	6.66
242.689	57.86
242.907	68.09
243.124	29.18
243.341	6.66
243.558	29.18
243.775	-69.12
243.992	-42.5
244.209	45.57
244.426	193.02
244.643	57.86
244.86	39.42
245.078	61.95
245.295	41.47
245.512	47.62
245.729	35.33
245.946	119.29
246.163	53.76
246.38	41.47
246.597	2.56
246.814	49.66
247.031	55.81
247.248	35.33
247.464	94.72
247.681	18.94
247.898	35.33
248.115	39.42
248.332	-60.93
248.549	166.4
248.766	227.84
248.983	92.67
249.2	72.19
249.417	88.57
249.633	-22.02
249.85	61.95
250.067	94.72
250.284	64
250.501	72.19
250.717	88.57
250.934	41.47
251.151	12.8
251.368	51.71
251.585	35.33
251.801	102.91
252.018	-69.12
252.235	66.05
252.451	-9.73
252.668	-38.4
252.885	131.58
253.102	125.44
253.318	-9.73
253.535	18.94
253.752	43.52
253.968	45.57
254.185	-19.97
254.401	61.95
254.618	18.94
254.835	-26.11
255.051	176.64
255.268	55.81
255.484	27.14
255.701	-5.63
255.917	47.62
256.134	2.56
256.351	39.42
256.567	2.56
256.784	70.14
257	-44.54
257.217	135.68
257.433	119.29
257.65	14.85
257.866	164.35
258.082	-7.68
258.299	-3.58
258.515	-3.58
258.732	-28.16
258.948	-54.78
259.165	55.81
259.381	-38.4
259.597	133.63
259.814	51.71
260.03	78.33
260.246	23.04
260.463	102.91
260.679	90.62
260.895	29.18
261.112	72.19
261.328	55.81
261.544	-5.63
261.761	170.49
261.977	18.94
262.193	-44.54
262.409	90.62
262.626	12.8
262.842	31.23
263.058	-5.63
263.274	145.92
263.49	98.81
263.707	102.91
263.923	90.62
264.139	-54.78
264.355	33.28
264.571	55.81
264.787	37.38
265.004	68.09
265.22	-11.78
265.436	10.75
265.652	29.18
265.868	82.43
266.084	-46.59
266.3	96.77
266.516	-7.68
266.732	49.66
266.948	102.91
267.164	100.86
267.38	109.05
267.596	107.01
267.812	137.73
268.028	27.14
268.244	74.24
268.46	94.72
268.676	47.62
268.892	68.09
269.108	27.14
269.324	-15.87
269.54	86.53
269.756	88.57
269.972	-38.4
270.188	8.7
270.403	-58.88
270.619	10.75
270.835	61.95
271.051	8.7
271.267	-60.93
271.483	25.09
271.698	90.62
271.914	29.18
272.13	72.19
272.346	6.66
272.562	117.25
272.777	152.06
272.993	18.94
273.209	-26.11
273.425	109.05
273.64	-40.45
273.856	121.34
274.072	6.66
274.287	-9.73
274.503	82.43
274.719	176.64
274.934	-30.21
275.15	43.52
275.366	51.71
275.581	-24.06
275.797	0.51
276.012	49.66
276.228	-1.54
276.444	55.81
276.659	78.33
276.875	-40.45
277.09	90.62
277.306	-3.58
277.521	121.34
277.737	68.09
277.952	74.24
278.168	74.24
278.383	-3.58
278.599	51.71
278.814	43.52
279.03	102.91
279.245	131.58
279.461	37.38
279.676	154.11
279.892	-69.12
280.107	-48.64
280.322	-48.64
280.538	47.62
280.753	-15.87
280.969	78.33
281.184	49.66
281.399	150.01
281.615	66.05
281.83	72.19
282.045	-71.17
282.26	12.8
282.476	80.38
282.691	20.99
282.906	107.01
283.122	55.81
283.337	-58.88
283.552	160.25
283.767	10.75
283.983	104.96
284.198	-48.64
284.413	125.44
284.628	-65.02
284.843	104.96
285.058	102.91
285.274	43.52
285.489	-11.78
285.704	172.54
285.919	-5.63
286.134	-11.78
286.349	31.23
286.564	-26.11
286.779	119.29
286.995	53.76
287.21	-48.64
287.425	16.9
287.64	4.61
287.855	125.44
288.07	-46.59
288.285	102.91
288.5	154.11
288.715	20.99
288.93	27.14
289.145	27.14
289.36	84.48
289.575	-26.11
289.79	109.05
290.004	37.38
290.219	188.93
290.434	-5.63
290.649	-71.17
290.864	-9.73
291.079	35.33
291.294	115.2
291.509	119.29
291.724	88.57
291.938	43.52
292.153	78.33
292.368	-42.5
292.583	47.62
292.798	119.29
293.012	-13.82
293.227	66.05
293.442	41.47
293.657	143.87
293.871	203.26
294.086	84.48
294.301	133.63
294.516	164.35
294.73	49.66
294.945	-9.73
295.16	72.19
295.374	137.73
295.589	104.96
295.804	47.62
296.018	76.29
296.233	145.92
296.447	8.7
296.662	4.61
296.877	129.53
297.091	104.96
297.306	84.48
297.52	23.04
297.735	59.9
297.949	109.05
298.164	4.61
298.378	49.66
298.593	0.51
298.807	-3.58
299.022	20.99
299.236	156.16
299.451	31.23
299.665	2.56
299.88	4.61
300.094	90.62
300.309	119.29
300.523	90.62
300.737	31.23
300.952	49.66
301.166	61.95
301.381	6.66
301.595	-9.73
301.809	70.14
302.024	51.71
302.238	2.56
302.452	166.4
302.667	45.57
302.881	131.58
303.095	90.62
303.309	166.4
303.524	-9.73
303.738	66.05
303.952	49.66
304.166	49.66
304.381	-163.33
304.595	135.68
304.809	-1.54
305.023	53.76
305.237	80.38
305.452	-40.45
305.666	84.48
305.88	88.57
306.094	143.87
306.308	94.72
306.522	100.86
306.736	66.05
306.95	66.05
307.164	27.14
307.379	47.62
307.593	219.64
307.807	115.2
308.021	125.44
308.235	127.49
308.449	-71.17
308.663	-3.58
308.877	262.65
309.091	39.42
309.305	94.72
309.519	-50.69
309.733	74.24
309.947	-34.3
310.161	92.67
310.374	86.53
310.588	188.93
310.802	27.14
311.016	78.33
311.23	117.25
311.444	-15.87
311.658	100.86
311.872	164.35
312.085	133.63
312.299	125.44
312.513	195.07
312.727	68.09
312.941	-15.87
313.154	45.57
313.368	76.29
313.582	59.9
313.796	102.91
314.009	-34.3
314.223	82.43
314.437	104.96
314.651	90.62
314.864	-58.88
315.078	94.72
315.292	-42.5
315.505	-3.58
315.719	2.56
315.933	147.97
316.146	109.05
316.36	-17.92
316.573	139.77
316.787	92.67
317.001	104.96
317.214	-28.16
317.428	61.95
317.641	-36.35
317.855	10.75
318.068	31.23
318.282	45.57
318.495	135.68
318.709	131.58
318.922	31.23
319.136	119.29
319.349	102.91
319.563	-13.82
319.776	150.01
319.99	-67.07
320.203	86.53
320.417	74.24
320.63	139.77
320.843	164.35
321.057	49.66
321.27	92.67
321.483	115.2
321.697	68.09
321.91	74.24
322.124	61.95
322.337	66.05
322.55	-40.45
322.763	115.2
322.977	35.33
323.19	-9.73
323.403	51.71
323.617	10.75
323.83	80.38
324.043	51.71
324.256	84.48
324.469	8.7
324.683	117.25
324.896	35.33
325.109	27.14
325.322	-118.27
325.535	143.87
325.748	133.63
325.962	20.99
326.175	92.67
326.388	43.52
326.601	127.49
326.814	152.06
327.027	18.94
327.24	135.68
327.453	-69.12
327.666	107.01
327.879	74.24
328.092	0.51
328.305	139.77
328.518	45.57
328.731	-11.78
328.944	35.33
329.157	59.9
329.37	35.33
329.583	209.4
329.796	170.49
330.009	23.04
330.222	68.09
330.435	131.58
330.648	45.57
330.861	98.81
331.073	49.66
331.286	94.72
331.499	23.04
331.712	-56.83
331.925	8.7
332.138	12.8
332.35	78.33
332.563	41.47
332.776	109.05
332.989	-15.87
333.202	92.67
333.414	113.15
333.627	-3.58
333.84	74.24
334.053	86.53
334.265	-13.82
334.478	-93.69
334.691	70.14
334.903	47.62
335.116	64
335.329	-56.83
335.541	113.15
335.754	203.26
335.966	45.57
336.179	8.7
336.392	-13.82
336.604	53.76
336.817	23.04
337.029	137.73
337.242	92.67
337.454	119.29
337.667	-19.97
337.88	172.54
338.092	96.77
338.305	104.96
338.517	-7.68
338.729	55.81
338.942	147.97
339.154	-54.78
339.367	35.33
339.579	92.67
339.792	10.75
340.004	86.53
340.217	43.52
340.429	-7.68
340.641	-36.35
340.854	47.62
341.066	18.94
341.278	178.69
341.491	188.93
341.703	20.99
341.915	29.18
342.128	172.54
342.34	123.39
342.552	-56.83
342.764	25.09
342.977	8.7
343.189	23.04
343.401	-3.58
343.613	-28.16
343.826	47.62
344.038	27.14
344.25	98.81
344.462	39.42
344.674	57.86
344.886	70.14
345.099	125.44
345.311	64
345.523	29.18
345.735	-73.21
345.947	74.24
346.159	49.66
346.371	59.9
346.583	68.09
346.795	182.78
347.007	-30.21
347.219	111.1
347.431	195.07
347.643	143.87
347.855	94.72
348.067	215.55
348.279	-89.6
348.491	41.47
348.703	72.19
348.915	-15.87
349.127	-48.64
349.339	76.29
349.551	-50.69
349.763	82.43
349.975	76.29
350.187	16.9
350.399	127.49
350.61	147.97
350.822	53.76
351.034	98.81
351.246	68.09
351.458	121.34
351.669	117.25
351.881	115.2
352.093	127.49
352.305	92.67
352.517	88.57
352.728	156.16
352.94	53.76
353.152	72.19
353.363	-7.68
353.575	45.57
353.787	184.83
353.999	55.81
354.21	143.87
354.422	39.42
354.633	84.48
354.845	-15.87
355.057	82.43
355.268	74.24
355.48	119.29
355.692	0.51
355.903	10.75
356.115	4.61
356.326	-42.5
356.538	158.21
356.749	80.38
356.961	166.4
357.172	84.48
357.384	0.51
357.595	190.97
357.807	2.56
358.018	-19.97
358.23	64
358.441	178.69
358.653	125.44
358.864	-26.11
359.075	-15.87
359.287	41.47
359.498	129.53
359.709	113.15
359.921	74.24
360.132	166.4
360.344	-22.02
360.555	16.9
360.766	84.48
360.977	-3.58
361.189	98.81
361.4	27.14
361.611	213.5
361.823	143.87
362.034	25.09
362.245	-62.98
362.456	51.71
362.667	133.63
362.879	14.85
363.09	59.9
363.301	115.2
363.512	20.99
363.723	-26.11
363.935	82.43
364.146	76.29
364.357	39.42
364.568	94.72
364.779	-73.21
364.99	195.07
365.201	29.18
365.412	143.87
365.623	35.33
365.834	88.57
366.045	51.71
366.256	47.62
366.467	35.33
366.678	2.56
366.889	27.14
367.1	-9.73
367.311	100.86
367.522	-5.63
367.733	82.43
367.944	125.44
368.155	12.8
368.366	84.48
368.577	133.63
368.788	154.11
368.999	33.28
369.209	51.71
369.42	166.4
369.631	295.42
369.842	76.29
370.053	84.48
370.264	127.49
370.474	8.7
370.685	115.2
370.896	-40.45
371.107	131.58
371.317	72.19
371.528	0.51
371.739	92.67
371.95	-7.68
372.16	61.95
372.371	90.62
372.582	66.05
372.792	25.09
373.003	90.62
373.214	66.05
373.424	43.52
373.635	-32.26
373.846	184.83
374.056	115.2
374.267	150.01
374.477	0.51
374.688	-15.87
374.898	64
375.109	55.81
375.319	84.48
375.53	80.38
375.74	188.93
375.951	49.66
376.161	88.57
376.372	186.88
376.582	84.48
376.793	113.15
377.003	37.38
377.214	14.85
377.424	90.62
377.635	41.47
377.845	23.04
378.055	238.08
378.266	57.86
378.476	8.7
378.686	-17.92
378.897	8.7
379.107	98.81
379.317	49.66
379.528	18.94
379.738	88.57
379.948	-30.21
380.158	129.53
380.369	84.48
380.579	113.15
380.789	-11.78
380.999	164.35
381.21	107.01
381.42	188.93
381.63	57.86
381.84	109.05
382.05	35.33
382.261	156.16
382.471	90.62
382.681	-34.3
382.891	133.63
383.101	0.51
383.311	-13.82
383.521	53.76
383.731	72.19
383.941	127.49
384.151	33.28
384.361	23.04
384.571	59.9
384.781	100.86
384.991	201.21
385.201	176.64
385.411	125.44
385.621	68.09
385.831	84.48
386.041	92.67
386.251	2.56
386.461	88.57
386.671	33.28
386.881	51.71
387.091	6.66
387.301	88.57
387.511	27.14
387.72	111.1
387.93	86.53
388.14	-3.58
388.35	-40.45
388.56	211.45
388.769	100.86
388.979	82.43
389.189	27.14
389.399	47.62
389.609	100.86
389.818	59.9
390.028	96.77
390.238	76.29
390.447	-81.41
390.657	117.25
390.867	-17.92
391.076	-36.35
391.286	-7.68
391.496	76.29
391.705	-19.97
391.915	113.15
392.125	119.29
392.334	43.52
392.544	143.87
392.753	49.66
392.963	20.99
393.172	41.47
393.382	41.47
393.591	150.01
393.801	-19.97
394.01	158.21
394.22	92.67
394.429	37.38
394.639	23.04
394.848	70.14
395.058	68.09
395.267	53.76
395.477	82.43
395.686	88.57
395.895	172.54
396.105	231.93
396.314	107.01
396.524	18.94
396.733	33.28
396.942	94.72
397.152	76.29
397.361	143.87
397.57	82.43
397.78	-54.78
397.989	109.05
398.198	154.11
398.407	111.1
398.617	41.47
398.826	76.29
399.035	-40.45
399.244	158.21
399.453	47.62
399.663	43.52
399.872	117.25
400.081	4.61
400.29	170.49
400.499	20.99
400.708	90.62
400.917	57.86
401.127	4.61
401.336	47.62
401.545	195.07
401.754	139.77
401.963	115.2
402.172	102.91
402.381	20.99
402.59	102.91
402.799	53.76
403.008	94.72
403.217	82.43
403.426	107.01
403.635	-85.5
403.844	8.7
404.053	66.05
404.262	61.95
404.471	117.25
404.68	96.77
404.888	-24.06
405.097	14.85
405.306	35.33
405.515	96.77
405.724	14.85
405.933	131.58
406.142	25.09
406.35	207.36
406.559	131.58
406.768	150.01
406.977	199.16
407.185	45.57
407.394	66.05
407.603	-24.06
407.812	45.57
408.02	113.15
408.229	31.23
408.438	205.31
408.646	-112.13
408.855	41.47
409.064	57.86
409.272	-40.45
409.481	27.14
409.69	33.28
409.898	14.85
410.107	78.33
410.315	88.57
410.524	-1.54
410.733	37.38
410.941	20.99
411.15	70.14
411.358	94.72
411.567	119.29
411.775	16.9
411.984	39.42
412.192	133.63
412.401	55.81
412.609	205.31
412.818	178.69
413.026	133.63
413.234	6.66
413.443	37.38
413.651	18.94
413.86	104.96
414.068	96.77
414.276	199.16
414.485	31.23
414.693	172.54
414.901	240.12
415.11	115.2
415.318	-17.92
415.526	10.75
415.734	123.39
415.943	131.58
416.151	152.06
416.359	49.66
416.567	74.24
416.776	156.16
416.984	141.82
417.192	131.58
417.4	80.38
417.608	70.14
417.817	-32.26
418.025	96.77
418.233	227.84
418.441	-13.82
418.649	72.19
418.857	84.48
419.065	104.96
419.273	-34.3
419.481	98.81
419.689	111.1
419.897	55.81
420.105	23.04
420.313	37.38
420.521	197.12
420.729	68.09
420.937	-7.68
421.145	57.86
421.353	111.1
421.561	174.59
421.769	57.86
421.977	45.57
422.185	119.29
422.393	82.43
422.601	100.86
422.809	41.47
423.017	23.04
423.224	139.77
423.432	137.73
423.64	66.05
423.848	201.21
424.056	-9.73
424.263	137.73
424.471	64
424.679	242.17
424.887	-19.97
425.094	102.91
425.302	152.06
425.51	61.95
425.718	166.4
425.925	113.15
426.133	43.52
426.341	236.03
426.548	152.06
426.756	92.67
426.964	131.58
427.171	55.81
427.379	94.72
427.586	104.96
427.794	162.3
428.001	225.79
428.209	127.49
428.417	182.78
428.624	68.09
428.832	135.68
429.039	96.77
429.247	143.87
429.454	133.63
429.662	201.21
429.869	147.97
430.076	143.87
430.284	158.21
430.491	270.84
430.699	174.59
430.906	209.4
431.114	117.25
431.321	276.99
431.528	84.48
431.736	174.59
431.943	139.77
432.15	107.01
432.358	172.54
432.565	209.4
432.772	59.9
432.979	227.84
433.187	233.98
433.394	205.31
433.601	141.82
433.808	276.99
434.016	186.88
434.223	274.94
434.43	238.08
434.637	231.93
434.844	395.77
435.052	301.56
435.259	324.09
435.466	350.71
435.673	377.34
435.88	381.43
436.087	350.71
436.294	473.59
436.501	385.53
436.708	363
436.915	356.86
437.122	401.91
437.329	358.91
437.537	453.11
437.743	385.53
437.95	551.42
438.157	494.07
438.364	440.83
438.571	506.36
438.778	489.98
438.985	561.66
439.192	518.65
439.399	578.04
439.606	547.32
439.813	573.94
440.02	729.59
440.227	709.11
440.433	653.81
440.64	621.05
440.847	645.62
441.054	737.78
441.261	799.22
441.467	725.49
441.674	766.45
441.881	868.85
442.088	788.98
442.294	776.69
442.501	928.24
442.708	948.72
442.914	842.23
443.121	1016.3
443.328	1020.4
443.534	1067.5
443.741	1100.27
443.948	926.19
444.154	1079.79
444.361	1348.08
444.568	1149.42
444.774	1174
444.981	1108.46
445.187	1438.19
445.394	1354.22
445.6	1360.36
445.807	1569.26
446.013	1620.46
446.22	1401.32
446.426	1657.32
446.633	1724.9
446.839	1966.56
447.046	1604.07
447.252	1866.21
447.459	1907.17
447.665	1880.55
447.871	2052.58
448.078	2247.13
448.284	2079.2
448.491	2294.24
448.697	2429.4
448.903	2476.51
449.11	2539.99
449.316	2519.51
449.522	2775.51
449.728	2793.94
449.935	2902.48
450.141	2939.35
450.347	3267.02
450.553	3103.18
450.76	3205.58
450.966	3365.32
451.172	3545.55
451.378	3594.7
451.584	3791.3
451.791	4151.74
451.997	3946.95
452.203	4266.43
452.409	4325.82
452.615	4514.24
452.821	4356.54
453.027	4428.22
453.233	4948.4
453.44	5030.32
453.646	5161.39
453.852	5276.08
454.058	5654.95
454.264	5710.25
454.47	6275.49
454.676	6201.76
454.882	6703.51
455.088	6424.99
455.294	6758.81
455.5	7418.25
455.705	7770.51
455.911	7645.58
456.117	7811.46
456.323	8190.34
456.529	8126.85
456.735	8862.07
456.941	9034.1
457.147	9513.33
457.352	9748.84
457.558	10039.65
457.764	10666.33
457.97	10871.13
458.176	11342.16
458.381	11882.83
458.587	12132.68
458.793	12398.91
458.999	12644.67
459.204	14053.67
459.41	14831.9
459.616	14328.1
459.821	15448.34
460.027	16097.55
460.233	16800
460.438	16804.1
460.644	17641.71
460.85	18039.02
461.055	18647.27
461.261	19564.76
461.466	19151.07
461.672	19519.7
461.878	21786.8
462.083	21539
462.289	21813.43
462.494	22825.12
462.7	22958.24
462.905	23306.4
463.111	25602.17
463.316	26789.99
463.522	27224.16
463.727	28121.17
463.932	28979.27
464.138	30089.27
464.343	31070.25
464.549	31193.12
464.754	33769.47
464.959	34602.99
465.165	34992.11
465.37	35166.18
465.575	34727.92
465.781	37371.85
465.986	38434.74
466.191	37398.47
466.397	38152.12
466.602	37603.27
466.807	38997.93
467.012	39544.74
467.218	40400.79
467.423	40931.22
467.628	41813.89
467.833	44091.23
468.038	43345.77
468.244	42098.56
