Data from USB4F104151__219__11-06-02-527.txt Node

Date: Wed Feb 26 11:06:02 EST 2025
User: louis
Spectrometer: USB4F10415
Trigger mode: 4
Integration Time (sec): 1.000000E-1
Scans to average: 1
Electric dark correction enabled: true
Nonlinearity correction enabled: false
Boxcar width: 0
XAxis mode: Wavelengths
Number of Pixels in Spectrum: 3648
>>>>>Begin Spectral Data<<<<<
178.204	-354.64
178.424	-354.64
178.644	-354.64
178.864	-399.7
179.084	-411.98
179.304	32.43
179.524	-51.54
179.744	9.9
179.964	59.05
180.184	46.76
180.404	20.14
180.624	1.71
180.844	-65.88
181.064	-90.45
181.283	57
181.503	-63.83
181.723	44.71
181.943	-110.93
182.163	247.46
182.383	11.95
182.602	63.15
182.822	177.83
183.042	77.48
183.262	-18.77
183.482	-14.68
183.701	-12.63
183.921	1.71
184.141	-82.26
184.361	120.49
184.58	73.39
184.8	40.62
185.02	18.09
185.239	38.57
185.459	128.68
185.679	83.63
185.898	-92.5
186.118	57
186.338	79.53
186.557	110.25
186.777	-53.59
186.997	52.91
187.216	69.29
187.436	216.74
187.655	79.53
187.875	50.86
188.095	3.75
188.314	163.5
188.534	126.63
188.753	-33.11
188.973	149.16
189.192	140.97
189.412	11.95
189.631	97.96
189.851	118.44
190.07	181.93
190.29	-78.16
190.509	-4.44
190.729	54.95
190.948	183.98
191.168	183.98
191.387	116.39
191.607	5.8
191.826	34.47
192.045	5.8
192.265	-29.01
192.484	102.06
192.704	24.23
192.923	-31.06
193.142	147.11
193.362	46.76
193.581	153.26
193.8	81.58
194.02	102.06
194.239	-18.77
194.458	167.59
194.678	-4.44
194.897	5.8
195.116	-0.34
195.335	63.15
195.555	24.23
195.774	7.85
195.993	145.06
196.212	-4.44
196.432	50.86
196.651	40.62
196.87	-0.34
197.089	204.46
197.308	100.01
197.528	95.91
197.747	-16.73
197.966	-29.01
198.185	183.98
198.404	1.71
198.623	40.62
198.842	83.63
199.062	120.49
199.281	167.59
199.5	24.23
199.719	-16.73
199.938	36.52
200.157	30.38
200.376	73.39
200.595	26.28
200.814	104.11
201.033	-22.87
201.252	145.06
201.471	106.15
201.69	13.99
201.909	30.38
202.128	67.24
202.347	104.11
202.566	87.72
202.785	-47.44
203.004	-22.87
203.223	267.94
203.442	5.8
203.661	-59.73
203.879	59.05
204.098	38.57
204.317	-57.68
204.536	40.62
204.755	77.48
204.974	159.4
205.193	20.14
205.411	155.3
205.63	87.72
205.849	89.77
206.068	63.15
206.287	-10.58
206.505	157.35
206.724	26.28
206.943	-18.77
207.162	-31.06
207.381	124.58
207.599	-16.73
207.818	11.95
208.037	-6.49
208.255	87.72
208.474	52.91
208.693	93.87
208.911	-102.74
209.13	138.92
209.349	149.16
209.567	24.23
209.786	122.54
210.005	73.39
210.223	59.05
210.442	-82.26
210.661	32.43
210.879	46.76
211.098	30.38
211.316	11.95
211.535	69.29
211.753	79.53
211.972	61.1
212.191	-10.58
212.409	42.67
212.628	48.81
212.846	-29.01
213.065	71.34
213.283	30.38
213.502	1.71
213.72	67.24
213.938	-6.49
214.157	-41.3
214.375	124.58
214.594	106.15
214.812	75.43
215.031	13.99
215.249	-22.87
215.467	71.34
215.686	5.8
215.904	52.91
216.122	38.57
216.341	161.45
216.559	57
216.778	102.06
216.996	118.44
217.214	-24.92
217.432	-10.58
217.651	-49.49
217.869	26.28
218.087	24.23
218.306	3.75
218.524	42.67
218.742	18.09
218.96	63.15
219.179	48.81
219.397	-20.82
219.615	198.31
219.833	157.35
220.051	-82.26
220.27	147.11
220.488	149.16
220.706	24.23
220.924	-14.68
221.142	42.67
221.36	48.81
221.578	93.87
221.796	36.52
222.015	24.23
222.233	97.96
222.451	145.06
222.669	40.62
222.887	48.81
223.105	-33.11
223.323	48.81
223.541	-6.49
223.759	44.71
223.977	77.48
224.195	206.5
224.413	9.9
224.631	30.38
224.849	69.29
225.067	165.54
225.285	71.34
225.503	59.05
225.721	-96.6
225.939	-0.34
226.157	50.86
226.375	226.98
226.592	-57.68
226.81	26.28
227.028	75.43
227.246	69.29
227.464	52.91
227.682	77.48
227.9	104.11
228.117	122.54
228.335	32.43
228.553	71.34
228.771	5.8
228.989	83.63
229.206	81.58
229.424	87.72
229.642	48.81
229.86	-43.35
230.077	192.17
230.295	-24.92
230.513	132.78
230.731	22.19
230.948	181.93
231.166	83.63
231.384	-41.3
231.601	-10.58
231.819	120.49
232.037	-26.96
232.254	-45.4
232.472	50.86
232.689	-24.92
232.907	183.98
233.125	-8.53
233.342	-76.12
233.56	32.43
233.777	16.04
233.995	-14.68
234.213	36.52
234.43	87.72
234.648	38.57
234.865	69.29
235.083	69.29
235.3	61.1
235.518	34.47
235.735	132.78
235.953	65.19
236.17	48.81
236.388	20.14
236.605	-18.77
236.822	75.43
237.04	132.78
237.257	9.9
237.475	-6.49
237.692	-2.39
237.909	36.52
238.127	-22.87
238.344	77.48
238.562	-16.73
238.779	-41.3
238.996	-39.25
239.214	20.14
239.431	38.57
239.648	44.71
239.865	44.71
240.083	128.68
240.3	11.95
240.517	-12.63
240.735	100.01
240.952	110.25
241.169	118.44
241.386	65.19
241.603	67.24
241.821	-22.87
242.038	83.63
242.255	87.72
242.472	11.95
242.689	108.2
242.907	46.76
243.124	48.81
243.341	32.43
243.558	-53.59
243.775	-61.78
243.992	-16.73
244.209	102.06
244.426	216.74
244.643	40.62
244.86	30.38
245.078	63.15
245.295	106.15
245.512	65.19
245.729	7.85
245.946	48.81
246.163	34.47
246.38	-20.82
246.597	57
246.814	-78.16
247.031	-4.44
247.248	95.91
247.464	124.58
247.681	-16.73
247.898	-10.58
248.115	114.34
248.332	-24.92
248.549	114.34
248.766	192.17
248.983	71.34
249.2	42.67
249.417	54.95
249.633	-2.39
249.85	67.24
250.067	16.04
250.284	-26.96
250.501	118.44
250.717	57
250.934	-65.88
251.151	36.52
251.368	83.63
251.585	-4.44
251.801	-24.92
252.018	-35.16
252.235	36.52
252.451	-20.82
252.668	85.67
252.885	73.39
253.102	75.43
253.318	61.1
253.535	-63.83
253.752	-8.53
253.968	3.75
254.185	-80.21
254.401	38.57
254.618	28.33
254.835	-24.92
255.051	210.6
255.268	7.85
255.484	44.71
255.701	-33.11
255.917	83.63
256.134	-61.78
256.351	16.04
256.567	-47.44
256.784	24.23
257	-98.64
257.217	124.58
257.433	34.47
257.65	77.48
257.866	114.34
258.082	-39.25
258.299	-8.53
258.515	34.47
258.732	-10.58
258.948	-76.12
259.165	67.24
259.381	18.09
259.597	143.02
259.814	93.87
260.03	-10.58
260.246	22.19
260.463	75.43
260.679	87.72
260.895	65.19
261.112	-35.16
261.328	30.38
261.544	-20.82
261.761	114.34
261.977	-20.82
262.193	16.04
262.409	73.39
262.626	-4.44
262.842	32.43
263.058	-4.44
263.274	40.62
263.49	69.29
263.707	52.91
263.923	40.62
264.139	-74.07
264.355	-8.53
264.571	151.21
264.787	32.43
265.004	104.11
265.22	42.67
265.436	13.99
265.652	52.91
265.868	81.58
266.084	-20.82
266.3	-10.58
266.516	-67.92
266.732	143.02
266.948	59.05
267.164	-41.3
267.38	97.96
267.596	5.8
267.812	138.92
268.028	36.52
268.244	-24.92
268.46	18.09
268.676	42.67
268.892	136.87
269.108	-43.35
269.324	-59.73
269.54	-43.35
269.756	89.77
269.972	-20.82
270.188	-55.64
270.403	-37.2
270.619	24.23
270.835	97.96
271.051	18.09
271.267	54.95
271.483	20.14
271.698	104.11
271.914	112.3
272.13	1.71
272.346	-12.63
272.562	40.62
272.777	85.67
272.993	52.91
273.209	3.75
273.425	149.16
273.64	-74.07
273.856	151.21
274.072	-20.82
274.287	-22.87
274.503	145.06
274.719	81.58
274.934	-37.2
275.15	-10.58
275.366	22.19
275.581	16.04
275.797	22.19
276.012	140.97
276.228	-41.3
276.444	-6.49
276.659	161.45
276.875	7.85
277.09	-16.73
277.306	-41.3
277.521	77.48
277.737	-6.49
277.952	18.09
278.168	89.77
278.383	38.57
278.599	89.77
278.814	46.76
279.03	59.05
279.245	102.06
279.461	-22.87
279.676	118.44
279.892	-57.68
280.107	-92.5
280.322	-82.26
280.538	20.14
280.753	75.43
280.969	48.81
281.184	34.47
281.399	167.59
281.615	30.38
281.83	59.05
282.045	-59.73
282.26	1.71
282.476	-57.68
282.691	69.29
282.906	100.01
283.122	-2.39
283.337	65.19
283.552	52.91
283.767	30.38
283.983	134.82
284.198	24.23
284.413	50.86
284.628	-20.82
284.843	42.67
285.058	161.45
285.274	59.05
285.489	1.71
285.704	153.26
285.919	3.75
286.134	-45.4
286.349	-35.16
286.564	-18.77
286.779	108.2
286.995	-41.3
287.21	9.9
287.425	-6.49
287.64	-37.2
287.855	79.53
288.07	-82.26
288.285	100.01
288.5	163.5
288.715	73.39
288.93	-43.35
289.145	-74.07
289.36	93.87
289.575	13.99
289.79	85.67
290.004	16.04
290.219	126.63
290.434	-14.68
290.649	44.71
290.864	-22.87
291.079	30.38
291.294	40.62
291.509	5.8
291.724	28.33
291.938	9.9
292.153	3.75
292.368	59.05
292.583	3.75
292.798	77.48
293.012	50.86
293.227	116.39
293.442	22.19
293.657	63.15
293.871	91.82
294.086	40.62
294.301	159.4
294.516	128.68
294.73	50.86
294.945	-24.92
295.16	-53.59
295.374	130.73
295.589	110.25
295.804	-39.25
296.018	38.57
296.233	79.53
296.447	65.19
296.662	-67.92
296.877	120.49
297.091	38.57
297.306	20.14
297.52	24.23
297.735	-24.92
297.949	48.81
298.164	69.29
298.378	28.33
298.593	-37.2
298.807	5.8
299.022	67.24
299.236	159.4
299.451	-8.53
299.665	-10.58
299.88	36.52
300.094	87.72
300.309	-12.63
300.523	75.43
300.737	-22.87
300.952	87.72
301.166	22.19
301.381	5.8
301.595	11.95
301.809	-10.58
302.024	67.24
302.238	7.85
302.452	77.48
302.667	38.57
302.881	97.96
303.095	93.87
303.309	11.95
303.524	75.43
303.738	16.04
303.952	3.75
304.166	93.87
304.381	-119.12
304.595	124.58
304.809	-35.16
305.023	24.23
305.237	-16.73
305.452	16.04
305.666	52.91
305.88	11.95
306.094	61.1
306.308	106.15
306.522	57
306.736	13.99
306.95	57
307.164	-14.68
307.379	30.38
307.593	126.63
307.807	124.58
308.021	77.48
308.235	75.43
308.449	-53.59
308.663	24.23
308.877	155.3
309.091	95.91
309.305	36.52
309.519	-76.12
309.733	40.62
309.947	-41.3
310.161	95.91
310.374	67.24
310.588	140.97
310.802	-84.31
311.016	-10.58
311.23	63.15
311.444	-121.17
311.658	-0.34
311.872	13.99
312.085	165.54
312.299	126.63
312.513	73.39
312.727	42.67
312.941	-37.2
313.154	46.76
313.368	42.67
313.582	36.52
313.796	110.25
314.009	16.04
314.223	145.06
314.437	50.86
314.651	81.58
314.864	16.04
315.078	24.23
315.292	-55.64
315.505	-29.01
315.719	7.85
315.933	50.86
316.146	-16.73
316.36	-53.59
316.573	126.63
316.787	108.2
317.001	26.28
317.214	-78.16
317.428	18.09
317.641	13.99
317.855	-10.58
318.068	-37.2
318.282	120.49
318.495	167.59
318.709	67.24
318.922	44.71
319.136	50.86
319.349	71.34
319.563	11.95
319.776	79.53
319.99	-69.97
320.203	106.15
320.417	3.75
320.63	79.53
320.843	214.7
321.057	52.91
321.27	81.58
321.483	89.77
321.697	87.72
321.91	54.95
322.124	7.85
322.337	32.43
322.55	-39.25
322.763	67.24
322.977	18.09
323.19	-47.44
323.403	-53.59
323.617	83.63
323.83	108.2
324.043	67.24
324.256	65.19
324.469	-115.03
324.683	110.25
324.896	71.34
325.109	32.43
325.322	-69.97
325.535	54.95
325.748	157.35
325.962	-20.82
326.175	-2.39
326.388	11.95
326.601	97.96
326.814	3.75
327.027	48.81
327.24	118.44
327.453	-94.55
327.666	22.19
327.879	120.49
328.092	67.24
328.305	110.25
328.518	-69.97
328.731	69.29
328.944	-18.77
329.157	83.63
329.37	-39.25
329.583	95.91
329.796	112.3
330.009	-45.4
330.222	48.81
330.435	102.06
330.648	38.57
330.861	46.76
331.073	38.57
331.286	97.96
331.499	57
331.712	-33.11
331.925	69.29
332.138	22.19
332.35	155.3
332.563	13.99
332.776	202.41
332.989	24.23
333.202	-26.96
333.414	-26.96
333.627	116.39
333.84	-10.58
334.053	116.39
334.265	-67.92
334.478	9.9
334.691	-14.68
334.903	36.52
335.116	-10.58
335.329	16.04
335.541	89.77
335.754	132.78
335.966	57
336.179	71.34
336.392	20.14
336.604	106.15
336.817	104.11
337.029	7.85
337.242	-10.58
337.454	81.58
337.667	77.48
337.88	75.43
338.092	110.25
338.305	42.67
338.517	-37.2
338.729	52.91
338.942	95.91
339.154	3.75
339.367	-49.49
339.579	110.25
339.792	-8.53
340.004	163.5
340.217	-76.12
340.429	-8.53
340.641	-18.77
340.854	-6.49
341.066	40.62
341.278	130.73
341.491	147.11
341.703	36.52
341.915	-29.01
342.128	122.54
342.34	59.05
342.552	-22.87
342.764	32.43
342.977	38.57
343.189	63.15
343.401	-6.49
343.613	-90.45
343.826	36.52
344.038	-8.53
344.25	20.14
344.462	85.67
344.674	28.33
344.886	-8.53
345.099	134.82
345.311	54.95
345.523	30.38
345.735	-76.12
345.947	36.52
346.159	28.33
346.371	71.34
346.583	63.15
346.795	149.16
347.007	-22.87
347.219	71.34
347.431	-41.3
347.643	214.7
347.855	48.81
348.067	118.44
348.279	-47.44
348.491	13.99
348.703	151.21
348.915	22.19
349.127	-0.34
349.339	40.62
349.551	5.8
349.763	132.78
349.975	42.67
350.187	95.91
350.399	130.73
350.61	71.34
350.822	-10.58
351.034	24.23
351.246	50.86
351.458	85.67
351.669	77.48
351.881	42.67
352.093	149.16
352.305	79.53
352.517	73.39
352.728	110.25
352.94	52.91
353.152	59.05
353.363	34.47
353.575	61.1
353.787	122.54
353.999	124.58
354.21	143.02
354.422	-26.96
354.633	-57.68
354.845	48.81
355.057	-35.16
355.268	48.81
355.48	159.4
355.692	-67.92
355.903	52.91
356.115	-31.06
356.326	-78.16
356.538	173.74
356.749	104.11
356.961	165.54
357.172	-29.01
357.384	-53.59
357.595	181.93
357.807	-20.82
358.018	26.28
358.23	93.87
358.441	175.78
358.653	38.57
358.864	1.71
359.075	-65.88
359.287	57
359.498	124.58
359.709	83.63
359.921	-51.54
360.132	24.23
360.344	67.24
360.555	61.1
360.766	85.67
360.977	16.04
361.189	79.53
361.4	54.95
361.611	112.3
361.823	122.54
362.034	30.38
362.245	-0.34
362.456	-55.64
362.667	13.99
362.879	-43.35
363.09	38.57
363.301	40.62
363.512	122.54
363.723	-0.34
363.935	-29.01
364.146	112.3
364.357	81.58
364.568	108.2
364.779	-39.25
364.99	186.02
365.201	-31.06
365.412	100.01
365.623	-8.53
365.834	120.49
366.045	73.39
366.256	97.96
366.467	30.38
366.678	3.75
366.889	1.71
367.1	-12.63
367.311	87.72
367.522	26.28
367.733	93.87
367.944	38.57
368.155	-37.2
368.366	48.81
368.577	95.91
368.788	-20.82
368.999	50.86
369.209	-31.06
369.42	206.5
369.631	229.03
369.842	126.63
370.053	-39.25
370.264	81.58
370.474	-6.49
370.685	46.76
370.896	24.23
371.107	100.01
371.317	1.71
371.528	-14.68
371.739	126.63
371.95	140.97
372.16	110.25
372.371	-53.59
372.582	-41.3
372.792	145.06
373.003	13.99
373.214	36.52
373.424	34.47
373.635	42.67
373.846	93.87
374.056	-2.39
374.267	104.11
374.477	50.86
374.688	-10.58
374.898	57
375.109	48.81
375.319	63.15
375.53	38.57
375.74	116.39
375.951	28.33
376.161	71.34
376.372	130.73
376.582	11.95
376.793	24.23
377.003	32.43
377.214	16.04
377.424	161.45
377.635	11.95
377.845	24.23
378.055	104.11
378.266	-45.4
378.476	16.04
378.686	57
378.897	83.63
379.107	32.43
379.317	108.2
379.528	48.81
379.738	59.05
379.948	5.8
380.158	100.01
380.369	79.53
380.579	20.14
380.789	-2.39
380.999	126.63
381.21	73.39
381.42	190.12
381.63	77.48
381.84	16.04
382.05	46.76
382.261	157.35
382.471	95.91
382.681	-18.77
382.891	126.63
383.101	106.15
383.311	-72.02
383.521	11.95
383.731	100.01
383.941	102.06
384.151	77.48
384.361	-26.96
384.571	32.43
384.781	38.57
384.991	186.02
385.201	237.22
385.411	50.86
385.621	44.71
385.831	83.63
386.041	93.87
386.251	57
386.461	177.83
386.671	18.09
386.881	75.43
387.091	9.9
387.301	140.97
387.511	83.63
387.72	81.58
387.93	104.11
388.14	-20.82
388.35	89.77
388.56	124.58
388.769	69.29
388.979	34.47
389.189	48.81
389.399	48.81
389.609	85.67
389.818	48.81
390.028	48.81
390.238	85.67
390.447	44.71
390.657	-10.58
390.867	13.99
391.076	-90.45
391.286	54.95
391.496	85.67
391.705	34.47
391.915	140.97
392.125	71.34
392.334	-41.3
392.544	95.91
392.753	40.62
392.963	-26.96
393.172	48.81
393.382	-33.11
393.591	147.11
393.801	-29.01
394.01	138.92
394.22	28.33
394.429	95.91
394.639	24.23
394.848	83.63
395.058	40.62
395.267	28.33
395.477	-10.58
395.686	32.43
395.895	183.98
396.105	257.7
396.314	79.53
396.524	77.48
396.733	26.28
396.942	91.82
397.152	132.78
397.361	136.87
397.57	116.39
397.78	75.43
397.989	87.72
398.198	194.22
398.407	24.23
398.617	1.71
398.826	32.43
399.035	32.43
399.244	73.39
399.453	22.19
399.663	40.62
399.872	18.09
400.081	-61.78
400.29	79.53
400.499	-43.35
400.708	97.96
400.917	91.82
401.127	40.62
401.336	20.14
401.545	212.65
401.754	126.63
401.963	50.86
402.172	16.04
402.381	-18.77
402.59	28.33
402.799	50.86
403.008	108.2
403.217	-10.58
403.426	18.09
403.635	-37.2
403.844	65.19
404.053	7.85
404.262	38.57
404.471	128.68
404.68	110.25
404.888	65.19
405.097	38.57
405.306	52.91
405.515	16.04
405.724	44.71
405.933	110.25
406.142	77.48
406.35	112.3
406.559	59.05
406.768	77.48
406.977	159.4
407.185	153.26
407.394	57
407.603	-24.92
407.812	38.57
408.02	91.82
408.229	1.71
408.438	69.29
408.646	-31.06
408.855	-8.53
409.064	91.82
409.272	-47.44
409.481	161.45
409.69	-78.16
409.898	-86.36
410.107	57
410.315	155.3
410.524	-22.87
410.733	81.58
410.941	-0.34
411.15	57
411.358	52.91
411.567	151.21
411.775	3.75
411.984	-53.59
412.192	81.58
412.401	18.09
412.609	95.91
412.818	91.82
413.026	44.71
413.234	-2.39
413.443	104.11
413.651	32.43
413.86	-0.34
414.068	104.11
414.276	177.83
414.485	3.75
414.693	159.4
414.901	143.02
415.11	114.34
415.318	36.52
415.526	26.28
415.734	116.39
415.943	87.72
416.151	140.97
416.359	38.57
416.567	-6.49
416.776	77.48
416.984	93.87
417.192	167.59
417.4	32.43
417.608	34.47
417.817	11.95
418.025	75.43
418.233	181.93
418.441	-69.97
418.649	-26.96
418.857	67.24
419.065	108.2
419.273	30.38
419.481	159.4
419.689	50.86
419.897	28.33
420.105	-88.4
420.313	108.2
420.521	126.63
420.729	28.33
420.937	-0.34
421.145	61.1
421.353	159.4
421.561	143.02
421.769	20.14
421.977	50.86
422.185	73.39
422.393	-0.34
422.601	44.71
422.809	65.19
423.017	1.71
423.224	5.8
423.432	85.67
423.64	95.91
423.848	136.87
424.056	36.52
424.263	100.01
424.471	83.63
424.679	177.83
424.887	-31.06
425.094	122.54
425.302	61.1
425.51	89.77
425.718	67.24
425.925	112.3
426.133	65.19
426.341	173.74
426.548	54.95
426.756	20.14
426.964	87.72
427.171	20.14
427.379	145.06
427.586	16.04
427.794	132.78
428.001	159.4
428.209	50.86
428.417	112.3
428.624	173.74
428.832	65.19
429.039	50.86
429.247	75.43
429.454	89.77
429.662	255.65
429.869	83.63
430.076	83.63
430.284	73.39
430.491	163.5
430.699	110.25
430.906	157.35
431.114	110.25
431.321	77.48
431.528	71.34
431.736	110.25
431.943	140.97
432.15	81.58
432.358	235.18
432.565	282.28
432.772	36.52
432.979	257.7
433.187	151.21
433.394	226.98
433.601	138.92
433.808	188.07
434.016	251.56
434.223	179.88
434.43	282.28
434.637	245.41
434.844	220.84
435.052	286.37
435.259	321.19
435.466	218.79
435.673	222.89
435.88	257.7
436.087	310.95
436.294	292.52
436.501	269.99
436.708	210.6
436.915	315.05
437.122	331.43
437.329	339.62
437.537	349.86
437.743	384.68
437.95	523.94
438.157	376.48
438.364	368.29
438.571	392.87
438.778	401.06
438.985	386.72
439.192	478.88
439.399	450.21
439.606	360.1
439.813	581.28
440.02	548.51
440.227	614.05
440.433	532.13
440.64	525.99
440.847	501.41
441.054	568.99
441.261	669.34
441.467	575.14
441.674	554.66
441.881	734.88
442.088	638.62
442.294	616.1
442.501	712.35
442.708	751.26
442.914	765.6
443.121	896.67
443.328	898.72
443.534	935.58
443.741	870.05
443.948	790.17
444.154	976.54
444.361	1173.14
444.568	1021.6
444.774	1066.65
444.981	958.11
445.187	1140.38
445.394	1185.43
445.6	1021.6
445.807	1257.11
446.013	1240.73
446.22	1232.54
446.426	1488.53
446.633	1502.87
446.839	1654.42
447.046	1353.37
447.252	1527.44
447.459	1656.47
447.665	1660.56
447.871	1853.07
448.078	1945.23
448.284	1863.31
448.491	1947.28
448.697	2045.58
448.903	2072.2
449.11	2203.27
449.316	2180.75
449.522	2434.69
449.728	2504.32
449.935	2512.52
450.141	2565.76
450.347	2588.29
450.553	2684.55
450.76	2807.42
450.966	2956.93
451.172	3040.89
451.378	3122.81
451.584	3221.11
451.791	3305.08
451.997	3462.77
452.203	3464.82
452.409	3784.3
452.615	3855.98
452.821	3827.31
453.027	3925.61
453.233	4396.65
453.44	4204.14
453.646	4310.63
453.852	4519.53
454.058	4679.27
454.264	4828.77
454.47	5283.42
454.676	5326.43
454.882	5901.9
455.088	5609.05
455.294	5875.28
455.5	6188.62
455.705	6538.82
455.911	6690.37
456.117	6696.52
456.323	7145.02
456.529	7013.95
456.735	7509.56
456.941	7806.52
457.147	7962.16
457.352	8429.1
457.558	8644.13
457.764	9023.01
457.97	9285.15
458.176	9700.89
458.381	10094.1
458.587	10386.96
458.793	10800.65
458.999	10954.24
459.204	12234.22
459.41	12809.7
459.616	12889.57
459.821	13127.14
460.027	13632.99
460.233	14290.38
460.438	14511.57
460.644	15355.33
460.85	15365.57
461.055	16133.56
461.261	16952.74
461.466	16545.2
461.672	16786.86
461.878	19051.91
462.083	18742.67
462.289	19180.93
462.494	19953.02
462.7	19735.93
462.905	20297.08
463.111	22150.49
463.316	23041.36
463.522	23356.74
463.727	23967.04
463.932	24859.95
464.138	26058.01
464.343	26764.56
464.549	27305.23
464.754	28853.49
464.959	29869.28
465.165	30328.03
465.37	30246.11
465.575	30033.12
465.781	32236.73
465.986	33127.6
466.191	31898.82
466.397	32879.8
466.602	32079.04
466.807	33768.62
467.012	34835.61
467.218	34964.63
467.423	35112.08
467.628	36459.65
467.833	37827.69
468.038	37178.48
468.244	36471.93
468.449	38528.09
468.654	37370.99
468.859	37801.07
