Data from USB4F104151__297__11-21-25-727.txt Node

Date: Wed Feb 26 11:21:25 EST 2025
User: louis
Spectrometer: USB4F10415
Trigger mode: 4
Integration Time (sec): 1.000000E-1
Scans to average: 1
Electric dark correction enabled: true
Nonlinearity correction enabled: false
Boxcar width: 0
XAxis mode: Wavelengths
Number of Pixels in Spectrum: 3648
>>>>>Begin Spectral Data<<<<<
178.204	-437.58
178.424	-437.58
178.644	-437.58
178.864	-394.58
179.084	-335.18
179.304	43.69
179.524	-79.19
179.744	64.17
179.964	92.84
180.184	47.79
180.404	-21.85
180.624	-85.33
180.844	33.45
181.064	-44.37
181.283	-36.18
181.503	-66.9
181.723	51.88
181.943	-62.8
182.163	172.71
182.383	-52.56
182.602	125.61
182.822	148.14
183.042	12.97
183.262	-36.18
183.482	64.17
183.701	47.79
183.921	15.02
184.141	-38.23
184.361	4.78
184.58	39.59
184.8	103.08
185.02	17.07
185.239	113.32
185.459	39.59
185.679	168.62
185.898	-103.76
186.118	-1.37
186.338	-1.37
186.557	133.8
186.777	-46.42
186.997	-48.47
187.216	-64.85
187.436	201.38
187.655	58.03
187.875	74.41
188.095	29.35
188.314	146.09
188.534	96.94
188.753	-44.37
188.973	144.04
189.192	193.19
189.412	-71
189.631	37.55
189.851	74.41
190.07	146.09
190.29	-44.37
190.509	-54.61
190.729	41.64
190.948	195.24
191.168	244.39
191.387	148.14
191.607	129.7
191.826	62.12
192.045	-42.32
192.265	-81.24
192.484	88.75
192.704	2.73
192.923	-5.46
193.142	232.1
193.362	58.03
193.581	187.05
193.8	-1.37
194.02	96.94
194.239	68.27
194.458	66.22
194.678	-42.32
194.897	-46.42
195.116	62.12
195.335	98.99
195.555	111.27
195.774	-9.56
195.993	105.13
196.212	-9.56
196.432	15.02
196.651	-13.65
196.87	-21.85
197.089	185
197.308	76.46
197.528	76.46
197.747	-44.37
197.966	90.79
198.185	68.27
198.404	12.97
198.623	96.94
198.842	92.84
199.062	129.7
199.281	111.27
199.5	6.83
199.719	105.13
199.938	35.5
200.157	74.41
200.376	101.03
200.595	178.86
200.814	-25.94
201.033	31.4
201.252	195.24
201.471	49.83
201.69	60.07
201.909	4.78
202.128	158.38
202.347	92.84
202.566	60.07
202.785	-95.57
203.004	2.73
203.223	240.3
203.442	31.4
203.661	6.83
203.879	103.08
204.098	150.18
204.317	-36.18
204.536	80.55
204.755	146.09
204.974	166.57
205.193	-62.8
205.411	154.28
205.63	17.07
205.849	29.35
206.068	-42.32
206.287	-68.95
206.505	137.9
206.724	-5.46
206.943	-44.37
207.162	0.68
207.381	49.83
207.599	31.4
207.818	119.46
208.037	-50.52
208.255	23.21
208.474	29.35
208.693	84.65
208.911	31.4
209.13	90.79
209.349	86.7
209.567	129.7
209.786	15.02
210.005	84.65
210.223	53.93
210.442	-62.8
210.661	-3.41
210.879	45.74
211.098	68.27
211.316	117.42
211.535	109.23
211.753	41.64
211.972	117.42
212.191	-1.37
212.409	47.79
212.628	154.28
212.846	-1.37
213.065	10.92
213.283	78.51
213.502	53.93
213.72	21.16
213.938	6.83
214.157	29.35
214.375	96.94
214.594	-1.37
214.812	129.7
215.031	-15.7
215.249	66.22
215.467	-13.65
215.686	37.55
215.904	15.02
216.122	25.26
216.341	185
216.559	2.73
216.778	156.33
216.996	137.9
217.214	47.79
217.432	-66.9
217.651	-17.75
217.869	19.11
218.087	72.36
218.306	66.22
218.524	12.97
218.742	64.17
218.96	144.04
219.179	-25.94
219.397	51.88
219.615	225.96
219.833	172.71
220.051	-13.65
220.27	158.38
220.488	64.17
220.706	41.64
220.924	39.59
221.142	-13.65
221.36	51.88
221.578	64.17
221.796	29.35
222.015	62.12
222.233	-17.75
222.451	154.28
222.669	-58.71
222.887	121.51
223.105	41.64
223.323	25.26
223.541	33.45
223.759	72.36
223.977	62.12
224.195	154.28
224.413	82.6
224.631	47.79
224.849	-13.65
225.067	174.76
225.285	2.73
225.503	45.74
225.721	-46.42
225.939	-66.9
226.157	92.84
226.375	217.77
226.592	0.68
226.81	39.59
227.028	154.28
227.246	127.66
227.464	105.13
227.682	53.93
227.9	74.41
228.117	45.74
228.335	74.41
228.553	-21.85
228.771	-21.85
228.989	33.45
229.206	80.55
229.424	-23.89
229.642	51.88
229.86	-3.41
230.077	137.9
230.295	4.78
230.513	84.65
230.731	96.94
230.948	88.75
231.166	195.24
231.384	-5.46
231.601	-40.28
231.819	113.32
232.037	-1.37
232.254	-56.66
232.472	10.92
232.689	-34.13
232.907	117.42
233.125	-44.37
233.342	31.4
233.56	60.07
233.777	-19.8
233.995	-54.61
234.213	121.51
234.43	41.64
234.648	101.03
234.865	68.27
235.083	60.07
235.3	17.07
235.518	88.75
235.735	180.9
235.953	123.56
236.17	113.32
236.388	31.4
236.605	-5.46
236.822	66.22
237.04	217.77
237.257	-5.46
237.475	-111.96
237.692	4.78
237.909	55.98
238.127	-13.65
238.344	84.65
238.562	58.03
238.779	-13.65
238.996	-34.13
239.214	23.21
239.431	117.42
239.648	-36.18
239.865	121.51
240.083	76.46
240.3	41.64
240.517	-7.51
240.735	53.93
240.952	115.37
241.169	39.59
241.386	19.11
241.603	47.79
241.821	-17.75
242.038	92.84
242.255	92.84
242.472	-25.94
242.689	115.37
242.907	125.61
243.124	74.41
243.341	25.26
243.558	-1.37
243.775	-48.47
243.992	-54.61
244.209	55.98
244.426	168.62
244.643	43.69
244.86	10.92
245.078	72.36
245.295	45.74
245.512	78.51
245.729	25.26
245.946	86.7
246.163	39.59
246.38	17.07
246.597	33.45
246.814	29.35
247.031	64.17
247.248	107.18
247.464	88.75
247.681	23.21
247.898	60.07
248.115	68.27
248.332	8.87
248.549	125.61
248.766	111.27
248.983	76.46
249.2	101.03
249.417	146.09
249.633	31.4
249.85	64.17
250.067	10.92
250.284	41.64
250.501	82.6
250.717	109.23
250.934	-17.75
251.151	39.59
251.368	-21.85
251.585	45.74
251.801	80.55
252.018	-23.89
252.235	98.99
252.451	-23.89
252.668	-38.23
252.885	152.23
253.102	101.03
253.318	31.4
253.535	55.98
253.752	-19.8
253.968	-32.08
254.185	-27.99
254.401	64.17
254.618	80.55
254.835	-7.51
255.051	123.56
255.268	58.03
255.484	80.55
255.701	31.4
255.917	17.07
256.134	21.16
256.351	33.45
256.567	6.83
256.784	39.59
257	-40.28
257.217	53.93
257.433	62.12
257.65	107.18
257.866	68.27
258.082	-23.89
258.299	-23.89
258.515	49.83
258.732	6.83
258.948	23.21
259.165	109.23
259.381	-44.37
259.597	84.65
259.814	23.21
260.03	-62.8
260.246	49.83
260.463	105.13
260.679	129.7
260.895	21.16
261.112	12.97
261.328	92.84
261.544	-87.38
261.761	160.42
261.977	60.07
262.193	-7.51
262.409	105.13
262.626	72.36
262.842	66.22
263.058	-19.8
263.274	55.98
263.49	174.76
263.707	53.93
263.923	90.79
264.139	-32.08
264.355	84.65
264.571	72.36
264.787	146.09
265.004	174.76
265.22	62.12
265.436	-11.61
265.652	23.21
265.868	4.78
266.084	19.11
266.3	6.83
266.516	-48.47
266.732	107.18
266.948	55.98
267.164	15.02
267.38	182.95
267.596	209.58
267.812	146.09
268.028	47.79
268.244	-60.76
268.46	82.6
268.676	66.22
268.892	115.37
269.108	-87.38
269.324	10.92
269.54	-15.7
269.756	103.08
269.972	-13.65
270.188	10.92
270.403	-75.09
270.619	-9.56
270.835	94.89
271.051	86.7
271.267	-17.75
271.483	-71
271.698	101.03
271.914	154.28
272.13	-19.8
272.346	84.65
272.562	-17.75
272.777	115.37
272.993	-5.46
273.209	35.5
273.425	88.75
273.64	-60.76
273.856	121.51
274.072	-103.76
274.287	-11.61
274.503	31.4
274.719	92.84
274.934	33.45
275.15	-40.28
275.366	25.26
275.581	-27.99
275.797	49.83
276.012	19.11
276.228	-15.7
276.444	111.27
276.659	127.66
276.875	-9.56
277.09	70.31
277.306	-21.85
277.521	43.69
277.737	15.02
277.952	96.94
278.168	31.4
278.383	39.59
278.599	78.51
278.814	78.51
279.03	23.21
279.245	84.65
279.461	8.87
279.676	109.23
279.892	-97.62
280.107	21.16
280.322	33.45
280.538	160.42
280.753	-25.94
280.969	45.74
281.184	39.59
281.399	211.62
281.615	129.7
281.83	-9.56
282.045	-38.23
282.26	-9.56
282.476	70.31
282.691	98.99
282.906	6.83
283.122	105.13
283.337	-46.42
283.552	84.65
283.767	-7.51
283.983	70.31
284.198	23.21
284.413	41.64
284.628	-42.32
284.843	51.88
285.058	78.51
285.274	64.17
285.489	-36.18
285.704	111.27
285.919	-7.51
286.134	-36.18
286.349	45.74
286.564	19.11
286.779	96.94
286.995	-9.56
287.21	-95.57
287.425	10.92
287.64	17.07
287.855	31.4
288.07	15.02
288.285	62.12
288.5	135.85
288.715	66.22
288.93	15.02
289.145	35.5
289.36	96.94
289.575	15.02
289.79	129.7
290.004	49.83
290.219	160.42
290.434	-62.8
290.649	8.87
290.864	-5.46
291.079	23.21
291.294	0.68
291.509	111.27
291.724	-54.61
291.938	-38.23
292.153	80.55
292.368	-13.65
292.583	86.7
292.798	80.55
293.012	103.08
293.227	111.27
293.442	-97.62
293.657	119.46
293.871	78.51
294.086	72.36
294.301	150.18
294.516	129.7
294.73	58.03
294.945	-36.18
295.16	10.92
295.374	152.23
295.589	74.41
295.804	-48.47
296.018	-3.41
296.233	166.57
296.447	37.55
296.662	51.88
296.877	152.23
297.091	152.23
297.306	49.83
297.52	2.73
297.735	41.64
297.949	41.64
298.164	90.79
298.378	12.97
298.593	-93.52
298.807	43.69
299.022	8.87
299.236	189.1
299.451	27.31
299.665	37.55
299.88	41.64
300.094	58.03
300.309	45.74
300.523	37.55
300.737	6.83
300.952	78.51
301.166	55.98
301.381	-5.46
301.595	23.21
301.809	45.74
302.024	4.78
302.238	66.22
302.452	139.94
302.667	70.31
302.881	92.84
303.095	107.18
303.309	-15.7
303.524	43.69
303.738	12.97
303.952	4.78
304.166	12.97
304.381	-103.76
304.595	154.28
304.809	-46.42
305.023	-19.8
305.237	-40.28
305.452	23.21
305.666	111.27
305.88	129.7
306.094	23.21
306.308	64.17
306.522	74.41
306.736	37.55
306.95	98.99
307.164	17.07
307.379	21.16
307.593	133.8
307.807	105.13
308.021	111.27
308.235	103.08
308.449	-17.75
308.663	129.7
308.877	201.38
309.091	23.21
309.305	141.99
309.519	-52.56
309.733	180.9
309.947	-48.47
310.161	-19.8
310.374	49.83
310.588	107.18
310.802	-40.28
311.016	-77.14
311.23	-36.18
311.444	-44.37
311.658	78.51
311.872	96.94
312.085	72.36
312.299	105.13
312.513	90.79
312.727	31.4
312.941	-54.61
313.154	43.69
313.368	23.21
313.582	23.21
313.796	98.99
314.009	-17.75
314.223	139.94
314.437	86.7
314.651	98.99
314.864	-25.94
315.078	33.45
315.292	-1.37
315.505	45.74
315.719	53.93
315.933	60.07
316.146	-9.56
316.36	-79.19
316.573	103.08
316.787	158.38
317.001	41.64
317.214	-56.66
317.428	4.78
317.641	-7.51
317.855	-13.65
318.068	105.13
318.282	49.83
318.495	115.37
318.709	37.55
318.922	39.59
319.136	180.9
319.349	92.84
319.563	19.11
319.776	127.66
319.99	-152.91
320.203	133.8
320.417	51.88
320.63	39.59
320.843	234.15
321.057	80.55
321.27	-19.8
321.483	113.32
321.697	152.23
321.91	23.21
322.124	107.18
322.337	72.36
322.55	-95.57
322.763	17.07
322.977	2.73
323.19	-21.85
323.403	92.84
323.617	80.55
323.83	66.22
324.043	33.45
324.256	31.4
324.469	-19.8
324.683	152.23
324.896	-11.61
325.109	15.02
325.322	-132.44
325.535	127.66
325.748	109.23
325.962	82.6
326.175	25.26
326.388	66.22
326.601	96.94
326.814	35.5
327.027	25.26
327.24	141.99
327.453	-40.28
327.666	45.74
327.879	117.42
328.092	27.31
328.305	39.59
328.518	12.97
328.731	10.92
328.944	4.78
329.157	47.79
329.37	-97.62
329.583	166.57
329.796	154.28
330.009	-17.75
330.222	78.51
330.435	119.46
330.648	-9.56
330.861	76.46
331.073	45.74
331.286	92.84
331.499	12.97
331.712	-73.04
331.925	10.92
332.138	21.16
332.35	49.83
332.563	17.07
332.776	66.22
332.989	-79.19
333.202	-42.32
333.414	29.35
333.627	43.69
333.84	53.93
334.053	25.26
334.265	-7.51
334.478	25.26
334.691	29.35
334.903	66.22
335.116	-54.61
335.329	-9.56
335.541	135.85
335.754	150.18
335.966	8.87
336.179	58.03
336.392	27.31
336.604	45.74
336.817	164.52
337.029	41.64
337.242	51.88
337.454	101.03
337.667	80.55
337.88	98.99
338.092	43.69
338.305	58.03
338.517	33.45
338.729	150.18
338.942	103.08
339.154	-32.08
339.367	2.73
339.579	139.94
339.792	51.88
340.004	158.38
340.217	-64.85
340.429	80.55
340.641	-50.52
340.854	4.78
341.066	72.36
341.278	146.09
341.491	144.04
341.703	88.75
341.915	-30.04
342.128	150.18
342.34	51.88
342.552	41.64
342.764	84.65
342.977	51.88
343.189	60.07
343.401	72.36
343.613	-15.7
343.826	68.27
344.038	-19.8
344.25	39.59
344.462	25.26
344.674	53.93
344.886	41.64
345.099	139.94
345.311	19.11
345.523	51.88
345.735	-77.14
345.947	109.23
346.159	113.32
346.371	80.55
346.583	41.64
346.795	240.3
347.007	-3.41
347.219	66.22
347.431	-1.37
347.643	43.69
347.855	35.5
348.067	139.94
348.279	-27.99
348.491	23.21
348.703	127.66
348.915	25.26
349.127	6.83
349.339	41.64
349.551	64.17
349.763	98.99
349.975	47.79
350.187	111.27
350.399	187.05
350.61	29.35
350.822	21.16
351.034	43.69
351.246	64.17
351.458	70.31
351.669	78.51
351.881	105.13
352.093	129.7
352.305	146.09
352.517	90.79
352.728	107.18
352.94	12.97
353.152	101.03
353.363	-46.42
353.575	121.51
353.787	164.52
353.999	127.66
354.21	86.7
354.422	10.92
354.633	-25.94
354.845	66.22
355.057	70.31
355.268	23.21
355.48	152.23
355.692	64.17
355.903	60.07
356.115	-62.8
356.326	-128.34
356.538	129.7
356.749	72.36
356.961	113.32
357.172	68.27
357.384	4.78
357.595	195.24
357.807	-52.56
358.018	23.21
358.23	41.64
358.441	150.18
358.653	76.46
358.864	31.4
359.075	66.22
359.287	43.69
359.498	-1.37
359.709	92.84
359.921	25.26
360.132	62.12
360.344	19.11
360.555	6.83
360.766	37.55
360.977	45.74
361.189	80.55
361.4	17.07
361.611	119.46
361.823	135.85
362.034	119.46
362.245	-87.38
362.456	-21.85
362.667	115.37
362.879	-91.48
363.09	15.02
363.301	107.18
363.512	2.73
363.723	-32.08
363.935	-1.37
364.146	74.41
364.357	19.11
364.568	139.94
364.779	-21.85
364.99	123.56
365.201	-62.8
365.412	21.16
365.623	-34.13
365.834	39.59
366.045	49.83
366.256	78.51
366.467	49.83
366.678	31.4
366.889	72.36
367.1	53.93
367.311	72.36
367.522	-3.41
367.733	35.5
367.944	90.79
368.155	55.98
368.366	109.23
368.577	146.09
368.788	139.94
368.999	-38.23
369.209	88.75
369.42	150.18
369.631	180.9
369.842	129.7
370.053	64.17
370.264	39.59
370.474	-13.65
370.685	74.41
370.896	31.4
371.107	103.08
371.317	-52.56
371.528	23.21
371.739	135.85
371.95	78.51
372.16	64.17
372.371	6.83
372.582	58.03
372.792	103.08
373.003	29.35
373.214	88.75
373.424	146.09
373.635	-27.99
373.846	113.32
374.056	25.26
374.267	6.83
374.477	47.79
374.688	0.68
374.898	23.21
375.109	96.94
375.319	68.27
375.53	139.94
375.74	115.37
375.951	10.92
376.161	17.07
376.372	129.7
376.582	27.31
376.793	39.59
377.003	-9.56
377.214	0.68
377.424	141.99
377.635	88.75
377.845	86.7
378.055	76.46
378.266	-17.75
378.476	-5.46
378.686	60.07
378.897	10.92
379.107	94.89
379.317	23.21
379.528	-46.42
379.738	158.38
379.948	8.87
380.158	96.94
380.369	90.79
380.579	137.9
380.789	2.73
380.999	105.13
381.21	51.88
381.42	215.72
381.63	-3.41
381.84	45.74
382.05	101.03
382.261	53.93
382.471	129.7
382.681	-30.04
382.891	154.28
383.101	43.69
383.311	-50.52
383.521	-34.13
383.731	6.83
383.941	39.59
384.151	76.46
384.361	86.7
384.571	17.07
384.781	62.12
384.991	185
385.201	217.77
385.411	45.74
385.621	98.99
385.831	15.02
386.041	-19.8
386.251	141.99
386.461	98.99
386.671	-7.51
386.881	70.31
387.091	-17.75
387.301	39.59
387.511	78.51
387.72	19.11
387.93	76.46
388.14	-19.8
388.35	90.79
388.56	129.7
388.769	33.45
388.979	0.68
389.189	-32.08
389.399	76.46
389.609	101.03
389.818	170.66
390.028	150.18
390.238	47.79
390.447	55.98
390.657	78.51
390.867	-58.71
391.076	-89.43
391.286	4.78
391.496	-17.75
391.705	80.55
391.915	47.79
392.125	109.23
392.334	-30.04
392.544	174.76
392.753	66.22
392.963	-34.13
393.172	41.64
393.382	-5.46
393.591	234.15
393.801	70.31
394.01	152.23
394.22	92.84
394.429	-17.75
394.639	43.69
394.848	55.98
395.058	92.84
395.267	82.6
395.477	109.23
395.686	66.22
395.895	174.76
396.105	211.62
396.314	29.35
396.524	-19.8
396.733	-75.09
396.942	64.17
397.152	84.65
397.361	133.8
397.57	109.23
397.78	17.07
397.989	60.07
398.198	135.85
398.407	51.88
398.617	53.93
398.826	68.27
399.035	98.99
399.244	137.9
399.453	43.69
399.663	78.51
399.872	152.23
400.081	-50.52
400.29	189.1
400.499	-54.61
400.708	158.38
400.917	51.88
401.127	125.61
401.336	-34.13
401.545	137.9
401.754	129.7
401.963	98.99
402.172	4.78
402.381	-46.42
402.59	117.42
402.799	58.03
403.008	223.91
403.217	105.13
403.426	98.99
403.635	-17.75
403.844	51.88
404.053	41.64
404.262	19.11
404.471	141.99
404.68	72.36
404.888	25.26
405.097	39.59
405.306	47.79
405.515	0.68
405.724	-3.41
405.933	137.9
406.142	76.46
406.35	96.94
406.559	-11.61
406.768	66.22
406.977	178.86
407.185	101.03
407.394	115.37
407.603	-60.76
407.812	60.07
408.02	135.85
408.229	80.55
408.438	41.64
408.646	-68.95
408.855	82.6
409.064	84.65
409.272	74.41
409.481	137.9
409.69	10.92
409.898	-9.56
410.107	-1.37
410.315	92.84
410.524	-19.8
410.733	45.74
410.941	-44.37
411.15	103.08
411.358	94.89
411.567	154.28
411.775	10.92
411.984	21.16
412.192	109.23
412.401	15.02
412.609	129.7
412.818	49.83
413.026	64.17
413.234	45.74
413.443	37.55
413.651	-34.13
413.86	62.12
414.068	96.94
414.276	180.9
414.485	-27.99
414.693	146.09
414.901	238.25
415.11	25.26
415.318	25.26
415.526	96.94
415.734	119.46
415.943	109.23
416.151	180.9
416.359	62.12
416.567	146.09
416.776	156.33
416.984	117.42
417.192	150.18
417.4	8.87
417.608	6.83
417.817	47.79
418.025	103.08
418.233	185
418.441	-9.56
418.649	23.21
418.857	162.47
419.065	133.8
419.273	-66.9
419.481	68.27
419.689	49.83
419.897	12.97
420.105	-1.37
420.313	144.04
420.521	121.51
420.729	90.79
420.937	82.6
421.145	6.83
421.353	158.38
421.561	139.94
421.769	19.11
421.977	21.16
422.185	33.45
422.393	51.88
422.601	76.46
422.809	64.17
423.017	29.35
423.224	131.75
423.432	88.75
423.64	-58.71
423.848	197.29
424.056	-40.28
424.263	146.09
424.471	55.98
424.679	96.94
424.887	-89.43
425.094	131.75
425.302	58.03
425.51	41.64
425.718	127.66
425.925	58.03
426.133	-62.8
426.341	217.77
426.548	45.74
426.756	-1.37
426.964	58.03
427.171	35.5
427.379	78.51
427.586	58.03
427.794	133.8
428.001	60.07
428.209	55.98
428.417	117.42
428.624	119.46
428.832	47.79
429.039	152.23
429.247	125.61
429.454	115.37
429.662	199.34
429.869	144.04
430.076	156.33
430.284	152.23
430.491	125.61
430.699	193.19
430.906	238.25
431.114	131.75
431.321	182.95
431.528	115.37
431.736	80.55
431.943	146.09
432.15	168.62
432.358	98.99
432.565	299.69
432.772	76.46
432.979	185
433.187	195.24
433.394	215.72
433.601	107.18
433.808	234.15
434.016	254.63
434.223	164.52
434.43	232.1
434.637	170.66
434.844	254.63
435.052	164.52
435.259	361.13
435.466	285.35
435.673	221.86
435.88	283.3
436.087	248.49
436.294	326.31
436.501	258.73
436.708	176.81
436.915	223.91
437.122	340.65
437.329	221.86
437.537	309.93
437.743	295.59
437.95	385.7
438.157	320.17
438.364	404.13
438.571	371.37
438.778	424.61
438.985	385.7
439.192	408.23
439.399	375.46
439.606	441
439.813	506.53
440.02	617.12
440.227	586.4
440.433	502.44
440.64	535.2
440.847	400.04
441.054	608.93
441.261	707.23
441.467	621.22
441.674	543.39
441.881	651.94
442.088	598.69
442.294	688.8
442.501	711.33
442.708	799.39
442.914	768.67
443.121	729.76
443.328	776.86
443.534	883.36
443.741	717.47
443.948	692.9
444.154	938.65
444.361	1053.34
444.568	920.22
444.774	938.65
444.981	975.52
445.187	1127.07
445.394	1086.11
445.6	1077.91
445.807	1200.79
446.013	1237.66
446.22	1106.59
446.426	1303.19
446.633	1368.73
446.839	1540.76
447.046	1286.81
447.252	1415.83
447.459	1522.32
447.665	1366.68
447.871	1692.3
448.078	1733.26
448.284	1772.18
448.491	1938.06
448.697	1991.31
448.903	2056.84
449.11	1997.45
449.316	1954.44
449.522	2167.43
449.728	2329.22
449.935	2245.26
450.141	2396.81
450.347	2595.46
450.553	2458.25
450.76	2652.8
450.966	2648.71
451.172	2857.6
451.378	2898.56
451.584	3013.24
451.791	3283.58
451.997	3222.14
452.203	3201.66
452.409	3519.09
452.615	3543.67
452.821	3504.76
453.027	3471.99
453.233	3983.98
453.44	3914.35
453.646	3965.55
453.852	4282.99
454.058	4489.83
454.264	4414.06
454.47	4811.36
454.676	4938.34
454.882	5296.73
455.088	5032.54
455.294	5386.84
455.5	5747.28
455.705	6021.71
455.911	5997.14
456.117	6036.05
456.323	6427.21
456.529	6425.16
456.735	7105.09
456.941	7133.76
457.147	7479.86
457.352	7602.74
457.558	7748.15
457.764	8215.09
457.97	8505.9
458.176	8878.63
458.381	9323.04
458.587	9288.22
458.793	9859.6
458.999	9900.56
459.204	11078.15
459.41	11547.13
459.616	11276.8
459.821	11954.68
460.027	12773.86
460.233	13236.7
460.438	13158.88
460.644	13869.53
460.85	14033.36
461.055	14543.31
461.261	15268.29
461.466	14739.91
461.672	15358.4
461.878	17148.32
462.083	16699.82
462.289	17322.4
462.494	17736.09
462.7	18178.45
462.905	18157.97
463.111	19696
463.316	20660.59
463.522	21207.4
463.727	22036.83
463.932	22401.36
464.138	23267.66
464.343	24164.67
464.549	24490.29
464.754	26186.01
464.959	26810.64
465.165	27427.08
465.37	27330.83
465.575	27140.36
465.781	29147.37
465.986	29958.37
466.191	29614.31
466.397	29956.32
466.602	29305.07
466.807	30646.49
467.012	31559.88
467.218	31510.73
467.423	31647.94
467.628	33061.04
467.833	34300.06
468.038	33894.57
468.244	33212.59
468.449	34963.61
468.654	34115.75
