Data from USB4F104151__154__11-04-31-138.txt Node

Date: Wed Feb 26 11:04:31 EST 2025
User: louis
Spectrometer: USB4F10415
Trigger mode: 4
Integration Time (sec): 1.000000E-1
Scans to average: 1
Electric dark correction enabled: true
Nonlinearity correction enabled: false
Boxcar width: 0
XAxis mode: Wavelengths
Number of Pixels in Spectrum: 3648
>>>>>Begin Spectral Data<<<<<
178.204	-425.47
178.424	-425.47
178.644	-425.47
178.864	-378.36
179.084	-421.37
179.304	-40.45
179.524	-3.58
179.744	-56.83
179.964	18.94
180.184	76.29
180.404	2.56
180.624	-7.68
180.844	14.85
181.064	-15.87
181.283	33.28
181.503	-50.69
181.723	29.18
181.943	-103.93
182.163	178.69
182.383	-40.45
182.602	64
182.822	174.59
183.042	88.57
183.262	8.7
183.482	37.38
183.701	88.57
183.921	45.57
184.141	-75.26
184.361	66.05
184.58	68.09
184.8	94.72
185.02	-40.45
185.239	0.51
185.459	74.24
185.679	80.38
185.898	-89.6
186.118	74.24
186.338	45.57
186.557	137.73
186.777	-50.69
186.997	-24.06
187.216	35.33
187.436	170.49
187.655	20.99
187.875	66.05
188.095	-32.26
188.314	213.5
188.534	53.76
188.753	6.66
188.973	156.16
189.192	147.97
189.412	68.09
189.631	45.57
189.851	-11.78
190.07	145.92
190.29	-67.07
190.509	-15.87
190.729	-15.87
190.948	74.24
191.168	221.69
191.387	41.47
191.607	-40.45
191.826	23.04
192.045	57.86
192.265	39.42
192.484	23.04
192.704	10.75
192.923	-91.65
193.142	152.06
193.362	72.19
193.581	18.94
193.8	59.9
194.02	121.34
194.239	43.52
194.458	55.81
194.678	-7.68
194.897	-22.02
195.116	61.95
195.335	-22.02
195.555	96.77
195.774	35.33
195.993	133.63
196.212	74.24
196.432	2.56
196.651	31.23
196.87	-95.74
197.089	186.88
197.308	35.33
197.528	121.34
197.747	4.61
197.966	119.29
198.185	51.71
198.404	-11.78
198.623	104.96
198.842	117.25
199.062	64
199.281	109.05
199.5	18.94
199.719	0.51
199.938	41.47
200.157	31.23
200.376	113.15
200.595	143.87
200.814	37.38
201.033	-48.64
201.252	102.91
201.471	27.14
201.69	92.67
201.909	64
202.128	119.29
202.347	59.9
202.566	37.38
202.785	-44.54
203.004	-54.78
203.223	219.64
203.442	-1.54
203.661	-52.74
203.879	90.62
204.098	88.57
204.317	-71.17
204.536	78.33
204.755	80.38
204.974	203.26
205.193	-67.07
205.411	178.69
205.63	61.95
205.849	-46.59
206.068	41.47
206.287	-44.54
206.505	225.79
206.724	-50.69
206.943	18.94
207.162	-22.02
207.381	-11.78
207.599	35.33
207.818	96.77
208.037	-26.11
208.255	-15.87
208.474	8.7
208.693	64
208.911	23.04
209.13	88.57
209.349	152.06
209.567	27.14
209.786	145.92
210.005	86.53
210.223	82.43
210.442	-81.41
210.661	-3.58
210.879	55.81
211.098	4.61
211.316	43.52
211.535	41.47
211.753	39.42
211.972	104.96
212.191	20.99
212.409	-13.82
212.628	45.57
212.846	-42.5
213.065	107.01
213.283	51.71
213.502	12.8
213.72	-19.97
213.938	-30.21
214.157	-17.92
214.375	82.43
214.594	27.14
214.812	96.77
215.031	31.23
215.249	-9.73
215.467	59.9
215.686	-26.11
215.904	8.7
216.122	39.42
216.341	64
216.559	8.7
216.778	35.33
216.996	127.49
217.214	35.33
217.432	-44.54
217.651	-38.4
217.869	20.99
218.087	29.18
218.306	14.85
218.524	135.68
218.742	12.8
218.96	133.63
219.179	-52.74
219.397	8.7
219.615	221.69
219.833	111.1
220.051	-36.35
220.27	43.52
220.488	139.77
220.706	139.77
220.924	-24.06
221.142	66.05
221.36	47.62
221.578	49.66
221.796	-44.54
222.015	2.56
222.233	45.57
222.451	143.87
222.669	-15.87
222.887	135.68
223.105	25.09
223.323	55.81
223.541	-30.21
223.759	-5.63
223.977	39.42
224.195	166.4
224.413	98.81
224.631	-15.87
224.849	0.51
225.067	178.69
225.285	-28.16
225.503	-38.4
225.721	-32.26
225.939	4.61
226.157	72.19
226.375	213.5
226.592	-75.26
226.81	72.19
227.028	131.58
227.246	154.11
227.464	8.7
227.682	86.53
227.9	166.4
228.117	-15.87
228.335	104.96
228.553	-28.16
228.771	27.14
228.989	-36.35
229.206	113.15
229.424	66.05
229.642	4.61
229.86	0.51
230.077	186.88
230.295	53.76
230.513	154.11
230.731	66.05
230.948	154.11
231.166	186.88
231.384	8.7
231.601	-54.78
231.819	201.21
232.037	12.8
232.254	-65.02
232.472	55.81
232.689	-34.3
232.907	94.72
233.125	6.66
233.342	12.8
233.56	-22.02
233.777	-26.11
233.995	64
234.213	121.34
234.43	113.15
234.648	37.38
234.865	4.61
235.083	61.95
235.3	92.67
235.518	115.2
235.735	107.01
235.953	86.53
236.17	6.66
236.388	80.38
236.605	-19.97
236.822	27.14
237.04	127.49
237.257	59.9
237.475	-7.68
237.692	43.52
237.909	41.47
238.127	-24.06
238.344	68.09
238.562	37.38
238.779	-52.74
238.996	-83.45
239.214	43.52
239.431	23.04
239.648	23.04
239.865	98.81
240.083	66.05
240.3	25.09
240.517	-9.73
240.735	68.09
240.952	107.01
241.169	86.53
241.386	45.57
241.603	92.67
241.821	-52.74
242.038	23.04
242.255	141.82
242.472	-54.78
242.689	96.77
242.907	74.24
243.124	29.18
243.341	80.38
243.558	-42.5
243.775	-38.4
243.992	-62.98
244.209	-7.68
244.426	129.53
244.643	39.42
244.86	47.62
245.078	41.47
245.295	92.67
245.512	12.8
245.729	41.47
245.946	53.76
246.163	-36.35
246.38	-15.87
246.597	96.77
246.814	29.18
247.031	66.05
247.248	-1.54
247.464	39.42
247.681	4.61
247.898	72.19
248.115	76.29
248.332	-69.12
248.549	45.57
248.766	72.19
248.983	43.52
249.2	47.62
249.417	84.48
249.633	6.66
249.85	86.53
250.067	-24.06
250.284	16.9
250.501	74.24
250.717	23.04
250.934	-40.45
251.151	33.28
251.368	4.61
251.585	45.57
251.801	84.48
252.018	-48.64
252.235	145.92
252.451	-73.21
252.668	57.86
252.885	111.1
253.102	51.71
253.318	152.06
253.535	6.66
253.752	-34.3
253.968	14.85
254.185	-15.87
254.401	94.72
254.618	23.04
254.835	-38.4
255.051	96.77
255.268	12.8
255.484	82.43
255.701	-89.6
255.917	92.67
256.134	-5.63
256.351	35.33
256.567	-38.4
256.784	94.72
257	-52.74
257.217	104.96
257.433	109.05
257.65	49.66
257.866	131.58
258.082	-38.4
258.299	16.9
258.515	4.61
258.732	-26.11
258.948	23.04
259.165	107.01
259.381	23.04
259.597	90.62
259.814	-1.54
260.03	47.62
260.246	55.81
260.463	137.73
260.679	188.93
260.895	131.58
261.112	37.38
261.328	-3.58
261.544	-36.35
261.761	147.97
261.977	31.23
262.193	59.9
262.409	115.2
262.626	4.61
262.842	-9.73
263.058	-7.68
263.274	111.1
263.49	74.24
263.707	82.43
263.923	117.25
264.139	-15.87
264.355	57.86
264.571	166.4
264.787	150.01
265.004	88.57
265.22	66.05
265.436	-52.74
265.652	47.62
265.868	37.38
266.084	-89.6
266.3	25.09
266.516	-15.87
266.732	35.33
266.948	-7.68
267.164	-42.5
267.38	152.06
267.596	82.43
267.812	131.58
268.028	41.47
268.244	2.56
268.46	111.1
268.676	47.62
268.892	86.53
269.108	-69.12
269.324	29.18
269.54	-32.26
269.756	104.96
269.972	-44.54
270.188	-9.73
270.403	-5.63
270.619	-13.82
270.835	178.69
271.051	47.62
271.267	53.76
271.483	-34.3
271.698	64
271.914	23.04
272.13	18.94
272.346	47.62
272.562	86.53
272.777	86.53
272.993	33.28
273.209	18.94
273.425	123.39
273.64	-89.6
273.856	102.91
274.072	2.56
274.287	-9.73
274.503	137.73
274.719	100.86
274.934	0.51
275.15	-77.31
275.366	-15.87
275.581	-9.73
275.797	6.66
276.012	29.18
276.228	16.9
276.444	88.57
276.659	195.07
276.875	27.14
277.09	-24.06
277.306	-11.78
277.521	70.14
277.737	12.8
277.952	70.14
278.168	37.38
278.383	-60.93
278.599	100.86
278.814	80.38
279.03	64
279.245	141.82
279.461	8.7
279.676	88.57
279.892	-30.21
280.107	-26.11
280.322	-67.07
280.538	70.14
280.753	-22.02
280.969	94.72
281.184	29.18
281.399	76.29
281.615	61.95
281.83	80.38
282.045	80.38
282.26	-36.35
282.476	37.38
282.691	33.28
282.906	20.99
283.122	70.14
283.337	23.04
283.552	82.43
283.767	-46.59
283.983	74.24
284.198	-42.5
284.413	74.24
284.628	-91.65
284.843	-3.58
285.058	78.33
285.274	23.04
285.489	-34.3
285.704	74.24
285.919	66.05
286.134	20.99
286.349	14.85
286.564	16.9
286.779	88.57
286.995	-24.06
287.21	-7.68
287.425	86.53
287.64	4.61
287.855	2.56
288.07	-91.65
288.285	92.67
288.5	104.96
288.715	39.42
288.93	37.38
289.145	-17.92
289.36	160.25
289.575	107.01
289.79	121.34
290.004	-58.88
290.219	135.68
290.434	-5.63
290.649	-62.98
290.864	-34.3
291.079	57.86
291.294	84.48
291.509	139.77
291.724	25.09
291.938	-1.54
292.153	78.33
292.368	-5.63
292.583	-15.87
292.798	70.14
293.012	47.62
293.227	156.16
293.442	23.04
293.657	104.96
293.871	115.2
294.086	82.43
294.301	186.88
294.516	-9.73
294.73	68.09
294.945	-30.21
295.16	20.99
295.374	74.24
295.589	100.86
295.804	-15.87
296.018	59.9
296.233	137.73
296.447	-9.73
296.662	-15.87
296.877	86.53
297.091	57.86
297.306	25.09
297.52	115.2
297.735	76.29
297.949	12.8
298.164	72.19
298.378	-15.87
298.593	-9.73
298.807	6.66
299.022	6.66
299.236	74.24
299.451	4.61
299.665	37.38
299.88	-73.21
300.094	141.82
300.309	47.62
300.523	14.85
300.737	-17.92
300.952	80.38
301.166	47.62
301.381	-28.16
301.595	-15.87
301.809	88.57
302.024	-26.11
302.238	10.75
302.452	176.64
302.667	66.05
302.881	178.69
303.095	170.49
303.309	78.33
303.524	-38.4
303.738	20.99
303.952	-9.73
304.166	18.94
304.381	-93.69
304.595	84.48
304.809	57.86
305.023	57.86
305.237	-32.26
305.452	-48.64
305.666	25.09
305.88	113.15
306.094	141.82
306.308	104.96
306.522	47.62
306.736	127.49
306.95	80.38
307.164	92.67
307.379	43.52
307.593	90.62
307.807	64
308.021	4.61
308.235	82.43
308.449	-71.17
308.663	-24.06
308.877	246.27
309.091	70.14
309.305	53.76
309.519	-108.03
309.733	139.77
309.947	-144.89
310.161	59.9
310.374	76.29
310.588	31.23
310.802	-7.68
311.016	-19.97
311.23	100.86
311.444	-40.45
311.658	27.14
311.872	53.76
312.085	143.87
312.299	145.92
312.513	193.02
312.727	8.7
312.941	-42.5
313.154	45.57
313.368	121.34
313.582	-54.78
313.796	96.77
314.009	-34.3
314.223	111.1
314.437	55.81
314.651	66.05
314.864	12.8
315.078	20.99
315.292	-77.31
315.505	-1.54
315.719	53.76
315.933	94.72
316.146	43.52
316.36	-19.97
316.573	98.81
316.787	74.24
317.001	64
317.214	-13.82
317.428	49.66
317.641	-28.16
317.855	61.95
318.068	23.04
318.282	51.71
318.495	168.45
318.709	64
318.922	59.9
319.136	113.15
319.349	47.62
319.563	6.66
319.776	94.72
319.99	-81.41
320.203	55.81
320.417	23.04
320.63	37.38
320.843	137.73
321.057	16.9
321.27	76.29
321.483	94.72
321.697	147.97
321.91	-32.26
322.124	51.71
322.337	14.85
322.55	-1.54
322.763	66.05
322.977	0.51
323.19	16.9
323.403	0.51
323.617	8.7
323.83	168.45
324.043	51.71
324.256	86.53
324.469	-56.83
324.683	170.49
324.896	6.66
325.109	37.38
325.322	-11.78
325.535	90.62
325.748	98.81
325.962	25.09
326.175	43.52
326.388	55.81
326.601	92.67
326.814	-42.5
327.027	70.14
327.24	137.73
327.453	-128.51
327.666	133.63
327.879	39.42
328.092	100.86
328.305	129.53
328.518	-85.5
328.731	-17.92
328.944	66.05
329.157	80.38
329.37	31.23
329.583	127.49
329.796	172.54
330.009	-34.3
330.222	137.73
330.435	88.57
330.648	-5.63
330.861	-9.73
331.073	66.05
331.286	61.95
331.499	23.04
331.712	-32.26
331.925	37.38
332.138	-24.06
332.35	113.15
332.563	23.04
332.776	88.57
332.989	4.61
333.202	-7.68
333.414	59.9
333.627	123.39
333.84	64
334.053	23.04
334.265	6.66
334.478	37.38
334.691	-7.68
334.903	31.23
335.116	-50.69
335.329	25.09
335.541	78.33
335.754	178.69
335.966	-65.02
336.179	-15.87
336.392	-13.82
336.604	-17.92
336.817	129.53
337.029	27.14
337.242	29.18
337.454	135.68
337.667	0.51
337.88	156.16
338.092	49.66
338.305	123.39
338.517	43.52
338.729	53.76
338.942	123.39
339.154	-97.79
339.367	-52.74
339.579	113.15
339.792	-13.82
340.004	64
340.217	-48.64
340.429	27.14
340.641	70.14
340.854	-73.21
341.066	23.04
341.278	57.86
341.491	178.69
341.703	23.04
341.915	-22.02
342.128	156.16
342.34	68.09
342.552	-99.84
342.764	14.85
342.977	104.96
343.189	37.38
343.401	80.38
343.613	-126.46
343.826	-40.45
344.038	-3.58
344.25	57.86
344.462	35.33
344.674	76.29
344.886	-44.54
345.099	31.23
345.311	31.23
345.523	49.66
345.735	-65.02
345.947	25.09
346.159	-65.02
346.371	6.66
346.583	6.66
346.795	256.51
347.007	-22.02
347.219	43.52
347.431	123.39
347.643	113.15
347.855	-103.93
348.067	121.34
348.279	-54.78
348.491	47.62
348.703	117.25
348.915	23.04
349.127	-65.02
349.339	16.9
349.551	-50.69
349.763	113.15
349.975	39.42
350.187	117.25
350.399	100.86
350.61	53.76
350.822	-5.63
351.034	102.91
351.246	88.57
351.458	37.38
351.669	129.53
351.881	129.53
352.093	111.1
352.305	61.95
352.517	49.66
352.728	25.09
352.94	55.81
353.152	82.43
353.363	35.33
353.575	100.86
353.787	115.2
353.999	31.23
354.21	186.88
354.422	-38.4
354.633	23.04
354.845	29.18
355.057	20.99
355.268	111.1
355.48	154.11
355.692	-81.41
355.903	-40.45
356.115	23.04
356.326	-46.59
356.538	123.39
356.749	-1.54
356.961	150.01
357.172	14.85
357.384	-24.06
357.595	172.54
357.807	0.51
358.018	20.99
358.23	117.25
358.441	119.29
358.653	104.96
358.864	10.75
359.075	-9.73
359.287	111.1
359.498	94.72
359.709	113.15
359.921	59.9
360.132	90.62
360.344	57.86
360.555	-44.54
360.766	72.19
360.977	0.51
361.189	31.23
361.4	12.8
361.611	74.24
361.823	98.81
362.034	37.38
362.245	-40.45
362.456	6.66
362.667	64
362.879	-52.74
363.09	119.29
363.301	80.38
363.512	82.43
363.723	10.75
363.935	57.86
364.146	82.43
364.357	10.75
364.568	23.04
364.779	-62.98
364.99	100.86
365.201	-1.54
365.412	162.3
365.623	-7.68
365.834	31.23
366.045	35.33
366.256	61.95
366.467	74.24
366.678	-34.3
366.889	25.09
367.1	14.85
367.311	166.4
367.522	-44.54
367.733	102.91
367.944	20.99
368.155	-26.11
368.366	82.43
368.577	141.82
368.788	123.39
368.999	-89.6
369.209	25.09
369.42	217.6
369.631	199.16
369.842	64
370.053	29.18
370.264	37.38
370.474	37.38
370.685	107.01
370.896	78.33
371.107	51.71
371.317	90.62
371.528	10.75
371.739	123.39
371.95	68.09
372.16	88.57
372.371	-13.82
372.582	-1.54
372.792	172.54
373.003	33.28
373.214	31.23
373.424	51.71
373.635	6.66
373.846	182.78
374.056	16.9
374.267	43.52
374.477	82.43
374.688	2.56
374.898	125.44
375.109	16.9
375.319	59.9
375.53	180.73
375.74	100.86
375.951	-44.54
376.161	35.33
376.372	45.57
376.582	-13.82
376.793	64
377.003	25.09
377.214	-17.92
377.424	8.7
377.635	37.38
377.845	27.14
378.055	225.79
378.266	12.8
378.476	41.47
378.686	51.71
378.897	55.81
379.107	49.66
379.317	115.2
379.528	-22.02
379.738	131.58
379.948	-56.83
380.158	76.29
380.369	64
380.579	35.33
380.789	10.75
380.999	131.58
381.21	94.72
381.42	145.92
381.63	4.61
381.84	49.66
382.05	8.7
382.261	51.71
382.471	125.44
382.681	2.56
382.891	168.45
383.101	68.09
383.311	-75.26
383.521	-50.69
383.731	119.29
383.941	107.01
384.151	117.25
384.361	-17.92
384.571	78.33
384.781	68.09
384.991	158.21
385.201	129.53
385.411	133.63
385.621	33.28
385.831	16.9
386.041	-1.54
386.251	137.73
386.461	90.62
386.671	8.7
386.881	78.33
387.091	16.9
387.301	100.86
387.511	31.23
387.72	98.81
387.93	72.19
388.14	-79.36
388.35	20.99
388.56	197.12
388.769	137.73
388.979	6.66
389.189	-24.06
389.399	121.34
389.609	76.29
389.818	111.1
390.028	23.04
390.238	72.19
390.447	-38.4
390.657	49.66
390.867	-13.82
391.076	-73.21
391.286	90.62
391.496	14.85
391.705	23.04
391.915	143.87
392.125	113.15
392.334	-15.87
392.544	131.58
392.753	78.33
392.963	-36.35
393.172	49.66
393.382	41.47
393.591	170.49
393.801	-34.3
394.01	197.12
394.22	123.39
394.429	-7.68
394.639	16.9
394.848	98.81
395.058	25.09
395.267	23.04
395.477	84.48
395.686	-17.92
395.895	213.5
396.105	137.73
396.314	55.81
396.524	47.62
396.733	-52.74
396.942	96.77
397.152	162.3
397.361	74.24
397.57	14.85
397.78	123.39
397.989	47.62
398.198	244.22
398.407	92.67
398.617	41.47
398.826	39.42
399.035	61.95
399.244	82.43
399.453	37.38
399.663	2.56
399.872	53.76
400.081	-26.11
400.29	86.53
400.499	35.33
400.708	123.39
400.917	0.51
401.127	92.67
401.336	8.7
401.545	147.97
401.754	184.83
401.963	98.81
402.172	-22.02
402.381	-69.12
402.59	-24.06
402.799	35.33
403.008	147.97
403.217	35.33
403.426	111.1
403.635	-58.88
403.844	49.66
404.053	-9.73
404.262	39.42
404.471	195.07
404.68	61.95
404.888	72.19
405.097	74.24
405.306	107.01
405.515	150.01
405.724	31.23
405.933	96.77
406.142	113.15
406.35	70.14
406.559	49.66
406.768	76.29
406.977	135.68
407.185	131.58
407.394	98.81
407.603	-50.69
407.812	72.19
408.02	37.38
408.229	18.94
408.438	53.76
408.646	-65.02
408.855	37.38
409.064	51.71
409.272	33.28
409.481	82.43
409.69	-26.11
409.898	-9.73
410.107	80.38
410.315	76.29
410.524	-24.06
410.733	70.14
410.941	33.28
411.15	92.67
411.358	72.19
411.567	90.62
411.775	66.05
411.984	47.62
412.192	96.77
412.401	-42.5
412.609	180.73
412.818	170.49
413.026	68.09
413.234	68.09
413.443	31.23
413.651	45.57
413.86	143.87
414.068	182.78
414.276	125.44
414.485	-24.06
414.693	131.58
414.901	133.63
415.11	59.9
415.318	78.33
415.526	94.72
415.734	111.1
415.943	16.9
416.151	104.96
416.359	37.38
416.567	117.25
416.776	80.38
416.984	145.92
417.192	227.84
417.4	59.9
417.608	37.38
417.817	-71.17
418.025	16.9
418.233	168.45
418.441	-38.4
418.649	-114.17
418.857	96.77
419.065	121.34
419.273	23.04
419.481	61.95
419.689	84.48
419.897	80.38
420.105	-48.64
420.313	68.09
420.521	119.29
420.729	150.01
420.937	-13.82
421.145	20.99
421.353	123.39
421.561	201.21
421.769	78.33
421.977	-24.06
422.185	86.53
422.393	55.81
422.601	109.05
422.809	78.33
423.017	84.48
423.224	125.44
423.432	125.44
423.64	25.09
423.848	182.78
424.056	23.04
424.263	111.1
424.471	76.29
424.679	51.71
424.887	16.9
425.094	168.45
425.302	164.35
425.51	-32.26
425.718	100.86
425.925	98.81
426.133	23.04
426.341	229.88
426.548	96.77
426.756	-28.16
426.964	137.73
427.171	-44.54
427.379	49.66
427.586	8.7
427.794	35.33
428.001	166.4
428.209	76.29
428.417	195.07
428.624	154.11
428.832	16.9
429.039	49.66
429.247	115.2
429.454	125.44
429.662	264.7
429.869	172.54
430.076	172.54
430.284	172.54
430.491	207.36
430.699	70.14
430.906	205.31
431.114	109.05
431.321	203.26
431.528	113.15
431.736	64
431.943	141.82
432.15	227.84
432.358	154.11
432.565	252.41
432.772	80.38
432.979	266.75
433.187	92.67
433.394	119.29
433.601	109.05
433.808	172.54
434.016	266.75
434.223	258.56
434.43	260.6
434.637	223.74
434.844	289.28
435.052	186.88
435.259	301.56
435.466	307.71
435.673	244.22
435.88	252.41
436.087	332.28
436.294	381.43
436.501	383.48
436.708	340.47
436.915	365.05
437.122	320
437.329	274.94
437.537	274.94
437.743	358.91
437.95	455.16
438.157	299.52
438.364	373.24
438.571	401.91
438.778	422.39
438.985	379.39
439.192	453.11
439.399	393.72
439.606	465.4
439.813	541.18
440.02	645.62
440.227	690.68
440.433	610.81
440.64	500.22
440.847	516.6
441.054	530.94
441.261	825.84
441.467	614.9
441.674	598.52
441.881	721.4
442.088	684.53
442.294	709.11
442.501	805.36
442.708	856.56
442.914	758.26
443.121	895.47
443.328	913.91
443.534	942.58
443.741	827.89
443.948	885.23
444.154	1008.11
444.361	1180.14
444.568	958.96
444.774	1044.98
444.981	977.39
445.187	1241.58
445.394	1128.94
445.6	1167.85
445.807	1366.51
446.013	1208.81
446.22	1247.72
446.426	1413.61
446.633	1518.06
446.839	1690.09
447.046	1513.96
447.252	1597.93
447.459	1628.65
447.665	1626.6
447.871	1880.55
448.078	1960.42
448.284	1907.17
448.491	2050.53
448.697	2136.54
448.903	2228.7
449.11	2324.96
449.316	2263.52
449.522	2478.55
449.728	2441.69
449.935	2628.06
450.141	2533.85
450.347	2873.81
450.553	2650.58
450.76	2863.57
450.966	3023.31
451.172	3170.77
451.378	3191.25
451.584	3293.65
451.791	3721.67
451.997	3543.5
452.203	3801.54
452.409	3994.05
452.615	4004.29
452.821	4024.77
453.027	3926.47
453.233	4506.04
453.44	4340.16
453.646	4522.43
453.852	4807.09
454.058	4917.68
454.264	5151.15
454.47	5390.77
454.676	5351.85
454.882	5892.52
455.088	5644.71
455.294	6025.64
455.5	6312.35
455.705	6828.44
455.911	6824.34
456.117	6922.65
456.323	7408.01
456.529	7264.66
456.735	8018.31
456.941	8388.99
457.147	8518.01
457.352	8774.01
457.558	8927.61
457.764	9445.74
457.97	9705.84
458.176	10160.48
458.381	10748.25
458.587	10871.13
458.793	11258.2
458.999	11231.57
459.204	13056.31
459.41	13164.86
459.616	13197.62
459.821	13963.56
460.027	14147.88
460.233	15057.18
460.438	15106.33
460.644	15966.48
460.85	16034.06
461.055	16781.57
461.261	17533.17
461.466	17334.52
461.672	17557.75
461.878	19925.2
462.083	19575
462.289	20146.38
462.494	20660.42
462.7	20955.33
462.905	21401.79
463.111	23091.36
463.316	24082.58
463.522	24264.85
463.727	25069.7
463.932	26341.49
464.138	26998.88
464.343	28022.87
464.549	28434.51
464.754	30345.26
464.959	30773.29
465.165	31453.22
465.37	31531.04
465.575	31516.7
465.781	33622.01
465.986	34351.09
466.191	33996.79
466.397	34293.75
466.602	33316.87
466.807	35342.31
467.012	35889.12
467.218	36536.27
467.423	36683.73
467.628	37416.9
467.833	39581.6
468.038	38672.31
468.244	37935.04
468.449	40087.45
468.654	39561.12
468.859	39270.31
469.064	39311.27
469.269	38266.81
