Data from USB4F104151__104__10-45-29-763.txt Node

Date: Wed Feb 26 10:45:29 EST 2025
User: louis
Spectrometer: USB4F10415
Trigger mode: 4
Integration Time (sec): 1.000000E-1
Scans to average: 1
Electric dark correction enabled: true
Nonlinearity correction enabled: false
Boxcar width: 0
XAxis mode: Wavelengths
Number of Pixels in Spectrum: 3648
>>>>>Begin Spectral Data<<<<<
178.204	-417.1
178.424	-417.1
178.644	-417.1
178.864	-406.86
179.084	-331.09
179.304	-23.89
179.524	-17.75
179.744	6.83
179.964	78.51
180.184	-17.75
180.404	27.31
180.624	-19.8
180.844	43.69
181.064	-87.38
181.283	-30.04
181.503	-3.41
181.723	43.69
181.943	-62.8
182.163	197.29
182.383	-27.99
182.602	35.5
182.822	55.98
183.042	47.79
183.262	2.73
183.482	25.26
183.701	-34.13
183.921	-36.18
184.141	-89.43
184.361	98.99
184.58	101.03
184.8	41.64
185.02	-3.41
185.239	84.65
185.459	78.51
185.679	117.42
185.898	-95.57
186.118	115.37
186.338	80.55
186.557	88.75
186.777	-36.18
186.997	-13.65
187.216	-15.7
187.436	176.81
187.655	53.93
187.875	37.55
188.095	76.46
188.314	103.08
188.534	139.94
188.753	-85.33
188.973	58.03
189.192	195.24
189.412	45.74
189.631	33.45
189.851	15.02
190.07	156.33
190.29	-44.37
190.509	-44.37
190.729	-36.18
190.948	74.41
191.168	197.29
191.387	121.51
191.607	6.83
191.826	21.16
192.045	-36.18
192.265	2.73
192.484	37.55
192.704	-7.51
192.923	-52.56
193.142	201.38
193.362	33.45
193.581	129.7
193.8	39.59
194.02	105.13
194.239	109.22
194.458	51.88
194.678	-68.95
194.897	-15.7
195.116	78.51
195.335	76.46
195.555	31.4
195.774	-68.95
195.993	172.71
196.212	37.55
196.432	-13.65
196.651	-11.61
196.87	-9.56
197.089	195.24
197.308	37.55
197.528	121.51
197.747	-56.66
197.966	82.6
198.185	107.18
198.404	-5.46
198.623	133.8
198.842	154.28
199.062	66.22
199.281	103.08
199.5	23.21
199.719	25.26
199.938	94.89
200.157	80.55
200.376	119.46
200.595	146.09
200.814	70.31
201.033	19.11
201.252	234.15
201.471	-11.61
201.69	86.7
201.909	88.75
202.128	137.9
202.347	66.22
202.566	4.78
202.785	-97.62
203.004	27.31
203.223	258.73
203.442	19.11
203.661	15.02
203.879	76.46
204.098	137.9
204.317	-1.37
204.536	43.69
204.755	55.98
204.974	162.47
205.193	25.26
205.411	131.75
205.63	129.7
205.849	66.22
206.068	41.64
206.287	-56.66
206.505	148.14
206.724	98.99
206.943	19.11
207.162	-27.99
207.381	107.18
207.599	43.69
207.818	39.59
208.037	-3.41
208.255	29.35
208.474	111.27
208.693	78.51
208.911	-30.04
209.13	70.31
209.349	19.11
209.567	107.18
209.786	43.69
210.005	60.07
210.223	90.79
210.442	-120.15
210.661	17.07
210.879	39.59
211.098	8.87
211.316	49.83
211.535	115.37
211.753	70.31
211.972	45.74
212.191	-3.41
212.409	43.69
212.628	60.07
212.846	-52.56
213.065	15.02
213.283	113.32
213.502	33.45
213.72	80.55
213.938	17.07
214.157	6.83
214.375	111.27
214.594	19.11
214.812	78.51
215.031	23.21
215.249	123.56
215.467	33.45
215.686	43.69
215.904	58.03
216.122	6.83
216.341	109.22
216.559	80.55
216.778	98.99
216.996	166.57
217.214	33.45
217.432	21.16
217.651	-91.48
217.869	49.83
218.087	101.03
218.306	66.22
218.524	-11.61
218.742	90.79
218.96	111.27
219.179	55.98
219.397	68.27
219.615	178.86
219.833	88.75
220.051	-48.47
220.27	58.03
220.488	80.55
220.706	92.84
220.924	62.12
221.142	6.83
221.36	25.26
221.578	121.51
221.796	68.27
222.015	19.11
222.233	-15.7
222.451	154.28
222.669	-7.51
222.887	53.93
223.105	-27.99
223.323	19.11
223.541	-1.37
223.759	111.27
223.977	51.88
224.195	127.66
224.413	74.41
224.631	47.79
224.849	31.4
225.067	182.95
225.285	68.27
225.503	37.55
225.721	-21.85
225.939	84.65
226.157	58.03
226.375	158.38
226.592	4.78
226.81	64.17
227.028	64.17
227.246	127.66
227.464	101.03
227.682	47.79
227.9	53.93
228.117	66.22
228.335	115.37
228.553	-1.37
228.771	-13.65
228.989	4.78
229.206	90.79
229.424	74.41
229.642	33.45
229.86	-56.66
230.077	92.84
230.295	55.98
230.513	148.14
230.731	84.65
230.948	207.53
231.166	172.71
231.384	-17.75
231.601	15.02
231.819	146.09
232.037	-3.41
232.254	-68.95
232.472	-5.46
232.689	-21.85
232.907	121.51
233.125	8.87
233.342	29.35
233.56	-42.32
233.777	23.21
233.995	33.45
234.213	162.47
234.43	80.55
234.648	10.92
234.865	-7.51
235.083	80.55
235.3	98.99
235.518	96.94
235.735	139.94
235.953	86.7
236.17	10.92
236.388	53.93
236.605	90.79
236.822	64.17
237.04	78.51
237.257	43.69
237.475	-40.28
237.692	88.75
237.909	47.79
238.127	31.4
238.344	27.31
238.562	33.45
238.779	-50.52
238.996	-71
239.214	45.74
239.431	115.37
239.648	-30.04
239.865	119.46
240.083	141.99
240.3	-5.46
240.517	-62.8
240.735	37.55
240.952	78.51
241.169	107.18
241.386	58.03
241.603	23.21
241.821	-5.46
242.038	90.79
242.255	109.22
242.472	23.21
242.689	60.07
242.907	51.88
243.124	-36.18
243.341	27.31
243.558	-21.85
243.775	-116.05
243.992	-103.76
244.209	107.18
244.426	115.37
244.643	33.45
244.86	12.97
245.078	139.94
245.295	58.03
245.512	37.55
245.729	43.69
245.946	115.37
246.163	29.35
246.38	64.17
246.597	96.94
246.814	86.7
247.031	37.55
247.248	43.69
247.464	88.75
247.681	12.97
247.898	19.11
248.115	127.66
248.332	-11.61
248.549	232.1
248.766	199.34
248.983	51.88
249.2	105.13
249.417	60.07
249.633	-34.13
249.85	84.65
250.067	33.45
250.284	92.84
250.501	4.78
250.717	146.09
250.934	-23.89
251.151	55.98
251.368	82.6
251.585	19.11
251.801	45.74
252.018	-15.7
252.235	228.01
252.451	12.97
252.668	62.12
252.885	2.73
253.102	133.8
253.318	51.88
253.535	45.74
253.752	21.16
253.968	0.68
254.185	-5.46
254.401	55.98
254.618	41.64
254.835	49.83
255.051	111.27
255.268	156.33
255.484	103.08
255.701	-62.8
255.917	-3.41
256.134	-21.85
256.351	82.6
256.567	-30.04
256.784	25.26
257	-60.76
257.217	29.35
257.433	76.46
257.65	51.88
257.866	82.6
258.082	-77.14
258.299	68.27
258.515	117.42
258.732	2.73
258.948	33.45
259.165	45.74
259.381	-87.38
259.597	111.27
259.814	15.02
260.03	51.88
260.246	-32.08
260.463	92.84
260.679	172.71
260.895	49.83
261.112	86.7
261.328	-77.14
261.544	-62.8
261.761	174.76
261.977	4.78
262.193	0.68
262.409	60.07
262.626	98.99
262.842	15.02
263.058	-5.46
263.274	90.79
263.49	66.22
263.707	152.23
263.923	82.6
264.139	-44.37
264.355	12.97
264.571	92.84
264.787	88.75
265.004	187.05
265.22	98.99
265.436	-1.37
265.652	-1.37
265.868	51.88
266.084	-87.38
266.3	-7.51
266.516	-36.18
266.732	37.55
266.948	37.55
267.164	4.78
267.38	107.18
267.596	25.26
267.812	162.47
268.028	103.08
268.244	19.11
268.46	-7.51
268.676	35.5
268.892	119.46
269.108	27.31
269.324	-62.8
269.54	-46.42
269.756	117.42
269.972	23.21
270.188	47.79
270.403	74.41
270.619	58.03
270.835	29.35
271.051	43.69
271.267	41.64
271.483	-60.76
271.698	60.07
271.914	37.55
272.13	27.31
272.346	10.92
272.562	78.51
272.777	101.03
272.993	29.35
273.209	-40.28
273.425	103.08
273.64	-81.24
273.856	98.99
274.072	-38.23
274.287	-7.51
274.503	53.93
274.719	129.7
274.934	6.83
275.15	-107.86
275.366	94.89
275.581	-46.42
275.797	23.21
276.012	37.55
276.228	62.12
276.444	109.22
276.659	127.66
276.875	-32.08
277.09	-62.8
277.306	-25.94
277.521	60.07
277.737	37.55
277.952	39.59
278.168	76.46
278.383	31.4
278.599	45.74
278.814	82.6
279.03	0.68
279.245	187.05
279.461	21.16
279.676	78.51
279.892	-130.39
280.107	12.97
280.322	109.22
280.538	68.27
280.753	-68.95
280.969	96.94
281.184	2.73
281.399	230.06
281.615	66.22
281.83	51.88
282.045	-97.62
282.26	4.78
282.476	66.22
282.691	64.17
282.906	45.74
283.122	88.75
283.337	-36.18
283.552	76.46
283.767	31.4
283.983	150.18
284.198	-1.37
284.413	117.42
284.628	-1.37
284.843	0.68
285.058	78.51
285.274	43.69
285.489	-19.8
285.704	90.79
285.919	-19.8
286.134	4.78
286.349	15.02
286.564	-9.56
286.779	203.43
286.995	15.02
287.21	-95.57
287.425	78.51
287.64	-3.41
287.855	68.27
288.07	0.68
288.285	47.79
288.5	195.24
288.715	88.75
288.93	19.11
289.145	-40.28
289.36	160.42
289.575	-25.94
289.79	98.99
290.004	-105.81
290.219	131.75
290.434	80.55
290.649	-40.28
290.864	-9.56
291.079	51.88
291.294	43.69
291.509	29.35
291.724	33.45
291.938	-34.13
292.153	25.26
292.368	2.73
292.583	64.17
292.798	55.98
293.012	-9.56
293.227	129.7
293.442	49.83
293.657	127.66
293.871	103.08
294.086	62.12
294.301	109.22
294.516	101.03
294.73	80.55
294.945	-38.23
295.16	-27.99
295.374	86.7
295.589	72.36
295.804	92.84
296.018	84.65
296.233	133.8
296.447	-32.08
296.662	-19.8
296.877	58.03
297.091	152.23
297.306	-50.52
297.52	21.16
297.735	41.64
297.949	101.03
298.164	0.68
298.378	25.26
298.593	-62.8
298.807	68.27
299.022	-13.65
299.236	19.11
299.451	84.65
299.665	-25.94
299.88	92.84
300.094	78.51
300.309	51.88
300.523	96.94
300.737	-7.51
300.952	74.41
301.166	45.74
301.381	12.97
301.595	-3.41
301.809	72.36
302.024	-9.56
302.238	-34.13
302.452	144.04
302.667	-25.94
302.881	55.98
303.095	101.03
303.309	47.79
303.524	0.68
303.738	96.94
303.952	21.16
304.166	117.42
304.381	-185.68
304.595	94.89
304.809	-38.23
305.023	12.97
305.237	0.68
305.452	21.16
305.666	109.22
305.88	166.57
306.094	133.8
306.308	31.4
306.522	109.22
306.736	82.6
306.95	90.79
307.164	6.83
307.379	68.27
307.593	131.75
307.807	150.18
308.021	51.88
308.235	98.99
308.449	-89.43
308.663	27.31
308.877	207.53
309.091	58.03
309.305	58.03
309.519	-52.56
309.733	117.42
309.947	-111.96
310.161	2.73
310.374	58.03
310.588	121.51
310.802	0.68
311.016	82.6
311.23	111.27
311.444	-9.56
311.658	-1.37
311.872	19.11
312.085	86.7
312.299	115.37
312.513	39.59
312.727	64.17
312.941	-46.42
313.154	43.69
313.368	21.16
313.582	55.98
313.796	82.6
314.009	23.21
314.223	68.27
314.437	133.8
314.651	158.38
314.864	-48.47
315.078	29.35
315.292	25.26
315.505	39.59
315.719	72.36
315.933	55.98
316.146	-34.13
316.36	-46.42
316.573	92.84
316.787	62.12
317.001	45.74
317.214	12.97
317.428	92.84
317.641	15.02
317.855	51.88
318.068	17.07
318.282	60.07
318.495	238.25
318.709	60.07
318.922	55.98
319.136	107.18
319.349	123.56
319.563	0.68
319.776	80.55
319.99	-56.66
320.203	94.89
320.417	4.78
320.63	115.37
320.843	182.95
321.057	43.69
321.27	-15.7
321.483	84.65
321.697	107.18
321.91	109.22
322.124	123.56
322.337	68.27
322.55	12.97
322.763	37.55
322.977	121.51
323.19	90.79
323.403	15.02
323.617	-9.56
323.83	105.13
324.043	82.6
324.256	51.88
324.469	-17.75
324.683	180.9
324.896	-3.41
325.109	125.61
325.322	-124.24
325.535	109.22
325.748	49.83
325.962	-3.41
326.175	103.08
326.388	166.57
326.601	80.55
326.814	23.21
327.027	60.07
327.24	135.85
327.453	-46.42
327.666	53.93
327.879	115.37
328.092	19.11
328.305	82.6
328.518	-5.46
328.731	37.55
328.944	-56.66
329.157	125.61
329.37	6.83
329.583	162.47
329.796	109.22
330.009	-122.2
330.222	133.8
330.435	105.13
330.648	25.26
330.861	53.93
331.073	64.17
331.286	133.8
331.499	27.31
331.712	-38.23
331.925	33.45
332.138	35.5
332.35	4.78
332.563	-50.52
332.776	125.61
332.989	25.26
333.202	43.69
333.414	86.7
333.627	68.27
333.84	-9.56
334.053	72.36
334.265	55.98
334.478	-40.28
334.691	-7.51
334.903	4.78
335.116	-1.37
335.329	55.98
335.541	35.5
335.754	195.24
335.966	17.07
336.179	86.7
336.392	39.59
336.604	-15.7
336.817	74.41
337.029	49.83
337.242	-21.85
337.454	51.88
337.667	-62.8
337.88	144.04
338.092	86.7
338.305	23.21
338.517	23.21
338.729	180.9
338.942	187.05
339.154	-13.65
339.367	-32.08
339.579	141.99
339.792	-75.09
340.004	180.9
340.217	37.55
340.429	39.59
340.641	62.12
340.854	64.17
341.066	84.65
341.278	152.23
341.491	199.34
341.703	60.07
341.915	-56.66
342.128	139.94
342.34	58.03
342.552	-85.33
342.764	12.97
342.977	107.18
343.189	47.79
343.401	-5.46
343.613	35.5
343.826	35.5
344.038	-25.94
344.25	84.65
344.462	-42.32
344.674	62.12
344.886	-95.57
345.099	45.74
345.311	21.16
345.523	66.22
345.735	-148.82
345.947	62.12
346.159	43.69
346.371	41.64
346.583	29.35
346.795	195.24
347.007	-15.7
347.219	60.07
347.431	53.93
347.643	123.56
347.855	49.83
348.067	94.89
348.279	-13.65
348.491	47.79
348.703	148.14
348.915	64.17
349.127	-27.99
349.339	-19.8
349.551	29.35
349.763	119.46
349.975	94.89
350.187	68.27
350.399	96.94
350.61	45.74
350.822	37.55
351.034	70.31
351.246	-5.46
351.458	115.37
351.669	101.03
351.881	90.79
352.093	166.57
352.305	51.88
352.517	53.93
352.728	35.5
352.94	58.03
353.152	96.94
353.363	-34.13
353.575	68.27
353.787	168.62
353.999	-9.56
354.21	217.77
354.422	-27.99
354.633	41.64
354.845	21.16
355.057	84.65
355.268	-19.8
355.48	105.13
355.692	-58.71
355.903	137.9
356.115	-50.52
356.326	-91.48
356.538	58.03
356.749	6.83
356.961	178.86
357.172	29.35
357.384	-66.9
357.595	182.95
357.807	45.74
358.018	-5.46
358.23	62.12
358.441	172.71
358.653	101.03
358.864	35.5
359.075	-5.46
359.287	10.92
359.498	72.36
359.709	70.31
359.921	68.27
360.132	78.51
360.344	144.04
360.555	29.35
360.766	29.35
360.977	41.64
361.189	115.37
361.4	-48.47
361.611	82.6
361.823	180.9
362.034	6.83
362.245	-19.8
362.456	58.03
362.667	70.31
362.879	41.64
363.09	90.79
363.301	76.46
363.512	64.17
363.723	45.74
363.935	0.68
364.146	111.27
364.357	62.12
364.568	68.27
364.779	2.73
364.99	137.9
365.201	-11.61
365.412	107.18
365.623	23.21
365.834	84.65
366.045	76.46
366.256	58.03
366.467	84.65
366.678	-3.41
366.889	-58.71
367.1	35.5
367.311	117.42
367.522	2.73
367.733	88.75
367.944	98.99
368.155	-68.95
368.366	107.18
368.577	141.99
368.788	131.75
368.999	-21.85
369.209	51.88
369.42	215.72
369.631	236.2
369.842	84.65
370.053	31.4
370.264	96.94
370.474	-91.48
370.685	119.46
370.896	43.69
371.107	119.46
371.317	49.83
371.528	-7.51
371.739	33.45
371.95	55.98
372.16	84.65
372.371	-60.76
372.582	39.59
372.792	55.98
373.003	115.37
373.214	117.42
373.424	117.42
373.635	-11.61
373.846	127.66
374.056	-46.42
374.267	17.07
374.477	10.92
374.688	4.78
374.898	94.89
375.109	98.99
375.319	82.6
375.53	158.38
375.74	80.55
375.951	39.59
376.161	115.37
376.372	84.65
376.582	-19.8
376.793	-17.75
377.003	27.31
377.214	0.68
377.424	23.21
377.635	96.94
377.845	47.79
378.055	117.42
378.266	-64.85
378.476	70.31
378.686	92.84
378.897	68.27
379.107	131.75
379.317	96.94
379.528	35.5
379.738	94.89
379.948	-30.04
380.158	84.65
380.369	129.7
380.579	90.79
380.789	-46.42
380.999	92.84
381.21	119.46
381.42	234.15
381.63	2.73
381.84	45.74
382.05	60.07
382.261	70.31
382.471	88.75
382.681	-27.99
382.891	113.32
383.101	135.85
383.311	8.87
383.521	-3.41
383.731	37.55
383.941	109.22
384.151	115.37
384.361	58.03
384.571	21.16
384.781	27.31
384.991	217.77
385.201	86.7
385.411	64.17
385.621	105.13
385.831	51.88
386.041	-9.56
386.251	-32.08
386.461	113.32
386.671	68.27
386.881	15.02
387.091	21.16
387.301	62.12
387.511	47.79
387.72	55.98
387.93	125.61
388.14	-44.37
388.35	12.97
388.56	90.79
388.769	111.27
388.979	60.07
389.189	-1.37
389.399	-25.94
389.609	109.22
389.818	101.03
390.028	117.42
390.238	160.42
390.447	-64.85
390.657	72.36
390.867	17.07
391.076	-23.89
391.286	64.17
391.496	-11.61
391.705	80.55
391.915	62.12
392.125	96.94
392.334	45.74
392.544	117.42
392.753	23.21
392.963	15.02
393.172	74.41
393.382	55.98
393.591	150.18
393.801	-19.8
394.01	213.67
394.22	131.75
394.429	53.93
394.639	43.69
394.848	125.61
395.058	86.7
395.267	74.41
395.477	58.03
395.686	31.4
395.895	164.52
396.105	209.58
396.314	88.75
396.524	31.4
396.733	84.65
396.942	101.03
397.152	88.75
397.361	127.66
397.57	31.4
397.78	96.94
397.989	80.55
398.198	178.86
398.407	-25.94
398.617	55.98
398.826	23.21
399.035	47.79
399.244	131.75
399.453	19.11
399.663	115.37
399.872	45.74
400.081	43.69
400.29	103.08
400.499	-64.85
400.708	125.61
400.917	53.93
401.127	35.5
401.336	-42.32
401.545	137.9
401.754	148.14
401.963	49.83
402.172	39.59
402.381	4.78
402.59	6.83
402.799	21.16
403.008	121.51
403.217	92.84
403.426	84.65
403.635	55.98
403.844	60.07
404.053	23.21
404.262	49.83
404.471	281.25
404.68	178.86
404.888	-60.76
405.097	53.93
405.306	55.98
405.515	92.84
405.724	43.69
405.933	84.65
406.142	148.14
406.35	215.72
406.559	25.26
406.768	117.42
406.977	154.28
407.185	-3.41
407.394	76.46
407.603	-52.56
407.812	51.88
408.02	117.42
408.229	148.14
408.438	82.6
408.646	-52.56
408.855	72.36
409.064	60.07
409.272	27.31
409.481	144.04
409.69	-60.76
409.898	31.4
410.107	43.69
410.315	115.37
410.524	96.94
410.733	39.59
410.941	98.99
411.15	101.03
411.358	166.57
411.567	166.57
411.775	41.64
411.984	39.59
412.192	115.37
412.401	8.87
412.609	187.05
412.818	146.09
413.026	-19.8
413.234	-46.42
413.443	6.83
413.651	78.51
413.86	70.31
414.068	111.27
414.276	211.62
414.485	53.93
414.693	203.43
414.901	187.05
415.11	12.97
415.318	27.31
415.526	47.79
415.734	221.86
415.943	29.35
416.151	92.84
416.359	129.7
416.567	94.89
416.776	109.22
416.984	76.46
417.192	236.2
417.4	62.12
417.608	55.98
417.817	0.68
418.025	156.33
418.233	207.53
418.441	66.22
418.649	33.45
418.857	107.18
419.065	82.6
419.273	10.92
419.481	64.17
419.689	111.27
419.897	23.21
420.105	21.16
420.313	146.09
420.521	98.99
420.729	150.18
420.937	-11.61
421.145	68.27
421.353	156.33
421.561	221.86
421.769	64.17
421.977	31.4
422.185	152.23
422.393	64.17
422.601	148.14
422.809	64.17
423.017	176.81
423.224	70.31
423.432	141.99
423.64	70.31
423.848	137.9
424.056	64.17
424.263	70.31
424.471	68.27
424.679	150.18
424.887	58.03
425.094	193.19
425.302	92.84
425.51	60.07
425.718	158.38
425.925	19.11
426.133	-5.46
426.341	228.01
426.548	6.83
426.756	92.84
426.964	92.84
427.171	39.59
427.379	101.03
427.586	62.12
427.794	162.47
428.001	250.53
428.209	64.17
428.417	137.9
428.624	125.61
428.832	156.33
429.039	86.7
429.247	125.61
429.454	127.66
429.662	248.49
429.869	185
430.076	119.46
430.284	205.48
430.491	211.62
430.699	164.52
430.906	225.96
431.114	225.96
431.321	127.66
431.528	129.7
431.736	137.9
431.943	137.9
432.15	195.24
432.358	252.58
432.565	244.39
432.772	35.5
432.979	258.73
433.187	228.01
433.394	285.35
433.601	146.09
433.808	285.35
434.016	252.58
434.223	244.39
434.43	258.73
434.637	391.84
434.844	361.13
435.052	281.25
435.259	324.26
435.466	328.36
435.673	350.89
435.88	350.89
436.087	406.18
436.294	436.9
436.501	426.66
436.708	291.49
436.915	391.84
437.122	586.4
437.329	371.37
437.537	379.56
437.743	465.57
437.95	555.68
438.157	533.15
438.364	445.09
438.571	594.59
438.778	559.78
438.985	625.31
439.192	703.14
439.399	586.4
439.606	625.31
439.813	598.69
440.02	783.01
440.227	787.1
440.433	682.66
440.64	762.53
440.847	733.86
441.054	721.57
441.261	901.79
441.467	893.6
441.674	799.39
441.881	903.84
442.088	985.76
442.294	901.79
442.501	1110.68
442.708	1086.11
442.914	993.95
443.121	1198.74
443.328	993.95
443.534	1301.14
443.741	1194.65
443.948	1112.73
444.154	1385.11
444.361	1528.47
444.568	1415.83
444.774	1444.5
444.981	1364.63
445.187	1577.62
445.394	1651.35
445.6	1530.52
445.807	1825.42
446.013	1737.36
446.22	1784.46
446.426	1860.24
446.633	2003.6
446.839	2189.96
447.046	2028.17
447.252	2335.37
447.459	2282.12
447.665	2265.74
447.871	2579.08
448.078	2636.42
448.284	2480.77
448.491	2677.38
448.697	2796.16
448.903	2953.85
449.11	3097.21
449.316	3074.68
449.522	3175.03
449.728	3347.06
449.935	3396.21
450.141	3512.95
450.347	3717.75
450.553	3736.18
450.76	3678.83
450.966	3981.93
451.172	4108.91
451.378	4407.91
451.584	4369
451.791	4571.75
451.997	4921.95
452.203	5016.16
452.409	5151.32
452.615	5444.18
452.821	5261.91
453.027	5380.7
453.233	5939.79
453.44	5900.88
453.646	6148.68
453.852	6267.47
454.058	6724.16
454.264	6859.33
454.47	7340.6
454.676	7260.73
454.882	7991.86
455.088	7748.15
455.294	8106.54
455.5	8585.77
455.705	8974.88
455.911	8882.72
456.117	9292.32
456.323	9517.59
456.529	9505.31
456.735	10428.94
456.941	10750.47
457.147	11192.83
457.352	11438.59
457.558	12069.36
457.764	12532.2
457.97	12823.01
458.176	13365.73
458.381	14082.52
458.587	14178.77
458.793	14952.9
458.999	14905.8
459.204	16898.47
459.41	17314.21
459.616	17101.22
459.821	18299.28
460.027	19231.11
460.233	19626.37
460.438	19929.47
460.644	21375.33
460.85	21356.9
461.055	22188.38
461.261	23257.42
461.466	22669.65
461.672	23091.53
461.878	25960.73
462.083	25555.24
462.289	26091.8
462.494	27160.84
462.7	27224.33
462.905	27980.03
463.111	30003.42
463.316	31400.14
463.522	31717.57
463.727	32954.55
463.932	34140.32
464.138	35383.44
464.343	36497.53
464.549	36845.69
464.754	39665.74
464.959	40357.95
465.165	41105.46
465.37	40921.15
465.575	40894.52
465.781	43378.71
465.986	44978.17
466.191	44017.67
466.397	44544
466.602	43534.35
466.807	46026.73
467.012	46319.59
467.218	47501.27
467.423	47462.36
467.628	48777.15
467.833	51445.66
468.038	50550.7
468.244	49588.15
468.449	52094.86
