Data from USB4F104151__255__11-20-10-036.txt Node

Date: Wed Feb 26 11:20:10 EST 2025
User: louis
Spectrometer: USB4F10415
Trigger mode: 4
Integration Time (sec): 1.000000E-1
Scans to average: 1
Electric dark correction enabled: true
Nonlinearity correction enabled: false
Boxcar width: 0
XAxis mode: Wavelengths
Number of Pixels in Spectrum: 3648
>>>>>Begin Spectral Data<<<<<
178.204	-369.15
178.424	-369.15
178.644	-369.15
178.864	-383.48
179.084	-399.87
179.304	50.69
179.524	26.11
179.744	-49.66
179.964	-29.18
180.184	-20.99
180.404	15.87
180.624	15.87
180.844	-57.86
181.064	-23.04
181.283	15.87
181.503	26.11
181.723	30.21
181.943	-72.19
182.163	112.13
182.383	-18.94
182.602	46.59
182.822	167.42
183.042	93.69
183.262	1.54
183.482	32.26
183.701	17.92
183.921	54.78
184.141	-41.47
184.361	85.5
184.58	58.88
184.8	38.4
185.02	17.92
185.239	60.93
185.459	67.07
185.679	165.37
185.898	-70.14
186.118	-12.8
186.338	105.98
186.557	67.07
186.777	-57.86
186.997	-39.42
187.216	-23.04
187.436	220.67
187.655	19.97
187.875	153.09
188.095	30.21
188.314	114.17
188.534	114.17
188.753	-14.85
188.973	126.46
189.192	163.33
189.412	5.63
189.631	5.63
189.851	54.78
190.07	161.28
190.29	-100.86
190.509	-45.57
190.729	11.78
190.948	161.28
191.168	243.2
191.387	65.02
191.607	-20.99
191.826	15.87
192.045	-27.14
192.265	28.16
192.484	36.35
192.704	-29.18
192.923	-64
193.142	148.99
193.362	71.17
193.581	110.08
193.8	54.78
194.02	114.17
194.239	44.54
194.458	24.06
194.678	-47.62
194.897	1.54
195.116	65.02
195.335	13.82
195.555	73.21
195.774	-76.29
195.993	155.13
196.212	-23.04
196.432	-20.99
196.651	-29.18
196.87	9.73
197.089	226.81
197.308	62.98
197.528	-66.05
197.747	-41.47
197.966	46.59
198.185	101.89
198.404	-33.28
198.623	97.79
198.842	138.75
199.062	89.6
199.281	153.09
199.5	30.21
199.719	118.27
199.938	73.21
200.157	38.4
200.376	48.64
200.595	165.37
200.814	60.93
201.033	-47.62
201.252	136.7
201.471	56.83
201.69	56.83
201.909	19.97
202.128	126.46
202.347	93.69
202.566	48.64
202.785	5.63
203.004	-4.61
203.223	255.48
203.442	81.41
203.661	-6.66
203.879	67.07
204.098	56.83
204.317	-27.14
204.536	99.84
204.755	83.45
204.974	71.17
205.193	-6.66
205.411	146.94
205.63	144.89
205.849	118.27
206.068	32.26
206.287	-14.85
206.505	89.6
206.724	34.3
206.943	-14.85
207.162	60.93
207.381	62.98
207.599	52.74
207.818	17.92
208.037	-37.38
208.255	24.06
208.474	42.5
208.693	120.32
208.911	3.58
209.13	112.13
209.349	87.55
209.567	116.22
209.786	69.12
210.005	124.41
210.223	77.31
210.442	-88.57
210.661	11.78
210.879	34.3
211.098	24.06
211.316	7.68
211.535	95.74
211.753	-10.75
211.972	48.64
212.191	-39.42
212.409	13.82
212.628	126.46
212.846	-4.61
213.065	30.21
213.283	56.83
213.502	-53.76
213.72	126.46
213.938	58.88
214.157	22.02
214.375	81.41
214.594	-29.18
214.812	54.78
215.031	22.02
215.249	56.83
215.467	73.21
215.686	34.3
215.904	26.11
216.122	42.5
216.341	218.62
216.559	120.32
216.778	177.66
216.996	206.33
217.214	15.87
217.432	34.3
217.651	-53.76
217.869	38.4
218.087	26.11
218.306	1.54
218.524	11.78
218.742	44.54
218.96	60.93
219.179	134.65
219.397	-33.28
219.615	181.76
219.833	144.89
220.051	5.63
220.27	120.32
220.488	177.66
220.706	130.56
220.924	-18.94
221.142	-8.7
221.36	30.21
221.578	77.31
221.796	-14.85
222.015	-37.38
222.233	40.45
222.451	192
222.669	-6.66
222.887	46.59
223.105	30.21
223.323	54.78
223.541	26.11
223.759	75.26
223.977	-2.56
224.195	99.84
224.413	89.6
224.631	56.83
224.849	34.3
225.067	257.53
225.285	-2.56
225.503	24.06
225.721	-156.16
225.939	122.37
226.157	81.41
226.375	153.09
226.592	-70.14
226.81	60.93
227.028	22.02
227.246	99.84
227.464	19.97
227.682	46.59
227.9	-53.76
228.117	13.82
228.335	32.26
228.553	46.59
228.771	40.45
228.989	77.31
229.206	83.45
229.424	-8.7
229.642	17.92
229.86	-94.72
230.077	126.46
230.295	73.21
230.513	132.61
230.731	7.68
230.948	157.18
231.166	138.75
231.384	22.02
231.601	-12.8
231.819	200.19
232.037	-4.61
232.254	-49.66
232.472	-33.28
232.689	-14.85
232.907	114.17
233.125	-35.33
233.342	28.16
233.56	58.88
233.777	67.07
233.995	-12.8
234.213	60.93
234.43	56.83
234.648	15.87
234.865	-31.23
235.083	24.06
235.3	-29.18
235.518	52.74
235.735	128.51
235.953	169.47
236.17	124.41
236.388	19.97
236.605	67.07
236.822	83.45
237.04	110.08
237.257	22.02
237.475	50.69
237.692	79.36
237.909	-2.56
238.127	5.63
238.344	65.02
238.562	62.98
238.779	-6.66
238.996	-23.04
239.214	95.74
239.431	128.51
239.648	24.06
239.865	62.98
240.083	44.54
240.3	-51.71
240.517	17.92
240.735	67.07
240.952	126.46
241.169	40.45
241.386	85.5
241.603	32.26
241.821	-41.47
242.038	112.13
242.255	44.54
242.472	-12.8
242.689	97.79
242.907	151.04
243.124	91.65
243.341	-0.51
243.558	11.78
243.775	-78.33
243.992	-41.47
244.209	79.36
244.426	110.08
244.643	134.65
244.86	38.4
245.078	87.55
245.295	95.74
245.512	-51.71
245.729	5.63
245.946	65.02
246.163	42.5
246.38	58.88
246.597	60.93
246.814	48.64
247.031	22.02
247.248	-0.51
247.464	62.98
247.681	11.78
247.898	24.06
248.115	-12.8
248.332	-8.7
248.549	144.89
248.766	132.61
248.983	97.79
249.2	44.54
249.417	183.81
249.633	11.78
249.85	62.98
250.067	81.41
250.284	54.78
250.501	44.54
250.717	108.03
250.934	-66.05
251.151	13.82
251.368	-16.9
251.585	69.12
251.801	101.89
252.018	-2.56
252.235	165.37
252.451	-33.28
252.668	-33.28
252.885	67.07
253.102	22.02
253.318	5.63
253.535	26.11
253.752	-31.23
253.968	44.54
254.185	-96.77
254.401	5.63
254.618	71.17
254.835	-57.86
255.051	134.65
255.268	108.03
255.484	-10.75
255.701	58.88
255.917	-14.85
256.134	-14.85
256.351	28.16
256.567	-70.14
256.784	73.21
257	-68.09
257.217	116.22
257.433	79.36
257.65	58.88
257.866	222.72
258.082	-111.1
258.299	-64
258.515	69.12
258.732	17.92
258.948	13.82
259.165	40.45
259.381	-20.99
259.597	83.45
259.814	-6.66
260.03	24.06
260.246	-72.19
260.463	87.55
260.679	103.93
260.895	13.82
261.112	-39.42
261.328	13.82
261.544	22.02
261.761	183.81
261.977	-4.61
262.193	-2.56
262.409	58.88
262.626	15.87
262.842	-27.14
263.058	-8.7
263.274	81.41
263.49	67.07
263.707	9.73
263.923	71.17
264.139	-41.47
264.355	17.92
264.571	136.7
264.787	67.07
265.004	173.57
265.22	-31.23
265.436	-10.75
265.652	-12.8
265.868	32.26
266.084	-61.95
266.3	87.55
266.516	65.02
266.732	105.98
266.948	60.93
267.164	71.17
267.38	67.07
267.596	91.65
267.812	202.24
268.028	11.78
268.244	-18.94
268.46	34.3
268.676	-6.66
268.892	124.41
269.108	-8.7
269.324	-90.62
269.54	-76.29
269.756	60.93
269.972	11.78
270.188	30.21
270.403	-86.53
270.619	19.97
270.835	62.98
271.051	85.5
271.267	40.45
271.483	-25.09
271.698	142.85
271.914	38.4
272.13	62.98
272.346	-90.62
272.562	34.3
272.777	73.21
272.993	-27.14
273.209	1.54
273.425	85.5
273.64	-98.81
273.856	44.54
274.072	-98.81
274.287	65.02
274.503	73.21
274.719	105.98
274.934	83.45
275.15	-121.34
275.366	116.22
275.581	-70.14
275.797	-20.99
276.012	9.73
276.228	-31.23
276.444	5.63
276.659	126.46
276.875	-39.42
277.09	-45.57
277.306	1.54
277.521	42.5
277.737	28.16
277.952	75.26
278.168	-18.94
278.383	-8.7
278.599	36.35
278.814	108.03
279.03	28.16
279.245	105.98
279.461	-45.57
279.676	44.54
279.892	-70.14
280.107	50.69
280.322	-14.85
280.538	87.55
280.753	-51.71
280.969	-23.04
281.184	-27.14
281.399	122.37
281.615	40.45
281.83	128.51
282.045	-107.01
282.26	26.11
282.476	30.21
282.691	38.4
282.906	56.83
283.122	48.64
283.337	-74.24
283.552	65.02
283.767	-33.28
283.983	32.26
284.198	7.68
284.413	30.21
284.628	-78.33
284.843	24.06
285.058	24.06
285.274	-37.38
285.489	-59.9
285.704	105.98
285.919	-33.28
286.134	22.02
286.349	9.73
286.564	-41.47
286.779	169.47
286.995	-10.75
287.21	-12.8
287.425	60.93
287.64	-29.18
287.855	85.5
288.07	-74.24
288.285	73.21
288.5	24.06
288.715	65.02
288.93	17.92
289.145	5.63
289.36	122.37
289.575	77.31
289.79	167.42
290.004	-35.33
290.219	120.32
290.434	52.74
290.649	77.31
290.864	19.97
291.079	71.17
291.294	93.69
291.509	26.11
291.724	36.35
291.938	36.35
292.153	108.03
292.368	-0.51
292.583	112.13
292.798	97.79
293.012	163.33
293.227	79.36
293.442	-25.09
293.657	65.02
293.871	128.51
294.086	3.58
294.301	161.28
294.516	83.45
294.73	17.92
294.945	-145.92
295.16	9.73
295.374	77.31
295.589	65.02
295.804	-25.09
296.018	85.5
296.233	24.06
296.447	26.11
296.662	-45.57
296.877	87.55
297.091	99.84
297.306	46.59
297.52	7.68
297.735	34.3
297.949	3.58
298.164	-14.85
298.378	81.41
298.593	-12.8
298.807	3.58
299.022	44.54
299.236	144.89
299.451	11.78
299.665	5.63
299.88	46.59
300.094	101.89
300.309	-10.75
300.523	71.17
300.737	-10.75
300.952	54.78
301.166	85.5
301.381	-31.23
301.595	-8.7
301.809	3.58
302.024	42.5
302.238	-72.19
302.452	153.09
302.667	-25.09
302.881	124.41
303.095	46.59
303.309	5.63
303.524	3.58
303.738	-64
303.952	-55.81
304.166	65.02
304.381	-127.49
304.595	103.93
304.809	-33.28
305.023	103.93
305.237	22.02
305.452	-16.9
305.666	65.02
305.88	85.5
306.094	79.36
306.308	62.98
306.522	44.54
306.736	30.21
306.95	116.22
307.164	26.11
307.379	71.17
307.593	161.28
307.807	105.98
308.021	67.07
308.235	114.17
308.449	-107.01
308.663	91.65
308.877	249.34
309.091	52.74
309.305	54.78
309.519	-18.94
309.733	118.27
309.947	-6.66
310.161	26.11
310.374	130.56
310.588	136.7
310.802	-51.71
311.016	3.58
311.23	120.32
311.444	-68.09
311.658	54.78
311.872	167.42
312.085	116.22
312.299	83.45
312.513	87.55
312.727	93.69
312.941	48.64
313.154	-76.29
313.368	54.78
313.582	5.63
313.796	56.83
314.009	56.83
314.223	108.03
314.437	95.74
314.651	44.54
314.864	62.98
315.078	-59.9
315.292	-14.85
315.505	11.78
315.719	19.97
315.933	114.17
316.146	32.26
316.36	-4.61
316.573	130.56
316.787	-18.94
317.001	13.82
317.214	36.35
317.428	65.02
317.641	-76.29
317.855	15.87
318.068	58.88
318.282	79.36
318.495	99.84
318.709	71.17
318.922	15.87
319.136	-8.7
319.349	99.84
319.563	1.54
319.776	81.41
319.99	11.78
320.203	38.4
320.417	36.35
320.63	128.51
320.843	99.84
321.057	32.26
321.27	62.98
321.483	48.64
321.697	87.55
321.91	28.16
322.124	30.21
322.337	62.98
322.55	-64
322.763	58.88
322.977	-16.9
323.19	-20.99
323.403	85.5
323.617	91.65
323.83	50.69
324.043	30.21
324.256	9.73
324.469	-55.81
324.683	77.31
324.896	99.84
325.109	-16.9
325.322	-31.23
325.535	103.93
325.748	15.87
325.962	38.4
326.175	81.41
326.388	22.02
326.601	175.61
326.814	-12.8
327.027	46.59
327.24	103.93
327.453	-84.48
327.666	42.5
327.879	65.02
328.092	73.21
328.305	54.78
328.518	71.17
328.731	-23.04
328.944	9.73
329.157	83.45
329.37	-10.75
329.583	275.96
329.796	132.61
330.009	-49.66
330.222	163.33
330.435	114.17
330.648	5.63
330.861	17.92
331.073	50.69
331.286	151.04
331.499	-0.51
331.712	11.78
331.925	60.93
332.138	-4.61
332.35	65.02
332.563	-45.57
332.776	159.23
332.989	-66.05
333.202	-20.99
333.414	46.59
333.627	7.68
333.84	-0.51
334.053	3.58
334.265	42.5
334.478	-49.66
334.691	-14.85
334.903	46.59
335.116	17.92
335.329	79.36
335.541	124.41
335.754	116.22
335.966	5.63
336.179	15.87
336.392	-14.85
336.604	22.02
336.817	126.46
337.029	17.92
337.242	71.17
337.454	83.45
337.667	48.64
337.88	148.99
338.092	108.03
338.305	28.16
338.517	17.92
338.729	79.36
338.942	108.03
339.154	-35.33
339.367	-82.43
339.579	-4.61
339.792	24.06
340.004	77.31
340.217	-0.51
340.429	67.07
340.641	-90.62
340.854	-33.28
341.066	1.54
341.278	67.07
341.491	124.41
341.703	67.07
341.915	-10.75
342.128	79.36
342.34	69.12
342.552	-10.75
342.764	-37.38
342.977	-51.71
343.189	-14.85
343.401	13.82
343.613	-53.76
343.826	11.78
344.038	-59.9
344.25	50.69
344.462	-64
344.674	26.11
344.886	1.54
345.099	44.54
345.311	85.5
345.523	52.74
345.735	-119.29
345.947	62.98
346.159	40.45
346.371	120.32
346.583	67.07
346.795	218.62
347.007	93.69
347.219	-16.9
347.431	-8.7
347.643	85.5
347.855	-16.9
348.067	179.71
348.279	-55.81
348.491	22.02
348.703	42.5
348.915	30.21
349.127	-100.86
349.339	5.63
349.551	65.02
349.763	42.5
349.975	110.08
350.187	75.26
350.399	142.85
350.61	46.59
350.822	-2.56
351.034	24.06
351.246	73.21
351.458	28.16
351.669	99.84
351.881	-12.8
352.093	75.26
352.305	157.18
352.517	44.54
352.728	128.51
352.94	-6.66
353.152	79.36
353.363	-70.14
353.575	56.83
353.787	138.75
353.999	67.07
354.21	112.13
354.422	-43.52
354.633	19.97
354.845	30.21
355.057	28.16
355.268	7.68
355.48	69.12
355.692	-31.23
355.903	118.27
356.115	48.64
356.326	-14.85
356.538	194.05
356.749	3.58
356.961	189.95
357.172	26.11
357.384	-14.85
357.595	134.65
357.807	26.11
358.018	-2.56
358.23	42.5
358.441	165.37
358.653	48.64
358.864	28.16
359.075	-41.47
359.287	-31.23
359.498	95.74
359.709	50.69
359.921	3.58
360.132	-27.14
360.344	-27.14
360.555	-35.33
360.766	93.69
360.977	13.82
361.189	71.17
361.4	24.06
361.611	118.27
361.823	105.98
362.034	13.82
362.245	-14.85
362.456	9.73
362.667	52.74
362.879	-10.75
363.09	17.92
363.301	62.98
363.512	22.02
363.723	-35.33
363.935	38.4
364.146	171.52
364.357	52.74
364.568	15.87
364.779	-82.43
364.99	161.28
365.201	9.73
365.412	153.09
365.623	-6.66
365.834	-39.42
366.045	77.31
366.256	28.16
366.467	62.98
366.678	24.06
366.889	-47.62
367.1	-12.8
367.311	60.93
367.522	-37.38
367.733	38.4
367.944	95.74
368.155	-43.52
368.366	79.36
368.577	89.6
368.788	97.79
368.999	-27.14
369.209	56.83
369.42	198.14
369.631	198.14
369.842	58.88
370.053	-51.71
370.264	36.35
370.474	-47.62
370.685	19.97
370.896	71.17
371.107	73.21
371.317	9.73
371.528	15.87
371.739	153.09
371.95	116.22
372.16	52.74
372.371	-27.14
372.582	28.16
372.792	46.59
373.003	67.07
373.214	67.07
373.424	97.79
373.635	-27.14
373.846	124.41
374.056	93.69
374.267	-2.56
374.477	77.31
374.688	-43.52
374.898	73.21
375.109	9.73
375.319	62.98
375.53	114.17
375.74	73.21
375.951	77.31
376.161	60.93
376.372	136.7
376.582	-4.61
376.793	105.98
377.003	-16.9
377.214	-47.62
377.424	114.17
377.635	-14.85
377.845	34.3
378.055	120.32
378.266	9.73
378.476	34.3
378.686	34.3
378.897	11.78
379.107	67.07
379.317	38.4
379.528	34.3
379.738	171.52
379.948	-2.56
380.158	128.51
380.369	110.08
380.579	67.07
380.789	17.92
380.999	93.69
381.21	151.04
381.42	157.18
381.63	-12.8
381.84	34.3
382.05	40.45
382.261	95.74
382.471	65.02
382.681	13.82
382.891	118.27
383.101	24.06
383.311	-12.8
383.521	-41.47
383.731	54.78
383.941	144.89
384.151	58.88
384.361	48.64
384.571	120.32
384.781	77.31
384.991	122.37
385.201	212.48
385.411	110.08
385.621	151.04
385.831	46.59
386.041	34.3
386.251	-10.75
386.461	122.37
386.671	22.02
386.881	91.65
387.091	-23.04
387.301	97.79
387.511	13.82
387.72	36.35
387.93	138.75
388.14	-41.47
388.35	22.02
388.56	136.7
388.769	54.78
388.979	-29.18
389.189	-20.99
389.399	-2.56
389.609	93.69
389.818	17.92
390.028	-14.85
390.238	120.32
390.447	-25.09
390.657	-14.85
390.867	30.21
391.076	-96.77
391.286	116.22
391.496	-33.28
391.705	67.07
391.915	116.22
392.125	144.89
392.334	-14.85
392.544	198.14
392.753	-70.14
392.963	-23.04
393.172	36.35
393.382	-35.33
393.591	189.95
393.801	-39.42
394.01	128.51
394.22	130.56
394.429	56.83
394.639	-2.56
394.848	38.4
395.058	26.11
395.267	7.68
395.477	132.61
395.686	75.26
395.895	169.47
396.105	159.23
396.314	50.69
396.524	-35.33
396.733	15.87
396.942	73.21
397.152	79.36
397.361	112.13
397.57	85.5
397.78	120.32
397.989	46.59
398.198	173.57
398.407	44.54
398.617	-16.9
398.826	-4.61
399.035	17.92
399.244	32.26
399.453	48.64
399.663	22.02
399.872	22.02
400.081	-31.23
400.29	114.17
400.499	7.68
400.708	79.36
400.917	69.12
401.127	60.93
401.336	110.08
401.545	183.81
401.754	165.37
401.963	32.26
402.172	-20.99
402.381	-66.05
402.59	11.78
402.799	32.26
403.008	62.98
403.217	46.59
403.426	60.93
403.635	-76.29
403.844	40.45
404.053	-20.99
404.262	-10.75
404.471	171.52
404.68	67.07
404.888	28.16
405.097	-47.62
405.306	36.35
405.515	140.8
405.724	-20.99
405.933	81.41
406.142	28.16
406.35	157.18
406.559	-27.14
406.768	-92.67
406.977	173.57
407.185	44.54
407.394	62.98
407.603	-18.94
407.812	54.78
408.02	97.79
408.229	-39.42
408.438	103.93
408.646	-119.29
408.855	38.4
409.064	101.89
409.272	22.02
409.481	46.59
409.69	52.74
409.898	-64
410.107	97.79
410.315	83.45
410.524	-18.94
410.733	42.5
410.941	30.21
411.15	30.21
411.358	146.94
411.567	87.55
411.775	17.92
411.984	38.4
412.192	136.7
412.401	36.35
412.609	75.26
412.818	69.12
413.026	148.99
413.234	52.74
413.443	62.98
413.651	-53.76
413.86	46.59
414.068	212.48
414.276	177.66
414.485	-16.9
414.693	157.18
414.901	194.05
415.11	58.88
415.318	22.02
415.526	-20.99
415.734	118.27
415.943	-2.56
416.151	144.89
416.359	108.03
416.567	67.07
416.776	108.03
416.984	56.83
417.192	192
417.4	-12.8
417.608	44.54
417.817	-2.56
418.025	62.98
418.233	91.65
418.441	73.21
418.649	-20.99
418.857	28.16
419.065	175.61
419.273	15.87
419.481	1.54
419.689	30.21
419.897	50.69
420.105	-18.94
420.313	79.36
420.521	155.13
420.729	130.56
420.937	-61.95
421.145	38.4
421.353	89.6
421.561	169.47
421.769	17.92
421.977	7.68
422.185	118.27
422.393	-0.51
422.601	99.84
422.809	99.84
423.017	136.7
423.224	75.26
423.432	42.5
423.64	97.79
423.848	159.23
424.056	-68.09
424.263	124.41
424.471	38.4
424.679	73.21
424.887	13.82
425.094	157.18
425.302	105.98
425.51	40.45
425.718	116.22
425.925	46.59
426.133	30.21
426.341	226.81
426.548	77.31
426.756	3.58
426.964	165.37
427.171	30.21
427.379	118.27
427.586	56.83
427.794	153.09
428.001	179.71
428.209	48.64
428.417	202.24
428.624	138.75
428.832	50.69
429.039	22.02
429.247	140.8
429.454	50.69
429.662	228.86
429.869	148.99
430.076	169.47
430.284	42.5
430.491	204.28
430.699	116.22
430.906	175.61
431.114	110.08
431.321	161.28
431.528	-2.56
431.736	161.28
431.943	130.56
432.15	146.94
432.358	148.99
432.565	288.25
432.772	26.11
432.979	239.1
433.187	159.23
433.394	243.2
433.601	114.17
433.808	239.1
434.016	192
434.223	108.03
434.43	171.52
434.637	210.43
434.844	232.96
435.052	216.57
435.259	325.12
435.466	175.61
435.673	284.16
435.88	241.15
436.087	286.2
436.294	351.74
436.501	304.64
436.708	255.48
436.915	300.54
437.122	290.3
437.329	329.21
437.537	259.58
437.743	327.16
437.95	349.69
438.157	343.55
438.364	415.23
438.571	364.03
438.778	366.07
438.985	439.8
439.192	536.06
439.399	413.18
439.606	447.99
439.813	529.91
440.02	531.96
440.227	632.31
440.433	638.45
440.64	503.29
440.847	470.52
441.054	620.02
441.261	730.61
441.467	620.02
441.674	538.1
441.881	706.04
442.088	667.13
442.294	777.72
442.501	740.85
442.708	765.43
442.914	697.85
443.121	830.96
443.328	816.63
443.534	861.68
443.741	855.54
443.948	767.48
444.154	949.75
444.361	1140.21
444.568	912.88
444.774	1080.82
444.981	966.13
445.187	1113.58
445.394	1115.63
445.6	1101.3
445.807	1349.1
446.013	1160.69
446.22	1111.54
446.426	1345
446.633	1480.17
446.839	1576.42
447.046	1406.44
447.252	1508.84
447.459	1514.98
447.665	1545.7
447.871	1893.86
448.078	1881.57
448.284	1754.6
448.491	1938.91
448.697	1998.31
448.903	2065.89
449.11	2035.17
449.316	1940.96
449.522	2276.83
449.728	2420.19
449.935	2442.71
450.141	2467.29
450.347	2688.47
450.553	2534.87
450.76	2584.02
450.966	2880.98
451.172	2768.34
451.378	2946.52
451.584	3157.46
451.791	3401.16
451.997	3261.9
452.203	3456.46
452.409	3653.06
452.615	3698.12
452.821	3575.24
453.027	3763.65
453.233	4238.78
453.44	4044.23
453.646	4337.09
453.852	4453.82
454.058	4416.96
454.264	4810.17
454.47	4945.33
454.676	5133.75
454.882	5377.45
455.088	5219.76
455.294	5567.92
455.5	5871.01
455.705	6354.34
455.911	6296.99
456.117	6432.16
456.323	6516.12
456.529	6720.92
456.735	7097.75
456.941	7611.79
457.147	7767.43
457.352	7929.22
457.558	8140.16
457.764	8924.54
457.97	8932.73
458.176	9241.97
458.381	9655.66
458.587	10077.54
458.793	10478.94
458.999	10360.16
459.204	11685.2
459.41	11976.01
459.616	11933
459.821	12776.77
460.027	13092.15
460.233	13892.91
460.438	13667.63
460.644	14699.81
460.85	14767.39
461.055	15537.43
461.261	16209.16
461.466	15738.13
461.672	16149.77
461.878	17980.65
462.083	17837.3
462.289	18181.35
462.494	18922.72
462.7	18808.03
462.905	19205.34
463.111	20833.47
463.316	21781.68
463.522	22228.14
463.727	22858.92
463.932	24009.87
464.138	24833.16
464.343	25375.87
464.549	25754.74
464.754	27325.54
464.959	28318.8
465.165	29125.7
465.37	28466.25
465.575	28511.31
465.781	30561.33
465.986	31255.59
466.191	31013.93
466.397	30923.82
466.602	30737.45
466.807	32332.82
467.012	32812.04
467.218	33367.04
467.423	33301.51
467.628	34331.64
467.833	36250.58
468.038	35288.04
468.244	34829.29
468.449	36795.34
468.654	35568.61
