Data from USB4F104151__221__11-06-07-127.txt Node

Date: Wed Feb 26 11:06:07 EST 2025
User: louis
Spectrometer: USB4F10415
Trigger mode: 4
Integration Time (sec): 1.000000E-1
Scans to average: 1
Electric dark correction enabled: true
Nonlinearity correction enabled: false
Boxcar width: 0
XAxis mode: Wavelengths
Number of Pixels in Spectrum: 3648
>>>>>Begin Spectral Data<<<<<
178.204	-438.44
178.424	-438.44
178.644	-438.44
178.864	-383.14
179.084	-407.72
179.304	-22.7
179.524	-100.52
179.744	85.84
179.964	26.45
180.184	36.69
180.404	42.84
180.624	1.88
180.844	-41.13
181.064	-14.51
181.283	-26.79
181.503	-14.51
181.723	26.45
181.943	-151.72
182.163	145.24
182.383	-4.27
182.602	-8.36
182.822	163.67
183.042	75.6
183.262	-20.65
183.482	-55.47
183.701	77.65
183.921	24.4
184.141	-47.27
184.361	51.03
184.58	44.88
184.8	81.75
185.02	-2.22
185.239	77.65
185.459	53.08
185.679	108.37
185.898	-67.75
186.118	-0.17
186.338	157.52
186.557	102.23
186.777	-82.09
186.997	10.07
187.216	1.88
187.436	180.05
187.655	53.08
187.875	16.21
188.095	63.32
188.314	87.89
188.534	77.65
188.753	-45.23
188.973	46.93
189.192	61.27
189.412	24.4
189.631	61.27
189.851	102.23
190.07	169.81
190.29	-141.48
190.509	24.4
190.729	12.12
190.948	135
191.168	274.26
191.387	32.6
191.607	8.02
191.826	106.32
192.045	10.07
192.265	14.17
192.484	53.08
192.704	55.12
192.923	-65.71
193.142	229.2
193.362	112.47
193.581	159.57
193.8	61.27
194.02	135
194.239	16.21
194.458	91.99
194.678	12.12
194.897	22.36
195.116	87.89
195.335	69.46
195.555	132.95
195.774	-2.22
195.993	124.76
196.212	57.17
196.432	-49.32
196.651	-59.56
196.87	16.21
197.089	169.81
197.308	38.74
197.528	14.17
197.747	-108.71
197.966	46.93
198.185	104.28
198.404	79.7
198.623	175.95
198.842	151.38
199.062	98.13
199.281	55.12
199.5	38.74
199.719	53.08
199.938	71.51
200.157	85.84
200.376	110.42
200.595	126.8
200.814	98.13
201.033	8.02
201.252	198.48
201.471	106.32
201.69	65.36
201.909	18.26
202.128	116.56
202.347	116.56
202.566	5.97
202.785	-59.56
203.004	-4.27
203.223	223.06
203.442	-2.22
203.661	-28.84
203.879	1.88
204.098	122.71
204.317	-84.14
204.536	132.95
204.755	61.27
204.974	153.43
205.193	24.4
205.411	163.67
205.63	159.57
205.849	87.89
206.068	28.5
206.287	10.07
206.505	147.28
206.724	91.99
206.943	-16.55
207.162	-34.99
207.381	79.7
207.599	-8.36
207.818	5.97
208.037	-59.56
208.255	34.64
208.474	14.17
208.693	67.41
208.911	-37.03
209.13	98.13
209.349	130.9
209.567	55.12
209.786	100.18
210.005	32.6
210.223	28.5
210.442	-123.05
210.661	102.23
210.879	53.08
211.098	-28.84
211.316	14.17
211.535	59.22
211.753	40.79
211.972	91.99
212.191	-18.6
212.409	26.45
212.628	100.18
212.846	-28.84
213.065	79.7
213.283	44.88
213.502	18.26
213.72	100.18
213.938	-26.79
214.157	-14.51
214.375	104.28
214.594	89.94
214.812	81.75
215.031	-43.18
215.249	44.88
215.467	147.28
215.686	53.08
215.904	83.8
216.122	30.55
216.341	229.2
216.559	-45.23
216.778	118.61
216.996	167.76
217.214	28.5
217.432	-45.23
217.651	-8.36
217.869	16.21
218.087	34.64
218.306	-16.55
218.524	61.27
218.742	89.94
218.96	67.41
219.179	-59.56
219.397	-32.94
219.615	257.87
219.833	161.62
220.051	-55.47
220.27	102.23
220.488	151.38
220.706	34.64
220.924	-84.14
221.142	67.41
221.36	40.79
221.578	42.84
221.796	-28.84
222.015	153.43
222.233	110.42
222.451	135
222.669	-4.27
222.887	87.89
223.105	-47.27
223.323	-4.27
223.541	30.55
223.759	102.23
223.977	55.12
224.195	89.94
224.413	26.45
224.631	32.6
224.849	63.32
225.067	243.54
225.285	16.21
225.503	34.64
225.721	-114.86
225.939	1.88
226.157	87.89
226.375	200.53
226.592	5.97
226.81	32.6
227.028	63.32
227.246	53.08
227.464	1.88
227.682	32.6
227.9	73.56
228.117	91.99
228.335	104.28
228.553	81.75
228.771	-28.84
228.989	36.69
229.206	77.65
229.424	42.84
229.642	53.08
229.86	-26.79
230.077	184.15
230.295	59.22
230.513	46.93
230.731	96.08
230.948	118.61
231.166	192.34
231.384	-37.03
231.601	-92.33
231.819	186.19
232.037	-59.56
232.254	-61.61
232.472	20.31
232.689	22.36
232.907	141.14
233.125	-16.55
233.342	-57.51
233.56	-45.23
233.777	102.23
233.995	1.88
234.213	141.14
234.43	206.67
234.648	-26.79
234.865	26.45
235.083	67.41
235.3	55.12
235.518	28.5
235.735	190.29
235.953	71.51
236.17	65.36
236.388	-22.7
236.605	46.93
236.822	96.08
237.04	151.38
237.257	24.4
237.475	-67.75
237.692	-47.27
237.909	71.51
238.127	5.97
238.344	79.7
238.562	44.88
238.779	-80.04
238.996	-73.9
239.214	106.32
239.431	36.69
239.648	24.4
239.865	100.18
240.083	59.22
240.3	-80.04
240.517	-4.27
240.735	81.75
240.952	98.13
241.169	85.84
241.386	73.56
241.603	-16.55
241.821	-106.67
242.038	71.51
242.255	77.65
242.472	-61.61
242.689	104.28
242.907	63.32
243.124	102.23
243.341	120.66
243.558	14.17
243.775	-88.23
243.992	-55.47
244.209	135
244.426	210.77
244.643	-37.03
244.86	106.32
245.078	44.88
245.295	40.79
245.512	5.97
245.729	42.84
245.946	69.46
246.163	-22.7
246.38	89.94
246.597	75.6
246.814	85.84
247.031	53.08
247.248	48.98
247.464	12.12
247.681	77.65
247.898	108.37
248.115	104.28
248.332	-2.22
248.549	163.67
248.766	104.28
248.983	63.32
249.2	135
249.417	32.6
249.633	5.97
249.85	65.36
250.067	61.27
250.284	98.13
250.501	14.17
250.717	106.32
250.934	-67.75
251.151	-14.51
251.368	59.22
251.585	63.32
251.801	55.12
252.018	-2.22
252.235	153.43
252.451	-20.65
252.668	-45.23
252.885	139.09
253.102	87.89
253.318	-63.66
253.535	8.02
253.752	-4.27
253.968	20.31
254.185	-92.33
254.401	63.32
254.618	83.8
254.835	-34.99
255.051	157.52
255.268	110.42
255.484	44.88
255.701	30.55
255.917	30.55
256.134	-37.03
256.351	44.88
256.567	-65.71
256.784	75.6
257	-106.67
257.217	91.99
257.433	98.13
257.65	57.17
257.866	14.17
258.082	-57.51
258.299	14.17
258.515	46.93
258.732	-2.22
258.948	-59.56
259.165	28.5
259.381	-32.94
259.597	28.5
259.814	57.17
260.03	5.97
260.246	-8.36
260.463	104.28
260.679	85.84
260.895	-6.31
261.112	77.65
261.328	30.55
261.544	8.02
261.761	112.47
261.977	-18.6
262.193	-116.9
262.409	61.27
262.626	14.17
262.842	36.69
263.058	22.36
263.274	73.56
263.49	59.22
263.707	96.08
263.923	108.37
264.139	-67.75
264.355	51.03
264.571	122.71
264.787	42.84
265.004	153.43
265.22	-75.95
265.436	46.93
265.652	16.21
265.868	51.03
266.084	-18.6
266.3	22.36
266.516	-18.6
266.732	69.46
266.948	-0.17
267.164	24.4
267.38	75.6
267.596	57.17
267.812	184.15
268.028	65.36
268.244	-45.23
268.46	20.31
268.676	-22.7
268.892	28.5
269.108	14.17
269.324	-53.42
269.54	-34.99
269.756	57.17
269.972	34.64
270.188	69.46
270.403	-8.36
270.619	-28.84
270.835	147.28
271.051	114.52
271.267	-32.94
271.483	-51.37
271.698	16.21
271.914	83.8
272.13	38.74
272.346	1.88
272.562	-6.31
272.777	182.1
272.993	46.93
273.209	12.12
273.425	-14.51
273.64	-24.75
273.856	65.36
274.072	-28.84
274.287	1.88
274.503	89.94
274.719	83.8
274.934	-32.94
275.15	-100.52
275.366	-4.27
275.581	55.12
275.797	30.55
276.012	110.42
276.228	-14.51
276.444	87.89
276.659	173.91
276.875	10.07
277.09	55.12
277.306	-22.7
277.521	42.84
277.737	3.93
277.952	81.75
278.168	85.84
278.383	5.97
278.599	73.56
278.814	89.94
279.03	-39.08
279.245	61.27
279.461	51.03
279.676	112.47
279.892	-114.86
280.107	-26.79
280.322	32.6
280.538	42.84
280.753	42.84
280.969	57.17
281.184	59.22
281.399	122.71
281.615	32.6
281.83	102.23
282.045	-55.47
282.26	14.17
282.476	-2.22
282.691	71.51
282.906	87.89
283.122	44.88
283.337	106.32
283.552	98.13
283.767	-34.99
283.983	124.76
284.198	8.02
284.413	83.8
284.628	-59.56
284.843	38.74
285.058	5.97
285.274	22.36
285.489	-75.95
285.704	61.27
285.919	30.55
286.134	12.12
286.349	73.56
286.564	16.21
286.779	110.42
286.995	20.31
287.21	-84.14
287.425	75.6
287.64	-67.75
287.855	69.46
288.07	-98.47
288.285	65.36
288.5	139.09
288.715	61.27
288.93	-16.55
289.145	1.88
289.36	124.76
289.575	-4.27
289.79	116.56
290.004	-24.75
290.219	118.61
290.434	-28.84
290.649	-26.79
290.864	46.93
291.079	-0.17
291.294	178
291.509	53.08
291.724	51.03
291.938	5.97
292.153	65.36
292.368	-18.6
292.583	96.08
292.798	112.47
293.012	18.26
293.227	53.08
293.442	36.69
293.657	83.8
293.871	135
294.086	22.36
294.301	135
294.516	79.7
294.73	87.89
294.945	-39.08
295.16	30.55
295.374	167.76
295.589	139.09
295.804	8.02
296.018	16.21
296.233	73.56
296.447	53.08
296.662	40.79
296.877	81.75
297.091	51.03
297.306	10.07
297.52	-24.75
297.735	79.7
297.949	67.41
298.164	44.88
298.378	-16.55
298.593	1.88
298.807	-53.42
299.022	36.69
299.236	190.29
299.451	5.97
299.665	-84.14
299.88	38.74
300.094	98.13
300.309	-37.03
300.523	30.55
300.737	3.93
300.952	108.37
301.166	-6.31
301.381	-30.89
301.595	61.27
301.809	-14.51
302.024	-39.08
302.238	10.07
302.452	89.94
302.667	46.93
302.881	214.87
303.095	30.55
303.309	48.98
303.524	10.07
303.738	32.6
303.952	-22.7
304.166	40.79
304.381	-125.1
304.595	106.32
304.809	-16.55
305.023	67.41
305.237	-59.56
305.452	87.89
305.666	63.32
305.88	75.6
306.094	91.99
306.308	91.99
306.522	143.19
306.736	87.89
306.95	51.03
307.164	28.5
307.379	40.79
307.593	100.18
307.807	51.03
308.021	149.33
308.235	81.75
308.449	-80.04
308.663	-4.27
308.877	159.57
309.091	46.93
309.305	3.93
309.519	-67.75
309.733	100.18
309.947	-61.61
310.161	65.36
310.374	-6.31
310.588	161.62
310.802	28.5
311.016	-61.61
311.23	53.08
311.444	-28.84
311.658	51.03
311.872	104.28
312.085	155.47
312.299	157.52
312.513	184.15
312.727	46.93
312.941	-73.9
313.154	53.08
313.368	36.69
313.582	-47.27
313.796	65.36
314.009	20.31
314.223	130.9
314.437	18.26
314.651	81.75
314.864	-53.42
315.078	-26.79
315.292	-133.29
315.505	-2.22
315.719	79.7
315.933	128.85
316.146	120.66
316.36	-30.89
316.573	126.8
316.787	98.13
317.001	36.69
317.214	-51.37
317.428	38.74
317.641	14.17
317.855	38.74
318.068	26.45
318.282	18.26
318.495	165.71
318.709	79.7
318.922	28.5
319.136	98.13
319.349	83.8
319.563	5.97
319.776	71.51
319.99	-16.55
320.203	81.75
320.417	3.93
320.63	128.85
320.843	141.14
321.057	12.12
321.27	-26.79
321.483	67.41
321.697	69.46
321.91	1.88
322.124	16.21
322.337	112.47
322.55	16.21
322.763	73.56
322.977	34.64
323.19	26.45
323.403	91.99
323.617	30.55
323.83	102.23
324.043	53.08
324.256	77.65
324.469	-12.46
324.683	108.37
324.896	-96.43
325.109	53.08
325.322	-69.8
325.535	124.76
325.748	53.08
325.962	-26.79
326.175	118.61
326.388	87.89
326.601	161.62
326.814	5.97
327.027	20.31
327.24	28.5
327.453	-90.28
327.666	53.08
327.879	190.29
328.092	-18.6
328.305	14.17
328.518	-41.13
328.731	51.03
328.944	-30.89
329.157	94.04
329.37	-22.7
329.583	141.14
329.796	139.09
330.009	3.93
330.222	51.03
330.435	102.23
330.648	116.56
330.861	108.37
331.073	120.66
331.286	132.95
331.499	61.27
331.712	30.55
331.925	36.69
332.138	12.12
332.35	42.84
332.563	-8.36
332.776	57.17
332.989	-28.84
333.202	8.02
333.414	-2.22
333.627	36.69
333.84	53.08
334.053	32.6
334.265	-67.75
334.478	-4.27
334.691	79.7
334.903	79.7
335.116	-67.75
335.329	-37.03
335.541	145.24
335.754	139.09
335.966	73.56
336.179	20.31
336.392	96.08
336.604	24.4
336.817	73.56
337.029	126.8
337.242	3.93
337.454	104.28
337.667	87.89
337.88	175.95
338.092	1.88
338.305	40.79
338.517	-14.51
338.729	71.51
338.942	122.71
339.154	-39.08
339.367	20.31
339.579	75.6
339.792	-53.42
340.004	75.6
340.217	30.55
340.429	20.31
340.641	-61.61
340.854	20.31
341.066	-6.31
341.278	108.37
341.491	116.56
341.703	114.52
341.915	-16.55
342.128	102.23
342.34	87.89
342.552	-16.55
342.764	38.74
342.977	85.84
343.189	108.37
343.401	-14.51
343.613	-53.42
343.826	-20.65
344.038	-100.52
344.25	98.13
344.462	-2.22
344.674	22.36
344.886	24.4
345.099	57.17
345.311	98.13
345.523	-26.79
345.735	-6.31
345.947	-14.51
346.159	59.22
346.371	-18.6
346.583	28.5
346.795	190.29
347.007	-26.79
347.219	-20.65
347.431	1.88
347.643	175.95
347.855	-43.18
348.067	130.9
348.279	-100.52
348.491	77.65
348.703	141.14
348.915	-69.8
349.127	14.17
349.339	67.41
349.551	24.4
349.763	-30.89
349.975	36.69
350.187	67.41
350.399	55.12
350.61	110.42
350.822	-6.31
351.034	55.12
351.246	59.22
351.458	34.64
351.669	36.69
351.881	98.13
352.093	122.71
352.305	100.18
352.517	10.07
352.728	26.45
352.94	10.07
353.152	77.65
353.363	-100.52
353.575	124.76
353.787	173.91
353.999	63.32
354.21	190.29
354.422	-41.13
354.633	18.26
354.845	71.51
355.057	24.4
355.268	108.37
355.48	69.46
355.692	-20.65
355.903	28.5
356.115	-0.17
356.326	-12.46
356.538	137.04
356.749	85.84
356.961	71.51
357.172	67.41
357.384	-77.99
357.595	216.91
357.807	-59.56
358.018	44.88
358.23	-53.42
358.441	98.13
358.653	128.85
358.864	57.17
359.075	-51.37
359.287	51.03
359.498	28.5
359.709	-16.55
359.921	36.69
360.132	16.21
360.344	3.93
360.555	34.64
360.766	77.65
360.977	55.12
361.189	73.56
361.4	42.84
361.611	110.42
361.823	153.43
362.034	91.99
362.245	-90.28
362.456	-45.23
362.667	61.27
362.879	-6.31
363.09	-0.17
363.301	122.71
363.512	20.31
363.723	-8.36
363.935	18.26
364.146	100.18
364.357	26.45
364.568	51.03
364.779	-6.31
364.99	153.43
365.201	-96.43
365.412	28.5
365.623	-49.32
365.834	163.67
366.045	63.32
366.256	51.03
366.467	184.15
366.678	67.41
366.889	48.98
367.1	40.79
367.311	53.08
367.522	-18.6
367.733	28.5
367.944	36.69
368.155	-32.94
368.366	57.17
368.577	151.38
368.788	104.28
368.999	-26.79
369.209	20.31
369.42	249.68
369.631	237.39
369.842	143.19
370.053	46.93
370.264	83.8
370.474	-32.94
370.685	22.36
370.896	-49.32
371.107	137.04
371.317	44.88
371.528	46.93
371.739	112.47
371.95	42.84
372.16	53.08
372.371	20.31
372.582	48.98
372.792	116.56
373.003	46.93
373.214	79.7
373.424	75.6
373.635	3.93
373.846	128.85
374.056	53.08
374.267	124.76
374.477	65.36
374.688	3.93
374.898	112.47
375.109	73.56
375.319	67.41
375.53	-2.22
375.74	65.36
375.951	5.97
376.161	12.12
376.372	118.61
376.582	28.5
376.793	100.18
377.003	-32.94
377.214	5.97
377.424	77.65
377.635	106.32
377.845	-12.46
378.055	102.23
378.266	-12.46
378.476	102.23
378.686	-16.55
378.897	65.36
379.107	100.18
379.317	65.36
379.528	-16.55
379.738	206.67
379.948	-51.37
380.158	44.88
380.369	32.6
380.579	75.6
380.789	34.64
380.999	71.51
381.21	-8.36
381.42	202.58
381.63	75.6
381.84	159.57
382.05	69.46
382.261	110.42
382.471	141.14
382.681	-37.03
382.891	155.47
383.101	8.02
383.311	16.21
383.521	-12.46
383.731	79.7
383.941	143.19
384.151	108.37
384.361	-41.13
384.571	102.23
384.781	85.84
384.991	204.63
385.201	194.39
385.411	141.14
385.621	61.27
385.831	53.08
386.041	51.03
386.251	1.88
386.461	91.99
386.671	77.65
386.881	10.07
387.091	77.65
387.301	75.6
387.511	51.03
387.72	61.27
387.93	42.84
388.14	-41.13
388.35	42.84
388.56	69.46
388.769	169.81
388.979	30.55
389.189	5.97
389.399	44.88
389.609	53.08
389.818	44.88
390.028	32.6
390.238	48.98
390.447	3.93
390.657	65.36
390.867	12.12
391.076	-34.99
391.286	91.99
391.496	-20.65
391.705	42.84
391.915	186.19
392.125	44.88
392.334	-16.55
392.544	91.99
392.753	34.64
392.963	-57.51
393.172	73.56
393.382	28.5
393.591	110.42
393.801	32.6
394.01	73.56
394.22	53.08
394.429	14.17
394.639	75.6
394.848	48.98
395.058	57.17
395.267	40.79
395.477	83.8
395.686	102.23
395.895	184.15
396.105	200.53
396.314	-8.36
396.524	73.56
396.733	104.28
396.942	87.89
397.152	46.93
397.361	141.14
397.57	100.18
397.78	63.32
397.989	85.84
398.198	137.04
398.407	1.88
398.617	5.97
398.826	-2.22
399.035	40.79
399.244	104.28
399.453	40.79
399.663	-8.36
399.872	75.6
400.081	-100.52
400.29	135
400.499	-10.41
400.708	51.03
400.917	-2.22
401.127	8.02
401.336	32.6
401.545	171.86
401.754	161.62
401.963	38.74
402.172	-14.51
402.381	-32.94
402.59	26.45
402.799	8.02
403.008	132.95
403.217	28.5
403.426	110.42
403.635	-53.42
403.844	51.03
404.053	16.21
404.262	65.36
404.471	182.1
404.68	135
404.888	26.45
405.097	-49.32
405.306	36.69
405.515	65.36
405.724	-37.03
405.933	108.37
406.142	71.51
406.35	120.66
406.559	75.6
406.768	51.03
406.977	212.82
407.185	38.74
407.394	61.27
407.603	-6.31
407.812	79.7
408.02	206.67
408.229	24.4
408.438	83.8
408.646	5.97
408.855	38.74
409.064	89.94
409.272	51.03
409.481	63.32
409.69	-30.89
409.898	71.51
410.107	48.98
410.315	124.76
410.524	8.02
410.733	67.41
410.941	1.88
411.15	71.51
411.358	114.52
411.567	112.47
411.775	36.69
411.984	81.75
412.192	126.8
412.401	30.55
412.609	159.57
412.818	135
413.026	116.56
413.234	79.7
413.443	61.27
413.651	42.84
413.86	79.7
414.068	114.52
414.276	114.52
414.485	38.74
414.693	135
414.901	214.87
415.11	145.24
415.318	55.12
415.526	79.7
415.734	81.75
415.943	36.69
416.151	159.57
416.359	5.97
416.567	184.15
416.776	94.04
416.984	71.51
417.192	182.1
417.4	3.93
417.608	-26.79
417.817	87.89
418.025	182.1
418.233	108.37
418.441	-8.36
418.649	-49.32
418.857	108.37
419.065	122.71
419.273	-8.36
419.481	63.32
419.689	44.88
419.897	5.97
420.105	-45.23
420.313	104.28
420.521	175.95
420.729	141.14
420.937	-4.27
421.145	-0.17
421.353	106.32
421.561	182.1
421.769	65.36
421.977	16.21
422.185	102.23
422.393	26.45
422.601	157.52
422.809	118.61
423.017	-55.47
423.224	116.56
423.432	161.62
423.64	42.84
423.848	106.32
424.056	46.93
424.263	147.28
424.471	-8.36
424.679	126.8
424.887	-10.41
425.094	218.96
425.302	122.71
425.51	-14.51
425.718	143.19
425.925	59.22
426.133	18.26
426.341	173.91
426.548	12.12
426.756	-24.75
426.964	96.08
427.171	-28.84
427.379	104.28
427.586	71.51
427.794	77.65
428.001	135
428.209	91.99
428.417	180.05
428.624	75.6
428.832	130.9
429.039	112.47
429.247	106.32
429.454	100.18
429.662	245.59
429.869	235.35
430.076	151.38
430.284	108.37
430.491	145.24
430.699	149.33
430.906	159.57
431.114	143.19
431.321	153.43
431.528	147.28
431.736	85.84
431.943	182.1
432.15	141.14
432.358	163.67
432.565	327.5
432.772	75.6
432.979	274.26
433.187	157.52
433.394	309.07
433.601	128.85
433.808	186.19
434.016	216.91
434.223	175.95
434.43	216.91
434.637	325.46
434.844	259.92
435.052	237.39
435.259	329.55
435.466	309.07
435.673	264.02
435.88	270.16
436.087	401.23
436.294	251.73
436.501	382.8
436.708	206.67
436.915	319.31
437.122	313.17
437.329	223.06
437.537	341.84
437.743	409.42
437.95	511.82
438.157	366.42
438.364	362.32
438.571	257.87
438.778	481.1
438.985	458.57
439.192	587.6
439.399	384.85
439.606	462.67
439.813	456.53
440.02	546.64
440.227	632.65
440.433	552.78
440.64	560.97
440.847	464.72
441.054	614.22
441.261	675.66
441.467	628.56
441.674	597.84
441.881	659.28
442.088	587.6
442.294	780.11
442.501	782.15
442.708	773.96
442.914	798.54
443.121	905.03
443.328	907.08
443.534	1001.29
443.741	851.78
443.948	778.06
444.154	1005.38
444.361	1142.6
444.568	1081.16
444.774	1048.39
444.981	1017.67
445.187	1271.62
445.394	1222.47
445.6	1179.46
445.807	1271.62
446.013	1154.88
446.22	1240.9
446.426	1343.3
446.633	1556.29
446.839	1609.53
447.046	1494.85
447.252	1648.44
447.459	1554.24
447.665	1609.53
447.871	1814.33
448.078	1941.3
448.284	1990.45
448.491	1996.6
448.697	2096.95
448.903	2080.57
449.11	2197.3
449.316	2158.39
449.522	2393.9
449.728	2398
449.935	2615.09
450.141	2572.08
450.347	2709.29
450.553	2725.68
450.76	2692.91
450.966	2897.71
451.172	2950.95
451.378	3137.32
451.584	3352.35
451.791	3512.1
451.997	3528.48
452.203	3528.48
452.409	3876.63
452.615	3807
452.821	3845.91
453.027	3917.59
453.233	4525.84
453.44	4284.18
453.646	4548.37
453.852	4644.62
454.058	4964.11
454.264	4908.81
454.47	5410.56
454.676	5308.16
454.882	5873.4
455.088	5531.39
455.294	5910.27
455.5	6217.46
455.705	6592.24
455.911	6416.12
456.117	6780.65
456.323	6987.5
456.529	7069.42
456.735	7741.15
456.941	7960.28
457.147	8275.67
457.352	8505.04
457.558	8648.4
457.764	9133.77
457.97	9326.28
458.176	9948.86
458.381	10225.34
458.587	10372.79
458.793	11011.76
458.999	10905.26
459.204	12295.83
459.41	12570.26
459.616	12527.25
459.821	13321.87
460.027	14081.66
460.233	14429.82
460.438	14630.52
460.644	15287.92
460.85	15586.92
461.055	16164.45
461.261	17225.29
461.466	16649.82
461.672	16852.56
461.878	18966.07
462.083	18769.46
462.289	19140.15
462.494	19580.46
462.7	20041.25
462.905	20342.3
463.111	22001.16
463.316	23160.31
463.522	23520.75
463.727	24075.75
463.932	25365.97
464.138	25882.06
464.343	27137.46
464.549	27207.09
464.754	29083.03
464.959	29812.11
465.165	30432.64
465.37	30096.78
465.575	30080.39
465.781	32333.16
465.986	33289.56
466.191	32341.35
466.397	33228.12
466.602	32253.29
466.807	34360.65
467.012	34536.77
467.218	35325.24
467.423	35210.56
467.628	36341.03
467.833	37977.36
468.038	37391.64
468.244	36777.25
468.449	38880.52
468.654	37915.92
468.859	38016.27
