Data from USB4F104151__146__11-04-20-239.txt Node

Date: Wed Feb 26 11:04:20 EST 2025
User: louis
Spectrometer: USB4F10415
Trigger mode: 4
Integration Time (sec): 1.000000E-1
Scans to average: 1
Electric dark correction enabled: true
Nonlinearity correction enabled: false
Boxcar width: 0
XAxis mode: Wavelengths
Number of Pixels in Spectrum: 3648
>>>>>Begin Spectral Data<<<<<
178.204	-373.07
178.424	-373.07
178.644	-373.07
178.864	-428.37
179.084	-371.02
179.304	-33.11
179.524	-16.73
179.744	42.67
179.964	128.68
180.184	-12.63
180.404	13.99
180.624	-35.16
180.844	-16.73
181.064	-24.92
181.283	18.09
181.503	-20.82
181.723	-43.35
181.943	-143.7
182.163	222.89
182.383	-24.92
182.602	143.02
182.822	106.15
183.042	126.63
183.262	-31.06
183.482	87.72
183.701	28.33
183.921	-35.16
184.141	48.81
184.361	93.87
184.58	20.14
184.8	46.76
185.02	-43.35
185.239	95.91
185.459	65.19
185.679	95.91
185.898	-57.68
186.118	69.29
186.338	18.09
186.557	157.35
186.777	-90.45
186.997	32.43
187.216	54.95
187.436	196.26
187.655	108.2
187.875	85.67
188.095	-10.58
188.314	110.25
188.534	143.02
188.753	26.28
188.973	143.02
189.192	190.12
189.412	24.23
189.631	87.72
189.851	91.82
190.07	163.5
190.29	1.71
190.509	-16.73
190.729	-10.58
190.948	122.54
191.168	204.46
191.387	83.63
191.607	71.34
191.826	46.76
192.045	57
192.265	69.29
192.484	9.9
192.704	20.14
192.923	22.19
193.142	186.02
193.362	136.87
193.581	140.97
193.8	67.24
194.02	67.24
194.239	122.54
194.458	145.06
194.678	44.71
194.897	44.71
195.116	95.91
195.335	28.33
195.555	59.05
195.774	-80.21
195.993	46.76
196.212	26.28
196.432	3.75
196.651	50.86
196.87	63.15
197.089	237.22
197.308	61.1
197.528	61.1
197.747	-45.4
197.966	46.76
198.185	124.58
198.404	38.57
198.623	122.54
198.842	120.49
199.062	89.77
199.281	147.11
199.5	122.54
199.719	77.48
199.938	91.82
200.157	122.54
200.376	81.58
200.595	91.82
200.814	83.63
201.033	5.8
201.252	229.03
201.471	59.05
201.69	130.73
201.909	32.43
202.128	138.92
202.347	81.58
202.566	22.19
202.785	-82.26
203.004	18.09
203.223	272.04
203.442	63.15
203.661	5.8
203.879	77.48
204.098	173.74
204.317	-43.35
204.536	134.82
204.755	124.58
204.974	136.87
205.193	42.67
205.411	208.55
205.63	151.21
205.849	110.25
206.068	9.9
206.287	-69.97
206.505	165.54
206.724	52.91
206.943	-47.44
207.162	95.91
207.381	40.62
207.599	30.38
207.818	57
208.037	-22.87
208.255	48.81
208.474	110.25
208.693	40.62
208.911	-14.68
209.13	157.35
209.349	143.02
209.567	81.58
209.786	188.07
210.005	116.39
210.223	61.1
210.442	-65.88
210.661	83.63
210.879	71.34
211.098	59.05
211.316	77.48
211.535	95.91
211.753	57
211.972	34.47
212.191	59.05
212.409	-0.34
212.628	128.68
212.846	52.91
213.065	44.71
213.283	120.49
213.502	22.19
213.72	59.05
213.938	-39.25
214.157	50.86
214.375	147.11
214.594	-20.82
214.812	159.4
215.031	69.29
215.249	-8.53
215.467	71.34
215.686	52.91
215.904	134.82
216.122	32.43
216.341	181.93
216.559	116.39
216.778	153.26
216.996	235.18
217.214	46.76
217.432	28.33
217.651	-35.16
217.869	48.81
218.087	20.14
218.306	26.28
218.524	93.87
218.742	83.63
218.96	110.25
219.179	61.1
219.397	52.91
219.615	300.71
219.833	100.01
220.051	46.76
220.27	132.78
220.488	57
220.706	136.87
220.924	91.82
221.142	16.04
221.36	87.72
221.578	130.73
221.796	-18.77
222.015	38.57
222.233	120.49
222.451	145.06
222.669	-24.92
222.887	46.76
223.105	22.19
223.323	63.15
223.541	-24.92
223.759	83.63
223.977	22.19
224.195	171.69
224.413	61.1
224.631	81.58
224.849	71.34
225.067	190.12
225.285	87.72
225.503	83.63
225.721	-104.79
225.939	89.77
226.157	40.62
226.375	288.42
226.592	63.15
226.81	1.71
227.028	134.82
227.246	132.78
227.464	42.67
227.682	130.73
227.9	106.15
228.117	77.48
228.335	77.48
228.553	83.63
228.771	5.8
228.989	118.44
229.206	48.81
229.424	-31.06
229.642	7.85
229.86	-51.54
230.077	143.02
230.295	110.25
230.513	44.71
230.731	52.91
230.948	192.17
231.166	269.99
231.384	54.95
231.601	-37.2
231.819	237.22
232.037	48.81
232.254	-33.11
232.472	61.1
232.689	13.99
232.907	200.36
233.125	30.38
233.342	-2.39
233.56	26.28
233.777	-8.53
233.995	36.52
234.213	138.92
234.43	104.11
234.648	71.34
234.865	-4.44
235.083	73.39
235.3	85.67
235.518	95.91
235.735	52.91
235.953	196.26
236.17	44.71
236.388	20.14
236.605	75.43
236.822	118.44
237.04	112.3
237.257	130.73
237.475	-24.92
237.692	32.43
237.909	-0.34
238.127	28.33
238.344	65.19
238.562	81.58
238.779	91.82
238.996	9.9
239.214	50.86
239.431	71.34
239.648	46.76
239.865	28.33
240.083	118.44
240.3	-65.88
240.517	3.75
240.735	73.39
240.952	100.01
241.169	46.76
241.386	97.96
241.603	108.2
241.821	-72.02
242.038	87.72
242.255	143.02
242.472	59.05
242.689	130.73
242.907	59.05
243.124	46.76
243.341	-39.25
243.558	46.76
243.775	-100.69
243.992	-59.73
244.209	108.2
244.426	93.87
244.643	83.63
244.86	36.52
245.078	38.57
245.295	34.47
245.512	114.34
245.729	-0.34
245.946	140.97
246.163	50.86
246.38	42.67
246.597	102.06
246.814	48.81
247.031	87.72
247.248	73.39
247.464	75.43
247.681	63.15
247.898	100.01
248.115	13.99
248.332	-24.92
248.549	89.77
248.766	145.06
248.983	100.01
249.2	77.48
249.417	120.49
249.633	46.76
249.85	32.43
250.067	36.52
250.284	57
250.501	22.19
250.717	126.63
250.934	-49.49
251.151	38.57
251.368	40.62
251.585	169.64
251.801	77.48
252.018	11.95
252.235	151.21
252.451	1.71
252.668	38.57
252.885	147.11
253.102	75.43
253.318	22.19
253.535	40.62
253.752	100.01
253.968	48.81
254.185	-20.82
254.401	112.3
254.618	126.63
254.835	-2.39
255.051	124.58
255.268	67.24
255.484	81.58
255.701	71.34
255.917	93.87
256.134	3.75
256.351	91.82
256.567	-22.87
256.784	52.91
257	-76.12
257.217	108.2
257.433	169.64
257.65	44.71
257.866	163.5
258.082	-26.96
258.299	67.24
258.515	40.62
258.732	104.11
258.948	46.76
259.165	16.04
259.381	-4.44
259.597	132.78
259.814	42.67
260.03	108.2
260.246	102.06
260.463	65.19
260.679	75.43
260.895	50.86
261.112	30.38
261.328	95.91
261.544	-80.21
261.761	159.4
261.977	100.01
262.193	-108.88
262.409	114.34
262.626	93.87
262.842	34.47
263.058	59.05
263.274	116.39
263.49	147.11
263.707	69.29
263.923	124.58
264.139	-51.54
264.355	106.15
264.571	116.39
264.787	54.95
265.004	110.25
265.22	57
265.436	-16.73
265.652	71.34
265.868	48.81
266.084	-88.4
266.3	38.57
266.516	30.38
266.732	69.29
266.948	5.8
267.164	-47.44
267.38	190.12
267.596	128.68
267.812	237.22
268.028	20.14
268.244	-72.02
268.46	106.15
268.676	5.8
268.892	87.72
269.108	-29.01
269.324	-2.39
269.54	32.43
269.756	122.54
269.972	-51.54
270.188	18.09
270.403	75.43
270.619	38.57
270.835	36.52
271.051	38.57
271.267	-4.44
271.483	26.28
271.698	95.91
271.914	48.81
272.13	79.53
272.346	26.28
272.562	3.75
272.777	192.17
272.993	128.68
273.209	75.43
273.425	13.99
273.64	28.33
273.856	102.06
274.072	24.23
274.287	40.62
274.503	54.95
274.719	26.28
274.934	44.71
275.15	9.9
275.366	34.47
275.581	3.75
275.797	69.29
276.012	75.43
276.228	110.25
276.444	52.91
276.659	159.4
276.875	13.99
277.09	-29.01
277.306	54.95
277.521	93.87
277.737	38.57
277.952	85.67
278.168	46.76
278.383	52.91
278.599	50.86
278.814	126.63
279.03	18.09
279.245	124.58
279.461	122.54
279.676	36.52
279.892	-43.35
280.107	-39.25
280.322	-51.54
280.538	18.09
280.753	-35.16
280.969	71.34
281.184	63.15
281.399	112.3
281.615	122.54
281.83	59.05
282.045	7.85
282.26	-53.59
282.476	18.09
282.691	87.72
282.906	52.91
283.122	95.91
283.337	-43.35
283.552	91.82
283.767	16.04
283.983	95.91
284.198	40.62
284.413	165.54
284.628	-18.77
284.843	38.57
285.058	104.11
285.274	-4.44
285.489	-57.68
285.704	85.67
285.919	75.43
286.134	-12.63
286.349	77.48
286.564	32.43
286.779	159.4
286.995	-0.34
287.21	-55.64
287.425	87.72
287.64	122.54
287.855	112.3
288.07	-51.54
288.285	155.3
288.5	120.49
288.715	126.63
288.93	85.67
289.145	-37.2
289.36	87.72
289.575	44.71
289.79	136.87
290.004	69.29
290.219	106.15
290.434	-26.96
290.649	16.04
290.864	22.19
291.079	-10.58
291.294	44.71
291.509	57
291.724	22.19
291.938	-26.96
292.153	67.24
292.368	-67.92
292.583	153.26
292.798	97.96
293.012	57
293.227	46.76
293.442	54.95
293.657	188.07
293.871	188.07
294.086	136.87
294.301	159.4
294.516	179.88
294.73	48.81
294.945	40.62
295.16	7.85
295.374	132.78
295.589	118.44
295.804	-22.87
296.018	18.09
296.233	163.5
296.447	28.33
296.662	-14.68
296.877	157.35
297.091	93.87
297.306	40.62
297.52	30.38
297.735	95.91
297.949	20.14
298.164	9.9
298.378	32.43
298.593	-14.68
298.807	-8.53
299.022	81.58
299.236	177.83
299.451	-41.3
299.665	3.75
299.88	48.81
300.094	112.3
300.309	42.67
300.523	65.19
300.737	32.43
300.952	97.96
301.166	108.2
301.381	-37.2
301.595	36.52
301.809	34.47
302.024	3.75
302.238	-57.68
302.452	124.58
302.667	24.23
302.881	108.2
303.095	102.06
303.309	104.11
303.524	77.48
303.738	-18.77
303.952	20.14
304.166	104.11
304.381	-72.02
304.595	134.82
304.809	42.67
305.023	112.3
305.237	-18.77
305.452	-4.44
305.666	36.52
305.88	1.71
306.094	104.11
306.308	91.82
306.522	126.63
306.736	89.77
306.95	138.92
307.164	54.95
307.379	50.86
307.593	130.73
307.807	171.69
308.021	138.92
308.235	71.34
308.449	-39.25
308.663	97.96
308.877	177.83
309.091	97.96
309.305	59.05
309.519	-164.18
309.733	194.22
309.947	-115.03
310.161	54.95
310.374	50.86
310.588	143.02
310.802	-43.35
311.016	16.04
311.23	87.72
311.444	81.58
311.658	24.23
311.872	159.4
312.085	114.34
312.299	163.5
312.513	128.68
312.727	89.77
312.941	-29.01
313.154	147.11
313.368	128.68
313.582	44.71
313.796	40.62
314.009	71.34
314.223	100.01
314.437	65.19
314.651	97.96
314.864	67.24
315.078	30.38
315.292	3.75
315.505	48.81
315.719	114.34
315.933	132.78
316.146	-24.92
316.36	-55.64
316.573	177.83
316.787	69.29
317.001	46.76
317.214	-29.01
317.428	83.63
317.641	54.95
317.855	11.95
318.068	20.14
318.282	54.95
318.495	175.78
318.709	161.45
318.922	16.04
319.136	46.76
319.349	91.82
319.563	-76.12
319.776	171.69
319.99	-41.3
320.203	138.92
320.417	57
320.63	81.58
320.843	210.6
321.057	57
321.27	11.95
321.483	132.78
321.697	112.3
321.91	100.01
322.124	81.58
322.337	44.71
322.55	44.71
322.763	38.57
322.977	44.71
323.19	-4.44
323.403	128.68
323.617	106.15
323.83	126.63
324.043	42.67
324.256	69.29
324.469	-33.11
324.683	138.92
324.896	9.9
325.109	75.43
325.322	-69.97
325.535	106.15
325.748	126.63
325.962	-0.34
326.175	18.09
326.388	97.96
326.601	153.26
326.814	-14.68
327.027	112.3
327.24	173.74
327.453	18.09
327.666	143.02
327.879	97.96
328.092	28.33
328.305	104.11
328.518	52.91
328.731	9.9
328.944	-22.87
329.157	87.72
329.37	110.25
329.583	194.22
329.796	206.5
330.009	-82.26
330.222	145.06
330.435	138.92
330.648	69.29
330.861	130.73
331.073	69.29
331.286	118.44
331.499	-47.44
331.712	-14.68
331.925	-20.82
332.138	-14.68
332.35	112.3
332.563	26.28
332.776	106.15
332.989	40.62
333.202	-45.4
333.414	128.68
333.627	95.91
333.84	16.04
334.053	77.48
334.265	5.8
334.478	3.75
334.691	73.39
334.903	61.1
335.116	54.95
335.329	46.76
335.541	36.52
335.754	210.6
335.966	59.05
336.179	13.99
336.392	87.72
336.604	95.91
336.817	163.5
337.029	124.58
337.242	11.95
337.454	75.43
337.667	83.63
337.88	167.59
338.092	38.57
338.305	83.63
338.517	126.63
338.729	116.39
338.942	190.12
339.154	13.99
339.367	-31.06
339.579	93.87
339.792	-31.06
340.004	93.87
340.217	-6.49
340.429	28.33
340.641	46.76
340.854	42.67
341.066	50.86
341.278	118.44
341.491	267.94
341.703	34.47
341.915	-6.49
342.128	106.15
342.34	81.58
342.552	26.28
342.764	24.23
342.977	97.96
343.189	149.16
343.401	75.43
343.613	-10.58
343.826	34.47
344.038	-29.01
344.25	67.24
344.462	48.81
344.674	116.39
344.886	110.25
345.099	57
345.311	77.48
345.523	40.62
345.735	-37.2
345.947	77.48
346.159	95.91
346.371	42.67
346.583	42.67
346.795	138.92
347.007	42.67
347.219	108.2
347.431	22.19
347.643	149.16
347.855	130.73
348.067	95.91
348.279	16.04
348.491	34.47
348.703	91.82
348.915	-6.49
349.127	46.76
349.339	89.77
349.551	28.33
349.763	106.15
349.975	-39.25
350.187	200.36
350.399	112.3
350.61	63.15
350.822	42.67
351.034	50.86
351.246	77.48
351.458	42.67
351.669	136.87
351.881	128.68
352.093	153.26
352.305	77.48
352.517	83.63
352.728	159.4
352.94	114.34
353.152	52.91
353.363	-0.34
353.575	42.67
353.787	140.97
353.999	87.72
354.21	186.02
354.422	20.14
354.633	30.38
354.845	67.24
355.057	24.23
355.268	100.01
355.48	114.34
355.692	7.85
355.903	52.91
356.115	38.57
356.326	-108.88
356.538	190.12
356.749	128.68
356.961	181.93
357.172	85.67
357.384	9.9
357.595	237.22
357.807	50.86
358.018	11.95
358.23	79.53
358.441	186.02
358.653	89.77
358.864	50.86
359.075	20.14
359.287	120.49
359.498	143.02
359.709	61.1
359.921	89.77
360.132	34.47
360.344	59.05
360.555	-59.73
360.766	38.57
360.977	-20.82
361.189	102.06
361.4	-6.49
361.611	136.87
361.823	110.25
362.034	73.39
362.245	-10.58
362.456	79.53
362.667	132.78
362.879	-4.44
363.09	3.75
363.301	26.28
363.512	50.86
363.723	52.91
363.935	61.1
364.146	79.53
364.357	32.43
364.568	106.15
364.779	-24.92
364.99	169.64
365.201	65.19
365.412	161.45
365.623	-8.53
365.834	77.48
366.045	59.05
366.256	61.1
366.467	134.82
366.678	26.28
366.889	104.11
367.1	28.33
367.311	124.58
367.522	28.33
367.733	159.4
367.944	122.54
368.155	26.28
368.366	100.01
368.577	188.07
368.788	77.48
368.999	18.09
369.209	38.57
369.42	247.46
369.631	290.47
369.842	122.54
370.053	9.9
370.264	130.73
370.474	-20.82
370.685	87.72
370.896	-10.58
371.107	52.91
371.317	71.34
371.528	18.09
371.739	167.59
371.95	71.34
372.16	59.05
372.371	13.99
372.582	-20.82
372.792	83.63
373.003	13.99
373.214	95.91
373.424	102.06
373.635	3.75
373.846	89.77
374.056	52.91
374.267	81.58
374.477	59.05
374.688	44.71
374.898	106.15
375.109	11.95
375.319	79.53
375.53	102.06
375.74	52.91
375.951	20.14
376.161	54.95
376.372	122.54
376.582	32.43
376.793	138.92
377.003	48.81
377.214	26.28
377.424	71.34
377.635	40.62
377.845	7.85
378.055	143.02
378.266	71.34
378.476	1.71
378.686	169.64
378.897	100.01
379.107	143.02
379.317	106.15
379.528	5.8
379.738	122.54
379.948	67.24
380.158	161.45
380.369	40.62
380.579	48.81
380.789	65.19
380.999	120.49
381.21	169.64
381.42	229.03
381.63	61.1
381.84	73.39
382.05	112.3
382.261	95.91
382.471	138.92
382.681	40.62
382.891	188.07
383.101	65.19
383.311	-80.21
383.521	-0.34
383.731	120.49
383.941	87.72
384.151	124.58
384.361	89.77
384.571	71.34
384.781	87.72
384.991	249.51
385.201	69.29
385.411	169.64
385.621	34.47
385.831	26.28
386.041	83.63
386.251	75.43
386.461	138.92
386.671	48.81
386.881	89.77
387.091	24.23
387.301	159.4
387.511	34.47
387.72	50.86
387.93	190.12
388.14	-35.16
388.35	116.39
388.56	118.44
388.769	163.5
388.979	3.75
389.189	22.19
389.399	30.38
389.609	22.19
389.818	87.72
390.028	100.01
390.238	36.52
390.447	-31.06
390.657	97.96
390.867	69.29
391.076	9.9
391.286	42.67
391.496	52.91
391.705	69.29
391.915	126.63
392.125	130.73
392.334	16.04
392.544	175.78
392.753	87.72
392.963	112.3
393.172	42.67
393.382	-24.92
393.591	157.35
393.801	67.24
394.01	149.16
394.22	71.34
394.429	11.95
394.639	-14.68
394.848	108.2
395.058	112.3
395.267	79.53
395.477	130.73
395.686	120.49
395.895	251.56
396.105	204.46
396.314	112.3
396.524	26.28
396.733	44.71
396.942	151.21
397.152	157.35
397.361	118.44
397.57	136.87
397.78	83.63
397.989	85.67
398.198	274.09
398.407	93.87
398.617	67.24
398.826	75.43
399.035	20.14
399.244	126.63
399.453	-18.77
399.663	120.49
399.872	79.53
400.081	-24.92
400.29	194.22
400.499	75.43
400.708	67.24
400.917	69.29
401.127	116.39
401.336	32.43
401.545	124.58
401.754	173.74
401.963	85.67
402.172	61.1
402.381	34.47
402.59	26.28
402.799	38.57
403.008	134.82
403.217	145.06
403.426	85.67
403.635	46.76
403.844	97.96
404.053	-2.39
404.262	71.34
404.471	173.74
404.68	38.57
404.888	89.77
405.097	-12.63
405.306	124.58
405.515	108.2
405.724	7.85
405.933	138.92
406.142	71.34
406.35	155.3
406.559	26.28
406.768	106.15
406.977	196.26
407.185	122.54
407.394	95.91
407.603	-37.2
407.812	18.09
408.02	161.45
408.229	36.52
408.438	73.39
408.646	3.75
408.855	57
409.064	149.16
409.272	28.33
409.481	153.26
409.69	-47.44
409.898	91.82
410.107	114.34
410.315	220.84
410.524	95.91
410.733	120.49
410.941	34.47
411.15	136.87
411.358	48.81
411.567	167.59
411.775	61.1
411.984	32.43
412.192	108.2
412.401	77.48
412.609	188.07
412.818	136.87
413.026	126.63
413.234	-10.58
413.443	57
413.651	63.15
413.86	67.24
414.068	226.98
414.276	247.46
414.485	104.11
414.693	179.88
414.901	130.73
415.11	116.39
415.318	136.87
415.526	67.24
415.734	112.3
415.943	26.28
416.151	161.45
416.359	18.09
416.567	48.81
416.776	149.16
416.984	108.2
417.192	188.07
417.4	38.57
417.608	-35.16
417.817	46.76
418.025	163.5
418.233	210.6
418.441	34.47
418.649	-33.11
418.857	153.26
419.065	226.98
419.273	11.95
419.481	95.91
419.689	34.47
419.897	-18.77
420.105	-4.44
420.313	138.92
420.521	181.93
420.729	165.54
420.937	30.38
421.145	87.72
421.353	200.36
421.561	190.12
421.769	65.19
421.977	-0.34
422.185	161.45
422.393	73.39
422.601	124.58
422.809	73.39
423.017	89.77
423.224	124.58
423.432	138.92
423.64	59.05
423.848	179.88
424.056	124.58
424.263	153.26
424.471	140.97
424.679	169.64
424.887	-47.44
425.094	155.3
425.302	108.2
425.51	81.58
425.718	161.45
425.925	108.2
426.133	81.58
426.341	171.69
426.548	81.58
426.756	50.86
426.964	143.02
427.171	24.23
427.379	175.78
427.586	118.44
427.794	116.39
428.001	220.84
428.209	128.68
428.417	173.74
428.624	126.63
428.832	177.83
429.039	138.92
429.247	202.41
429.454	181.93
429.662	202.41
429.869	118.44
430.076	126.63
430.284	147.11
430.491	235.18
430.699	210.6
430.906	267.94
431.114	231.08
431.321	204.46
431.528	155.3
431.736	198.31
431.943	257.7
432.15	212.65
432.358	216.74
432.565	333.48
432.772	79.53
432.979	210.6
433.187	91.82
433.394	257.7
433.601	161.45
433.808	294.57
434.016	308.9
434.223	267.94
434.43	317.09
434.637	329.38
434.844	345.77
435.052	308.9
435.259	321.19
435.466	321.19
435.673	327.33
435.88	304.81
436.087	405.16
436.294	384.68
436.501	351.91
436.708	376.48
436.915	331.43
437.122	360.1
437.329	315.05
437.537	403.11
437.743	409.25
437.95	536.23
438.157	437.92
438.364	462.5
438.571	439.97
438.778	491.17
438.985	575.14
439.192	571.04
439.399	548.51
439.606	644.77
439.813	605.86
440.02	667.3
440.227	722.59
440.433	714.4
440.64	728.74
440.847	573.09
441.054	587.43
441.261	816.8
441.467	741.02
441.674	720.54
441.881	872.09
442.088	824.99
442.294	863.9
442.501	863.9
442.708	951.96
442.914	911
443.121	992.92
443.328	1023.64
443.534	1076.89
443.741	1007.26
443.948	1013.4
444.154	1146.52
444.361	1322.65
444.568	1128.09
444.774	1238.68
444.981	1242.78
445.187	1394.33
445.394	1396.37
445.6	1394.33
445.807	1529.49
446.013	1552.02
446.22	1509.01
446.426	1701.52
446.633	1762.96
446.839	1967.76
447.046	1717.9
447.252	2066.06
447.459	1941.13
447.665	2039.44
447.871	2172.55
448.078	2315.91
448.284	2242.18
448.491	2426.5
448.697	2381.45
448.903	2553.48
449.11	2686.59
449.316	2461.32
449.522	2762.37
449.728	2877.05
449.935	2915.97
450.141	2961.02
450.347	3274.36
450.553	3182.2
450.76	3235.45
450.966	3595.89
451.172	3513.97
451.378	3688.05
451.584	3948.14
451.791	3956.33
451.997	4095.6
452.203	4173.42
452.409	4456.04
452.615	4558.44
452.821	4554.34
453.027	4396.65
453.233	5166.68
453.44	5000.8
453.646	5301.85
453.852	5338.71
454.058	5656.15
454.264	5871.19
454.47	6231.63
454.676	6276.68
454.882	6837.83
455.088	6420.04
455.294	6893.12
455.5	7462.46
455.705	7827
455.911	7626.29
456.117	7999.02
456.323	8156.72
456.529	8203.82
456.735	9125.41
456.941	9205.28
457.147	9840.15
457.352	9809.43
457.558	10094.1
457.764	10827.27
457.97	11011.59
458.176	11417.08
458.381	12062.19
458.587	12289.52
458.793	12940.77
458.999	12850.66
459.204	14511.57
459.41	15109.57
459.616	14765.51
459.821	15525.31
460.027	16436.66
460.233	16950.7
460.438	17085.86
460.644	17941.91
460.85	18238.87
461.055	19316.1
461.261	19867
461.466	19492.23
461.672	19932.54
461.878	22412.63
462.083	22183.26
462.289	22627.67
462.494	23391.56
462.7	23596.35
462.905	24026.43
463.111	25883.94
463.316	27108.62
463.522	27401.48
463.727	28302.59
463.932	29398.25
464.138	30782.68
464.343	31370.44
464.549	31810.76
464.754	34266.27
464.959	35173.52
465.165	35572.88
465.37	35468.43
465.575	35175.57
465.781	37969
465.986	38687.84
466.191	38171.75
466.397	38372.45
466.602	37395.57
466.807	39740.49
467.012	40367.17
467.218	41094.2
467.423	41131.06
467.628	42298.41
467.833	44534.79
468.038	43580.43
