Data from USB4F104151__14__10-41-47-287.txt Node

Date: Wed Feb 26 10:41:47 EST 2025
User: louis
Spectrometer: USB4F10415
Trigger mode: 4
Integration Time (sec): 1.000000E-1
Scans to average: 1
Electric dark correction enabled: true
Nonlinearity correction enabled: false
Boxcar width: 0
XAxis mode: Wavelengths
Number of Pixels in Spectrum: 3648
>>>>>Begin Spectral Data<<<<<
178.204	-474.79
178.424	-474.79
178.644	-474.79
178.864	-474.79
179.084	-429.73
179.304	92.5
179.524	-83.63
179.744	0.34
179.964	55.64
180.184	-13.99
180.404	6.49
180.624	-28.33
180.844	-18.09
181.064	-44.71
181.283	-16.04
181.503	-16.04
181.723	65.88
181.943	-79.53
182.163	162.13
182.383	61.78
182.602	53.59
182.822	119.12
183.042	84.31
183.262	-5.8
183.482	0.34
183.701	10.58
183.921	59.73
184.141	-40.62
184.361	-7.85
184.58	12.63
184.8	43.35
185.02	-30.38
185.239	96.6
185.459	24.92
185.679	117.08
185.898	-83.63
186.118	31.06
186.338	80.21
186.557	29.01
186.777	-61.1
186.997	31.06
187.216	123.22
187.436	147.8
187.655	141.65
187.875	6.49
188.095	-11.95
188.314	213.33
188.534	76.12
188.753	-100.01
188.973	76.12
189.192	145.75
189.412	22.87
189.631	110.93
189.851	92.5
190.07	143.7
190.29	-59.05
190.509	22.87
190.729	43.35
190.948	155.99
191.168	246.1
191.387	69.97
191.607	-13.99
191.826	69.97
192.045	57.68
192.265	39.25
192.484	53.59
192.704	41.3
192.923	-73.39
193.142	123.22
193.362	102.74
193.581	135.51
193.8	133.46
194.02	188.75
194.239	110.93
194.458	29.01
194.678	16.73
194.897	-36.52
195.116	31.06
195.335	53.59
195.555	31.06
195.774	8.53
195.993	141.65
196.212	65.88
196.432	-1.71
196.651	4.44
196.87	10.58
197.089	311.63
197.308	98.64
197.528	153.94
197.747	-67.24
197.966	59.73
198.185	198.99
198.404	-32.43
198.623	141.65
198.842	100.69
199.062	125.27
199.281	76.12
199.5	4.44
199.719	31.06
199.938	59.73
200.157	76.12
200.376	123.22
200.595	145.75
200.814	65.88
201.033	-32.43
201.252	145.75
201.471	145.75
201.69	49.49
201.909	51.54
202.128	135.51
202.347	24.92
202.566	61.78
202.785	0.34
203.004	-59.05
203.223	239.95
203.442	14.68
203.661	-3.75
203.879	92.5
204.098	94.55
204.317	-22.19
204.536	86.36
204.755	131.41
204.974	37.2
205.193	-18.09
205.411	127.32
205.63	51.54
205.849	22.87
206.068	18.77
206.287	-38.57
206.505	147.8
206.724	53.59
206.943	-48.81
207.162	0.34
207.381	59.73
207.599	35.16
207.818	80.21
208.037	-22.19
208.255	24.92
208.474	84.31
208.693	16.73
208.911	47.44
209.13	155.99
209.349	104.79
209.567	112.98
209.786	65.88
210.005	59.73
210.223	-50.86
210.442	-114.34
210.661	33.11
210.879	76.12
211.098	2.39
211.316	4.44
211.535	65.88
211.753	41.3
211.972	80.21
212.191	14.68
212.409	63.83
212.628	119.12
212.846	-18.09
213.065	45.4
213.283	160.08
213.502	6.49
213.72	4.44
213.938	24.92
214.157	43.35
214.375	184.66
214.594	37.2
214.812	84.31
215.031	67.92
215.249	35.16
215.467	47.44
215.686	41.3
215.904	43.35
216.122	104.79
216.341	131.41
216.559	-16.04
216.778	129.36
216.996	106.84
217.214	37.2
217.432	-52.91
217.651	-75.43
217.869	8.53
218.087	76.12
218.306	-13.99
218.524	51.54
218.742	22.87
218.96	119.12
219.179	-13.99
219.397	100.69
219.615	205.14
219.833	117.08
220.051	-16.04
220.27	162.13
220.488	123.22
220.706	4.44
220.924	12.63
221.142	-30.38
221.36	96.6
221.578	67.92
221.796	-9.9
222.015	82.26
222.233	55.64
222.451	149.84
222.669	-79.53
222.887	110.93
223.105	0.34
223.323	4.44
223.541	-13.99
223.759	86.36
223.977	24.92
224.195	190.8
224.413	145.75
224.631	-9.9
224.849	82.26
225.067	242
225.285	-30.38
225.503	22.87
225.721	-87.72
225.939	41.3
226.157	37.2
226.375	278.87
226.592	-5.8
226.81	47.44
227.028	110.93
227.246	72.02
227.464	-24.23
227.682	123.22
227.9	94.55
228.117	65.88
228.335	98.64
228.553	74.07
228.771	-28.33
228.989	20.82
229.206	125.27
229.424	94.55
229.642	-18.09
229.86	-34.47
230.077	168.27
230.295	-16.04
230.513	29.01
230.731	-9.9
230.948	90.45
231.166	145.75
231.384	-1.71
231.601	-9.9
231.819	98.64
232.037	22.87
232.254	-79.53
232.472	-30.38
232.689	-93.87
232.907	65.88
233.125	-16.04
233.342	-46.76
233.56	-30.38
233.777	45.4
233.995	-34.47
234.213	110.93
234.43	47.44
234.648	59.73
234.865	-20.14
235.083	115.03
235.3	119.12
235.518	90.45
235.735	104.79
235.953	20.82
236.17	37.2
236.388	31.06
236.605	63.83
236.822	82.26
237.04	24.92
237.257	63.83
237.475	12.63
237.692	94.55
237.909	131.41
238.127	16.73
238.344	106.84
238.562	53.59
238.779	-71.34
238.996	-42.67
239.214	33.11
239.431	141.65
239.648	0.34
239.865	67.92
240.083	162.13
240.3	-5.8
240.517	18.77
240.735	35.16
240.952	151.89
241.169	108.88
241.386	37.2
241.603	102.74
241.821	-89.77
242.038	55.64
242.255	53.59
242.472	2.39
242.689	41.3
242.907	35.16
243.124	49.49
243.341	90.45
243.558	-13.99
243.775	-44.71
243.992	-102.06
244.209	86.36
244.426	145.75
244.643	127.32
244.86	-32.43
245.078	41.3
245.295	131.41
245.512	49.49
245.729	-28.33
245.946	59.73
246.163	45.4
246.38	33.11
246.597	63.83
246.814	88.4
247.031	26.96
247.248	6.49
247.464	49.49
247.681	29.01
247.898	94.55
248.115	31.06
248.332	-5.8
248.549	112.98
248.766	147.8
248.983	96.6
249.2	69.97
249.417	72.02
249.633	37.2
249.85	86.36
250.067	94.55
250.284	39.25
250.501	125.27
250.717	119.12
250.934	-89.77
251.151	57.68
251.368	-30.38
251.585	57.68
251.801	78.16
252.018	-50.86
252.235	94.55
252.451	-87.72
252.668	123.22
252.885	139.6
253.102	76.12
253.318	100.69
253.535	-3.75
253.752	65.88
253.968	-9.9
254.185	-5.8
254.401	61.78
254.618	16.73
254.835	-24.23
255.051	106.84
255.268	123.22
255.484	112.98
255.701	-9.9
255.917	112.98
256.134	76.12
256.351	74.07
256.567	0.34
256.784	153.94
257	-34.47
257.217	59.73
257.433	106.84
257.65	53.59
257.866	106.84
258.082	41.3
258.299	6.49
258.515	20.82
258.732	2.39
258.948	-38.57
259.165	35.16
259.381	22.87
259.597	74.07
259.814	-20.14
260.03	6.49
260.246	61.78
260.463	41.3
260.679	174.42
260.895	18.77
261.112	88.4
261.328	65.88
261.544	16.73
261.761	127.32
261.977	-11.95
262.193	-34.47
262.409	94.55
262.626	-5.8
262.842	26.96
263.058	-9.9
263.274	55.64
263.49	104.79
263.707	35.16
263.923	84.31
264.139	-69.29
264.355	67.92
264.571	192.85
264.787	61.78
265.004	61.78
265.22	16.73
265.436	-16.04
265.652	24.92
265.868	43.35
266.084	8.53
266.3	67.92
266.516	-59.05
266.732	2.39
266.948	51.54
267.164	-1.71
267.38	16.73
267.596	65.88
267.812	184.66
268.028	6.49
268.244	6.49
268.46	115.03
268.676	-5.8
268.892	-44.71
269.108	-7.85
269.324	-26.28
269.54	-87.72
269.756	153.94
269.972	-67.24
270.188	0.34
270.403	-57
270.619	18.77
270.835	76.12
271.051	59.73
271.267	4.44
271.483	-20.14
271.698	35.16
271.914	108.88
272.13	35.16
272.346	26.96
272.562	98.64
272.777	104.79
272.993	-11.95
273.209	39.25
273.425	96.6
273.64	-32.43
273.856	88.4
274.072	18.77
274.287	-52.91
274.503	162.13
274.719	108.88
274.934	80.21
275.15	35.16
275.366	-42.67
275.581	-3.75
275.797	24.92
276.012	14.68
276.228	29.01
276.444	2.39
276.659	172.37
276.875	33.11
277.09	47.44
277.306	12.63
277.521	-36.52
277.737	10.58
277.952	78.16
278.168	22.87
278.383	100.69
278.599	164.18
278.814	86.36
279.03	86.36
279.245	160.08
279.461	-38.57
279.676	121.17
279.892	-59.05
280.107	22.87
280.322	-61.1
280.538	86.36
280.753	-36.52
280.969	98.64
281.184	92.5
281.399	145.75
281.615	33.11
281.83	88.4
282.045	-26.28
282.26	16.73
282.476	78.16
282.691	82.26
282.906	29.01
283.122	61.78
283.337	-28.33
283.552	22.87
283.767	74.07
283.983	133.46
284.198	88.4
284.413	119.12
284.628	-40.62
284.843	0.34
285.058	72.02
285.274	55.64
285.489	-50.86
285.704	166.23
285.919	57.68
286.134	-7.85
286.349	49.49
286.564	-18.09
286.779	123.22
286.995	53.59
287.21	-11.95
287.425	112.98
287.64	16.73
287.855	24.92
288.07	-77.48
288.285	94.55
288.5	168.27
288.715	22.87
288.93	61.78
289.145	35.16
289.36	31.06
289.575	2.39
289.79	168.27
290.004	26.96
290.219	74.07
290.434	-57
290.649	59.73
290.864	22.87
291.079	0.34
291.294	24.92
291.509	115.03
291.724	10.58
291.938	76.12
292.153	90.45
292.368	20.82
292.583	86.36
292.798	86.36
293.012	-9.9
293.227	53.59
293.442	29.01
293.657	61.78
293.871	115.03
294.086	-16.04
294.301	145.75
294.516	135.51
294.73	57.68
294.945	-30.38
295.16	-7.85
295.374	143.7
295.589	33.11
295.804	0.34
296.018	20.82
296.233	110.93
296.447	108.88
296.662	51.54
296.877	145.75
297.091	76.12
297.306	24.92
297.52	43.35
297.735	80.21
297.949	86.36
298.164	63.83
298.378	-26.28
298.593	-61.1
298.807	-54.95
299.022	110.93
299.236	141.65
299.451	24.92
299.665	49.49
299.88	29.01
300.094	43.35
300.309	22.87
300.523	14.68
300.737	4.44
300.952	67.92
301.166	22.87
301.381	-42.67
301.595	41.3
301.809	53.59
302.024	16.73
302.238	-11.95
302.452	231.76
302.667	84.31
302.881	127.32
303.095	108.88
303.309	106.84
303.524	22.87
303.738	20.82
303.952	-32.43
304.166	65.88
304.381	-44.71
304.595	223.57
304.809	20.82
305.023	6.49
305.237	37.2
305.452	-26.28
305.666	94.55
305.88	110.93
306.094	29.01
306.308	51.54
306.522	133.46
306.736	90.45
306.95	84.31
307.164	-20.14
307.379	65.88
307.593	125.27
307.807	141.65
308.021	65.88
308.235	94.55
308.449	0.34
308.663	37.2
308.877	266.58
309.091	45.4
309.305	133.46
309.519	-50.86
309.733	24.92
309.947	-7.85
310.161	33.11
310.374	162.13
310.588	145.75
310.802	-36.52
311.016	16.73
311.23	106.84
311.444	-16.04
311.658	84.31
311.872	39.25
312.085	117.08
312.299	149.84
312.513	145.75
312.727	26.96
312.941	20.82
313.154	18.77
313.368	24.92
313.582	69.97
313.796	59.73
314.009	57.68
314.223	90.45
314.437	158.03
314.651	86.36
314.864	6.49
315.078	-42.67
315.292	-34.47
315.505	45.4
315.719	53.59
315.933	78.16
316.146	-83.63
316.36	-91.82
316.573	72.02
316.787	31.06
317.001	10.58
317.214	-50.86
317.428	-3.75
317.641	20.82
317.855	53.59
318.068	8.53
318.282	74.07
318.495	143.7
318.709	108.88
318.922	53.59
319.136	115.03
319.349	180.56
319.563	-22.19
319.776	57.68
319.99	-79.53
320.203	4.44
320.417	106.84
320.63	80.21
320.843	252.24
321.057	20.82
321.27	57.68
321.483	76.12
321.697	131.41
321.91	104.79
322.124	14.68
322.337	63.83
322.55	10.58
322.763	110.93
322.977	88.4
323.19	-28.33
323.403	45.4
323.617	-32.43
323.83	63.83
324.043	29.01
324.256	-7.85
324.469	0.34
324.683	139.6
324.896	55.64
325.109	90.45
325.322	-57
325.535	112.98
325.748	155.99
325.962	41.3
326.175	112.98
326.388	82.26
326.601	90.45
326.814	2.39
327.027	-3.75
327.24	121.17
327.453	-57
327.666	88.4
327.879	129.36
328.092	131.41
328.305	43.35
328.518	-40.62
328.731	45.4
328.944	-81.58
329.157	63.83
329.37	-30.38
329.583	143.7
329.796	92.5
330.009	16.73
330.222	82.26
330.435	133.46
330.648	47.44
330.861	94.55
331.073	55.64
331.286	123.22
331.499	-26.28
331.712	45.4
331.925	72.02
332.138	59.73
332.35	143.7
332.563	-38.57
332.776	49.49
332.989	-18.09
333.202	33.11
333.414	24.92
333.627	-59.05
333.84	8.53
334.053	55.64
334.265	-28.33
334.478	-36.52
334.691	24.92
334.903	74.07
335.116	-30.38
335.329	88.4
335.541	51.54
335.754	145.75
335.966	37.2
336.179	-63.15
336.392	31.06
336.604	84.31
336.817	22.87
337.029	8.53
337.242	6.49
337.454	43.35
337.667	0.34
337.88	170.32
338.092	86.36
338.305	137.56
338.517	-54.95
338.729	76.12
338.942	149.84
339.154	-54.95
339.367	-69.29
339.579	53.59
339.792	-13.99
340.004	33.11
340.217	-28.33
340.429	37.2
340.641	-93.87
340.854	-1.71
341.066	-28.33
341.278	65.88
341.491	141.65
341.703	-1.71
341.915	-7.85
342.128	151.89
342.34	47.44
342.552	22.87
342.764	4.44
342.977	6.49
343.189	76.12
343.401	65.88
343.613	-77.48
343.826	92.5
344.038	-20.14
344.25	76.12
344.462	-52.91
344.674	33.11
344.886	-7.85
345.099	31.06
345.311	127.32
345.523	-46.76
345.735	-61.1
345.947	6.49
346.159	-3.75
346.371	37.2
346.583	16.73
346.795	209.23
347.007	24.92
347.219	39.25
347.431	-3.75
347.643	100.69
347.855	-30.38
348.067	104.79
348.279	-79.53
348.491	61.78
348.703	82.26
348.915	129.36
349.127	16.73
349.339	20.82
349.551	-1.71
349.763	106.84
349.975	45.4
350.187	123.22
350.399	141.65
350.61	76.12
350.822	61.78
351.034	166.23
351.246	24.92
351.458	125.27
351.669	135.51
351.881	131.41
352.093	78.16
352.305	188.75
352.517	74.07
352.728	63.83
352.94	-26.28
353.152	121.17
353.363	-38.57
353.575	29.01
353.787	162.13
353.999	22.87
354.21	201.04
354.422	-20.14
354.633	24.92
354.845	84.31
355.057	67.92
355.268	102.74
355.48	166.23
355.692	-134.82
355.903	96.6
356.115	-18.09
356.326	-89.77
356.538	94.55
356.749	100.69
356.961	162.13
357.172	45.4
357.384	-16.04
357.595	246.1
357.807	-3.75
358.018	-26.28
358.23	92.5
358.441	112.98
358.653	100.69
358.864	22.87
359.075	4.44
359.287	47.44
359.498	96.6
359.709	100.69
359.921	47.44
360.132	59.73
360.344	49.49
360.555	33.11
360.766	72.02
360.977	-24.23
361.189	108.88
361.4	-40.62
361.611	127.32
361.823	137.56
362.034	65.88
362.245	-57
362.456	53.59
362.667	94.55
362.879	29.01
363.09	133.46
363.301	33.11
363.512	57.68
363.723	24.92
363.935	10.58
364.146	90.45
364.357	12.63
364.568	88.4
364.779	-52.91
364.99	196.95
365.201	-73.39
365.412	57.68
365.623	-93.87
365.834	43.35
366.045	-16.04
366.256	117.08
366.467	104.79
366.678	2.39
366.889	143.7
367.1	0.34
367.311	119.12
367.522	41.3
367.733	59.73
367.944	24.92
368.155	67.92
368.366	129.36
368.577	227.67
368.788	143.7
368.999	-102.06
369.209	45.4
369.42	194.9
369.631	213.33
369.842	86.36
370.053	16.73
370.264	53.59
370.474	4.44
370.685	49.49
370.896	43.35
371.107	110.93
371.317	143.7
371.528	20.82
371.739	215.38
371.95	82.26
372.16	131.41
372.371	29.01
372.582	20.82
372.792	67.92
373.003	24.92
373.214	72.02
373.424	53.59
373.635	47.44
373.846	213.33
374.056	4.44
374.267	8.53
374.477	86.36
374.688	35.16
374.898	43.35
375.109	37.2
375.319	61.78
375.53	90.45
375.74	98.64
375.951	-1.71
376.161	24.92
376.372	49.49
376.582	-28.33
376.793	39.25
377.003	0.34
377.214	-26.28
377.424	117.08
377.635	-1.71
377.845	29.01
378.055	151.89
378.266	-50.86
378.476	47.44
378.686	119.12
378.897	96.6
379.107	115.03
379.317	41.3
379.528	65.88
379.738	147.8
379.948	-18.09
380.158	96.6
380.369	-7.85
380.579	82.26
380.789	-24.23
380.999	100.69
381.21	123.22
381.42	147.8
381.63	22.87
381.84	61.78
382.05	12.63
382.261	155.99
382.471	155.99
382.681	-18.09
382.891	166.23
383.101	43.35
383.311	-75.43
383.521	-63.15
383.731	69.97
383.941	139.6
384.151	59.73
384.361	-26.28
384.571	84.31
384.781	65.88
384.991	188.75
385.201	174.42
385.411	102.74
385.621	0.34
385.831	33.11
386.041	108.88
386.251	63.83
386.461	108.88
386.671	47.44
386.881	33.11
387.091	137.56
387.301	131.41
387.511	53.59
387.72	74.07
387.93	10.58
388.14	-61.1
388.35	53.59
388.56	47.44
388.769	102.74
388.979	72.02
389.189	-32.43
389.399	-5.8
389.609	110.93
389.818	65.88
390.028	67.92
390.238	84.31
390.447	8.53
390.657	108.88
390.867	49.49
391.076	-38.57
391.286	98.64
391.496	51.54
391.705	69.97
391.915	207.19
392.125	121.17
392.334	29.01
392.544	176.47
392.753	92.5
392.963	4.44
393.172	33.11
393.382	14.68
393.591	151.89
393.801	37.2
394.01	149.84
394.22	84.31
394.429	24.92
394.639	51.54
394.848	55.64
395.058	80.21
395.267	-1.71
395.477	162.13
395.686	74.07
395.895	321.87
396.105	143.7
396.314	98.64
396.524	2.39
396.733	35.16
396.942	119.12
397.152	41.3
397.361	221.52
397.57	155.99
397.78	59.73
397.989	63.83
398.198	250.19
398.407	31.06
398.617	22.87
398.826	12.63
399.035	29.01
399.244	82.26
399.453	117.08
399.663	16.73
399.872	0.34
400.081	-18.09
400.29	74.07
400.499	-20.14
400.708	104.79
400.917	39.25
401.127	112.98
401.336	-22.19
401.545	86.36
401.754	67.92
401.963	80.21
402.172	-16.04
402.381	18.77
402.59	-9.9
402.799	26.96
403.008	63.83
403.217	47.44
403.426	100.69
403.635	4.44
403.844	141.65
404.053	-34.47
404.262	35.16
404.471	252.24
404.68	119.12
404.888	14.68
405.097	67.92
405.306	37.2
405.515	153.94
405.724	26.96
405.933	168.27
406.142	0.34
406.35	104.79
406.559	20.82
406.768	4.44
406.977	262.48
407.185	98.64
407.394	115.03
407.603	-24.23
407.812	108.88
408.02	180.56
408.229	80.21
408.438	108.88
408.646	43.35
408.855	78.16
409.064	90.45
409.272	33.11
409.481	102.74
409.69	88.4
409.898	18.77
410.107	82.26
410.315	123.22
410.524	65.88
410.733	12.63
410.941	61.78
411.15	164.18
411.358	4.44
411.567	217.43
411.775	117.08
411.984	37.2
412.192	55.64
412.401	24.92
412.609	145.75
412.818	194.9
413.026	37.2
413.234	112.98
413.443	63.83
413.651	14.68
413.86	35.16
414.068	147.8
414.276	176.47
414.485	12.63
414.693	145.75
414.901	188.75
415.11	72.02
415.318	69.97
415.526	61.78
415.734	78.16
415.943	90.45
416.151	168.27
416.359	108.88
416.567	18.77
416.776	139.6
416.984	112.98
417.192	151.89
417.4	39.25
417.608	-22.19
417.817	55.64
418.025	117.08
418.233	229.71
418.441	-5.8
418.649	24.92
418.857	104.79
419.065	65.88
419.273	12.63
419.481	76.12
419.689	-11.95
419.897	-5.8
420.105	45.4
420.313	172.37
420.521	164.18
420.729	192.85
420.937	24.92
421.145	55.64
421.353	123.22
421.561	133.46
421.769	84.31
421.977	112.98
422.185	201.04
422.393	-20.14
422.601	74.07
422.809	110.93
423.017	39.25
423.224	127.32
423.432	137.56
423.64	74.07
423.848	172.37
424.056	-1.71
424.263	112.98
424.471	94.55
424.679	184.66
424.887	72.02
425.094	158.03
425.302	98.64
425.51	80.21
425.718	84.31
425.925	57.68
426.133	61.78
426.341	172.37
426.548	84.31
426.756	90.45
426.964	192.85
427.171	112.98
427.379	162.13
427.586	29.01
427.794	88.4
428.001	184.66
428.209	96.6
428.417	121.17
428.624	137.56
428.832	196.95
429.039	41.3
429.247	137.56
429.454	115.03
429.662	264.53
429.869	115.03
430.076	194.9
430.284	211.28
430.491	194.9
430.699	205.14
430.906	244.05
431.114	203.09
431.321	203.09
431.528	153.94
431.736	172.37
431.943	104.79
432.15	256.34
432.358	198.99
432.565	383.31
432.772	16.73
432.979	270.67
433.187	182.61
433.394	338.26
433.601	115.03
433.808	237.91
434.016	278.87
434.223	215.38
434.43	225.62
434.637	371.02
434.844	395.6
435.052	330.06
435.259	350.54
435.466	336.21
435.673	348.5
435.88	373.07
436.087	440.65
436.294	356.69
436.501	305.49
436.708	252.24
436.915	422.22
437.122	401.74
437.329	328.02
437.537	407.89
437.743	452.94
437.95	520.53
438.157	465.23
438.364	424.27
438.571	477.52
438.778	473.42
438.985	487.76
439.192	661.84
439.399	520.53
439.606	651.6
439.813	551.24
440.02	905.54
440.227	831.82
440.433	747.85
440.64	780.62
440.847	702.79
441.054	717.13
441.261	909.64
441.467	868.68
441.674	846.15
441.881	891.21
442.088	817.48
442.294	979.27
442.501	864.58
442.708	1007.94
442.914	973.13
443.121	1155.4
443.328	1091.91
443.534	1124.68
443.741	1214.79
443.948	1108.29
444.154	1239.36
444.361	1401.15
444.568	1417.54
444.774	1300.8
444.981	1319.23
445.187	1399.1
445.394	1468.73
445.6	1560.89
445.807	1743.16
446.013	1630.52
446.22	1648.96
446.426	1800.51
446.633	1923.38
446.839	2036.02
447.046	1868.09
447.252	2179.38
447.459	2136.37
447.665	2130.23
447.871	2314.55
448.078	2476.34
448.284	2429.23
448.491	2599.21
448.697	2795.82
448.903	2732.33
449.11	2842.92
449.316	2789.67
449.522	2937.13
449.728	3221.8
449.935	3244.32
450.141	3254.56
450.347	3549.47
450.553	3492.13
450.76	3496.22
450.966	3862.81
451.172	3924.25
451.378	4143.38
451.584	4096.28
451.791	4286.74
451.997	4638.99
452.203	4722.96
452.409	4966.67
452.615	5067.02
452.821	5005.58
453.027	5179.65
453.233	5775.61
453.44	5570.82
453.646	5935.35
453.852	6017.27
454.058	6232.31
454.264	6625.52
454.47	6955.24
454.676	6906.09
454.882	7432.42
455.088	7205.1
455.294	7618.79
455.5	8194.26
455.705	8665.3
455.911	8487.12
456.117	8816.85
456.323	9175.24
456.529	9089.23
456.735	9947.33
456.941	10129.59
457.147	10703.03
457.352	10801.33
457.558	11227.31
457.764	11905.18
457.97	12300.44
458.176	12734.61
458.381	13349
458.587	13674.63
458.793	14194.81
458.999	14293.12
459.204	15974.5
459.41	16676.95
459.616	16349.28
459.821	17272.91
460.027	18151.49
460.233	19093.55
460.438	18923.57
460.644	20058.15
460.85	20375.58
461.055	20938.77
461.261	22243.33
461.466	21362.7
461.672	21993.48
461.878	24506.34
462.083	24131.56
462.289	24973.27
462.494	26015.69
462.7	26193.86
462.905	26359.75
463.111	28731.29
463.316	30128.01
463.522	30447.49
463.727	31172.47
463.932	32765.79
464.138	33607.51
464.343	35098.43
464.549	35239.74
464.754	37809.94
464.959	38643.46
465.165	38899.46
465.37	39253.76
465.575	39044.87
465.781	41660.12
465.986	42774.22
466.191	42278.61
466.397	42733.26
466.602	41449.18
466.807	44111.54
467.012	44670.64
467.218	45455.01
467.423	45745.82
467.628	46851.72
467.833	49313.38
468.038	48397.94
468.244	47535.74
468.449	49657.44
468.654	48723.57
