Data from USB4F104151__233__11-06-24-424.txt Node

Date: Wed Feb 26 11:06:24 EST 2025
User: louis
Spectrometer: USB4F10415
Trigger mode: 4
Integration Time (sec): 1.000000E-1
Scans to average: 1
Electric dark correction enabled: true
Nonlinearity correction enabled: false
Boxcar width: 0
XAxis mode: Wavelengths
Number of Pixels in Spectrum: 3648
>>>>>Begin Spectral Data<<<<<
178.204	-356.52
178.424	-356.52
178.644	-356.52
178.864	-397.48
179.084	-424.1
179.304	-16.55
179.524	-80.04
179.744	8.02
179.964	100.18
180.184	-8.36
180.404	-2.22
180.624	-28.84
180.844	-49.32
181.064	-37.03
181.283	26.45
181.503	-2.22
181.723	89.94
181.943	-82.09
182.163	192.34
182.383	-22.7
182.602	36.69
182.822	51.03
183.042	42.84
183.262	-22.7
183.482	-8.36
183.701	91.99
183.921	18.26
184.141	-47.27
184.361	34.64
184.58	104.28
184.8	63.32
185.02	-32.94
185.239	57.17
185.459	30.55
185.679	157.52
185.898	-65.71
186.118	116.56
186.338	-10.41
186.557	85.84
186.777	22.36
186.997	12.12
187.216	-0.17
187.436	247.63
187.655	48.98
187.875	69.46
188.095	-6.31
188.314	89.94
188.534	143.19
188.753	30.55
188.973	130.9
189.192	188.24
189.412	30.55
189.631	48.98
189.851	28.5
190.07	120.66
190.29	-34.99
190.509	-34.99
190.729	89.94
190.948	94.04
191.168	274.26
191.387	63.32
191.607	-55.47
191.826	51.03
192.045	12.12
192.265	3.93
192.484	46.93
192.704	73.56
192.923	-20.65
193.142	151.38
193.362	108.37
193.581	114.52
193.8	20.31
194.02	57.17
194.239	77.65
194.458	112.47
194.678	8.02
194.897	34.64
195.116	73.56
195.335	59.22
195.555	77.65
195.774	12.12
195.993	135
196.212	10.07
196.432	-61.61
196.651	-32.94
196.87	12.12
197.089	245.59
197.308	51.03
197.528	104.28
197.747	-32.94
197.966	22.36
198.185	83.8
198.404	-4.27
198.623	118.61
198.842	122.71
199.062	79.7
199.281	120.66
199.5	69.46
199.719	55.12
199.938	40.79
200.157	36.69
200.376	91.99
200.595	124.76
200.814	34.64
201.033	-30.89
201.252	112.47
201.471	51.03
201.69	8.02
201.909	-18.6
202.128	34.64
202.347	24.4
202.566	-16.55
202.785	-63.66
203.004	-28.84
203.223	186.19
203.442	77.65
203.661	-90.28
203.879	10.07
204.098	153.43
204.317	-104.62
204.536	44.88
204.755	132.95
204.974	67.41
205.193	55.12
205.411	135
205.63	44.88
205.849	38.74
206.068	24.4
206.287	-0.17
206.505	137.04
206.724	44.88
206.943	-10.41
207.162	-45.23
207.381	116.56
207.599	30.55
207.818	24.4
208.037	-102.57
208.255	10.07
208.474	-2.22
208.693	-49.32
208.911	55.12
209.13	87.89
209.349	118.61
209.567	98.13
209.786	34.64
210.005	102.23
210.223	94.04
210.442	-96.43
210.661	59.22
210.879	83.8
211.098	20.31
211.316	-65.71
211.535	79.7
211.753	100.18
211.972	120.66
212.191	-4.27
212.409	-10.41
212.628	143.19
212.846	-16.55
213.065	67.41
213.283	55.12
213.502	-34.99
213.72	18.26
213.938	38.74
214.157	-82.09
214.375	83.8
214.594	20.31
214.812	59.22
215.031	57.17
215.249	16.21
215.467	14.17
215.686	40.79
215.904	81.75
216.122	98.13
216.341	53.08
216.559	-0.17
216.778	106.32
216.996	77.65
217.214	26.45
217.432	-20.65
217.651	-96.43
217.869	40.79
218.087	18.26
218.306	-41.13
218.524	71.51
218.742	-41.13
218.96	120.66
219.179	-43.18
219.397	-14.51
219.615	276.31
219.833	126.8
220.051	-69.8
220.27	34.64
220.488	147.28
220.706	36.69
220.924	-18.6
221.142	-26.79
221.36	69.46
221.578	63.32
221.796	65.36
222.015	89.94
222.233	16.21
222.451	87.89
222.669	-8.36
222.887	61.27
223.105	-77.99
223.323	5.97
223.541	-18.6
223.759	36.69
223.977	57.17
224.195	210.77
224.413	98.13
224.631	55.12
224.849	73.56
225.067	198.48
225.285	59.22
225.503	-51.37
225.721	-108.71
225.939	112.47
226.157	-32.94
226.375	182.1
226.592	-24.75
226.81	-10.41
227.028	116.56
227.246	132.95
227.464	77.65
227.682	120.66
227.9	98.13
228.117	102.23
228.335	1.88
228.553	16.21
228.771	61.27
228.989	8.02
229.206	100.18
229.424	-2.22
229.642	24.4
229.86	-18.6
230.077	163.67
230.295	51.03
230.513	141.14
230.731	83.8
230.948	106.32
231.166	65.36
231.384	28.5
231.601	-14.51
231.819	124.76
232.037	-80.04
232.254	-59.56
232.472	36.69
232.689	-45.23
232.907	120.66
233.125	12.12
233.342	20.31
233.56	5.97
233.777	-10.41
233.995	65.36
234.213	96.08
234.43	159.57
234.648	-10.41
234.865	77.65
235.083	42.84
235.3	96.08
235.518	118.61
235.735	104.28
235.953	73.56
236.17	42.84
236.388	8.02
236.605	1.88
236.822	145.24
237.04	130.9
237.257	28.5
237.475	-20.65
237.692	-10.41
237.909	69.46
238.127	53.08
238.344	63.32
238.562	24.4
238.779	-112.81
238.996	-4.27
239.214	28.5
239.431	83.8
239.648	30.55
239.865	61.27
240.083	18.26
240.3	1.88
240.517	-41.13
240.735	57.17
240.952	175.95
241.169	34.64
241.386	143.19
241.603	26.45
241.821	30.55
242.038	71.51
242.255	108.37
242.472	-75.95
242.689	71.51
242.907	46.93
243.124	42.84
243.341	8.02
243.558	89.94
243.775	-12.46
243.992	3.93
244.209	147.28
244.426	214.87
244.643	48.98
244.86	-14.51
245.078	81.75
245.295	79.7
245.512	3.93
245.729	10.07
245.946	40.79
246.163	110.42
246.38	38.74
246.597	53.08
246.814	91.99
247.031	79.7
247.248	69.46
247.464	46.93
247.681	38.74
247.898	85.84
248.115	48.98
248.332	-26.79
248.549	87.89
248.766	147.28
248.983	59.22
249.2	130.9
249.417	141.14
249.633	20.31
249.85	61.27
250.067	46.93
250.284	-16.55
250.501	61.27
250.717	106.32
250.934	-69.8
251.151	53.08
251.368	42.84
251.585	116.56
251.801	61.27
252.018	-12.46
252.235	108.37
252.451	-51.37
252.668	-65.71
252.885	173.91
253.102	81.75
253.318	26.45
253.535	-24.75
253.752	-14.51
253.968	-6.31
254.185	-0.17
254.401	-26.79
254.618	32.6
254.835	-28.84
255.051	186.19
255.268	85.84
255.484	3.93
255.701	-32.94
255.917	-6.31
256.134	-47.27
256.351	38.74
256.567	3.93
256.784	16.21
257	34.64
257.217	102.23
257.433	102.23
257.65	-10.41
257.866	151.38
258.082	-10.41
258.299	-45.23
258.515	46.93
258.732	-2.22
258.948	-8.36
259.165	65.36
259.381	-16.55
259.597	63.32
259.814	67.41
260.03	69.46
260.246	28.5
260.463	87.89
260.679	112.47
260.895	3.93
261.112	83.8
261.328	40.79
261.544	-47.27
261.761	77.65
261.977	-67.75
262.193	-41.13
262.409	77.65
262.626	28.5
262.842	36.69
263.058	-39.08
263.274	87.89
263.49	16.21
263.707	79.7
263.923	188.24
264.139	-86.19
264.355	67.41
264.571	132.95
264.787	12.12
265.004	120.66
265.22	-12.46
265.436	-100.52
265.652	20.31
265.868	24.4
266.084	-94.38
266.3	106.32
266.516	-43.18
266.732	28.5
266.948	79.7
267.164	22.36
267.38	122.71
267.596	81.75
267.812	141.14
268.028	63.32
268.244	-28.84
268.46	85.84
268.676	32.6
268.892	63.32
269.108	36.69
269.324	-102.57
269.54	-37.03
269.756	24.4
269.972	-39.08
270.188	16.21
270.403	-37.03
270.619	-34.99
270.835	116.56
271.051	96.08
271.267	46.93
271.483	-32.94
271.698	145.24
271.914	20.31
272.13	67.41
272.346	-4.27
272.562	22.36
272.777	73.56
272.993	108.37
273.209	-26.79
273.425	153.43
273.64	-22.7
273.856	53.08
274.072	57.17
274.287	24.4
274.503	120.66
274.719	44.88
274.934	-32.94
275.15	-14.51
275.366	46.93
275.581	12.12
275.797	63.32
276.012	65.36
276.228	51.03
276.444	14.17
276.659	155.47
276.875	-39.08
277.09	30.55
277.306	-22.7
277.521	98.13
277.737	75.6
277.952	85.84
278.168	42.84
278.383	-4.27
278.599	10.07
278.814	96.08
279.03	73.56
279.245	118.61
279.461	73.56
279.676	83.8
279.892	3.93
280.107	-47.27
280.322	-8.36
280.538	67.41
280.753	-22.7
280.969	26.45
281.184	96.08
281.399	114.52
281.615	-28.84
281.83	100.18
282.045	-41.13
282.26	18.26
282.476	65.36
282.691	120.66
282.906	1.88
283.122	32.6
283.337	-28.84
283.552	151.38
283.767	-22.7
283.983	98.13
284.198	-69.8
284.413	26.45
284.628	-57.51
284.843	42.84
285.058	104.28
285.274	-32.94
285.489	-32.94
285.704	89.94
285.919	-37.03
286.134	32.6
286.349	44.88
286.564	36.69
286.779	161.62
286.995	-10.41
287.21	-32.94
287.425	34.64
287.64	-59.56
287.855	32.6
288.07	-67.75
288.285	81.75
288.5	104.28
288.715	26.45
288.93	30.55
289.145	-30.89
289.36	67.41
289.575	20.31
289.79	169.81
290.004	48.98
290.219	18.26
290.434	-30.89
290.649	20.31
290.864	-34.99
291.079	116.56
291.294	48.98
291.509	87.89
291.724	-2.22
291.938	-43.18
292.153	55.12
292.368	12.12
292.583	65.36
292.798	-18.6
293.012	5.97
293.227	79.7
293.442	-20.65
293.657	110.42
293.871	153.43
294.086	12.12
294.301	202.58
294.516	40.79
294.73	51.03
294.945	-12.46
295.16	-34.99
295.374	100.18
295.589	114.52
295.804	-12.46
296.018	108.37
296.233	85.84
296.447	28.5
296.662	42.84
296.877	126.8
297.091	94.04
297.306	-4.27
297.52	-32.94
297.735	24.4
297.949	79.7
298.164	38.74
298.378	65.36
298.593	-32.94
298.807	18.26
299.022	-4.27
299.236	87.89
299.451	44.88
299.665	18.26
299.88	57.17
300.094	75.6
300.309	59.22
300.523	-0.17
300.737	-10.41
300.952	34.64
301.166	104.28
301.381	-4.27
301.595	59.22
301.809	16.21
302.024	26.45
302.238	-41.13
302.452	165.71
302.667	-0.17
302.881	89.94
303.095	69.46
303.309	65.36
303.524	57.17
303.738	73.56
303.952	-67.75
304.166	55.12
304.381	-110.76
304.595	182.1
304.809	10.07
305.023	36.69
305.237	53.08
305.452	75.6
305.666	57.17
305.88	118.61
306.094	100.18
306.308	28.5
306.522	128.85
306.736	32.6
306.95	48.98
307.164	85.84
307.379	53.08
307.593	135
307.807	155.47
308.021	94.04
308.235	71.51
308.449	-30.89
308.663	-28.84
308.877	118.61
309.091	65.36
309.305	61.27
309.519	-104.62
309.733	112.47
309.947	-57.51
310.161	53.08
310.374	132.95
310.588	169.81
310.802	-34.99
311.016	-26.79
311.23	73.56
311.444	-8.36
311.658	57.17
311.872	116.56
312.085	102.23
312.299	153.43
312.513	155.47
312.727	36.69
312.941	-30.89
313.154	61.27
313.368	85.84
313.582	5.97
313.796	1.88
314.009	100.18
314.223	206.67
314.437	128.85
314.651	116.56
314.864	-0.17
315.078	71.51
315.292	-41.13
315.505	-12.46
315.719	141.14
315.933	114.52
316.146	-2.22
316.36	30.55
316.573	132.95
316.787	34.64
317.001	98.13
317.214	24.4
317.428	89.94
317.641	-63.66
317.855	40.79
318.068	83.8
318.282	-26.79
318.495	198.48
318.709	59.22
318.922	42.84
319.136	132.95
319.349	110.42
319.563	14.17
319.776	100.18
319.99	-63.66
320.203	73.56
320.417	-26.79
320.63	22.36
320.843	149.33
321.057	110.42
321.27	-6.31
321.483	87.89
321.697	110.42
321.91	36.69
322.124	34.64
322.337	34.64
322.55	-65.71
322.763	69.46
322.977	61.27
323.19	3.93
323.403	57.17
323.617	22.36
323.83	116.56
324.043	30.55
324.256	157.52
324.469	-16.55
324.683	141.14
324.896	18.26
325.109	-6.31
325.322	-53.42
325.535	96.08
325.748	28.5
325.962	-47.27
326.175	57.17
326.388	77.65
326.601	157.52
326.814	42.84
327.027	67.41
327.24	171.86
327.453	-65.71
327.666	71.51
327.879	186.19
328.092	65.36
328.305	135
328.518	-10.41
328.731	8.02
328.944	30.55
329.157	30.55
329.37	40.79
329.583	186.19
329.796	100.18
330.009	-37.03
330.222	79.7
330.435	59.22
330.648	-4.27
330.861	-6.31
331.073	-16.55
331.286	106.32
331.499	44.88
331.712	16.21
331.925	81.75
332.138	3.93
332.35	106.32
332.563	-32.94
332.776	91.99
332.989	-53.42
333.202	1.88
333.414	61.27
333.627	114.52
333.84	-8.36
334.053	55.12
334.265	20.31
334.478	-10.41
334.691	20.31
334.903	51.03
335.116	-41.13
335.329	71.51
335.541	89.94
335.754	212.82
335.966	-20.65
336.179	5.97
336.392	-34.99
336.604	18.26
336.817	130.9
337.029	81.75
337.242	71.51
337.454	108.37
337.667	69.46
337.88	145.24
338.092	44.88
338.305	83.8
338.517	-30.89
338.729	130.9
338.942	198.48
339.154	-39.08
339.367	12.12
339.579	135
339.792	-20.65
340.004	59.22
340.217	-4.27
340.429	89.94
340.641	124.76
340.854	-41.13
341.066	22.36
341.278	75.6
341.491	159.57
341.703	59.22
341.915	-47.27
342.128	120.66
342.34	102.23
342.552	-82.09
342.764	87.89
342.977	40.79
343.189	102.23
343.401	48.98
343.613	-39.08
343.826	94.04
344.038	-22.7
344.25	16.21
344.462	26.45
344.674	44.88
344.886	38.74
345.099	87.89
345.311	122.71
345.523	-28.84
345.735	-61.61
345.947	26.45
346.159	87.89
346.371	5.97
346.583	55.12
346.795	124.76
347.007	114.52
347.219	147.28
347.431	-18.6
347.643	-10.41
347.855	12.12
348.067	116.56
348.279	-65.71
348.491	40.79
348.703	130.9
348.915	-39.08
349.127	-10.41
349.339	91.99
349.551	61.27
349.763	44.88
349.975	46.93
350.187	114.52
350.399	73.56
350.61	10.07
350.822	18.26
351.034	116.56
351.246	57.17
351.458	91.99
351.669	85.84
351.881	85.84
352.093	79.7
352.305	114.52
352.517	57.17
352.728	77.65
352.94	87.89
353.152	63.32
353.363	-30.89
353.575	81.75
353.787	96.08
353.999	3.93
354.21	120.66
354.422	-4.27
354.633	10.07
354.845	-0.17
355.057	85.84
355.268	30.55
355.48	130.9
355.692	-41.13
355.903	44.88
356.115	-92.33
356.326	-32.94
356.538	192.34
356.749	36.69
356.961	106.32
357.172	8.02
357.384	-102.57
357.595	200.53
357.807	114.52
358.018	-32.94
358.23	40.79
358.441	178
358.653	-32.94
358.864	24.4
359.075	61.27
359.287	171.86
359.498	59.22
359.709	55.12
359.921	114.52
360.132	46.93
360.344	36.69
360.555	-18.6
360.766	130.9
360.977	36.69
361.189	120.66
361.4	83.8
361.611	89.94
361.823	38.74
362.034	34.64
362.245	-20.65
362.456	46.93
362.667	96.08
362.879	-86.19
363.09	89.94
363.301	85.84
363.512	28.5
363.723	-16.55
363.935	94.04
364.146	137.04
364.357	-2.22
364.568	20.31
364.779	-34.99
364.99	100.18
365.201	-47.27
365.412	104.28
365.623	-98.47
365.834	67.41
366.045	40.79
366.256	96.08
366.467	57.17
366.678	32.6
366.889	118.61
367.1	3.93
367.311	85.84
367.522	38.74
367.733	63.32
367.944	96.08
368.155	71.51
368.366	161.62
368.577	96.08
368.788	114.52
368.999	10.07
369.209	79.7
369.42	198.48
369.631	251.73
369.842	126.8
370.053	53.08
370.264	116.56
370.474	-90.28
370.685	55.12
370.896	44.88
371.107	106.32
371.317	114.52
371.528	14.17
371.739	100.18
371.95	100.18
372.16	73.56
372.371	-61.61
372.582	51.03
372.792	96.08
373.003	89.94
373.214	87.89
373.424	100.18
373.635	5.97
373.846	67.41
374.056	108.37
374.267	-10.41
374.477	108.37
374.688	44.88
374.898	36.69
375.109	98.13
375.319	89.94
375.53	114.52
375.74	100.18
375.951	55.12
376.161	110.42
376.372	186.19
376.582	-8.36
376.793	36.69
377.003	-65.71
377.214	67.41
377.424	22.36
377.635	-16.55
377.845	-0.17
378.055	87.89
378.266	-90.28
378.476	-10.41
378.686	28.5
378.897	30.55
379.107	137.04
379.317	98.13
379.528	-0.17
379.738	102.23
379.948	-28.84
380.158	77.65
380.369	44.88
380.579	28.5
380.789	57.17
380.999	24.4
381.21	135
381.42	157.52
381.63	34.64
381.84	75.6
382.05	42.84
382.261	118.61
382.471	96.08
382.681	-2.22
382.891	159.57
383.101	145.24
383.311	-65.71
383.521	34.64
383.731	55.12
383.941	44.88
384.151	32.6
384.361	-6.31
384.571	36.69
384.781	85.84
384.991	171.86
385.201	221.01
385.411	73.56
385.621	30.55
385.831	81.75
386.041	42.84
386.251	38.74
386.461	77.65
386.671	1.88
386.881	59.22
387.091	10.07
387.301	106.32
387.511	48.98
387.72	12.12
387.93	130.9
388.14	-37.03
388.35	28.5
388.56	10.07
388.769	63.32
388.979	48.98
389.189	51.03
389.399	36.69
389.609	59.22
389.818	151.38
390.028	106.32
390.238	145.24
390.447	8.02
390.657	53.08
390.867	44.88
391.076	-26.79
391.286	3.93
391.496	85.84
391.705	77.65
391.915	75.6
392.125	135
392.334	-57.51
392.544	204.63
392.753	-34.99
392.963	-34.99
393.172	36.69
393.382	-18.6
393.591	161.62
393.801	-30.89
394.01	210.77
394.22	98.13
394.429	44.88
394.639	65.36
394.848	81.75
395.058	96.08
395.267	55.12
395.477	73.56
395.686	124.76
395.895	212.82
396.105	186.19
396.314	69.46
396.524	48.98
396.733	85.84
396.942	48.98
397.152	186.19
397.361	159.57
397.57	61.27
397.78	-18.6
397.989	26.45
398.198	135
398.407	94.04
398.617	89.94
398.826	61.27
399.035	-20.65
399.244	67.41
399.453	63.32
399.663	94.04
399.872	104.28
400.081	-28.84
400.29	139.09
400.499	20.31
400.708	139.09
400.917	57.17
401.127	79.7
401.336	85.84
401.545	163.67
401.754	141.14
401.963	69.46
402.172	-8.36
402.381	18.26
402.59	57.17
402.799	28.5
403.008	114.52
403.217	83.8
403.426	118.61
403.635	-18.6
403.844	20.31
404.053	71.51
404.262	89.94
404.471	165.71
404.68	63.32
404.888	67.41
405.097	53.08
405.306	126.8
405.515	110.42
405.724	51.03
405.933	104.28
406.142	55.12
406.35	112.47
406.559	18.26
406.768	22.36
406.977	208.72
407.185	79.7
407.394	116.56
407.603	44.88
407.812	65.36
408.02	151.38
408.229	10.07
408.438	79.7
408.646	-71.85
408.855	-14.51
409.064	120.66
409.272	55.12
409.481	91.99
409.69	-67.75
409.898	-39.08
410.107	30.55
410.315	135
410.524	-67.75
410.733	81.75
410.941	26.45
411.15	59.22
411.358	48.98
411.567	241.49
411.775	83.8
411.984	48.98
412.192	122.71
412.401	-16.55
412.609	108.37
412.818	165.71
413.026	55.12
413.234	30.55
413.443	44.88
413.651	-18.6
413.86	112.47
414.068	149.33
414.276	157.52
414.485	8.02
414.693	128.85
414.901	161.62
415.11	104.28
415.318	24.4
415.526	104.28
415.734	126.8
415.943	30.55
416.151	141.14
416.359	24.4
416.567	57.17
416.776	102.23
416.984	128.85
417.192	135
417.4	67.41
417.608	26.45
417.817	32.6
418.025	42.84
418.233	204.63
418.441	-32.94
418.649	-4.27
418.857	26.45
419.065	100.18
419.273	38.74
419.481	85.84
419.689	77.65
419.897	-2.22
420.105	-41.13
420.313	77.65
420.521	169.81
420.729	178
420.937	44.88
421.145	-51.37
421.353	77.65
421.561	182.1
421.769	65.36
421.977	28.5
422.185	188.24
422.393	12.12
422.601	91.99
422.809	73.56
423.017	3.93
423.224	139.09
423.432	106.32
423.64	55.12
423.848	178
424.056	42.84
424.263	71.51
424.471	-32.94
424.679	104.28
424.887	-12.46
425.094	180.05
425.302	65.36
425.51	46.93
425.718	77.65
425.925	51.03
426.133	10.07
426.341	270.16
426.548	79.7
426.756	69.46
426.964	100.18
427.171	55.12
427.379	132.95
427.586	87.89
427.794	71.51
428.001	137.04
428.209	100.18
428.417	173.91
428.624	67.41
428.832	118.61
429.039	73.56
429.247	83.8
429.454	182.1
429.662	194.39
429.869	87.89
430.076	147.28
430.284	124.76
430.491	163.67
430.699	157.52
430.906	194.39
431.114	147.28
431.321	159.57
431.528	130.9
431.736	186.19
431.943	196.43
432.15	157.52
432.358	221.01
432.565	180.05
432.772	81.75
432.979	309.07
433.187	216.91
433.394	233.3
433.601	120.66
433.808	198.48
434.016	225.11
434.223	225.11
434.43	253.78
434.637	366.42
434.844	323.41
435.052	202.58
435.259	276.31
435.466	300.88
435.673	317.26
435.88	319.31
436.087	380.75
436.294	380.75
436.501	390.99
436.708	276.31
436.915	378.7
437.122	386.9
437.329	352.08
437.537	382.8
437.743	405.33
437.95	591.69
438.157	440.14
438.364	425.81
438.571	464.72
438.778	448.33
438.985	466.77
439.192	552.78
439.399	460.62
439.606	491.34
439.813	565.07
440.02	694.09
440.227	661.32
440.433	614.22
440.64	630.6
440.847	589.64
441.054	583.5
441.261	839.5
441.467	675.66
441.674	673.61
441.881	786.25
442.088	689.99
442.294	724.81
442.501	984.9
442.708	1015.62
442.914	845.64
443.121	997.19
443.328	941.89
443.534	1105.73
443.741	1011.53
443.948	913.22
444.154	1173.32
444.361	1292.1
444.568	1210.18
444.774	1189.7
444.981	1140.55
445.187	1302.34
445.394	1349.44
445.6	1316.67
445.807	1394.5
446.013	1478.46
446.22	1423.17
446.426	1593.15
446.633	1697.6
446.839	1902.39
447.046	1687.36
447.252	1929.02
447.459	1853.24
447.665	1879.86
447.871	2035.51
448.078	2109.24
448.284	2213.68
448.491	2299.7
448.697	2488.11
448.903	2479.92
449.11	2496.3
449.316	2416.43
449.522	2660.14
449.728	2895.66
449.935	2856.75
450.141	2881.32
450.347	3141.41
450.553	3094.31
450.76	3188.52
450.966	3340.07
451.172	3561.25
451.378	3682.08
451.584	3641.12
451.791	3970.84
451.997	4009.75
452.203	4063
452.409	4278.04
452.615	4513.55
452.821	4366.1
453.027	4585.23
453.233	5050.12
453.44	4695.82
453.646	5109.51
453.852	5316.36
454.058	5644.03
454.264	5656.32
454.47	6164.22
454.676	6258.42
454.882	6395.64
455.088	6278.9
455.294	6637.3
455.5	7165.67
455.705	7640.8
455.911	7517.92
456.117	7876.32
456.323	8034.01
456.529	8128.22
456.735	8642.26
456.941	9105.1
457.147	9301.7
457.352	9594.56
457.558	9854.65
457.764	10589.88
457.97	10845.87
458.176	11220.65
458.381	11759.27
458.587	12168.86
458.793	12570.26
458.999	12566.17
459.204	14046.85
459.41	14528.12
459.616	14372.47
459.821	15099.5
460.027	16014.94
460.233	16838.23
460.438	16627.29
460.644	17610.31
460.85	17518.15
461.055	18517.56
461.261	19387.95
461.466	18976.31
461.672	19357.23
461.878	21632.52
462.083	21112.34
462.289	21718.54
462.494	23064.05
462.7	22828.54
462.905	23418.35
463.111	25189.84
463.316	26430.91
463.522	26746.3
463.727	27436.47
463.932	28599.71
464.138	29777.29
464.343	30838.14
464.549	30948.73
464.754	33027.42
464.959	33772.88
465.165	34518.34
465.37	34551.11
465.575	34340.17
465.781	36777.25
465.986	37782.8
466.191	36900.13
466.397	37842.2
466.602	36476.2
466.807	39060.74
467.012	39597.31
467.218	40144.11
467.423	39943.41
467.628	41282.78
467.833	43584.7
468.038	42384.59
468.244	42073.3
468.449	43605.18
468.654	43154.63
