Data from USB4F104151__113__10-45-53-160.txt Node

Date: Wed Feb 26 10:45:53 EST 2025
User: louis
Spectrometer: USB4F10415
Trigger mode: 4
Integration Time (sec): 1.000000E-1
Scans to average: 1
Electric dark correction enabled: true
Nonlinearity correction enabled: false
Boxcar width: 0
XAxis mode: Wavelengths
Number of Pixels in Spectrum: 3648
>>>>>Begin Spectral Data<<<<<
178.204	-322.38
178.424	-322.38
178.644	-322.38
178.864	-422.73
179.084	-412.5
179.304	66.73
179.524	-88.92
179.744	13.48
179.964	5.29
180.184	68.78
180.404	15.53
180.624	-90.96
180.844	-52.05
181.064	-84.82
181.283	56.49
181.503	33.96
181.723	56.49
181.943	-33.62
182.163	210.09
182.383	11.43
182.602	66.73
182.822	185.51
183.042	87.21
183.262	-29.52
183.482	-21.33
183.701	60.59
183.921	64.68
184.141	33.96
184.361	-9.05
184.58	85.16
184.8	81.07
185.02	-0.85
185.239	117.93
185.459	13.48
185.679	93.35
185.898	25.77
186.118	103.59
186.338	27.82
186.557	128.17
186.777	-15.19
186.997	33.96
187.216	72.87
187.436	103.59
187.655	19.63
187.875	85.16
188.095	72.87
188.314	144.55
188.534	126.12
188.753	-29.52
188.973	126.12
189.192	212.14
189.412	56.49
189.631	81.07
189.851	109.74
190.07	150.7
190.29	1.19
190.509	15.53
190.729	-9.05
190.948	128.17
191.168	226.47
191.387	56.49
191.607	33.96
191.826	113.83
192.045	85.16
192.265	-27.48
192.484	72.87
192.704	83.11
192.923	-58.2
193.142	193.7
193.362	126.12
193.581	113.83
193.8	40.11
194.02	173.22
194.239	46.25
194.458	185.51
194.678	46.25
194.897	74.92
195.116	87.21
195.335	117.93
195.555	72.87
195.774	33.96
195.993	95.4
196.212	48.3
196.432	-58.2
196.651	72.87
196.87	7.34
197.089	197.8
197.308	50.35
197.528	150.7
197.747	-0.85
197.966	70.83
198.185	181.42
198.404	-29.52
198.623	105.64
198.842	101.55
199.062	83.11
199.281	136.36
199.5	15.53
199.719	79.02
199.938	81.07
200.157	148.65
200.376	111.78
200.595	119.98
200.814	68.78
201.033	19.63
201.252	152.74
201.471	11.43
201.69	103.59
201.909	48.3
202.128	185.51
202.347	105.64
202.566	62.63
202.785	-86.87
203.004	-19.29
203.223	269.48
203.442	119.98
203.661	-13.14
203.879	101.55
204.098	144.55
204.317	7.34
204.536	130.22
204.755	64.68
204.974	64.68
205.193	38.06
205.411	130.22
205.63	117.93
205.849	58.54
206.068	111.78
206.287	7.34
206.505	189.61
206.724	72.87
206.943	122.02
207.162	21.67
207.381	50.35
207.599	91.31
207.818	119.98
208.037	29.87
208.255	91.31
208.474	58.54
208.693	72.87
208.911	5.29
209.13	68.78
209.349	115.88
209.567	52.39
209.786	132.26
210.005	83.11
210.223	70.83
210.442	-123.73
210.661	-23.38
210.879	60.59
211.098	72.87
211.316	21.67
211.535	83.11
211.753	126.12
211.972	79.02
212.191	21.67
212.409	1.19
212.628	205.99
212.846	-15.19
213.065	113.83
213.283	154.79
213.502	19.63
213.72	72.87
213.938	44.2
214.157	76.97
214.375	152.74
214.594	64.68
214.812	113.83
215.031	-15.19
215.249	9.39
215.467	56.49
215.686	62.63
215.904	87.21
216.122	70.83
216.341	220.33
216.559	111.78
216.778	138.41
216.996	162.98
217.214	-9.05
217.432	81.07
217.651	13.48
217.869	-2.9
218.087	97.45
218.306	27.82
218.524	54.44
218.742	56.49
218.96	126.12
219.179	70.83
219.397	93.35
219.615	158.89
219.833	83.11
220.051	-45.91
220.27	99.5
220.488	97.45
220.706	89.26
220.924	40.11
221.142	-9.05
221.36	89.26
221.578	124.07
221.796	87.21
222.015	89.26
222.233	70.83
222.451	216.23
222.669	-13.14
222.887	64.68
223.105	50.35
223.323	23.72
223.541	15.53
223.759	99.5
223.977	33.96
224.195	105.64
224.413	107.69
224.631	68.78
224.849	72.87
225.067	279.72
225.285	5.29
225.503	29.87
225.721	-88.92
225.939	66.73
226.157	56.49
226.375	167.08
226.592	-33.62
226.81	66.73
227.028	117.93
227.246	169.13
227.464	54.44
227.682	142.5
227.9	27.82
228.117	111.78
228.335	23.72
228.553	76.97
228.771	25.77
228.989	48.3
229.206	42.15
229.424	58.54
229.642	58.54
229.86	-9.05
230.077	52.39
230.295	105.64
230.513	115.88
230.731	79.02
230.948	142.5
231.166	72.87
231.384	11.43
231.601	23.72
231.819	119.98
232.037	13.48
232.254	-7
232.472	23.72
232.689	-27.48
232.907	122.02
233.125	40.11
233.342	-95.06
233.56	44.2
233.777	76.97
233.995	27.82
234.213	52.39
234.43	70.83
234.648	-31.57
234.865	29.87
235.083	27.82
235.3	68.78
235.518	93.35
235.735	117.93
235.953	42.15
236.17	72.87
236.388	109.74
236.605	70.83
236.822	119.98
237.04	44.2
237.257	113.83
237.475	3.24
237.692	66.73
237.909	128.17
238.127	-0.85
238.344	128.17
238.562	103.59
238.779	19.63
238.996	-58.2
239.214	50.35
239.431	119.98
239.648	-39.76
239.865	117.93
240.083	52.39
240.3	13.48
240.517	36.01
240.735	56.49
240.952	162.98
241.169	91.31
241.386	128.17
241.603	36.01
241.821	21.67
242.038	107.69
242.255	152.74
242.472	-54.1
242.689	111.78
242.907	95.4
243.124	72.87
243.341	99.5
243.558	87.21
243.775	-19.29
243.992	-37.72
244.209	117.93
244.426	175.27
244.643	76.97
244.86	-4.95
245.078	95.4
245.295	109.74
245.512	15.53
245.729	31.91
245.946	179.37
246.163	99.5
246.38	-47.96
246.597	158.89
246.814	89.26
247.031	19.63
247.248	38.06
247.464	132.26
247.681	91.31
247.898	40.11
248.115	46.25
248.332	3.24
248.549	222.38
248.766	111.78
248.983	107.69
249.2	117.93
249.417	154.79
249.633	17.58
249.85	128.17
250.067	25.77
250.284	46.25
250.501	91.31
250.717	46.25
250.934	-60.24
251.151	117.93
251.368	23.72
251.585	79.02
251.801	87.21
252.018	-19.29
252.235	150.7
252.451	-101.2
252.668	52.39
252.885	171.18
253.102	72.87
253.318	1.19
253.535	60.59
253.752	29.87
253.968	7.34
254.185	-17.24
254.401	19.63
254.618	101.55
254.835	-0.85
255.051	64.68
255.268	175.27
255.484	91.31
255.701	31.91
255.917	81.07
256.134	-2.9
256.351	68.78
256.567	-39.76
256.784	36.01
257	-70.48
257.217	128.17
257.433	40.11
257.65	25.77
257.866	165.03
258.082	-13.14
258.299	-109.4
258.515	148.65
258.732	-29.52
258.948	-39.76
259.165	70.83
259.381	38.06
259.597	105.64
259.814	-64.34
260.03	-17.24
260.246	66.73
260.463	183.46
260.679	167.08
260.895	83.11
261.112	52.39
261.328	40.11
261.544	56.49
261.761	228.52
261.977	42.15
262.193	54.44
262.409	56.49
262.626	3.24
262.842	113.83
263.058	-21.33
263.274	91.31
263.49	210.09
263.707	62.63
263.923	146.6
264.139	-2.9
264.355	89.26
264.571	113.83
264.787	52.39
265.004	132.26
265.22	79.02
265.436	21.67
265.652	-13.14
265.868	95.4
266.084	25.77
266.3	44.2
266.516	31.91
266.732	191.66
266.948	40.11
267.164	93.35
267.38	38.06
267.596	74.92
267.812	173.22
268.028	40.11
268.244	-0.85
268.46	33.96
268.676	56.49
268.892	-13.14
269.108	50.35
269.324	5.29
269.54	-72.53
269.756	185.51
269.972	-43.86
270.188	44.2
270.403	-56.15
270.619	3.24
270.835	89.26
271.051	83.11
271.267	-64.34
271.483	-17.24
271.698	58.54
271.914	76.97
272.13	85.16
272.346	13.48
272.562	76.97
272.777	181.42
272.993	40.11
273.209	72.87
273.425	107.69
273.64	-93.01
273.856	103.59
274.072	36.01
274.287	-39.76
274.503	126.12
274.719	62.63
274.934	42.15
275.15	3.24
275.366	140.46
275.581	-23.38
275.797	23.72
276.012	60.59
276.228	31.91
276.444	72.87
276.659	144.55
276.875	-31.57
277.09	31.91
277.306	56.49
277.521	136.36
277.737	31.91
277.952	158.89
278.168	95.4
278.383	3.24
278.599	79.02
278.814	126.12
279.03	89.26
279.245	150.7
279.461	-13.14
279.676	122.02
279.892	-47.96
280.107	21.67
280.322	74.92
280.538	101.55
280.753	15.53
280.969	97.45
281.184	-39.76
281.399	122.02
281.615	31.91
281.83	11.43
282.045	-97.11
282.26	-9.05
282.476	91.31
282.691	126.12
282.906	13.48
283.122	66.73
283.337	-13.14
283.552	111.78
283.767	89.26
283.983	144.55
284.198	-27.48
284.413	36.01
284.628	13.48
284.843	40.11
285.058	103.59
285.274	54.44
285.489	44.2
285.704	62.63
285.919	97.45
286.134	74.92
286.349	85.16
286.564	-31.57
286.779	150.7
286.995	-41.81
287.21	-0.85
287.425	27.82
287.64	31.91
287.855	119.98
288.07	-27.48
288.285	97.45
288.5	109.74
288.715	74.92
288.93	-21.33
289.145	-4.95
289.36	144.55
289.575	85.16
289.79	165.03
290.004	21.67
290.219	85.16
290.434	-29.52
290.649	-86.87
290.864	17.58
291.079	72.87
291.294	95.4
291.509	105.64
291.724	1.19
291.938	-11.09
292.153	38.06
292.368	38.06
292.583	23.72
292.798	76.97
293.012	64.68
293.227	52.39
293.442	-4.95
293.657	146.6
293.871	81.07
294.086	85.16
294.301	214.18
294.516	136.36
294.73	36.01
294.945	-60.24
295.16	56.49
295.374	169.13
295.589	115.88
295.804	33.96
296.018	70.83
296.233	101.55
296.447	36.01
296.662	5.29
296.877	167.08
297.091	91.31
297.306	42.15
297.52	42.15
297.735	56.49
297.949	19.63
298.164	124.07
298.378	97.45
298.593	-2.9
298.807	17.58
299.022	89.26
299.236	167.08
299.451	64.68
299.665	-9.05
299.88	99.5
300.094	89.26
300.309	38.06
300.523	117.93
300.737	-29.52
300.952	48.3
301.166	87.21
301.381	-19.29
301.595	7.34
301.809	81.07
302.024	21.67
302.238	-27.48
302.452	195.75
302.667	64.68
302.881	169.13
303.095	171.18
303.309	13.48
303.524	19.63
303.738	33.96
303.952	48.3
304.166	117.93
304.381	-66.39
304.595	148.65
304.809	7.34
305.023	9.39
305.237	-35.67
305.452	-31.57
305.666	42.15
305.88	44.2
306.094	144.55
306.308	124.07
306.522	128.17
306.736	195.75
306.95	132.26
307.164	40.11
307.379	58.54
307.593	175.27
307.807	136.36
308.021	60.59
308.235	99.5
308.449	-45.91
308.663	7.34
308.877	210.09
309.091	97.45
309.305	140.46
309.519	-15.19
309.733	156.84
309.947	38.06
310.161	132.26
310.374	134.31
310.588	181.42
310.802	36.01
311.016	64.68
311.23	17.58
311.444	-21.33
311.658	68.78
311.872	216.23
312.085	234.66
312.299	68.78
312.513	83.11
312.727	68.78
312.941	13.48
313.154	-7
313.368	79.02
313.582	87.21
313.796	107.69
314.009	134.31
314.223	238.76
314.437	66.73
314.651	95.4
314.864	33.96
315.078	46.25
315.292	-13.14
315.505	40.11
315.719	87.21
315.933	126.12
316.146	85.16
316.36	3.24
316.573	103.59
316.787	167.08
317.001	52.39
317.214	-13.14
317.428	58.54
317.641	-2.9
317.855	-27.48
318.068	74.92
318.282	76.97
318.495	189.61
318.709	93.35
318.922	68.78
319.136	136.36
319.349	117.93
319.563	-113.49
319.776	87.21
319.99	-33.62
320.203	119.98
320.417	38.06
320.63	101.55
320.843	175.27
321.057	87.21
321.27	150.7
321.483	175.27
321.697	130.22
321.91	101.55
322.124	74.92
322.337	105.64
322.55	-29.52
322.763	38.06
322.977	7.34
323.19	11.43
323.403	40.11
323.617	60.59
323.83	150.7
324.043	36.01
324.256	66.73
324.469	29.87
324.683	83.11
324.896	15.53
325.109	105.64
325.322	-9.05
325.535	66.73
325.748	146.6
325.962	11.43
326.175	62.63
326.388	122.02
326.601	113.83
326.814	-31.57
327.027	21.67
327.24	165.03
327.453	-29.52
327.666	72.87
327.879	167.08
328.092	89.26
328.305	46.25
328.518	103.59
328.731	25.77
328.944	19.63
329.157	138.41
329.37	-9.05
329.583	128.17
329.796	212.14
330.009	5.29
330.222	66.73
330.435	134.31
330.648	95.4
330.861	142.5
331.073	138.41
331.286	142.5
331.499	9.39
331.712	52.39
331.925	-15.19
332.138	85.16
332.35	74.92
332.563	-19.29
332.776	162.98
332.989	13.48
333.202	74.92
333.414	50.35
333.627	52.39
333.84	48.3
334.053	79.02
334.265	13.48
334.478	79.02
334.691	7.34
334.903	113.83
335.116	48.3
335.329	66.73
335.541	91.31
335.754	130.22
335.966	7.34
336.179	27.82
336.392	19.63
336.604	48.3
336.817	187.56
337.029	128.17
337.242	85.16
337.454	74.92
337.667	5.29
337.88	220.33
338.092	91.31
338.305	101.55
338.517	33.96
338.729	93.35
338.942	183.46
339.154	21.67
339.367	-29.52
339.579	175.27
339.792	-68.44
340.004	126.12
340.217	31.91
340.429	66.73
340.641	70.83
340.854	-31.57
341.066	70.83
341.278	158.89
341.491	197.8
341.703	91.31
341.915	-41.81
342.128	171.18
342.34	36.01
342.552	-13.14
342.764	50.35
342.977	50.35
343.189	126.12
343.401	23.72
343.613	-58.2
343.826	122.02
344.038	-0.85
344.25	60.59
344.462	48.3
344.674	74.92
344.886	52.39
345.099	62.63
345.311	101.55
345.523	38.06
345.735	-62.29
345.947	101.55
346.159	140.46
346.371	-11.09
346.583	15.53
346.795	220.33
347.007	19.63
347.219	68.78
347.431	-41.81
347.643	203.94
347.855	-9.05
348.067	70.83
348.279	27.82
348.491	29.87
348.703	76.97
348.915	-4.95
349.127	40.11
349.339	76.97
349.551	-29.52
349.763	101.55
349.975	70.83
350.187	144.55
350.399	187.56
350.61	60.59
350.822	25.77
351.034	52.39
351.246	103.59
351.458	93.35
351.669	76.97
351.881	76.97
352.093	83.11
352.305	158.89
352.517	23.72
352.728	201.9
352.94	27.82
353.152	173.22
353.363	-15.19
353.575	-19.29
353.787	216.23
353.999	29.87
354.21	191.66
354.422	33.96
354.633	23.72
354.845	76.97
355.057	31.91
355.268	111.78
355.48	111.78
355.692	-7
355.903	27.82
356.115	-54.1
356.326	-56.15
356.538	179.37
356.749	-33.62
356.961	232.62
357.172	79.02
357.384	-68.44
357.595	228.52
357.807	3.24
358.018	56.49
358.23	13.48
358.441	128.17
358.653	15.53
358.864	-21.33
359.075	38.06
359.287	46.25
359.498	162.98
359.709	89.26
359.921	76.97
360.132	83.11
360.344	136.36
360.555	52.39
360.766	89.26
360.977	-9.05
361.189	91.31
361.4	50.35
361.611	132.26
361.823	140.46
362.034	27.82
362.245	-97.11
362.456	31.91
362.667	9.39
362.879	-21.33
363.09	23.72
363.301	103.59
363.512	31.91
363.723	15.53
363.935	1.19
364.146	97.45
364.357	-45.91
364.568	52.39
364.779	-33.62
364.99	119.98
365.201	27.82
365.412	179.37
365.623	-64.34
365.834	205.99
366.045	68.78
366.256	91.31
366.467	117.93
366.678	15.53
366.889	54.44
367.1	50.35
367.311	128.17
367.522	19.63
367.733	107.69
367.944	158.89
368.155	99.5
368.366	95.4
368.577	89.26
368.788	56.49
368.999	-0.85
369.209	72.87
369.42	269.48
369.631	232.62
369.842	103.59
370.053	15.53
370.264	105.64
370.474	19.63
370.685	56.49
370.896	21.67
371.107	187.56
371.317	74.92
371.528	19.63
371.739	154.79
371.95	66.73
372.16	48.3
372.371	31.91
372.582	46.25
372.792	136.36
373.003	142.5
373.214	83.11
373.424	13.48
373.635	25.77
373.846	191.66
374.056	109.74
374.267	66.73
374.477	79.02
374.688	50.35
374.898	91.31
375.109	95.4
375.319	13.48
375.53	91.31
375.74	56.49
375.951	44.2
376.161	93.35
376.372	216.23
376.582	-17.24
376.793	66.73
377.003	-13.14
377.214	-19.29
377.424	126.12
377.635	117.93
377.845	1.19
378.055	228.52
378.266	-29.52
378.476	-17.24
378.686	15.53
378.897	36.01
379.107	74.92
379.317	107.69
379.528	50.35
379.738	160.94
379.948	62.63
380.158	160.94
380.369	36.01
380.579	101.55
380.789	85.16
380.999	146.6
381.21	134.31
381.42	181.42
381.63	27.82
381.84	158.89
382.05	58.54
382.261	146.6
382.471	160.94
382.681	109.74
382.891	103.59
383.101	130.22
383.311	-52.05
383.521	13.48
383.731	109.74
383.941	76.97
384.151	99.5
384.361	138.41
384.571	115.88
384.781	76.97
384.991	175.27
385.201	224.42
385.411	44.2
385.621	103.59
385.831	93.35
386.041	48.3
386.251	1.19
386.461	95.4
386.671	83.11
386.881	76.97
387.091	42.15
387.301	52.39
387.511	85.16
387.72	72.87
387.93	179.37
388.14	-56.15
388.35	56.49
388.56	156.84
388.769	93.35
388.979	25.77
389.189	3.24
389.399	50.35
389.609	42.15
389.818	99.5
390.028	21.67
390.238	64.68
390.447	27.82
390.657	113.83
390.867	-7
391.076	-17.24
391.286	103.59
391.496	111.78
391.705	66.73
391.915	91.31
392.125	138.41
392.334	38.06
392.544	183.46
392.753	87.21
392.963	46.25
393.172	79.02
393.382	87.21
393.591	226.47
393.801	1.19
394.01	162.98
394.22	140.46
394.429	-9.05
394.639	68.78
394.848	7.34
395.058	72.87
395.267	72.87
395.477	261.29
395.686	87.21
395.895	205.99
396.105	179.37
396.314	17.58
396.524	144.55
396.733	-13.14
396.942	93.35
397.152	134.31
397.361	162.98
397.57	117.93
397.78	89.26
397.989	93.35
398.198	218.28
398.407	36.01
398.617	62.63
398.826	138.41
399.035	3.24
399.244	97.45
399.453	111.78
399.663	89.26
399.872	91.31
400.081	-160.59
400.29	60.59
400.499	-25.43
400.708	111.78
400.917	79.02
401.127	99.5
401.336	42.15
401.545	156.84
401.754	81.07
401.963	146.6
402.172	62.63
402.381	31.91
402.59	-13.14
402.799	99.5
403.008	79.02
403.217	87.21
403.426	56.49
403.635	44.2
403.844	91.31
404.053	25.77
404.262	29.87
404.471	199.85
404.68	89.26
404.888	46.25
405.097	115.88
405.306	93.35
405.515	119.98
405.724	56.49
405.933	115.88
406.142	152.74
406.35	87.21
406.559	83.11
406.768	-29.52
406.977	126.12
407.185	158.89
407.394	46.25
407.603	31.91
407.812	122.02
408.02	126.12
408.229	33.96
408.438	95.4
408.646	-54.1
408.855	79.02
409.064	171.18
409.272	46.25
409.481	83.11
409.69	-33.62
409.898	-35.67
410.107	46.25
410.315	109.74
410.524	91.31
410.733	111.78
410.941	36.01
411.15	148.65
411.358	93.35
411.567	136.36
411.775	171.18
411.984	128.17
412.192	136.36
412.401	70.83
412.609	185.51
412.818	124.07
413.026	81.07
413.234	13.48
413.443	91.31
413.651	1.19
413.86	31.91
414.068	138.41
414.276	175.27
414.485	79.02
414.693	171.18
414.901	187.56
415.11	91.31
415.318	25.77
415.526	91.31
415.734	56.49
415.943	48.3
416.151	226.47
416.359	101.55
416.567	81.07
416.776	173.22
416.984	111.78
417.192	175.27
417.4	50.35
417.608	-29.52
417.817	11.43
418.025	91.31
418.233	158.89
418.441	-37.72
418.649	23.72
418.857	89.26
419.065	152.74
419.273	52.39
419.481	93.35
419.689	23.72
419.897	40.11
420.105	-9.05
420.313	93.35
420.521	165.03
420.729	216.23
420.937	50.35
421.145	72.87
421.353	93.35
421.561	185.51
421.769	66.73
421.977	138.41
422.185	117.93
422.393	58.54
422.601	48.3
422.809	156.84
423.017	72.87
423.224	48.3
423.432	154.79
423.64	160.94
423.848	154.79
424.056	74.92
424.263	119.98
424.471	62.63
424.679	130.22
424.887	15.53
425.094	130.22
425.302	52.39
425.51	72.87
425.718	134.31
425.925	111.78
426.133	-15.19
426.341	224.42
426.548	54.44
426.756	33.96
426.964	187.56
427.171	29.87
427.379	146.6
427.586	83.11
427.794	162.98
428.001	181.42
428.209	40.11
428.417	208.04
428.624	148.65
428.832	167.08
429.039	150.7
429.247	66.73
429.454	126.12
429.662	263.33
429.869	122.02
430.076	107.69
430.284	146.6
430.491	224.42
430.699	212.14
430.906	187.56
431.114	175.27
431.321	167.08
431.528	189.61
431.736	208.04
431.943	89.26
432.15	146.6
432.358	138.41
432.565	304.29
432.772	23.72
432.979	273.57
433.187	115.88
433.394	240.81
433.601	232.62
433.808	304.29
434.016	302.25
434.223	220.33
434.43	144.55
434.637	136.36
434.844	146.6
435.052	320.68
435.259	287.91
435.466	150.7
435.673	238.76
435.88	271.53
436.087	242.85
436.294	287.91
436.501	275.62
436.708	257.19
436.915	234.66
437.122	369.83
437.329	240.81
437.537	390.31
437.743	363.69
437.95	482.47
438.157	314.53
438.364	378.02
438.571	398.5
438.778	390.31
438.985	472.23
439.192	441.51
439.399	367.78
439.606	392.36
439.813	478.37
440.02	607.39
440.227	568.48
440.433	556.19
440.64	496.8
440.847	494.76
441.054	543.91
441.261	654.5
441.467	613.54
441.674	558.24
441.881	703.65
442.088	640.16
442.294	750.75
442.501	760.99
442.708	793.76
442.914	750.75
443.121	795.81
443.328	804
443.534	926.88
443.741	828.57
443.948	756.9
444.154	904.35
444.361	1180.82
444.568	920.73
444.774	1021.08
444.981	971.93
445.187	1129.63
445.394	1156.25
445.6	1121.43
445.807	1275.03
446.013	1328.28
446.22	1070.23
446.426	1414.29
446.633	1420.44
446.839	1533.08
447.046	1311.89
447.252	1645.71
447.459	1520.79
447.665	1543.32
447.871	1684.62
448.078	1795.22
448.284	1852.56
448.491	1977.48
448.697	1885.33
448.903	2043.02
449.11	2069.64
449.316	2059.4
449.522	2276.49
449.728	2325.64
449.935	2462.85
450.141	2397.32
450.347	2557.06
450.553	2589.83
450.76	2544.77
450.966	2784.38
451.172	2942.08
451.378	3015.8
451.584	3001.47
451.791	3370.1
451.997	3329.14
452.203	3495.03
452.409	3597.43
452.615	3757.17
452.821	3456.12
453.027	3583.09
453.233	4103.28
453.44	3863.66
453.646	4146.28
453.852	4412.52
454.058	4490.34
454.264	4521.06
454.47	4852.83
454.676	4922.46
454.882	5432.41
455.088	5291.1
455.294	5469.27
455.5	5667.92
455.705	6157.39
455.911	6011.98
456.117	6360.14
456.323	6538.31
456.529	6636.61
456.735	6966.34
456.941	7226.43
457.147	7621.69
457.352	7593.01
457.558	8016.94
457.764	8686.63
457.97	8827.94
458.176	9124.9
458.381	9446.43
458.587	9731.09
458.793	10296.33
458.999	10083.34
459.204	11246.59
459.41	11647.99
459.616	11588.6
459.821	12250.1
460.027	12719.08
460.233	13386.72
460.438	13280.22
460.644	14181.33
460.85	14302.16
461.055	14963.65
461.261	15780.79
461.466	15383.49
461.672	15496.13
461.878	17433.5
462.083	17179.56
462.289	17724.32
462.494	18082.71
462.7	18428.82
462.905	18518.93
463.111	20161.4
463.316	21097.32
463.522	21302.12
463.727	22494.04
463.932	23087.95
464.138	23726.91
464.343	25021.23
464.549	24711.99
464.754	26694.42
464.959	27360.01
465.165	27763.46
465.37	27476.74
465.575	27720.45
465.781	29594.34
465.986	30239.45
466.191	29682.41
466.397	30266.08
466.602	29266.67
466.807	31161.04
467.012	31738.57
467.218	32295.61
467.423	32436.92
467.628	33481.39
467.833	35041.94
468.038	34298.53
