Data from USB4F104151__98__10-45-18-764.txt Node

Date: Wed Feb 26 10:45:18 EST 2025
User: louis
Spectrometer: USB4F10415
Trigger mode: 4
Integration Time (sec): 1.000000E-1
Scans to average: 1
Electric dark correction enabled: true
Nonlinearity correction enabled: false
Boxcar width: 0
XAxis mode: Wavelengths
Number of Pixels in Spectrum: 3648
>>>>>Begin Spectral Data<<<<<
178.204	-409.94
178.424	-409.94
178.644	-409.94
178.864	-381.26
179.084	-473.42
179.304	-35.16
179.524	-12.63
179.744	-10.58
179.964	63.15
180.184	48.81
180.404	67.24
180.624	-61.78
180.844	24.23
181.064	-57.68
181.283	-18.77
181.503	-20.82
181.723	13.99
181.943	-86.36
182.163	161.45
182.383	22.19
182.602	22.19
182.822	153.26
183.042	16.04
183.262	-0.34
183.482	-16.73
183.701	65.19
183.921	61.1
184.141	-80.21
184.361	54.95
184.58	59.05
184.8	89.77
185.02	-51.54
185.239	52.91
185.459	46.76
185.679	177.83
185.898	-74.07
186.118	-6.49
186.338	-8.53
186.557	116.39
186.777	-72.02
186.997	-6.49
187.216	16.04
187.436	159.4
187.655	54.95
187.875	110.25
188.095	7.85
188.314	124.58
188.534	57
188.753	-80.21
188.973	73.39
189.192	155.3
189.412	1.71
189.631	3.75
189.851	42.67
190.07	159.4
190.29	-88.4
190.509	-20.82
190.729	87.72
190.948	149.16
191.168	229.03
191.387	110.25
191.607	3.75
191.826	11.95
192.045	-31.06
192.265	18.09
192.484	40.62
192.704	110.25
192.923	-33.11
193.142	192.17
193.362	110.25
193.581	177.83
193.8	75.43
194.02	93.87
194.239	-8.53
194.458	67.24
194.678	59.05
194.897	-12.63
195.116	87.72
195.335	120.49
195.555	32.43
195.774	9.9
195.993	89.77
196.212	-12.63
196.432	-65.88
196.651	28.33
196.87	-53.59
197.089	245.41
197.308	54.95
197.528	48.81
197.747	-127.32
197.966	-18.77
198.185	112.3
198.404	-45.4
198.623	120.49
198.842	153.26
199.062	126.63
199.281	73.39
199.5	24.23
199.719	28.33
199.938	104.11
200.157	46.76
200.376	149.16
200.595	34.47
200.814	97.96
201.033	-43.35
201.252	183.98
201.471	44.71
201.69	9.9
201.909	42.67
202.128	28.33
202.347	73.39
202.566	-0.34
202.785	-86.36
203.004	3.75
203.223	175.78
203.442	-12.63
203.661	-117.08
203.879	44.71
204.098	130.73
204.317	-14.68
204.536	116.39
204.755	97.96
204.974	81.58
205.193	11.95
205.411	112.3
205.63	-24.92
205.849	32.43
206.068	57
206.287	-33.11
206.505	106.15
206.724	32.43
206.943	48.81
207.162	-53.59
207.381	13.99
207.599	-10.58
207.818	87.72
208.037	28.33
208.255	3.75
208.474	73.39
208.693	44.71
208.911	-51.54
209.13	93.87
209.349	57
209.567	87.72
209.786	85.67
210.005	102.06
210.223	32.43
210.442	-170.32
210.661	77.48
210.879	77.48
211.098	1.71
211.316	30.38
211.535	61.1
211.753	93.87
211.972	153.26
212.191	22.19
212.409	44.71
212.628	116.39
212.846	-41.3
213.065	57
213.283	38.57
213.502	26.28
213.72	34.47
213.938	13.99
214.157	-31.06
214.375	83.63
214.594	32.43
214.812	61.1
215.031	-80.21
215.249	40.62
215.467	87.72
215.686	-2.39
215.904	89.77
216.122	36.52
216.341	147.11
216.559	61.1
216.778	65.19
216.996	83.63
217.214	-18.77
217.432	22.19
217.651	-63.83
217.869	-49.49
218.087	24.23
218.306	28.33
218.524	-12.63
218.742	48.81
218.96	69.29
219.179	26.28
219.397	97.96
219.615	214.7
219.833	95.91
220.051	-78.16
220.27	73.39
220.488	122.54
220.706	112.3
220.924	-37.2
221.142	11.95
221.36	32.43
221.578	108.2
221.796	22.19
222.015	73.39
222.233	65.19
222.451	140.97
222.669	-29.01
222.887	112.3
223.105	-72.02
223.323	28.33
223.541	-86.36
223.759	73.39
223.977	7.85
224.195	91.82
224.413	85.67
224.631	40.62
224.849	38.57
225.067	188.07
225.285	-29.01
225.503	-47.44
225.721	-69.97
225.939	124.58
226.157	95.91
226.375	165.54
226.592	32.43
226.81	-6.49
227.028	89.77
227.246	138.92
227.464	-8.53
227.682	65.19
227.9	28.33
228.117	71.34
228.335	91.82
228.553	5.8
228.771	3.75
228.989	48.81
229.206	32.43
229.424	28.33
229.642	-18.77
229.86	-74.07
230.077	50.86
230.295	9.9
230.513	57
230.731	77.48
230.948	120.49
231.166	200.36
231.384	-78.16
231.601	-8.53
231.819	175.78
232.037	-14.68
232.254	-24.92
232.472	24.23
232.689	-14.68
232.907	102.06
233.125	73.39
233.342	-53.59
233.56	-29.01
233.777	30.38
233.995	54.95
234.213	104.11
234.43	114.34
234.648	61.1
234.865	-39.25
235.083	24.23
235.3	20.14
235.518	85.67
235.735	116.39
235.953	61.1
236.17	-26.96
236.388	-22.87
236.605	30.38
236.822	108.2
237.04	145.06
237.257	77.48
237.475	22.19
237.692	-12.63
237.909	77.48
238.127	71.34
238.344	30.38
238.562	3.75
238.779	-80.21
238.996	-20.82
239.214	40.62
239.431	26.28
239.648	-18.77
239.865	40.62
240.083	61.1
240.3	-57.68
240.517	24.23
240.735	79.53
240.952	42.67
241.169	143.02
241.386	61.1
241.603	69.29
241.821	13.99
242.038	85.67
242.255	126.63
242.472	-59.73
242.689	52.91
242.907	106.15
243.124	22.19
243.341	44.71
243.558	-80.21
243.775	-57.68
243.992	-20.82
244.209	75.43
244.426	118.44
244.643	38.57
244.86	-31.06
245.078	97.96
245.295	16.04
245.512	50.86
245.729	-51.54
245.946	50.86
246.163	81.58
246.38	-53.59
246.597	95.91
246.814	57
247.031	-45.4
247.248	-59.73
247.464	48.81
247.681	5.8
247.898	89.77
248.115	1.71
248.332	-20.82
248.549	138.92
248.766	175.78
248.983	85.67
249.2	79.53
249.417	149.16
249.633	7.85
249.85	71.34
250.067	9.9
250.284	-8.53
250.501	89.77
250.717	89.77
250.934	-74.07
251.151	-20.82
251.368	1.71
251.585	28.33
251.801	18.09
252.018	50.86
252.235	192.17
252.451	-69.97
252.668	38.57
252.885	116.39
253.102	7.85
253.318	52.91
253.535	30.38
253.752	-39.25
253.968	61.1
254.185	-121.17
254.401	61.1
254.618	24.23
254.835	9.9
255.051	59.05
255.268	57
255.484	34.47
255.701	52.91
255.917	52.91
256.134	-84.31
256.351	34.47
256.567	-20.82
256.784	-31.06
257	-133.46
257.217	169.64
257.433	20.14
257.65	36.52
257.866	153.26
258.082	-2.39
258.299	-6.49
258.515	34.47
258.732	16.04
258.948	-6.49
259.165	40.62
259.381	-53.59
259.597	50.86
259.814	11.95
260.03	22.19
260.246	-37.2
260.463	120.49
260.679	104.11
260.895	26.28
261.112	30.38
261.328	-45.4
261.544	-8.53
261.761	159.4
261.977	-31.06
262.193	-110.93
262.409	69.29
262.626	44.71
262.842	28.33
263.058	-55.64
263.274	126.63
263.49	59.05
263.707	-24.92
263.923	75.43
264.139	-26.96
264.355	22.19
264.571	122.54
264.787	3.75
265.004	93.87
265.22	13.99
265.436	-86.36
265.652	-0.34
265.868	24.23
266.084	-45.4
266.3	30.38
266.516	-92.5
266.732	24.23
266.948	28.33
267.164	-8.53
267.38	108.2
267.596	24.23
267.812	153.26
268.028	91.82
268.244	-16.73
268.46	57
268.676	24.23
268.892	147.11
269.108	-65.88
269.324	-51.54
269.54	-74.07
269.756	67.24
269.972	69.29
270.188	30.38
270.403	-51.54
270.619	-37.2
270.835	54.95
271.051	59.05
271.267	38.57
271.483	-4.44
271.698	106.15
271.914	89.77
272.13	24.23
272.346	-94.55
272.562	28.33
272.777	147.11
272.993	48.81
273.209	-14.68
273.425	132.78
273.64	-59.73
273.856	75.43
274.072	48.81
274.287	-49.49
274.503	93.87
274.719	54.95
274.934	-2.39
275.15	-119.12
275.366	93.87
275.581	-16.73
275.797	28.33
276.012	-12.63
276.228	-26.96
276.444	18.09
276.659	65.19
276.875	18.09
277.09	-0.34
277.306	-26.96
277.521	130.73
277.737	48.81
277.952	132.78
278.168	11.95
278.383	1.71
278.599	106.15
278.814	151.21
279.03	40.62
279.245	200.36
279.461	-37.2
279.676	71.34
279.892	-22.87
280.107	28.33
280.322	16.04
280.538	42.67
280.753	-69.97
280.969	30.38
281.184	52.91
281.399	169.64
281.615	-16.73
281.83	87.72
282.045	-43.35
282.26	-22.87
282.476	-24.92
282.691	112.3
282.906	130.73
283.122	28.33
283.337	-18.77
283.552	106.15
283.767	32.43
283.983	81.58
284.198	-8.53
284.413	26.28
284.628	18.09
284.843	63.15
285.058	134.82
285.274	24.23
285.489	-127.32
285.704	145.06
285.919	16.04
286.134	-55.64
286.349	44.71
286.564	1.71
286.779	112.3
286.995	18.09
287.21	38.57
287.425	95.91
287.64	-4.44
287.855	67.24
288.07	-92.5
288.285	97.96
288.5	57
288.715	85.67
288.93	28.33
289.145	1.71
289.36	97.96
289.575	-0.34
289.79	157.35
290.004	-8.53
290.219	3.75
290.434	30.38
290.649	-106.84
290.864	-14.68
291.079	20.14
291.294	-8.53
291.509	57
291.724	-18.77
291.938	52.91
292.153	87.72
292.368	-0.34
292.583	-29.01
292.798	91.82
293.012	32.43
293.227	57
293.442	13.99
293.657	124.58
293.871	112.3
294.086	7.85
294.301	128.68
294.516	132.78
294.73	-43.35
294.945	-12.63
295.16	44.71
295.374	77.48
295.589	83.63
295.804	-69.97
296.018	1.71
296.233	93.87
296.447	44.71
296.662	16.04
296.877	61.1
297.091	120.49
297.306	13.99
297.52	18.09
297.735	-10.58
297.949	48.81
298.164	28.33
298.378	13.99
298.593	-74.07
298.807	-127.32
299.022	38.57
299.236	143.02
299.451	20.14
299.665	61.1
299.88	3.75
300.094	97.96
300.309	89.77
300.523	97.96
300.737	16.04
300.952	73.39
301.166	77.48
301.381	-61.78
301.595	26.28
301.809	97.96
302.024	34.47
302.238	-8.53
302.452	81.58
302.667	63.15
302.881	149.16
303.095	118.44
303.309	93.87
303.524	-10.58
303.738	28.33
303.952	-18.77
304.166	102.06
304.381	-59.73
304.595	147.11
304.809	-33.11
305.023	-10.58
305.237	-20.82
305.452	52.91
305.666	149.16
305.88	46.76
306.094	112.3
306.308	-4.44
306.522	32.43
306.736	87.72
306.95	83.63
307.164	16.04
307.379	77.48
307.593	132.78
307.807	138.92
308.021	110.25
308.235	104.11
308.449	-20.82
308.663	20.14
308.877	249.51
309.091	26.28
309.305	50.86
309.519	-112.98
309.733	138.92
309.947	-88.4
310.161	38.57
310.374	75.43
310.588	75.43
310.802	-96.6
311.016	-18.77
311.23	63.15
311.444	-41.3
311.658	46.76
311.872	59.05
312.085	151.21
312.299	100.01
312.513	132.78
312.727	114.34
312.941	-76.12
313.154	97.96
313.368	-0.34
313.582	75.43
313.796	110.25
314.009	13.99
314.223	57
314.437	40.62
314.651	63.15
314.864	30.38
315.078	-6.49
315.292	-100.69
315.505	-4.44
315.719	159.4
315.933	95.91
316.146	-10.58
316.36	-14.68
316.573	112.3
316.787	40.62
317.001	130.73
317.214	-29.01
317.428	34.47
317.641	-49.49
317.855	26.28
318.068	93.87
318.282	87.72
318.495	157.35
318.709	3.75
318.922	11.95
319.136	52.91
319.349	106.15
319.563	-78.16
319.776	110.25
319.99	-43.35
320.203	75.43
320.417	30.38
320.63	104.11
320.843	124.58
321.057	71.34
321.27	-63.83
321.483	128.68
321.697	104.11
321.91	57
322.124	42.67
322.337	50.86
322.55	-2.39
322.763	54.95
322.977	57
323.19	-8.53
323.403	61.1
323.617	63.15
323.83	163.5
324.043	-57.68
324.256	71.34
324.469	1.71
324.683	140.97
324.896	5.8
325.109	-39.25
325.322	-51.54
325.535	181.93
325.748	81.58
325.962	-37.2
326.175	61.1
326.388	40.62
326.601	81.58
326.814	-41.3
327.027	26.28
327.24	134.82
327.453	16.04
327.666	24.23
327.879	130.73
328.092	67.24
328.305	-8.53
328.518	59.05
328.731	-8.53
328.944	18.09
329.157	26.28
329.37	-69.97
329.583	136.87
329.796	171.69
330.009	-106.84
330.222	26.28
330.435	102.06
330.648	40.62
330.861	46.76
331.073	87.72
331.286	9.9
331.499	42.67
331.712	-61.78
331.925	34.47
332.138	-0.34
332.35	136.87
332.563	5.8
332.776	87.72
332.989	-0.34
333.202	38.57
333.414	75.43
333.627	-20.82
333.84	-26.96
334.053	61.1
334.265	69.29
334.478	-0.34
334.691	38.57
334.903	110.25
335.116	-78.16
335.329	-20.82
335.541	-4.44
335.754	177.83
335.966	24.23
336.179	91.82
336.392	-53.59
336.604	-43.35
336.817	57
337.029	110.25
337.242	-6.49
337.454	11.95
337.667	5.8
337.88	130.73
338.092	-12.63
338.305	132.78
338.517	-90.45
338.729	57
338.942	100.01
339.154	-43.35
339.367	59.05
339.579	50.86
339.792	-2.39
340.004	97.96
340.217	-33.11
340.429	11.95
340.641	18.09
340.854	5.8
341.066	3.75
341.278	83.63
341.491	186.02
341.703	13.99
341.915	22.19
342.128	28.33
342.34	36.52
342.552	-12.63
342.764	97.96
342.977	-14.68
343.189	44.71
343.401	38.57
343.613	-92.5
343.826	-4.44
344.038	-61.78
344.25	69.29
344.462	-18.77
344.674	57
344.886	38.57
345.099	11.95
345.311	11.95
345.523	-90.45
345.735	-100.69
345.947	48.81
346.159	32.43
346.371	-4.44
346.583	57
346.795	132.78
347.007	16.04
347.219	63.15
347.431	-43.35
347.643	104.11
347.855	-12.63
348.067	108.2
348.279	-24.92
348.491	13.99
348.703	32.43
348.915	13.99
349.127	-57.68
349.339	61.1
349.551	-16.73
349.763	57
349.975	32.43
350.187	44.71
350.399	122.54
350.61	67.24
350.822	-18.77
351.034	114.34
351.246	122.54
351.458	-35.16
351.669	-10.58
351.881	40.62
352.093	38.57
352.305	79.53
352.517	18.09
352.728	77.48
352.94	44.71
353.152	11.95
353.363	-22.87
353.575	38.57
353.787	124.58
353.999	48.81
354.21	157.35
354.422	-31.06
354.633	-4.44
354.845	57
355.057	54.95
355.268	40.62
355.48	85.67
355.692	16.04
355.903	81.58
356.115	-26.96
356.326	-94.55
356.538	77.48
356.749	44.71
356.961	147.11
357.172	34.47
357.384	-39.25
357.595	196.26
357.807	-47.44
358.018	-41.3
358.23	44.71
358.441	118.44
358.653	120.49
358.864	130.73
359.075	-43.35
359.287	11.95
359.498	75.43
359.709	73.39
359.921	26.28
360.132	-2.39
360.344	59.05
360.555	20.14
360.766	20.14
360.977	-76.12
361.189	71.34
361.4	34.47
361.611	112.3
361.823	69.29
362.034	48.81
362.245	-106.84
362.456	20.14
362.667	22.19
362.879	-78.16
363.09	-8.53
363.301	118.44
363.512	50.86
363.723	16.04
363.935	-31.06
364.146	40.62
364.357	63.15
364.568	124.58
364.779	-53.59
364.99	114.34
365.201	-29.01
365.412	106.15
365.623	-53.59
365.834	65.19
366.045	65.19
366.256	95.91
366.467	157.35
366.678	18.09
366.889	79.53
367.1	50.86
367.311	130.73
367.522	-43.35
367.733	69.29
367.944	52.91
368.155	26.28
368.366	124.58
368.577	134.82
368.788	108.2
368.999	-8.53
369.209	73.39
369.42	224.94
369.631	151.21
369.842	71.34
370.053	52.91
370.264	106.15
370.474	-43.35
370.685	42.67
370.896	-65.88
371.107	126.63
371.317	89.77
371.528	-14.68
371.739	159.4
371.95	16.04
372.16	61.1
372.371	16.04
372.582	-31.06
372.792	63.15
373.003	89.77
373.214	73.39
373.424	75.43
373.635	-43.35
373.846	63.15
374.056	22.19
374.267	9.9
374.477	54.95
374.688	-33.11
374.898	44.71
375.109	40.62
375.319	63.15
375.53	54.95
375.74	224.94
375.951	-22.87
376.161	108.2
376.372	118.44
376.582	61.1
376.793	46.76
377.003	48.81
377.214	13.99
377.424	46.76
377.635	57
377.845	57
378.055	196.26
378.266	-78.16
378.476	26.28
378.686	100.01
378.897	65.19
379.107	50.86
379.317	3.75
379.528	-53.59
379.738	67.24
379.948	-22.87
380.158	97.96
380.369	11.95
380.579	30.38
380.789	-12.63
380.999	71.34
381.21	-2.39
381.42	143.02
381.63	13.99
381.84	79.53
382.05	-43.35
382.261	175.78
382.471	91.82
382.681	-76.12
382.891	186.02
383.101	95.91
383.311	61.1
383.521	32.43
383.731	75.43
383.941	110.25
384.151	28.33
384.361	-33.11
384.571	18.09
384.781	46.76
384.991	149.16
385.201	222.89
385.411	89.77
385.621	20.14
385.831	69.29
386.041	63.15
386.251	16.04
386.461	190.12
386.671	26.28
386.881	57
387.091	26.28
387.301	104.11
387.511	44.71
387.72	52.91
387.93	20.14
388.14	-41.3
388.35	52.91
388.56	83.63
388.769	40.62
388.979	59.05
389.189	-24.92
389.399	63.15
389.609	54.95
389.818	165.54
390.028	48.81
390.238	95.91
390.447	-29.01
390.657	151.21
390.867	9.9
391.076	-78.16
391.286	138.92
391.496	102.06
391.705	13.99
391.915	147.11
392.125	75.43
392.334	13.99
392.544	138.92
392.753	61.1
392.963	-59.73
393.172	63.15
393.382	7.85
393.591	159.4
393.801	50.86
394.01	89.77
394.22	40.62
394.429	54.95
394.639	-4.44
394.848	128.68
395.058	20.14
395.267	5.8
395.477	52.91
395.686	48.81
395.895	204.46
396.105	186.02
396.314	87.72
396.524	32.43
396.733	-4.44
396.942	18.09
397.152	75.43
397.361	63.15
397.57	63.15
397.78	57
397.989	73.39
398.198	229.03
398.407	91.82
398.617	36.52
398.826	5.8
399.035	85.67
399.244	67.24
399.453	67.24
399.663	54.95
399.872	50.86
400.081	-6.49
400.29	104.11
400.499	5.8
400.708	204.46
400.917	-24.92
401.127	-24.92
401.336	81.58
401.545	126.63
401.754	143.02
401.963	143.02
402.172	36.52
402.381	-67.92
402.59	73.39
402.799	1.71
403.008	122.54
403.217	48.81
403.426	24.23
403.635	-90.45
403.844	-31.06
404.053	-22.87
404.262	46.76
404.471	208.55
404.68	52.91
404.888	-33.11
405.097	20.14
405.306	36.52
405.515	83.63
405.724	-84.31
405.933	110.25
406.142	-37.2
406.35	44.71
406.559	3.75
406.768	97.96
406.977	124.58
407.185	120.49
407.394	42.67
407.603	-2.39
407.812	18.09
408.02	171.69
408.229	-29.01
408.438	-20.82
408.646	-10.58
408.855	11.95
409.064	83.63
409.272	-53.59
409.481	116.39
409.69	85.67
409.898	-80.21
410.107	114.34
410.315	114.34
410.524	67.24
410.733	54.95
410.941	16.04
411.15	16.04
411.358	102.06
411.567	91.82
411.775	13.99
411.984	38.57
412.192	97.96
412.401	11.95
412.609	190.12
412.818	97.96
413.026	67.24
413.234	69.29
413.443	28.33
413.651	44.71
413.86	30.38
414.068	48.81
414.276	194.22
414.485	-0.34
414.693	159.4
414.901	190.12
415.11	71.34
415.318	75.43
415.526	59.05
415.734	118.44
415.943	61.1
416.151	106.15
416.359	30.38
416.567	145.06
416.776	116.39
416.984	159.4
417.192	159.4
417.4	-12.63
417.608	7.85
417.817	-86.36
418.025	79.53
418.233	138.92
418.441	-53.59
418.649	-45.4
418.857	104.11
419.065	85.67
419.273	-8.53
419.481	79.53
419.689	54.95
419.897	50.86
420.105	-96.6
420.313	224.94
420.521	104.11
420.729	206.5
420.937	-41.3
421.145	-33.11
421.353	122.54
421.561	145.06
421.769	112.3
421.977	3.75
422.185	65.19
422.393	28.33
422.601	38.57
422.809	3.75
423.017	52.91
423.224	73.39
423.432	89.77
423.64	32.43
423.848	175.78
424.056	-12.63
424.263	186.02
424.471	-18.77
424.679	110.25
424.887	-78.16
425.094	79.53
425.302	87.72
425.51	97.96
425.718	143.02
425.925	26.28
426.133	-24.92
426.341	204.46
426.548	65.19
426.756	38.57
426.964	106.15
427.171	-0.34
427.379	97.96
427.586	87.72
427.794	138.92
428.001	157.35
428.209	120.49
428.417	183.98
428.624	97.96
428.832	155.3
429.039	7.85
429.247	52.91
429.454	50.86
429.662	241.32
429.869	153.26
430.076	75.43
430.284	181.93
430.491	186.02
430.699	173.74
430.906	196.26
431.114	95.91
431.321	134.82
431.528	108.2
431.736	165.54
431.943	169.64
432.15	204.46
432.358	120.49
432.565	175.78
432.772	9.9
432.979	274.09
433.187	48.81
433.394	196.26
433.601	97.96
433.808	202.41
434.016	272.04
434.223	143.02
434.43	126.63
434.637	237.22
434.844	239.27
435.052	173.74
435.259	239.27
435.466	237.22
435.673	259.75
435.88	245.41
436.087	315.05
436.294	306.85
436.501	282.28
436.708	265.89
436.915	261.8
437.122	333.48
437.329	200.36
437.537	347.81
437.743	323.24
437.95	497.32
438.157	313
438.364	403.11
438.571	417.44
438.778	407.2
438.985	480.93
439.192	528.03
439.399	460.45
439.606	448.16
439.813	566.95
440.02	448.16
440.227	665.25
440.433	517.79
440.64	614.05
440.847	523.94
441.054	630.43
441.261	687.78
441.467	640.67
441.674	591.52
441.881	757.41
442.088	636.58
442.294	704.16
442.501	681.63
442.708	779.93
442.914	716.45
443.121	865.95
443.328	941.72
443.534	931.48
443.741	894.62
443.948	736.93
444.154	1091.23
444.361	1169.05
444.568	1066.65
444.774	988.83
444.981	933.53
445.187	1179.29
445.394	1171.1
445.6	1158.81
445.807	1463.96
446.013	1357.46
446.22	1226.39
446.426	1461.91
446.633	1521.3
446.839	1724.05
447.046	1396.37
447.252	1752.72
447.459	1603.22
447.665	1535.64
447.871	1851.02
448.078	2027.15
448.284	1937.04
448.491	2074.25
448.697	2197.13
448.903	2121.35
449.11	2266.76
449.316	2211.46
449.522	2559.62
449.728	2535.04
449.935	2651.78
450.141	2600.58
450.347	2856.58
450.553	2696.83
450.76	2875.01
450.966	2997.88
451.172	3188.35
451.378	3296.89
451.584	3399.29
451.791	3718.77
451.997	3573.36
452.203	3821.17
452.409	3858.03
452.615	4173.42
452.821	3901.04
453.027	4075.12
453.233	4630.12
453.44	4370.02
453.646	4554.34
453.852	4822.63
454.058	5004.89
454.264	5129.82
454.47	5592.66
454.676	5475.93
454.882	5985.87
455.088	5744.21
455.294	5977.68
455.5	6293.07
455.705	6762.05
455.911	6929.98
456.117	7061.05
456.323	7415.35
456.529	7171.65
456.735	8130.09
456.941	8111.66
457.147	8472.11
457.352	8744.49
457.558	8814.12
457.764	9539.1
457.97	9760.28
458.176	10198.54
458.381	10524.17
458.587	10718.73
458.793	11165.18
458.999	11163.14
459.204	12668.39
459.41	13376.99
459.616	12881.38
459.821	13759.96
460.027	14513.61
460.233	14757.32
460.438	14980.55
460.644	15828.41
460.85	16031.16
461.055	16577.97
461.261	17362.34
461.466	17198.5
461.672	17395.11
461.878	19531.14
462.083	19221.89
462.289	19639.68
462.494	20598.13
462.7	20544.88
462.905	21054.83
463.111	22576.47
463.316	23768.38
463.522	24259.9
463.727	25001.26
463.932	26015.01
464.138	26549.53
464.343	27927.81
464.549	28114.17
464.754	29916.39
464.959	30674.13
465.165	31509.71
465.37	31061.2
465.575	30989.52
465.781	33074.35
465.986	34276.51
466.191	33486
466.397	33727.66
466.602	32988.34
466.807	35073.17
467.012	35650.7
467.218	36451.45
467.423	36299.9
467.628	37213.3
467.833	39486.54
468.038	38567.01
468.244	37868.65
468.449	39715.92
468.654	38818.91
468.859	38976.6
469.064	39001.18
