Data from USB4F104151__279__11-20-53-031.txt Node

Date: Wed Feb 26 11:20:53 EST 2025
User: louis
Spectrometer: USB4F10415
Trigger mode: 4
Integration Time (sec): 1.000000E-1
Scans to average: 1
Electric dark correction enabled: true
Nonlinearity correction enabled: false
Boxcar width: 0
XAxis mode: Wavelengths
Number of Pixels in Spectrum: 3648
>>>>>Begin Spectral Data<<<<<
178.204	-382.63
178.424	-382.63
178.644	-382.63
178.864	-401.06
179.084	-376.48
179.304	2.39
179.524	-9.9
179.744	-22.19
179.964	0.34
180.184	88.4
180.404	88.4
180.624	24.92
180.844	12.63
181.064	-132.78
181.283	-42.67
181.503	10.58
181.723	-20.14
181.943	-7.85
182.163	131.41
182.383	45.4
182.602	94.55
182.822	133.46
183.042	149.84
183.262	-38.57
183.482	-5.8
183.701	20.82
183.921	20.82
184.141	-73.39
184.361	98.64
184.58	69.97
184.8	102.74
185.02	-24.23
185.239	39.25
185.459	29.01
185.679	65.88
185.898	-36.52
186.118	55.64
186.338	57.68
186.557	106.84
186.777	4.44
186.997	78.16
187.216	29.01
187.436	137.56
187.655	88.4
187.875	29.01
188.095	22.87
188.314	190.8
188.534	115.03
188.753	-20.14
188.973	170.32
189.192	192.85
189.412	29.01
189.631	33.11
189.851	18.77
190.07	182.61
190.29	-46.76
190.509	-54.95
190.729	61.78
190.948	106.84
191.168	174.42
191.387	74.07
191.607	6.49
191.826	86.36
192.045	12.63
192.265	49.49
192.484	41.3
192.704	-5.8
192.923	-28.33
193.142	115.03
193.362	119.12
193.581	229.71
193.8	61.78
194.02	94.55
194.239	65.88
194.458	115.03
194.678	-54.95
194.897	-54.95
195.116	41.3
195.335	82.26
195.555	29.01
195.774	41.3
195.993	102.74
196.212	-9.9
196.432	55.64
196.651	26.96
196.87	59.73
197.089	305.49
197.308	61.78
197.528	53.59
197.747	-36.52
197.966	29.01
198.185	151.89
198.404	-7.85
198.623	90.45
198.842	127.32
199.062	63.83
199.281	125.27
199.5	117.08
199.719	72.02
199.938	115.03
200.157	53.59
200.376	112.98
200.595	108.88
200.814	112.98
201.033	65.88
201.252	153.94
201.471	-1.71
201.69	92.5
201.909	35.16
202.128	125.27
202.347	55.64
202.566	57.68
202.785	-36.52
203.004	94.55
203.223	252.24
203.442	41.3
203.661	-54.95
203.879	112.98
204.098	74.07
204.317	4.44
204.536	110.93
204.755	108.88
204.974	133.46
205.193	92.5
205.411	131.41
205.63	119.12
205.849	20.82
206.068	57.68
206.287	-69.29
206.505	115.03
206.724	-1.71
206.943	0.34
207.162	-1.71
207.381	92.5
207.599	47.44
207.818	16.73
208.037	-3.75
208.255	31.06
208.474	129.36
208.693	82.26
208.911	-16.04
209.13	100.69
209.349	88.4
209.567	18.77
209.786	115.03
210.005	76.12
210.223	10.58
210.442	-102.06
210.661	-3.75
210.879	2.39
211.098	41.3
211.316	47.44
211.535	67.92
211.753	84.31
211.972	74.07
212.191	49.49
212.409	33.11
212.628	141.65
212.846	0.34
213.065	41.3
213.283	147.8
213.502	92.5
213.72	80.21
213.938	65.88
214.157	67.92
214.375	96.6
214.594	-38.57
214.812	108.88
215.031	8.53
215.249	39.25
215.467	131.41
215.686	41.3
215.904	139.6
216.122	72.02
216.341	153.94
216.559	92.5
216.778	153.94
216.996	84.31
217.214	88.4
217.432	12.63
217.651	-85.67
217.869	-1.71
218.087	35.16
218.306	-44.71
218.524	39.25
218.742	12.63
218.96	94.55
219.179	-9.9
219.397	45.4
219.615	270.67
219.833	80.21
220.051	26.96
220.27	51.54
220.488	194.9
220.706	92.5
220.924	-20.14
221.142	31.06
221.36	82.26
221.578	100.69
221.796	4.44
222.015	51.54
222.233	98.64
222.451	137.56
222.669	-28.33
222.887	41.3
223.105	-18.09
223.323	47.44
223.541	-30.38
223.759	59.73
223.977	74.07
224.195	155.99
224.413	16.73
224.631	59.73
224.849	61.78
225.067	168.27
225.285	-85.67
225.503	26.96
225.721	-100.01
225.939	24.92
226.157	14.68
226.375	168.27
226.592	-85.67
226.81	33.11
227.028	168.27
227.246	166.23
227.464	49.49
227.682	82.26
227.9	139.6
228.117	33.11
228.335	37.2
228.553	65.88
228.771	121.17
228.989	80.21
229.206	59.73
229.424	45.4
229.642	-20.14
229.86	-3.75
230.077	94.55
230.295	74.07
230.513	125.27
230.731	26.96
230.948	162.13
231.166	127.32
231.384	-7.85
231.601	29.01
231.819	170.32
232.037	4.44
232.254	-3.75
232.472	24.92
232.689	-34.47
232.907	121.17
233.125	-52.91
233.342	-85.67
233.56	57.68
233.777	51.54
233.995	37.2
234.213	145.75
234.43	149.84
234.648	-50.86
234.865	55.64
235.083	31.06
235.3	35.16
235.518	108.88
235.735	145.75
235.953	59.73
236.17	88.4
236.388	-48.81
236.605	47.44
236.822	119.12
237.04	84.31
237.257	31.06
237.475	-38.57
237.692	45.4
237.909	135.51
238.127	10.58
238.344	33.11
238.562	26.96
238.779	6.49
238.996	-87.72
239.214	33.11
239.431	121.17
239.648	31.06
239.865	102.74
240.083	49.49
240.3	-3.75
240.517	-42.67
240.735	51.54
240.952	155.99
241.169	121.17
241.386	139.6
241.603	4.44
241.821	-42.67
242.038	110.93
242.255	78.16
242.472	-65.19
242.689	74.07
242.907	31.06
243.124	67.92
243.341	43.35
243.558	-3.75
243.775	-36.52
243.992	-36.52
244.209	98.64
244.426	190.8
244.643	119.12
244.86	-28.33
245.078	104.79
245.295	26.96
245.512	12.63
245.729	-26.28
245.946	110.93
246.163	-9.9
246.38	-18.09
246.597	98.64
246.814	-11.95
247.031	24.92
247.248	57.68
247.464	55.64
247.681	47.44
247.898	84.31
248.115	88.4
248.332	-16.04
248.549	180.56
248.766	155.99
248.983	137.56
249.2	80.21
249.417	141.65
249.633	14.68
249.85	135.51
250.067	-1.71
250.284	-13.99
250.501	82.26
250.717	141.65
250.934	-24.23
251.151	-34.47
251.368	4.44
251.585	125.27
251.801	57.68
252.018	10.58
252.235	158.03
252.451	-20.14
252.668	33.11
252.885	82.26
253.102	8.53
253.318	-38.57
253.535	-22.19
253.752	12.63
253.968	-59.05
254.185	-108.2
254.401	12.63
254.618	12.63
254.835	-7.85
255.051	78.16
255.268	49.49
255.484	39.25
255.701	-9.9
255.917	88.4
256.134	-26.28
256.351	61.78
256.567	-26.28
256.784	112.98
257	-24.23
257.217	94.55
257.433	41.3
257.65	29.01
257.866	151.89
258.082	-114.34
258.299	22.87
258.515	76.12
258.732	8.53
258.948	-46.76
259.165	78.16
259.381	-26.28
259.597	94.55
259.814	37.2
260.03	8.53
260.246	-54.95
260.463	125.27
260.679	45.4
260.895	57.68
261.112	117.08
261.328	20.82
261.544	18.77
261.761	168.27
261.977	-57
262.193	-69.29
262.409	112.98
262.626	112.98
262.842	55.64
263.058	-63.15
263.274	92.5
263.49	63.83
263.707	69.97
263.923	158.03
264.139	-3.75
264.355	-52.91
264.571	127.32
264.787	29.01
265.004	172.37
265.22	57.68
265.436	-57
265.652	20.82
265.868	41.3
266.084	-5.8
266.3	20.82
266.516	-108.2
266.732	47.44
266.948	53.59
267.164	10.58
267.38	22.87
267.596	67.92
267.812	219.47
268.028	-9.9
268.244	-20.14
268.46	72.02
268.676	-20.14
268.892	104.79
269.108	-61.1
269.324	-5.8
269.54	-63.15
269.756	98.64
269.972	10.58
270.188	-61.1
270.403	-9.9
270.619	26.96
270.835	121.17
271.051	45.4
271.267	14.68
271.483	-7.85
271.698	76.12
271.914	98.64
272.13	76.12
272.346	-20.14
272.562	84.31
272.777	82.26
272.993	-7.85
273.209	-32.43
273.425	149.84
273.64	14.68
273.856	55.64
274.072	-5.8
274.287	35.16
274.503	47.44
274.719	24.92
274.934	-16.04
275.15	29.01
275.366	6.49
275.581	-59.05
275.797	0.34
276.012	18.77
276.228	-16.04
276.444	78.16
276.659	139.6
276.875	-44.71
277.09	72.02
277.306	-11.95
277.521	90.45
277.737	43.35
277.952	8.53
278.168	26.96
278.383	12.63
278.599	100.69
278.814	166.23
279.03	90.45
279.245	145.75
279.461	63.83
279.676	86.36
279.892	-38.57
280.107	-28.33
280.322	-46.76
280.538	86.36
280.753	-24.23
280.969	92.5
281.184	55.64
281.399	190.8
281.615	29.01
281.83	49.49
282.045	26.96
282.26	49.49
282.476	67.92
282.691	86.36
282.906	35.16
283.122	53.59
283.337	55.64
283.552	131.41
283.767	112.98
283.983	135.51
284.198	63.83
284.413	80.21
284.628	-93.87
284.843	39.25
285.058	106.84
285.274	51.54
285.489	33.11
285.704	164.18
285.919	18.77
286.134	-67.24
286.349	86.36
286.564	-9.9
286.779	129.36
286.995	10.58
287.21	-54.95
287.425	98.64
287.64	8.53
287.855	84.31
288.07	-67.24
288.285	131.41
288.5	149.84
288.715	43.35
288.93	10.58
289.145	-22.19
289.36	94.55
289.575	-18.09
289.79	151.89
290.004	24.92
290.219	96.6
290.434	0.34
290.649	-108.2
290.864	0.34
291.079	33.11
291.294	33.11
291.509	67.92
291.724	-16.04
291.938	12.63
292.153	123.22
292.368	-9.9
292.583	35.16
292.798	69.97
293.012	65.88
293.227	47.44
293.442	-1.71
293.657	135.51
293.871	131.41
294.086	33.11
294.301	203.09
294.516	110.93
294.73	6.49
294.945	-38.57
295.16	29.01
295.374	141.65
295.589	100.69
295.804	24.92
296.018	37.2
296.233	170.32
296.447	92.5
296.662	-57
296.877	43.35
297.091	106.84
297.306	29.01
297.52	45.4
297.735	86.36
297.949	69.97
298.164	49.49
298.378	53.59
298.593	-16.04
298.807	-11.95
299.022	26.96
299.236	155.99
299.451	10.58
299.665	18.77
299.88	24.92
300.094	92.5
300.309	37.2
300.523	26.96
300.737	61.78
300.952	100.69
301.166	98.64
301.381	-26.28
301.595	39.25
301.809	12.63
302.024	57.68
302.238	-34.47
302.452	129.36
302.667	-1.71
302.881	59.73
303.095	170.32
303.309	26.96
303.524	0.34
303.738	-24.23
303.952	-9.9
304.166	110.93
304.381	-40.62
304.595	153.94
304.809	-42.67
305.023	49.49
305.237	41.3
305.452	88.4
305.666	35.16
305.88	123.22
306.094	72.02
306.308	-7.85
306.522	72.02
306.736	82.26
306.95	86.36
307.164	86.36
307.379	22.87
307.593	188.75
307.807	125.27
308.021	74.07
308.235	61.78
308.449	-42.67
308.663	29.01
308.877	244.05
309.091	-5.8
309.305	108.88
309.519	-91.82
309.733	129.36
309.947	-18.09
310.161	45.4
310.374	33.11
310.588	135.51
310.802	4.44
311.016	2.39
311.23	110.93
311.444	20.82
311.658	-16.04
311.872	90.45
312.085	115.03
312.299	137.56
312.513	49.49
312.727	69.97
312.941	-40.62
313.154	22.87
313.368	69.97
313.582	-3.75
313.796	117.08
314.009	-50.86
314.223	153.94
314.437	45.4
314.651	59.73
314.864	-20.14
315.078	-30.38
315.292	-22.19
315.505	-20.14
315.719	115.03
315.933	55.64
316.146	-16.04
316.36	-16.04
316.573	131.41
316.787	96.6
317.001	35.16
317.214	-22.19
317.428	47.44
317.641	-44.71
317.855	47.44
318.068	49.49
318.282	74.07
318.495	151.89
318.709	72.02
318.922	67.92
319.136	92.5
319.349	151.89
319.563	24.92
319.776	121.17
319.99	-13.99
320.203	168.27
320.417	-3.75
320.63	141.65
320.843	119.12
321.057	117.08
321.27	4.44
321.483	98.64
321.697	143.7
321.91	10.58
322.124	110.93
322.337	121.17
322.55	-3.75
322.763	16.73
322.977	-40.62
323.19	-26.28
323.403	59.73
323.617	20.82
323.83	72.02
324.043	43.35
324.256	94.55
324.469	-73.39
324.683	78.16
324.896	-5.8
325.109	37.2
325.322	-108.2
325.535	145.75
325.748	18.77
325.962	24.92
326.175	74.07
326.388	166.23
326.601	59.73
326.814	26.96
327.027	24.92
327.24	188.75
327.453	-42.67
327.666	104.79
327.879	135.51
328.092	22.87
328.305	106.84
328.518	-57
328.731	-71.34
328.944	49.49
329.157	72.02
329.37	59.73
329.583	192.85
329.796	158.03
330.009	-65.19
330.222	102.74
330.435	151.89
330.648	69.97
330.861	112.98
331.073	12.63
331.286	59.73
331.499	22.87
331.712	-69.29
331.925	123.22
332.138	-40.62
332.35	88.4
332.563	-30.38
332.776	24.92
332.989	55.64
333.202	41.3
333.414	18.77
333.627	47.44
333.84	14.68
334.053	33.11
334.265	18.77
334.478	-42.67
334.691	65.88
334.903	94.55
335.116	-1.71
335.329	33.11
335.541	59.73
335.754	112.98
335.966	14.68
336.179	33.11
336.392	61.78
336.604	18.77
336.817	141.65
337.029	65.88
337.242	110.93
337.454	39.25
337.667	33.11
337.88	203.09
338.092	24.92
338.305	94.55
338.517	0.34
338.729	20.82
338.942	205.14
339.154	-106.15
339.367	-120.49
339.579	123.22
339.792	-13.99
340.004	63.83
340.217	-9.9
340.429	24.92
340.641	29.01
340.854	-40.62
341.066	45.4
341.278	90.45
341.491	123.22
341.703	104.79
341.915	-65.19
342.128	104.79
342.34	6.49
342.552	-5.8
342.764	-16.04
342.977	29.01
343.189	45.4
343.401	117.08
343.613	-93.87
343.826	106.84
344.038	-9.9
344.25	-38.57
344.462	-11.95
344.674	102.74
344.886	49.49
345.099	24.92
345.311	20.82
345.523	35.16
345.735	-79.53
345.947	72.02
346.159	37.2
346.371	12.63
346.583	61.78
346.795	176.47
347.007	57.68
347.219	6.49
347.431	57.68
347.643	104.79
347.855	-11.95
348.067	198.99
348.279	14.68
348.491	43.35
348.703	76.12
348.915	10.58
349.127	43.35
349.339	43.35
349.551	20.82
349.763	115.03
349.975	20.82
350.187	69.97
350.399	137.56
350.61	12.63
350.822	45.4
351.034	76.12
351.246	-16.04
351.458	55.64
351.669	110.93
351.881	112.98
352.093	63.83
352.305	135.51
352.517	139.6
352.728	121.17
352.94	57.68
353.152	22.87
353.363	41.3
353.575	137.56
353.787	174.42
353.999	29.01
354.21	102.74
354.422	-57
354.633	98.64
354.845	78.16
355.057	78.16
355.268	37.2
355.48	78.16
355.692	-24.23
355.903	153.94
356.115	-77.48
356.326	-104.11
356.538	164.18
356.749	80.21
356.961	174.42
357.172	-16.04
357.384	22.87
357.595	229.71
357.807	31.06
358.018	-7.85
358.23	-1.71
358.441	155.99
358.653	69.97
358.864	39.25
359.075	-34.47
359.287	-36.52
359.498	96.6
359.709	45.4
359.921	51.54
360.132	94.55
360.344	-30.38
360.555	2.39
360.766	49.49
360.977	31.06
361.189	53.59
361.4	43.35
361.611	80.21
361.823	84.31
362.034	53.59
362.245	-5.8
362.456	59.73
362.667	137.56
362.879	-32.43
363.09	51.54
363.301	43.35
363.512	53.59
363.723	-40.62
363.935	8.53
364.146	147.8
364.357	37.2
364.568	76.12
364.779	-69.29
364.99	119.12
365.201	49.49
365.412	45.4
365.623	-28.33
365.834	24.92
366.045	49.49
366.256	39.25
366.467	96.6
366.678	49.49
366.889	26.96
367.1	-16.04
367.311	67.92
367.522	33.11
367.733	80.21
367.944	78.16
368.155	45.4
368.366	6.49
368.577	145.75
368.788	94.55
368.999	59.73
369.209	-3.75
369.42	131.41
369.631	219.47
369.842	108.88
370.053	55.64
370.264	160.08
370.474	39.25
370.685	145.75
370.896	8.53
371.107	69.97
371.317	153.94
371.528	59.73
371.739	160.08
371.95	51.54
372.16	117.08
372.371	-30.38
372.582	12.63
372.792	123.22
373.003	63.83
373.214	24.92
373.424	123.22
373.635	-42.67
373.846	67.92
374.056	47.44
374.267	35.16
374.477	39.25
374.688	26.96
374.898	41.3
375.109	4.44
375.319	33.11
375.53	129.36
375.74	117.08
375.951	129.36
376.161	55.64
376.372	147.8
376.582	16.73
376.793	153.94
377.003	-22.19
377.214	-83.63
377.424	41.3
377.635	55.64
377.845	-24.23
378.055	137.56
378.266	-48.81
378.476	37.2
378.686	92.5
378.897	110.93
379.107	102.74
379.317	29.01
379.528	-24.23
379.738	88.4
379.948	2.39
380.158	137.56
380.369	4.44
380.579	84.31
380.789	94.55
380.999	88.4
381.21	125.27
381.42	198.99
381.63	67.92
381.84	131.41
382.05	192.85
382.261	104.79
382.471	153.94
382.681	-34.47
382.891	180.56
383.101	24.92
383.311	-52.91
383.521	-40.62
383.731	57.68
383.941	22.87
384.151	96.6
384.361	108.88
384.571	115.03
384.781	72.02
384.991	190.8
385.201	192.85
385.411	115.03
385.621	65.88
385.831	-57
386.041	12.63
386.251	37.2
386.461	147.8
386.671	0.34
386.881	80.21
387.091	47.44
387.301	125.27
387.511	53.59
387.72	176.47
387.93	86.36
388.14	-11.95
388.35	29.01
388.56	170.32
388.769	55.64
388.979	14.68
389.189	26.96
389.399	-5.8
389.609	174.42
389.818	135.51
390.028	139.6
390.238	84.31
390.447	47.44
390.657	106.84
390.867	39.25
391.076	-18.09
391.286	82.26
391.496	98.64
391.705	78.16
391.915	149.84
392.125	110.93
392.334	0.34
392.544	151.89
392.753	123.22
392.963	-61.1
393.172	12.63
393.382	41.3
393.591	192.85
393.801	-3.75
394.01	192.85
394.22	119.12
394.429	26.96
394.639	57.68
394.848	102.74
395.058	67.92
395.267	31.06
395.477	139.6
395.686	82.26
395.895	174.42
396.105	221.52
396.314	53.59
396.524	24.92
396.733	-11.95
396.942	143.7
397.152	137.56
397.361	65.88
397.57	82.26
397.78	90.45
397.989	55.64
398.198	211.28
398.407	41.3
398.617	2.39
398.826	100.69
399.035	139.6
399.244	106.84
399.453	41.3
399.663	55.64
399.872	53.59
400.081	-89.77
400.29	80.21
400.499	-32.43
400.708	67.92
400.917	65.88
401.127	110.93
401.336	-28.33
401.545	209.23
401.754	176.47
401.963	49.49
402.172	53.59
402.381	-46.76
402.59	55.64
402.799	43.35
403.008	55.64
403.217	2.39
403.426	76.12
403.635	-69.29
403.844	51.54
404.053	65.88
404.262	24.92
404.471	180.56
404.68	51.54
404.888	-11.95
405.097	82.26
405.306	14.68
405.515	88.4
405.724	8.53
405.933	145.75
406.142	63.83
406.35	160.08
406.559	72.02
406.768	22.87
406.977	141.65
407.185	94.55
407.394	110.93
407.603	10.58
407.812	4.44
408.02	125.27
408.229	43.35
408.438	100.69
408.646	-28.33
408.855	22.87
409.064	20.82
409.272	-24.23
409.481	53.59
409.69	106.84
409.898	10.58
410.107	12.63
410.315	155.99
410.524	41.3
410.733	35.16
410.941	123.22
411.15	139.6
411.358	61.78
411.567	100.69
411.775	59.73
411.984	31.06
412.192	135.51
412.401	4.44
412.609	147.8
412.818	131.41
413.026	43.35
413.234	39.25
413.443	16.73
413.651	-7.85
413.86	76.12
414.068	160.08
414.276	176.47
414.485	-59.05
414.693	158.03
414.901	182.61
415.11	78.16
415.318	55.64
415.526	53.59
415.734	100.69
415.943	20.82
416.151	149.84
416.359	-32.43
416.567	133.46
416.776	131.41
416.984	49.49
417.192	174.42
417.4	-26.28
417.608	-24.23
417.817	26.96
418.025	131.41
418.233	205.14
418.441	-5.8
418.649	-1.71
418.857	65.88
419.065	190.8
419.273	51.54
419.481	31.06
419.689	112.98
419.897	-18.09
420.105	8.53
420.313	137.56
420.521	104.79
420.729	182.61
420.937	-52.91
421.145	-16.04
421.353	166.23
421.561	231.76
421.769	82.26
421.977	33.11
422.185	67.92
422.393	115.03
422.601	162.13
422.809	147.8
423.017	-24.23
423.224	96.6
423.432	151.89
423.64	92.5
423.848	135.51
424.056	49.49
424.263	162.13
424.471	72.02
424.679	90.45
424.887	-28.33
425.094	110.93
425.302	215.38
425.51	37.2
425.718	162.13
425.925	88.4
426.133	4.44
426.341	160.08
426.548	26.96
426.756	-16.04
426.964	63.83
427.171	45.4
427.379	20.82
427.586	61.78
427.794	141.65
428.001	149.84
428.209	121.17
428.417	213.33
428.624	158.03
428.832	90.45
429.039	57.68
429.247	170.32
429.454	133.46
429.662	242
429.869	135.51
430.076	162.13
430.284	205.14
430.491	252.24
430.699	137.56
430.906	205.14
431.114	90.45
431.321	160.08
431.528	104.79
431.736	104.79
431.943	221.52
432.15	285.01
432.358	147.8
432.565	272.72
432.772	55.64
432.979	309.58
433.187	145.75
433.394	233.81
433.601	86.36
433.808	223.57
434.016	235.86
434.223	246.1
434.43	155.99
434.637	219.47
434.844	280.91
435.052	180.56
435.259	262.48
435.466	258.39
435.673	252.24
435.88	301.39
436.087	317.78
436.294	262.48
436.501	276.82
436.708	293.2
436.915	186.71
437.122	336.21
437.329	182.61
437.537	313.68
437.743	328.02
437.95	534.86
438.157	344.4
438.364	379.22
438.571	358.74
438.778	432.46
438.985	389.46
439.192	444.75
439.399	336.21
439.606	399.7
439.813	526.67
440.02	551.24
440.227	645.45
440.433	504.14
440.64	444.75
440.847	467.28
441.054	483.66
441.261	645.45
441.467	549.2
441.674	485.71
441.881	680.27
442.088	639.31
442.294	602.44
442.501	756.04
442.708	710.99
442.914	715.08
443.121	817.48
443.328	790.86
443.534	872.78
443.741	868.68
443.948	678.22
444.154	966.98
444.361	1020.23
444.568	975.17
444.774	889.16
444.981	866.63
445.187	1110.34
445.394	1036.61
445.6	1071.43
445.807	1278.27
446.013	1145.16
446.22	1050.95
446.426	1272.13
446.633	1462.59
446.839	1511.74
447.046	1315.14
447.252	1358.14
447.459	1519.93
447.665	1552.7
447.871	1616.19
448.078	1780.03
448.284	1782.07
448.491	1757.5
448.697	1870.14
448.903	2027.83
449.11	1999.16
449.316	1919.29
449.522	2175.28
449.728	2142.52
449.935	2324.79
450.141	2285.87
450.347	2570.54
450.553	2509.1
450.76	2564.4
450.966	2697.52
451.172	2642.22
451.378	2855.21
451.584	2916.65
451.791	3146.02
451.997	3236.13
452.203	3348.77
452.409	3584.29
452.615	3621.15
452.821	3440.93
453.027	3588.38
453.233	4012.31
453.44	3739.93
453.646	4167.96
453.852	4206.87
454.058	4432.15
454.264	4395.28
454.47	4841.74
454.676	4778.25
454.882	5363.97
455.088	5083.4
455.294	5345.54
455.5	5617.92
455.705	5964.03
455.911	6066.42
456.117	6113.53
456.323	6506.74
456.529	6500.59
456.735	6916.33
456.941	7297.25
457.147	7518.43
457.352	7626.98
457.558	7854.3
457.764	8409.3
457.97	8544.47
458.176	8577.23
458.381	9083.08
458.587	9421
458.793	10016.96
458.999	9857.21
459.204	11403.43
459.41	11602.08
459.616	11378.86
459.821	12292.25
460.027	12652.69
460.233	13222.03
460.438	13170.83
460.644	14008.45
460.85	13904
461.055	14526.58
461.261	15583.34
461.466	14850.16
461.672	15425.64
461.878	17195.09
462.083	16910.42
462.289	17221.71
462.494	18030.66
462.7	18034.75
462.905	18675.77
463.111	19798.06
463.316	20914.2
463.522	21080.08
463.727	21944.33
463.932	22863.86
464.138	23273.46
464.343	24391.65
464.549	24442.85
464.754	26122.18
464.959	27111.35
465.165	27697.07
465.37	27572.14
465.575	26984.38
465.781	29218.71
465.986	30099.34
466.191	29695.89
466.397	29955.98
466.602	29339.54
466.807	30709.63
467.012	31444.85
467.218	31952.75
467.423	31862.64
467.628	32896.86
467.833	34400.07
468.038	34113.36
468.244	33634.13
468.449	34957.12
468.654	34191.18
