Data from USB4F104151__254__11-20-09-334.txt Node

Date: Wed Feb 26 11:20:09 EST 2025
User: louis
Spectrometer: USB4F10415
Trigger mode: 4
Integration Time (sec): 1.000000E-1
Scans to average: 1
Electric dark correction enabled: true
Nonlinearity correction enabled: false
Boxcar width: 0
XAxis mode: Wavelengths
Number of Pixels in Spectrum: 3648
>>>>>Begin Spectral Data<<<<<
178.204	-495.78
178.424	-495.78
178.644	-495.78
178.864	-512.16
179.084	-432.29
179.304	18.26
179.524	1.88
179.744	112.47
179.964	28.5
180.184	-18.6
180.404	22.36
180.624	-88.23
180.844	-16.55
181.064	-88.23
181.283	-16.55
181.503	-18.6
181.723	63.32
181.943	-110.76
182.163	87.89
182.383	28.5
182.602	94.04
182.822	85.84
183.042	77.65
183.262	-6.31
183.482	-86.19
183.701	38.74
183.921	-10.41
184.141	-37.03
184.361	114.52
184.58	30.55
184.8	40.79
185.02	-49.32
185.239	28.5
185.459	116.56
185.679	59.22
185.898	-159.91
186.118	32.6
186.338	-4.27
186.557	85.84
186.777	10.07
186.997	-47.27
187.216	24.4
187.436	194.39
187.655	18.26
187.875	100.18
188.095	-4.27
188.314	145.24
188.534	48.98
188.753	-37.03
188.973	91.99
189.192	110.42
189.412	24.4
189.631	34.64
189.851	89.94
190.07	173.91
190.29	-118.95
190.509	10.07
190.729	38.74
190.948	206.67
191.168	245.59
191.387	91.99
191.607	22.36
191.826	122.71
192.045	79.7
192.265	18.26
192.484	71.51
192.704	30.55
192.923	-67.75
193.142	149.33
193.362	77.65
193.581	77.65
193.8	112.47
194.02	130.9
194.239	48.98
194.458	81.75
194.678	-12.46
194.897	-55.47
195.116	40.79
195.335	28.5
195.555	67.41
195.774	-24.75
195.993	104.28
196.212	22.36
196.432	-10.41
196.651	-75.95
196.87	-14.51
197.089	300.88
197.308	1.88
197.528	71.51
197.747	-84.14
197.966	48.98
198.185	102.23
198.404	-6.31
198.623	65.36
198.842	157.52
199.062	221.01
199.281	106.32
199.5	-22.7
199.719	-2.22
199.938	40.79
200.157	57.17
200.376	108.37
200.595	151.38
200.814	100.18
201.033	-71.85
201.252	178
201.471	65.36
201.69	65.36
201.909	48.98
202.128	139.09
202.347	57.17
202.566	-2.22
202.785	-110.76
203.004	14.17
203.223	227.15
203.442	-0.17
203.661	-26.79
203.879	34.64
204.098	132.95
204.317	10.07
204.536	81.75
204.755	155.47
204.974	55.12
205.193	-18.6
205.411	120.66
205.63	137.04
205.849	12.12
206.068	5.97
206.287	-28.84
206.505	63.32
206.724	57.17
206.943	22.36
207.162	42.84
207.381	108.37
207.599	3.93
207.818	-20.65
208.037	-18.6
208.255	18.26
208.474	46.93
208.693	61.27
208.911	-20.65
209.13	79.7
209.349	81.75
209.567	118.61
209.786	-10.41
210.005	128.85
210.223	14.17
210.442	-69.8
210.661	53.08
210.879	24.4
211.098	100.18
211.316	36.69
211.535	12.12
211.753	100.18
211.972	20.31
212.191	-8.36
212.409	-30.89
212.628	40.79
212.846	-8.36
213.065	69.46
213.283	48.98
213.502	57.17
213.72	57.17
213.938	71.51
214.157	40.79
214.375	65.36
214.594	-82.09
214.812	48.98
215.031	-26.79
215.249	24.4
215.467	44.88
215.686	46.93
215.904	57.17
216.122	26.45
216.341	163.67
216.559	81.75
216.778	91.99
216.996	149.33
217.214	5.97
217.432	-32.94
217.651	-82.09
217.869	-30.89
218.087	26.45
218.306	-20.65
218.524	55.12
218.742	57.17
218.96	116.56
219.179	22.36
219.397	-2.22
219.615	204.63
219.833	18.26
220.051	-18.6
220.27	44.88
220.488	81.75
220.706	81.75
220.924	-24.75
221.142	-49.32
221.36	46.93
221.578	42.84
221.796	-28.84
222.015	61.27
222.233	40.79
222.451	132.95
222.669	8.02
222.887	40.79
223.105	-22.7
223.323	-12.46
223.541	-26.79
223.759	26.45
223.977	42.84
224.195	128.85
224.413	94.04
224.631	-10.41
224.849	89.94
225.067	272.21
225.285	-26.79
225.503	8.02
225.721	-67.75
225.939	-43.18
226.157	-2.22
226.375	151.38
226.592	-37.03
226.81	24.4
227.028	73.56
227.246	69.46
227.464	83.8
227.682	63.32
227.9	77.65
228.117	53.08
228.335	57.17
228.553	32.6
228.771	26.45
228.989	44.88
229.206	106.32
229.424	1.88
229.642	-16.55
229.86	-4.27
230.077	165.71
230.295	91.99
230.513	98.13
230.731	77.65
230.948	192.34
231.166	122.71
231.384	-6.31
231.601	-39.08
231.819	180.05
232.037	30.55
232.254	-65.71
232.472	28.5
232.689	3.93
232.907	225.11
233.125	12.12
233.342	-26.79
233.56	-34.99
233.777	-26.79
233.995	3.93
234.213	104.28
234.43	159.57
234.648	3.93
234.865	-10.41
235.083	48.98
235.3	14.17
235.518	89.94
235.735	89.94
235.953	102.23
236.17	96.08
236.388	-14.51
236.605	73.56
236.822	57.17
237.04	149.33
237.257	53.08
237.475	14.17
237.692	3.93
237.909	106.32
238.127	48.98
238.344	132.95
238.562	8.02
238.779	-84.14
238.996	-53.42
239.214	73.56
239.431	91.99
239.648	44.88
239.865	14.17
240.083	46.93
240.3	-82.09
240.517	-49.32
240.735	71.51
240.952	102.23
241.169	38.74
241.386	57.17
241.603	5.97
241.821	-151.72
242.038	30.55
242.255	77.65
242.472	-8.36
242.689	112.47
242.907	30.55
243.124	-26.79
243.341	-4.27
243.558	-41.13
243.775	-77.99
243.992	-28.84
244.209	102.23
244.426	196.43
244.643	-34.99
244.86	48.98
245.078	16.21
245.295	30.55
245.512	-4.27
245.729	-41.13
245.946	85.84
246.163	53.08
246.38	-39.08
246.597	94.04
246.814	61.27
247.031	16.21
247.248	42.84
247.464	81.75
247.681	55.12
247.898	94.04
248.115	83.8
248.332	-49.32
248.549	139.09
248.766	165.71
248.983	65.36
249.2	38.74
249.417	143.19
249.633	48.98
249.85	26.45
250.067	53.08
250.284	-22.7
250.501	106.32
250.717	34.64
250.934	3.93
251.151	14.17
251.368	-6.31
251.585	53.08
251.801	65.36
252.018	-22.7
252.235	104.28
252.451	-92.33
252.668	18.26
252.885	143.19
253.102	44.88
253.318	124.76
253.535	-32.94
253.752	-26.79
253.968	-22.7
254.185	-24.75
254.401	8.02
254.618	81.75
254.835	-41.13
255.051	128.85
255.268	102.23
255.484	12.12
255.701	-16.55
255.917	53.08
256.134	-41.13
256.351	18.26
256.567	12.12
256.784	-20.65
257	-67.75
257.217	89.94
257.433	16.21
257.65	48.98
257.866	135
258.082	-59.56
258.299	28.5
258.515	51.03
258.732	-12.46
258.948	-14.51
259.165	16.21
259.381	-22.7
259.597	42.84
259.814	53.08
260.03	-10.41
260.246	-34.99
260.463	165.71
260.679	110.42
260.895	59.22
261.112	46.93
261.328	48.98
261.544	-55.47
261.761	192.34
261.977	-65.71
262.193	-67.75
262.409	40.79
262.626	69.46
262.842	24.4
263.058	-41.13
263.274	57.17
263.49	30.55
263.707	63.32
263.923	53.08
264.139	-71.85
264.355	20.31
264.571	112.47
264.787	135
265.004	55.12
265.22	-39.08
265.436	32.6
265.652	18.26
265.868	57.17
266.084	-88.23
266.3	85.84
266.516	-112.81
266.732	118.61
266.948	59.22
267.164	-24.75
267.38	-22.7
267.596	102.23
267.812	112.47
268.028	48.98
268.244	-28.84
268.46	85.84
268.676	-90.28
268.892	30.55
269.108	-51.37
269.324	-106.67
269.54	-45.23
269.756	75.6
269.972	-51.37
270.188	38.74
270.403	-86.19
270.619	44.88
270.835	-28.84
271.051	-2.22
271.267	-37.03
271.483	5.97
271.698	114.52
271.914	48.98
272.13	57.17
272.346	-51.37
272.562	98.13
272.777	75.6
272.993	67.41
273.209	38.74
273.425	100.18
273.64	22.36
273.856	30.55
274.072	-22.7
274.287	-26.79
274.503	81.75
274.719	36.69
274.934	18.26
275.15	-59.56
275.366	112.47
275.581	-6.31
275.797	-63.66
276.012	3.93
276.228	-69.8
276.444	8.02
276.659	61.27
276.875	1.88
277.09	-34.99
277.306	30.55
277.521	65.36
277.737	-65.71
277.952	71.51
278.168	-14.51
278.383	10.07
278.599	1.88
278.814	110.42
279.03	30.55
279.245	46.93
279.461	38.74
279.676	77.65
279.892	-49.32
280.107	-39.08
280.322	10.07
280.538	120.66
280.753	-86.19
280.969	81.75
281.184	28.5
281.399	108.37
281.615	-37.03
281.83	63.32
282.045	-12.46
282.26	-75.95
282.476	-8.36
282.691	106.32
282.906	24.4
283.122	5.97
283.337	-84.14
283.552	94.04
283.767	14.17
283.983	20.31
284.198	36.69
284.413	118.61
284.628	-82.09
284.843	89.94
285.058	38.74
285.274	-59.56
285.489	16.21
285.704	110.42
285.919	55.12
286.134	16.21
286.349	5.97
286.564	34.64
286.779	106.32
286.995	1.88
287.21	-24.75
287.425	112.47
287.64	-49.32
287.855	48.98
288.07	-57.51
288.285	124.76
288.5	96.08
288.715	87.89
288.93	36.69
289.145	8.02
289.36	77.65
289.575	10.07
289.79	116.56
290.004	-53.42
290.219	120.66
290.434	-34.99
290.649	40.79
290.864	-0.17
291.079	1.88
291.294	36.69
291.509	-0.17
291.724	-6.31
291.938	-59.56
292.153	124.76
292.368	48.98
292.583	69.46
292.798	151.38
293.012	71.51
293.227	106.32
293.442	48.98
293.657	202.58
293.871	206.67
294.086	48.98
294.301	157.52
294.516	104.28
294.73	-0.17
294.945	-102.57
295.16	-18.6
295.374	130.9
295.589	149.33
295.804	22.36
296.018	55.12
296.233	137.04
296.447	51.03
296.662	32.6
296.877	59.22
297.091	114.52
297.306	77.65
297.52	-2.22
297.735	-10.41
297.949	38.74
298.164	40.79
298.378	16.21
298.593	-24.75
298.807	-4.27
299.022	-84.14
299.236	157.52
299.451	-30.89
299.665	-49.32
299.88	73.56
300.094	108.37
300.309	-39.08
300.523	46.93
300.737	-2.22
300.952	110.42
301.166	-4.27
301.381	-32.94
301.595	-47.27
301.809	69.46
302.024	-14.51
302.238	-82.09
302.452	137.04
302.667	48.98
302.881	65.36
303.095	149.33
303.309	118.61
303.524	-49.32
303.738	53.08
303.952	-16.55
304.166	81.75
304.381	-41.13
304.595	98.13
304.809	-43.18
305.023	53.08
305.237	-24.75
305.452	-94.38
305.666	40.79
305.88	77.65
306.094	46.93
306.308	5.97
306.522	14.17
306.736	61.27
306.95	61.27
307.164	-55.47
307.379	-0.17
307.593	165.71
307.807	130.9
308.021	83.8
308.235	108.37
308.449	-155.82
308.663	-34.99
308.877	223.06
309.091	-8.36
309.305	71.51
309.519	-125.1
309.733	69.46
309.947	-43.18
310.161	77.65
310.374	108.37
310.588	190.29
310.802	-86.19
311.016	22.36
311.23	102.23
311.444	22.36
311.658	59.22
311.872	112.47
312.085	46.93
312.299	112.47
312.513	139.09
312.727	91.99
312.941	20.31
313.154	79.7
313.368	51.03
313.582	46.93
313.796	3.93
314.009	-18.6
314.223	120.66
314.437	-53.42
314.651	28.5
314.864	20.31
315.078	20.31
315.292	-6.31
315.505	32.6
315.719	89.94
315.933	36.69
316.146	57.17
316.36	-22.7
316.573	83.8
316.787	38.74
317.001	48.98
317.214	-2.22
317.428	38.74
317.641	-4.27
317.855	-16.55
318.068	-10.41
318.282	38.74
318.495	132.95
318.709	48.98
318.922	18.26
319.136	178
319.349	126.8
319.563	-104.62
319.776	10.07
319.99	38.74
320.203	173.91
320.417	20.31
320.63	79.7
320.843	192.34
321.057	53.08
321.27	61.27
321.483	81.75
321.697	135
321.91	-0.17
322.124	63.32
322.337	77.65
322.55	-16.55
322.763	61.27
322.977	30.55
323.19	-16.55
323.403	8.02
323.617	67.41
323.83	124.76
324.043	-2.22
324.256	3.93
324.469	-0.17
324.683	128.85
324.896	36.69
325.109	61.27
325.322	-49.32
325.535	96.08
325.748	143.19
325.962	26.45
326.175	-20.65
326.388	10.07
326.601	139.09
326.814	-0.17
327.027	122.71
327.24	104.28
327.453	-143.53
327.666	104.28
327.879	190.29
328.092	59.22
328.305	8.02
328.518	30.55
328.731	-12.46
328.944	-47.27
329.157	22.36
329.37	-22.7
329.583	126.8
329.796	151.38
330.009	-16.55
330.222	-16.55
330.435	79.7
330.648	12.12
330.861	5.97
331.073	1.88
331.286	46.93
331.499	59.22
331.712	-26.79
331.925	55.12
332.138	-4.27
332.35	151.38
332.563	-0.17
332.776	79.7
332.989	-22.7
333.202	-47.27
333.414	20.31
333.627	108.37
333.84	-53.42
334.053	59.22
334.265	-0.17
334.478	28.5
334.691	-30.89
334.903	40.79
335.116	-12.46
335.329	-69.8
335.541	98.13
335.754	151.38
335.966	-18.6
336.179	1.88
336.392	1.88
336.604	3.93
336.817	81.75
337.029	122.71
337.242	57.17
337.454	26.45
337.667	91.99
337.88	94.04
338.092	94.04
338.305	-0.17
338.517	-2.22
338.729	77.65
338.942	169.81
339.154	-61.61
339.367	-67.75
339.579	20.31
339.792	-80.04
340.004	114.52
340.217	-10.41
340.429	61.27
340.641	-8.36
340.854	10.07
341.066	44.88
341.278	65.36
341.491	104.28
341.703	79.7
341.915	-82.09
342.128	20.31
342.34	61.27
342.552	-57.51
342.764	16.21
342.977	-61.61
343.189	85.84
343.401	65.36
343.613	-104.62
343.826	-0.17
344.038	1.88
344.25	8.02
344.462	-55.47
344.674	55.12
344.886	-41.13
345.099	-41.13
345.311	130.9
345.523	-32.94
345.735	-121
345.947	-0.17
346.159	96.08
346.371	-24.75
346.583	-8.36
346.795	159.57
347.007	10.07
347.219	100.18
347.431	-41.13
347.643	122.71
347.855	16.21
348.067	169.81
348.279	-41.13
348.491	73.56
348.703	36.69
348.915	3.93
349.127	28.5
349.339	139.09
349.551	-4.27
349.763	81.75
349.975	-4.27
350.187	114.52
350.399	118.61
350.61	59.22
350.822	30.55
351.034	12.12
351.246	-37.03
351.458	96.08
351.669	118.61
351.881	96.08
352.093	100.18
352.305	81.75
352.517	100.18
352.728	108.37
352.94	-45.23
353.152	73.56
353.363	-30.89
353.575	118.61
353.787	130.9
353.999	98.13
354.21	184.15
354.422	-24.75
354.633	-32.94
354.845	-45.23
355.057	81.75
355.268	89.94
355.48	89.94
355.692	-73.9
355.903	-0.17
356.115	-47.27
356.326	-12.46
356.538	91.99
356.749	40.79
356.961	98.13
357.172	85.84
357.384	-73.9
357.595	208.72
357.807	-77.99
358.018	40.79
358.23	-41.13
358.441	180.05
358.653	165.71
358.864	-8.36
359.075	-67.75
359.287	24.4
359.498	83.8
359.709	159.57
359.921	98.13
360.132	67.41
360.344	-41.13
360.555	22.36
360.766	77.65
360.977	57.17
361.189	81.75
361.4	-43.18
361.611	55.12
361.823	126.8
362.034	26.45
362.245	-41.13
362.456	-67.75
362.667	110.42
362.879	-14.51
363.09	-16.55
363.301	63.32
363.512	36.69
363.723	46.93
363.935	-22.7
364.146	87.89
364.357	20.31
364.568	44.88
364.779	-61.61
364.99	128.85
365.201	44.88
365.412	132.95
365.623	-86.19
365.834	8.02
366.045	57.17
366.256	63.32
366.467	81.75
366.678	-0.17
366.889	65.36
367.1	12.12
367.311	57.17
367.522	-22.7
367.733	96.08
367.944	36.69
368.155	48.98
368.366	38.74
368.577	51.03
368.788	40.79
368.999	-34.99
369.209	-41.13
369.42	245.59
369.631	151.38
369.842	137.04
370.053	5.97
370.264	69.46
370.474	-80.04
370.685	-39.08
370.896	79.7
371.107	79.7
371.317	-57.51
371.528	85.84
371.739	167.76
371.95	77.65
372.16	63.32
372.371	10.07
372.582	77.65
372.792	67.41
373.003	38.74
373.214	-45.23
373.424	69.46
373.635	-43.18
373.846	128.85
374.056	38.74
374.267	1.88
374.477	59.22
374.688	-18.6
374.898	3.93
375.109	-2.22
375.319	38.74
375.53	126.8
375.74	36.69
375.951	-98.47
376.161	-16.55
376.372	87.89
376.582	-32.94
376.793	55.12
377.003	34.64
377.214	-6.31
377.424	51.03
377.635	63.32
377.845	-16.55
378.055	126.8
378.266	-104.62
378.476	57.17
378.686	34.64
378.897	22.36
379.107	81.75
379.317	69.46
379.528	20.31
379.738	30.55
379.948	-92.33
380.158	190.29
380.369	63.32
380.579	71.51
380.789	91.99
380.999	110.42
381.21	108.37
381.42	167.76
381.63	16.21
381.84	116.56
382.05	124.76
382.261	118.61
382.471	143.19
382.681	-24.75
382.891	167.76
383.101	94.04
383.311	-30.89
383.521	18.26
383.731	122.71
383.941	40.79
384.151	32.6
384.361	-10.41
384.571	65.36
384.781	85.84
384.991	167.76
385.201	178
385.411	87.89
385.621	102.23
385.831	69.46
386.041	30.55
386.251	-14.51
386.461	46.93
386.671	-41.13
386.881	91.99
387.091	65.36
387.301	59.22
387.511	22.36
387.72	75.6
387.93	128.85
388.14	-51.37
388.35	153.43
388.56	57.17
388.769	59.22
388.979	51.03
389.189	-45.23
389.399	65.36
389.609	118.61
389.818	157.52
390.028	48.98
390.238	85.84
390.447	-63.66
390.657	3.93
390.867	67.41
391.076	-69.8
391.286	42.84
391.496	32.6
391.705	42.84
391.915	122.71
392.125	108.37
392.334	46.93
392.544	186.19
392.753	79.7
392.963	3.93
393.172	34.64
393.382	30.55
393.591	210.77
393.801	36.69
394.01	87.89
394.22	87.89
394.429	-49.32
394.639	8.02
394.848	3.93
395.058	51.03
395.267	73.56
395.477	126.8
395.686	-32.94
395.895	165.71
396.105	255.83
396.314	77.65
396.524	16.21
396.733	63.32
396.942	94.04
397.152	147.28
397.361	153.43
397.57	22.36
397.78	126.8
397.989	57.17
398.198	75.6
398.407	91.99
398.617	57.17
398.826	44.88
399.035	-18.6
399.244	63.32
399.453	71.51
399.663	26.45
399.872	44.88
400.081	59.22
400.29	147.28
400.499	-69.8
400.708	83.8
400.917	-51.37
401.127	18.26
401.336	5.97
401.545	178
401.754	132.95
401.963	32.6
402.172	-4.27
402.381	-41.13
402.59	28.5
402.799	-6.31
403.008	106.32
403.217	38.74
403.426	-20.65
403.635	-49.32
403.844	75.6
404.053	40.79
404.262	-8.36
404.471	155.47
404.68	100.18
404.888	75.6
405.097	-4.27
405.306	12.12
405.515	106.32
405.724	65.36
405.933	53.08
406.142	89.94
406.35	106.32
406.559	-18.6
406.768	108.37
406.977	212.82
407.185	75.6
407.394	79.7
407.603	-61.61
407.812	53.08
408.02	204.63
408.229	32.6
408.438	85.84
408.646	-61.61
408.855	34.64
409.064	-30.89
409.272	24.4
409.481	65.36
409.69	-32.94
409.898	-75.95
410.107	10.07
410.315	57.17
410.524	-65.71
410.733	3.93
410.941	18.26
411.15	48.98
411.358	40.79
411.567	223.06
411.775	32.6
411.984	14.17
412.192	116.56
412.401	8.02
412.609	143.19
412.818	57.17
413.026	96.08
413.234	73.56
413.443	79.7
413.651	8.02
413.86	32.6
414.068	132.95
414.276	89.94
414.485	-32.94
414.693	208.72
414.901	163.67
415.11	3.93
415.318	51.03
415.526	16.21
415.734	120.66
415.943	91.99
416.151	67.41
416.359	8.02
416.567	85.84
416.776	53.08
416.984	128.85
417.192	128.85
417.4	-2.22
417.608	3.93
417.817	-12.46
418.025	161.62
418.233	214.87
418.441	-8.36
418.649	-82.09
418.857	75.6
419.065	151.38
419.273	-14.51
419.481	89.94
419.689	61.27
419.897	24.4
420.105	-63.66
420.313	173.91
420.521	202.58
420.729	130.9
420.937	-6.31
421.145	28.5
421.353	122.71
421.561	159.57
421.769	114.52
421.977	-51.37
422.185	67.41
422.393	102.23
422.601	132.95
422.809	55.12
423.017	89.94
423.224	77.65
423.432	155.47
423.64	61.27
423.848	126.8
424.056	-6.31
424.263	143.19
424.471	-2.22
424.679	126.8
424.887	-73.9
425.094	147.28
425.302	89.94
425.51	-10.41
425.718	71.51
425.925	10.07
426.133	-18.6
426.341	190.29
426.548	8.02
426.756	-2.22
426.964	120.66
427.171	-18.6
427.379	22.36
427.586	57.17
427.794	53.08
428.001	126.8
428.209	81.75
428.417	132.95
428.624	116.56
428.832	143.19
429.039	112.47
429.247	73.56
429.454	69.46
429.662	126.8
429.869	94.04
430.076	-37.03
430.284	89.94
430.491	192.34
430.699	98.13
430.906	216.91
431.114	108.37
431.321	51.03
431.528	118.61
431.736	141.14
431.943	147.28
432.15	171.86
432.358	196.43
432.565	266.07
432.772	-20.65
432.979	194.39
433.187	126.8
433.394	192.34
433.601	55.12
433.808	192.34
434.016	243.54
434.223	210.77
434.43	161.62
434.637	307.02
434.844	243.54
435.052	223.06
435.259	229.2
435.466	175.95
435.673	253.78
435.88	315.22
436.087	227.15
436.294	300.88
436.501	345.94
436.708	192.34
436.915	292.69
437.122	302.93
437.329	249.68
437.537	350.03
437.743	319.31
437.95	419.66
438.157	354.13
438.364	272.21
438.571	378.7
438.778	376.66
438.985	302.93
439.192	409.42
439.399	436.05
439.606	487.25
439.813	491.34
440.02	573.26
440.227	636.75
440.433	513.87
440.64	452.43
440.847	491.34
441.054	573.26
441.261	683.85
441.467	593.74
441.674	546.64
441.881	644.94
442.088	544.59
442.294	751.43
442.501	646.99
442.708	753.48
442.914	751.43
443.121	751.43
443.328	886.6
443.534	853.83
443.741	847.69
443.948	757.58
444.154	935.75
444.361	960.33
444.568	911.18
444.774	1042.25
444.981	941.89
445.187	1191.75
445.394	1165.12
445.6	1029.96
445.807	1285.95
446.013	1228.61
446.22	1216.32
446.426	1300.29
446.633	1386.3
446.839	1550.14
447.046	1378.11
447.252	1589.05
447.459	1470.27
447.665	1482.56
447.871	1664.83
448.078	1935.16
448.284	1773.37
448.491	1974.07
448.697	2047.8
448.903	1982.26
449.11	2168.63
449.316	2041.65
449.522	2252.59
449.728	2316.08
449.935	2402.1
450.141	2404.14
450.347	2633.52
450.553	2633.52
450.76	2637.61
450.966	2752.3
451.172	2879.27
451.378	2961.19
451.584	3039.01
451.791	3276.58
451.997	3338.02
452.203	3438.37
452.409	3516.19
452.615	3620.64
452.821	3555.1
453.027	3684.13
453.233	4271.89
453.44	4038.42
453.646	4112.15
453.852	4218.64
454.058	4579.09
454.264	4701.97
454.47	5097.22
454.676	5191.43
454.882	5463.81
455.088	5439.23
455.294	5527.3
455.5	5947.13
455.705	6211.32
455.911	6113.02
456.117	6436.6
456.323	6647.54
456.529	6770.41
456.735	7335.65
456.941	7403.24
457.147	7868.13
457.352	7919.32
457.558	8189.66
457.764	8859.34
457.97	9164.49
458.176	9211.59
458.381	9699.01
458.587	9893.57
458.793	10501.81
458.999	10264.25
459.204	11636.39
459.41	12127.9
459.616	11861.66
459.821	12445.34
460.027	13270.67
460.233	13676.16
460.438	13772.42
460.644	14612.09
460.85	14573.17
461.055	15160.94
461.261	16457.31
461.466	15654.5
461.672	15912.55
461.878	17927.75
462.083	17612.36
462.289	18177.6
462.494	18800.18
462.7	18978.36
462.905	19224.11
463.111	20737.56
463.316	21765.64
463.522	22498.81
463.727	23043.57
463.932	23795.18
464.138	24319.46
464.343	25542.1
464.549	25636.3
464.754	27461.04
464.959	28323.24
465.165	28853.66
465.37	28685.73
465.575	28431.78
465.781	30115.21
465.986	31090.04
466.191	30842.24
466.397	30963.07
466.602	30223.75
466.807	32165.23
467.012	32789.86
467.218	33351
467.423	33279.32
467.628	34198.86
467.833	35839.28
468.038	35427.64
468.244	34575.69
468.449	36693.29
