Data from USB4F104151__89__10-44-39-367.txt Node

Date: Wed Feb 26 10:44:39 EST 2025
User: louis
Spectrometer: USB4F10415
Trigger mode: 4
Integration Time (sec): 1.000000E-1
Scans to average: 1
Electric dark correction enabled: true
Nonlinearity correction enabled: false
Boxcar width: 0
XAxis mode: Wavelengths
Number of Pixels in Spectrum: 3648
>>>>>Begin Spectral Data<<<<<
178.204	-438.61
178.424	-438.61
178.644	-438.61
178.864	-344.4
179.084	-389.46
179.304	-14.68
179.524	-8.53
179.744	89.77
179.964	-6.49
180.184	122.54
180.404	13.99
180.624	-57.68
180.844	-14.68
181.064	-88.4
181.283	-16.73
181.503	-43.35
181.723	24.23
181.943	-74.07
182.163	157.35
182.383	-35.16
182.602	118.44
182.822	169.64
183.042	116.39
183.262	48.81
183.482	75.43
183.701	73.39
183.921	116.39
184.141	-6.49
184.361	46.76
184.58	5.8
184.8	40.62
185.02	-24.92
185.239	108.2
185.459	40.62
185.679	155.3
185.898	-45.4
186.118	36.52
186.338	44.71
186.557	46.76
186.777	69.29
186.997	44.71
187.216	-24.92
187.436	257.7
187.655	79.53
187.875	214.7
188.095	65.19
188.314	210.6
188.534	118.44
188.753	-2.39
188.973	130.73
189.192	151.21
189.412	48.81
189.631	73.39
189.851	102.06
190.07	177.83
190.29	-35.16
190.509	-20.82
190.729	91.82
190.948	136.87
191.168	243.37
191.387	48.81
191.607	-4.44
191.826	114.34
192.045	18.09
192.265	13.99
192.484	9.9
192.704	73.39
192.923	-0.34
193.142	71.34
193.362	85.67
193.581	114.34
193.8	28.33
194.02	5.8
194.239	36.52
194.458	116.39
194.678	24.23
194.897	36.52
195.116	54.95
195.335	13.99
195.555	108.2
195.774	-10.58
195.993	77.48
196.212	28.33
196.432	-33.11
196.651	75.43
196.87	93.87
197.089	231.08
197.308	22.19
197.528	87.72
197.747	-49.49
197.966	65.19
198.185	167.59
198.404	-6.49
198.623	116.39
198.842	188.07
199.062	79.53
199.281	122.54
199.5	18.09
199.719	65.19
199.938	79.53
200.157	83.63
200.376	42.67
200.595	77.48
200.814	59.05
201.033	-0.34
201.252	153.26
201.471	136.87
201.69	50.86
201.909	71.34
202.128	46.76
202.347	32.43
202.566	1.71
202.785	-100.69
203.004	-69.97
203.223	235.18
203.442	71.34
203.661	-98.64
203.879	-22.87
204.098	124.58
204.317	-112.98
204.536	112.3
204.755	85.67
204.974	106.15
205.193	42.67
205.411	138.92
205.63	112.3
205.849	108.2
206.068	11.95
206.287	-8.53
206.505	157.35
206.724	136.87
206.943	18.09
207.162	-49.49
207.381	20.14
207.599	-14.68
207.818	24.23
208.037	-51.54
208.255	-8.53
208.474	97.96
208.693	59.05
208.911	-39.25
209.13	18.09
209.349	116.39
209.567	183.98
209.786	89.77
210.005	95.91
210.223	-4.44
210.442	-145.75
210.661	34.47
210.879	87.72
211.098	153.26
211.316	112.3
211.535	22.19
211.753	95.91
211.972	91.82
212.191	-14.68
212.409	-12.63
212.628	126.63
212.846	30.38
213.065	-2.39
213.283	5.8
213.502	46.76
213.72	30.38
213.938	11.95
214.157	-20.82
214.375	65.19
214.594	-6.49
214.812	22.19
215.031	-20.82
215.249	-8.53
215.467	69.29
215.686	24.23
215.904	63.15
216.122	48.81
216.341	216.74
216.559	22.19
216.778	120.49
216.996	124.58
217.214	-39.25
217.432	30.38
217.651	-86.36
217.869	-10.58
218.087	65.19
218.306	5.8
218.524	16.04
218.742	77.48
218.96	83.63
219.179	57
219.397	50.86
219.615	280.23
219.833	93.87
220.051	-98.64
220.27	89.77
220.488	128.68
220.706	89.77
220.924	28.33
221.142	-26.96
221.36	83.63
221.578	89.77
221.796	26.28
222.015	22.19
222.233	77.48
222.451	233.13
222.669	-20.82
222.887	79.53
223.105	34.47
223.323	102.06
223.541	11.95
223.759	42.67
223.977	7.85
224.195	214.7
224.413	102.06
224.631	77.48
224.849	54.95
225.067	179.88
225.285	-0.34
225.503	-6.49
225.721	-31.06
225.939	83.63
226.157	61.1
226.375	235.18
226.592	36.52
226.81	34.47
227.028	124.58
227.246	91.82
227.464	149.16
227.682	143.02
227.9	36.52
228.117	104.11
228.335	40.62
228.553	-43.35
228.771	13.99
228.989	89.77
229.206	81.58
229.424	24.23
229.642	71.34
229.86	20.14
230.077	147.11
230.295	48.81
230.513	93.87
230.731	163.5
230.948	81.58
231.166	212.65
231.384	28.33
231.601	-57.68
231.819	149.16
232.037	-4.44
232.254	83.63
232.472	-6.49
232.689	20.14
232.907	97.96
233.125	48.81
233.342	-49.49
233.56	-49.49
233.777	-35.16
233.995	-4.44
234.213	167.59
234.43	118.44
234.648	38.57
234.865	11.95
235.083	110.25
235.3	40.62
235.518	89.77
235.735	52.91
235.953	42.67
236.17	13.99
236.388	-59.73
236.605	65.19
236.822	116.39
237.04	-20.82
237.257	36.52
237.475	-41.3
237.692	46.76
237.909	30.38
238.127	-26.96
238.344	48.81
238.562	61.1
238.779	-33.11
238.996	24.23
239.214	-2.39
239.431	102.06
239.648	-31.06
239.865	202.41
240.083	83.63
240.3	77.48
240.517	5.8
240.735	36.52
240.952	204.46
241.169	32.43
241.386	71.34
241.603	59.05
241.821	-37.2
242.038	65.19
242.255	120.49
242.472	-4.44
242.689	38.57
242.907	48.81
243.124	34.47
243.341	-49.49
243.558	-76.12
243.775	-31.06
243.992	13.99
244.209	79.53
244.426	202.41
244.643	13.99
244.86	13.99
245.078	16.04
245.295	114.34
245.512	75.43
245.729	1.71
245.946	100.01
246.163	-43.35
246.38	52.91
246.597	30.38
246.814	83.63
247.031	-0.34
247.248	30.38
247.464	136.87
247.681	120.49
247.898	34.47
248.115	102.06
248.332	63.15
248.549	95.91
248.766	128.68
248.983	52.91
249.2	89.77
249.417	54.95
249.633	26.28
249.85	87.72
250.067	50.86
250.284	65.19
250.501	93.87
250.717	77.48
250.934	-84.31
251.151	-10.58
251.368	32.43
251.585	71.34
251.801	-4.44
252.018	-14.68
252.235	32.43
252.451	-115.03
252.668	-24.92
252.885	112.3
253.102	38.57
253.318	-0.34
253.535	-0.34
253.752	32.43
253.968	9.9
254.185	-59.73
254.401	-22.87
254.618	114.34
254.835	57
255.051	16.04
255.268	71.34
255.484	165.54
255.701	46.76
255.917	79.53
256.134	-45.4
256.351	18.09
256.567	-26.96
256.784	44.71
257	-106.84
257.217	116.39
257.433	85.67
257.65	20.14
257.866	85.67
258.082	-74.07
258.299	-24.92
258.515	46.76
258.732	-16.73
258.948	-57.68
259.165	22.19
259.381	-14.68
259.597	-10.58
259.814	-4.44
260.03	-26.96
260.246	-2.39
260.463	87.72
260.679	218.79
260.895	69.29
261.112	71.34
261.328	20.14
261.544	7.85
261.761	104.11
261.977	22.19
262.193	-41.3
262.409	122.54
262.626	3.75
262.842	50.86
263.058	-55.64
263.274	140.97
263.49	102.06
263.707	91.82
263.923	-2.39
264.139	-94.55
264.355	36.52
264.571	81.58
264.787	46.76
265.004	91.82
265.22	20.14
265.436	7.85
265.652	1.71
265.868	120.49
266.084	-41.3
266.3	67.24
266.516	30.38
266.732	104.11
266.948	59.05
267.164	-0.34
267.38	163.5
267.596	40.62
267.812	188.07
268.028	11.95
268.244	-0.34
268.46	28.33
268.676	7.85
268.892	73.39
269.108	9.9
269.324	42.67
269.54	-53.59
269.756	73.39
269.972	-2.39
270.188	26.28
270.403	-55.64
270.619	7.85
270.835	118.44
271.051	63.15
271.267	-10.58
271.483	-69.97
271.698	69.29
271.914	30.38
272.13	57
272.346	-26.96
272.562	85.67
272.777	124.58
272.993	75.43
273.209	-35.16
273.425	136.87
273.64	-6.49
273.856	124.58
274.072	26.28
274.287	-6.49
274.503	75.43
274.719	83.63
274.934	-26.96
275.15	28.33
275.366	48.81
275.581	93.87
275.797	26.28
276.012	120.49
276.228	57
276.444	48.81
276.659	136.87
276.875	50.86
277.09	3.75
277.306	20.14
277.521	34.47
277.737	7.85
277.952	18.09
278.168	16.04
278.383	42.67
278.599	73.39
278.814	118.44
279.03	5.8
279.245	83.63
279.461	-4.44
279.676	122.54
279.892	-0.34
280.107	-18.77
280.322	32.43
280.538	89.77
280.753	11.95
280.969	42.67
281.184	18.09
281.399	222.89
281.615	71.34
281.83	100.01
282.045	-115.03
282.26	59.05
282.476	28.33
282.691	100.01
282.906	97.96
283.122	38.57
283.337	1.71
283.552	-18.77
283.767	16.04
283.983	138.92
284.198	-6.49
284.413	112.3
284.628	-82.26
284.843	-14.68
285.058	118.44
285.274	-69.97
285.489	-16.73
285.704	69.29
285.919	-22.87
286.134	13.99
286.349	16.04
286.564	36.52
286.779	106.15
286.995	9.9
287.21	-53.59
287.425	91.82
287.64	44.71
287.855	30.38
288.07	-10.58
288.285	143.02
288.5	95.91
288.715	67.24
288.93	3.75
289.145	-24.92
289.36	-20.82
289.575	-4.44
289.79	210.6
290.004	-57.68
290.219	108.2
290.434	83.63
290.649	32.43
290.864	-31.06
291.079	59.05
291.294	34.47
291.509	50.86
291.724	30.38
291.938	-0.34
292.153	16.04
292.368	-96.6
292.583	95.91
292.798	42.67
293.012	102.06
293.227	128.68
293.442	36.52
293.657	59.05
293.871	124.58
294.086	130.73
294.301	118.44
294.516	81.58
294.73	69.29
294.945	-10.58
295.16	7.85
295.374	122.54
295.589	138.92
295.804	-43.35
296.018	9.9
296.233	95.91
296.447	40.62
296.662	-63.83
296.877	75.43
297.091	89.77
297.306	77.48
297.52	-33.11
297.735	124.58
297.949	-47.44
298.164	69.29
298.378	11.95
298.593	-61.78
298.807	5.8
299.022	50.86
299.236	93.87
299.451	-37.2
299.665	69.29
299.88	26.28
300.094	130.73
300.309	32.43
300.523	52.91
300.737	42.67
300.952	50.86
301.166	61.1
301.381	-8.53
301.595	-10.58
301.809	3.75
302.024	22.19
302.238	-33.11
302.452	196.26
302.667	116.39
302.881	147.11
303.095	104.11
303.309	52.91
303.524	59.05
303.738	30.38
303.952	24.23
304.166	89.77
304.381	-80.21
304.595	108.2
304.809	-59.73
305.023	57
305.237	77.48
305.452	69.29
305.666	40.62
305.88	54.95
306.094	71.34
306.308	63.15
306.522	122.54
306.736	38.57
306.95	100.01
307.164	-0.34
307.379	48.81
307.593	116.39
307.807	149.16
308.021	3.75
308.235	112.3
308.449	-12.63
308.663	63.15
308.877	241.32
309.091	57
309.305	-2.39
309.519	-78.16
309.733	169.64
309.947	13.99
310.161	63.15
310.374	106.15
310.588	124.58
310.802	1.71
311.016	-6.49
311.23	130.73
311.444	-6.49
311.658	11.95
311.872	149.16
312.085	81.58
312.299	116.39
312.513	124.58
312.727	40.62
312.941	-82.26
313.154	42.67
313.368	69.29
313.582	79.53
313.796	40.62
314.009	50.86
314.223	5.8
314.437	93.87
314.651	122.54
314.864	24.23
315.078	16.04
315.292	-45.4
315.505	-2.39
315.719	97.96
315.933	32.43
316.146	54.95
316.36	-45.4
316.573	177.83
316.787	122.54
317.001	48.81
317.214	9.9
317.428	63.15
317.641	-72.02
317.855	16.04
318.068	-43.35
318.282	40.62
318.495	200.36
318.709	71.34
318.922	42.67
319.136	106.15
319.349	95.91
319.563	-22.87
319.776	63.15
319.99	-72.02
320.203	91.82
320.417	-10.58
320.63	59.05
320.843	175.78
321.057	24.23
321.27	24.23
321.483	63.15
321.697	181.93
321.91	38.57
322.124	81.58
322.337	50.86
322.55	-22.87
322.763	-20.82
322.977	85.67
323.19	73.39
323.403	5.8
323.617	118.44
323.83	145.06
324.043	46.76
324.256	81.58
324.469	-61.78
324.683	54.95
324.896	-47.44
325.109	28.33
325.322	-26.96
325.535	104.11
325.748	63.15
325.962	16.04
326.175	46.76
326.388	95.91
326.601	120.49
326.814	73.39
327.027	71.34
327.24	149.16
327.453	-59.73
327.666	87.72
327.879	149.16
328.092	132.78
328.305	61.1
328.518	20.14
328.731	11.95
328.944	73.39
329.157	75.43
329.37	50.86
329.583	249.51
329.796	124.58
330.009	-43.35
330.222	67.24
330.435	57
330.648	48.81
330.861	57
331.073	42.67
331.286	83.63
331.499	22.19
331.712	-26.96
331.925	71.34
332.138	46.76
332.35	102.06
332.563	3.75
332.776	97.96
332.989	-37.2
333.202	-2.39
333.414	32.43
333.627	26.28
333.84	67.24
334.053	36.52
334.265	-0.34
334.478	-22.87
334.691	-2.39
334.903	100.01
335.116	100.01
335.329	34.47
335.541	79.53
335.754	192.17
335.966	-2.39
336.179	48.81
336.392	3.75
336.604	-26.96
336.817	71.34
337.029	-22.87
337.242	69.29
337.454	140.97
337.667	30.38
337.88	276.13
338.092	134.82
338.305	110.25
338.517	18.09
338.729	65.19
338.942	67.24
339.154	-12.63
339.367	-18.77
339.579	34.47
339.792	-55.64
340.004	126.63
340.217	38.57
340.429	100.01
340.641	-26.96
340.854	1.71
341.066	26.28
341.278	143.02
341.491	114.34
341.703	61.1
341.915	-20.82
342.128	95.91
342.34	5.8
342.552	-59.73
342.764	-8.53
342.977	-31.06
343.189	112.3
343.401	52.91
343.613	-72.02
343.826	-0.34
344.038	-20.82
344.25	42.67
344.462	-41.3
344.674	104.11
344.886	26.28
345.099	59.05
345.311	91.82
345.523	28.33
345.735	-129.36
345.947	57
346.159	11.95
346.371	83.63
346.583	48.81
346.795	153.26
347.007	44.71
347.219	50.86
347.431	34.47
347.643	59.05
347.855	-8.53
348.067	106.15
348.279	-57.68
348.491	54.95
348.703	97.96
348.915	36.52
349.127	18.09
349.339	3.75
349.551	-37.2
349.763	106.15
349.975	87.72
350.187	116.39
350.399	204.46
350.61	30.38
350.822	-18.77
351.034	5.8
351.246	63.15
351.458	97.96
351.669	91.82
351.881	89.77
352.093	159.4
352.305	177.83
352.517	63.15
352.728	130.73
352.94	52.91
353.152	114.34
353.363	52.91
353.575	73.39
353.787	239.27
353.999	3.75
354.21	167.59
354.422	22.19
354.633	-49.49
354.845	44.71
355.057	59.05
355.268	69.29
355.48	89.77
355.692	-4.44
355.903	-18.77
356.115	-8.53
356.326	-92.5
356.538	198.31
356.749	140.97
356.961	134.82
357.172	36.52
357.384	-49.49
357.595	206.5
357.807	-22.87
358.018	-67.92
358.23	11.95
358.441	128.68
358.653	100.01
358.864	100.01
359.075	52.91
359.287	77.48
359.498	134.82
359.709	171.69
359.921	59.05
360.132	87.72
360.344	44.71
360.555	-12.63
360.766	24.23
360.977	-4.44
361.189	59.05
361.4	57
361.611	93.87
361.823	106.15
362.034	24.23
362.245	-53.59
362.456	85.67
362.667	114.34
362.879	7.85
363.09	46.76
363.301	63.15
363.512	18.09
363.723	-22.87
363.935	-41.3
364.146	81.58
364.357	79.53
364.568	44.71
364.779	-135.51
364.99	106.15
365.201	18.09
365.412	149.16
365.623	-4.44
365.834	143.02
366.045	34.47
366.256	79.53
366.467	83.63
366.678	40.62
366.889	100.01
367.1	-6.49
367.311	147.11
367.522	-37.2
367.733	106.15
367.944	77.48
368.155	69.29
368.366	136.87
368.577	50.86
368.788	132.78
368.999	46.76
369.209	9.9
369.42	257.7
369.631	190.12
369.842	81.58
370.053	18.09
370.264	106.15
370.474	-31.06
370.685	28.33
370.896	18.09
371.107	102.06
371.317	79.53
371.528	26.28
371.739	163.5
371.95	63.15
372.16	147.11
372.371	13.99
372.582	-12.63
372.792	67.24
373.003	-12.63
373.214	85.67
373.424	116.39
373.635	-53.59
373.846	95.91
374.056	48.81
374.267	-8.53
374.477	106.15
374.688	24.23
374.898	104.11
375.109	32.43
375.319	114.34
375.53	122.54
375.74	57
375.951	73.39
376.161	42.67
376.372	138.92
376.582	-22.87
376.793	140.97
377.003	-39.25
377.214	5.8
377.424	77.48
377.635	65.19
377.845	61.1
378.055	136.87
378.266	-22.87
378.476	48.81
378.686	54.95
378.897	93.87
379.107	104.11
379.317	73.39
379.528	-37.2
379.738	102.06
379.948	18.09
380.158	89.77
380.369	59.05
380.579	100.01
380.789	95.91
380.999	116.39
381.21	46.76
381.42	161.45
381.63	65.19
381.84	126.63
382.05	108.2
382.261	59.05
382.471	145.06
382.681	3.75
382.891	128.68
383.101	122.54
383.311	22.19
383.521	67.24
383.731	38.57
383.941	95.91
384.151	34.47
384.361	85.67
384.571	181.93
384.781	69.29
384.991	204.46
385.201	122.54
385.411	110.25
385.621	100.01
385.831	112.3
386.041	28.33
386.251	54.95
386.461	188.07
386.671	36.52
386.881	140.97
387.091	-37.2
387.301	118.44
387.511	50.86
387.72	153.26
387.93	52.91
388.14	-24.92
388.35	36.52
388.56	169.64
388.769	143.02
388.979	28.33
389.189	-72.02
389.399	-33.11
389.609	52.91
389.818	71.34
390.028	-22.87
390.238	30.38
390.447	18.09
390.657	75.43
390.867	59.05
391.076	-80.21
391.286	54.95
391.496	16.04
391.705	97.96
391.915	91.82
392.125	128.68
392.334	38.57
392.544	157.35
392.753	75.43
392.963	-47.44
393.172	77.48
393.382	13.99
393.591	169.64
393.801	54.95
394.01	210.6
394.22	116.39
394.429	79.53
394.639	28.33
394.848	87.72
395.058	46.76
395.267	28.33
395.477	128.68
395.686	157.35
395.895	241.32
396.105	231.08
396.314	87.72
396.524	16.04
396.733	-10.58
396.942	65.19
397.152	130.73
397.361	102.06
397.57	81.58
397.78	67.24
397.989	85.67
398.198	153.26
398.407	30.38
398.617	-6.49
398.826	24.23
399.035	5.8
399.244	69.29
399.453	67.24
399.663	42.67
399.872	110.25
400.081	9.9
400.29	147.11
400.499	-31.06
400.708	114.34
400.917	54.95
401.127	48.81
401.336	-29.01
401.545	202.41
401.754	145.06
401.963	93.87
402.172	69.29
402.381	-8.53
402.59	112.3
402.799	36.52
403.008	71.34
403.217	42.67
403.426	46.76
403.635	3.75
403.844	-43.35
404.053	91.82
404.262	73.39
404.471	122.54
404.68	116.39
404.888	22.19
405.097	46.76
405.306	83.63
405.515	104.11
405.724	26.28
405.933	75.43
406.142	73.39
406.35	110.25
406.559	-35.16
406.768	93.87
406.977	153.26
407.185	136.87
407.394	20.14
407.603	20.14
407.812	18.09
408.02	192.17
408.229	81.58
408.438	87.72
408.646	-24.92
408.855	50.86
409.064	34.47
409.272	7.85
409.481	104.11
409.69	-6.49
409.898	18.09
410.107	71.34
410.315	81.58
410.524	77.48
410.733	100.01
410.941	-20.82
411.15	179.88
411.358	122.54
411.567	183.98
411.775	-2.39
411.984	57
412.192	79.53
412.401	54.95
412.609	212.65
412.818	136.87
413.026	52.91
413.234	75.43
413.443	71.34
413.651	18.09
413.86	87.72
414.068	208.55
414.276	161.45
414.485	-22.87
414.693	192.17
414.901	163.5
415.11	95.91
415.318	85.67
415.526	65.19
415.734	36.52
415.943	30.38
416.151	173.74
416.359	130.73
416.567	114.34
416.776	110.25
416.984	157.35
417.192	222.89
417.4	28.33
417.608	34.47
417.817	-31.06
418.025	75.43
418.233	206.5
418.441	18.09
418.649	9.9
418.857	40.62
419.065	124.58
419.273	26.28
419.481	69.29
419.689	54.95
419.897	-10.58
420.105	-12.63
420.313	134.82
420.521	155.3
420.729	186.02
420.937	-16.73
421.145	22.19
421.353	161.45
421.561	124.58
421.769	63.15
421.977	22.19
422.185	93.87
422.393	124.58
422.601	79.53
422.809	71.34
423.017	71.34
423.224	83.63
423.432	132.78
423.64	100.01
423.848	108.2
424.056	-20.82
424.263	83.63
424.471	-24.92
424.679	163.5
424.887	67.24
425.094	165.54
425.302	75.43
425.51	114.34
425.718	104.11
425.925	87.72
426.133	-63.83
426.341	220.84
426.548	130.73
426.756	-2.39
426.964	120.49
427.171	40.62
427.379	75.43
427.586	126.63
427.794	110.25
428.001	179.88
428.209	40.62
428.417	171.69
428.624	112.3
428.832	77.48
429.039	85.67
429.247	26.28
429.454	114.34
429.662	175.78
429.869	165.54
430.076	136.87
430.284	173.74
430.491	163.5
430.699	153.26
430.906	331.43
431.114	138.92
431.321	177.83
431.528	163.5
431.736	155.3
431.943	171.69
432.15	175.78
432.358	177.83
432.565	251.56
432.772	20.14
432.979	235.18
433.187	147.11
433.394	239.27
433.601	110.25
433.808	181.93
434.016	188.07
434.223	245.41
434.43	206.5
434.637	267.94
434.844	265.89
435.052	380.58
435.259	188.07
435.466	263.85
435.673	214.7
435.88	296.61
436.087	380.58
436.294	319.14
436.501	349.86
436.708	214.7
436.915	237.22
437.122	368.29
437.329	290.47
437.537	325.29
437.743	366.25
437.95	458.4
438.157	435.88
438.364	349.86
438.571	401.06
438.778	427.68
438.985	421.54
439.192	528.03
439.399	466.6
439.606	466.6
439.813	495.27
440.02	577.19
440.227	579.23
440.433	583.33
440.64	616.1
440.847	437.92
441.054	556.71
441.261	755.36
441.467	665.25
441.674	620.19
441.881	738.98
442.088	589.47
442.294	734.88
442.501	751.26
442.708	882.33
442.914	786.08
443.121	919.2
443.328	878.24
443.534	1013.4
443.741	931.48
443.948	763.55
444.154	939.68
444.361	1111.71
444.568	1054.36
444.774	1095.32
444.981	1029.79
445.187	1240.73
445.394	1187.48
445.6	1160.86
445.807	1316.5
446.013	1214.1
446.22	1289.88
446.426	1496.72
446.633	1404.57
446.839	1648.27
447.046	1382.04
447.252	1631.89
447.459	1746.58
447.665	1638.03
447.871	1754.77
448.078	1924.75
448.284	1851.02
448.491	2066.06
448.697	2119.31
448.903	2068.11
449.11	2137.74
449.316	2180.75
449.522	2467.46
449.728	2430.6
449.935	2522.76
450.141	2514.56
450.347	2602.63
450.553	2625.15
450.76	2674.31
450.966	3061.37
451.172	3034.75
451.378	3153.53
451.584	3204.73
451.791	3337.85
451.997	3395.19
452.203	3556.98
452.409	3929.71
452.615	3915.37
452.821	3788.4
453.027	3878.51
453.233	4433.51
453.44	4298.35
453.646	4497
453.852	4673.12
454.058	4757.09
454.264	4982.37
454.47	5301.85
454.676	5248.6
454.882	5879.38
455.088	5516.89
455.294	5903.95
455.5	6340.17
455.705	6569.54
455.911	6547.01
456.117	6809.15
456.323	6948.42
456.529	6936.13
456.735	7568.95
456.941	7908.91
457.147	8126
457.352	8314.41
457.558	8615.46
457.764	9158.17
457.97	9176.61
458.176	9666.07
458.381	10335.76
458.587	10214.93
458.793	10796.55
458.999	10747.4
459.204	12312.05
459.41	12787.18
459.616	12434.92
459.821	13098.47
460.027	13688.28
460.233	14294.48
460.438	14419.41
460.644	15259.07
460.85	15365.57
461.055	16229.81
461.261	16776.62
461.466	16448.94
461.672	16666.03
461.878	18834.83
462.083	18662.8
462.289	19166.6
462.494	19533.18
462.7	19967.35
462.905	20252.02
463.111	21865.82
463.316	22717.78
463.522	23266.63
463.727	24071.48
463.932	25058.6
464.138	25668.9
464.343	26838.29
464.549	26531.09
464.754	28749.04
464.959	29441.26
465.165	30074.08
465.37	29834.47
465.575	29480.17
465.781	31939.78
465.986	32767.16
466.191	32658.62
466.397	32787.64
466.602	32097.47
466.807	33584.3
467.012	34581.66
467.218	34663.58
467.423	34839.7
467.628	36222.08
467.833	37680.24
468.038	37346.42
468.244	36895.86
468.449	37960.81
