Data from USB4F104151__201__11-05-32-530.txt Node

Date: Wed Feb 26 11:05:32 EST 2025
User: louis
Spectrometer: USB4F10415
Trigger mode: 4
Integration Time (sec): 1.000000E-1
Scans to average: 1
Electric dark correction enabled: true
Nonlinearity correction enabled: false
Boxcar width: 0
XAxis mode: Wavelengths
Number of Pixels in Spectrum: 3648
>>>>>Begin Spectral Data<<<<<
178.204	-383.31
178.424	-383.31
178.644	-383.31
178.864	-430.41
179.084	-426.32
179.304	-16.73
179.524	-43.35
179.744	-6.49
179.964	87.72
180.184	30.38
180.404	16.04
180.624	-6.49
180.844	-8.53
181.064	-96.6
181.283	1.71
181.503	-47.44
181.723	89.77
181.943	-104.79
182.163	167.59
182.383	-78.16
182.602	65.19
182.822	169.64
183.042	-6.49
183.262	-31.06
183.482	-20.82
183.701	-26.96
183.921	-18.77
184.141	-67.92
184.361	42.67
184.58	30.38
184.8	54.95
185.02	36.52
185.239	73.39
185.459	102.06
185.679	65.19
185.898	-125.27
186.118	50.86
186.338	91.82
186.557	81.58
186.777	-80.21
186.997	36.52
187.216	87.72
187.436	110.25
187.655	34.47
187.875	71.34
188.095	-24.92
188.314	100.01
188.534	112.3
188.753	-49.49
188.973	102.06
189.192	194.22
189.412	9.9
189.631	104.11
189.851	54.95
190.07	110.25
190.29	-51.54
190.509	-35.16
190.729	65.19
190.948	124.58
191.168	165.54
191.387	59.05
191.607	28.33
191.826	65.19
192.045	42.67
192.265	-22.87
192.484	36.52
192.704	13.99
192.923	-88.4
193.142	128.68
193.362	140.97
193.581	104.11
193.8	87.72
194.02	116.39
194.239	11.95
194.458	112.3
194.678	-43.35
194.897	42.67
195.116	28.33
195.335	13.99
195.555	87.72
195.774	-29.01
195.993	38.57
196.212	1.71
196.432	-37.2
196.651	-33.11
196.87	5.8
197.089	259.75
197.308	65.19
197.528	54.95
197.747	-29.01
197.966	57
198.185	61.1
198.404	-55.64
198.623	110.25
198.842	106.15
199.062	40.62
199.281	54.95
199.5	50.86
199.719	52.91
199.938	83.63
200.157	5.8
200.376	89.77
200.595	149.16
200.814	13.99
201.033	16.04
201.252	175.78
201.471	83.63
201.69	69.29
201.909	48.81
202.128	128.68
202.347	91.82
202.566	28.33
202.785	-61.78
203.004	-74.07
203.223	298.66
203.442	3.75
203.661	-35.16
203.879	132.78
204.098	54.95
204.317	-59.73
204.536	100.01
204.755	120.49
204.974	63.15
205.193	-55.64
205.411	54.95
205.63	169.64
205.849	38.57
206.068	24.23
206.287	1.71
206.505	159.4
206.724	32.43
206.943	-16.73
207.162	-0.34
207.381	120.49
207.599	54.95
207.818	40.62
208.037	-47.44
208.255	-2.39
208.474	95.91
208.693	-4.44
208.911	-6.49
209.13	18.09
209.349	79.53
209.567	81.58
209.786	112.3
210.005	106.15
210.223	112.3
210.442	-102.74
210.661	-65.88
210.879	77.48
211.098	-33.11
211.316	69.29
211.535	63.15
211.753	-18.77
211.972	59.05
212.191	22.19
212.409	5.8
212.628	130.73
212.846	-51.54
213.065	-4.44
213.283	110.25
213.502	44.71
213.72	44.71
213.938	83.63
214.157	-14.68
214.375	132.78
214.594	46.76
214.812	77.48
215.031	-35.16
215.249	-14.68
215.467	-47.44
215.686	44.71
215.904	124.58
216.122	-37.2
216.341	181.93
216.559	-6.49
216.778	52.91
216.996	81.58
217.214	22.19
217.432	-2.39
217.651	-53.59
217.869	63.15
218.087	73.39
218.306	-65.88
218.524	9.9
218.742	46.76
218.96	132.78
219.179	18.09
219.397	28.33
219.615	222.89
219.833	157.35
220.051	-104.79
220.27	63.15
220.488	100.01
220.706	100.01
220.924	11.95
221.142	9.9
221.36	91.82
221.578	30.38
221.796	-10.58
222.015	79.53
222.233	26.28
222.451	171.69
222.669	22.19
222.887	73.39
223.105	18.09
223.323	36.52
223.541	-63.83
223.759	87.72
223.977	32.43
224.195	155.3
224.413	100.01
224.631	46.76
224.849	87.72
225.067	183.98
225.285	-12.63
225.503	-76.12
225.721	-96.6
225.939	75.43
226.157	95.91
226.375	165.54
226.592	46.76
226.81	-4.44
227.028	79.53
227.246	153.26
227.464	44.71
227.682	71.34
227.9	-0.34
228.117	26.28
228.335	65.19
228.553	26.28
228.771	50.86
228.989	-2.39
229.206	75.43
229.424	40.62
229.642	-12.63
229.86	46.76
230.077	134.82
230.295	-14.68
230.513	130.73
230.731	26.28
230.948	118.44
231.166	173.74
231.384	-10.58
231.601	-69.97
231.819	165.54
232.037	-26.96
232.254	5.8
232.472	20.14
232.689	1.71
232.907	140.97
233.125	16.04
233.342	-57.68
233.56	-24.92
233.777	-49.49
233.995	11.95
234.213	95.91
234.43	59.05
234.648	7.85
234.865	81.58
235.083	81.58
235.3	63.15
235.518	128.68
235.735	175.78
235.953	173.74
236.17	85.67
236.388	-16.73
236.605	28.33
236.822	161.45
237.04	116.39
237.257	57
237.475	-63.83
237.692	110.25
237.909	118.44
238.127	-4.44
238.344	75.43
238.562	104.11
238.779	-10.58
238.996	-106.84
239.214	48.81
239.431	54.95
239.648	30.38
239.865	157.35
240.083	95.91
240.3	9.9
240.517	-72.02
240.735	-6.49
240.952	116.39
241.169	52.91
241.386	30.38
241.603	83.63
241.821	-37.2
242.038	-4.44
242.255	83.63
242.472	9.9
242.689	147.11
242.907	18.09
243.124	50.86
243.341	61.1
243.558	-43.35
243.775	-26.96
243.992	-59.73
244.209	83.63
244.426	165.54
244.643	75.43
244.86	-10.58
245.078	136.87
245.295	97.96
245.512	-41.3
245.729	-31.06
245.946	73.39
246.163	46.76
246.38	42.67
246.597	95.91
246.814	71.34
247.031	9.9
247.248	7.85
247.464	93.87
247.681	-35.16
247.898	59.05
248.115	54.95
248.332	-37.2
248.549	97.96
248.766	93.87
248.983	85.67
249.2	124.58
249.417	44.71
249.633	-67.92
249.85	104.11
250.067	89.77
250.284	104.11
250.501	79.53
250.717	106.15
250.934	-72.02
251.151	85.67
251.368	13.99
251.585	108.2
251.801	-20.82
252.018	-65.88
252.235	81.58
252.451	-115.03
252.668	50.86
252.885	69.29
253.102	63.15
253.318	32.43
253.535	-35.16
253.752	-33.11
253.968	50.86
254.185	-119.12
254.401	54.95
254.618	79.53
254.835	-8.53
255.051	116.39
255.268	44.71
255.484	40.62
255.701	24.23
255.917	42.67
256.134	-49.49
256.351	89.77
256.567	-45.4
256.784	36.52
257	-2.39
257.217	85.67
257.433	104.11
257.65	-14.68
257.866	57
258.082	-26.96
258.299	-10.58
258.515	42.67
258.732	-6.49
258.948	-108.88
259.165	30.38
259.381	-12.63
259.597	126.63
259.814	36.52
260.03	38.57
260.246	-41.3
260.463	73.39
260.679	65.19
260.895	46.76
261.112	112.3
261.328	34.47
261.544	36.52
261.761	147.11
261.977	-8.53
262.193	-2.39
262.409	110.25
262.626	79.53
262.842	-0.34
263.058	-24.92
263.274	65.19
263.49	-26.96
263.707	108.2
263.923	63.15
264.139	7.85
264.355	36.52
264.571	102.06
264.787	83.63
265.004	151.21
265.22	28.33
265.436	-43.35
265.652	-39.25
265.868	38.57
266.084	-29.01
266.3	20.14
266.516	-74.07
266.732	110.25
266.948	1.71
267.164	18.09
267.38	28.33
267.596	102.06
267.812	114.34
268.028	40.62
268.244	-35.16
268.46	44.71
268.676	-65.88
268.892	-8.53
269.108	-47.44
269.324	-18.77
269.54	-84.31
269.756	93.87
269.972	-39.25
270.188	73.39
270.403	-63.83
270.619	5.8
270.835	161.45
271.051	42.67
271.267	-10.58
271.483	7.85
271.698	42.67
271.914	71.34
272.13	-8.53
272.346	81.58
272.562	16.04
272.777	102.06
272.993	-67.92
273.209	-86.36
273.425	-10.58
273.64	-139.6
273.856	42.67
274.072	-14.68
274.287	-10.58
274.503	116.39
274.719	30.38
274.934	95.91
275.15	9.9
275.366	63.15
275.581	-78.16
275.797	7.85
276.012	-18.77
276.228	13.99
276.444	16.04
276.659	13.99
276.875	-51.54
277.09	-16.73
277.306	7.85
277.521	13.99
277.737	59.05
277.952	16.04
278.168	48.81
278.383	40.62
278.599	65.19
278.814	50.86
279.03	-41.3
279.245	163.5
279.461	36.52
279.676	108.2
279.892	-6.49
280.107	16.04
280.322	57
280.538	42.67
280.753	20.14
280.969	-20.82
281.184	48.81
281.399	136.87
281.615	81.58
281.83	71.34
282.045	-2.39
282.26	9.9
282.476	63.15
282.691	11.95
282.906	26.28
283.122	65.19
283.337	5.8
283.552	5.8
283.767	-4.44
283.983	79.53
284.198	-10.58
284.413	124.58
284.628	-82.26
284.843	40.62
285.058	-8.53
285.274	38.57
285.489	-8.53
285.704	85.67
285.919	-119.12
286.134	22.19
286.349	65.19
286.564	5.8
286.779	147.11
286.995	42.67
287.21	-84.31
287.425	79.53
287.64	-16.73
287.855	-26.96
288.07	-47.44
288.285	81.58
288.5	143.02
288.715	75.43
288.93	-14.68
289.145	57
289.36	63.15
289.575	46.76
289.79	132.78
290.004	59.05
290.219	132.78
290.434	-33.11
290.649	5.8
290.864	-14.68
291.079	-6.49
291.294	93.87
291.509	75.43
291.724	1.71
291.938	-6.49
292.153	63.15
292.368	-22.87
292.583	69.29
292.798	-14.68
293.012	50.86
293.227	79.53
293.442	42.67
293.657	147.11
293.871	73.39
294.086	38.57
294.301	186.02
294.516	122.54
294.73	-78.16
294.945	-47.44
295.16	20.14
295.374	81.58
295.589	149.16
295.804	-2.39
296.018	50.86
296.233	132.78
296.447	106.15
296.662	5.8
296.877	143.02
297.091	147.11
297.306	46.76
297.52	36.52
297.735	7.85
297.949	100.01
298.164	22.19
298.378	91.82
298.593	-2.39
298.807	-43.35
299.022	100.01
299.236	140.97
299.451	24.23
299.665	-10.58
299.88	-0.34
300.094	44.71
300.309	48.81
300.523	63.15
300.737	30.38
300.952	50.86
301.166	126.63
301.381	18.09
301.595	69.29
301.809	-12.63
302.024	54.95
302.238	-22.87
302.452	155.3
302.667	20.14
302.881	192.17
303.095	54.95
303.309	132.78
303.524	-31.06
303.738	85.67
303.952	44.71
304.166	61.1
304.381	-100.69
304.595	136.87
304.809	-72.02
305.023	61.1
305.237	-16.73
305.452	-10.58
305.666	102.06
305.88	52.91
306.094	81.58
306.308	38.57
306.522	100.01
306.736	-20.82
306.95	89.77
307.164	40.62
307.379	36.52
307.593	179.88
307.807	114.34
308.021	124.58
308.235	18.09
308.449	-33.11
308.663	20.14
308.877	247.46
309.091	34.47
309.305	71.34
309.519	-57.68
309.733	102.06
309.947	-57.68
310.161	83.63
310.374	118.44
310.588	167.59
310.802	-26.96
311.016	16.04
311.23	95.91
311.444	-26.96
311.658	52.91
311.872	128.68
312.085	140.97
312.299	136.87
312.513	159.4
312.727	-41.3
312.941	-37.2
313.154	75.43
313.368	26.28
313.582	20.14
313.796	91.82
314.009	-10.58
314.223	95.91
314.437	20.14
314.651	138.92
314.864	20.14
315.078	-16.73
315.292	-43.35
315.505	22.19
315.719	38.57
315.933	42.67
316.146	-20.82
316.36	-31.06
316.573	83.63
316.787	48.81
317.001	91.82
317.214	20.14
317.428	85.67
317.641	-59.73
317.855	-63.83
318.068	106.15
318.282	36.52
318.495	77.48
318.709	165.54
318.922	42.67
319.136	112.3
319.349	44.71
319.563	-29.01
319.776	77.48
319.99	-98.64
320.203	54.95
320.417	-43.35
320.63	59.05
320.843	120.49
321.057	130.73
321.27	-12.63
321.483	91.82
321.697	126.63
321.91	20.14
322.124	106.15
322.337	79.53
322.55	-29.01
322.763	11.95
322.977	9.9
323.19	-63.83
323.403	32.43
323.617	67.24
323.83	95.91
324.043	-29.01
324.256	36.52
324.469	-59.73
324.683	124.58
324.896	7.85
325.109	54.95
325.322	-90.45
325.535	61.1
325.748	34.47
325.962	9.9
326.175	34.47
326.388	-20.82
326.601	143.02
326.814	-33.11
327.027	5.8
327.24	106.15
327.453	-94.55
327.666	63.15
327.879	95.91
328.092	73.39
328.305	34.47
328.518	-37.2
328.731	-2.39
328.944	5.8
329.157	77.48
329.37	52.91
329.583	181.93
329.796	83.63
330.009	-51.54
330.222	106.15
330.435	77.48
330.648	52.91
330.861	-2.39
331.073	81.58
331.286	83.63
331.499	-51.54
331.712	61.1
331.925	5.8
332.138	11.95
332.35	89.77
332.563	-2.39
332.776	188.07
332.989	-57.68
333.202	61.1
333.414	26.28
333.627	-2.39
333.84	-31.06
334.053	13.99
334.265	-6.49
334.478	-33.11
334.691	91.82
334.903	61.1
335.116	-12.63
335.329	-22.87
335.541	75.43
335.754	194.22
335.966	16.04
336.179	-45.4
336.392	16.04
336.604	73.39
336.817	122.54
337.029	38.57
337.242	5.8
337.454	83.63
337.667	44.71
337.88	186.02
338.092	69.29
338.305	32.43
338.517	-41.3
338.729	42.67
338.942	126.63
339.154	-65.88
339.367	-65.88
339.579	100.01
339.792	-31.06
340.004	102.06
340.217	38.57
340.429	63.15
340.641	-22.87
340.854	-20.82
341.066	40.62
341.278	188.07
341.491	122.54
341.703	13.99
341.915	32.43
342.128	65.19
342.34	1.71
342.552	-110.93
342.764	52.91
342.977	18.09
343.189	81.58
343.401	61.1
343.613	-55.64
343.826	75.43
344.038	-33.11
344.25	52.91
344.462	-47.44
344.674	67.24
344.886	-24.92
345.099	65.19
345.311	69.29
345.523	42.67
345.735	-53.59
345.947	52.91
346.159	16.04
346.371	3.75
346.583	-4.44
346.795	186.02
347.007	-26.96
347.219	-37.2
347.431	128.68
347.643	46.76
347.855	-45.4
348.067	89.77
348.279	-94.55
348.491	91.82
348.703	122.54
348.915	79.53
349.127	-39.25
349.339	89.77
349.551	-39.25
349.763	81.58
349.975	-31.06
350.187	46.76
350.399	157.35
350.61	69.29
350.822	5.8
351.034	52.91
351.246	71.34
351.458	106.15
351.669	77.48
351.881	122.54
352.093	177.83
352.305	124.58
352.517	32.43
352.728	85.67
352.94	11.95
353.152	5.8
353.363	34.47
353.575	73.39
353.787	220.84
353.999	63.15
354.21	134.82
354.422	-20.82
354.633	22.19
354.845	54.95
355.057	40.62
355.268	65.19
355.48	63.15
355.692	-72.02
355.903	73.39
356.115	7.85
356.326	-112.98
356.538	112.3
356.749	63.15
356.961	97.96
357.172	61.1
357.384	-37.2
357.595	179.88
357.807	20.14
358.018	-49.49
358.23	46.76
358.441	161.45
358.653	20.14
358.864	48.81
359.075	26.28
359.287	54.95
359.498	57
359.709	16.04
359.921	1.71
360.132	79.53
360.344	75.43
360.555	-35.16
360.766	-29.01
360.977	-0.34
361.189	110.25
361.4	-90.45
361.611	75.43
361.823	106.15
362.034	57
362.245	-29.01
362.456	54.95
362.667	79.53
362.879	-78.16
363.09	46.76
363.301	1.71
363.512	36.52
363.723	48.81
363.935	63.15
364.146	153.26
364.357	69.29
364.568	52.91
364.779	-8.53
364.99	65.19
365.201	3.75
365.412	52.91
365.623	-123.22
365.834	79.53
366.045	48.81
366.256	85.67
366.467	87.72
366.678	48.81
366.889	97.96
367.1	36.52
367.311	18.09
367.522	38.57
367.733	30.38
367.944	36.52
368.155	30.38
368.366	116.39
368.577	110.25
368.788	59.05
368.999	-8.53
369.209	-47.44
369.42	224.94
369.631	151.21
369.842	91.82
370.053	20.14
370.264	59.05
370.474	-2.39
370.685	106.15
370.896	-0.34
371.107	114.34
371.317	48.81
371.528	-16.73
371.739	79.53
371.95	93.87
372.16	7.85
372.371	-47.44
372.582	5.8
372.792	120.49
373.003	65.19
373.214	50.86
373.424	69.29
373.635	-76.12
373.846	67.24
374.056	-0.34
374.267	112.3
374.477	44.71
374.688	-12.63
374.898	20.14
375.109	-14.68
375.319	13.99
375.53	93.87
375.74	128.68
375.951	20.14
376.161	100.01
376.372	65.19
376.582	-35.16
376.793	20.14
377.003	-8.53
377.214	5.8
377.424	-0.34
377.635	87.72
377.845	30.38
378.055	26.28
378.266	-86.36
378.476	18.09
378.686	85.67
378.897	71.34
379.107	116.39
379.317	48.81
379.528	-6.49
379.738	67.24
379.948	52.91
380.158	140.97
380.369	54.95
380.579	85.67
380.789	-41.3
380.999	128.68
381.21	114.34
381.42	183.98
381.63	7.85
381.84	46.76
382.05	130.73
382.261	50.86
382.471	165.54
382.681	20.14
382.891	110.25
383.101	30.38
383.311	-67.92
383.521	-8.53
383.731	95.91
383.941	104.11
384.151	38.57
384.361	71.34
384.571	75.43
384.781	44.71
384.991	245.41
385.201	155.3
385.411	22.19
385.621	122.54
385.831	-35.16
386.041	-45.4
386.251	-2.39
386.461	54.95
386.671	38.57
386.881	9.9
387.091	57
387.301	81.58
387.511	85.67
387.72	59.05
387.93	161.45
388.14	-37.2
388.35	46.76
388.56	116.39
388.769	116.39
388.979	77.48
389.189	-84.31
389.399	87.72
389.609	75.43
389.818	97.96
390.028	34.47
390.238	136.87
390.447	24.23
390.657	134.82
390.867	26.28
391.076	-39.25
391.286	65.19
391.496	100.01
391.705	13.99
391.915	155.3
392.125	106.15
392.334	38.57
392.544	165.54
392.753	61.1
392.963	-41.3
393.172	40.62
393.382	57
393.591	198.31
393.801	24.23
394.01	183.98
394.22	54.95
394.429	22.19
394.639	75.43
394.848	83.63
395.058	44.71
395.267	-12.63
395.477	124.58
395.686	26.28
395.895	155.3
396.105	175.78
396.314	38.57
396.524	97.96
396.733	52.91
396.942	54.95
397.152	87.72
397.361	108.2
397.57	114.34
397.78	16.04
397.989	210.6
398.198	247.46
398.407	52.91
398.617	5.8
398.826	65.19
399.035	-14.68
399.244	81.58
399.453	61.1
399.663	40.62
399.872	28.33
400.081	-53.59
400.29	138.92
400.499	-0.34
400.708	38.57
400.917	32.43
401.127	1.71
401.336	-16.73
401.545	229.03
401.754	116.39
401.963	126.63
402.172	7.85
402.381	-80.21
402.59	67.24
402.799	26.28
403.008	83.63
403.217	50.86
403.426	81.58
403.635	-31.06
403.844	-0.34
404.053	-43.35
404.262	-67.92
404.471	155.3
404.68	71.34
404.888	32.43
405.097	67.24
405.306	128.68
405.515	79.53
405.724	52.91
405.933	97.96
406.142	81.58
406.35	85.67
406.559	89.77
406.768	93.87
406.977	130.73
407.185	93.87
407.394	69.29
407.603	-82.26
407.812	85.67
408.02	50.86
408.229	18.09
408.438	75.43
408.646	-20.82
408.855	-0.34
409.064	65.19
409.272	-24.92
409.481	83.63
409.69	-26.96
409.898	9.9
410.107	3.75
410.315	36.52
410.524	-63.83
410.733	30.38
410.941	67.24
411.15	171.69
411.358	87.72
411.567	231.08
411.775	46.76
411.984	71.34
412.192	38.57
412.401	40.62
412.609	143.02
412.818	143.02
413.026	100.01
413.234	50.86
413.443	61.1
413.651	-41.3
413.86	18.09
414.068	108.2
414.276	155.3
414.485	50.86
414.693	157.35
414.901	190.12
415.11	89.77
415.318	54.95
415.526	34.47
415.734	132.78
415.943	-35.16
416.151	159.4
416.359	16.04
416.567	161.45
416.776	79.53
416.984	65.19
417.192	118.44
417.4	7.85
417.608	-26.96
417.817	-10.58
418.025	48.81
418.233	208.55
418.441	-24.92
418.649	-67.92
418.857	67.24
419.065	224.94
419.273	38.57
419.481	63.15
419.689	-26.96
419.897	57
420.105	-78.16
420.313	73.39
420.521	73.39
420.729	102.06
420.937	108.2
421.145	-4.44
421.353	65.19
421.561	149.16
421.769	-16.73
421.977	-16.73
422.185	151.21
422.393	-4.44
422.601	128.68
422.809	75.43
423.017	11.95
423.224	75.43
423.432	169.64
423.64	32.43
423.848	134.82
424.056	-45.4
424.263	132.78
424.471	-18.77
424.679	196.26
424.887	-18.77
425.094	108.2
425.302	110.25
425.51	75.43
425.718	163.5
425.925	54.95
426.133	32.43
426.341	165.54
426.548	30.38
426.756	114.34
426.964	132.78
427.171	-33.11
427.379	83.63
427.586	118.44
427.794	93.87
428.001	81.58
428.209	132.78
428.417	163.5
428.624	220.84
428.832	104.11
429.039	165.54
429.247	145.06
429.454	110.25
429.662	130.73
429.869	214.7
430.076	89.77
430.284	153.26
430.491	239.27
430.699	163.5
430.906	233.13
431.114	214.7
431.321	237.22
431.528	143.02
431.736	216.74
431.943	147.11
432.15	159.4
432.358	194.22
432.565	194.22
432.772	26.28
432.979	237.22
433.187	138.92
433.394	245.41
433.601	116.39
433.808	192.17
434.016	253.61
434.223	210.6
434.43	247.46
434.637	292.52
434.844	317.09
435.052	220.84
435.259	259.75
435.466	296.61
435.673	267.94
435.88	272.04
436.087	358.05
436.294	315.05
436.501	278.18
436.708	304.81
436.915	323.24
437.122	351.91
437.329	349.86
437.537	245.41
437.743	267.94
437.95	394.92
438.157	366.25
438.364	376.48
438.571	384.68
438.778	499.36
438.985	442.02
439.192	384.68
439.399	417.44
439.606	462.5
439.813	587.43
440.02	593.57
440.227	693.92
440.433	525.99
440.64	497.32
440.847	458.4
441.054	640.67
441.261	685.73
441.467	667.3
441.674	661.15
441.881	792.22
442.088	708.26
442.294	863.9
442.501	741.02
442.708	949.92
442.914	810.65
443.121	874.14
443.328	906.91
443.534	937.63
443.741	796.32
443.948	847.52
444.154	1001.12
444.361	1261.21
444.568	1097.37
444.774	1060.51
444.981	1083.03
445.187	1244.82
445.394	1248.92
445.6	1144.47
445.807	1408.66
446.013	1293.97
446.22	1273.5
446.426	1484.44
446.633	1578.64
446.839	1654.42
447.046	1543.83
447.252	1969.8
447.459	1740.43
447.665	1744.53
447.871	1851.02
448.078	2000.52
448.284	2004.62
448.491	2156.17
448.697	2145.93
448.903	2393.73
449.11	2391.69
449.316	2258.57
449.522	2475.65
449.728	2690.69
449.935	2709.12
450.141	2621.06
450.347	2817.66
450.553	2918.01
450.76	2973.31
450.966	3102.33
451.172	3190.39
451.378	3292.79
451.584	3276.41
451.791	3599.99
451.997	3726.96
452.203	3599.99
452.409	3958.38
452.615	4101.74
452.821	4044.4
453.027	4105.84
453.233	4445.8
453.44	4398.7
453.646	4687.46
453.852	4968.03
454.058	5148.25
454.264	5262.94
454.47	5715.54
454.676	5443.16
454.882	6301.26
455.088	5934.67
455.294	6205
455.5	6682.18
455.705	6768.2
455.911	7140.93
456.117	6995.52
456.323	7487.03
456.529	7351.87
456.735	8064.56
456.941	8224.3
457.147	8769.06
457.352	9074.21
457.558	9016.87
457.764	9672.22
457.97	10042.9
458.176	10161.68
458.381	10886.66
458.587	11095.55
458.793	11593.21
458.999	11437.56
459.204	13047.27
459.41	13471.2
459.616	13231.58
459.821	14046.68
460.027	14556.62
460.233	15291.84
460.438	15519.17
460.644	16121.27
460.85	16444.85
461.055	17135.01
461.261	17841.56
461.466	17560.99
461.672	17685.92
461.878	20194.68
462.083	19762.56
462.289	20086.14
462.494	21034.35
462.7	20817.26
462.905	21171.56
463.111	23002.44
463.316	24452.41
463.522	24509.75
463.727	25472.29
463.932	26961.17
464.138	27264.27
464.343	28382.46
464.549	28527.86
464.754	30401.75
464.959	31118.54
465.165	31843.52
465.37	31630.54
465.575	31470.79
465.781	33778.86
465.986	34710.68
466.191	34026.66
466.397	34577.56
466.602	33862.82
466.807	35589.26
467.012	36269.19
467.218	36877.43
467.423	36838.52
467.628	37674.09
467.833	39709.77
468.038	38784.09
468.244	38480.99
468.449	40281.16
