Data from USB4F104151__155__11-04-32-032.txt Node

Date: Wed Feb 26 11:04:32 EST 2025
User: louis
Spectrometer: USB4F10415
Trigger mode: 4
Integration Time (sec): 1.000000E-1
Scans to average: 1
Electric dark correction enabled: true
Nonlinearity correction enabled: false
Boxcar width: 0
XAxis mode: Wavelengths
Number of Pixels in Spectrum: 3648
>>>>>Begin Spectral Data<<<<<
178.204	-360.78
178.424	-360.78
178.644	-360.78
178.864	-438.61
179.084	-391.5
179.304	-8.53
179.524	-0.34
179.744	-31.06
179.964	13.99
180.184	54.95
180.404	46.76
180.624	7.85
180.844	-12.63
181.064	-65.88
181.283	30.38
181.503	-18.77
181.723	-16.73
181.943	-137.56
182.163	190.12
182.383	-63.83
182.602	67.24
182.822	46.76
183.042	-2.39
183.262	-45.4
183.482	26.28
183.701	24.23
183.921	73.39
184.141	-35.16
184.361	93.87
184.58	48.81
184.8	138.92
185.02	-33.11
185.239	102.06
185.459	61.1
185.679	126.63
185.898	-94.55
186.118	89.77
186.338	54.95
186.557	118.44
186.777	-29.01
186.997	-6.49
187.216	46.76
187.436	210.6
187.655	167.59
187.875	87.72
188.095	16.04
188.314	132.78
188.534	175.78
188.753	-80.21
188.973	171.69
189.192	145.06
189.412	34.47
189.631	5.8
189.851	110.25
190.07	231.08
190.29	-84.31
190.509	-24.92
190.729	65.19
190.948	140.97
191.168	173.74
191.387	-2.39
191.607	22.19
191.826	83.63
192.045	3.75
192.265	59.05
192.484	104.11
192.704	28.33
192.923	-69.97
193.142	114.34
193.362	102.06
193.581	192.17
193.8	40.62
194.02	44.71
194.239	3.75
194.458	77.48
194.678	38.57
194.897	-18.77
195.116	34.47
195.335	50.86
195.555	54.95
195.774	-61.78
195.993	183.98
196.212	-31.06
196.432	-16.73
196.651	-18.77
196.87	69.29
197.089	186.02
197.308	42.67
197.528	32.43
197.747	-26.96
197.966	28.33
198.185	161.45
198.404	-41.3
198.623	71.34
198.842	83.63
199.062	77.48
199.281	50.86
199.5	26.28
199.719	57
199.938	126.63
200.157	85.67
200.376	100.01
200.595	145.06
200.814	24.23
201.033	-10.58
201.252	151.21
201.471	52.91
201.69	16.04
201.909	63.15
202.128	128.68
202.347	106.15
202.566	26.28
202.785	-47.44
203.004	-26.96
203.223	165.54
203.442	71.34
203.661	3.75
203.879	108.2
204.098	120.49
204.317	-12.63
204.536	112.3
204.755	67.24
204.974	140.97
205.193	46.76
205.411	132.78
205.63	102.06
205.849	175.78
206.068	40.62
206.287	7.85
206.505	169.64
206.724	11.95
206.943	36.52
207.162	54.95
207.381	132.78
207.599	42.67
207.818	63.15
208.037	-43.35
208.255	50.86
208.474	42.67
208.693	112.3
208.911	79.53
209.13	140.97
209.349	79.53
209.567	63.15
209.786	102.06
210.005	122.54
210.223	67.24
210.442	-131.41
210.661	-24.92
210.879	75.43
211.098	22.19
211.316	18.09
211.535	138.92
211.753	67.24
211.972	61.1
212.191	63.15
212.409	-37.2
212.628	79.53
212.846	-6.49
213.065	59.05
213.283	130.73
213.502	-12.63
213.72	42.67
213.938	-22.87
214.157	7.85
214.375	114.34
214.594	9.9
214.812	110.25
215.031	-6.49
215.249	1.71
215.467	122.54
215.686	44.71
215.904	112.3
216.122	44.71
216.341	175.78
216.559	59.05
216.778	38.57
216.996	124.58
217.214	16.04
217.432	-10.58
217.651	-16.73
217.869	30.38
218.087	75.43
218.306	-26.96
218.524	32.43
218.742	-37.2
218.96	175.78
219.179	42.67
219.397	65.19
219.615	304.81
219.833	97.96
220.051	30.38
220.27	145.06
220.488	71.34
220.706	42.67
220.924	-31.06
221.142	36.52
221.36	81.58
221.578	212.65
221.796	24.23
222.015	18.09
222.233	11.95
222.451	128.68
222.669	-39.25
222.887	128.68
223.105	-61.78
223.323	104.11
223.541	20.14
223.759	-22.87
223.977	93.87
224.195	112.3
224.413	83.63
224.631	63.15
224.849	46.76
225.067	161.45
225.285	-55.64
225.503	13.99
225.721	-110.93
225.939	34.47
226.157	63.15
226.375	233.13
226.592	-78.16
226.81	16.04
227.028	97.96
227.246	93.87
227.464	104.11
227.682	140.97
227.9	36.52
228.117	52.91
228.335	63.15
228.553	-47.44
228.771	38.57
228.989	110.25
229.206	52.91
229.424	13.99
229.642	-33.11
229.86	-12.63
230.077	108.2
230.295	36.52
230.513	186.02
230.731	71.34
230.948	226.98
231.166	204.46
231.384	11.95
231.601	9.9
231.819	183.98
232.037	30.38
232.254	-63.83
232.472	102.06
232.689	73.39
232.907	77.48
233.125	48.81
233.342	-100.69
233.56	-69.97
233.777	87.72
233.995	-14.68
234.213	89.77
234.43	9.9
234.648	30.38
234.865	65.19
235.083	50.86
235.3	42.67
235.518	63.15
235.735	130.73
235.953	169.64
236.17	57
236.388	63.15
236.605	71.34
236.822	81.58
237.04	116.39
237.257	7.85
237.475	-22.87
237.692	102.06
237.909	95.91
238.127	-43.35
238.344	110.25
238.562	75.43
238.779	-86.36
238.996	-35.16
239.214	85.67
239.431	52.91
239.648	69.29
239.865	128.68
240.083	93.87
240.3	81.58
240.517	61.1
240.735	85.67
240.952	181.93
241.169	52.91
241.386	93.87
241.603	-37.2
241.821	-31.06
242.038	110.25
242.255	138.92
242.472	18.09
242.689	65.19
242.907	87.72
243.124	5.8
243.341	73.39
243.558	-10.58
243.775	-0.34
243.992	-55.64
244.209	104.11
244.426	198.31
244.643	116.39
244.86	26.28
245.078	9.9
245.295	22.19
245.512	-26.96
245.729	-0.34
245.946	100.01
246.163	54.95
246.38	40.62
246.597	77.48
246.814	52.91
247.031	54.95
247.248	40.62
247.464	79.53
247.681	48.81
247.898	52.91
248.115	48.81
248.332	20.14
248.549	134.82
248.766	153.26
248.983	63.15
249.2	136.87
249.417	138.92
249.633	57
249.85	28.33
250.067	54.95
250.284	69.29
250.501	48.81
250.717	114.34
250.934	-47.44
251.151	34.47
251.368	108.2
251.585	7.85
251.801	-12.63
252.018	-10.58
252.235	-18.77
252.451	-53.59
252.668	20.14
252.885	173.74
253.102	132.78
253.318	26.28
253.535	59.05
253.752	-35.16
253.968	67.24
254.185	16.04
254.401	3.75
254.618	59.05
254.835	-10.58
255.051	110.25
255.268	42.67
255.484	69.29
255.701	22.19
255.917	153.26
256.134	-2.39
256.351	20.14
256.567	-22.87
256.784	79.53
257	-0.34
257.217	122.54
257.433	54.95
257.65	54.95
257.866	153.26
258.082	-14.68
258.299	-2.39
258.515	9.9
258.732	-37.2
258.948	75.43
259.165	50.86
259.381	-29.01
259.597	89.77
259.814	110.25
260.03	-16.73
260.246	7.85
260.463	161.45
260.679	140.97
260.895	42.67
261.112	91.82
261.328	-12.63
261.544	46.76
261.761	140.97
261.977	-67.92
262.193	-10.58
262.409	75.43
262.626	91.82
262.842	42.67
263.058	3.75
263.274	126.63
263.49	100.01
263.707	163.5
263.923	104.11
264.139	-31.06
264.355	63.15
264.571	42.67
264.787	120.49
265.004	71.34
265.22	11.95
265.436	-94.55
265.652	24.23
265.868	132.78
266.084	-31.06
266.3	5.8
266.516	20.14
266.732	128.68
266.948	79.53
267.164	48.81
267.38	102.06
267.596	122.54
267.812	173.74
268.028	91.82
268.244	-2.39
268.46	89.77
268.676	-20.82
268.892	69.29
269.108	34.47
269.324	54.95
269.54	38.57
269.756	130.73
269.972	-47.44
270.188	63.15
270.403	-22.87
270.619	59.05
270.835	233.13
271.051	7.85
271.267	22.19
271.483	-37.2
271.698	122.54
271.914	73.39
272.13	9.9
272.346	-10.58
272.562	114.34
272.777	134.82
272.993	89.77
273.209	-59.73
273.425	89.77
273.64	-37.2
273.856	138.92
274.072	-2.39
274.287	-35.16
274.503	134.82
274.719	128.68
274.934	-45.4
275.15	-45.4
275.366	97.96
275.581	-49.49
275.797	93.87
276.012	95.91
276.228	-2.39
276.444	65.19
276.659	104.11
276.875	-8.53
277.09	22.19
277.306	-35.16
277.521	87.72
277.737	16.04
277.952	36.52
278.168	52.91
278.383	30.38
278.599	79.53
278.814	46.76
279.03	102.06
279.245	126.63
279.461	71.34
279.676	155.3
279.892	-20.82
280.107	-33.11
280.322	-59.73
280.538	44.71
280.753	32.43
280.969	34.47
281.184	77.48
281.399	73.39
281.615	134.82
281.83	132.78
282.045	-51.54
282.26	38.57
282.476	22.19
282.691	102.06
282.906	67.24
283.122	79.53
283.337	-31.06
283.552	30.38
283.767	91.82
283.983	57
284.198	46.76
284.413	77.48
284.628	-33.11
284.843	13.99
285.058	116.39
285.274	34.47
285.489	32.43
285.704	52.91
285.919	-39.25
286.134	-0.34
286.349	73.39
286.564	-0.34
286.779	130.73
286.995	9.9
287.21	-24.92
287.425	116.39
287.64	50.86
287.855	52.91
288.07	-18.77
288.285	181.93
288.5	83.63
288.715	69.29
288.93	136.87
289.145	-4.44
289.36	114.34
289.575	-84.31
289.79	145.06
290.004	30.38
290.219	175.78
290.434	-84.31
290.649	-4.44
290.864	-6.49
291.079	83.63
291.294	13.99
291.509	100.01
291.724	-20.82
291.938	85.67
292.153	22.19
292.368	16.04
292.583	40.62
292.798	143.02
293.012	124.58
293.227	1.71
293.442	-12.63
293.657	110.25
293.871	128.68
294.086	13.99
294.301	177.83
294.516	87.72
294.73	11.95
294.945	-69.97
295.16	54.95
295.374	200.36
295.589	124.58
295.804	-74.07
296.018	77.48
296.233	136.87
296.447	73.39
296.662	-4.44
296.877	143.02
297.091	50.86
297.306	-8.53
297.52	-33.11
297.735	52.91
297.949	52.91
298.164	85.67
298.378	102.06
298.593	52.91
298.807	-6.49
299.022	38.57
299.236	183.98
299.451	-16.73
299.665	7.85
299.88	-4.44
300.094	104.11
300.309	73.39
300.523	81.58
300.737	50.86
300.952	32.43
301.166	145.06
301.381	9.9
301.595	-143.7
301.809	63.15
302.024	-18.77
302.238	-20.82
302.452	124.58
302.667	44.71
302.881	104.11
303.095	85.67
303.309	54.95
303.524	-4.44
303.738	34.47
303.952	-67.92
304.166	157.35
304.381	-102.74
304.595	151.21
304.809	59.05
305.023	120.49
305.237	1.71
305.452	91.82
305.666	16.04
305.88	65.19
306.094	122.54
306.308	75.43
306.522	102.06
306.736	54.95
306.95	81.58
307.164	38.57
307.379	28.33
307.593	198.31
307.807	106.15
308.021	147.11
308.235	85.67
308.449	-12.63
308.663	18.09
308.877	249.51
309.091	89.77
309.305	67.24
309.519	-90.45
309.733	79.53
309.947	11.95
310.161	91.82
310.374	126.63
310.588	140.97
310.802	-4.44
311.016	63.15
311.23	59.05
311.444	-22.87
311.658	46.76
311.872	151.21
312.085	134.82
312.299	157.35
312.513	147.11
312.727	40.62
312.941	36.52
313.154	28.33
313.368	59.05
313.582	102.06
313.796	153.26
314.009	18.09
314.223	138.92
314.437	24.23
314.651	108.2
314.864	18.09
315.078	38.57
315.292	24.23
315.505	-20.82
315.719	81.58
315.933	155.3
316.146	-29.01
316.36	-0.34
316.573	132.78
316.787	-10.58
317.001	81.58
317.214	-4.44
317.428	112.3
317.641	-18.77
317.855	71.34
318.068	57
318.282	73.39
318.495	218.79
318.709	91.82
318.922	34.47
319.136	87.72
319.349	100.01
319.563	46.76
319.776	59.05
319.99	9.9
320.203	151.21
320.417	-0.34
320.63	81.58
320.843	181.93
321.057	118.44
321.27	28.33
321.483	114.34
321.697	204.46
321.91	57
322.124	79.53
322.337	110.25
322.55	-98.64
322.763	11.95
322.977	-14.68
323.19	34.47
323.403	-14.68
323.617	93.87
323.83	81.58
324.043	-0.34
324.256	57
324.469	-39.25
324.683	124.58
324.896	5.8
325.109	140.97
325.322	-115.03
325.535	30.38
325.748	112.3
325.962	59.05
326.175	38.57
326.388	120.49
326.601	155.3
326.814	18.09
327.027	38.57
327.24	93.87
327.453	-65.88
327.666	132.78
327.879	112.3
328.092	48.81
328.305	-18.77
328.518	-35.16
328.731	13.99
328.944	13.99
329.157	100.01
329.37	30.38
329.583	204.46
329.796	157.35
330.009	-2.39
330.222	153.26
330.435	95.91
330.648	50.86
330.861	20.14
331.073	20.14
331.286	132.78
331.499	114.34
331.712	-39.25
331.925	79.53
332.138	97.96
332.35	48.81
332.563	-2.39
332.776	173.74
332.989	-98.64
333.202	7.85
333.414	40.62
333.627	59.05
333.84	44.71
334.053	16.04
334.265	-6.49
334.478	30.38
334.691	97.96
334.903	24.23
335.116	-61.78
335.329	134.82
335.541	44.71
335.754	192.17
335.966	-41.3
336.179	91.82
336.392	102.06
336.604	59.05
336.817	102.06
337.029	67.24
337.242	50.86
337.454	171.69
337.667	-31.06
337.88	120.49
338.092	46.76
338.305	71.34
338.517	16.04
338.729	83.63
338.942	153.26
339.154	7.85
339.367	26.28
339.579	93.87
339.792	40.62
340.004	100.01
340.217	30.38
340.429	128.68
340.641	40.62
340.854	-4.44
341.066	28.33
341.278	91.82
341.491	87.72
341.703	28.33
341.915	40.62
342.128	132.78
342.34	75.43
342.552	38.57
342.764	11.95
342.977	-4.44
343.189	71.34
343.401	59.05
343.613	-53.59
343.826	-4.44
344.038	3.75
344.25	42.67
344.462	-53.59
344.674	40.62
344.886	11.95
345.099	38.57
345.311	85.67
345.523	-49.49
345.735	-94.55
345.947	122.54
346.159	1.71
346.371	-8.53
346.583	34.47
346.795	173.74
347.007	-2.39
347.219	132.78
347.431	48.81
347.643	136.87
347.855	26.28
348.067	136.87
348.279	-59.73
348.491	87.72
348.703	120.49
348.915	18.09
349.127	20.14
349.339	11.95
349.551	-20.82
349.763	5.8
349.975	44.71
350.187	52.91
350.399	167.59
350.61	112.3
350.822	26.28
351.034	79.53
351.246	95.91
351.458	16.04
351.669	106.15
351.881	48.81
352.093	100.01
352.305	83.63
352.517	67.24
352.728	116.39
352.94	124.58
353.152	100.01
353.363	-31.06
353.575	34.47
353.787	118.44
353.999	52.91
354.21	145.06
354.422	13.99
354.633	67.24
354.845	63.15
355.057	7.85
355.268	138.92
355.48	89.77
355.692	-59.73
355.903	24.23
356.115	9.9
356.326	-98.64
356.538	81.58
356.749	36.52
356.961	171.69
357.172	124.58
357.384	-69.97
357.595	188.07
357.807	-12.63
358.018	-6.49
358.23	-14.68
358.441	259.75
358.653	38.57
358.864	61.1
359.075	30.38
359.287	-0.34
359.498	126.63
359.709	61.1
359.921	50.86
360.132	149.16
360.344	-10.58
360.555	-22.87
360.766	7.85
360.977	-0.34
361.189	161.45
361.4	65.19
361.611	167.59
361.823	181.93
362.034	34.47
362.245	-59.73
362.456	61.1
362.667	30.38
362.879	36.52
363.09	143.02
363.301	87.72
363.512	71.34
363.723	34.47
363.935	79.53
364.146	112.3
364.357	36.52
364.568	67.24
364.779	-61.78
364.99	116.39
365.201	40.62
365.412	194.22
365.623	-104.79
365.834	102.06
366.045	5.8
366.256	3.75
366.467	81.58
366.678	28.33
366.889	42.67
367.1	42.67
367.311	153.26
367.522	7.85
367.733	83.63
367.944	100.01
368.155	75.43
368.366	145.06
368.577	132.78
368.788	126.63
368.999	-43.35
369.209	87.72
369.42	239.27
369.631	173.74
369.842	52.91
370.053	-6.49
370.264	100.01
370.474	-8.53
370.685	85.67
370.896	20.14
371.107	153.26
371.317	36.52
371.528	-35.16
371.739	112.3
371.95	32.43
372.16	93.87
372.371	-12.63
372.582	59.05
372.792	77.48
373.003	91.82
373.214	97.96
373.424	16.04
373.635	3.75
373.846	145.06
374.056	-6.49
374.267	97.96
374.477	52.91
374.688	5.8
374.898	42.67
375.109	67.24
375.319	38.57
375.53	79.53
375.74	102.06
375.951	-45.4
376.161	50.86
376.372	149.16
376.582	13.99
376.793	59.05
377.003	48.81
377.214	75.43
377.424	40.62
377.635	106.15
377.845	1.71
378.055	157.35
378.266	-51.54
378.476	-12.63
378.686	108.2
378.897	116.39
379.107	69.29
379.317	157.35
379.528	34.47
379.738	63.15
379.948	-12.63
380.158	128.68
380.369	28.33
380.579	73.39
380.789	65.19
380.999	157.35
381.21	89.77
381.42	179.88
381.63	7.85
381.84	145.06
382.05	161.45
382.261	110.25
382.471	165.54
382.681	-10.58
382.891	186.02
383.101	5.8
383.311	32.43
383.521	48.81
383.731	67.24
383.941	93.87
384.151	3.75
384.361	75.43
384.571	89.77
384.781	89.77
384.991	181.93
385.201	120.49
385.411	183.98
385.621	89.77
385.831	73.39
386.041	26.28
386.251	44.71
386.461	159.4
386.671	-8.53
386.881	120.49
387.091	24.23
387.301	110.25
387.511	9.9
387.72	85.67
387.93	136.87
388.14	-33.11
388.35	116.39
388.56	114.34
388.769	116.39
388.979	28.33
389.189	-43.35
389.399	-26.96
389.609	112.3
389.818	85.67
390.028	65.19
390.238	54.95
390.447	-10.58
390.657	77.48
390.867	9.9
391.076	-55.64
391.286	104.11
391.496	83.63
391.705	-47.44
391.915	110.25
392.125	114.34
392.334	-78.16
392.544	175.78
392.753	38.57
392.963	-31.06
393.172	-2.39
393.382	42.67
393.591	251.56
393.801	57
394.01	155.3
394.22	114.34
394.429	100.01
394.639	48.81
394.848	128.68
395.058	69.29
395.267	22.19
395.477	11.95
395.686	171.69
395.895	155.3
396.105	200.36
396.314	153.26
396.524	5.8
396.733	87.72
396.942	77.48
397.152	83.63
397.361	79.53
397.57	106.15
397.78	77.48
397.989	120.49
398.198	257.7
398.407	71.34
398.617	73.39
398.826	79.53
399.035	-16.73
399.244	155.3
399.453	38.57
399.663	42.67
399.872	48.81
400.081	38.57
400.29	198.31
400.499	-47.44
400.708	134.82
400.917	71.34
401.127	-14.68
401.336	-45.4
401.545	278.18
401.754	183.98
401.963	-37.2
402.172	40.62
402.381	-59.73
402.59	112.3
402.799	100.01
403.008	104.11
403.217	22.19
403.426	46.76
403.635	-55.64
403.844	-45.4
404.053	71.34
404.262	-41.3
404.471	194.22
404.68	81.58
404.888	-53.59
405.097	52.91
405.306	34.47
405.515	54.95
405.724	73.39
405.933	143.02
406.142	54.95
406.35	120.49
406.559	61.1
406.768	173.74
406.977	169.64
407.185	100.01
407.394	169.64
407.603	-41.3
407.812	181.93
408.02	169.64
408.229	77.48
408.438	118.44
408.646	30.38
408.855	104.11
409.064	126.63
409.272	75.43
409.481	46.76
409.69	20.14
409.898	59.05
410.107	54.95
410.315	188.07
410.524	-10.58
410.733	75.43
410.941	61.1
411.15	124.58
411.358	130.73
411.567	198.31
411.775	13.99
411.984	77.48
412.192	104.11
412.401	54.95
412.609	157.35
412.818	91.82
413.026	128.68
413.234	46.76
413.443	42.67
413.651	-4.44
413.86	61.1
414.068	204.46
414.276	97.96
414.485	50.86
414.693	206.5
414.901	173.74
415.11	-16.73
415.318	100.01
415.526	18.09
415.734	145.06
415.943	100.01
416.151	106.15
416.359	22.19
416.567	112.3
416.776	44.71
416.984	28.33
417.192	165.54
417.4	63.15
417.608	-39.25
417.817	-10.58
418.025	28.33
418.233	128.68
418.441	52.91
418.649	-65.88
418.857	95.91
419.065	183.98
419.273	-16.73
419.481	87.72
419.689	34.47
419.897	63.15
420.105	-24.92
420.313	171.69
420.521	196.26
420.729	116.39
420.937	95.91
421.145	-16.73
421.353	116.39
421.561	163.5
421.769	81.58
421.977	48.81
422.185	198.31
422.393	20.14
422.601	157.35
422.809	161.45
423.017	87.72
423.224	57
423.432	183.98
423.64	163.5
423.848	102.06
424.056	69.29
424.263	138.92
424.471	95.91
424.679	206.5
424.887	97.96
425.094	151.21
425.302	93.87
425.51	30.38
425.718	151.21
425.925	165.54
426.133	20.14
426.341	216.74
426.548	22.19
426.756	38.57
426.964	87.72
427.171	69.29
427.379	83.63
427.586	126.63
427.794	91.82
428.001	63.15
428.209	89.77
428.417	167.59
428.624	122.54
428.832	89.77
429.039	106.15
429.247	104.11
429.454	116.39
429.662	163.5
429.869	233.13
430.076	167.59
430.284	130.73
430.491	224.94
430.699	136.87
430.906	255.65
431.114	157.35
431.321	75.43
431.528	173.74
431.736	237.22
431.943	136.87
432.15	194.22
432.358	155.3
432.565	272.04
432.772	61.1
432.979	284.33
433.187	110.25
433.394	212.65
433.601	161.45
433.808	208.55
434.016	218.79
434.223	263.85
434.43	167.59
434.637	290.47
434.844	192.17
435.052	253.61
435.259	278.18
435.466	237.22
435.673	261.8
435.88	380.58
436.087	331.43
436.294	388.77
436.501	384.68
436.708	243.37
436.915	276.13
437.122	421.54
437.329	249.51
437.537	349.86
437.743	419.49
437.95	439.97
438.157	437.92
438.364	321.19
438.571	437.92
438.778	417.44
438.985	466.6
439.192	536.23
439.399	489.12
439.606	489.12
439.813	493.22
440.02	665.25
440.227	667.3
440.433	646.82
440.64	532.13
440.847	589.47
441.054	595.62
441.261	642.72
441.467	671.39
441.674	560.8
441.881	745.12
442.088	630.43
442.294	792.22
442.501	824.99
442.708	874.14
442.914	829.09
443.121	927.39
443.328	886.43
443.534	966.3
443.741	861.85
443.948	890.53
444.154	1044.12
444.361	1109.66
444.568	1085.08
444.774	1005.21
444.981	988.83
445.187	1210.01
445.394	1257.11
445.6	1191.58
445.807	1351.32
446.013	1263.26
446.22	1259.16
446.426	1320.6
446.633	1529.49
446.839	1740.43
447.046	1418.9
447.252	1644.18
447.459	1644.18
447.665	1816.21
447.871	1812.11
448.078	2080.39
448.284	1867.41
448.491	2053.77
448.697	2215.56
448.903	2246.28
449.11	2279.05
449.316	2229.9
449.522	2446.98
449.728	2614.91
449.935	2565.76
450.141	2604.67
450.347	2758.27
450.553	2782.85
450.76	2752.13
450.966	2932.35
451.172	3225.21
451.378	3350.14
451.584	3290.74
451.791	3479.16
451.997	3602.04
452.203	3694.19
452.409	3948.14
452.615	4177.51
452.821	3944.05
453.027	4036.21
453.233	4644.45
453.44	4185.71
453.646	4642.4
453.852	4748.9
454.058	4945.5
454.264	5228.12
454.47	5690.96
454.676	5662.29
454.882	6094.41
455.088	5772.88
455.294	6125.13
455.5	6389.32
455.705	6800.96
455.911	7026.24
456.117	7059.01
456.323	7185.98
456.529	7218.75
456.735	7870
456.941	8160.81
457.147	8541.74
457.352	8752.68
457.558	8934.95
457.764	9520.67
457.97	9850.39
458.176	10034.71
458.381	10477.07
458.587	10976.77
458.793	11378.17
458.999	11419.13
459.204	13223.39
459.41	13290.98
459.616	13229.54
459.821	13940.18
460.027	14497.23
460.233	15113.67
460.438	15351.23
460.644	16080.31
460.85	16231.86
461.055	16788.91
461.261	17700.25
461.466	17442.21
461.672	17690.01
461.878	19553.66
462.083	19623.3
462.289	19989.88
462.494	21040.49
462.7	21017.96
462.905	21087.59
463.111	22941
463.316	23979.32
463.522	24540.47
463.727	25087.28
463.932	26148.12
464.138	26942.74
464.343	28185.85
464.549	28116.22
464.754	30143.71
464.959	30999.76
465.165	31583.43
465.37	31503.56
465.575	31595.72
465.781	33320.11
465.986	34669.72
466.191	34049.19
466.397	34481.31
466.602	33569.96
466.807	35521.68
467.012	36078.72
467.218	36308.1
467.423	36838.52
467.628	37706.86
467.833	39404.63
