Data from USB4F104151__170__11-04-54-235.txt Node

Date: Wed Feb 26 11:04:54 EST 2025
User: louis
Spectrometer: USB4F10415
Trigger mode: 4
Integration Time (sec): 1.000000E-1
Scans to average: 1
Electric dark correction enabled: true
Nonlinearity correction enabled: false
Boxcar width: 0
XAxis mode: Wavelengths
Number of Pixels in Spectrum: 3648
>>>>>Begin Spectral Data<<<<<
178.204	-371.71
178.424	-371.71
178.644	-371.71
178.864	-416.76
179.084	-343.03
179.304	-9.22
179.524	11.26
179.744	46.08
179.964	27.65
180.184	82.94
180.404	17.41
180.624	3.07
180.844	-44.03
181.064	-89.09
181.283	-35.84
181.503	-70.65
181.723	60.42
181.943	-193.53
182.163	128
182.383	-13.31
182.602	82.94
182.822	101.37
183.042	21.5
183.262	-25.6
183.482	25.6
183.701	58.37
183.921	101.37
184.141	-3.07
184.361	150.53
184.58	66.56
184.8	70.65
185.02	-9.22
185.239	142.33
185.459	101.37
185.679	191.49
185.898	-35.84
186.118	-17.41
186.338	7.17
186.557	117.76
186.777	23.55
186.997	11.26
187.216	41.98
187.436	103.42
187.655	50.18
187.875	50.18
188.095	25.6
188.314	87.04
188.534	125.95
188.753	15.36
188.973	209.92
189.192	74.75
189.412	15.36
189.631	31.74
189.851	80.89
190.07	267.26
190.29	-44.03
190.509	-15.36
190.729	-15.36
190.948	171.01
191.168	218.11
191.387	52.22
191.607	80.89
191.826	93.18
192.045	-80.89
192.265	-17.41
192.484	50.18
192.704	19.46
192.923	19.46
193.142	136.19
193.362	93.18
193.581	181.25
193.8	50.18
194.02	97.28
194.239	1.02
194.458	70.65
194.678	-23.55
194.897	-19.46
195.116	13.31
195.335	66.56
195.555	91.13
195.774	1.02
195.993	115.71
196.212	64.51
196.432	35.84
196.651	-89.09
196.87	21.5
197.089	234.49
197.308	113.66
197.528	84.99
197.747	-70.65
197.966	66.56
198.185	158.72
198.404	-54.27
198.623	117.76
198.842	82.94
199.062	117.76
199.281	109.57
199.5	48.13
199.719	17.41
199.938	52.22
200.157	107.52
200.376	103.42
200.595	56.32
200.814	33.79
201.033	11.26
201.252	177.15
201.471	15.36
201.69	125.95
201.909	27.65
202.128	99.33
202.347	9.22
202.566	125.95
202.785	-27.65
203.004	1.02
203.223	211.96
203.442	23.55
203.661	-23.55
203.879	117.76
204.098	152.57
204.317	-74.75
204.536	84.99
204.755	66.56
204.974	56.32
205.193	-37.89
205.411	113.66
205.63	123.9
205.849	93.18
206.068	60.42
206.287	-35.84
206.505	117.76
206.724	46.08
206.943	-23.55
207.162	35.84
207.381	93.18
207.599	35.84
207.818	27.65
208.037	9.22
208.255	17.41
208.474	7.17
208.693	70.65
208.911	23.55
209.13	41.98
209.349	37.89
209.567	62.46
209.786	48.13
210.005	113.66
210.223	5.12
210.442	-97.28
210.661	91.13
210.879	82.94
211.098	3.07
211.316	68.61
211.535	80.89
211.753	-9.22
211.972	50.18
212.191	-9.22
212.409	-13.31
212.628	64.51
212.846	-48.13
213.065	56.32
213.283	158.72
213.502	-37.89
213.72	50.18
213.938	25.6
214.157	-27.65
214.375	158.72
214.594	113.66
214.812	68.61
215.031	19.46
215.249	-78.85
215.467	66.56
215.686	84.99
215.904	91.13
216.122	132.09
216.341	121.85
216.559	-39.94
216.778	80.89
216.996	179.2
217.214	76.8
217.432	23.55
217.651	-56.32
217.869	-25.6
218.087	68.61
218.306	39.94
218.524	66.56
218.742	-41.98
218.96	101.37
219.179	107.52
219.397	-41.98
219.615	263.16
219.833	136.19
220.051	-46.08
220.27	62.46
220.488	128
220.706	156.67
220.924	66.56
221.142	-13.31
221.36	21.5
221.578	103.42
221.796	87.04
222.015	7.17
222.233	115.71
222.451	148.48
222.669	-68.61
222.887	25.6
223.105	39.94
223.323	23.55
223.541	15.36
223.759	78.85
223.977	62.46
224.195	199.68
224.413	97.28
224.631	23.55
224.849	87.04
225.067	195.58
225.285	17.41
225.503	82.94
225.721	-128
225.939	70.65
226.157	3.07
226.375	220.16
226.592	-39.94
226.81	54.27
227.028	115.71
227.246	154.62
227.464	87.04
227.682	103.42
227.9	68.61
228.117	15.36
228.335	78.85
228.553	9.22
228.771	-17.41
228.989	17.41
229.206	119.81
229.424	-35.84
229.642	-1.02
229.86	-107.52
230.077	156.67
230.295	-5.12
230.513	70.65
230.731	80.89
230.948	72.7
231.166	166.91
231.384	119.81
231.601	-9.22
231.819	197.63
232.037	-41.98
232.254	-60.42
232.472	-7.17
232.689	35.84
232.907	191.49
233.125	-17.41
233.342	-9.22
233.56	25.6
233.777	68.61
233.995	-7.17
234.213	125.95
234.43	9.22
234.648	-17.41
234.865	-33.79
235.083	19.46
235.3	87.04
235.518	84.99
235.735	121.85
235.953	123.9
236.17	68.61
236.388	9.22
236.605	64.51
236.822	130.05
237.04	134.14
237.257	76.8
237.475	-95.23
237.692	109.57
237.909	78.85
238.127	19.46
238.344	93.18
238.562	23.55
238.779	-27.65
238.996	21.5
239.214	-72.7
239.431	95.23
239.648	19.46
239.865	109.57
240.083	52.22
240.3	70.65
240.517	-17.41
240.735	33.79
240.952	128
241.169	52.22
241.386	128
241.603	3.07
241.821	76.8
242.038	121.85
242.255	152.57
242.472	-70.65
242.689	-46.08
242.907	154.62
243.124	29.7
243.341	19.46
243.558	5.12
243.775	-56.32
243.992	-29.7
244.209	-1.02
244.426	144.38
244.643	15.36
244.86	-41.98
245.078	91.13
245.295	39.94
245.512	17.41
245.729	39.94
245.946	27.65
246.163	-33.79
246.38	3.07
246.597	56.32
246.814	-5.12
247.031	134.14
247.248	-58.37
247.464	15.36
247.681	-17.41
247.898	58.37
248.115	60.42
248.332	-31.74
248.549	138.24
248.766	109.57
248.983	103.42
249.2	87.04
249.417	48.13
249.633	52.22
249.85	138.24
250.067	142.33
250.284	84.99
250.501	119.81
250.717	140.29
250.934	-21.5
251.151	97.28
251.368	21.5
251.585	76.8
251.801	123.9
252.018	-56.32
252.235	166.91
252.451	-95.23
252.668	72.7
252.885	125.95
253.102	35.84
253.318	66.56
253.535	-3.07
253.752	-74.75
253.968	60.42
254.185	-58.37
254.401	9.22
254.618	19.46
254.835	11.26
255.051	109.57
255.268	115.71
255.484	31.74
255.701	7.17
255.917	9.22
256.134	31.74
256.351	-15.36
256.567	-7.17
256.784	84.99
257	-29.7
257.217	113.66
257.433	105.47
257.65	27.65
257.866	125.95
258.082	1.02
258.299	-33.79
258.515	44.03
258.732	-21.5
258.948	-66.56
259.165	66.56
259.381	-44.03
259.597	37.89
259.814	58.37
260.03	1.02
260.246	7.17
260.463	132.09
260.679	58.37
260.895	101.37
261.112	56.32
261.328	66.56
261.544	9.22
261.761	89.09
261.977	-52.22
262.193	-5.12
262.409	93.18
262.626	19.46
262.842	15.36
263.058	-7.17
263.274	39.94
263.49	-29.7
263.707	189.44
263.923	62.46
264.139	-13.31
264.355	19.46
264.571	152.57
264.787	21.5
265.004	99.33
265.22	7.17
265.436	-31.74
265.652	-17.41
265.868	50.18
266.084	-15.36
266.3	-15.36
266.516	-27.65
266.732	62.46
266.948	-11.26
267.164	74.75
267.38	72.7
267.596	37.89
267.812	164.86
268.028	58.37
268.244	7.17
268.46	74.75
268.676	-3.07
268.892	123.9
269.108	-17.41
269.324	13.31
269.54	-25.6
269.756	109.57
269.972	-19.46
270.188	56.32
270.403	-56.32
270.619	50.18
270.835	68.61
271.051	31.74
271.267	15.36
271.483	37.89
271.698	101.37
271.914	74.75
272.13	-17.41
272.346	-33.79
272.562	-19.46
272.777	78.85
272.993	-48.13
273.209	-23.55
273.425	80.89
273.64	-54.27
273.856	99.33
274.072	-64.51
274.287	35.84
274.503	142.33
274.719	74.75
274.934	-1.02
275.15	-66.56
275.366	25.6
275.581	-46.08
275.797	-9.22
276.012	158.72
276.228	46.08
276.444	87.04
276.659	181.25
276.875	-27.65
277.09	-29.7
277.306	17.41
277.521	58.37
277.737	82.94
277.952	48.13
278.168	52.22
278.383	95.23
278.599	41.98
278.814	109.57
279.03	-19.46
279.245	156.67
279.461	76.8
279.676	41.98
279.892	-13.31
280.107	-72.7
280.322	115.71
280.538	150.53
280.753	-7.17
280.969	-7.17
281.184	166.91
281.399	156.67
281.615	74.75
281.83	56.32
282.045	-97.28
282.26	-21.5
282.476	-1.02
282.691	82.94
282.906	60.42
283.122	-5.12
283.337	31.74
283.552	66.56
283.767	-1.02
283.983	76.8
284.198	41.98
284.413	44.03
284.628	1.02
284.843	70.65
285.058	52.22
285.274	-19.46
285.489	-27.65
285.704	117.76
285.919	35.84
286.134	23.55
286.349	111.61
286.564	44.03
286.779	152.57
286.995	-3.07
287.21	-48.13
287.425	119.81
287.64	19.46
287.855	50.18
288.07	-62.46
288.285	130.05
288.5	113.66
288.715	11.26
288.93	46.08
289.145	-89.09
289.36	132.09
289.575	3.07
289.79	189.44
290.004	-9.22
290.219	134.14
290.434	-29.7
290.649	33.79
290.864	3.07
291.079	37.89
291.294	25.6
291.509	64.51
291.724	-5.12
291.938	-1.02
292.153	-21.5
292.368	-97.28
292.583	-7.17
292.798	99.33
293.012	119.81
293.227	97.28
293.442	27.65
293.657	50.18
293.871	117.76
294.086	70.65
294.301	146.43
294.516	144.38
294.73	48.13
294.945	-23.55
295.16	54.27
295.374	95.23
295.589	125.95
295.804	-64.51
296.018	97.28
296.233	142.33
296.447	41.98
296.662	-7.17
296.877	164.86
297.091	62.46
297.306	64.51
297.52	21.5
297.735	76.8
297.949	62.46
298.164	17.41
298.378	56.32
298.593	64.51
298.807	-66.56
299.022	76.8
299.236	37.89
299.451	-48.13
299.665	11.26
299.88	52.22
300.094	33.79
300.309	11.26
300.523	48.13
300.737	9.22
300.952	123.9
301.166	-15.36
301.381	-9.22
301.595	93.18
301.809	35.84
302.024	74.75
302.238	-27.65
302.452	130.05
302.667	50.18
302.881	144.38
303.095	138.24
303.309	60.42
303.524	41.98
303.738	-39.94
303.952	-35.84
304.166	15.36
304.381	-56.32
304.595	128
304.809	9.22
305.023	9.22
305.237	21.5
305.452	-15.36
305.666	72.7
305.88	64.51
306.094	31.74
306.308	95.23
306.522	87.04
306.736	91.13
306.95	78.85
307.164	41.98
307.379	78.85
307.593	134.14
307.807	146.43
308.021	27.65
308.235	78.85
308.449	-103.42
308.663	50.18
308.877	187.39
309.091	-39.94
309.305	33.79
309.519	-111.61
309.733	54.27
309.947	-31.74
310.161	5.12
310.374	-9.22
310.588	197.63
310.802	7.17
311.016	1.02
311.23	109.57
311.444	-5.12
311.658	-11.26
311.872	123.9
312.085	128
312.299	134.14
312.513	138.24
312.727	134.14
312.941	-56.32
313.154	13.31
313.368	31.74
313.582	41.98
313.796	76.8
314.009	-1.02
314.223	128
314.437	119.81
314.651	60.42
314.864	1.02
315.078	31.74
315.292	-21.5
315.505	-5.12
315.719	87.04
315.933	87.04
316.146	-33.79
316.36	-87.04
316.573	33.79
316.787	35.84
317.001	74.75
317.214	25.6
317.428	-15.36
317.641	-46.08
317.855	27.65
318.068	1.02
318.282	50.18
318.495	136.19
318.709	72.7
318.922	-39.94
319.136	109.57
319.349	66.56
319.563	-50.18
319.776	95.23
319.99	-31.74
320.203	99.33
320.417	13.31
320.63	91.13
320.843	78.85
321.057	11.26
321.27	-48.13
321.483	72.7
321.697	195.58
321.91	-48.13
322.124	23.55
322.337	60.42
322.55	13.31
322.763	5.12
322.977	-17.41
323.19	-21.5
323.403	-17.41
323.617	15.36
323.83	95.23
324.043	-31.74
324.256	82.94
324.469	-58.37
324.683	179.2
324.896	19.46
325.109	23.55
325.322	-84.99
325.535	89.09
325.748	97.28
325.962	-15.36
326.175	15.36
326.388	93.18
326.601	128
326.814	33.79
327.027	68.61
327.24	125.95
327.453	-109.57
327.666	89.09
327.879	130.05
328.092	37.89
328.305	29.7
328.518	-44.03
328.731	7.17
328.944	7.17
329.157	87.04
329.37	109.57
329.583	177.15
329.796	209.92
330.009	-11.26
330.222	117.76
330.435	68.61
330.648	33.79
330.861	62.46
331.073	87.04
331.286	48.13
331.499	-17.41
331.712	-44.03
331.925	60.42
332.138	44.03
332.35	142.33
332.563	-68.61
332.776	109.57
332.989	-23.55
333.202	84.99
333.414	-7.17
333.627	72.7
333.84	31.74
334.053	91.13
334.265	-1.02
334.478	35.84
334.691	58.37
334.903	15.36
335.116	91.13
335.329	31.74
335.541	29.7
335.754	121.85
335.966	11.26
336.179	1.02
336.392	64.51
336.604	105.47
336.817	164.86
337.029	93.18
337.242	-7.17
337.454	33.79
337.667	-17.41
337.88	95.23
338.092	68.61
338.305	52.22
338.517	64.51
338.729	150.53
338.942	121.85
339.154	-7.17
339.367	-15.36
339.579	25.6
339.792	50.18
340.004	52.22
340.217	-33.79
340.429	62.46
340.641	-1.02
340.854	-56.32
341.066	3.07
341.278	121.85
341.491	195.58
341.703	15.36
341.915	-41.98
342.128	52.22
342.34	113.66
342.552	31.74
342.764	5.12
342.977	39.94
343.189	-5.12
343.401	-7.17
343.613	70.65
343.826	-52.22
344.038	-93.18
344.25	64.51
344.462	-31.74
344.674	64.51
344.886	91.13
345.099	115.71
345.311	160.77
345.523	3.07
345.735	-3.07
345.947	76.8
346.159	-27.65
346.371	-54.27
346.583	-29.7
346.795	99.33
347.007	31.74
347.219	128
347.431	1.02
347.643	119.81
347.855	-21.5
348.067	91.13
348.279	31.74
348.491	54.27
348.703	54.27
348.915	9.22
349.127	-1.02
349.339	-9.22
349.551	70.65
349.763	68.61
349.975	5.12
350.187	84.99
350.399	84.99
350.61	156.67
350.822	27.65
351.034	-9.22
351.246	150.53
351.458	156.67
351.669	101.37
351.881	95.23
352.093	35.84
352.305	107.52
352.517	-3.07
352.728	99.33
352.94	66.56
353.152	74.75
353.363	-23.55
353.575	64.51
353.787	207.87
353.999	23.55
354.21	130.05
354.422	-109.57
354.633	-27.65
354.845	27.65
355.057	-41.98
355.268	76.8
355.48	125.95
355.692	-15.36
355.903	5.12
356.115	-3.07
356.326	-91.13
356.538	171.01
356.749	78.85
356.961	74.75
357.172	25.6
357.384	-44.03
357.595	244.73
357.807	-5.12
358.018	-9.22
358.23	44.03
358.441	181.25
358.653	113.66
358.864	21.5
359.075	5.12
359.287	138.24
359.498	-11.26
359.709	52.22
359.921	93.18
360.132	-9.22
360.344	37.89
360.555	23.55
360.766	-5.12
360.977	37.89
361.189	97.28
361.4	93.18
361.611	68.61
361.823	21.5
362.034	29.7
362.245	-62.46
362.456	9.22
362.667	99.33
362.879	-39.94
363.09	9.22
363.301	50.18
363.512	74.75
363.723	-58.37
363.935	1.02
364.146	158.72
364.357	64.51
364.568	68.61
364.779	-29.7
364.99	125.95
365.201	54.27
365.412	82.94
365.623	-87.04
365.834	95.23
366.045	9.22
366.256	48.13
366.467	115.71
366.678	41.98
366.889	89.09
367.1	35.84
367.311	187.39
367.522	3.07
367.733	56.32
367.944	25.6
368.155	54.27
368.366	140.29
368.577	130.05
368.788	56.32
368.999	-50.18
369.209	121.85
369.42	115.71
369.631	240.64
369.842	70.65
370.053	-9.22
370.264	91.13
370.474	-80.89
370.685	56.32
370.896	50.18
371.107	119.81
371.317	80.89
371.528	101.37
371.739	136.19
371.95	84.99
372.16	56.32
372.371	-19.46
372.582	64.51
372.792	84.99
373.003	-5.12
373.214	76.8
373.424	125.95
373.635	-76.8
373.846	158.72
374.056	37.89
374.267	95.23
374.477	33.79
374.688	-5.12
374.898	17.41
375.109	62.46
375.319	48.13
375.53	82.94
375.74	97.28
375.951	-5.12
376.161	17.41
376.372	74.75
376.582	-21.5
376.793	-29.7
377.003	-25.6
377.214	-21.5
377.424	97.28
377.635	-41.98
377.845	-80.89
378.055	199.68
378.266	-11.26
378.476	-9.22
378.686	66.56
378.897	-25.6
379.107	121.85
379.317	103.42
379.528	27.65
379.738	76.8
379.948	-27.65
380.158	31.74
380.369	39.94
380.579	7.17
380.789	-21.5
380.999	91.13
381.21	3.07
381.42	220.16
381.63	-1.02
381.84	70.65
382.05	113.66
382.261	156.67
382.471	113.66
382.681	52.22
382.891	150.53
383.101	21.5
383.311	-91.13
383.521	-7.17
383.731	80.89
383.941	132.09
384.151	48.13
384.361	95.23
384.571	29.7
384.781	-17.41
384.991	203.77
385.201	87.04
385.411	70.65
385.621	50.18
385.831	109.57
386.041	31.74
386.251	-39.94
386.461	175.1
386.671	3.07
386.881	87.04
387.091	84.99
387.301	87.04
387.511	62.46
387.72	144.38
387.93	99.33
388.14	-48.13
388.35	50.18
388.56	3.07
388.769	216.06
388.979	48.13
389.189	-58.37
389.399	68.61
389.609	46.08
389.818	140.29
390.028	39.94
390.238	56.32
390.447	5.12
390.657	35.84
390.867	39.94
391.076	-142.33
391.286	76.8
391.496	58.37
391.705	66.56
391.915	78.85
392.125	89.09
392.334	-13.31
392.544	162.81
392.753	41.98
392.963	-99.33
393.172	52.22
393.382	7.17
393.591	171.01
393.801	21.5
394.01	277.5
394.22	125.95
394.429	54.27
394.639	39.94
394.848	70.65
395.058	23.55
395.267	5.12
395.477	109.57
395.686	93.18
395.895	158.72
396.105	117.76
396.314	109.57
396.524	41.98
396.733	66.56
396.942	103.42
397.152	101.37
397.361	93.18
397.57	95.23
397.78	7.17
397.989	111.61
398.198	216.06
398.407	-1.02
398.617	3.07
398.826	54.27
399.035	-5.12
399.244	52.22
399.453	46.08
399.663	74.75
399.872	132.09
400.081	-29.7
400.29	166.91
400.499	-37.89
400.708	142.33
400.917	13.31
401.127	27.65
401.336	17.41
401.545	246.78
401.754	144.38
401.963	27.65
402.172	-9.22
402.381	-91.13
402.59	-15.36
402.799	64.51
403.008	66.56
403.217	5.12
403.426	60.42
403.635	-54.27
403.844	76.8
404.053	-23.55
404.262	-37.89
404.471	132.09
404.68	72.7
404.888	1.02
405.097	80.89
405.306	39.94
405.515	107.52
405.724	11.26
405.933	107.52
406.142	46.08
406.35	142.33
406.559	-54.27
406.768	41.98
406.977	130.05
407.185	72.7
407.394	64.51
407.603	-35.84
407.812	177.15
408.02	168.96
408.229	58.37
408.438	72.7
408.646	-13.31
408.855	62.46
409.064	31.74
409.272	29.7
409.481	50.18
409.69	-9.22
409.898	-54.27
410.107	5.12
410.315	87.04
410.524	21.5
410.733	56.32
410.941	68.61
411.15	117.76
411.358	156.67
411.567	193.53
411.775	27.65
411.984	21.5
412.192	117.76
412.401	-33.79
412.609	205.82
412.818	154.62
413.026	103.42
413.234	41.98
413.443	48.13
413.651	74.75
413.86	62.46
414.068	68.61
414.276	211.96
414.485	91.13
414.693	232.44
414.901	199.68
415.11	171.01
415.318	142.33
415.526	82.94
415.734	138.24
415.943	37.89
416.151	117.76
416.359	60.42
416.567	11.26
416.776	150.53
416.984	101.37
417.192	193.53
417.4	-52.22
417.608	93.18
417.817	-9.22
418.025	58.37
418.233	144.38
418.441	-44.03
418.649	23.55
418.857	37.89
419.065	195.58
419.273	48.13
419.481	9.22
419.689	152.57
419.897	84.99
420.105	-9.22
420.313	87.04
420.521	95.23
420.729	160.77
420.937	76.8
421.145	9.22
421.353	168.96
421.561	136.19
421.769	50.18
421.977	39.94
422.185	160.77
422.393	56.32
422.601	117.76
422.809	91.13
423.017	37.89
423.224	41.98
423.432	140.29
423.64	-5.12
423.848	107.52
424.056	-23.55
424.263	146.43
424.471	64.51
424.679	140.29
424.887	-39.94
425.094	109.57
425.302	125.95
425.51	-35.84
425.718	113.66
425.925	41.98
426.133	-44.03
426.341	250.88
426.548	-44.03
426.756	-27.65
426.964	138.24
427.171	23.55
427.379	87.04
427.586	123.9
427.794	101.37
428.001	140.29
428.209	82.94
428.417	164.86
428.624	203.77
428.832	175.1
429.039	68.61
429.247	66.56
429.454	125.95
429.662	211.96
429.869	175.1
430.076	58.37
430.284	171.01
430.491	230.4
430.699	111.61
430.906	150.53
431.114	230.4
431.321	187.39
431.528	160.77
431.736	123.9
431.943	123.9
432.15	228.35
432.358	173.05
432.565	261.12
432.772	-3.07
432.979	228.35
433.187	121.85
433.394	197.63
433.601	152.57
433.808	146.43
434.016	269.31
434.223	236.54
434.43	134.14
434.637	267.26
434.844	240.64
435.052	230.4
435.259	279.55
435.466	300.03
435.673	283.64
435.88	306.17
436.087	373.75
436.294	308.22
436.501	314.36
436.708	273.4
436.915	297.98
437.122	263.16
437.329	175.1
437.537	252.92
437.743	435.19
437.95	400.38
438.157	441.34
438.364	349.18
438.571	373.75
438.778	424.95
438.985	457.72
439.192	416.76
439.399	424.95
439.606	467.96
439.813	560.12
440.02	629.75
440.227	656.37
440.433	590.84
440.64	533.5
440.847	490.49
441.054	578.55
441.261	689.14
441.467	576.5
441.674	568.31
441.881	668.66
442.088	574.46
442.294	793.59
442.501	744.44
442.708	758.77
442.914	785.4
443.121	846.84
443.328	773.11
443.534	861.17
443.741	887.79
443.948	793.59
444.154	943.09
444.361	1123.31
444.568	928.75
444.774	887.79
444.981	961.52
445.187	1242.09
445.394	1115.12
445.6	1031.15
445.807	1358.83
446.013	1244.14
446.22	1254.38
446.426	1340.4
446.633	1360.88
446.839	1666.02
447.046	1264.62
447.252	1539.05
447.459	1688.55
447.665	1649.64
447.871	1784.8
448.078	1913.83
448.284	1911.78
448.491	1975.27
448.697	1952.74
448.903	2108.38
449.11	2108.38
449.316	2098.14
449.522	2282.46
449.728	2382.81
449.935	2438.11
450.141	2493.4
450.347	2667.48
450.553	2677.72
450.76	2730.97
450.966	2950.1
451.172	3044.31
451.378	3062.74
451.584	3212.24
451.791	3433.42
451.997	3623.88
452.203	3634.12
452.409	3693.51
452.615	3955.65
452.821	3720.14
453.027	3800.01
453.233	4285.37
453.44	4244.42
453.646	4357.05
453.852	4545.47
454.058	4817.85
454.264	4783.03
454.47	5266.35
454.676	5229.49
454.882	5784.49
455.088	5559.21
455.294	5794.73
455.5	6202.27
455.705	6570.91
455.911	6392.73
456.117	6833.05
456.323	6992.79
456.529	6972.31
456.735	7627.66
456.941	7877.51
457.147	8143.75
457.352	8321.92
457.558	8452.99
457.764	9040.76
457.97	9354.1
458.176	9679.72
458.381	10191.72
458.587	10226.53
458.793	10728.28
458.999	10867.55
459.204	12061.51
459.41	12538.69
459.616	12563.26
459.821	13153.08
460.027	13777.71
460.233	14385.96
460.438	14545.7
460.644	15145.75
460.85	15131.42
461.055	15897.36
461.261	16685.83
461.466	16392.97
461.672	16745.22
461.878	18862.82
462.083	18610.92
462.289	18977.5
462.494	19946.19
462.7	19833.55
462.905	20177.61
463.111	21752.5
463.316	22913.7
463.522	23382.68
463.727	23974.55
463.932	25156.22
464.138	25551.48
464.343	26577.51
464.549	26931.81
464.754	28748.36
464.959	29479.49
465.165	30028.34
465.37	30122.55
465.575	30089.78
465.781	32023.06
465.986	32854.54
466.191	32352.79
466.397	32643.6
466.602	32082.45
466.807	33804.8
467.012	33958.39
467.218	34814.44
467.423	34968.04
467.628	35899.87
467.833	37595.59
468.038	36854.22
468.244	36102.62
468.449	38117.82
468.654	37335.49
