Data from USB4F104151__115__10-45-54-960.txt Node

Date: Wed Feb 26 10:45:54 EST 2025
User: louis
Spectrometer: USB4F10415
Trigger mode: 4
Integration Time (sec): 1.000000E-1
Scans to average: 1
Electric dark correction enabled: true
Nonlinearity correction enabled: false
Boxcar width: 0
XAxis mode: Wavelengths
Number of Pixels in Spectrum: 3648
>>>>>Begin Spectral Data<<<<<
178.204	-364.88
178.424	-364.88
178.644	-364.88
178.864	-385.36
179.084	-371.02
179.304	30.38
179.524	32.43
179.744	-53.59
179.964	1.71
180.184	18.09
180.404	-10.58
180.624	-39.25
180.844	-37.2
181.064	-69.97
181.283	42.67
181.503	36.52
181.723	48.81
181.943	-47.44
182.163	126.63
182.383	18.09
182.602	-8.53
182.822	128.68
183.042	28.33
183.262	-18.77
183.482	3.75
183.701	-20.82
183.921	26.28
184.141	-26.96
184.361	36.52
184.58	73.39
184.8	85.67
185.02	87.72
185.239	-10.58
185.459	40.62
185.679	116.39
185.898	-43.35
186.118	77.48
186.338	69.29
186.557	143.02
186.777	3.75
186.997	-22.87
187.216	11.95
187.436	181.93
187.655	102.06
187.875	65.19
188.095	28.33
188.314	120.49
188.534	13.99
188.753	-63.83
188.973	110.25
189.192	151.21
189.412	1.71
189.631	-14.68
189.851	75.43
190.07	159.4
190.29	5.8
190.509	-22.87
190.729	-0.34
190.948	102.06
191.168	186.02
191.387	97.96
191.607	-4.44
191.826	140.97
192.045	40.62
192.265	73.39
192.484	-16.73
192.704	32.43
192.923	-47.44
193.142	116.39
193.362	112.3
193.581	159.4
193.8	95.91
194.02	75.43
194.239	77.48
194.458	67.24
194.678	73.39
194.897	-39.25
195.116	85.67
195.335	104.11
195.555	97.96
195.774	132.78
195.993	155.3
196.212	67.24
196.432	-22.87
196.651	-14.68
196.87	44.71
197.089	222.89
197.308	40.62
197.528	108.2
197.747	32.43
197.966	63.15
198.185	169.64
198.404	1.71
198.623	171.69
198.842	181.93
199.062	40.62
199.281	89.77
199.5	32.43
199.719	95.91
199.938	104.11
200.157	16.04
200.376	167.59
200.595	151.21
200.814	73.39
201.033	42.67
201.252	155.3
201.471	91.82
201.69	79.53
201.909	38.57
202.128	97.96
202.347	57
202.566	28.33
202.785	-94.55
203.004	-16.73
203.223	218.79
203.442	85.67
203.661	61.1
203.879	126.63
204.098	167.59
204.317	44.71
204.536	57
204.755	153.26
204.974	120.49
205.193	40.62
205.411	104.11
205.63	188.07
205.849	126.63
206.068	18.09
206.287	1.71
206.505	188.07
206.724	9.9
206.943	-0.34
207.162	30.38
207.381	100.01
207.599	54.95
207.818	20.14
208.037	1.71
208.255	63.15
208.474	44.71
208.693	50.86
208.911	24.23
209.13	52.91
209.349	44.71
209.567	136.87
209.786	87.72
210.005	24.23
210.223	85.67
210.442	-96.6
210.661	87.72
210.879	91.82
211.098	42.67
211.316	40.62
211.535	40.62
211.753	30.38
211.972	44.71
212.191	-49.49
212.409	40.62
212.628	44.71
212.846	38.57
213.065	100.01
213.283	63.15
213.502	7.85
213.72	44.71
213.938	89.77
214.157	-0.34
214.375	124.58
214.594	18.09
214.812	52.91
215.031	71.34
215.249	93.87
215.467	95.91
215.686	85.67
215.904	77.48
216.122	57
216.341	157.35
216.559	81.58
216.778	157.35
216.996	165.54
217.214	-31.06
217.432	20.14
217.651	11.95
217.869	50.86
218.087	97.96
218.306	-49.49
218.524	61.1
218.742	-12.63
218.96	145.06
219.179	61.1
219.397	-12.63
219.615	280.23
219.833	147.11
220.051	-51.54
220.27	198.31
220.488	159.4
220.706	44.71
220.924	-12.63
221.142	87.72
221.36	1.71
221.578	50.86
221.796	-2.39
222.015	38.57
222.233	50.86
222.451	165.54
222.669	24.23
222.887	69.29
223.105	22.19
223.323	73.39
223.541	40.62
223.759	20.14
223.977	104.11
224.195	116.39
224.413	143.02
224.631	44.71
224.849	3.75
225.067	263.85
225.285	61.1
225.503	-2.39
225.721	-51.54
225.939	-10.58
226.157	-18.77
226.375	186.02
226.592	32.43
226.81	26.28
227.028	122.54
227.246	143.02
227.464	97.96
227.682	65.19
227.9	69.29
228.117	59.05
228.335	28.33
228.553	22.19
228.771	34.47
228.989	83.63
229.206	104.11
229.424	7.85
229.642	57
229.86	-24.92
230.077	140.97
230.295	44.71
230.513	46.76
230.731	7.85
230.948	106.15
231.166	165.54
231.384	-74.07
231.601	5.8
231.819	147.11
232.037	-12.63
232.254	-35.16
232.472	57
232.689	18.09
232.907	140.97
233.125	1.71
233.342	34.47
233.56	1.71
233.777	-2.39
233.995	73.39
234.213	48.81
234.43	155.3
234.648	59.05
234.865	-51.54
235.083	79.53
235.3	36.52
235.518	143.02
235.735	151.21
235.953	106.15
236.17	54.95
236.388	30.38
236.605	42.67
236.822	100.01
237.04	77.48
237.257	95.91
237.475	-26.96
237.692	16.04
237.909	93.87
238.127	-14.68
238.344	73.39
238.562	20.14
238.779	-31.06
238.996	-41.3
239.214	106.15
239.431	100.01
239.648	38.57
239.865	87.72
240.083	40.62
240.3	83.63
240.517	-6.49
240.735	28.33
240.952	202.41
241.169	38.57
241.386	226.98
241.603	26.28
241.821	34.47
242.038	122.54
242.255	75.43
242.472	-18.77
242.689	46.76
242.907	145.06
243.124	102.06
243.341	110.25
243.558	-49.49
243.775	-80.21
243.992	-45.4
244.209	75.43
244.426	145.06
244.643	75.43
244.86	3.75
245.078	65.19
245.295	128.68
245.512	34.47
245.729	-59.73
245.946	48.81
246.163	67.24
246.38	57
246.597	38.57
246.814	44.71
247.031	69.29
247.248	28.33
247.464	87.72
247.681	36.52
247.898	42.67
248.115	36.52
248.332	-12.63
248.549	89.77
248.766	167.59
248.983	81.58
249.2	9.9
249.417	124.58
249.633	59.05
249.85	57
250.067	75.43
250.284	52.91
250.501	65.19
250.717	44.71
250.934	-39.25
251.151	32.43
251.368	67.24
251.585	69.29
251.801	95.91
252.018	-26.96
252.235	73.39
252.451	-20.82
252.668	20.14
252.885	95.91
253.102	52.91
253.318	59.05
253.535	67.24
253.752	11.95
253.968	26.28
254.185	-14.68
254.401	132.78
254.618	69.29
254.835	-24.92
255.051	102.06
255.268	122.54
255.484	93.87
255.701	32.43
255.917	85.67
256.134	20.14
256.351	67.24
256.567	-51.54
256.784	20.14
257	-69.97
257.217	175.78
257.433	167.59
257.65	73.39
257.866	145.06
258.082	3.75
258.299	-14.68
258.515	40.62
258.732	38.57
258.948	-67.92
259.165	89.77
259.381	-24.92
259.597	59.05
259.814	65.19
260.03	18.09
260.246	22.19
260.463	120.49
260.679	128.68
260.895	106.15
261.112	175.78
261.328	57
261.544	67.24
261.761	165.54
261.977	3.75
262.193	-47.44
262.409	132.78
262.626	79.53
262.842	52.91
263.058	38.57
263.274	77.48
263.49	67.24
263.707	91.82
263.923	130.73
264.139	-39.25
264.355	-10.58
264.571	69.29
264.787	65.19
265.004	169.64
265.22	22.19
265.436	11.95
265.652	28.33
265.868	73.39
266.084	-26.96
266.3	83.63
266.516	97.96
266.732	157.35
266.948	-24.92
267.164	34.47
267.38	69.29
267.596	13.99
267.812	134.82
268.028	157.35
268.244	46.76
268.46	52.91
268.676	3.75
268.892	87.72
269.108	-0.34
269.324	-2.39
269.54	-24.92
269.756	100.01
269.972	38.57
270.188	46.76
270.403	-63.83
270.619	42.67
270.835	52.91
271.051	75.43
271.267	-2.39
271.483	-61.78
271.698	69.29
271.914	59.05
272.13	54.95
272.346	44.71
272.562	85.67
272.777	26.28
272.993	-65.88
273.209	57
273.425	69.29
273.64	-26.96
273.856	57
274.072	-22.87
274.287	54.95
274.503	54.95
274.719	61.1
274.934	-63.83
275.15	-16.73
275.366	44.71
275.581	-86.36
275.797	71.34
276.012	59.05
276.228	44.71
276.444	65.19
276.659	65.19
276.875	-57.68
277.09	-16.73
277.306	42.67
277.521	143.02
277.737	77.48
277.952	132.78
278.168	-67.92
278.383	42.67
278.599	63.15
278.814	46.76
279.03	32.43
279.245	136.87
279.461	20.14
279.676	120.49
279.892	-24.92
280.107	5.8
280.322	-26.96
280.538	128.68
280.753	-22.87
280.969	52.91
281.184	44.71
281.399	89.77
281.615	-31.06
281.83	44.71
282.045	-20.82
282.26	32.43
282.476	26.28
282.691	83.63
282.906	63.15
283.122	102.06
283.337	-10.58
283.552	28.33
283.767	-8.53
283.983	134.82
284.198	75.43
284.413	36.52
284.628	-12.63
284.843	89.77
285.058	145.06
285.274	69.29
285.489	-53.59
285.704	54.95
285.919	-51.54
286.134	-2.39
286.349	36.52
286.564	-29.01
286.779	128.68
286.995	-8.53
287.21	-76.12
287.425	110.25
287.64	65.19
287.855	108.2
288.07	-41.3
288.285	134.82
288.5	89.77
288.715	34.47
288.93	-8.53
289.145	-49.49
289.36	85.67
289.575	16.04
289.79	159.4
290.004	-2.39
290.219	73.39
290.434	-20.82
290.649	34.47
290.864	22.19
291.079	-22.87
291.294	165.54
291.509	79.53
291.724	77.48
291.938	-12.63
292.153	110.25
292.368	46.76
292.583	42.67
292.798	3.75
293.012	104.11
293.227	77.48
293.442	-20.82
293.657	138.92
293.871	93.87
294.086	85.67
294.301	198.31
294.516	89.77
294.73	85.67
294.945	-20.82
295.16	-61.78
295.374	108.2
295.589	65.19
295.804	83.63
296.018	118.44
296.233	128.68
296.447	50.86
296.662	-10.58
296.877	124.58
297.091	114.34
297.306	46.76
297.52	30.38
297.735	81.58
297.949	136.87
298.164	32.43
298.378	77.48
298.593	-47.44
298.807	-14.68
299.022	30.38
299.236	145.06
299.451	28.33
299.665	57
299.88	38.57
300.094	120.49
300.309	9.9
300.523	26.28
300.737	-35.16
300.952	91.82
301.166	136.87
301.381	-24.92
301.595	24.23
301.809	-8.53
302.024	54.95
302.238	24.23
302.452	216.74
302.667	11.95
302.881	126.63
303.095	81.58
303.309	75.43
303.524	-2.39
303.738	91.82
303.952	-67.92
304.166	52.91
304.381	-106.84
304.595	126.63
304.809	18.09
305.023	-6.49
305.237	11.95
305.452	11.95
305.666	61.1
305.88	44.71
306.094	93.87
306.308	67.24
306.522	104.11
306.736	40.62
306.95	89.77
307.164	91.82
307.379	-18.77
307.593	175.78
307.807	79.53
308.021	54.95
308.235	87.72
308.449	-47.44
308.663	40.62
308.877	212.65
309.091	16.04
309.305	42.67
309.519	-96.6
309.733	136.87
309.947	-51.54
310.161	30.38
310.374	95.91
310.588	153.26
310.802	20.14
311.016	79.53
311.23	114.34
311.444	-37.2
311.658	61.1
311.872	100.01
312.085	177.83
312.299	204.46
312.513	134.82
312.727	34.47
312.941	-22.87
313.154	-0.34
313.368	52.91
313.582	44.71
313.796	87.72
314.009	13.99
314.223	77.48
314.437	106.15
314.651	100.01
314.864	1.71
315.078	-78.16
315.292	61.1
315.505	40.62
315.719	32.43
315.933	65.19
316.146	32.43
316.36	-12.63
316.573	155.3
316.787	81.58
317.001	93.87
317.214	16.04
317.428	81.58
317.641	-57.68
317.855	-37.2
318.068	93.87
318.282	93.87
318.495	181.93
318.709	83.63
318.922	71.34
319.136	153.26
319.349	128.68
319.563	-6.49
319.776	65.19
319.99	-14.68
320.203	151.21
320.417	36.52
320.63	134.82
320.843	138.92
321.057	81.58
321.27	-16.73
321.483	59.05
321.697	149.16
321.91	28.33
322.124	108.2
322.337	83.63
322.55	22.19
322.763	11.95
322.977	-39.25
323.19	77.48
323.403	71.34
323.617	83.63
323.83	97.96
324.043	26.28
324.256	57
324.469	-8.53
324.683	132.78
324.896	-57.68
325.109	95.91
325.322	-90.45
325.535	100.01
325.748	120.49
325.962	5.8
326.175	28.33
326.388	38.57
326.601	108.2
326.814	42.67
327.027	24.23
327.24	188.07
327.453	-61.78
327.666	44.71
327.879	186.02
328.092	122.54
328.305	145.06
328.518	26.28
328.731	50.86
328.944	57
329.157	59.05
329.37	50.86
329.583	235.18
329.796	93.87
330.009	18.09
330.222	46.76
330.435	128.68
330.648	24.23
330.861	50.86
331.073	34.47
331.286	67.24
331.499	120.49
331.712	11.95
331.925	120.49
332.138	-14.68
332.35	81.58
332.563	13.99
332.776	145.06
332.989	24.23
333.202	18.09
333.414	85.67
333.627	54.95
333.84	28.33
334.053	52.91
334.265	34.47
334.478	22.19
334.691	-14.68
334.903	46.76
335.116	30.38
335.329	-0.34
335.541	46.76
335.754	149.16
335.966	5.8
336.179	18.09
336.392	65.19
336.604	65.19
336.817	114.34
337.029	3.75
337.242	7.85
337.454	140.97
337.667	67.24
337.88	171.69
338.092	151.21
338.305	95.91
338.517	-0.34
338.729	157.35
338.942	147.11
339.154	-80.21
339.367	-37.2
339.579	97.96
339.792	3.75
340.004	104.11
340.217	28.33
340.429	67.24
340.641	-10.58
340.854	-26.96
341.066	46.76
341.278	161.45
341.491	188.07
341.703	42.67
341.915	38.57
342.128	28.33
342.34	32.43
342.552	3.75
342.764	13.99
342.977	34.47
343.189	87.72
343.401	65.19
343.613	-10.58
343.826	63.15
344.038	57
344.25	57
344.462	-26.96
344.674	126.63
344.886	30.38
345.099	44.71
345.311	65.19
345.523	1.71
345.735	-74.07
345.947	65.19
346.159	34.47
346.371	13.99
346.583	42.67
346.795	120.49
347.007	42.67
347.219	134.82
347.431	54.95
347.643	106.15
347.855	-26.96
348.067	108.2
348.279	1.71
348.491	9.9
348.703	67.24
348.915	59.05
349.127	-8.53
349.339	50.86
349.551	-4.44
349.763	122.54
349.975	-16.73
350.187	48.81
350.399	124.58
350.61	100.01
350.822	69.29
351.034	57
351.246	38.57
351.458	52.91
351.669	104.11
351.881	157.35
352.093	161.45
352.305	126.63
352.517	63.15
352.728	175.78
352.94	67.24
353.152	116.39
353.363	48.81
353.575	136.87
353.787	229.03
353.999	28.33
354.21	212.65
354.422	9.9
354.633	-14.68
354.845	110.25
355.057	46.76
355.268	9.9
355.48	77.48
355.692	7.85
355.903	54.95
356.115	-106.84
356.326	-104.79
356.538	147.11
356.749	122.54
356.961	159.4
357.172	26.28
357.384	-20.82
357.595	198.31
357.807	73.39
358.018	30.38
358.23	63.15
358.441	112.3
358.653	13.99
358.864	13.99
359.075	-61.78
359.287	95.91
359.498	181.93
359.709	71.34
359.921	73.39
360.132	89.77
360.344	46.76
360.555	26.28
360.766	42.67
360.977	38.57
361.189	89.77
361.4	26.28
361.611	102.06
361.823	114.34
362.034	93.87
362.245	-22.87
362.456	46.76
362.667	57
362.879	-4.44
363.09	100.01
363.301	54.95
363.512	136.87
363.723	-43.35
363.935	22.19
364.146	163.5
364.357	3.75
364.568	73.39
364.779	-115.03
364.99	81.58
365.201	-4.44
365.412	175.78
365.623	-74.07
365.834	36.52
366.045	69.29
366.256	97.96
366.467	106.15
366.678	-12.63
366.889	81.58
367.1	-16.73
367.311	194.22
367.522	63.15
367.733	163.5
367.944	63.15
368.155	-41.3
368.366	126.63
368.577	108.2
368.788	97.96
368.999	65.19
369.209	26.28
369.42	272.04
369.631	206.5
369.842	52.91
370.053	-0.34
370.264	110.25
370.474	-78.16
370.685	79.53
370.896	83.63
371.107	118.44
371.317	149.16
371.528	59.05
371.739	100.01
371.95	81.58
372.16	110.25
372.371	-26.96
372.582	20.14
372.792	30.38
373.003	79.53
373.214	71.34
373.424	50.86
373.635	-61.78
373.846	75.43
374.056	120.49
374.267	54.95
374.477	149.16
374.688	16.04
374.898	83.63
375.109	77.48
375.319	93.87
375.53	116.39
375.74	181.93
375.951	1.71
376.161	42.67
376.372	145.06
376.582	-22.87
376.793	102.06
377.003	13.99
377.214	79.53
377.424	177.83
377.635	87.72
377.845	-14.68
378.055	147.11
378.266	-100.69
378.476	48.81
378.686	26.28
378.897	108.2
379.107	134.82
379.317	116.39
379.528	16.04
379.738	87.72
379.948	-37.2
380.158	169.64
380.369	36.52
380.579	75.43
380.789	28.33
380.999	26.28
381.21	32.43
381.42	212.65
381.63	7.85
381.84	42.67
382.05	83.63
382.261	79.53
382.471	124.58
382.681	50.86
382.891	140.97
383.101	95.91
383.311	11.95
383.521	-33.11
383.731	13.99
383.941	50.86
384.151	-4.44
384.361	-14.68
384.571	65.19
384.781	87.72
384.991	147.11
385.201	167.59
385.411	122.54
385.621	85.67
385.831	-4.44
386.041	61.1
386.251	9.9
386.461	59.05
386.671	63.15
386.881	9.9
387.091	3.75
387.301	75.43
387.511	93.87
387.72	112.3
387.93	97.96
388.14	-0.34
388.35	71.34
388.56	116.39
388.769	91.82
388.979	69.29
389.189	-67.92
389.399	-72.02
389.609	171.69
389.818	65.19
390.028	85.67
390.238	114.34
390.447	-12.63
390.657	26.28
390.867	77.48
391.076	-69.97
391.286	81.58
391.496	46.76
391.705	20.14
391.915	126.63
392.125	100.01
392.334	-0.34
392.544	85.67
392.753	28.33
392.963	-39.25
393.172	106.15
393.382	-37.2
393.591	208.55
393.801	81.58
394.01	177.83
394.22	57
394.429	5.8
394.639	44.71
394.848	63.15
395.058	145.06
395.267	40.62
395.477	171.69
395.686	16.04
395.895	224.94
396.105	198.31
396.314	65.19
396.524	32.43
396.733	104.11
396.942	102.06
397.152	89.77
397.361	69.29
397.57	120.49
397.78	83.63
397.989	83.63
398.198	145.06
398.407	59.05
398.617	-0.34
398.826	48.81
399.035	16.04
399.244	134.82
399.453	81.58
399.663	34.47
399.872	9.9
400.081	-29.01
400.29	192.17
400.499	18.09
400.708	118.44
400.917	87.72
401.127	9.9
401.336	-12.63
401.545	110.25
401.754	116.39
401.963	79.53
402.172	34.47
402.381	24.23
402.59	24.23
402.799	46.76
403.008	140.97
403.217	30.38
403.426	173.74
403.635	-49.49
403.844	40.62
404.053	54.95
404.262	-0.34
404.471	226.98
404.68	83.63
404.888	48.81
405.097	-12.63
405.306	61.1
405.515	54.95
405.724	48.81
405.933	100.01
406.142	-0.34
406.35	75.43
406.559	22.19
406.768	97.96
406.977	134.82
407.185	46.76
407.394	87.72
407.603	-47.44
407.812	77.48
408.02	163.5
408.229	97.96
408.438	40.62
408.646	-86.36
408.855	44.71
409.064	81.58
409.272	79.53
409.481	73.39
409.69	-22.87
409.898	16.04
410.107	93.87
410.315	114.34
410.524	22.19
410.733	102.06
410.941	100.01
411.15	75.43
411.358	155.3
411.567	79.53
411.775	52.91
411.984	63.15
412.192	32.43
412.401	-10.58
412.609	179.88
412.818	134.82
413.026	57
413.234	30.38
413.443	34.47
413.651	-18.77
413.86	34.47
414.068	85.67
414.276	159.4
414.485	-29.01
414.693	173.74
414.901	183.98
415.11	65.19
415.318	147.11
415.526	30.38
415.734	91.82
415.943	32.43
416.151	188.07
416.359	69.29
416.567	34.47
416.776	97.96
416.984	138.92
417.192	147.11
417.4	-45.4
417.608	38.57
417.817	-76.12
418.025	149.16
418.233	140.97
418.441	-20.82
418.649	-76.12
418.857	24.23
419.065	181.93
419.273	-0.34
419.481	77.48
419.689	100.01
419.897	65.19
420.105	5.8
420.313	75.43
420.521	149.16
420.729	157.35
420.937	42.67
421.145	28.33
421.353	89.77
421.561	194.22
421.769	147.11
421.977	-41.3
422.185	120.49
422.393	57
422.601	122.54
422.809	75.43
423.017	46.76
423.224	26.28
423.432	132.78
423.64	65.19
423.848	216.74
424.056	1.71
424.263	161.45
424.471	40.62
424.679	194.22
424.887	30.38
425.094	112.3
425.302	89.77
425.51	61.1
425.718	120.49
425.925	114.34
426.133	85.67
426.341	224.94
426.548	11.95
426.756	61.1
426.964	132.78
427.171	11.95
427.379	87.72
427.586	161.45
427.794	114.34
428.001	167.59
428.209	89.77
428.417	218.79
428.624	79.53
428.832	134.82
429.039	118.44
429.247	89.77
429.454	226.98
429.662	151.21
429.869	114.34
430.076	114.34
430.284	202.41
430.491	257.7
430.699	112.3
430.906	253.61
431.114	83.63
431.321	93.87
431.528	116.39
431.736	114.34
431.943	155.3
432.15	229.03
432.358	173.74
432.565	235.18
432.772	5.8
432.979	145.06
433.187	143.02
433.394	229.03
433.601	138.92
433.808	243.37
434.016	214.7
434.223	136.87
434.43	188.07
434.637	208.55
434.844	163.5
435.052	169.64
435.259	204.46
435.466	308.9
435.673	333.48
435.88	274.09
436.087	310.95
436.294	274.09
436.501	368.29
436.708	239.27
436.915	229.03
437.122	292.52
437.329	229.03
437.537	339.62
437.743	319.14
437.95	384.68
438.157	366.25
438.364	382.63
438.571	269.99
438.778	349.86
438.985	401.06
439.192	507.55
439.399	411.3
439.606	417.44
439.813	491.17
440.02	523.94
440.227	700.06
440.433	468.64
440.64	566.95
440.847	515.75
441.054	614.05
441.261	659.1
441.467	624.29
441.674	466.6
441.881	769.69
442.088	550.56
442.294	704.16
442.501	738.98
442.708	730.78
442.914	708.26
443.121	781.98
443.328	767.65
443.534	917.15
443.741	933.53
443.948	726.69
444.154	941.72
444.361	992.92
444.568	1009.31
444.774	992.92
444.981	978.59
445.187	1097.37
445.394	978.59
445.6	1080.99
445.807	1154.71
446.013	1132.19
446.22	1134.23
446.426	1296.02
446.633	1322.65
446.839	1599.12
447.046	1365.65
447.252	1554.07
447.459	1490.58
447.665	1474.2
447.871	1670.8
448.078	1820.3
448.284	1771.15
448.491	1777.3
448.697	1980.04
448.903	1980.04
449.11	2035.34
449.316	2072.2
449.522	2244.23
449.728	2199.18
449.935	2397.83
450.141	2375.3
450.347	2594.44
450.553	2401.93
450.76	2496.13
450.966	2719.36
451.172	2709.12
451.378	2850.43
451.584	2961.02
451.791	3272.31
451.997	3255.93
452.203	3337.85
452.409	3475.06
452.615	3657.33
452.821	3638.9
453.027	3632.76
453.233	3933.81
453.44	3866.22
453.646	3997.29
453.852	4212.33
454.058	4466.28
454.264	4578.92
454.47	4812.39
454.676	4851.3
454.882	5416.54
455.088	5056.09
455.294	5437.02
455.5	5834.32
455.705	6080.08
455.911	6002.26
456.117	6301.26
456.323	6379.08
456.529	6483.53
456.735	6934.08
456.941	7274.04
457.147	7644.73
457.352	7835.19
457.558	7951.92
457.764	8291.88
457.97	8408.62
458.176	8916.51
458.381	9451.03
458.587	9649.69
458.793	10032.66
458.999	9938.45
459.204	11171.33
459.41	11591.16
459.616	11658.74
459.821	12260.85
460.027	12580.33
460.233	13270.5
460.438	13366.75
460.644	14067.16
460.85	14185.94
461.055	14923.21
461.261	15472.06
461.466	15166.92
461.672	15353.28
461.878	17294.75
462.083	17116.58
462.289	17112.49
462.494	18277.78
462.7	18255.25
462.905	18517.39
463.111	20041.08
463.316	20991.34
463.522	21273.96
463.727	22134.1
463.932	22928.72
464.138	23549.25
464.343	24565.04
464.549	24884.53
464.754	26184.99
464.959	27399.43
465.165	27442.44
465.37	27540.74
465.575	27270.41
465.781	29390.06
465.986	29631.72
466.191	29445.35
466.397	29701.35
466.602	29048.05
466.807	30485.72
467.012	31302.86
467.218	32210.11
467.423	31927.49
467.628	32746.68
467.833	34626.71
468.038	33883.3
468.244	33379.5
468.449	35249.3
468.654	34380.96
468.859	34411.68
