Data from USB4F104151__200__11-05-31-830.txt Node

Date: Wed Feb 26 11:05:31 EST 2025
User: louis
Spectrometer: USB4F10415
Trigger mode: 4
Integration Time (sec): 1.000000E-1
Scans to average: 1
Electric dark correction enabled: true
Nonlinearity correction enabled: false
Boxcar width: 0
XAxis mode: Wavelengths
Number of Pixels in Spectrum: 3648
>>>>>Begin Spectral Data<<<<<
178.204	-345.25
178.424	-345.25
178.644	-345.25
178.864	-380.07
179.084	-429.22
179.304	-89.26
179.524	9.05
179.744	101.2
179.964	2.9
180.184	19.29
180.404	-13.48
180.624	-50.35
180.844	33.62
181.064	-85.16
181.283	-23.72
181.503	19.29
181.723	76.63
181.943	-140.46
182.163	195.41
182.383	-54.44
182.602	99.16
182.822	158.55
183.042	21.33
183.262	-46.25
183.482	-11.43
183.701	43.86
183.921	86.87
184.141	31.57
184.361	62.29
184.58	127.83
184.8	-9.39
185.02	-44.2
185.239	72.53
185.459	136.02
185.679	99.16
185.898	-70.83
186.118	33.62
186.338	-9.39
186.557	62.29
186.777	27.48
186.997	50
187.216	74.58
187.436	187.22
187.655	-9.39
187.875	127.83
188.095	66.39
188.314	121.68
188.534	50
188.753	4.95
188.973	150.36
189.192	185.17
189.412	-31.91
189.631	4.95
189.851	76.63
190.07	140.12
190.29	-66.73
190.509	-15.53
190.729	56.15
190.948	78.68
191.168	191.31
191.387	142.16
191.607	-17.58
191.826	54.1
192.045	-81.07
192.265	13.14
192.484	60.24
192.704	-25.77
192.923	21.33
193.142	138.07
193.362	117.59
193.581	90.96
193.8	58.2
194.02	136.02
194.239	45.91
194.458	37.72
194.678	2.9
194.897	56.15
195.116	52.05
195.335	37.72
195.555	39.76
195.774	52.05
195.993	109.4
196.212	70.48
196.432	25.43
196.651	-19.63
196.87	-68.78
197.089	236.37
197.308	97.11
197.528	84.82
197.747	-87.21
197.966	131.92
198.185	76.63
198.404	-93.35
198.623	78.68
198.842	43.86
199.062	136.02
199.281	76.63
199.5	35.67
199.719	52.05
199.938	-17.58
200.157	174.93
200.376	152.4
200.595	78.68
200.814	60.24
201.033	27.48
201.252	127.83
201.471	27.48
201.69	13.14
201.909	103.25
202.128	105.3
202.347	43.86
202.566	-25.77
202.785	-72.87
203.004	-44.2
203.223	226.13
203.442	4.95
203.661	-36.01
203.879	54.1
204.098	131.92
204.317	-87.21
204.536	142.16
204.755	41.81
204.974	62.29
205.193	84.82
205.411	109.4
205.63	99.16
205.849	80.72
206.068	23.38
206.287	0.85
206.505	123.73
206.724	2.9
206.943	-5.29
207.162	-101.55
207.381	90.96
207.599	-50.35
207.818	72.53
208.037	-31.91
208.255	-7.34
208.474	27.48
208.693	56.15
208.911	-1.19
209.13	111.44
209.349	29.52
209.567	90.96
209.786	27.48
210.005	111.44
210.223	11.09
210.442	-117.93
210.661	66.39
210.879	9.05
211.098	33.62
211.316	64.34
211.535	80.72
211.753	37.72
211.972	23.38
212.191	101.2
212.409	-7.34
212.628	70.48
212.846	-3.24
213.065	60.24
213.283	47.96
213.502	39.76
213.72	4.95
213.938	62.29
214.157	-29.87
214.375	133.97
214.594	19.29
214.812	133.97
215.031	2.9
215.249	27.48
215.467	78.68
215.686	45.91
215.904	50
216.122	2.9
216.341	127.83
216.559	131.92
216.778	56.15
216.996	201.55
217.214	-31.91
217.432	-25.77
217.651	-36.01
217.869	7
218.087	21.33
218.306	35.67
218.524	60.24
218.742	-9.39
218.96	41.81
219.179	-19.63
219.397	-19.63
219.615	232.27
219.833	138.07
220.051	-56.49
220.27	191.31
220.488	117.59
220.706	95.06
220.924	25.43
221.142	-70.83
221.36	62.29
221.578	41.81
221.796	99.16
222.015	35.67
222.233	64.34
222.451	78.68
222.669	-62.63
222.887	82.77
223.105	19.29
223.323	17.24
223.541	-62.63
223.759	-50.35
223.977	84.82
224.195	86.87
224.413	90.96
224.631	39.76
224.849	95.06
225.067	125.78
225.285	-31.91
225.503	-3.24
225.721	-91.31
225.939	47.96
226.157	99.16
226.375	164.69
226.592	-25.77
226.81	50
227.028	60.24
227.246	90.96
227.464	27.48
227.682	70.48
227.9	101.2
228.117	56.15
228.335	88.92
228.553	13.14
228.771	56.15
228.989	76.63
229.206	25.43
229.424	52.05
229.642	74.58
229.86	2.9
230.077	183.12
230.295	0.85
230.513	152.4
230.731	66.39
230.948	113.49
231.166	168.79
231.384	37.72
231.601	-50.35
231.819	115.54
232.037	-21.67
232.254	-23.72
232.472	-52.39
232.689	43.86
232.907	88.92
233.125	-11.43
233.342	-19.63
233.56	15.19
233.777	7
233.995	68.44
234.213	90.96
234.43	13.14
234.648	21.33
234.865	37.72
235.083	41.81
235.3	74.58
235.518	25.43
235.735	105.3
235.953	101.2
236.17	43.86
236.388	21.33
236.605	11.09
236.822	56.15
237.04	84.82
237.257	43.86
237.475	-44.2
237.692	15.19
237.909	62.29
238.127	-5.29
238.344	56.15
238.562	0.85
238.779	-72.87
238.996	-52.39
239.214	60.24
239.431	56.15
239.648	-1.19
239.865	117.59
240.083	97.11
240.3	-31.91
240.517	-40.11
240.735	-33.96
240.952	25.43
241.169	52.05
241.386	-11.43
241.603	72.53
241.821	-64.68
242.038	54.1
242.255	90.96
242.472	-5.29
242.689	76.63
242.907	72.53
243.124	23.38
243.341	17.24
243.558	-72.87
243.775	-52.39
243.992	-58.54
244.209	66.39
244.426	187.22
244.643	23.38
244.86	-11.43
245.078	76.63
245.295	105.3
245.512	66.39
245.729	50
245.946	119.64
246.163	86.87
246.38	111.44
246.597	-1.19
246.814	76.63
247.031	7
247.248	19.29
247.464	29.52
247.681	54.1
247.898	-9.39
248.115	27.48
248.332	-11.43
248.549	140.12
248.766	129.88
248.983	90.96
249.2	60.24
249.417	80.72
249.633	-31.91
249.85	56.15
250.067	-17.58
250.284	17.24
250.501	101.2
250.717	117.59
250.934	-38.06
251.151	43.86
251.368	70.48
251.585	60.24
251.801	117.59
252.018	-66.73
252.235	129.88
252.451	35.67
252.668	64.34
252.885	172.88
253.102	80.72
253.318	-31.91
253.535	-21.67
253.752	93.01
253.968	-19.63
254.185	-103.59
254.401	31.57
254.618	52.05
254.835	-60.59
255.051	109.4
255.268	121.68
255.484	-19.63
255.701	47.96
255.917	56.15
256.134	9.05
256.351	76.63
256.567	-83.11
256.784	-36.01
257	-40.11
257.217	54.1
257.433	125.78
257.65	29.52
257.866	179.03
258.082	-66.73
258.299	-48.3
258.515	-9.39
258.732	-52.39
258.948	-36.01
259.165	60.24
259.381	-44.2
259.597	93.01
259.814	2.9
260.03	39.76
260.246	7
260.463	23.38
260.679	117.59
260.895	-25.77
261.112	76.63
261.328	45.91
261.544	31.57
261.761	150.36
261.977	-11.43
262.193	-21.67
262.409	33.62
262.626	43.86
262.842	66.39
263.058	7
263.274	50
263.49	-7.34
263.707	131.92
263.923	23.38
264.139	-21.67
264.355	11.09
264.571	56.15
264.787	84.82
265.004	78.68
265.22	11.09
265.436	-54.44
265.652	4.95
265.868	11.09
266.084	-52.39
266.3	-36.01
266.516	-56.49
266.732	23.38
266.948	0.85
267.164	43.86
267.38	27.48
267.596	183.12
267.812	127.83
268.028	101.2
268.244	-3.24
268.46	11.09
268.676	-58.54
268.892	31.57
269.108	-50.35
269.324	-115.88
269.54	-27.82
269.756	50
269.972	-54.44
270.188	4.95
270.403	-93.35
270.619	-1.19
270.835	78.68
271.051	31.57
271.267	-23.72
271.483	-54.44
271.698	50
271.914	58.2
272.13	60.24
272.346	4.95
272.562	0.85
272.777	93.01
272.993	68.44
273.209	-15.53
273.425	50
273.64	-36.01
273.856	99.16
274.072	-3.24
274.287	7
274.503	162.64
274.719	90.96
274.934	-17.58
275.15	-74.92
275.366	4.95
275.581	35.67
275.797	95.06
276.012	-27.82
276.228	-7.34
276.444	35.67
276.659	107.35
276.875	-38.06
277.09	66.39
277.306	-15.53
277.521	25.43
277.737	-54.44
277.952	45.91
278.168	-36.01
278.383	33.62
278.599	-15.53
278.814	-46.25
279.03	29.52
279.245	148.31
279.461	-19.63
279.676	133.97
279.892	-109.74
280.107	-60.59
280.322	19.29
280.538	99.16
280.753	-21.67
280.969	78.68
281.184	21.33
281.399	95.06
281.615	37.72
281.83	-5.29
282.045	-46.25
282.26	-13.48
282.476	0.85
282.691	60.24
282.906	54.1
283.122	35.67
283.337	-21.67
283.552	43.86
283.767	13.14
283.983	21.33
284.198	78.68
284.413	19.29
284.628	-115.88
284.843	54.1
285.058	43.86
285.274	23.38
285.489	2.9
285.704	-1.19
285.919	-29.87
286.134	37.72
286.349	50
286.564	-42.15
286.779	97.11
286.995	37.72
287.21	-154.79
287.425	27.48
287.64	-66.73
287.855	39.76
288.07	-27.82
288.285	101.2
288.5	64.34
288.715	33.62
288.93	33.62
289.145	17.24
289.36	123.73
289.575	-83.11
289.79	166.74
290.004	-58.54
290.219	45.91
290.434	25.43
290.649	41.81
290.864	2.9
291.079	72.53
291.294	64.34
291.509	129.88
291.724	13.14
291.938	-21.67
292.153	19.29
292.368	54.1
292.583	25.43
292.798	131.92
293.012	43.86
293.227	31.57
293.442	-62.63
293.657	133.97
293.871	101.2
294.086	138.07
294.301	152.4
294.516	103.25
294.73	27.48
294.945	68.44
295.16	-23.72
295.374	90.96
295.589	113.49
295.804	-21.67
296.018	-5.29
296.233	138.07
296.447	152.4
296.662	66.39
296.877	127.83
297.091	119.64
297.306	7
297.52	35.67
297.735	-19.63
297.949	52.05
298.164	-9.39
298.378	33.62
298.593	-70.83
298.807	-79.02
299.022	-31.91
299.236	76.63
299.451	2.9
299.665	9.05
299.88	23.38
300.094	41.81
300.309	103.25
300.523	-15.53
300.737	15.19
300.952	78.68
301.166	37.72
301.381	-19.63
301.595	45.91
301.809	45.91
302.024	-21.67
302.238	-27.82
302.452	162.64
302.667	39.76
302.881	99.16
303.095	99.16
303.309	45.91
303.524	-58.54
303.738	33.62
303.952	-54.44
304.166	56.15
304.381	-160.94
304.595	76.63
304.809	-21.67
305.023	39.76
305.237	-31.91
305.452	-42.15
305.666	58.2
305.88	56.15
306.094	226.13
306.308	43.86
306.522	133.97
306.736	127.83
306.95	111.44
307.164	-40.11
307.379	37.72
307.593	125.78
307.807	125.78
308.021	82.77
308.235	47.96
308.449	-101.55
308.663	39.76
308.877	160.59
309.091	60.24
309.305	66.39
309.519	-50.35
309.733	72.53
309.947	-83.11
310.161	103.25
310.374	66.39
310.588	150.36
310.802	-29.87
311.016	58.2
311.23	50
311.444	-25.77
311.658	29.52
311.872	93.01
312.085	41.81
312.299	66.39
312.513	166.74
312.727	41.81
312.941	27.48
313.154	33.62
313.368	-29.87
313.582	43.86
313.796	2.9
314.009	-17.58
314.223	54.1
314.437	43.86
314.651	19.29
314.864	43.86
315.078	78.68
315.292	-46.25
315.505	33.62
315.719	25.43
315.933	17.24
316.146	-13.48
316.36	-33.96
316.573	164.69
316.787	0.85
317.001	0.85
317.214	7
317.428	125.78
317.641	-109.74
317.855	-1.19
318.068	-33.96
318.282	121.68
318.495	86.87
318.709	60.24
318.922	27.48
319.136	131.92
319.349	103.25
319.563	82.77
319.776	78.68
319.99	-148.65
320.203	43.86
320.417	7
320.63	105.3
320.843	170.83
321.057	103.25
321.27	56.15
321.483	27.48
321.697	154.45
321.91	45.91
322.124	39.76
322.337	35.67
322.55	15.19
322.763	-5.29
322.977	58.2
323.19	9.05
323.403	62.29
323.617	93.01
323.83	93.01
324.043	52.05
324.256	-13.48
324.469	-79.02
324.683	66.39
324.896	45.91
325.109	29.52
325.322	-91.31
325.535	13.14
325.748	84.82
325.962	31.57
326.175	86.87
326.388	82.77
326.601	144.21
326.814	-9.39
327.027	72.53
327.24	160.59
327.453	11.09
327.666	29.52
327.879	103.25
328.092	88.92
328.305	142.16
328.518	21.33
328.731	-23.72
328.944	-3.24
329.157	109.4
329.37	72.53
329.583	131.92
329.796	142.16
330.009	-31.91
330.222	45.91
330.435	66.39
330.648	60.24
330.861	41.81
331.073	62.29
331.286	86.87
331.499	64.34
331.712	-56.49
331.925	54.1
332.138	50
332.35	62.29
332.563	41.81
332.776	82.77
332.989	-29.87
333.202	2.9
333.414	25.43
333.627	29.52
333.84	-17.58
334.053	11.09
334.265	9.05
334.478	-13.48
334.691	-48.3
334.903	31.57
335.116	-54.44
335.329	-62.63
335.541	64.34
335.754	101.2
335.966	-83.11
336.179	-21.67
336.392	-46.25
336.604	-11.43
336.817	82.77
337.029	-11.43
337.242	-42.15
337.454	4.95
337.667	88.92
337.88	140.12
338.092	125.78
338.305	62.29
338.517	47.96
338.729	58.2
338.942	103.25
339.154	-13.48
339.367	-21.67
339.579	66.39
339.792	35.67
340.004	146.26
340.217	21.33
340.429	58.2
340.641	2.9
340.854	-48.3
341.066	-11.43
341.278	99.16
341.491	164.69
341.703	33.62
341.915	-40.11
342.128	31.57
342.34	-1.19
342.552	-54.44
342.764	19.29
342.977	-17.58
343.189	95.06
343.401	50
343.613	9.05
343.826	29.52
344.038	-46.25
344.25	-31.91
344.462	-54.44
344.674	107.35
344.886	31.57
345.099	125.78
345.311	47.96
345.523	15.19
345.735	-87.21
345.947	23.38
346.159	37.72
346.371	-15.53
346.583	23.38
346.795	117.59
347.007	-101.55
347.219	78.68
347.431	-17.58
347.643	133.97
347.855	-3.24
348.067	90.96
348.279	-66.73
348.491	-13.48
348.703	93.01
348.915	29.52
349.127	-5.29
349.339	82.77
349.551	50
349.763	47.96
349.975	88.92
350.187	25.43
350.399	144.21
350.61	111.44
350.822	-5.29
351.034	19.29
351.246	162.64
351.458	90.96
351.669	54.1
351.881	86.87
352.093	136.02
352.305	80.72
352.517	93.01
352.728	90.96
352.94	68.44
353.152	25.43
353.363	-56.49
353.575	72.53
353.787	189.27
353.999	-1.19
354.21	119.64
354.422	-40.11
354.633	41.81
354.845	64.34
355.057	62.29
355.268	43.86
355.48	56.15
355.692	-44.2
355.903	-1.19
356.115	2.9
356.326	-95.4
356.538	19.29
356.749	11.09
356.961	133.97
357.172	90.96
357.384	-29.87
357.595	138.07
357.807	33.62
358.018	35.67
358.23	-7.34
358.441	138.07
358.653	142.16
358.864	136.02
359.075	-29.87
359.287	21.33
359.498	62.29
359.709	17.24
359.921	-42.15
360.132	84.82
360.344	35.67
360.555	39.76
360.766	121.68
360.977	-52.39
361.189	140.12
361.4	-56.49
361.611	35.67
361.823	52.05
362.034	25.43
362.245	-52.39
362.456	11.09
362.667	-3.24
362.879	25.43
363.09	60.24
363.301	45.91
363.512	11.09
363.723	-38.06
363.935	-31.91
364.146	66.39
364.357	-9.39
364.568	95.06
364.779	17.24
364.99	19.29
365.201	31.57
365.412	131.92
365.623	-66.73
365.834	15.19
366.045	21.33
366.256	78.68
366.467	121.68
366.678	56.15
366.889	27.48
367.1	15.19
367.311	160.59
367.522	0.85
367.733	62.29
367.944	125.78
368.155	45.91
368.366	43.86
368.577	117.59
368.788	103.25
368.999	-15.53
369.209	33.62
369.42	164.69
369.631	224.08
369.842	101.2
370.053	23.38
370.264	68.44
370.474	-1.19
370.685	2.9
370.896	-23.72
371.107	207.7
371.317	52.05
371.528	-9.39
371.739	76.63
371.95	131.92
372.16	60.24
372.371	-54.44
372.582	-5.29
372.792	66.39
373.003	37.72
373.214	43.86
373.424	113.49
373.635	21.33
373.846	41.81
374.056	45.91
374.267	25.43
374.477	31.57
374.688	0.85
374.898	45.91
375.109	41.81
375.319	29.52
375.53	131.92
375.74	158.55
375.951	-15.53
376.161	72.53
376.372	56.15
376.582	4.95
376.793	56.15
377.003	41.81
377.214	-68.78
377.424	103.25
377.635	15.19
377.845	2.9
378.055	189.27
378.266	-56.49
378.476	19.29
378.686	41.81
378.897	76.63
379.107	133.97
379.317	54.1
379.528	-42.15
379.738	93.01
379.948	-56.49
380.158	86.87
380.369	-48.3
380.579	29.52
380.789	45.91
380.999	19.29
381.21	41.81
381.42	187.22
381.63	4.95
381.84	117.59
382.05	119.64
382.261	140.12
382.471	84.82
382.681	-87.21
382.891	70.48
383.101	33.62
383.311	-15.53
383.521	-29.87
383.731	127.83
383.941	191.31
384.151	-19.63
384.361	60.24
384.571	64.34
384.781	2.9
384.991	215.89
385.201	222.03
385.411	125.78
385.621	-1.19
385.831	60.24
386.041	11.09
386.251	17.24
386.461	105.3
386.671	82.77
386.881	-3.24
387.091	62.29
387.301	41.81
387.511	47.96
387.72	82.77
387.93	86.87
388.14	-68.78
388.35	103.25
388.56	95.06
388.769	138.07
388.979	82.77
389.189	-11.43
389.399	13.14
389.609	86.87
389.818	70.48
390.028	68.44
390.238	-7.34
390.447	-15.53
390.657	39.76
390.867	54.1
391.076	-44.2
391.286	95.06
391.496	45.91
391.705	60.24
391.915	146.26
392.125	54.1
392.334	-85.16
392.544	127.83
392.753	19.29
392.963	-1.19
393.172	45.91
393.382	-70.83
393.591	144.21
393.801	-5.29
394.01	195.41
394.22	88.92
394.429	-5.29
394.639	52.05
394.848	93.01
395.058	58.2
395.267	64.34
395.477	56.15
395.686	78.68
395.895	170.83
396.105	152.4
396.314	23.38
396.524	33.62
396.733	68.44
396.942	105.3
397.152	13.14
397.361	146.26
397.57	117.59
397.78	95.06
397.989	90.96
398.198	207.7
398.407	66.39
398.617	54.1
398.826	4.95
399.035	23.38
399.244	33.62
399.453	43.86
399.663	41.81
399.872	60.24
400.081	-11.43
400.29	47.96
400.499	-11.43
400.708	86.87
400.917	35.67
401.127	56.15
401.336	72.53
401.545	111.44
401.754	197.46
401.963	109.4
402.172	-9.39
402.381	-64.68
402.59	47.96
402.799	21.33
403.008	68.44
403.217	62.29
403.426	113.49
403.635	-52.39
403.844	-1.19
404.053	7
404.262	99.16
404.471	52.05
404.68	60.24
404.888	-1.19
405.097	-9.39
405.306	-1.19
405.515	31.57
405.724	-31.91
405.933	117.59
406.142	33.62
406.35	138.07
406.559	9.05
406.768	47.96
406.977	129.88
407.185	74.58
407.394	72.53
407.603	-85.16
407.812	64.34
408.02	226.13
408.229	-38.06
408.438	41.81
408.646	-13.48
408.855	76.63
409.064	78.68
409.272	76.63
409.481	76.63
409.69	72.53
409.898	-42.15
410.107	119.64
410.315	123.73
410.524	-29.87
410.733	27.48
410.941	82.77
411.15	97.11
411.358	31.57
411.567	107.35
411.775	97.11
411.984	76.63
412.192	84.82
412.401	66.39
412.609	207.7
412.818	129.88
413.026	140.12
413.234	7
413.443	105.3
413.651	33.62
413.86	31.57
414.068	172.88
414.276	197.46
414.485	21.33
414.693	168.79
414.901	195.41
415.11	72.53
415.318	43.86
415.526	31.57
415.734	64.34
415.943	72.53
416.151	113.49
416.359	113.49
416.567	101.2
416.776	54.1
416.984	152.4
417.192	101.2
417.4	-3.24
417.608	19.29
417.817	-62.63
418.025	115.54
418.233	162.64
418.441	-46.25
418.649	-91.31
418.857	84.82
419.065	113.49
419.273	-3.24
419.481	58.2
419.689	17.24
419.897	56.15
420.105	-33.96
420.313	115.54
420.521	86.87
420.729	183.12
420.937	37.72
421.145	-66.73
421.353	103.25
421.561	209.75
421.769	90.96
421.977	31.57
422.185	107.35
422.393	35.67
422.601	121.68
422.809	54.1
423.017	146.26
423.224	76.63
423.432	136.02
423.64	90.96
423.848	41.81
424.056	-56.49
424.263	66.39
424.471	45.91
424.679	90.96
424.887	29.52
425.094	109.4
425.302	117.59
425.51	19.29
425.718	117.59
425.925	105.3
426.133	35.67
426.341	162.64
426.548	33.62
426.756	88.92
426.964	136.02
427.171	13.14
427.379	64.34
427.586	56.15
427.794	121.68
428.001	168.79
428.209	93.01
428.417	121.68
428.624	113.49
428.832	23.38
429.039	107.35
429.247	117.59
429.454	80.72
429.662	256.85
429.869	60.24
430.076	52.05
430.284	154.45
430.491	176.98
430.699	131.92
430.906	201.55
431.114	109.4
431.321	115.54
431.528	172.88
431.736	121.68
431.943	201.55
432.15	150.36
432.358	129.88
432.565	217.94
432.772	-15.53
432.979	230.23
433.187	131.92
433.394	265.04
433.601	115.54
433.808	291.66
434.016	244.56
434.223	271.19
434.43	131.92
434.637	211.79
434.844	318.29
435.052	207.7
435.259	269.14
435.466	248.66
435.673	277.33
435.88	250.71
436.087	377.68
436.294	269.14
436.501	353.1
436.708	297.81
436.915	336.72
437.122	402.26
437.329	203.6
437.537	355.15
437.743	318.29
437.95	445.26
438.157	357.2
438.364	459.6
438.571	367.44
438.778	525.13
438.985	447.31
439.192	557.9
439.399	410.45
439.606	435.02
439.813	424.78
440.02	658.25
440.227	650.06
440.433	529.23
440.64	598.86
440.847	555.85
441.054	605
441.261	701.26
441.467	596.81
441.674	596.81
441.881	762.7
442.088	682.83
442.294	684.87
442.501	799.56
442.708	873.29
442.914	828.23
443.121	879.43
443.328	899.91
443.534	996.17
443.741	1028.93
443.948	820.04
444.154	1033.03
444.361	1205.06
444.568	1110.85
444.774	1145.67
444.981	1012.55
445.187	1375.04
445.394	1205.06
445.6	1209.15
445.807	1499.97
446.013	1391.42
446.22	1299.27
446.426	1606.46
446.633	1456.96
446.839	1747.77
447.046	1524.54
447.252	1776.44
447.459	1686.33
447.665	1796.92
447.871	1841.98
448.078	2038.58
448.284	2001.72
448.491	2038.58
448.697	2202.42
448.903	2280.24
449.11	2308.91
449.316	2380.59
449.522	2640.69
449.728	2636.59
449.935	2738.99
450.141	2685.74
450.347	2925.35
450.553	2781.99
450.76	2812.71
450.966	2994.98
451.172	3107.62
451.378	3283.75
451.584	3357.47
451.791	3650.33
451.997	3672.86
452.203	3793.69
452.409	3926.81
452.615	4248.34
452.821	4188.95
453.027	4221.72
453.233	4719.37
453.44	4498.19
453.646	4770.57
453.852	4895.5
454.058	4973.32
454.264	5282.56
454.47	5667.58
454.676	5735.17
454.882	6150.9
455.088	5847.8
455.294	6077.18
455.5	6623.98
455.705	6974.19
455.911	7023.34
456.117	7181.03
456.323	7428.84
456.529	7551.71
456.735	7987.93
456.941	8344.28
457.147	8655.57
457.352	8792.78
457.558	9130.7
457.764	9700.03
457.97	10021.56
458.176	10250.94
458.381	10805.94
458.587	11008.69
458.793	11586.21
458.999	11535.01
459.204	12847.76
459.41	13320.84
459.616	13347.47
459.821	13963.9
460.027	14596.73
460.233	15340.14
460.438	15311.47
460.644	16476.76
460.85	16382.56
461.055	16986.71
461.261	17918.53
461.466	17316.43
461.672	17764.93
461.878	19827.24
462.083	19821.09
462.289	19903.01
462.494	21084.69
462.7	20974.1
462.905	21254.67
463.111	23060.98
463.316	24064.49
463.522	24519.14
463.727	25420.24
463.932	26376.64
464.138	27466.16
464.343	28051.88
464.549	28590.5
464.754	30675.33
464.959	31152.51
465.165	31682.93
465.37	31697.27
465.575	31482.23
465.781	33734.99
465.986	34949.44
466.191	34146.64
466.397	34554.18
466.602	33718.61
466.807	35551.54
467.012	36550.95
467.218	36573.48
467.423	36987.17
467.628	37781.78
467.833	39801.08
468.038	38770.95
468.244	38058.26
468.449	40548.59
468.654	39403.77
468.859	39241.98
469.064	39264.51
