Data from USB4F104151__100__10-45-24-366.txt Node

Date: Wed Feb 26 10:45:24 EST 2025
User: louis
Spectrometer: USB4F10415
Trigger mode: 4
Integration Time (sec): 1.000000E-1
Scans to average: 1
Electric dark correction enabled: true
Nonlinearity correction enabled: false
Boxcar width: 0
XAxis mode: Wavelengths
Number of Pixels in Spectrum: 3648
>>>>>Begin Spectral Data<<<<<
178.204	-400.55
178.424	-400.55
178.644	-400.55
178.864	-412.84
179.084	-324.77
179.304	9.05
179.524	-23.72
179.744	56.15
179.964	54.1
180.184	82.77
180.404	56.15
180.624	-70.83
180.844	-44.2
181.064	-54.44
181.283	13.14
181.503	-56.49
181.723	-21.67
181.943	-93.35
182.163	189.27
182.383	-101.55
182.602	99.16
182.822	144.21
183.042	80.72
183.262	-62.63
183.482	29.52
183.701	72.53
183.921	90.96
184.141	21.33
184.361	88.92
184.58	101.2
184.8	72.53
185.02	-93.35
185.239	121.68
185.459	80.72
185.679	82.77
185.898	-113.83
186.118	43.86
186.338	52.05
186.557	131.92
186.777	-64.68
186.997	25.43
187.216	15.19
187.436	187.22
187.655	133.97
187.875	117.59
188.095	39.76
188.314	113.49
188.534	158.55
188.753	45.91
188.973	70.48
189.192	246.61
189.412	62.29
189.631	31.57
189.851	107.35
190.07	174.93
190.29	-81.07
190.509	39.76
190.729	47.96
190.948	131.92
191.168	226.13
191.387	99.16
191.607	-5.29
191.826	82.77
192.045	-27.82
192.265	-15.53
192.484	78.68
192.704	62.29
192.923	-33.96
193.142	162.64
193.362	123.73
193.581	109.4
193.8	47.96
194.02	109.4
194.239	78.68
194.458	58.2
194.678	45.91
194.897	19.29
195.116	107.35
195.335	58.2
195.555	15.19
195.774	-3.24
195.993	154.45
196.212	60.24
196.432	0.85
196.651	-17.58
196.87	45.91
197.089	217.94
197.308	50
197.528	80.72
197.747	-54.44
197.966	136.02
198.185	166.74
198.404	-36.01
198.623	160.59
198.842	140.12
199.062	95.06
199.281	136.02
199.5	52.05
199.719	129.88
199.938	84.82
200.157	103.25
200.376	103.25
200.595	29.52
200.814	95.06
201.033	11.09
201.252	250.71
201.471	52.05
201.69	84.82
201.909	52.05
202.128	105.3
202.347	70.48
202.566	74.58
202.785	-138.41
203.004	-31.91
203.223	260.95
203.442	15.19
203.661	-50.35
203.879	11.09
204.098	170.83
204.317	-52.39
204.536	47.96
204.755	76.63
204.974	58.2
205.193	-27.82
205.411	179.03
205.63	136.02
205.849	109.4
206.068	21.33
206.287	2.9
206.505	140.12
206.724	58.2
206.943	-52.39
207.162	33.62
207.381	105.3
207.599	43.86
207.818	31.57
208.037	-81.07
208.255	41.81
208.474	64.34
208.693	74.58
208.911	-3.24
209.13	140.12
209.349	117.59
209.567	62.29
209.786	80.72
210.005	43.86
210.223	9.05
210.442	-89.26
210.661	25.43
210.879	76.63
211.098	66.39
211.316	56.15
211.535	68.44
211.753	-7.34
211.972	62.29
212.191	-40.11
212.409	0.85
212.628	72.53
212.846	23.38
213.065	45.91
213.283	136.02
213.502	25.43
213.72	29.52
213.938	78.68
214.157	4.95
214.375	172.88
214.594	-17.58
214.812	29.52
215.031	-40.11
215.249	23.38
215.467	11.09
215.686	101.2
215.904	52.05
216.122	37.72
216.341	234.32
216.559	11.09
216.778	25.43
216.996	195.41
217.214	97.11
217.432	56.15
217.651	2.9
217.869	50
218.087	19.29
218.306	21.33
218.524	68.44
218.742	19.29
218.96	29.52
219.179	45.91
219.397	2.9
219.615	217.94
219.833	90.96
220.051	-44.2
220.27	88.92
220.488	103.25
220.706	66.39
220.924	31.57
221.142	-9.39
221.36	111.44
221.578	107.35
221.796	99.16
222.015	50
222.233	-3.24
222.451	144.21
222.669	-48.3
222.887	78.68
223.105	-66.73
223.323	78.68
223.541	-85.16
223.759	88.92
223.977	82.77
224.195	144.21
224.413	31.57
224.631	37.72
224.849	72.53
225.067	162.64
225.285	-3.24
225.503	-46.25
225.721	-33.96
225.939	-31.91
226.157	90.96
226.375	246.61
226.592	-3.24
226.81	29.52
227.028	150.36
227.246	74.58
227.464	90.96
227.682	107.35
227.9	74.58
228.117	37.72
228.335	105.3
228.553	-17.58
228.771	45.91
228.989	95.06
229.206	95.06
229.424	-9.39
229.642	17.24
229.86	-25.77
230.077	66.39
230.295	54.1
230.513	138.07
230.731	60.24
230.948	170.83
231.166	136.02
231.384	9.05
231.601	-56.49
231.819	156.5
232.037	-15.53
232.254	-74.92
232.472	72.53
232.689	-29.87
232.907	80.72
233.125	-3.24
233.342	-83.11
233.56	-31.91
233.777	-21.67
233.995	-1.19
234.213	90.96
234.43	164.69
234.648	62.29
234.865	-29.87
235.083	78.68
235.3	80.72
235.518	123.73
235.735	170.83
235.953	47.96
236.17	62.29
236.388	-9.39
236.605	19.29
236.822	86.87
237.04	127.83
237.257	52.05
237.475	7
237.692	62.29
237.909	21.33
238.127	-7.34
238.344	15.19
238.562	109.4
238.779	-95.4
238.996	17.24
239.214	103.25
239.431	101.2
239.648	-21.67
239.865	140.12
240.083	78.68
240.3	60.24
240.517	52.05
240.735	39.76
240.952	168.79
241.169	142.16
241.386	45.91
241.603	35.67
241.821	13.14
242.038	84.82
242.255	152.4
242.472	-52.39
242.689	35.67
242.907	64.34
243.124	35.67
243.341	9.05
243.558	-17.58
243.775	-89.26
243.992	-13.48
244.209	129.88
244.426	160.59
244.643	37.72
244.86	72.53
245.078	78.68
245.295	72.53
245.512	33.62
245.729	13.14
245.946	80.72
246.163	45.91
246.38	58.2
246.597	103.25
246.814	-29.87
247.031	-5.29
247.248	29.52
247.464	140.12
247.681	2.9
247.898	136.02
248.115	-3.24
248.332	47.96
248.549	121.68
248.766	154.45
248.983	113.49
249.2	185.17
249.417	154.45
249.633	-23.72
249.85	117.59
250.067	29.52
250.284	84.82
250.501	146.26
250.717	105.3
250.934	-23.72
251.151	21.33
251.368	47.96
251.585	64.34
251.801	74.58
252.018	-23.72
252.235	111.44
252.451	-31.91
252.668	-27.82
252.885	78.68
253.102	117.59
253.318	25.43
253.535	-27.82
253.752	13.14
253.968	-87.21
254.185	-31.91
254.401	0.85
254.618	60.24
254.835	-42.15
255.051	113.49
255.268	74.58
255.484	105.3
255.701	13.14
255.917	60.24
256.134	-7.34
256.351	60.24
256.567	-27.82
256.784	43.86
257	41.81
257.217	103.25
257.433	113.49
257.65	82.77
257.866	95.06
258.082	-62.63
258.299	4.95
258.515	76.63
258.732	39.76
258.948	27.48
259.165	27.48
259.381	-5.29
259.597	117.59
259.814	9.05
260.03	50
260.246	-13.48
260.463	136.02
260.679	84.82
260.895	-9.39
261.112	121.68
261.328	43.86
261.544	52.05
261.761	144.21
261.977	-44.2
262.193	-44.2
262.409	52.05
262.626	-9.39
262.842	35.67
263.058	45.91
263.274	127.83
263.49	21.33
263.707	29.52
263.923	97.11
264.139	-54.44
264.355	115.54
264.571	154.45
264.787	129.88
265.004	183.12
265.22	148.31
265.436	47.96
265.652	-13.48
265.868	74.58
266.084	-36.01
266.3	2.9
266.516	-79.02
266.732	99.16
266.948	52.05
267.164	33.62
267.38	31.57
267.596	23.38
267.812	97.11
268.028	39.76
268.244	-19.63
268.46	58.2
268.676	-21.67
268.892	62.29
269.108	4.95
269.324	-5.29
269.54	-36.01
269.756	84.82
269.972	-25.77
270.188	-17.58
270.403	-50.35
270.619	-23.72
270.835	101.2
271.051	23.38
271.267	-44.2
271.483	-21.67
271.698	13.14
271.914	11.09
272.13	9.05
272.346	62.29
272.562	80.72
272.777	160.59
272.993	-9.39
273.209	-105.64
273.425	90.96
273.64	-25.77
273.856	29.52
274.072	-21.67
274.287	-21.67
274.503	62.29
274.719	156.5
274.934	2.9
275.15	-60.59
275.366	88.92
275.581	-103.59
275.797	23.38
276.012	64.34
276.228	-19.63
276.444	7
276.659	131.92
276.875	-9.39
277.09	-29.87
277.306	-54.44
277.521	142.16
277.737	21.33
277.952	25.43
278.168	88.92
278.383	56.15
278.599	37.72
278.814	115.54
279.03	-36.01
279.245	138.07
279.461	41.81
279.676	142.16
279.892	-130.22
280.107	-15.53
280.322	-21.67
280.538	109.4
280.753	-66.73
280.969	101.2
281.184	13.14
281.399	148.31
281.615	11.09
281.83	17.24
282.045	-1.19
282.26	-46.25
282.476	62.29
282.691	31.57
282.906	88.92
283.122	47.96
283.337	27.48
283.552	41.81
283.767	39.76
283.983	78.68
284.198	84.82
284.413	101.2
284.628	-56.49
284.843	-9.39
285.058	93.01
285.274	78.68
285.489	-40.11
285.704	101.2
285.919	-74.92
286.134	4.95
286.349	58.2
286.564	13.14
286.779	113.49
286.995	-7.34
287.21	-64.68
287.425	27.48
287.64	-48.3
287.855	15.19
288.07	-85.16
288.285	64.34
288.5	78.68
288.715	90.96
288.93	-40.11
289.145	25.43
289.36	105.3
289.575	-3.24
289.79	172.88
290.004	-42.15
290.219	103.25
290.434	-58.54
290.649	27.48
290.864	-52.39
291.079	-17.58
291.294	99.16
291.509	31.57
291.724	62.29
291.938	-62.63
292.153	7
292.368	-31.91
292.583	70.48
292.798	129.88
293.012	39.76
293.227	68.44
293.442	-58.54
293.657	146.26
293.871	66.39
294.086	56.15
294.301	185.17
294.516	23.38
294.73	23.38
294.945	-56.49
295.16	84.82
295.374	72.53
295.589	154.45
295.804	19.29
296.018	-23.72
296.233	162.64
296.447	80.72
296.662	2.9
296.877	97.11
297.091	45.91
297.306	50
297.52	31.57
297.735	140.12
297.949	13.14
298.164	39.76
298.378	54.1
298.593	-25.77
298.807	-27.82
299.022	131.92
299.236	201.55
299.451	-1.19
299.665	50
299.88	13.14
300.094	76.63
300.309	-9.39
300.523	19.29
300.737	-42.15
300.952	136.02
301.166	9.05
301.381	-40.11
301.595	31.57
301.809	107.35
302.024	54.1
302.238	-3.24
302.452	123.73
302.667	2.9
302.881	82.77
303.095	103.25
303.309	101.2
303.524	-58.54
303.738	33.62
303.952	-21.67
304.166	15.19
304.381	-72.87
304.595	148.31
304.809	17.24
305.023	23.38
305.237	23.38
305.452	37.72
305.666	60.24
305.88	93.01
306.094	50
306.308	2.9
306.522	74.58
306.736	74.58
306.95	90.96
307.164	99.16
307.379	127.83
307.593	148.31
307.807	99.16
308.021	54.1
308.235	133.97
308.449	-46.25
308.663	21.33
308.877	238.42
309.091	60.24
309.305	103.25
309.519	-60.59
309.733	107.35
309.947	-40.11
310.161	109.4
310.374	31.57
310.588	136.02
310.802	-52.39
311.016	27.48
311.23	27.48
311.444	29.52
311.658	-29.87
311.872	179.03
312.085	99.16
312.299	150.36
312.513	62.29
312.727	82.77
312.941	-29.87
313.154	111.44
313.368	25.43
313.582	107.35
313.796	29.52
314.009	21.33
314.223	60.24
314.437	140.12
314.651	95.06
314.864	-29.87
315.078	-33.96
315.292	-76.97
315.505	72.53
315.719	117.59
315.933	60.24
316.146	58.2
316.36	-160.94
316.573	123.73
316.787	103.25
317.001	86.87
317.214	4.95
317.428	-29.87
317.641	-97.45
317.855	15.19
318.068	70.48
318.282	72.53
318.495	285.52
318.709	2.9
318.922	60.24
319.136	140.12
319.349	152.4
319.563	39.76
319.776	121.68
319.99	-89.26
320.203	99.16
320.417	4.95
320.63	64.34
320.843	162.64
321.057	52.05
321.27	33.62
321.483	31.57
321.697	176.98
321.91	62.29
322.124	93.01
322.337	101.2
322.55	19.29
322.763	78.68
322.977	58.2
323.19	-23.72
323.403	52.05
323.617	97.11
323.83	70.48
324.043	50
324.256	17.24
324.469	-85.16
324.683	101.2
324.896	17.24
325.109	0.85
325.322	21.33
325.535	11.09
325.748	62.29
325.962	-29.87
326.175	39.76
326.388	39.76
326.601	127.83
326.814	-15.53
327.027	52.05
327.24	52.05
327.453	-89.26
327.666	84.82
327.879	162.64
328.092	99.16
328.305	-27.82
328.518	7
328.731	-64.68
328.944	25.43
329.157	168.79
329.37	-3.24
329.583	205.65
329.796	99.16
330.009	9.05
330.222	27.48
330.435	138.07
330.648	70.48
330.861	113.49
331.073	45.91
331.286	125.78
331.499	41.81
331.712	43.86
331.925	95.06
332.138	-5.29
332.35	144.21
332.563	31.57
332.776	97.11
332.989	-42.15
333.202	-31.91
333.414	29.52
333.627	13.14
333.84	27.48
334.053	33.62
334.265	43.86
334.478	41.81
334.691	76.63
334.903	41.81
335.116	-5.29
335.329	47.96
335.541	68.44
335.754	170.83
335.966	21.33
336.179	35.67
336.392	15.19
336.604	33.62
336.817	99.16
337.029	45.91
337.242	-23.72
337.454	43.86
337.667	68.44
337.88	154.45
338.092	15.19
338.305	45.91
338.517	52.05
338.729	121.68
338.942	88.92
339.154	-40.11
339.367	0.85
339.579	76.63
339.792	-5.29
340.004	113.49
340.217	107.35
340.429	107.35
340.641	-33.96
340.854	4.95
341.066	82.77
341.278	123.73
341.491	209.75
341.703	99.16
341.915	-7.34
342.128	76.63
342.34	33.62
342.552	-25.77
342.764	78.68
342.977	-23.72
343.189	19.29
343.401	4.95
343.613	-11.43
343.826	-3.24
344.038	23.38
344.25	-5.29
344.462	-40.11
344.674	15.19
344.886	25.43
345.099	64.34
345.311	95.06
345.523	84.82
345.735	-62.63
345.947	123.73
346.159	62.29
346.371	41.81
346.583	2.9
346.795	219.99
347.007	-48.3
347.219	23.38
347.431	70.48
347.643	74.58
347.855	7
348.067	162.64
348.279	-3.24
348.491	15.19
348.703	131.92
348.915	74.58
349.127	-48.3
349.339	62.29
349.551	-91.31
349.763	82.77
349.975	-33.96
350.187	74.58
350.399	127.83
350.61	78.68
350.822	-36.01
351.034	52.05
351.246	33.62
351.458	23.38
351.669	7
351.881	127.83
352.093	152.4
352.305	133.97
352.517	35.67
352.728	164.69
352.94	54.1
353.152	50
353.363	-62.63
353.575	25.43
353.787	117.59
353.999	50
354.21	222.03
354.422	-62.63
354.633	54.1
354.845	-23.72
355.057	84.82
355.268	74.58
355.48	164.69
355.692	-21.67
355.903	64.34
356.115	-19.63
356.326	-62.63
356.538	172.88
356.749	43.86
356.961	152.4
357.172	-17.58
357.384	76.63
357.595	170.83
357.807	66.39
358.018	-9.39
358.23	-33.96
358.441	64.34
358.653	131.92
358.864	25.43
359.075	-25.77
359.287	25.43
359.498	162.64
359.709	82.77
359.921	-58.54
360.132	-7.34
360.344	27.48
360.555	4.95
360.766	-23.72
360.977	74.58
361.189	115.54
361.4	78.68
361.611	113.49
361.823	101.2
362.034	-1.19
362.245	-91.31
362.456	123.73
362.667	103.25
362.879	21.33
363.09	54.1
363.301	50
363.512	19.29
363.723	19.29
363.935	-1.19
364.146	201.55
364.357	45.91
364.568	-23.72
364.779	-56.49
364.99	150.36
365.201	-46.25
365.412	54.1
365.623	-56.49
365.834	52.05
366.045	17.24
366.256	70.48
366.467	121.68
366.678	17.24
366.889	109.4
367.1	-46.25
367.311	129.88
367.522	-23.72
367.733	113.49
367.944	111.44
368.155	70.48
368.366	56.15
368.577	142.16
368.788	99.16
368.999	39.76
369.209	41.81
369.42	197.46
369.631	148.31
369.842	90.96
370.053	41.81
370.264	109.4
370.474	-40.11
370.685	41.81
370.896	45.91
371.107	164.69
371.317	76.63
371.528	113.49
371.739	99.16
371.95	150.36
372.16	7
372.371	-15.53
372.582	7
372.792	121.68
373.003	123.73
373.214	88.92
373.424	111.44
373.635	-1.19
373.846	66.39
374.056	-31.91
374.267	21.33
374.477	90.96
374.688	-31.91
374.898	144.21
375.109	17.24
375.319	35.67
375.53	138.07
375.74	78.68
375.951	-48.3
376.161	4.95
376.372	127.83
376.582	23.38
376.793	80.72
377.003	47.96
377.214	17.24
377.424	152.4
377.635	-1.19
377.845	-66.73
378.055	62.29
378.266	-64.68
378.476	47.96
378.686	97.11
378.897	41.81
379.107	64.34
379.317	95.06
379.528	-15.53
379.738	62.29
379.948	-27.82
380.158	43.86
380.369	95.06
380.579	72.53
380.789	35.67
380.999	129.88
381.21	142.16
381.42	174.93
381.63	-3.24
381.84	90.96
382.05	66.39
382.261	179.03
382.471	125.78
382.681	4.95
382.891	88.92
383.101	86.87
383.311	21.33
383.521	-11.43
383.731	64.34
383.941	152.4
384.151	70.48
384.361	68.44
384.571	62.29
384.781	86.87
384.991	129.88
385.201	219.99
385.411	78.68
385.621	88.92
385.831	33.62
386.041	37.72
386.251	21.33
386.461	95.06
386.671	-5.29
386.881	50
387.091	9.05
387.301	107.35
387.511	-11.43
387.72	66.39
387.93	95.06
388.14	-146.6
388.35	80.72
388.56	125.78
388.769	125.78
388.979	72.53
389.189	27.48
389.399	43.86
389.609	82.77
389.818	41.81
390.028	131.92
390.238	58.2
390.447	-13.48
390.657	148.31
390.867	-23.72
391.076	2.9
391.286	31.57
391.496	-21.67
391.705	90.96
391.915	56.15
392.125	62.29
392.334	21.33
392.544	95.06
392.753	74.58
392.963	-9.39
393.172	56.15
393.382	-13.48
393.591	111.44
393.801	60.24
394.01	146.26
394.22	111.44
394.429	62.29
394.639	9.05
394.848	88.92
395.058	82.77
395.267	23.38
395.477	66.39
395.686	27.48
395.895	203.6
396.105	148.31
396.314	58.2
396.524	86.87
396.733	47.96
396.942	90.96
397.152	66.39
397.361	115.54
397.57	62.29
397.78	21.33
397.989	176.98
398.198	154.45
398.407	88.92
398.617	31.57
398.826	2.9
399.035	50
399.244	84.82
399.453	80.72
399.663	27.48
399.872	117.59
400.081	-33.96
400.29	131.92
400.499	-72.87
400.708	146.26
400.917	43.86
401.127	-60.59
401.336	-5.29
401.545	246.61
401.754	148.31
401.963	43.86
402.172	64.34
402.381	-33.96
402.59	95.06
402.799	15.19
403.008	125.78
403.217	119.64
403.426	101.2
403.635	-44.2
403.844	50
404.053	7
404.262	-3.24
404.471	140.12
404.68	82.77
404.888	19.29
405.097	80.72
405.306	107.35
405.515	82.77
405.724	66.39
405.933	80.72
406.142	127.83
406.35	43.86
406.559	-1.19
406.768	47.96
406.977	201.55
407.185	66.39
407.394	127.83
407.603	-5.29
407.812	-21.67
408.02	113.49
408.229	9.05
408.438	109.4
408.646	-64.68
408.855	-1.19
409.064	99.16
409.272	-15.53
409.481	127.83
409.69	9.05
409.898	23.38
410.107	15.19
410.315	150.36
410.524	-36.01
410.733	121.68
410.941	74.58
411.15	90.96
411.358	39.76
411.567	62.29
411.775	19.29
411.984	86.87
412.192	107.35
412.401	19.29
412.609	183.12
412.818	101.2
413.026	19.29
413.234	29.52
413.443	66.39
413.651	68.44
413.86	125.78
414.068	160.59
414.276	148.31
414.485	-15.53
414.693	174.93
414.901	148.31
415.11	35.67
415.318	21.33
415.526	97.11
415.734	150.36
415.943	117.59
416.151	156.5
416.359	86.87
416.567	99.16
416.776	181.07
416.984	113.49
417.192	203.6
417.4	19.29
417.608	27.48
417.817	19.29
418.025	93.01
418.233	254.8
418.441	-89.26
418.649	4.95
418.857	131.92
419.065	41.81
419.273	9.05
419.481	64.34
419.689	86.87
419.897	-21.67
420.105	-19.63
420.313	121.68
420.521	125.78
420.729	154.45
420.937	-72.87
421.145	-62.63
421.353	133.97
421.561	187.22
421.769	95.06
421.977	37.72
422.185	148.31
422.393	88.92
422.601	111.44
422.809	103.25
423.017	105.3
423.224	148.31
423.432	170.83
423.64	60.24
423.848	158.55
424.056	-68.78
424.263	70.48
424.471	-7.34
424.679	119.64
424.887	31.57
425.094	166.74
425.302	80.72
425.51	62.29
425.718	160.59
425.925	90.96
426.133	37.72
426.341	203.6
426.548	56.15
426.756	35.67
426.964	41.81
427.171	47.96
427.379	191.31
427.586	27.48
427.794	95.06
428.001	103.25
428.209	185.17
428.417	222.03
428.624	170.83
428.832	86.87
429.039	15.19
429.247	101.2
429.454	109.4
429.662	172.88
429.869	197.46
430.076	111.44
430.284	125.78
430.491	199.51
430.699	246.61
430.906	224.08
431.114	164.69
431.321	140.12
431.528	66.39
431.736	154.45
431.943	172.88
432.15	295.76
432.358	199.51
432.565	285.52
432.772	31.57
432.979	236.37
433.187	66.39
433.394	217.94
433.601	154.45
433.808	269.14
434.016	295.76
434.223	267.09
434.43	242.51
434.637	217.94
434.844	318.29
435.052	193.36
435.259	273.23
435.466	359.25
435.673	324.43
435.88	273.23
436.087	420.69
436.294	277.33
436.501	375.63
436.708	346.96
436.915	424.78
437.122	426.83
437.329	244.56
437.537	371.54
437.743	371.54
437.95	539.47
438.157	394.06
438.364	359.25
438.571	435.02
438.778	467.79
438.985	443.21
439.192	512.85
439.399	500.56
439.606	437.07
439.813	582.48
440.02	707.4
440.227	654.16
440.433	662.35
440.64	605
440.847	518.99
441.054	656.2
441.261	705.35
441.467	703.31
441.674	633.68
441.881	785.23
442.088	680.78
442.294	781.13
442.501	838.47
442.708	830.28
442.914	916.3
443.121	912.2
443.328	1008.45
443.534	934.73
443.741	922.44
443.948	928.58
444.154	1059.65
444.361	1209.15
444.568	1080.13
444.774	1127.24
444.981	1018.69
445.187	1258.31
445.394	1215.3
445.6	1258.31
445.807	1407.81
446.013	1348.42
446.22	1366.85
446.426	1540.93
446.633	1479.49
446.839	1735.48
447.046	1528.64
447.252	1844.03
447.459	1798.97
447.665	1737.53
447.871	1880.89
448.078	2034.49
448.284	1999.67
448.491	2126.64
448.697	2227
448.903	2423.6
449.11	2235.19
449.316	2366.26
449.522	2542.38
449.728	2650.92
449.935	2741.04
450.141	2544.43
450.347	3076.9
450.553	2868.01
450.76	2822.95
450.966	3064.61
451.172	3242.79
451.378	3216.16
451.584	3414.82
451.791	3640.09
451.997	3805.98
452.203	3773.21
452.409	4092.69
452.615	4154.13
452.821	4279.06
453.027	4117.27
453.233	4725.52
453.44	4584.21
453.646	4850.44
453.852	4915.98
454.058	5069.58
454.264	5325.57
454.47	5632.77
454.676	5571.33
454.882	6116.09
455.088	5894.91
455.294	6241.01
455.5	6611.7
455.705	6949.61
455.911	6978.28
456.117	7275.24
456.323	7398.12
456.529	7381.73
456.735	8133.34
456.941	8370.9
457.147	8581.84
457.352	8983.24
457.558	9018.06
457.764	9734.85
457.97	10093.24
458.176	10379.96
458.381	10785.46
458.587	11080.36
458.793	11668.13
458.999	11532.97
459.204	13085.33
459.41	13372.04
459.616	13439.62
459.821	13976.19
460.027	14635.64
460.233	15364.71
460.438	15323.76
460.644	16095.84
460.85	16417.37
461.055	17187.41
461.261	17766.98
461.466	17513.03
461.672	17869.38
461.878	19845.67
462.083	19642.92
462.289	20154.91
462.494	20992.53
462.7	21006.87
462.905	21361.17
463.111	23278.07
463.316	24445.41
463.522	24562.14
463.727	25379.28
463.932	26886.59
464.138	27443.63
464.343	28496.29
464.549	28703.14
464.754	30595.46
464.959	31402.36
465.165	32020.84
465.37	31721.84
465.575	31949.17
465.781	33980.75
465.986	34957.63
466.191	34814.27
466.397	34668.87
466.602	33814.87
466.807	35844.4
467.012	36565.29
467.218	37144.86
467.423	37161.25
467.628	38306.06
467.833	40472.81
468.038	39368.96
468.244	39074.05
468.449	40468.72
468.654	39936.24
