Data from USB4F104151__289__11-21-10-128.txt Node

Date: Wed Feb 26 11:21:10 EST 2025
User: louis
Spectrometer: USB4F10415
Trigger mode: 4
Integration Time (sec): 1.000000E-1
Scans to average: 1
Electric dark correction enabled: true
Nonlinearity correction enabled: false
Boxcar width: 0
XAxis mode: Wavelengths
Number of Pixels in Spectrum: 3648
>>>>>Begin Spectral Data<<<<<
178.204	-369.15
178.424	-369.15
178.644	-369.15
178.864	-506.36
179.084	-383.48
179.304	-27.14
179.524	-4.61
179.744	62.98
179.964	38.4
180.184	75.26
180.404	34.3
180.624	-86.53
180.844	-61.95
181.064	-29.18
181.283	34.3
181.503	-76.29
181.723	40.45
181.943	-64
182.163	103.93
182.383	-39.42
182.602	91.65
182.822	122.37
183.042	103.93
183.262	56.83
183.482	-45.57
183.701	11.78
183.921	69.12
184.141	11.78
184.361	163.33
184.58	52.74
184.8	24.06
185.02	38.4
185.239	77.31
185.459	81.41
185.679	204.28
185.898	-94.72
186.118	13.82
186.338	15.87
186.557	128.51
186.777	-74.24
186.997	9.73
187.216	-29.18
187.436	181.76
187.655	128.51
187.875	114.17
188.095	58.88
188.314	136.7
188.534	130.56
188.753	-74.24
188.973	75.26
189.192	187.9
189.412	22.02
189.631	17.92
189.851	124.41
190.07	126.46
190.29	19.97
190.509	44.54
190.729	93.69
190.948	105.98
191.168	222.72
191.387	34.3
191.607	17.92
191.826	81.41
192.045	-23.04
192.265	13.82
192.484	56.83
192.704	42.5
192.923	-0.51
193.142	171.52
193.362	144.89
193.581	81.41
193.8	128.51
194.02	87.55
194.239	34.3
194.458	62.98
194.678	-16.9
194.897	38.4
195.116	62.98
195.335	13.82
195.555	28.16
195.774	36.35
195.993	105.98
196.212	75.26
196.432	-53.76
196.651	-29.18
196.87	93.69
197.089	275.96
197.308	112.13
197.528	65.02
197.747	-115.2
197.966	7.68
198.185	105.98
198.404	-2.56
198.623	187.9
198.842	108.03
199.062	87.55
199.281	140.8
199.5	-35.33
199.719	101.89
199.938	11.78
200.157	128.51
200.376	56.83
200.595	69.12
200.814	93.69
201.033	9.73
201.252	134.65
201.471	46.59
201.69	26.11
201.909	89.6
202.128	77.31
202.347	69.12
202.566	44.54
202.785	-45.57
203.004	-14.85
203.223	257.53
203.442	26.11
203.661	-31.23
203.879	161.28
204.098	95.74
204.317	-14.85
204.536	128.51
204.755	56.83
204.974	69.12
205.193	118.27
205.411	138.75
205.63	142.85
205.849	19.97
206.068	-31.23
206.287	-31.23
206.505	91.65
206.724	-2.56
206.943	-8.7
207.162	-20.99
207.381	26.11
207.599	17.92
207.818	50.69
208.037	-98.81
208.255	46.59
208.474	19.97
208.693	71.17
208.911	56.83
209.13	83.45
209.349	101.89
209.567	83.45
209.786	56.83
210.005	71.17
210.223	-12.8
210.442	-104.96
210.661	81.41
210.879	52.74
211.098	7.68
211.316	7.68
211.535	-41.47
211.753	87.55
211.972	132.61
212.191	54.78
212.409	-20.99
212.628	83.45
212.846	1.54
213.065	54.78
213.283	77.31
213.502	17.92
213.72	15.87
213.938	58.88
214.157	-18.94
214.375	151.04
214.594	65.02
214.812	83.45
215.031	-18.94
215.249	7.68
215.467	-8.7
215.686	128.51
215.904	71.17
216.122	69.12
216.341	93.69
216.559	46.59
216.778	48.64
216.996	114.17
217.214	89.6
217.432	36.35
217.651	19.97
217.869	-6.66
218.087	65.02
218.306	-2.56
218.524	28.16
218.742	58.88
218.96	62.98
219.179	22.02
219.397	40.45
219.615	232.96
219.833	81.41
220.051	-0.51
220.27	97.79
220.488	83.45
220.706	81.41
220.924	38.4
221.142	-12.8
221.36	1.54
221.578	36.35
221.796	15.87
222.015	97.79
222.233	48.64
222.451	179.71
222.669	-55.81
222.887	40.45
223.105	54.78
223.323	48.64
223.541	-72.19
223.759	36.35
223.977	22.02
224.195	171.52
224.413	110.08
224.631	9.73
224.849	118.27
225.067	204.28
225.285	-16.9
225.503	-43.52
225.721	-123.39
225.939	69.12
226.157	34.3
226.375	224.76
226.592	32.26
226.81	38.4
227.028	67.07
227.246	138.75
227.464	13.82
227.682	97.79
227.9	73.21
228.117	52.74
228.335	110.08
228.553	-14.85
228.771	65.02
228.989	13.82
229.206	89.6
229.424	75.26
229.642	13.82
229.86	-10.75
230.077	146.94
230.295	75.26
230.513	93.69
230.731	11.78
230.948	177.66
231.166	120.32
231.384	9.73
231.601	15.87
231.819	228.86
232.037	-10.75
232.254	13.82
232.472	-18.94
232.689	9.73
232.907	110.08
233.125	22.02
233.342	-14.85
233.56	-20.99
233.777	5.63
233.995	-14.85
234.213	79.36
234.43	36.35
234.648	50.69
234.865	24.06
235.083	97.79
235.3	69.12
235.518	56.83
235.735	157.18
235.953	122.37
236.17	60.93
236.388	77.31
236.605	83.45
236.822	136.7
237.04	181.76
237.257	85.5
237.475	52.74
237.692	83.45
237.909	60.93
238.127	-10.75
238.344	165.37
238.562	108.03
238.779	11.78
238.996	-51.71
239.214	-0.51
239.431	132.61
239.648	24.06
239.865	28.16
240.083	87.55
240.3	-6.66
240.517	103.93
240.735	46.59
240.952	120.32
241.169	3.58
241.386	118.27
241.603	-27.14
241.821	1.54
242.038	62.98
242.255	165.37
242.472	-55.81
242.689	118.27
242.907	26.11
243.124	83.45
243.341	75.26
243.558	50.69
243.775	-10.75
243.992	-37.38
244.209	122.37
244.426	185.85
244.643	71.17
244.86	105.98
245.078	67.07
245.295	28.16
245.512	32.26
245.729	-0.51
245.946	101.89
246.163	-20.99
246.38	36.35
246.597	26.11
246.814	38.4
247.031	73.21
247.248	54.78
247.464	155.13
247.681	48.64
247.898	93.69
248.115	67.07
248.332	-29.18
248.549	110.08
248.766	126.46
248.983	60.93
249.2	99.84
249.417	101.89
249.633	13.82
249.85	110.08
250.067	-8.7
250.284	40.45
250.501	163.33
250.717	118.27
250.934	5.63
251.151	58.88
251.368	-4.61
251.585	26.11
251.801	73.21
252.018	-29.18
252.235	97.79
252.451	19.97
252.668	69.12
252.885	124.41
253.102	101.89
253.318	1.54
253.535	-57.86
253.752	-37.38
253.968	-16.9
254.185	-154.11
254.401	15.87
254.618	93.69
254.835	11.78
255.051	226.81
255.268	130.56
255.484	24.06
255.701	-10.75
255.917	65.02
256.134	60.93
256.351	22.02
256.567	132.61
256.784	122.37
257	11.78
257.217	91.65
257.433	95.74
257.65	118.27
257.866	138.75
258.082	-29.18
258.299	30.21
258.515	17.92
258.732	-33.28
258.948	-2.56
259.165	22.02
259.381	28.16
259.597	50.69
259.814	9.73
260.03	-10.75
260.246	-76.29
260.463	116.22
260.679	151.04
260.895	75.26
261.112	69.12
261.328	-25.09
261.544	11.78
261.761	146.94
261.977	-20.99
262.193	77.31
262.409	103.93
262.626	89.6
262.842	69.12
263.058	85.5
263.274	114.17
263.49	28.16
263.707	34.3
263.923	138.75
264.139	13.82
264.355	75.26
264.571	124.41
264.787	52.74
265.004	99.84
265.22	1.54
265.436	-12.8
265.652	-6.66
265.868	-8.7
266.084	-4.61
266.3	9.73
266.516	-43.52
266.732	28.16
266.948	-31.23
267.164	-25.09
267.38	97.79
267.596	56.83
267.812	218.62
268.028	32.26
268.244	77.31
268.46	60.93
268.676	-16.9
268.892	38.4
269.108	-64
269.324	-2.56
269.54	11.78
269.756	108.03
269.972	-74.24
270.188	73.21
270.403	-35.33
270.619	-84.48
270.835	85.5
271.051	-2.56
271.267	26.11
271.483	-45.57
271.698	54.78
271.914	56.83
272.13	58.88
272.346	11.78
272.562	19.97
272.777	142.85
272.993	89.6
273.209	11.78
273.425	48.64
273.64	-6.66
273.856	58.88
274.072	3.58
274.287	19.97
274.503	50.69
274.719	54.78
274.934	54.78
275.15	-8.7
275.366	83.45
275.581	-25.09
275.797	22.02
276.012	52.74
276.228	40.45
276.444	54.78
276.659	71.17
276.875	28.16
277.09	42.5
277.306	81.41
277.521	81.41
277.737	81.41
277.952	56.83
278.168	-41.47
278.383	9.73
278.599	19.97
278.814	1.54
279.03	-10.75
279.245	153.09
279.461	30.21
279.676	77.31
279.892	26.11
280.107	-16.9
280.322	17.92
280.538	81.41
280.753	-10.75
280.969	38.4
281.184	44.54
281.399	71.17
281.615	42.5
281.83	32.26
282.045	-70.14
282.26	-8.7
282.476	1.54
282.691	175.61
282.906	56.83
283.122	-10.75
283.337	-4.61
283.552	56.83
283.767	-6.66
283.983	38.4
284.198	3.58
284.413	36.35
284.628	-31.23
284.843	24.06
285.058	128.51
285.274	56.83
285.489	7.68
285.704	110.08
285.919	62.98
286.134	5.63
286.349	155.13
286.564	28.16
286.779	212.48
286.995	19.97
287.21	-61.95
287.425	62.98
287.64	-8.7
287.855	93.69
288.07	-43.52
288.285	122.37
288.5	132.61
288.715	112.13
288.93	42.5
289.145	9.73
289.36	83.45
289.575	42.5
289.79	67.07
290.004	-47.62
290.219	91.65
290.434	60.93
290.649	28.16
290.864	-8.7
291.079	-25.09
291.294	34.3
291.509	108.03
291.724	24.06
291.938	-64
292.153	13.82
292.368	81.41
292.583	93.69
292.798	159.23
293.012	52.74
293.227	60.93
293.442	50.69
293.657	95.74
293.871	110.08
294.086	169.47
294.301	232.96
294.516	159.23
294.73	30.21
294.945	-33.28
295.16	56.83
295.374	118.27
295.589	99.84
295.804	30.21
296.018	81.41
296.233	118.27
296.447	108.03
296.662	50.69
296.877	142.85
297.091	87.55
297.306	9.73
297.52	5.63
297.735	56.83
297.949	105.98
298.164	95.74
298.378	46.59
298.593	13.82
298.807	9.73
299.022	28.16
299.236	142.85
299.451	62.98
299.665	58.88
299.88	-55.81
300.094	15.87
300.309	-16.9
300.523	91.65
300.737	-29.18
300.952	136.7
301.166	56.83
301.381	-33.28
301.595	-25.09
301.809	118.27
302.024	-25.09
302.238	-29.18
302.452	136.7
302.667	101.89
302.881	103.93
303.095	87.55
303.309	56.83
303.524	69.12
303.738	26.11
303.952	24.06
304.166	58.88
304.381	-98.81
304.595	187.9
304.809	9.73
305.023	114.17
305.237	-35.33
305.452	103.93
305.666	120.32
305.88	67.07
306.094	112.13
306.308	103.93
306.522	81.41
306.736	65.02
306.95	52.74
307.164	65.02
307.379	101.89
307.593	224.76
307.807	69.12
308.021	97.79
308.235	69.12
308.449	-88.57
308.663	-25.09
308.877	185.85
309.091	46.59
309.305	83.45
309.519	-27.14
309.733	93.69
309.947	-14.85
310.161	56.83
310.374	79.36
310.588	108.03
310.802	-33.28
311.016	-2.56
311.23	142.85
311.444	-20.99
311.658	11.78
311.872	93.69
312.085	114.17
312.299	169.47
312.513	99.84
312.727	101.89
312.941	-27.14
313.154	87.55
313.368	-20.99
313.582	44.54
313.796	73.21
314.009	28.16
314.223	62.98
314.437	79.36
314.651	95.74
314.864	-6.66
315.078	91.65
315.292	-8.7
315.505	40.45
315.719	32.26
315.933	71.17
316.146	15.87
316.36	81.41
316.573	132.61
316.787	101.89
317.001	103.93
317.214	-37.38
317.428	56.83
317.641	-55.81
317.855	28.16
318.068	50.69
318.282	22.02
318.495	126.46
318.709	101.89
318.922	71.17
319.136	175.61
319.349	26.11
319.563	-47.62
319.776	67.07
319.99	-88.57
320.203	46.59
320.417	50.69
320.63	65.02
320.843	159.23
321.057	95.74
321.27	22.02
321.483	22.02
321.697	224.76
321.91	3.58
322.124	13.82
322.337	120.32
322.55	7.68
322.763	58.88
322.977	54.78
323.19	-0.51
323.403	-4.61
323.617	83.45
323.83	79.36
324.043	11.78
324.256	122.37
324.469	3.58
324.683	79.36
324.896	36.35
325.109	60.93
325.322	-51.71
325.535	165.37
325.748	148.99
325.962	36.35
326.175	13.82
326.388	126.46
326.601	151.04
326.814	81.41
327.027	-18.94
327.24	196.09
327.453	-6.66
327.666	38.4
327.879	130.56
328.092	56.83
328.305	56.83
328.518	-10.75
328.731	13.82
328.944	32.26
329.157	83.45
329.37	54.78
329.583	187.9
329.796	30.21
330.009	-33.28
330.222	95.74
330.435	95.74
330.648	30.21
330.861	138.75
331.073	36.35
331.286	110.08
331.499	50.69
331.712	17.92
331.925	-43.52
332.138	81.41
332.35	54.78
332.563	52.74
332.776	101.89
332.989	1.54
333.202	75.26
333.414	83.45
333.627	40.45
333.84	15.87
334.053	17.92
334.265	-20.99
334.478	-33.28
334.691	19.97
334.903	26.11
335.116	-49.66
335.329	-45.57
335.541	44.54
335.754	230.91
335.966	54.78
336.179	1.54
336.392	52.74
336.604	40.45
336.817	81.41
337.029	83.45
337.242	48.64
337.454	69.12
337.667	13.82
337.88	140.8
338.092	73.21
338.305	71.17
338.517	-96.77
338.729	40.45
338.942	91.65
339.154	-31.23
339.367	-72.19
339.579	81.41
339.792	-76.29
340.004	22.02
340.217	11.78
340.429	97.79
340.641	-90.62
340.854	-20.99
341.066	9.73
341.278	91.65
341.491	177.66
341.703	44.54
341.915	-33.28
342.128	194.05
342.34	58.88
342.552	-37.38
342.764	65.02
342.977	71.17
343.189	122.37
343.401	48.64
343.613	-82.43
343.826	5.63
344.038	32.26
344.25	73.21
344.462	13.82
344.674	128.51
344.886	97.79
345.099	77.31
345.311	67.07
345.523	-92.67
345.735	5.63
345.947	67.07
346.159	-8.7
346.371	71.17
346.583	58.88
346.795	232.96
347.007	26.11
347.219	71.17
347.431	50.69
347.643	89.6
347.855	24.06
348.067	118.27
348.279	-94.72
348.491	-2.56
348.703	108.03
348.915	-8.7
349.127	-23.04
349.339	114.17
349.551	17.92
349.763	91.65
349.975	-6.66
350.187	89.6
350.399	120.32
350.61	134.65
350.822	44.54
351.034	116.22
351.246	91.65
351.458	89.6
351.669	48.64
351.881	155.13
352.093	126.46
352.305	95.74
352.517	155.13
352.728	89.6
352.94	56.83
353.152	89.6
353.363	1.54
353.575	85.5
353.787	202.24
353.999	30.21
354.21	214.52
354.422	-33.28
354.633	38.4
354.845	44.54
355.057	85.5
355.268	56.83
355.48	67.07
355.692	-25.09
355.903	-16.9
356.115	13.82
356.326	-57.86
356.538	140.8
356.749	54.78
356.961	153.09
357.172	17.92
357.384	17.92
357.595	259.58
357.807	40.45
358.018	56.83
358.23	54.78
358.441	210.43
358.653	87.55
358.864	67.07
359.075	-98.81
359.287	114.17
359.498	144.89
359.709	112.13
359.921	-0.51
360.132	93.69
360.344	54.78
360.555	-66.05
360.766	124.41
360.977	-4.61
361.189	194.05
361.4	11.78
361.611	56.83
361.823	165.37
362.034	-39.42
362.245	22.02
362.456	60.93
362.667	77.31
362.879	-8.7
363.09	83.45
363.301	83.45
363.512	-4.61
363.723	15.87
363.935	32.26
364.146	114.17
364.357	1.54
364.568	-12.8
364.779	-39.42
364.99	146.94
365.201	11.78
365.412	62.98
365.623	-100.86
365.834	67.07
366.045	99.84
366.256	69.12
366.467	79.36
366.678	46.59
366.889	48.64
367.1	-29.18
367.311	148.99
367.522	32.26
367.733	108.03
367.944	48.64
368.155	60.93
368.366	81.41
368.577	124.41
368.788	108.03
368.999	7.68
369.209	73.21
369.42	181.76
369.631	202.24
369.842	17.92
370.053	75.26
370.264	146.94
370.474	-84.48
370.685	81.41
370.896	54.78
371.107	157.18
371.317	13.82
371.528	54.78
371.739	159.23
371.95	60.93
372.16	126.46
372.371	52.74
372.582	17.92
372.792	69.12
373.003	19.97
373.214	44.54
373.424	36.35
373.635	19.97
373.846	146.94
374.056	-20.99
374.267	108.03
374.477	83.45
374.688	46.59
374.898	89.6
375.109	75.26
375.319	46.59
375.53	130.56
375.74	124.41
375.951	65.02
376.161	13.82
376.372	58.88
376.582	13.82
376.793	120.32
377.003	-4.61
377.214	-33.28
377.424	128.51
377.635	32.26
377.845	-18.94
378.055	120.32
378.266	-57.86
378.476	79.36
378.686	44.54
378.897	110.08
379.107	85.5
379.317	112.13
379.528	9.73
379.738	136.7
379.948	19.97
380.158	202.24
380.369	28.16
380.579	28.16
380.789	60.93
380.999	157.18
381.21	95.74
381.42	165.37
381.63	77.31
381.84	126.46
382.05	114.17
382.261	142.85
382.471	189.95
382.681	-41.47
382.891	208.38
383.101	95.74
383.311	-49.66
383.521	24.06
383.731	73.21
383.941	146.94
384.151	116.22
384.361	60.93
384.571	148.99
384.781	83.45
384.991	200.19
385.201	200.19
385.411	136.7
385.621	91.65
385.831	38.4
386.041	-23.04
386.251	40.45
386.461	112.13
386.671	-4.61
386.881	108.03
387.091	36.35
387.301	34.3
387.511	81.41
387.72	91.65
387.93	73.21
388.14	-39.42
388.35	46.59
388.56	71.17
388.769	79.36
388.979	-39.42
389.189	-6.66
389.399	77.31
389.609	44.54
389.818	97.79
390.028	-12.8
390.238	44.54
390.447	38.4
390.657	54.78
390.867	148.99
391.076	-8.7
391.286	28.16
391.496	50.69
391.705	17.92
391.915	126.46
392.125	132.61
392.334	42.5
392.544	163.33
392.753	44.54
392.963	-66.05
393.172	114.17
393.382	-25.09
393.591	194.05
393.801	26.11
394.01	157.18
394.22	95.74
394.429	89.6
394.639	19.97
394.848	93.69
395.058	87.55
395.267	42.5
395.477	142.85
395.686	71.17
395.895	161.28
396.105	114.17
396.314	36.35
396.524	144.89
396.733	-39.42
396.942	161.28
397.152	42.5
397.361	165.37
397.57	48.64
397.78	36.35
397.989	114.17
398.198	110.08
398.407	75.26
398.617	79.36
398.826	13.82
399.035	22.02
399.244	89.6
399.453	-39.42
399.663	58.88
399.872	52.74
400.081	-29.18
400.29	161.28
400.499	-12.8
400.708	101.89
400.917	34.3
401.127	30.21
401.336	17.92
401.545	155.13
401.754	239.1
401.963	118.27
402.172	-2.56
402.381	-27.14
402.59	1.54
402.799	52.74
403.008	155.13
403.217	-6.66
403.426	50.69
403.635	15.87
403.844	40.45
404.053	19.97
404.262	56.83
404.471	169.47
404.68	97.79
404.888	1.54
405.097	99.84
405.306	30.21
405.515	83.45
405.724	40.45
405.933	103.93
406.142	89.6
406.35	105.98
406.559	-2.56
406.768	52.74
406.977	187.9
407.185	67.07
407.394	95.74
407.603	-70.14
407.812	101.89
408.02	159.23
408.229	11.78
408.438	24.06
408.646	-68.09
408.855	138.75
409.064	95.74
409.272	153.09
409.481	146.94
409.69	-10.75
409.898	-18.94
410.107	116.22
410.315	142.85
410.524	3.58
410.733	38.4
410.941	32.26
411.15	138.75
411.358	85.5
411.567	161.28
411.775	28.16
411.984	79.36
412.192	112.13
412.401	-41.47
412.609	140.8
412.818	167.42
413.026	116.22
413.234	65.02
413.443	97.79
413.651	-27.14
413.86	46.59
414.068	196.09
414.276	144.89
414.485	-10.75
414.693	97.79
414.901	198.14
415.11	91.65
415.318	62.98
415.526	52.74
415.734	126.46
415.943	44.54
416.151	142.85
416.359	79.36
416.567	9.73
416.776	155.13
416.984	110.08
417.192	243.2
417.4	28.16
417.608	-14.85
417.817	22.02
418.025	163.33
418.233	220.67
418.441	44.54
418.649	30.21
418.857	122.37
419.065	142.85
419.273	52.74
419.481	146.94
419.689	83.45
419.897	52.74
420.105	5.63
420.313	140.8
420.521	239.1
420.729	153.09
420.937	-51.71
421.145	15.87
421.353	157.18
421.561	155.13
421.769	75.26
421.977	-8.7
422.185	62.98
422.393	56.83
422.601	185.85
422.809	30.21
423.017	67.07
423.224	114.17
423.432	136.7
423.64	114.17
423.848	202.24
424.056	40.45
424.263	73.21
424.471	30.21
424.679	204.28
424.887	-10.75
425.094	163.33
425.302	95.74
425.51	62.98
425.718	114.17
425.925	77.31
426.133	1.54
426.341	132.61
426.548	103.93
426.756	89.6
426.964	87.55
427.171	40.45
427.379	54.78
427.586	77.31
427.794	110.08
428.001	181.76
428.209	157.18
428.417	161.28
428.624	146.94
428.832	183.81
429.039	97.79
429.247	163.33
429.454	120.32
429.662	286.2
429.869	116.22
430.076	32.26
430.284	230.91
430.491	204.28
430.699	171.52
430.906	292.35
431.114	208.38
431.321	177.66
431.528	189.95
431.736	167.42
431.943	175.61
432.15	239.1
432.358	200.19
432.565	296.44
432.772	32.26
432.979	275.96
433.187	194.05
433.394	286.2
433.601	138.75
433.808	271.87
434.016	271.87
434.223	343.55
434.43	294.4
434.637	323.07
434.844	339.45
435.052	249.34
435.259	398.84
435.466	437.75
435.673	335.35
435.88	347.64
436.087	396.79
436.294	441.85
436.501	413.18
436.708	302.59
436.915	394.75
437.122	480.76
437.329	286.2
437.537	429.56
437.743	456.19
437.95	570.87
438.157	435.71
438.364	470.52
438.571	372.22
438.778	544.25
438.985	521.72
439.192	579.06
439.399	564.73
439.606	523.77
439.813	626.17
440.02	798.2
440.227	755.19
440.433	693.75
440.64	706.04
440.847	634.36
441.054	691.7
441.261	830.96
441.467	726.52
441.674	804.34
441.881	957.94
442.088	804.34
442.294	912.88
442.501	974.32
442.708	1002.99
442.914	933.36
443.121	1109.49
443.328	1103.34
443.534	1132.01
443.741	1175.02
443.948	1070.58
444.154	1295.85
444.361	1299.95
444.568	1269.23
444.774	1312.24
444.981	1162.73
445.187	1490.41
445.394	1478.12
445.6	1422.83
445.807	1697.25
446.013	1631.72
446.22	1652.2
446.426	1691.11
446.633	1711.59
446.839	1932.77
447.046	1764.84
447.252	2022.88
447.459	1994.21
447.665	2061.79
447.871	2295.26
448.078	2498.01
448.284	2434.52
448.491	2500.06
448.697	2575.83
448.903	2700.76
449.11	2727.38
449.316	2639.32
449.522	2872.79
449.728	3116.5
449.935	3024.34
450.141	3309.01
450.347	3474.89
450.553	3349.96
450.76	3415.5
450.966	3626.44
451.172	3757.51
451.378	4015.55
451.584	4031.94
451.791	4287.93
451.997	4412.86
452.203	4447.68
452.409	4746.68
452.615	4849.08
452.821	4720.06
453.027	4935.09
453.233	5426.61
453.44	5299.63
453.646	5580.2
453.852	5739.94
454.058	5979.56
454.264	6184.35
454.47	6622.62
454.676	6624.67
454.882	7081.36
455.088	7056.79
455.294	7163.28
455.5	8000.9
455.705	8076.68
455.911	8213.89
456.117	8621.44
456.323	9008.5
456.529	8713.6
456.735	9665.9
456.941	9749.87
457.147	10337.63
457.352	10536.29
457.558	10911.07
457.764	11380.05
457.97	11623.76
458.176	12215.62
458.381	12604.74
458.587	13112.63
458.793	13909.29
458.999	13602.1
459.204	15666.45
459.41	15987.98
459.616	15600.91
459.821	16696.58
460.027	17401.08
460.233	18181.35
460.438	18175.21
460.644	19125.47
460.85	19164.38
461.055	20151.5
461.261	21146.81
461.466	20434.12
461.672	21050.56
461.878	23671.96
462.083	23217.31
462.289	23825.56
462.494	24857.73
462.7	24923.27
462.905	25226.37
463.111	27556.96
463.316	28677.19
463.522	29252.67
463.727	30084.15
463.932	31231.01
464.138	32568.34
464.343	33803.26
464.549	34010.11
464.754	35742.69
464.959	37227.46
465.165	37897.15
465.37	37188.55
465.575	37520.32
465.781	39803.81
465.986	41577.35
466.191	40903.57
466.397	40717.2
466.602	40031.13
466.807	42476.41
467.012	43084.65
467.218	43967.33
467.423	43952.99
467.628	45116.24
467.833	47049.52
468.038	46201.66
468.244	45814.6
468.449	48104.23
