Data from USB4F104151__173__11-04-58-335.txt Node

Date: Wed Feb 26 11:04:58 EST 2025
User: louis
Spectrometer: USB4F10415
Trigger mode: 4
Integration Time (sec): 1.000000E-1
Scans to average: 1
Electric dark correction enabled: true
Nonlinearity correction enabled: false
Boxcar width: 0
XAxis mode: Wavelengths
Number of Pixels in Spectrum: 3648
>>>>>Begin Spectral Data<<<<<
178.204	-469.16
178.424	-469.16
178.644	-469.16
178.864	-407.72
179.084	-415.91
179.304	91.99
179.524	-26.79
179.744	61.27
179.964	-26.79
180.184	55.12
180.404	30.55
180.624	-88.23
180.844	-61.61
181.064	-57.51
181.283	71.51
181.503	-45.23
181.723	-4.27
181.943	-51.37
182.163	223.06
182.383	-59.56
182.602	130.9
182.822	124.76
183.042	124.76
183.262	-24.75
183.482	3.93
183.701	34.64
183.921	61.27
184.141	-4.27
184.361	59.22
184.58	128.85
184.8	110.42
185.02	-73.9
185.239	126.8
185.459	102.23
185.679	42.84
185.898	-43.18
186.118	87.89
186.338	94.04
186.557	143.19
186.777	-55.47
186.997	22.36
187.216	-34.99
187.436	190.29
187.655	89.94
187.875	48.98
188.095	-10.41
188.314	157.52
188.534	137.04
188.753	-39.08
188.973	55.12
189.192	161.62
189.412	28.5
189.631	34.64
189.851	18.26
190.07	159.57
190.29	-37.03
190.509	-34.99
190.729	-8.36
190.948	114.52
191.168	249.68
191.387	34.64
191.607	96.08
191.826	108.37
192.045	30.55
192.265	-43.18
192.484	98.13
192.704	3.93
192.923	16.21
193.142	165.71
193.362	48.98
193.581	128.85
193.8	91.99
194.02	40.79
194.239	126.8
194.458	149.33
194.678	22.36
194.897	16.21
195.116	157.52
195.335	5.97
195.555	81.75
195.774	38.74
195.993	79.7
196.212	-28.84
196.432	55.12
196.651	-12.46
196.87	59.22
197.089	171.86
197.308	108.37
197.528	67.41
197.747	-45.23
197.966	-12.46
198.185	182.1
198.404	-82.09
198.623	130.9
198.842	153.43
199.062	190.29
199.281	59.22
199.5	53.08
199.719	77.65
199.938	132.95
200.157	-0.17
200.376	77.65
200.595	135
200.814	69.46
201.033	-16.55
201.252	137.04
201.471	57.17
201.69	63.32
201.909	-10.41
202.128	16.21
202.347	32.6
202.566	20.31
202.785	-53.42
203.004	-6.31
203.223	257.87
203.442	-8.36
203.661	-47.27
203.879	87.89
204.098	126.8
204.317	-80.04
204.536	135
204.755	122.71
204.974	102.23
205.193	32.6
205.411	91.99
205.63	104.28
205.849	100.18
206.068	-2.22
206.287	1.88
206.505	178
206.724	18.26
206.943	40.79
207.162	-14.51
207.381	10.07
207.599	59.22
207.818	-24.75
208.037	-2.22
208.255	40.79
208.474	36.69
208.693	71.51
208.911	98.13
209.13	24.4
209.349	51.03
209.567	89.94
209.786	110.42
210.005	157.52
210.223	116.56
210.442	-94.38
210.661	10.07
210.879	55.12
211.098	44.88
211.316	26.45
211.535	44.88
211.753	63.32
211.972	-20.65
212.191	8.02
212.409	46.93
212.628	151.38
212.846	-69.8
213.065	-24.75
213.283	122.71
213.502	26.45
213.72	48.98
213.938	57.17
214.157	-12.46
214.375	51.03
214.594	55.12
214.812	100.18
215.031	8.02
215.249	106.32
215.467	89.94
215.686	-16.55
215.904	83.8
216.122	30.55
216.341	153.43
216.559	104.28
216.778	75.6
216.996	149.33
217.214	-14.51
217.432	-2.22
217.651	-37.03
217.869	18.26
218.087	16.21
218.306	-34.99
218.524	36.69
218.742	28.5
218.96	126.8
219.179	-4.27
219.397	-8.36
219.615	229.2
219.833	153.43
220.051	-67.75
220.27	67.41
220.488	100.18
220.706	46.93
220.924	-88.23
221.142	14.17
221.36	102.23
221.578	87.89
221.796	38.74
222.015	-16.55
222.233	71.51
222.451	130.9
222.669	-71.85
222.887	89.94
223.105	40.79
223.323	44.88
223.541	40.79
223.759	98.13
223.977	-0.17
224.195	196.43
224.413	28.5
224.631	14.17
224.849	51.03
225.067	249.68
225.285	5.97
225.503	12.12
225.721	-157.86
225.939	-4.27
226.157	-59.56
226.375	231.25
226.592	-6.31
226.81	28.5
227.028	30.55
227.246	69.46
227.464	106.32
227.682	169.81
227.9	165.71
228.117	34.64
228.335	135
228.553	36.69
228.771	51.03
228.989	94.04
229.206	141.14
229.424	46.93
229.642	16.21
229.86	-90.28
230.077	190.29
230.295	83.8
230.513	128.85
230.731	63.32
230.948	163.67
231.166	128.85
231.384	48.98
231.601	16.21
231.819	139.09
232.037	8.02
232.254	-0.17
232.472	89.94
232.689	-47.27
232.907	143.19
233.125	26.45
233.342	-47.27
233.56	126.8
233.777	20.31
233.995	46.93
234.213	22.36
234.43	124.76
234.648	-4.27
234.865	22.36
235.083	83.8
235.3	94.04
235.518	137.04
235.735	180.05
235.953	145.24
236.17	44.88
236.388	-4.27
236.605	48.98
236.822	147.28
237.04	155.47
237.257	59.22
237.475	26.45
237.692	59.22
237.909	114.52
238.127	5.97
238.344	100.18
238.562	100.18
238.779	-2.22
238.996	-18.6
239.214	139.09
239.431	53.08
239.648	-0.17
239.865	85.84
240.083	53.08
240.3	75.6
240.517	12.12
240.735	12.12
240.952	81.75
241.169	100.18
241.386	75.6
241.603	-80.04
241.821	-41.13
242.038	106.32
242.255	61.27
242.472	-8.36
242.689	75.6
242.907	-4.27
243.124	36.69
243.341	87.89
243.558	-57.51
243.775	-34.99
243.992	-96.43
244.209	116.56
244.426	171.86
244.643	122.71
244.86	10.07
245.078	67.41
245.295	32.6
245.512	22.36
245.729	-0.17
245.946	32.6
246.163	26.45
246.38	67.41
246.597	96.08
246.814	14.17
247.031	38.74
247.248	36.69
247.464	85.84
247.681	38.74
247.898	149.33
248.115	16.21
248.332	-16.55
248.549	135
248.766	153.43
248.983	34.64
249.2	85.84
249.417	51.03
249.633	-55.47
249.85	108.37
250.067	14.17
250.284	122.71
250.501	108.37
250.717	61.27
250.934	-77.99
251.151	51.03
251.368	42.84
251.585	120.66
251.801	-63.66
252.018	-28.84
252.235	135
252.451	-71.85
252.668	-41.13
252.885	69.46
253.102	120.66
253.318	1.88
253.535	44.88
253.752	-24.75
253.968	-82.09
254.185	-98.47
254.401	126.8
254.618	67.41
254.835	-34.99
255.051	188.24
255.268	67.41
255.484	61.27
255.701	75.6
255.917	71.51
256.134	40.79
256.351	102.23
256.567	-30.89
256.784	108.37
257	-45.23
257.217	91.99
257.433	143.19
257.65	59.22
257.866	132.95
258.082	32.6
258.299	-22.7
258.515	83.8
258.732	12.12
258.948	20.31
259.165	57.17
259.381	34.64
259.597	-6.31
259.814	36.69
260.03	-6.31
260.246	5.97
260.463	96.08
260.679	206.67
260.895	53.08
261.112	26.45
261.328	73.56
261.544	-92.33
261.761	184.15
261.977	14.17
262.193	-65.71
262.409	102.23
262.626	42.84
262.842	1.88
263.058	1.88
263.274	96.08
263.49	20.31
263.707	120.66
263.923	59.22
264.139	-114.86
264.355	30.55
264.571	122.71
264.787	-4.27
265.004	102.23
265.22	-6.31
265.436	12.12
265.652	30.55
265.868	104.28
266.084	-63.66
266.3	28.5
266.516	-53.42
266.732	1.88
266.948	55.12
267.164	-59.56
267.38	83.8
267.596	12.12
267.812	130.9
268.028	61.27
268.244	104.28
268.46	-80.04
268.676	10.07
268.892	51.03
269.108	-6.31
269.324	-53.42
269.54	-53.42
269.756	59.22
269.972	-90.28
270.188	-12.46
270.403	-49.32
270.619	22.36
270.835	-8.36
271.051	110.42
271.267	-10.41
271.483	22.36
271.698	81.75
271.914	12.12
272.13	-12.46
272.346	79.7
272.562	59.22
272.777	153.43
272.993	3.93
273.209	28.5
273.425	114.52
273.64	-88.23
273.856	48.98
274.072	-24.75
274.287	10.07
274.503	67.41
274.719	139.09
274.934	-26.79
275.15	-59.56
275.366	26.45
275.581	-14.51
275.797	55.12
276.012	20.31
276.228	16.21
276.444	48.98
276.659	83.8
276.875	18.26
277.09	-45.23
277.306	3.93
277.521	44.88
277.737	30.55
277.952	112.47
278.168	71.51
278.383	38.74
278.599	53.08
278.814	61.27
279.03	-18.6
279.245	151.38
279.461	-20.65
279.676	57.17
279.892	-12.46
280.107	-10.41
280.322	-65.71
280.538	69.46
280.753	-16.55
280.969	20.31
281.184	75.6
281.399	184.15
281.615	-41.13
281.83	57.17
282.045	-24.75
282.26	-14.51
282.476	-43.18
282.691	157.52
282.906	69.46
283.122	159.57
283.337	44.88
283.552	53.08
283.767	26.45
283.983	184.15
284.198	-18.6
284.413	73.56
284.628	-53.42
284.843	5.97
285.058	104.28
285.274	67.41
285.489	-32.94
285.704	108.37
285.919	22.36
286.134	-12.46
286.349	-10.41
286.564	-61.61
286.779	89.94
286.995	46.93
287.21	-59.56
287.425	102.23
287.64	-8.36
287.855	1.88
288.07	-65.71
288.285	120.66
288.5	81.75
288.715	-6.31
288.93	65.36
289.145	-6.31
289.36	89.94
289.575	-8.36
289.79	81.75
290.004	20.31
290.219	112.47
290.434	42.84
290.649	-43.18
290.864	-20.65
291.079	12.12
291.294	61.27
291.509	61.27
291.724	-22.7
291.938	57.17
292.153	-8.36
292.368	44.88
292.583	75.6
292.798	145.24
293.012	-10.41
293.227	55.12
293.442	-4.27
293.657	79.7
293.871	67.41
294.086	69.46
294.301	147.28
294.516	159.57
294.73	26.45
294.945	30.55
295.16	18.26
295.374	165.71
295.589	73.56
295.804	-16.55
296.018	-8.36
296.233	98.13
296.447	59.22
296.662	-2.22
296.877	180.05
297.091	143.19
297.306	30.55
297.52	83.8
297.735	67.41
297.949	36.69
298.164	48.98
298.378	34.64
298.593	-77.99
298.807	-16.55
299.022	40.79
299.236	126.8
299.451	10.07
299.665	63.32
299.88	-4.27
300.094	98.13
300.309	-37.03
300.523	44.88
300.737	10.07
300.952	85.84
301.166	-8.36
301.381	-8.36
301.595	12.12
301.809	85.84
302.024	44.88
302.238	-28.84
302.452	143.19
302.667	44.88
302.881	106.32
303.095	46.93
303.309	48.98
303.524	-16.55
303.738	12.12
303.952	3.93
304.166	100.18
304.381	-110.76
304.595	147.28
304.809	38.74
305.023	-8.36
305.237	-0.17
305.452	30.55
305.666	40.79
305.88	112.47
306.094	116.56
306.308	57.17
306.522	128.85
306.736	20.31
306.95	59.22
307.164	-14.51
307.379	10.07
307.593	157.52
307.807	132.95
308.021	110.42
308.235	110.42
308.449	-71.85
308.663	16.21
308.877	249.68
309.091	18.26
309.305	34.64
309.519	-18.6
309.733	69.46
309.947	-47.27
310.161	135
310.374	67.41
310.588	190.29
310.802	-92.33
311.016	20.31
311.23	67.41
311.444	-59.56
311.658	57.17
311.872	85.84
312.085	10.07
312.299	122.71
312.513	116.56
312.727	89.94
312.941	-73.9
313.154	132.95
313.368	36.69
313.582	65.36
313.796	5.97
314.009	28.5
314.223	87.89
314.437	51.03
314.651	120.66
314.864	-2.22
315.078	-8.36
315.292	-59.56
315.505	-47.27
315.719	34.64
315.933	26.45
316.146	44.88
316.36	-63.66
316.573	122.71
316.787	69.46
317.001	124.76
317.214	-26.79
317.428	16.21
317.641	3.93
317.855	26.45
318.068	34.64
318.282	51.03
318.495	212.82
318.709	34.64
318.922	34.64
319.136	149.33
319.349	89.94
319.563	-61.61
319.776	79.7
319.99	-53.42
320.203	81.75
320.417	73.56
320.63	130.9
320.843	206.67
321.057	73.56
321.27	63.32
321.483	102.23
321.697	94.04
321.91	100.18
322.124	14.17
322.337	51.03
322.55	-18.6
322.763	71.51
322.977	26.45
323.19	-77.99
323.403	32.6
323.617	-14.51
323.83	139.09
324.043	-10.41
324.256	77.65
324.469	28.5
324.683	122.71
324.896	18.26
325.109	98.13
325.322	-75.95
325.535	55.12
325.748	122.71
325.962	42.84
326.175	-6.31
326.388	38.74
326.601	120.66
326.814	8.02
327.027	116.56
327.24	202.58
327.453	-14.51
327.666	100.18
327.879	130.9
328.092	124.76
328.305	40.79
328.518	-6.31
328.731	-16.55
328.944	20.31
329.157	71.51
329.37	8.02
329.583	157.52
329.796	210.77
330.009	-4.27
330.222	71.51
330.435	79.7
330.648	48.98
330.861	20.31
331.073	110.42
331.286	98.13
331.499	91.99
331.712	-65.71
331.925	53.08
332.138	-8.36
332.35	130.9
332.563	-10.41
332.776	161.62
332.989	-73.9
333.202	-6.31
333.414	18.26
333.627	-22.7
333.84	30.55
334.053	46.93
334.265	-6.31
334.478	28.5
334.691	-49.32
334.903	75.6
335.116	40.79
335.329	14.17
335.541	89.94
335.754	169.81
335.966	14.17
336.179	5.97
336.392	5.97
336.604	73.56
336.817	94.04
337.029	110.42
337.242	51.03
337.454	175.95
337.667	36.69
337.88	106.32
338.092	24.4
338.305	89.94
338.517	16.21
338.729	28.5
338.942	128.85
339.154	-45.23
339.367	-49.32
339.579	28.5
339.792	-80.04
340.004	36.69
340.217	14.17
340.429	104.28
340.641	-4.27
340.854	12.12
341.066	30.55
341.278	122.71
341.491	126.8
341.703	77.65
341.915	-12.46
342.128	110.42
342.34	22.36
342.552	48.98
342.764	-8.36
342.977	77.65
343.189	55.12
343.401	63.32
343.613	-71.85
343.826	-4.27
344.038	-10.41
344.25	89.94
344.462	10.07
344.674	34.64
344.886	38.74
345.099	42.84
345.311	102.23
345.523	-51.37
345.735	-63.66
345.947	106.32
346.159	24.4
346.371	44.88
346.583	-59.56
346.795	180.05
347.007	-28.84
347.219	128.85
347.431	55.12
347.643	159.57
347.855	-26.79
348.067	104.28
348.279	-59.56
348.491	100.18
348.703	102.23
348.915	32.6
349.127	-86.19
349.339	59.22
349.551	44.88
349.763	53.08
349.975	81.75
350.187	48.98
350.399	135
350.61	67.41
350.822	79.7
351.034	10.07
351.246	48.98
351.458	24.4
351.669	59.22
351.881	114.52
352.093	100.18
352.305	55.12
352.517	87.89
352.728	128.85
352.94	87.89
353.152	71.51
353.363	-41.13
353.575	36.69
353.787	165.71
353.999	73.56
354.21	141.14
354.422	-43.18
354.633	53.08
354.845	-34.99
355.057	26.45
355.268	67.41
355.48	104.28
355.692	-108.71
355.903	30.55
356.115	14.17
356.326	-43.18
356.538	89.94
356.749	55.12
356.961	169.81
357.172	-39.08
357.384	73.56
357.595	214.87
357.807	79.7
358.018	22.36
358.23	87.89
358.441	155.47
358.653	87.89
358.864	34.64
359.075	-20.65
359.287	24.4
359.498	85.84
359.709	30.55
359.921	-57.51
360.132	87.89
360.344	-59.56
360.555	-0.17
360.766	36.69
360.977	55.12
361.189	130.9
361.4	-16.55
361.611	94.04
361.823	126.8
362.034	51.03
362.245	-32.94
362.456	18.26
362.667	65.36
362.879	-84.14
363.09	79.7
363.301	87.89
363.512	36.69
363.723	-37.03
363.935	-32.94
364.146	114.52
364.357	46.93
364.568	-4.27
364.779	-84.14
364.99	114.52
365.201	-10.41
365.412	118.61
365.623	-112.81
365.834	-34.99
366.045	81.75
366.256	65.36
366.467	98.13
366.678	-55.47
366.889	51.03
367.1	-90.28
367.311	126.8
367.522	-4.27
367.733	65.36
367.944	77.65
368.155	12.12
368.366	100.18
368.577	85.84
368.788	98.13
368.999	-65.71
369.209	18.26
369.42	212.82
369.631	171.86
369.842	79.7
370.053	83.8
370.264	77.65
370.474	63.32
370.685	46.93
370.896	32.6
371.107	155.47
371.317	69.46
371.528	71.51
371.739	91.99
371.95	106.32
372.16	114.52
372.371	-20.65
372.582	61.27
372.792	114.52
373.003	65.36
373.214	75.6
373.424	10.07
373.635	-18.6
373.846	122.71
374.056	71.51
374.267	32.6
374.477	106.32
374.688	16.21
374.898	51.03
375.109	63.32
375.319	59.22
375.53	116.56
375.74	120.66
375.951	3.93
376.161	94.04
376.372	145.24
376.582	-0.17
376.793	87.89
377.003	34.64
377.214	-32.94
377.424	63.32
377.635	77.65
377.845	40.79
378.055	184.15
378.266	-41.13
378.476	110.42
378.686	141.14
378.897	44.88
379.107	94.04
379.317	12.12
379.528	-53.42
379.738	106.32
379.948	-26.79
380.158	42.84
380.369	-2.22
380.579	126.8
380.789	77.65
380.999	53.08
381.21	171.86
381.42	112.47
381.63	34.64
381.84	98.13
382.05	83.8
382.261	126.8
382.471	85.84
382.681	10.07
382.891	141.14
383.101	22.36
383.311	-77.99
383.521	91.99
383.731	98.13
383.941	104.28
384.151	89.94
384.361	-49.32
384.571	57.17
384.781	145.24
384.991	225.11
385.201	175.95
385.411	44.88
385.621	126.8
385.831	83.8
386.041	46.93
386.251	30.55
386.461	130.9
386.671	36.69
386.881	26.45
387.091	100.18
387.301	34.64
387.511	77.65
387.72	36.69
387.93	110.42
388.14	-43.18
388.35	77.65
388.56	89.94
388.769	59.22
388.979	79.7
389.189	32.6
389.399	36.69
389.609	53.08
389.818	135
390.028	69.46
390.238	141.14
390.447	36.69
390.657	122.71
390.867	38.74
391.076	-67.75
391.286	118.61
391.496	83.8
391.705	51.03
391.915	161.62
392.125	147.28
392.334	46.93
392.544	159.57
392.753	108.37
392.963	14.17
393.172	71.51
393.382	14.17
393.591	178
393.801	87.89
394.01	163.67
394.22	85.84
394.429	30.55
394.639	18.26
394.848	28.5
395.058	34.64
395.267	-0.17
395.477	151.38
395.686	61.27
395.895	188.24
396.105	161.62
396.314	63.32
396.524	-8.36
396.733	83.8
396.942	118.61
397.152	67.41
397.361	65.36
397.57	44.88
397.78	59.22
397.989	110.42
398.198	274.26
398.407	71.51
398.617	75.6
398.826	-4.27
399.035	-14.51
399.244	186.19
399.453	100.18
399.663	-6.31
399.872	10.07
400.081	-32.94
400.29	91.99
400.499	-8.36
400.708	147.28
400.917	20.31
401.127	106.32
401.336	-53.42
401.545	104.28
401.754	173.91
401.963	81.75
402.172	-61.61
402.381	10.07
402.59	-12.46
402.799	61.27
403.008	122.71
403.217	20.31
403.426	147.28
403.635	-34.99
403.844	46.93
404.053	30.55
404.262	20.31
404.471	190.29
404.68	73.56
404.888	30.55
405.097	-34.99
405.306	34.64
405.515	112.47
405.724	-2.22
405.933	171.86
406.142	-57.51
406.35	120.66
406.559	73.56
406.768	83.8
406.977	151.38
407.185	63.32
407.394	10.07
407.603	-26.79
407.812	-22.7
408.02	120.66
408.229	110.42
408.438	81.75
408.646	-43.18
408.855	46.93
409.064	67.41
409.272	69.46
409.481	116.56
409.69	-45.23
409.898	-24.75
410.107	100.18
410.315	89.94
410.524	12.12
410.733	75.6
410.941	55.12
411.15	63.32
411.358	151.38
411.567	149.33
411.775	118.61
411.984	14.17
412.192	143.19
412.401	26.45
412.609	239.44
412.818	157.52
413.026	63.32
413.234	8.02
413.443	73.56
413.651	-34.99
413.86	34.64
414.068	91.99
414.276	147.28
414.485	44.88
414.693	155.47
414.901	239.44
415.11	-4.27
415.318	126.8
415.526	3.93
415.734	141.14
415.943	-4.27
416.151	89.94
416.359	32.6
416.567	3.93
416.776	110.42
416.984	161.62
417.192	206.67
417.4	30.55
417.608	-14.51
417.817	-34.99
418.025	147.28
418.233	83.8
418.441	-20.65
418.649	-22.7
418.857	79.7
419.065	149.33
419.273	102.23
419.481	83.8
419.689	71.51
419.897	63.32
420.105	26.45
420.313	73.56
420.521	237.39
420.729	214.87
420.937	14.17
421.145	-18.6
421.353	102.23
421.561	81.75
421.769	104.28
421.977	42.84
422.185	206.67
422.393	98.13
422.601	132.95
422.809	53.08
423.017	55.12
423.224	108.37
423.432	161.62
423.64	5.97
423.848	126.8
424.056	-18.6
424.263	128.85
424.471	26.45
424.679	89.94
424.887	40.79
425.094	145.24
425.302	137.04
425.51	-2.22
425.718	118.61
425.925	100.18
426.133	-12.46
426.341	145.24
426.548	61.27
426.756	106.32
426.964	139.09
427.171	53.08
427.379	53.08
427.586	32.6
427.794	132.95
428.001	153.43
428.209	51.03
428.417	130.9
428.624	182.1
428.832	149.33
429.039	159.57
429.247	89.94
429.454	132.95
429.662	190.29
429.869	192.34
430.076	151.38
430.284	118.61
430.491	225.11
430.699	200.53
430.906	221.01
431.114	75.6
431.321	180.05
431.528	155.47
431.736	192.34
431.943	218.96
432.15	149.33
432.358	108.37
432.565	268.11
432.772	-6.31
432.979	157.52
433.187	132.95
433.394	137.04
433.601	116.56
433.808	218.96
434.016	282.45
434.223	233.3
434.43	202.58
434.637	182.1
434.844	290.64
435.052	259.92
435.259	247.63
435.466	321.36
435.673	296.78
435.88	368.46
436.087	282.45
436.294	360.27
436.501	354.13
436.708	399.18
436.915	298.83
437.122	315.22
437.329	266.07
437.537	386.9
437.743	284.5
437.95	501.58
438.157	331.6
438.364	374.61
438.571	382.8
438.778	399.18
438.985	462.67
439.192	571.21
439.399	380.75
439.606	503.63
439.813	487.25
440.02	655.18
440.227	733
440.433	556.88
440.64	530.25
440.847	526.16
441.054	556.88
441.261	700.23
441.467	687.95
441.674	649.04
441.881	767.82
442.088	591.69
442.294	724.81
442.501	823.11
442.708	843.59
442.914	825.16
443.121	831.3
443.328	882.5
443.534	984.9
443.741	929.61
443.948	847.69
444.154	997.19
444.361	1302.34
444.568	1038.15
444.774	1083.2
444.981	1081.16
445.187	1247.04
445.394	1220.42
445.6	1158.98
445.807	1380.16
446.013	1322.82
446.22	1306.43
446.426	1525.57
446.633	1584.96
446.839	1681.21
447.046	1500.99
447.252	1670.97
447.459	1705.79
447.665	1740.6
447.871	1838.91
448.078	1926.97
448.284	1922.87
448.491	2029.37
448.697	2268.98
448.903	2258.74
449.11	2342.71
449.316	2209.59
449.522	2447.15
449.728	2674.48
449.935	2625.33
450.141	2555.69
450.347	3032.87
450.553	2795.31
450.76	2875.18
450.966	3137.32
451.172	3014.44
451.378	3112.74
451.584	3274.53
451.791	3583.77
451.997	3698.46
452.203	3772.19
452.409	3970.84
452.615	4063
452.821	3919.64
453.027	3952.41
453.233	4486.93
453.44	4464.4
453.646	4663.05
453.852	4921.1
454.058	5035.78
454.264	5254.92
454.47	5517.06
454.676	5431.04
454.882	6117.11
455.088	5822.2
455.294	6047.48
455.5	6514.42
455.705	6760.17
455.911	6983.4
456.117	7075.56
456.323	7327.46
456.529	7384.8
456.735	7935.71
456.941	8128.22
457.147	8611.54
457.352	8769.23
457.558	8890.06
457.764	9615.04
457.97	9846.46
458.176	10376.89
458.381	10663.6
458.587	10938.03
458.793	11304.62
458.999	11404.97
459.204	12904.08
459.41	13551.24
459.616	13115.02
459.821	13991.55
460.027	14550.65
460.233	15074.93
460.438	15154.8
460.644	16119.39
460.85	16160.35
461.055	16971.35
461.261	17790.53
461.466	17305.17
461.672	17710.66
461.878	19676.71
462.083	19568.17
462.289	19924.52
462.494	20723.23
462.7	20948.5
462.905	21493.26
463.111	23117.3
463.316	24051.17
463.522	24425.95
463.727	25531.86
463.932	26107.33
464.138	27098.55
464.343	28241.32
464.549	28403.11
464.754	30358.92
464.959	31290.74
465.165	31960.43
465.37	31411.57
465.575	31753.58
465.781	33809.75
465.986	34612.55
466.191	34465.1
466.397	34338.12
466.602	33682.77
466.807	35448.12
467.012	36410.67
467.218	36594.98
467.423	36627.75
467.628	37725.46
467.833	39576.83
468.038	38827.27
468.244	38085.9
