Data from USB4F104151__26__10-42-09-185.txt Node

Date: Wed Feb 26 10:42:09 EST 2025
User: louis
Spectrometer: USB4F10415
Trigger mode: 4
Integration Time (sec): 1.000000E-1
Scans to average: 1
Electric dark correction enabled: true
Nonlinearity correction enabled: false
Boxcar width: 0
XAxis mode: Wavelengths
Number of Pixels in Spectrum: 3648
>>>>>Begin Spectral Data<<<<<
178.204	-388.09
178.424	-388.09
178.644	-388.09
178.864	-457.72
179.084	-361.47
179.304	-27.65
179.524	13.31
179.744	138.24
179.964	9.22
180.184	-33.79
180.404	46.08
180.624	-1.02
180.844	-3.07
181.064	-103.42
181.283	25.6
181.503	-54.27
181.723	-9.22
181.943	-58.37
182.163	168.96
182.383	-128
182.602	56.32
182.822	111.61
183.042	44.03
183.262	15.36
183.482	-66.56
183.701	82.94
183.921	1.02
184.141	-58.37
184.361	31.74
184.58	82.94
184.8	39.94
185.02	1.02
185.239	93.18
185.459	74.75
185.679	105.47
185.898	5.12
186.118	72.7
186.338	-19.46
186.557	82.94
186.777	-52.22
186.997	5.12
187.216	78.85
187.436	199.68
187.655	97.28
187.875	101.37
188.095	105.47
188.314	140.29
188.534	80.89
188.753	-39.94
188.973	87.04
189.192	62.46
189.412	29.7
189.631	68.61
189.851	13.31
190.07	179.2
190.29	-54.27
190.509	-3.07
190.729	-91.13
190.948	50.18
191.168	259.07
191.387	54.27
191.607	-39.94
191.826	68.61
192.045	52.22
192.265	29.7
192.484	91.13
192.704	62.46
192.923	-95.23
193.142	154.62
193.362	99.33
193.581	138.24
193.8	52.22
194.02	3.07
194.239	54.27
194.458	11.26
194.678	-27.65
194.897	-50.18
195.116	41.98
195.335	29.7
195.555	64.51
195.774	-35.84
195.993	121.85
196.212	46.08
196.432	29.7
196.651	-39.94
196.87	33.79
197.089	158.72
197.308	52.22
197.528	27.65
197.747	-1.02
197.966	66.56
198.185	168.96
198.404	15.36
198.623	84.99
198.842	134.14
199.062	56.32
199.281	37.89
199.5	-35.84
199.719	58.37
199.938	76.8
200.157	56.32
200.376	74.75
200.595	68.61
200.814	48.13
201.033	-11.26
201.252	101.37
201.471	48.13
201.69	121.85
201.909	66.56
202.128	119.81
202.347	87.04
202.566	3.07
202.785	-97.28
203.004	-3.07
203.223	207.87
203.442	78.85
203.661	-39.94
203.879	19.46
204.098	168.96
204.317	-56.32
204.536	125.95
204.755	72.7
204.974	87.04
205.193	9.22
205.411	138.24
205.63	70.65
205.849	-31.74
206.068	-9.22
206.287	-62.46
206.505	62.46
206.724	107.52
206.943	-25.6
207.162	-52.22
207.381	78.85
207.599	7.17
207.818	31.74
208.037	-58.37
208.255	11.26
208.474	17.41
208.693	-21.5
208.911	27.65
209.13	-1.02
209.349	95.23
209.567	29.7
209.786	11.26
210.005	56.32
210.223	76.8
210.442	-56.32
210.661	-1.02
210.879	111.61
211.098	58.37
211.316	21.5
211.535	-3.07
211.753	-52.22
211.972	31.74
212.191	5.12
212.409	46.08
212.628	177.15
212.846	-19.46
213.065	105.47
213.283	70.65
213.502	68.61
213.72	128
213.938	62.46
214.157	-13.31
214.375	117.76
214.594	-15.36
214.812	-9.22
215.031	-21.5
215.249	60.42
215.467	64.51
215.686	-31.74
215.904	41.98
216.122	54.27
216.341	91.13
216.559	13.31
216.778	58.37
216.996	173.05
217.214	3.07
217.432	-39.94
217.651	-9.22
217.869	84.99
218.087	3.07
218.306	48.13
218.524	-23.55
218.742	-17.41
218.96	39.94
219.179	-58.37
219.397	9.22
219.615	300.03
219.833	44.03
220.051	-27.65
220.27	132.09
220.488	44.03
220.706	68.61
220.924	-7.17
221.142	1.02
221.36	48.13
221.578	66.56
221.796	97.28
222.015	37.89
222.233	46.08
222.451	183.29
222.669	-35.84
222.887	54.27
223.105	-58.37
223.323	27.65
223.541	-64.51
223.759	23.55
223.977	1.02
224.195	121.85
224.413	31.74
224.631	13.31
224.849	44.03
225.067	238.59
225.285	19.46
225.503	31.74
225.721	-52.22
225.939	84.99
226.157	5.12
226.375	230.4
226.592	-72.7
226.81	-9.22
227.028	158.72
227.246	72.7
227.464	44.03
227.682	138.24
227.9	7.17
228.117	132.09
228.335	82.94
228.553	64.51
228.771	68.61
228.989	82.94
229.206	5.12
229.424	39.94
229.642	-11.26
229.86	-21.5
230.077	121.85
230.295	44.03
230.513	17.41
230.731	7.17
230.948	216.06
231.166	154.62
231.384	9.22
231.601	-17.41
231.819	136.19
232.037	-23.55
232.254	1.02
232.472	44.03
232.689	-66.56
232.907	119.81
233.125	13.31
233.342	-29.7
233.56	-52.22
233.777	1.02
233.995	35.84
234.213	72.7
234.43	44.03
234.648	9.22
234.865	-23.55
235.083	54.27
235.3	44.03
235.518	99.33
235.735	99.33
235.953	82.94
236.17	52.22
236.388	-3.07
236.605	13.31
236.822	107.52
237.04	62.46
237.257	17.41
237.475	-70.65
237.692	66.56
237.909	93.18
238.127	-68.61
238.344	80.89
238.562	-11.26
238.779	-3.07
238.996	-76.8
239.214	99.33
239.431	58.37
239.648	-9.22
239.865	99.33
240.083	93.18
240.3	62.46
240.517	-27.65
240.735	66.56
240.952	162.81
241.169	29.7
241.386	101.37
241.603	-60.42
241.821	-7.17
242.038	78.85
242.255	158.72
242.472	-31.74
242.689	119.81
242.907	46.08
243.124	91.13
243.341	130.05
243.558	-25.6
243.775	-95.23
243.992	-33.79
244.209	78.85
244.426	109.57
244.643	7.17
244.86	-19.46
245.078	136.19
245.295	33.79
245.512	-23.55
245.729	7.17
245.946	87.04
246.163	35.84
246.38	-82.94
246.597	117.76
246.814	-7.17
247.031	99.33
247.248	7.17
247.464	113.66
247.681	60.42
247.898	27.65
248.115	82.94
248.332	5.12
248.549	54.27
248.766	140.29
248.983	91.13
249.2	54.27
249.417	74.75
249.633	56.32
249.85	138.24
250.067	-15.36
250.284	54.27
250.501	154.62
250.717	93.18
250.934	13.31
251.151	109.57
251.368	-44.03
251.585	31.74
251.801	33.79
252.018	-7.17
252.235	-7.17
252.451	-60.42
252.668	17.41
252.885	72.7
253.102	62.46
253.318	39.94
253.535	15.36
253.752	-37.89
253.968	-27.65
254.185	-95.23
254.401	39.94
254.618	11.26
254.835	29.7
255.051	138.24
255.268	56.32
255.484	41.98
255.701	-29.7
255.917	29.7
256.134	-11.26
256.351	-27.65
256.567	-27.65
256.784	25.6
257	-66.56
257.217	82.94
257.433	72.7
257.65	41.98
257.866	168.96
258.082	-89.09
258.299	-3.07
258.515	101.37
258.732	54.27
258.948	58.37
259.165	11.26
259.381	50.18
259.597	109.57
259.814	5.12
260.03	50.18
260.246	37.89
260.463	152.57
260.679	181.25
260.895	31.74
261.112	56.32
261.328	-93.18
261.544	44.03
261.761	144.38
261.977	-11.26
262.193	-23.55
262.409	156.67
262.626	-21.5
262.842	-19.46
263.058	9.22
263.274	80.89
263.49	87.04
263.707	115.71
263.923	54.27
264.139	-93.18
264.355	66.56
264.571	74.75
264.787	7.17
265.004	142.33
265.22	-52.22
265.436	-7.17
265.652	44.03
265.868	-74.75
266.084	-23.55
266.3	25.6
266.516	-29.7
266.732	11.26
266.948	50.18
267.164	58.37
267.38	56.32
267.596	68.61
267.812	80.89
268.028	54.27
268.244	39.94
268.46	15.36
268.676	-11.26
268.892	84.99
269.108	-21.5
269.324	-15.36
269.54	-68.61
269.756	99.33
269.972	-80.89
270.188	66.56
270.403	-29.7
270.619	44.03
270.835	89.09
271.051	60.42
271.267	1.02
271.483	11.26
271.698	99.33
271.914	-9.22
272.13	37.89
272.346	13.31
272.562	50.18
272.777	158.72
272.993	-13.31
273.209	17.41
273.425	70.65
273.64	-13.31
273.856	95.23
274.072	-11.26
274.287	-44.03
274.503	97.28
274.719	168.96
274.934	89.09
275.15	-46.08
275.366	99.33
275.581	95.23
275.797	-19.46
276.012	158.72
276.228	-13.31
276.444	35.84
276.659	97.28
276.875	-33.79
277.09	-17.41
277.306	60.42
277.521	50.18
277.737	41.98
277.952	125.95
278.168	58.37
278.383	33.79
278.599	125.95
278.814	160.77
279.03	-1.02
279.245	113.66
279.461	52.22
279.676	78.85
279.892	-62.46
280.107	-13.31
280.322	-33.79
280.538	54.27
280.753	7.17
280.969	60.42
281.184	23.55
281.399	44.03
281.615	123.9
281.83	35.84
282.045	-87.04
282.26	11.26
282.476	21.5
282.691	31.74
282.906	17.41
283.122	56.32
283.337	-113.66
283.552	107.52
283.767	23.55
283.983	-11.26
284.198	-44.03
284.413	84.99
284.628	-70.65
284.843	93.18
285.058	-1.02
285.274	78.85
285.489	29.7
285.704	109.57
285.919	-68.61
286.134	119.81
286.349	60.42
286.564	-62.46
286.779	152.57
286.995	7.17
287.21	-52.22
287.425	52.22
287.64	-31.74
287.855	74.75
288.07	-7.17
288.285	64.51
288.5	78.85
288.715	11.26
288.93	37.89
289.145	-7.17
289.36	74.75
289.575	-25.6
289.79	101.37
290.004	11.26
290.219	64.51
290.434	5.12
290.649	7.17
290.864	-7.17
291.079	60.42
291.294	58.37
291.509	87.04
291.724	13.31
291.938	-9.22
292.153	115.71
292.368	17.41
292.583	62.46
292.798	173.05
293.012	113.66
293.227	50.18
293.442	-31.74
293.657	70.65
293.871	54.27
294.086	97.28
294.301	183.29
294.516	91.13
294.73	13.31
294.945	-150.53
295.16	-11.26
295.374	89.09
295.589	111.61
295.804	44.03
296.018	70.65
296.233	72.7
296.447	-37.89
296.662	-64.51
296.877	107.52
297.091	97.28
297.306	35.84
297.52	27.65
297.735	97.28
297.949	113.66
298.164	58.37
298.378	56.32
298.593	-37.89
298.807	-82.94
299.022	39.94
299.236	197.63
299.451	-17.41
299.665	11.26
299.88	52.22
300.094	70.65
300.309	-3.07
300.523	7.17
300.737	31.74
300.952	25.6
301.166	179.2
301.381	-9.22
301.595	13.31
301.809	64.51
302.024	17.41
302.238	-56.32
302.452	109.57
302.667	1.02
302.881	87.04
303.095	80.89
303.309	82.94
303.524	-48.13
303.738	48.13
303.952	-1.02
304.166	84.99
304.381	-201.72
304.595	134.14
304.809	39.94
305.023	19.46
305.237	-9.22
305.452	27.65
305.666	107.52
305.88	76.8
306.094	134.14
306.308	54.27
306.522	64.51
306.736	74.75
306.95	29.7
307.164	52.22
307.379	21.5
307.593	140.29
307.807	191.49
308.021	82.94
308.235	128
308.449	-33.79
308.663	17.41
308.877	142.33
309.091	-23.55
309.305	125.95
309.519	-97.28
309.733	60.42
309.947	-76.8
310.161	27.65
310.374	9.22
310.588	150.53
310.802	17.41
311.016	-62.46
311.23	95.23
311.444	5.12
311.658	105.47
311.872	109.57
312.085	56.32
312.299	54.27
312.513	115.71
312.727	103.42
312.941	-29.7
313.154	19.46
313.368	13.31
313.582	-13.31
313.796	72.7
314.009	74.75
314.223	146.43
314.437	64.51
314.651	99.33
314.864	-113.66
315.078	25.6
315.292	-89.09
315.505	-46.08
315.719	27.65
315.933	68.61
316.146	-29.7
316.36	-91.13
316.573	150.53
316.787	125.95
317.001	82.94
317.214	-11.26
317.428	35.84
317.641	9.22
317.855	66.56
318.068	46.08
318.282	48.13
318.495	177.15
318.709	-15.36
318.922	-35.84
319.136	119.81
319.349	78.85
319.563	1.02
319.776	82.94
319.99	-33.79
320.203	1.02
320.417	5.12
320.63	101.37
320.843	179.2
321.057	29.7
321.27	41.98
321.483	132.09
321.697	125.95
321.91	11.26
322.124	74.75
322.337	52.22
322.55	-1.02
322.763	60.42
322.977	-27.65
323.19	-3.07
323.403	5.12
323.617	-15.36
323.83	50.18
324.043	-91.13
324.256	89.09
324.469	-66.56
324.683	140.29
324.896	1.02
325.109	62.46
325.322	-56.32
325.535	115.71
325.748	80.89
325.962	60.42
326.175	52.22
326.388	-21.5
326.601	33.79
326.814	46.08
327.027	50.18
327.24	201.72
327.453	-29.7
327.666	11.26
327.879	76.8
328.092	74.75
328.305	111.61
328.518	15.36
328.731	-68.61
328.944	-58.37
329.157	95.23
329.37	9.22
329.583	248.83
329.796	62.46
330.009	11.26
330.222	72.7
330.435	156.67
330.648	46.08
330.861	99.33
331.073	50.18
331.286	136.19
331.499	-58.37
331.712	68.61
331.925	27.65
332.138	64.51
332.35	97.28
332.563	-23.55
332.776	168.96
332.989	-35.84
333.202	-7.17
333.414	37.89
333.627	13.31
333.84	3.07
334.053	25.6
334.265	46.08
334.478	-3.07
334.691	-46.08
334.903	7.17
335.116	37.89
335.329	9.22
335.541	11.26
335.754	140.29
335.966	-91.13
336.179	60.42
336.392	25.6
336.604	64.51
336.817	136.19
337.029	52.22
337.242	74.75
337.454	54.27
337.667	13.31
337.88	109.57
338.092	68.61
338.305	64.51
338.517	35.84
338.729	15.36
338.942	109.57
339.154	-76.8
339.367	5.12
339.579	33.79
339.792	-117.76
340.004	62.46
340.217	44.03
340.429	74.75
340.641	-1.02
340.854	-25.6
341.066	25.6
341.278	134.14
341.491	154.62
341.703	91.13
341.915	41.98
342.128	140.29
342.34	99.33
342.552	21.5
342.764	29.7
342.977	17.41
343.189	103.42
343.401	48.13
343.613	-23.55
343.826	78.85
344.038	-35.84
344.25	62.46
344.462	-17.41
344.674	76.8
344.886	9.22
345.099	44.03
345.311	91.13
345.523	11.26
345.735	-41.98
345.947	97.28
346.159	50.18
346.371	15.36
346.583	-68.61
346.795	166.91
347.007	37.89
347.219	31.74
347.431	48.13
347.643	58.37
347.855	5.12
348.067	134.14
348.279	9.22
348.491	-35.84
348.703	107.52
348.915	-17.41
349.127	27.65
349.339	33.79
349.551	-54.27
349.763	119.81
349.975	33.79
350.187	48.13
350.399	164.86
350.61	177.15
350.822	1.02
351.034	91.13
351.246	29.7
351.458	74.75
351.669	95.23
351.881	84.99
352.093	60.42
352.305	144.38
352.517	23.55
352.728	95.23
352.94	35.84
353.152	68.61
353.363	-66.56
353.575	62.46
353.787	123.9
353.999	37.89
354.21	80.89
354.422	62.46
354.633	60.42
354.845	84.99
355.057	31.74
355.268	29.7
355.48	113.66
355.692	-64.51
355.903	17.41
356.115	-35.84
356.326	-136.19
356.538	160.77
356.749	89.09
356.961	140.29
357.172	-19.46
357.384	66.56
357.595	144.38
357.807	44.03
358.018	7.17
358.23	35.84
358.441	187.39
358.653	27.65
358.864	7.17
359.075	29.7
359.287	46.08
359.498	62.46
359.709	173.05
359.921	56.32
360.132	-5.12
360.344	-7.17
360.555	13.31
360.766	105.47
360.977	15.36
361.189	70.65
361.4	15.36
361.611	134.14
361.823	154.62
362.034	66.56
362.245	-89.09
362.456	-13.31
362.667	31.74
362.879	-13.31
363.09	50.18
363.301	87.04
363.512	-31.74
363.723	-25.6
363.935	-58.37
364.146	189.44
364.357	-7.17
364.568	84.99
364.779	-140.29
364.99	87.04
365.201	64.51
365.412	91.13
365.623	-128
365.834	7.17
366.045	52.22
366.256	21.5
366.467	113.66
366.678	76.8
366.889	31.74
367.1	-64.51
367.311	74.75
367.522	-29.7
367.733	84.99
367.944	21.5
368.155	-1.02
368.366	62.46
368.577	78.85
368.788	76.8
368.999	-29.7
369.209	35.84
369.42	207.87
369.631	224.25
369.842	23.55
370.053	17.41
370.264	89.09
370.474	19.46
370.685	7.17
370.896	-1.02
371.107	50.18
371.317	9.22
371.528	9.22
371.739	97.28
371.95	46.08
372.16	31.74
372.371	7.17
372.582	17.41
372.792	121.85
373.003	35.84
373.214	54.27
373.424	70.65
373.635	1.02
373.846	21.5
374.056	97.28
374.267	33.79
374.477	-3.07
374.688	21.5
374.898	52.22
375.109	58.37
375.319	39.94
375.53	142.33
375.74	117.76
375.951	35.84
376.161	41.98
376.372	107.52
376.582	58.37
376.793	80.89
377.003	13.31
377.214	66.56
377.424	97.28
377.635	3.07
377.845	-5.12
378.055	111.61
378.266	41.98
378.476	15.36
378.686	37.89
378.897	123.9
379.107	132.09
379.317	44.03
379.528	37.89
379.738	64.51
379.948	-1.02
380.158	109.57
380.369	21.5
380.579	29.7
380.789	80.89
380.999	29.7
381.21	152.57
381.42	191.49
381.63	46.08
381.84	121.85
382.05	91.13
382.261	60.42
382.471	160.77
382.681	37.89
382.891	189.44
383.101	70.65
383.311	-89.09
383.521	-5.12
383.731	125.95
383.941	150.53
384.151	-5.12
384.361	37.89
384.571	134.14
384.781	76.8
384.991	140.29
385.201	236.54
385.411	109.57
385.621	46.08
385.831	80.89
386.041	29.7
386.251	123.9
386.461	185.34
386.671	13.31
386.881	37.89
387.091	-7.17
387.301	76.8
387.511	25.6
387.72	60.42
387.93	70.65
388.14	-89.09
388.35	97.28
388.56	97.28
388.769	142.33
388.979	62.46
389.189	35.84
389.399	-37.89
389.609	121.85
389.818	111.61
390.028	76.8
390.238	107.52
390.447	54.27
390.657	91.13
390.867	19.46
391.076	-97.28
391.286	50.18
391.496	-17.41
391.705	41.98
391.915	117.76
392.125	107.52
392.334	-54.27
392.544	72.7
392.753	52.22
392.963	-25.6
393.172	115.71
393.382	-31.74
393.591	179.2
393.801	105.47
394.01	228.35
394.22	142.33
394.429	-15.36
394.639	72.7
394.848	142.33
395.058	62.46
395.267	78.85
395.477	109.57
395.686	87.04
395.895	228.35
396.105	158.72
396.314	50.18
396.524	105.47
396.733	52.22
396.942	119.81
397.152	78.85
397.361	226.3
397.57	68.61
397.78	58.37
397.989	46.08
398.198	199.68
398.407	13.31
398.617	21.5
398.826	48.13
399.035	64.51
399.244	91.13
399.453	-19.46
399.663	39.94
399.872	60.42
400.081	-76.8
400.29	17.41
400.499	-70.65
400.708	148.48
400.917	7.17
401.127	-52.22
401.336	1.02
401.545	158.72
401.754	109.57
401.963	121.85
402.172	-25.6
402.381	-17.41
402.59	41.98
402.799	11.26
403.008	130.05
403.217	125.95
403.426	97.28
403.635	-52.22
403.844	76.8
404.053	46.08
404.262	50.18
404.471	111.61
404.68	9.22
404.888	29.7
405.097	78.85
405.306	31.74
405.515	148.48
405.724	-3.07
405.933	109.57
406.142	76.8
406.35	123.9
406.559	-39.94
406.768	46.08
406.977	152.57
407.185	46.08
407.394	60.42
407.603	-29.7
407.812	58.37
408.02	142.33
408.229	125.95
408.438	46.08
408.646	-99.33
408.855	101.37
409.064	146.43
409.272	64.51
409.481	97.28
409.69	39.94
409.898	-17.41
410.107	105.47
410.315	78.85
410.524	23.55
410.733	72.7
410.941	60.42
411.15	175.1
411.358	15.36
411.567	128
411.775	39.94
411.984	-11.26
412.192	66.56
412.401	-35.84
412.609	187.39
412.818	132.09
413.026	121.85
413.234	5.12
413.443	95.23
413.651	1.02
413.86	58.37
414.068	158.72
414.276	220.16
414.485	-5.12
414.693	179.2
414.901	199.68
415.11	82.94
415.318	72.7
415.526	-23.55
415.734	97.28
415.943	60.42
416.151	119.81
416.359	125.95
416.567	5.12
416.776	54.27
416.984	66.56
417.192	175.1
417.4	9.22
417.608	-9.22
417.817	27.65
418.025	136.19
418.233	189.44
418.441	74.75
418.649	11.26
418.857	160.77
419.065	128
419.273	39.94
419.481	54.27
419.689	107.52
419.897	-11.26
420.105	-87.04
420.313	-13.31
420.521	160.77
420.729	142.33
420.937	105.47
421.145	3.07
421.353	179.2
421.561	181.25
421.769	82.94
421.977	27.65
422.185	121.85
422.393	66.56
422.601	93.18
422.809	109.57
423.017	89.09
423.224	136.19
423.432	197.63
423.64	87.04
423.848	101.37
424.056	-64.51
424.263	117.76
424.471	13.31
424.679	154.62
424.887	-21.5
425.094	130.05
425.302	84.99
425.51	58.37
425.718	107.52
425.925	111.61
426.133	54.27
426.341	142.33
426.548	37.89
426.756	3.07
426.964	103.42
427.171	-27.65
427.379	50.18
427.586	82.94
427.794	128
428.001	101.37
428.209	72.7
428.417	197.63
428.624	158.72
428.832	132.09
429.039	-19.46
429.247	130.05
429.454	80.89
429.662	199.68
429.869	168.96
430.076	111.61
430.284	211.96
430.491	228.35
430.699	123.9
430.906	242.68
431.114	156.67
431.321	173.05
431.528	146.43
431.736	273.4
431.943	201.72
432.15	130.05
432.358	232.44
432.565	263.16
432.772	15.36
432.979	187.39
433.187	134.14
433.394	232.44
433.601	68.61
433.808	222.2
434.016	312.32
434.223	254.97
434.43	285.69
434.637	263.16
434.844	297.98
435.052	269.31
435.259	232.44
435.466	306.17
435.673	257.02
435.88	377.85
436.087	373.75
436.294	359.42
436.501	359.42
436.708	295.93
436.915	381.95
437.122	392.19
437.329	285.69
437.537	406.52
437.743	408.57
437.95	441.34
438.157	494.58
438.364	474.1
438.571	439.29
438.778	465.91
438.985	558.07
439.192	560.12
439.399	568.31
439.606	549.88
439.813	660.47
440.02	680.95
440.227	779.25
440.433	699.38
440.64	625.65
440.847	566.26
441.054	654.33
441.261	762.87
441.467	750.58
441.674	695.29
441.881	900.08
442.088	842.74
442.294	906.23
442.501	932.85
442.708	1031.15
442.914	977.91
443.121	1078.26
443.328	1088.5
443.534	1119.21
443.741	1190.89
443.948	1012.72
444.154	1176.56
444.361	1407.98
444.568	1201.13
444.774	1289.2
444.981	1151.98
445.187	1541.1
445.394	1453.03
445.6	1311.72
445.807	1592.3
446.013	1430.51
446.22	1520.62
446.426	1752.04
446.633	1772.52
446.839	2024.42
447.046	1819.62
447.252	1991.65
447.459	2059.23
447.665	2075.62
447.871	2186.21
448.078	2282.46
448.284	2294.75
448.491	2526.17
448.697	2563.03
448.903	2714.58
449.11	2649.05
449.316	2644.95
449.522	2939.86
449.728	2933.72
449.935	3091.41
450.141	3185.62
450.347	3414.99
450.553	3554.25
450.76	3314.64
450.966	3609.54
451.172	3623.88
451.378	3736.52
451.584	3853.25
451.791	4090.82
451.997	4297.66
452.203	4471.74
452.409	4744.12
452.615	4860.85
452.821	4635.58
453.027	4731.83
453.233	5405.61
453.44	5131.19
453.646	5487.53
453.852	5884.84
454.058	6095.78
454.264	6048.68
454.47	6663.07
454.676	6656.92
454.882	6998.93
455.088	6820.76
455.294	7222.16
455.5	7719.82
455.705	8153.99
455.911	8061.83
456.117	8330.11
456.323	8637.31
456.529	8749.95
456.735	9544.56
456.941	9661.29
457.147	10255.2
457.352	10314.59
457.558	10781.53
457.764	11455.31
457.97	11641.68
458.176	12198.73
458.381	12837.69
458.587	13099.83
458.793	13579.06
458.999	13609.78
459.204	15160.09
459.41	15936.27
459.616	15674.13
459.821	16345.86
460.027	17021.69
460.233	18039.53
460.438	17922.8
460.644	19133.15
460.85	19346.14
461.055	20042.45
461.261	20925.12
461.466	20513.48
461.672	20900.55
461.878	23468.7
462.083	23313.05
462.289	23698.07
462.494	24736.39
462.7	25039.49
462.905	25258.62
463.111	27363.93
463.316	28846.66
463.522	28813.9
463.727	30020.15
463.932	31140.39
464.138	31869.47
464.343	33094.15
464.549	33458.69
464.754	36047.32
464.959	36706.77
465.165	37976.51
465.37	37063.11
465.575	37325.25
465.781	39266.73
465.986	41077.13
466.191	40325.53
466.397	40767.89
466.602	40053.15
466.807	41890.18
467.012	42807.67
467.218	43178.35
467.423	43407.72
467.628	44523.86
467.833	47122.74
468.038	46137.66
468.244	45353.29
468.449	47610.15
468.654	46545.21
468.859	46459.2
