Data from USB4F104151__262__11-20-24-233.txt Node

Date: Wed Feb 26 11:20:24 EST 2025
User: louis
Spectrometer: USB4F10415
Trigger mode: 4
Integration Time (sec): 1.000000E-1
Scans to average: 1
Electric dark correction enabled: true
Nonlinearity correction enabled: false
Boxcar width: 0
XAxis mode: Wavelengths
Number of Pixels in Spectrum: 3648
>>>>>Begin Spectral Data<<<<<
178.204	-358.91
178.424	-358.91
178.644	-358.91
178.864	-438.78
179.084	-369.15
179.304	32.26
179.524	-12.8
179.744	34.3
179.964	-55.81
180.184	65.02
180.404	34.3
180.624	-20.99
180.844	-51.71
181.064	-66.05
181.283	69.12
181.503	-80.38
181.723	52.74
181.943	-90.62
182.163	134.65
182.383	-20.99
182.602	-0.51
182.822	161.28
183.042	103.93
183.262	-18.94
183.482	30.21
183.701	26.11
183.921	89.6
184.141	-74.24
184.361	91.65
184.58	124.41
184.8	-29.18
185.02	-33.28
185.239	17.92
185.459	54.78
185.679	120.32
185.898	-68.09
186.118	17.92
186.338	-27.14
186.557	130.56
186.777	-88.57
186.997	11.78
187.216	-18.94
187.436	105.98
187.655	103.93
187.875	110.08
188.095	69.12
188.314	175.61
188.534	75.26
188.753	38.4
188.973	132.61
189.192	235
189.412	81.41
189.631	71.17
189.851	105.98
190.07	148.99
190.29	-25.09
190.509	60.93
190.729	62.98
190.948	50.69
191.168	253.44
191.387	62.98
191.607	56.83
191.826	85.5
192.045	7.68
192.265	13.82
192.484	112.13
192.704	62.98
192.923	-86.53
193.142	224.76
193.362	85.5
193.581	144.89
193.8	3.58
194.02	132.61
194.239	24.06
194.458	79.36
194.678	-6.66
194.897	65.02
195.116	1.54
195.335	42.5
195.555	99.84
195.774	7.68
195.993	26.11
196.212	5.63
196.432	-14.85
196.651	22.02
196.87	15.87
197.089	232.96
197.308	91.65
197.528	34.3
197.747	-2.56
197.966	58.88
198.185	142.85
198.404	-88.57
198.623	101.89
198.842	142.85
199.062	120.32
199.281	134.65
199.5	34.3
199.719	52.74
199.938	87.55
200.157	50.69
200.376	157.18
200.595	105.98
200.814	22.02
201.033	-57.86
201.252	124.41
201.471	-4.61
201.69	40.45
201.909	65.02
202.128	136.7
202.347	122.37
202.566	26.11
202.785	-49.66
203.004	15.87
203.223	228.86
203.442	40.45
203.661	-18.94
203.879	56.83
204.098	112.13
204.317	-39.42
204.536	95.74
204.755	73.21
204.974	130.56
205.193	-51.71
205.411	175.61
205.63	177.66
205.849	22.02
206.068	-16.9
206.287	1.54
206.505	54.78
206.724	67.07
206.943	-4.61
207.162	-64
207.381	128.51
207.599	-0.51
207.818	44.54
208.037	-59.9
208.255	13.82
208.474	-20.99
208.693	36.35
208.911	-4.61
209.13	22.02
209.349	114.17
209.567	40.45
209.786	91.65
210.005	19.97
210.223	-6.66
210.442	-16.9
210.661	-0.51
210.879	48.64
211.098	11.78
211.316	73.21
211.535	99.84
211.753	30.21
211.972	93.69
212.191	-33.28
212.409	3.58
212.628	91.65
212.846	13.82
213.065	62.98
213.283	108.03
213.502	54.78
213.72	42.5
213.938	13.82
214.157	26.11
214.375	124.41
214.594	28.16
214.812	26.11
215.031	17.92
215.249	-27.14
215.467	52.74
215.686	11.78
215.904	118.27
216.122	28.16
216.341	151.04
216.559	56.83
216.778	120.32
216.996	120.32
217.214	15.87
217.432	24.06
217.651	-27.14
217.869	85.5
218.087	22.02
218.306	-25.09
218.524	40.45
218.742	3.58
218.96	89.6
219.179	-16.9
219.397	46.59
219.615	189.95
219.833	48.64
220.051	-55.81
220.27	130.56
220.488	140.8
220.706	1.54
220.924	40.45
221.142	48.64
221.36	50.69
221.578	56.83
221.796	42.5
222.015	114.17
222.233	71.17
222.451	220.67
222.669	-49.66
222.887	65.02
223.105	-16.9
223.323	19.97
223.541	-61.95
223.759	101.89
223.977	5.63
224.195	124.41
224.413	101.89
224.631	114.17
224.849	15.87
225.067	189.95
225.285	22.02
225.503	42.5
225.721	-43.52
225.939	38.4
226.157	17.92
226.375	214.52
226.592	28.16
226.81	-41.47
227.028	95.74
227.246	58.88
227.464	9.73
227.682	108.03
227.9	58.88
228.117	79.36
228.335	77.31
228.553	54.78
228.771	11.78
228.989	9.73
229.206	67.07
229.424	-0.51
229.642	24.06
229.86	-51.71
230.077	202.24
230.295	38.4
230.513	44.54
230.731	22.02
230.948	95.74
231.166	103.93
231.384	-35.33
231.601	-90.62
231.819	200.19
232.037	-39.42
232.254	7.68
232.472	81.41
232.689	-82.43
232.907	130.56
233.125	-84.48
233.342	-14.85
233.56	-12.8
233.777	-16.9
233.995	32.26
234.213	93.69
234.43	62.98
234.648	-6.66
234.865	50.69
235.083	116.22
235.3	34.3
235.518	114.17
235.735	122.37
235.953	3.58
236.17	26.11
236.388	1.54
236.605	120.32
236.822	161.28
237.04	60.93
237.257	26.11
237.475	-57.86
237.692	77.31
237.909	-18.94
238.127	75.26
238.344	62.98
238.562	-4.61
238.779	-59.9
238.996	11.78
239.214	56.83
239.431	40.45
239.648	48.64
239.865	58.88
240.083	52.74
240.3	-59.9
240.517	17.92
240.735	85.5
240.952	194.05
241.169	42.5
241.386	58.88
241.603	44.54
241.821	-25.09
242.038	95.74
242.255	116.22
242.472	-35.33
242.689	58.88
242.907	15.87
243.124	126.46
243.341	85.5
243.558	52.74
243.775	-113.15
243.992	-39.42
244.209	108.03
244.426	161.28
244.643	-4.61
244.86	36.35
245.078	144.89
245.295	9.73
245.512	-10.75
245.729	-25.09
245.946	42.5
246.163	58.88
246.38	19.97
246.597	67.07
246.814	58.88
247.031	-16.9
247.248	15.87
247.464	36.35
247.681	24.06
247.898	108.03
248.115	81.41
248.332	-23.04
248.549	151.04
248.766	208.38
248.983	95.74
249.2	26.11
249.417	173.57
249.633	-61.95
249.85	142.85
250.067	73.21
250.284	38.4
250.501	40.45
250.717	54.78
250.934	-39.42
251.151	32.26
251.368	65.02
251.585	101.89
251.801	30.21
252.018	-72.19
252.235	105.98
252.451	-55.81
252.668	-14.85
252.885	132.61
253.102	32.26
253.318	67.07
253.535	-55.81
253.752	50.69
253.968	-47.62
254.185	-45.57
254.401	42.5
254.618	97.79
254.835	67.07
255.051	116.22
255.268	171.52
255.484	85.5
255.701	17.92
255.917	-18.94
256.134	-27.14
256.351	-6.66
256.567	-29.18
256.784	15.87
257	-31.23
257.217	101.89
257.433	114.17
257.65	77.31
257.866	132.61
258.082	-41.47
258.299	24.06
258.515	79.36
258.732	7.68
258.948	9.73
259.165	71.17
259.381	-80.38
259.597	40.45
259.814	38.4
260.03	67.07
260.246	28.16
260.463	101.89
260.679	118.27
260.895	69.12
261.112	167.42
261.328	30.21
261.544	-14.85
261.761	161.28
261.977	34.3
262.193	-70.14
262.409	46.59
262.626	-35.33
262.842	120.32
263.058	-37.38
263.274	52.74
263.49	108.03
263.707	62.98
263.923	77.31
264.139	-27.14
264.355	60.93
264.571	71.17
264.787	171.52
265.004	52.74
265.22	19.97
265.436	-23.04
265.652	-49.66
265.868	42.5
266.084	-90.62
266.3	56.83
266.516	13.82
266.732	-31.23
266.948	34.3
267.164	9.73
267.38	120.32
267.596	-23.04
267.812	128.51
268.028	30.21
268.244	-2.56
268.46	38.4
268.676	-12.8
268.892	54.78
269.108	7.68
269.324	5.63
269.54	13.82
269.756	126.46
269.972	-64
270.188	-27.14
270.403	-76.29
270.619	-31.23
270.835	155.13
271.051	67.07
271.267	-41.47
271.483	-23.04
271.698	75.26
271.914	38.4
272.13	30.21
272.346	62.98
272.562	56.83
272.777	165.37
272.993	7.68
273.209	-78.33
273.425	79.36
273.64	-35.33
273.856	40.45
274.072	17.92
274.287	56.83
274.503	67.07
274.719	58.88
274.934	17.92
275.15	-16.9
275.366	22.02
275.581	-23.04
275.797	56.83
276.012	36.35
276.228	-8.7
276.444	73.21
276.659	128.51
276.875	-43.52
277.09	58.88
277.306	91.65
277.521	46.59
277.737	-18.94
277.952	101.89
278.168	7.68
278.383	91.65
278.599	-2.56
278.814	124.41
279.03	-18.94
279.245	128.51
279.461	19.97
279.676	114.17
279.892	-109.05
280.107	44.54
280.322	17.92
280.538	11.78
280.753	-117.25
280.969	99.84
281.184	-49.66
281.399	105.98
281.615	15.87
281.83	30.21
282.045	-82.43
282.26	46.59
282.476	26.11
282.691	89.6
282.906	32.26
283.122	-31.23
283.337	-2.56
283.552	-10.75
283.767	-0.51
283.983	56.83
284.198	-35.33
284.413	60.93
284.628	-55.81
284.843	65.02
285.058	118.27
285.274	54.78
285.489	-8.7
285.704	112.13
285.919	9.73
286.134	67.07
286.349	28.16
286.564	24.06
286.779	181.76
286.995	-10.75
287.21	-43.52
287.425	77.31
287.64	13.82
287.855	79.36
288.07	-25.09
288.285	151.04
288.5	114.17
288.715	148.99
288.93	17.92
289.145	26.11
289.36	77.31
289.575	-4.61
289.79	175.61
290.004	-4.61
290.219	153.09
290.434	-0.51
290.649	-29.18
290.864	-43.52
291.079	-18.94
291.294	3.58
291.509	132.61
291.724	-20.99
291.938	22.02
292.153	56.83
292.368	19.97
292.583	69.12
292.798	65.02
293.012	73.21
293.227	95.74
293.442	9.73
293.657	85.5
293.871	54.78
294.086	44.54
294.301	181.76
294.516	71.17
294.73	48.64
294.945	-84.48
295.16	97.79
295.374	142.85
295.589	116.22
295.804	-16.9
296.018	65.02
296.233	83.45
296.447	60.93
296.662	-45.57
296.877	91.65
297.091	89.6
297.306	-45.57
297.52	48.64
297.735	5.63
297.949	75.26
298.164	69.12
298.378	95.74
298.593	-98.81
298.807	-31.23
299.022	151.04
299.236	89.6
299.451	-18.94
299.665	13.82
299.88	56.83
300.094	42.5
300.309	5.63
300.523	46.59
300.737	-0.51
300.952	105.98
301.166	60.93
301.381	-39.42
301.595	-14.85
301.809	69.12
302.024	26.11
302.238	-39.42
302.452	128.51
302.667	52.74
302.881	128.51
303.095	69.12
303.309	26.11
303.524	28.16
303.738	7.68
303.952	-29.18
304.166	28.16
304.381	-74.24
304.595	69.12
304.809	24.06
305.023	91.65
305.237	-51.71
305.452	54.78
305.666	-12.8
305.88	118.27
306.094	32.26
306.308	65.02
306.522	85.5
306.736	24.06
306.95	108.03
307.164	5.63
307.379	7.68
307.593	140.8
307.807	103.93
308.021	60.93
308.235	85.5
308.449	-55.81
308.663	116.22
308.877	167.42
309.091	30.21
309.305	77.31
309.519	-86.53
309.733	189.95
309.947	-117.25
310.161	1.54
310.374	132.61
310.588	87.55
310.802	62.98
311.016	-49.66
311.23	146.94
311.444	-4.61
311.658	22.02
311.872	165.37
312.085	116.22
312.299	93.69
312.513	118.27
312.727	1.54
312.941	-49.66
313.154	24.06
313.368	87.55
313.582	40.45
313.796	75.26
314.009	-25.09
314.223	108.03
314.437	28.16
314.651	132.61
314.864	-18.94
315.078	-18.94
315.292	-55.81
315.505	-35.33
315.719	50.69
315.933	138.75
316.146	34.3
316.36	26.11
316.573	97.79
316.787	54.78
317.001	28.16
317.214	-51.71
317.428	-10.75
317.641	7.68
317.855	67.07
318.068	1.54
318.282	40.45
318.495	253.44
318.709	114.17
318.922	-27.14
319.136	200.19
319.349	95.74
319.563	-70.14
319.776	103.93
319.99	-145.92
320.203	110.08
320.417	-4.61
320.63	71.17
320.843	165.37
321.057	58.88
321.27	13.82
321.483	15.87
321.697	140.8
321.91	32.26
322.124	56.83
322.337	42.5
322.55	-20.99
322.763	79.36
322.977	30.21
323.19	69.12
323.403	28.16
323.617	17.92
323.83	116.22
324.043	73.21
324.256	32.26
324.469	-0.51
324.683	130.56
324.896	46.59
325.109	-4.61
325.322	-70.14
325.535	58.88
325.748	99.84
325.962	-37.38
326.175	36.35
326.388	42.5
326.601	87.55
326.814	42.5
327.027	3.58
327.24	187.9
327.453	-100.86
327.666	58.88
327.879	194.05
328.092	62.98
328.305	89.6
328.518	28.16
328.731	32.26
328.944	69.12
329.157	69.12
329.37	44.54
329.583	173.57
329.796	114.17
330.009	-33.28
330.222	167.42
330.435	50.69
330.648	89.6
330.861	30.21
331.073	65.02
331.286	71.17
331.499	65.02
331.712	-41.47
331.925	101.89
332.138	54.78
332.35	69.12
332.563	7.68
332.776	103.93
332.989	-92.67
333.202	-2.56
333.414	40.45
333.627	42.5
333.84	22.02
334.053	-18.94
334.265	-8.7
334.478	11.78
334.691	-41.47
334.903	60.93
335.116	32.26
335.329	56.83
335.541	52.74
335.754	75.26
335.966	11.78
336.179	91.65
336.392	19.97
336.604	11.78
336.817	91.65
337.029	73.21
337.242	1.54
337.454	58.88
337.667	85.5
337.88	124.41
338.092	112.13
338.305	101.89
338.517	7.68
338.729	148.99
338.942	120.32
339.154	3.58
339.367	-66.05
339.579	56.83
339.792	-2.56
340.004	116.22
340.217	30.21
340.429	124.41
340.641	-47.62
340.854	-25.09
341.066	-53.76
341.278	73.21
341.491	212.48
341.703	67.07
341.915	-10.75
342.128	128.51
342.34	36.35
342.552	-78.33
342.764	24.06
342.977	120.32
343.189	69.12
343.401	60.93
343.613	-27.14
343.826	38.4
344.038	71.17
344.25	50.69
344.462	-12.8
344.674	-8.7
344.886	9.73
345.099	77.31
345.311	140.8
345.523	-0.51
345.735	-2.56
345.947	73.21
346.159	79.36
346.371	11.78
346.583	13.82
346.795	235
347.007	50.69
347.219	65.02
347.431	30.21
347.643	108.03
347.855	-49.66
348.067	101.89
348.279	-39.42
348.491	65.02
348.703	97.79
348.915	17.92
349.127	5.63
349.339	50.69
349.551	-33.28
349.763	87.55
349.975	77.31
350.187	85.5
350.399	159.23
350.61	124.41
350.822	26.11
351.034	30.21
351.246	81.41
351.458	91.65
351.669	93.69
351.881	148.99
352.093	105.98
352.305	91.65
352.517	83.45
352.728	177.66
352.94	-39.42
353.152	13.82
353.363	-55.81
353.575	77.31
353.787	108.03
353.999	81.41
354.21	126.46
354.422	-16.9
354.633	50.69
354.845	19.97
355.057	71.17
355.268	65.02
355.48	112.13
355.692	-88.57
355.903	36.35
356.115	-37.38
356.326	-107.01
356.538	198.14
356.749	75.26
356.961	187.9
357.172	62.98
357.384	-37.38
357.595	292.35
357.807	-0.51
358.018	-16.9
358.23	48.64
358.441	200.19
358.653	56.83
358.864	9.73
359.075	-14.85
359.287	91.65
359.498	128.51
359.709	95.74
359.921	-0.51
360.132	93.69
360.344	-43.52
360.555	-33.28
360.766	1.54
360.977	28.16
361.189	99.84
361.4	48.64
361.611	112.13
361.823	136.7
362.034	52.74
362.245	-141.82
362.456	32.26
362.667	48.64
362.879	-2.56
363.09	77.31
363.301	97.79
363.512	26.11
363.723	69.12
363.935	50.69
364.146	128.51
364.357	-4.61
364.568	13.82
364.779	-61.95
364.99	118.27
365.201	-23.04
365.412	75.26
365.623	-100.86
365.834	65.02
366.045	46.59
366.256	105.98
366.467	69.12
366.678	120.32
366.889	48.64
367.1	-10.75
367.311	99.84
367.522	-25.09
367.733	118.27
367.944	-16.9
368.155	62.98
368.366	67.07
368.577	130.56
368.788	126.46
368.999	77.31
369.209	32.26
369.42	218.62
369.631	267.77
369.842	22.02
370.053	42.5
370.264	116.22
370.474	54.78
370.685	67.07
370.896	-43.52
371.107	122.37
371.317	32.26
371.528	17.92
371.739	130.56
371.95	28.16
372.16	42.5
372.371	13.82
372.582	19.97
372.792	93.69
373.003	46.59
373.214	75.26
373.424	95.74
373.635	-12.8
373.846	214.52
374.056	62.98
374.267	103.93
374.477	99.84
374.688	-25.09
374.898	5.63
375.109	46.59
375.319	105.98
375.53	144.89
375.74	103.93
375.951	-25.09
376.161	5.63
376.372	177.66
376.582	5.63
376.793	58.88
377.003	40.45
377.214	-76.29
377.424	95.74
377.635	1.54
377.845	32.26
378.055	159.23
378.266	-66.05
378.476	40.45
378.686	15.87
378.897	93.69
379.107	167.42
379.317	95.74
379.528	-0.51
379.738	144.89
379.948	-14.85
380.158	58.88
380.369	-72.19
380.579	69.12
380.789	52.74
380.999	120.32
381.21	116.22
381.42	194.05
381.63	34.3
381.84	52.74
382.05	54.78
382.261	75.26
382.471	128.51
382.681	19.97
382.891	130.56
383.101	85.5
383.311	-10.75
383.521	-18.94
383.731	136.7
383.941	58.88
384.151	110.08
384.361	17.92
384.571	79.36
384.781	77.31
384.991	241.15
385.201	192
385.411	28.16
385.621	146.94
385.831	112.13
386.041	65.02
386.251	11.78
386.461	138.75
386.671	26.11
386.881	67.07
387.091	-8.7
387.301	120.32
387.511	26.11
387.72	26.11
387.93	38.4
388.14	-23.04
388.35	65.02
388.56	19.97
388.769	52.74
388.979	-16.9
389.189	-76.29
389.399	71.17
389.609	52.74
389.818	140.8
390.028	65.02
390.238	48.64
390.447	3.58
390.657	36.35
390.867	7.68
391.076	28.16
391.286	32.26
391.496	-0.51
391.705	42.5
391.915	114.17
392.125	95.74
392.334	-27.14
392.544	124.41
392.753	7.68
392.963	5.63
393.172	42.5
393.382	30.21
393.591	228.86
393.801	-12.8
394.01	179.71
394.22	91.65
394.429	32.26
394.639	5.63
394.848	58.88
395.058	67.07
395.267	36.35
395.477	11.78
395.686	58.88
395.895	275.96
396.105	247.29
396.314	71.17
396.524	103.93
396.733	79.36
396.942	85.5
397.152	71.17
397.361	105.98
397.57	50.69
397.78	79.36
397.989	71.17
398.198	208.38
398.407	95.74
398.617	-2.56
398.826	69.12
399.035	7.68
399.244	26.11
399.453	110.08
399.663	32.26
399.872	95.74
400.081	-64
400.29	126.46
400.499	-25.09
400.708	56.83
400.917	11.78
401.127	42.5
401.336	13.82
401.545	110.08
401.754	89.6
401.963	124.41
402.172	-10.75
402.381	-27.14
402.59	-29.18
402.799	65.02
403.008	46.59
403.217	42.5
403.426	50.69
403.635	-41.47
403.844	48.64
404.053	9.73
404.262	5.63
404.471	226.81
404.68	103.93
404.888	62.98
405.097	15.87
405.306	13.82
405.515	179.71
405.724	-14.85
405.933	83.45
406.142	60.93
406.35	122.37
406.559	22.02
406.768	56.83
406.977	153.09
407.185	46.59
407.394	32.26
407.603	-66.05
407.812	22.02
408.02	159.23
408.229	93.69
408.438	44.54
408.646	-16.9
408.855	-6.66
409.064	85.5
409.272	38.4
409.481	105.98
409.69	-23.04
409.898	44.54
410.107	91.65
410.315	132.61
410.524	26.11
410.733	38.4
410.941	-20.99
411.15	83.45
411.358	151.04
411.567	155.13
411.775	62.98
411.984	73.21
412.192	54.78
412.401	77.31
412.609	247.29
412.818	85.5
413.026	148.99
413.234	71.17
413.443	132.61
413.651	24.06
413.86	34.3
414.068	93.69
414.276	200.19
414.485	-4.61
414.693	142.85
414.901	171.52
415.11	26.11
415.318	56.83
415.526	30.21
415.734	126.46
415.943	42.5
416.151	151.04
416.359	40.45
416.567	89.6
416.776	34.3
416.984	138.75
417.192	159.23
417.4	50.69
417.608	13.82
417.817	-80.38
418.025	40.45
418.233	136.7
418.441	-10.75
418.649	-39.42
418.857	19.97
419.065	67.07
419.273	26.11
419.481	22.02
419.689	3.58
419.897	17.92
420.105	-25.09
420.313	77.31
420.521	114.17
420.729	157.18
420.937	-33.28
421.145	-25.09
421.353	128.51
421.561	159.23
421.769	81.41
421.977	-10.75
422.185	122.37
422.393	11.78
422.601	65.02
422.809	110.08
423.017	99.84
423.224	105.98
423.432	187.9
423.64	77.31
423.848	146.94
424.056	7.68
424.263	142.85
424.471	99.84
424.679	144.89
424.887	-4.61
425.094	140.8
425.302	62.98
425.51	136.7
425.718	58.88
425.925	67.07
426.133	97.79
426.341	235
426.548	71.17
426.756	32.26
426.964	189.95
427.171	-8.7
427.379	97.79
427.586	91.65
427.794	165.37
428.001	93.69
428.209	99.84
428.417	171.52
428.624	153.09
428.832	134.65
429.039	132.61
429.247	167.42
429.454	185.85
429.662	134.65
429.869	165.37
430.076	155.13
430.284	134.65
430.491	230.91
430.699	194.05
430.906	325.12
431.114	208.38
431.321	108.03
431.528	144.89
431.736	189.95
431.943	194.05
432.15	218.62
432.358	235
432.565	280.06
432.772	-6.66
432.979	212.48
433.187	177.66
433.394	314.88
433.601	163.33
433.808	214.52
434.016	241.15
434.223	247.29
434.43	245.24
434.637	237.05
434.844	298.49
435.052	290.3
435.259	251.39
435.466	359.93
435.673	275.96
435.88	239.1
436.087	368.12
436.294	374.27
436.501	359.93
436.708	318.97
436.915	388.6
437.122	439.8
437.329	329.21
437.537	445.95
437.743	366.07
437.95	505.34
438.157	415.23
438.364	380.41
438.571	361.98
438.778	450.04
438.985	540.15
439.192	513.53
439.399	484.86
439.606	566.78
439.813	589.3
440.02	726.52
440.227	775.67
440.433	706.04
440.64	589.3
440.847	613.88
441.054	650.74
441.261	814.58
441.467	767.48
441.674	673.27
441.881	933.36
442.088	738.8
442.294	867.83
442.501	894.45
442.708	847.35
442.914	890.35
443.121	925.17
443.328	996.85
443.534	1095.15
443.741	1023.47
443.948	1033.71
444.154	1160.69
444.361	1365.48
444.568	1191.41
444.774	1308.14
444.981	1215.98
445.187	1463.79
445.394	1361.39
445.6	1476.07
445.807	1568.23
446.013	1463.79
446.22	1486.31
446.426	1756.65
446.633	1822.18
446.839	1893.86
447.046	1588.71
447.252	1973.73
447.459	1988.07
447.665	1951.2
447.871	2127.33
448.078	2270.69
448.284	2252.25
448.491	2328.03
448.697	2424.28
448.903	2547.16
449.11	2455
449.316	2495.96
449.522	2782.68
449.728	2960.85
449.935	2973.14
450.141	3020.24
450.347	3282.38
450.553	3028.43
450.76	3241.42
450.966	3435.98
451.172	3497.42
451.378	3773.89
451.584	3685.83
451.791	4031.94
451.997	4115.91
452.203	4376
452.409	4394.43
452.615	4670.9
452.821	4488.64
453.027	4476.35
453.233	5094.83
453.44	4867.51
453.646	5186.99
453.852	5391.79
454.058	5709.22
454.264	5932.45
454.47	6256.03
454.676	6301.09
454.882	6665.63
455.088	6593.95
455.294	6962.58
455.5	7361.94
455.705	7708.04
455.911	7536.01
456.117	8103.3
456.323	8318.34
456.529	8228.23
456.735	8992.12
456.941	9028.98
457.147	9350.51
457.352	9573.74
457.558	10241.38
457.764	10863.96
457.97	10882.39
458.176	11552.08
458.381	11951.43
458.587	12086.6
458.793	12682.56
458.999	12657.98
459.204	14540.07
459.41	14927.13
459.616	14589.22
459.821	15287.57
460.027	16192.78
460.233	16944.38
460.438	16870.65
460.644	17976.56
460.85	18244.84
461.055	18894.05
461.261	19594.45
461.466	19393.75
461.672	19944.66
461.878	22027.44
462.083	21748.92
462.289	22152.37
462.494	23076
462.7	23037.09
462.905	23612.57
463.111	25449.6
463.316	27034.72
463.522	27094.11
463.727	28181.59
463.932	29017.16
464.138	30268.47
464.343	31495.2
464.549	31491.1
464.754	33819.64
464.959	34599.92
465.165	34989.03
465.37	35089.38
465.575	35085.29
465.781	37329.86
465.986	38353.85
466.191	37800.9
466.397	37931.97
466.602	37034.95
466.807	39390.12
467.012	40205.21
467.218	40606.61
467.423	40549.27
467.628	42048.38
467.833	44061.54
468.038	43273.07
468.244	42294.14
468.449	44421.98
468.654	43557.74
