Data from USB4F104151__159__11-04-40-436.txt Node

Date: Wed Feb 26 11:04:40 EST 2025
User: louis
Spectrometer: USB4F10415
Trigger mode: 4
Integration Time (sec): 1.000000E-1
Scans to average: 1
Electric dark correction enabled: true
Nonlinearity correction enabled: false
Boxcar width: 0
XAxis mode: Wavelengths
Number of Pixels in Spectrum: 3648
>>>>>Begin Spectral Data<<<<<
178.204	-326.14
178.424	-326.14
178.644	-326.14
178.864	-424.44
179.084	-363
179.304	1.54
179.524	-20.99
179.744	-33.28
179.964	44.54
180.184	13.82
180.404	-39.42
180.624	-18.94
180.844	3.58
181.064	38.4
181.283	44.54
181.503	-51.71
181.723	17.92
181.943	-123.39
182.163	230.91
182.383	-41.47
182.602	65.02
182.822	91.65
183.042	24.06
183.262	46.59
183.482	28.16
183.701	3.58
183.921	34.3
184.141	-86.53
184.361	87.55
184.58	52.74
184.8	67.07
185.02	56.83
185.239	30.21
185.459	40.45
185.679	110.08
185.898	-39.42
186.118	13.82
186.338	34.3
186.557	120.32
186.777	-35.33
186.997	-14.85
187.216	40.45
187.436	241.15
187.655	116.22
187.875	93.69
188.095	46.59
188.314	126.46
188.534	140.8
188.753	11.78
188.973	235
189.192	232.96
189.412	11.78
189.631	-53.76
189.851	140.8
190.07	189.95
190.29	-18.94
190.509	52.74
190.729	60.93
190.948	163.33
191.168	241.15
191.387	73.21
191.607	38.4
191.826	48.64
192.045	75.26
192.265	38.4
192.484	101.89
192.704	-8.7
192.923	-66.05
193.142	183.81
193.362	134.65
193.581	134.65
193.8	140.8
194.02	93.69
194.239	3.58
194.458	169.47
194.678	93.69
194.897	-23.04
195.116	-18.94
195.335	71.17
195.555	48.64
195.774	24.06
195.993	157.18
196.212	50.69
196.432	-31.23
196.651	-12.8
196.87	36.35
197.089	327.16
197.308	30.21
197.528	62.98
197.747	-86.53
197.966	30.21
198.185	105.98
198.404	-47.62
198.623	81.41
198.842	134.65
199.062	148.99
199.281	138.75
199.5	46.59
199.719	81.41
199.938	87.55
200.157	75.26
200.376	91.65
200.595	48.64
200.814	71.17
201.033	-39.42
201.252	120.32
201.471	58.88
201.69	112.13
201.909	83.45
202.128	165.37
202.347	114.17
202.566	-12.8
202.785	-49.66
203.004	-18.94
203.223	288.25
203.442	110.08
203.661	-64
203.879	69.12
204.098	89.6
204.317	1.54
204.536	95.74
204.755	105.98
204.974	161.28
205.193	17.92
205.411	132.61
205.63	83.45
205.849	87.55
206.068	50.69
206.287	26.11
206.505	83.45
206.724	-14.85
206.943	91.65
207.162	11.78
207.381	171.52
207.599	46.59
207.818	56.83
208.037	-25.09
208.255	62.98
208.474	38.4
208.693	114.17
208.911	50.69
209.13	144.89
209.349	126.46
209.567	79.36
209.786	85.5
210.005	118.27
210.223	122.37
210.442	-76.29
210.661	-6.66
210.879	75.26
211.098	62.98
211.316	34.3
211.535	24.06
211.753	120.32
211.972	1.54
212.191	38.4
212.409	60.93
212.628	146.94
212.846	3.58
213.065	26.11
213.283	185.85
213.502	24.06
213.72	42.5
213.938	-6.66
214.157	32.26
214.375	97.79
214.594	9.73
214.812	85.5
215.031	67.07
215.249	40.45
215.467	58.88
215.686	48.64
215.904	73.21
216.122	7.68
216.341	95.74
216.559	122.37
216.778	56.83
216.996	97.79
217.214	62.98
217.432	-23.04
217.651	-80.38
217.869	13.82
218.087	83.45
218.306	58.88
218.524	5.63
218.742	22.02
218.96	122.37
219.179	38.4
219.397	73.21
219.615	206.33
219.833	165.37
220.051	19.97
220.27	128.51
220.488	167.42
220.706	50.69
220.924	26.11
221.142	-47.62
221.36	52.74
221.578	81.41
221.796	91.65
222.015	5.63
222.233	38.4
222.451	136.7
222.669	-31.23
222.887	13.82
223.105	-25.09
223.323	30.21
223.541	-61.95
223.759	79.36
223.977	36.35
224.195	142.85
224.413	114.17
224.631	132.61
224.849	75.26
225.067	288.25
225.285	32.26
225.503	-6.66
225.721	-82.43
225.939	32.26
226.157	54.78
226.375	120.32
226.592	19.97
226.81	40.45
227.028	112.13
227.246	114.17
227.464	91.65
227.682	146.94
227.9	34.3
228.117	60.93
228.335	93.69
228.553	75.26
228.771	-25.09
228.989	19.97
229.206	140.8
229.424	81.41
229.642	-47.62
229.86	-12.8
230.077	169.47
230.295	122.37
230.513	144.89
230.731	140.8
230.948	187.9
231.166	202.24
231.384	69.12
231.601	99.84
231.819	245.24
232.037	50.69
232.254	-57.86
232.472	36.35
232.689	-2.56
232.907	30.21
233.125	32.26
233.342	-33.28
233.56	52.74
233.777	26.11
233.995	34.3
234.213	134.65
234.43	56.83
234.648	28.16
234.865	32.26
235.083	52.74
235.3	48.64
235.518	60.93
235.735	181.76
235.953	60.93
236.17	52.74
236.388	40.45
236.605	91.65
236.822	38.4
237.04	71.17
237.257	50.69
237.475	-43.52
237.692	110.08
237.909	136.7
238.127	65.02
238.344	13.82
238.562	75.26
238.779	-33.28
238.996	-0.51
239.214	24.06
239.431	114.17
239.648	7.68
239.865	73.21
240.083	73.21
240.3	17.92
240.517	71.17
240.735	5.63
240.952	79.36
241.169	40.45
241.386	103.93
241.603	30.21
241.821	-47.62
242.038	101.89
242.255	116.22
242.472	-104.96
242.689	24.06
242.907	48.64
243.124	28.16
243.341	7.68
243.558	15.87
243.775	-37.38
243.992	-57.86
244.209	132.61
244.426	165.37
244.643	22.02
244.86	30.21
245.078	101.89
245.295	26.11
245.512	-0.51
245.729	-33.28
245.946	110.08
246.163	50.69
246.38	83.45
246.597	97.79
246.814	48.64
247.031	22.02
247.248	95.74
247.464	54.78
247.681	32.26
247.898	30.21
248.115	62.98
248.332	9.73
248.549	120.32
248.766	108.03
248.983	103.93
249.2	44.54
249.417	144.89
249.633	15.87
249.85	17.92
250.067	42.5
250.284	32.26
250.501	114.17
250.717	62.98
250.934	-98.81
251.151	67.07
251.368	19.97
251.585	83.45
251.801	91.65
252.018	-16.9
252.235	148.99
252.451	3.58
252.668	-12.8
252.885	171.52
253.102	71.17
253.318	22.02
253.535	-39.42
253.752	38.4
253.968	-10.75
254.185	-29.18
254.401	60.93
254.618	56.83
254.835	-20.99
255.051	183.81
255.268	132.61
255.484	140.8
255.701	30.21
255.917	50.69
256.134	-31.23
256.351	46.59
256.567	-29.18
256.784	69.12
257	-45.57
257.217	132.61
257.433	79.36
257.65	-4.61
257.866	32.26
258.082	-123.39
258.299	15.87
258.515	110.08
258.732	-0.51
258.948	1.54
259.165	67.07
259.381	-12.8
259.597	93.69
259.814	-20.99
260.03	38.4
260.246	24.06
260.463	187.9
260.679	138.75
260.895	79.36
261.112	95.74
261.328	71.17
261.544	-92.67
261.761	210.43
261.977	-14.85
262.193	30.21
262.409	79.36
262.626	19.97
262.842	60.93
263.058	67.07
263.274	130.56
263.49	65.02
263.707	22.02
263.923	71.17
264.139	-76.29
264.355	30.21
264.571	136.7
264.787	32.26
265.004	198.14
265.22	-10.75
265.436	-18.94
265.652	83.45
265.868	-8.7
266.084	-12.8
266.3	32.26
266.516	-12.8
266.732	36.35
266.948	-4.61
267.164	69.12
267.38	81.41
267.596	71.17
267.812	187.9
268.028	-10.75
268.244	-14.85
268.46	32.26
268.676	97.79
268.892	69.12
269.108	-12.8
269.324	-107.01
269.54	-92.67
269.756	126.46
269.972	-4.61
270.188	36.35
270.403	-35.33
270.619	65.02
270.835	97.79
271.051	56.83
271.267	-33.28
271.483	-29.18
271.698	163.33
271.914	93.69
272.13	38.4
272.346	-41.47
272.562	36.35
272.777	161.28
272.993	38.4
273.209	-4.61
273.425	105.98
273.64	-4.61
273.856	85.5
274.072	-76.29
274.287	34.3
274.503	85.5
274.719	124.41
274.934	42.5
275.15	-64
275.366	99.84
275.581	-35.33
275.797	118.27
276.012	17.92
276.228	-31.23
276.444	-16.9
276.659	85.5
276.875	42.5
277.09	58.88
277.306	24.06
277.521	81.41
277.737	122.37
277.952	77.31
278.168	17.92
278.383	89.6
278.599	136.7
278.814	103.93
279.03	89.6
279.245	89.6
279.461	87.55
279.676	146.94
279.892	-31.23
280.107	-10.75
280.322	28.16
280.538	134.65
280.753	1.54
280.969	62.98
281.184	83.45
281.399	114.17
281.615	52.74
281.83	38.4
282.045	-70.14
282.26	50.69
282.476	-35.33
282.691	101.89
282.906	105.98
283.122	62.98
283.337	-29.18
283.552	3.58
283.767	9.73
283.983	11.78
284.198	32.26
284.413	101.89
284.628	-37.38
284.843	38.4
285.058	151.04
285.274	38.4
285.489	34.3
285.704	36.35
285.919	-74.24
286.134	34.3
286.349	54.78
286.564	-29.18
286.779	130.56
286.995	9.73
287.21	-33.28
287.425	95.74
287.64	28.16
287.855	46.59
288.07	-131.58
288.285	144.89
288.5	224.76
288.715	118.27
288.93	24.06
289.145	46.59
289.36	81.41
289.575	75.26
289.79	161.28
290.004	7.68
290.219	132.61
290.434	-2.56
290.649	-29.18
290.864	-0.51
291.079	-27.14
291.294	13.82
291.509	110.08
291.724	5.63
291.938	-4.61
292.153	79.36
292.368	69.12
292.583	60.93
292.798	159.23
293.012	44.54
293.227	48.64
293.442	24.06
293.657	157.18
293.871	169.47
294.086	5.63
294.301	181.76
294.516	71.17
294.73	5.63
294.945	-16.9
295.16	-10.75
295.374	263.68
295.589	101.89
295.804	38.4
296.018	28.16
296.233	122.37
296.447	44.54
296.662	36.35
296.877	105.98
297.091	93.69
297.306	108.03
297.52	54.78
297.735	155.13
297.949	58.88
298.164	44.54
298.378	56.83
298.593	-55.81
298.807	-20.99
299.022	52.74
299.236	103.93
299.451	34.3
299.665	-29.18
299.88	5.63
300.094	19.97
300.309	67.07
300.523	34.3
300.737	7.68
300.952	65.02
301.166	73.21
301.381	-88.57
301.595	3.58
301.809	120.32
302.024	85.5
302.238	-78.33
302.452	110.08
302.667	87.55
302.881	194.05
303.095	134.65
303.309	54.78
303.524	-10.75
303.738	9.73
303.952	24.06
304.166	62.98
304.381	-86.53
304.595	157.18
304.809	-23.04
305.023	-55.81
305.237	5.63
305.452	50.69
305.666	130.56
305.88	83.45
306.094	83.45
306.308	65.02
306.522	108.03
306.736	110.08
306.95	34.3
307.164	-14.85
307.379	17.92
307.593	171.52
307.807	108.03
308.021	77.31
308.235	52.74
308.449	-61.95
308.663	54.78
308.877	235
309.091	-16.9
309.305	85.5
309.519	-100.86
309.733	153.09
309.947	-16.9
310.161	120.32
310.374	60.93
310.588	138.75
310.802	22.02
311.016	-27.14
311.23	73.21
311.444	-45.57
311.658	56.83
311.872	108.03
312.085	110.08
312.299	155.13
312.513	146.94
312.727	79.36
312.941	-51.71
313.154	122.37
313.368	110.08
313.582	67.07
313.796	99.84
314.009	-20.99
314.223	155.13
314.437	97.79
314.651	124.41
314.864	-4.61
315.078	-31.23
315.292	-59.9
315.505	-20.99
315.719	99.84
315.933	87.55
316.146	-4.61
316.36	-25.09
316.573	142.85
316.787	67.07
317.001	71.17
317.214	-12.8
317.428	65.02
317.641	-45.57
317.855	105.98
318.068	91.65
318.282	65.02
318.495	208.38
318.709	118.27
318.922	-68.09
319.136	200.19
319.349	71.17
319.563	11.78
319.776	65.02
319.99	-43.52
320.203	77.31
320.417	71.17
320.63	134.65
320.843	218.62
321.057	69.12
321.27	69.12
321.483	11.78
321.697	65.02
321.91	22.02
322.124	67.07
322.337	-25.09
322.55	50.69
322.763	58.88
322.977	95.74
323.19	-6.66
323.403	77.31
323.617	34.3
323.83	65.02
324.043	46.59
324.256	38.4
324.469	-39.42
324.683	144.89
324.896	65.02
325.109	19.97
325.322	-33.28
325.535	132.61
325.748	114.17
325.962	52.74
326.175	73.21
326.388	112.13
326.601	140.8
326.814	79.36
327.027	46.59
327.24	161.28
327.453	-37.38
327.666	114.17
327.879	120.32
328.092	79.36
328.305	126.46
328.518	9.73
328.731	89.6
328.944	69.12
329.157	62.98
329.37	-20.99
329.583	151.04
329.796	247.29
330.009	-43.52
330.222	128.51
330.435	67.07
330.648	36.35
330.861	83.45
331.073	-10.75
331.286	95.74
331.499	71.17
331.712	-12.8
331.925	71.17
332.138	85.5
332.35	71.17
332.563	-37.38
332.776	202.24
332.989	9.73
333.202	24.06
333.414	36.35
333.627	-16.9
333.84	5.63
334.053	73.21
334.265	-8.7
334.478	34.3
334.691	-6.66
334.903	22.02
335.116	-41.47
335.329	30.21
335.541	91.65
335.754	169.47
335.966	3.58
336.179	5.63
336.392	-29.18
336.604	-8.7
336.817	87.55
337.029	81.41
337.242	15.87
337.454	157.18
337.667	54.78
337.88	171.52
338.092	122.37
338.305	73.21
338.517	17.92
338.729	38.4
338.942	138.75
339.154	17.92
339.367	-51.71
339.579	132.61
339.792	-0.51
340.004	99.84
340.217	62.98
340.429	67.07
340.641	-4.61
340.854	-43.52
341.066	38.4
341.278	148.99
341.491	224.76
341.703	77.31
341.915	32.26
342.128	159.23
342.34	85.5
342.552	-49.66
342.764	140.8
342.977	73.21
343.189	60.93
343.401	13.82
343.613	-23.04
343.826	120.32
344.038	-2.56
344.25	97.79
344.462	-43.52
344.674	46.59
344.886	28.16
345.099	40.45
345.311	17.92
345.523	11.78
345.735	-68.09
345.947	48.64
346.159	42.5
346.371	138.75
346.583	130.56
346.795	171.52
347.007	-0.51
347.219	99.84
347.431	-6.66
347.643	73.21
347.855	-2.56
348.067	198.14
348.279	-51.71
348.491	58.88
348.703	167.42
348.915	93.69
349.127	-64
349.339	13.82
349.551	-2.56
349.763	42.5
349.975	62.98
350.187	118.27
350.399	140.8
350.61	120.32
350.822	5.63
351.034	101.89
351.246	132.61
351.458	118.27
351.669	105.98
351.881	67.07
352.093	159.23
352.305	95.74
352.517	42.5
352.728	136.7
352.94	69.12
353.152	60.93
353.363	-10.75
353.575	56.83
353.787	239.1
353.999	124.41
354.21	273.92
354.422	-37.38
354.633	56.83
354.845	97.79
355.057	-2.56
355.268	-12.8
355.48	89.6
355.692	-53.76
355.903	93.69
356.115	-20.99
356.326	-123.39
356.538	192
356.749	3.58
356.961	157.18
357.172	46.59
357.384	-49.66
357.595	282.11
357.807	91.65
358.018	7.68
358.23	-10.75
358.441	200.19
358.653	28.16
358.864	67.07
359.075	-61.95
359.287	54.78
359.498	99.84
359.709	146.94
359.921	60.93
360.132	56.83
360.344	71.17
360.555	-10.75
360.766	79.36
360.977	28.16
361.189	116.22
361.4	56.83
361.611	77.31
361.823	110.08
362.034	54.78
362.245	-82.43
362.456	30.21
362.667	153.09
362.879	-6.66
363.09	83.45
363.301	46.59
363.512	-12.8
363.723	-4.61
363.935	30.21
364.146	163.33
364.357	22.02
364.568	60.93
364.779	-8.7
364.99	140.8
365.201	3.58
365.412	105.98
365.623	13.82
365.834	132.61
366.045	62.98
366.256	112.13
366.467	85.5
366.678	50.69
366.889	89.6
367.1	60.93
367.311	99.84
367.522	1.54
367.733	126.46
367.944	175.61
368.155	65.02
368.366	46.59
368.577	9.73
368.788	71.17
368.999	-20.99
369.209	85.5
369.42	241.15
369.631	200.19
369.842	128.51
370.053	-33.28
370.264	134.65
370.474	-18.94
370.685	110.08
370.896	85.5
371.107	112.13
371.317	38.4
371.528	38.4
371.739	91.65
371.95	58.88
372.16	81.41
372.371	-37.38
372.582	62.98
372.792	122.37
373.003	67.07
373.214	-20.99
373.424	136.7
373.635	34.3
373.846	148.99
374.056	67.07
374.267	46.59
374.477	54.78
374.688	-8.7
374.898	101.89
375.109	62.98
375.319	46.59
375.53	146.94
375.74	112.13
375.951	38.4
376.161	36.35
376.372	42.5
376.582	1.54
376.793	15.87
377.003	93.69
377.214	69.12
377.424	79.36
377.635	-4.61
377.845	40.45
378.055	77.31
378.266	-20.99
378.476	28.16
378.686	91.65
378.897	91.65
379.107	132.61
379.317	69.12
379.528	-23.04
379.738	116.22
379.948	-43.52
380.158	62.98
380.369	38.4
380.579	22.02
380.789	26.11
380.999	103.93
381.21	183.81
381.42	208.38
381.63	97.79
381.84	112.13
382.05	69.12
382.261	60.93
382.471	71.17
382.681	15.87
382.891	177.66
383.101	42.5
383.311	-31.23
383.521	-39.42
383.731	79.36
383.941	93.69
384.151	95.74
384.361	77.31
384.571	81.41
384.781	30.21
384.991	210.43
385.201	200.19
385.411	81.41
385.621	56.83
385.831	36.35
386.041	85.5
386.251	62.98
386.461	159.23
386.671	11.78
386.881	42.5
387.091	5.63
387.301	181.76
387.511	142.85
387.72	46.59
387.93	110.08
388.14	17.92
388.35	91.65
388.56	42.5
388.769	128.51
388.979	9.73
389.189	46.59
389.399	30.21
389.609	138.75
389.818	89.6
390.028	105.98
390.238	87.55
390.447	-35.33
390.657	26.11
390.867	34.3
391.076	5.63
391.286	60.93
391.496	69.12
391.705	73.21
391.915	220.67
392.125	151.04
392.334	73.21
392.544	134.65
392.753	11.78
392.963	9.73
393.172	1.54
393.382	69.12
393.591	103.93
393.801	140.8
394.01	189.95
394.22	52.74
394.429	87.55
394.639	42.5
394.848	42.5
395.058	-27.14
395.267	-8.7
395.477	124.41
395.686	136.7
395.895	194.05
396.105	140.8
396.314	95.74
396.524	9.73
396.733	52.74
396.942	122.37
397.152	85.5
397.361	183.81
397.57	60.93
397.78	22.02
397.989	40.45
398.198	175.61
398.407	52.74
398.617	77.31
398.826	22.02
399.035	11.78
399.244	103.93
399.453	81.41
399.663	11.78
399.872	87.55
400.081	7.68
400.29	200.19
400.499	32.26
400.708	134.65
400.917	81.41
401.127	124.41
401.336	-18.94
401.545	124.41
401.754	87.55
401.963	120.32
402.172	15.87
402.381	-20.99
402.59	-0.51
402.799	15.87
403.008	91.65
403.217	42.5
403.426	155.13
403.635	-29.18
403.844	69.12
404.053	81.41
404.262	-31.23
404.471	167.42
404.68	136.7
404.888	7.68
405.097	38.4
405.306	167.42
405.515	62.98
405.724	52.74
405.933	155.13
406.142	17.92
406.35	194.05
406.559	17.92
406.768	116.22
406.977	114.17
407.185	105.98
407.394	77.31
407.603	-8.7
407.812	42.5
408.02	140.8
408.229	5.63
408.438	58.88
408.646	-6.66
408.855	87.55
409.064	40.45
409.272	87.55
409.481	87.55
409.69	-39.42
409.898	-66.05
410.107	140.8
410.315	69.12
410.524	58.88
410.733	62.98
410.941	95.74
411.15	77.31
411.358	97.79
411.567	116.22
411.775	85.5
411.984	120.32
412.192	167.42
412.401	71.17
412.609	144.89
412.818	169.47
413.026	91.65
413.234	85.5
413.443	-4.61
413.651	-2.56
413.86	30.21
414.068	77.31
414.276	159.23
414.485	-43.52
414.693	181.76
414.901	175.61
415.11	87.55
415.318	13.82
415.526	22.02
415.734	75.26
415.943	116.22
416.151	110.08
416.359	28.16
416.567	28.16
416.776	65.02
416.984	62.98
417.192	230.91
417.4	71.17
417.608	50.69
417.817	3.58
418.025	138.75
418.233	159.23
418.441	-59.9
418.649	30.21
418.857	130.56
419.065	130.56
419.273	44.54
419.481	60.93
419.689	38.4
419.897	52.74
420.105	17.92
420.313	38.4
420.521	118.27
420.729	157.18
420.937	28.16
421.145	11.78
421.353	138.75
421.561	120.32
421.769	62.98
421.977	44.54
422.185	71.17
422.393	69.12
422.601	175.61
422.809	22.02
423.017	60.93
423.224	22.02
423.432	167.42
423.64	9.73
423.848	126.46
424.056	19.97
424.263	148.99
424.471	-20.99
424.679	124.41
424.887	-10.75
425.094	169.47
425.302	85.5
425.51	112.13
425.718	69.12
425.925	62.98
426.133	44.54
426.341	194.05
426.548	44.54
426.756	54.78
426.964	192
427.171	77.31
427.379	91.65
427.586	50.69
427.794	97.79
428.001	200.19
428.209	101.89
428.417	179.71
428.624	81.41
428.832	194.05
429.039	17.92
429.247	116.22
429.454	67.07
429.662	167.42
429.869	144.89
430.076	62.98
430.284	144.89
430.491	171.52
430.699	103.93
430.906	241.15
431.114	185.85
431.321	126.46
431.528	134.65
431.736	87.55
431.943	136.7
432.15	192
432.358	255.48
432.565	255.48
432.772	7.68
432.979	161.28
433.187	200.19
433.394	224.76
433.601	138.75
433.808	196.09
434.016	304.64
434.223	153.09
434.43	218.62
434.637	210.43
434.844	300.54
435.052	187.9
435.259	269.82
435.466	286.2
435.673	282.11
435.88	263.68
436.087	288.25
436.294	396.79
436.501	321.02
436.708	275.96
436.915	282.11
437.122	374.27
437.329	327.16
437.537	349.69
437.743	357.88
437.95	460.28
438.157	325.12
438.364	419.32
438.571	409.08
438.778	355.83
438.985	361.98
439.192	466.42
439.399	445.95
439.606	458.23
439.813	486.9
440.02	626.17
440.227	693.75
440.433	574.97
440.64	507.38
440.847	445.95
441.054	601.59
441.261	722.42
441.467	513.53
441.674	503.29
441.881	663.03
442.088	671.22
442.294	706.04
442.501	724.47
442.708	806.39
442.914	714.23
443.121	810.48
443.328	771.57
443.534	959.99
443.741	853.49
443.948	808.44
444.154	1013.23
444.361	1113.58
444.568	1046
444.774	988.66
444.981	939.51
445.187	1134.06
445.394	1250.8
445.6	1132.01
445.807	1392.11
446.013	1185.26
446.22	1154.54
446.426	1414.63
446.633	1424.87
446.839	1562.09
447.046	1332.72
447.252	1646.05
447.459	1562.09
447.665	1605.1
447.871	1652.2
448.078	1936.87
448.284	1908.19
448.491	1981.92
448.697	2065.89
448.903	2076.13
449.11	2158.05
449.316	2080.22
449.522	2375.13
449.728	2469.34
449.935	2426.33
450.141	2289.12
450.347	2649.56
450.553	2612.7
450.76	2655.7
450.966	2979.28
451.172	2887.12
451.378	3053.01
451.584	3065.3
451.791	3409.36
451.997	3411.4
452.203	3476.94
452.409	3599.82
452.615	3855.81
452.821	3716.55
453.027	3855.81
453.233	4343.23
453.44	4136.38
453.646	4326.85
453.852	4439.48
454.058	4591.03
454.264	4908.47
454.47	5232.05
454.676	5039.54
454.882	5653.93
455.088	5318.06
455.294	5729.7
455.5	6024.61
455.705	6395.29
455.911	6466.97
456.117	6620.57
456.323	6768.02
456.529	6892.95
456.735	7482.77
456.941	7644.56
457.147	7998.85
457.352	8043.91
457.558	8430.98
457.764	8945.02
457.97	9045.37
458.176	9467.25
458.381	10059.11
458.587	10206.56
458.793	10691.93
458.999	10669.41
459.204	12170.57
459.41	12471.62
459.616	12344.64
459.821	13051.19
460.027	13628.72
460.233	14050.6
460.438	14167.34
460.644	14986.52
460.85	15271.19
461.055	15873.29
461.261	16428.29
461.466	16065.8
461.672	16729.34
461.878	18453.73
462.083	18218.22
462.289	18523.37
462.494	19383.51
462.7	19680.47
462.905	19862.74
463.111	21664.95
463.316	22449.32
463.522	22828.2
463.727	23643.29
463.932	24630.41
464.138	25504.89
464.343	26543.21
464.549	26559.59
464.754	28183.63
464.959	29238.34
465.165	29525.05
465.37	29443.13
465.575	29369.41
465.781	31536.16
465.986	32265.24
466.191	31788.06
466.397	32304.15
466.602	31726.62
466.807	33309.7
467.012	33852.41
467.218	34253.81
467.423	34513.91
467.628	34872.3
467.833	37112.78
468.038	36467.67
468.244	35978.2
468.449	37702.59
468.654	36824.01
468.859	36572.11
469.064	36408.28
