Data from USB4F104151__169__11-04-53-435.txt Node

Date: Wed Feb 26 11:04:53 EST 2025
User: louis
Spectrometer: USB4F10415
Trigger mode: 4
Integration Time (sec): 1.000000E-1
Scans to average: 1
Electric dark correction enabled: true
Nonlinearity correction enabled: false
Boxcar width: 0
XAxis mode: Wavelengths
Number of Pixels in Spectrum: 3648
>>>>>Begin Spectral Data<<<<<
178.204	-414.54
178.424	-414.54
178.644	-414.54
178.864	-346.96
179.084	-330.58
179.304	13.48
179.524	5.29
179.744	-11.09
179.964	38.06
180.184	7.34
180.404	25.77
180.624	-4.95
180.844	-19.29
181.064	-37.72
181.283	48.3
181.503	-86.87
181.723	21.67
181.943	-78.68
182.163	146.6
182.383	19.63
182.602	74.92
182.822	191.66
183.042	158.89
183.262	-52.05
183.482	93.35
183.701	62.63
183.921	89.26
184.141	-21.33
184.361	126.12
184.58	23.72
184.8	113.83
185.02	66.73
185.239	134.31
185.459	101.55
185.679	144.55
185.898	-9.05
186.118	79.02
186.338	111.78
186.557	124.07
186.777	-43.86
186.997	-0.85
187.216	62.63
187.436	175.27
187.655	31.91
187.875	150.7
188.095	9.39
188.314	160.94
188.534	160.94
188.753	13.48
188.973	187.56
189.192	160.94
189.412	156.84
189.631	76.97
189.851	126.12
190.07	165.03
190.29	-15.19
190.509	-45.91
190.729	72.87
190.948	119.98
191.168	298.15
191.387	72.87
191.607	-11.09
191.826	95.4
192.045	60.59
192.265	56.49
192.484	154.79
192.704	38.06
192.923	42.15
193.142	113.83
193.362	115.88
193.581	130.22
193.8	148.65
194.02	183.46
194.239	-27.48
194.458	109.74
194.678	29.87
194.897	19.63
195.116	74.92
195.335	83.11
195.555	29.87
195.774	-29.52
195.993	130.22
196.212	68.78
196.432	11.43
196.651	46.25
196.87	46.25
197.089	332.97
197.308	56.49
197.528	97.45
197.747	-21.33
197.966	17.58
198.185	191.66
198.404	33.96
198.623	138.41
198.842	177.32
199.062	56.49
199.281	130.22
199.5	46.25
199.719	89.26
199.938	31.91
200.157	68.78
200.376	105.64
200.595	126.12
200.814	81.07
201.033	1.19
201.252	230.57
201.471	87.21
201.69	54.44
201.909	66.73
202.128	156.84
202.347	101.55
202.566	83.11
202.785	7.34
203.004	-0.85
203.223	275.62
203.442	103.59
203.661	-54.1
203.879	56.49
204.098	195.75
204.317	-27.48
204.536	148.65
204.755	66.73
204.974	81.07
205.193	105.64
205.411	146.6
205.63	83.11
205.849	105.64
206.068	-9.05
206.287	5.29
206.505	109.74
206.724	17.58
206.943	-19.29
207.162	17.58
207.381	27.82
207.599	50.35
207.818	148.65
208.037	62.63
208.255	46.25
208.474	165.03
208.693	54.44
208.911	29.87
209.13	60.59
209.349	103.59
209.567	85.16
209.786	144.55
210.005	167.08
210.223	158.89
210.442	-50
210.661	48.3
210.879	81.07
211.098	146.6
211.316	119.98
211.535	119.98
211.753	21.67
211.972	124.07
212.191	-15.19
212.409	31.91
212.628	195.75
212.846	-2.9
213.065	83.11
213.283	138.41
213.502	62.63
213.72	17.58
213.938	62.63
214.157	27.82
214.375	48.3
214.594	54.44
214.812	111.78
215.031	42.15
215.249	72.87
215.467	99.5
215.686	68.78
215.904	58.54
216.122	91.31
216.341	122.02
216.559	87.21
216.778	181.42
216.996	228.52
217.214	46.25
217.432	60.59
217.651	-31.57
217.869	130.22
218.087	56.49
218.306	-33.62
218.524	40.11
218.742	66.73
218.96	148.65
219.179	-56.15
219.397	19.63
219.615	175.27
219.833	85.16
220.051	-21.33
220.27	115.88
220.488	93.35
220.706	154.79
220.924	54.44
221.142	33.96
221.36	56.49
221.578	171.18
221.796	-25.43
222.015	79.02
222.233	9.39
222.451	154.79
222.669	11.43
222.887	23.72
223.105	7.34
223.323	109.74
223.541	27.82
223.759	99.5
223.977	50.35
224.195	181.42
224.413	107.69
224.631	72.87
224.849	44.2
225.067	226.47
225.285	38.06
225.503	60.59
225.721	-90.96
225.939	-0.85
226.157	68.78
226.375	234.66
226.592	-86.87
226.81	11.43
227.028	113.83
227.246	142.5
227.464	132.26
227.682	158.89
227.9	48.3
228.117	95.4
228.335	60.59
228.553	36.01
228.771	11.43
228.989	-11.09
229.206	87.21
229.424	52.39
229.642	111.78
229.86	-0.85
230.077	162.98
230.295	72.87
230.513	87.21
230.731	76.97
230.948	222.38
231.166	177.32
231.384	48.3
231.601	48.3
231.819	283.81
232.037	5.29
232.254	-64.34
232.472	40.11
232.689	50.35
232.907	109.74
233.125	33.96
233.342	33.96
233.56	76.97
233.777	150.7
233.995	9.39
234.213	54.44
234.43	83.11
234.648	87.21
234.865	9.39
235.083	138.41
235.3	68.78
235.518	70.83
235.735	171.18
235.953	169.13
236.17	115.88
236.388	103.59
236.605	-33.62
236.822	99.5
237.04	195.75
237.257	54.44
237.475	48.3
237.692	64.68
237.909	85.16
238.127	56.49
238.344	130.22
238.562	46.25
238.779	54.44
238.996	-31.57
239.214	60.59
239.431	93.35
239.648	72.87
239.865	79.02
240.083	68.78
240.3	7.34
240.517	52.39
240.735	50.35
240.952	171.18
241.169	54.44
241.386	146.6
241.603	54.44
241.821	36.01
242.038	132.26
242.255	107.69
242.472	27.82
242.689	113.83
242.907	81.07
243.124	138.41
243.341	93.35
243.558	48.3
243.775	-70.48
243.992	3.24
244.209	160.94
244.426	210.09
244.643	-2.9
244.86	23.72
245.078	134.31
245.295	89.26
245.512	107.69
245.729	31.91
245.946	130.22
246.163	72.87
246.38	21.67
246.597	29.87
246.814	128.17
247.031	89.26
247.248	97.45
247.464	138.41
247.681	122.02
247.898	107.69
248.115	109.74
248.332	-41.81
248.549	144.55
248.766	208.04
248.983	79.02
249.2	91.31
249.417	122.02
249.633	31.91
249.85	83.11
250.067	27.82
250.284	140.46
250.501	27.82
250.717	99.5
250.934	-29.52
251.151	38.06
251.368	25.77
251.585	89.26
251.801	115.88
252.018	-29.52
252.235	142.5
252.451	-23.38
252.668	-54.1
252.885	162.98
253.102	124.07
253.318	23.72
253.535	117.93
253.752	-25.43
253.968	64.68
254.185	-105.3
254.401	126.12
254.618	105.64
254.835	31.91
255.051	99.5
255.268	91.31
255.484	68.78
255.701	74.92
255.917	138.41
256.134	-0.85
256.351	72.87
256.567	-17.24
256.784	13.48
257	-86.87
257.217	148.65
257.433	132.26
257.65	97.45
257.866	226.47
258.082	-15.19
258.299	128.17
258.515	87.21
258.732	64.68
258.948	-4.95
259.165	-11.09
259.381	36.01
259.597	48.3
259.814	5.29
260.03	52.39
260.246	42.15
260.463	142.5
260.679	208.04
260.895	140.46
261.112	140.46
261.328	42.15
261.544	13.48
261.761	128.17
261.977	21.67
262.193	-31.57
262.409	150.7
262.626	19.63
262.842	93.35
263.058	60.59
263.274	132.26
263.49	58.54
263.707	105.64
263.923	117.93
264.139	38.06
264.355	105.64
264.571	126.12
264.787	107.69
265.004	160.94
265.22	25.77
265.436	27.82
265.652	21.67
265.868	97.45
266.084	-105.3
266.3	36.01
266.516	19.63
266.732	46.25
266.948	124.07
267.164	56.49
267.38	152.74
267.596	81.07
267.812	261.29
268.028	40.11
268.244	15.53
268.46	81.07
268.676	-7
268.892	76.97
269.108	27.82
269.324	42.15
269.54	60.59
269.756	169.13
269.972	21.67
270.188	56.49
270.403	91.31
270.619	56.49
270.835	167.08
271.051	64.68
271.267	19.63
271.483	70.83
271.698	165.03
271.914	117.93
272.13	81.07
272.346	17.58
272.562	99.5
272.777	79.02
272.993	50.35
273.209	52.39
273.425	97.45
273.64	62.63
273.856	203.94
274.072	36.01
274.287	25.77
274.503	115.88
274.719	203.94
274.934	-13.14
275.15	-41.81
275.366	58.54
275.581	-33.62
275.797	44.2
276.012	29.87
276.228	81.07
276.444	25.77
276.659	191.66
276.875	113.83
277.09	97.45
277.306	36.01
277.521	201.9
277.737	19.63
277.952	111.78
278.168	38.06
278.383	111.78
278.599	111.78
278.814	60.59
279.03	154.79
279.245	199.85
279.461	144.55
279.676	103.59
279.892	56.49
280.107	-54.1
280.322	15.53
280.538	117.93
280.753	17.58
280.969	113.83
281.184	95.4
281.399	197.8
281.615	74.92
281.83	138.41
282.045	-50
282.26	42.15
282.476	60.59
282.691	111.78
282.906	70.83
283.122	33.96
283.337	52.39
283.552	38.06
283.767	42.15
283.983	169.13
284.198	93.35
284.413	107.69
284.628	-72.53
284.843	44.2
285.058	101.55
285.274	62.63
285.489	44.2
285.704	122.02
285.919	19.63
286.134	48.3
286.349	64.68
286.564	81.07
286.779	76.97
286.995	54.44
287.21	-37.72
287.425	81.07
287.64	29.87
287.855	25.77
288.07	23.72
288.285	85.16
288.5	128.17
288.715	70.83
288.93	58.54
289.145	-13.14
289.36	52.39
289.575	19.63
289.79	246.95
290.004	-21.33
290.219	128.17
290.434	31.91
290.649	83.11
290.864	23.72
291.079	76.97
291.294	132.26
291.509	122.02
291.724	3.24
291.938	70.83
292.153	70.83
292.368	64.68
292.583	29.87
292.798	85.16
293.012	54.44
293.227	142.5
293.442	48.3
293.657	105.64
293.871	142.5
294.086	142.5
294.301	152.74
294.516	119.98
294.73	111.78
294.945	-11.09
295.16	15.53
295.374	50.35
295.589	173.22
295.804	-35.67
296.018	74.92
296.233	199.85
296.447	48.3
296.662	-25.43
296.877	95.4
297.091	95.4
297.306	79.02
297.52	36.01
297.735	130.22
297.949	140.46
298.164	122.02
298.378	54.44
298.593	31.91
298.807	44.2
299.022	85.16
299.236	130.22
299.451	44.2
299.665	31.91
299.88	21.67
300.094	87.21
300.309	87.21
300.523	93.35
300.737	124.07
300.952	107.69
301.166	58.54
301.381	-39.76
301.595	7.34
301.809	33.96
302.024	89.26
302.238	-35.67
302.452	175.27
302.667	134.31
302.881	179.37
303.095	122.02
303.309	-19.29
303.524	60.59
303.738	68.78
303.952	36.01
304.166	124.07
304.381	31.91
304.595	193.7
304.809	7.34
305.023	48.3
305.237	66.73
305.452	40.11
305.666	130.22
305.88	93.35
306.094	171.18
306.308	156.84
306.522	109.74
306.736	79.02
306.95	85.16
307.164	46.25
307.379	117.93
307.593	222.38
307.807	148.65
308.021	132.26
308.235	60.59
308.449	-39.76
308.663	72.87
308.877	298.15
309.091	119.98
309.305	33.96
309.519	-66.39
309.733	115.88
309.947	3.24
310.161	134.31
310.374	122.02
310.588	134.31
310.802	58.54
311.016	42.15
311.23	36.01
311.444	29.87
311.658	85.16
311.872	124.07
312.085	85.16
312.299	175.27
312.513	150.7
312.727	117.93
312.941	-15.19
313.154	89.26
313.368	105.64
313.582	44.2
313.796	105.64
314.009	44.2
314.223	158.89
314.437	72.87
314.651	119.98
314.864	25.77
315.078	52.39
315.292	-17.24
315.505	-9.05
315.719	117.93
315.933	46.25
316.146	36.01
316.36	-15.19
316.573	144.55
316.787	117.93
317.001	52.39
317.214	13.48
317.428	46.25
317.641	-64.34
317.855	-33.62
318.068	87.21
318.282	115.88
318.495	193.7
318.709	175.27
318.922	21.67
319.136	138.41
319.349	111.78
319.563	50.35
319.776	136.36
319.99	-50
320.203	208.04
320.417	81.07
320.63	97.45
320.843	216.23
321.057	107.69
321.27	101.55
321.483	119.98
321.697	105.64
321.91	101.55
322.124	87.21
322.337	142.5
322.55	19.63
322.763	52.39
322.977	36.01
323.19	36.01
323.403	29.87
323.617	60.59
323.83	87.21
324.043	31.91
324.256	50.35
324.469	9.39
324.683	175.27
324.896	119.98
325.109	91.31
325.322	23.72
325.535	173.22
325.748	171.18
325.962	-7
326.175	25.77
326.388	124.07
326.601	156.84
326.814	103.59
327.027	74.92
327.24	93.35
327.453	-11.09
327.666	1.19
327.879	152.74
328.092	29.87
328.305	167.08
328.518	17.58
328.731	5.29
328.944	130.22
329.157	99.5
329.37	44.2
329.583	177.32
329.796	113.83
330.009	50.35
330.222	79.02
330.435	171.18
330.648	40.11
330.861	109.74
331.073	68.78
331.286	122.02
331.499	79.02
331.712	-0.85
331.925	56.49
332.138	70.83
332.35	85.16
332.563	42.15
332.776	150.7
332.989	36.01
333.202	50.35
333.414	140.46
333.627	87.21
333.84	130.22
334.053	128.17
334.265	29.87
334.478	33.96
334.691	66.73
334.903	93.35
335.116	-82.77
335.329	52.39
335.541	193.7
335.754	187.56
335.966	15.53
336.179	-31.57
336.392	113.83
336.604	56.49
336.817	148.65
337.029	101.55
337.242	50.35
337.454	136.36
337.667	76.97
337.88	175.27
338.092	113.83
338.305	171.18
338.517	-33.62
338.729	105.64
338.942	122.02
339.154	-13.14
339.367	25.77
339.579	154.79
339.792	27.82
340.004	136.36
340.217	48.3
340.429	83.11
340.641	19.63
340.854	23.72
341.066	87.21
341.278	144.55
341.491	146.6
341.703	50.35
341.915	-21.33
342.128	93.35
342.34	-2.9
342.552	44.2
342.764	95.4
342.977	48.3
343.189	93.35
343.401	87.21
343.613	62.63
343.826	13.48
344.038	-43.86
344.25	138.41
344.462	50.35
344.674	81.07
344.886	17.58
345.099	95.4
345.311	74.92
345.523	23.72
345.735	17.58
345.947	79.02
346.159	91.31
346.371	36.01
346.583	87.21
346.795	175.27
347.007	-2.9
347.219	140.46
347.431	48.3
347.643	122.02
347.855	17.58
348.067	122.02
348.279	95.4
348.491	128.17
348.703	105.64
348.915	42.15
349.127	-37.72
349.339	87.21
349.551	1.19
349.763	99.5
349.975	40.11
350.187	117.93
350.399	230.57
350.61	115.88
350.822	89.26
351.034	95.4
351.246	124.07
351.458	130.22
351.669	195.75
351.881	113.83
352.093	203.94
352.305	130.22
352.517	76.97
352.728	167.08
352.94	11.43
353.152	136.36
353.363	-17.24
353.575	134.31
353.787	236.71
353.999	138.41
354.21	187.56
354.422	23.72
354.633	-31.57
354.845	36.01
355.057	40.11
355.268	124.07
355.48	126.12
355.692	-13.14
355.903	25.77
356.115	23.72
356.326	33.96
356.538	193.7
356.749	111.78
356.961	228.52
357.172	46.25
357.384	-9.05
357.595	210.09
357.807	-47.96
358.018	44.2
358.23	56.49
358.441	224.42
358.653	85.16
358.864	74.92
359.075	29.87
359.287	95.4
359.498	97.45
359.709	189.61
359.921	58.54
360.132	87.21
360.344	79.02
360.555	42.15
360.766	91.31
360.977	11.43
361.189	199.85
361.4	7.34
361.611	117.93
361.823	105.64
362.034	40.11
362.245	-39.76
362.456	27.82
362.667	99.5
362.879	3.24
363.09	36.01
363.301	25.77
363.512	91.31
363.723	23.72
363.935	103.59
364.146	148.65
364.357	13.48
364.568	87.21
364.779	-21.33
364.99	212.14
365.201	-15.19
365.412	91.31
365.623	-52.05
365.834	60.59
366.045	76.97
366.256	68.78
366.467	132.26
366.678	48.3
366.889	44.2
367.1	-35.67
367.311	95.4
367.522	33.96
367.733	160.94
367.944	113.83
368.155	56.49
368.366	97.45
368.577	83.11
368.788	105.64
368.999	13.48
369.209	124.07
369.42	226.47
369.631	257.19
369.842	95.4
370.053	46.25
370.264	101.55
370.474	-27.48
370.685	101.55
370.896	115.88
371.107	185.51
371.317	91.31
371.528	117.93
371.739	83.11
371.95	109.74
372.16	87.21
372.371	23.72
372.582	19.63
372.792	142.5
373.003	115.88
373.214	60.59
373.424	89.26
373.635	19.63
373.846	126.12
374.056	79.02
374.267	201.9
374.477	56.49
374.688	83.11
374.898	97.45
375.109	-29.52
375.319	101.55
375.53	171.18
375.74	119.98
375.951	7.34
376.161	134.31
376.372	124.07
376.582	179.37
376.793	128.17
377.003	7.34
377.214	126.12
377.424	136.36
377.635	122.02
377.845	93.35
378.055	95.4
378.266	1.19
378.476	13.48
378.686	97.45
378.897	148.65
379.107	150.7
379.317	156.84
379.528	5.29
379.738	197.8
379.948	-43.86
380.158	119.98
380.369	54.44
380.579	99.5
380.789	33.96
380.999	115.88
381.21	138.41
381.42	216.23
381.63	64.68
381.84	128.17
382.05	44.2
382.261	165.03
382.471	175.27
382.681	95.4
382.891	150.7
383.101	72.87
383.311	25.77
383.521	-11.09
383.731	21.67
383.941	169.13
384.151	167.08
384.361	93.35
384.571	136.36
384.781	74.92
384.991	242.85
385.201	169.13
385.411	103.59
385.621	66.73
385.831	83.11
386.041	95.4
386.251	81.07
386.461	81.07
386.671	33.96
386.881	42.15
387.091	113.83
387.301	158.89
387.511	70.83
387.72	93.35
387.93	183.46
388.14	-68.44
388.35	144.55
388.56	119.98
388.769	154.79
388.979	-19.29
389.189	27.82
389.399	83.11
389.609	107.69
389.818	103.59
390.028	111.78
390.238	128.17
390.447	-17.24
390.657	142.5
390.867	3.24
391.076	40.11
391.286	60.59
391.496	66.73
391.705	52.39
391.915	122.02
392.125	144.55
392.334	60.59
392.544	212.14
392.753	52.39
392.963	1.19
393.172	76.97
393.382	-33.62
393.591	181.42
393.801	36.01
394.01	171.18
394.22	156.84
394.429	64.68
394.639	70.83
394.848	97.45
395.058	109.74
395.267	44.2
395.477	107.69
395.686	76.97
395.895	289.96
396.105	203.94
396.314	115.88
396.524	87.21
396.733	93.35
396.942	128.17
397.152	58.54
397.361	115.88
397.57	154.79
397.78	66.73
397.989	167.08
398.198	205.99
398.407	9.39
398.617	48.3
398.826	87.21
399.035	15.53
399.244	201.9
399.453	195.75
399.663	62.63
399.872	97.45
400.081	21.67
400.29	126.12
400.499	54.44
400.708	152.74
400.917	83.11
401.127	117.93
401.336	54.44
401.545	232.62
401.754	162.98
401.963	146.6
402.172	-17.24
402.381	3.24
402.59	44.2
402.799	62.63
403.008	126.12
403.217	76.97
403.426	83.11
403.635	-43.86
403.844	64.68
404.053	36.01
404.262	62.63
404.471	177.32
404.68	146.6
404.888	36.01
405.097	50.35
405.306	122.02
405.515	140.46
405.724	46.25
405.933	150.7
406.142	95.4
406.35	154.79
406.559	9.39
406.768	115.88
406.977	140.46
407.185	15.53
407.394	126.12
407.603	-39.76
407.812	197.8
408.02	165.03
408.229	52.39
408.438	109.74
408.646	-17.24
408.855	11.43
409.064	162.98
409.272	93.35
409.481	132.26
409.69	40.11
409.898	56.49
410.107	74.92
410.315	68.78
410.524	7.34
410.733	144.55
410.941	33.96
411.15	158.89
411.358	107.69
411.567	156.84
411.775	62.63
411.984	132.26
412.192	140.46
412.401	81.07
412.609	167.08
412.818	144.55
413.026	81.07
413.234	60.59
413.443	79.02
413.651	-37.72
413.86	111.78
414.068	144.55
414.276	181.42
414.485	48.3
414.693	93.35
414.901	240.81
415.11	124.07
415.318	146.6
415.526	17.58
415.734	171.18
415.943	97.45
416.151	169.13
416.359	50.35
416.567	162.98
416.776	154.79
416.984	128.17
417.192	228.52
417.4	62.63
417.608	76.97
417.817	-17.24
418.025	97.45
418.233	197.8
418.441	15.53
418.649	9.39
418.857	128.17
419.065	113.83
419.273	-9.05
419.481	85.16
419.689	46.25
419.897	81.07
420.105	38.06
420.313	132.26
420.521	208.04
420.729	175.27
420.937	-9.05
421.145	-0.85
421.353	148.65
421.561	150.7
421.769	38.06
421.977	52.39
422.185	140.46
422.393	126.12
422.601	122.02
422.809	130.22
423.017	-11.09
423.224	76.97
423.432	87.21
423.64	132.26
423.848	156.84
424.056	44.2
424.263	160.94
424.471	134.31
424.679	210.09
424.887	-17.24
425.094	156.84
425.302	199.85
425.51	31.91
425.718	154.79
425.925	83.11
426.133	17.58
426.341	218.28
426.548	56.49
426.756	29.87
426.964	134.31
427.171	27.82
427.379	95.4
427.586	142.5
427.794	81.07
428.001	214.18
428.209	240.81
428.417	281.77
428.624	126.12
428.832	175.27
429.039	79.02
429.247	113.83
429.454	156.84
429.662	210.09
429.869	156.84
430.076	87.21
430.284	218.28
430.491	242.85
430.699	216.23
430.906	261.29
431.114	175.27
431.321	150.7
431.528	150.7
431.736	87.21
431.943	146.6
432.15	195.75
432.358	167.08
432.565	244.9
432.772	58.54
432.979	136.36
433.187	169.13
433.394	242.85
433.601	230.57
433.808	156.84
434.016	165.03
434.223	236.71
434.43	216.23
434.637	240.81
434.844	300.2
435.052	232.62
435.259	292.01
435.466	414.88
435.673	318.63
435.88	257.19
436.087	382.12
436.294	406.69
436.501	330.92
436.708	304.29
436.915	363.69
437.122	435.36
437.329	251.05
437.537	330.92
437.743	328.87
437.95	556.19
438.157	439.46
438.364	404.64
438.571	324.77
438.778	494.76
438.985	498.85
439.192	533.67
439.399	504.99
439.606	488.61
439.813	500.9
440.02	564.39
440.227	699.55
440.433	609.44
440.64	494.76
440.847	556.19
441.054	640.16
441.261	707.74
441.467	627.87
441.674	484.52
441.881	781.47
442.088	685.22
442.294	777.37
442.501	785.57
442.708	890.01
442.914	744.61
443.121	855.2
443.328	912.54
443.534	941.21
443.741	986.27
443.948	773.28
444.154	1035.42
444.361	1121.43
444.568	1014.94
444.774	1086.62
444.981	969.88
445.187	1225.88
445.394	1125.53
445.6	1125.53
445.807	1324.18
446.013	1412.25
446.22	1318.04
446.426	1481.88
446.633	1463.44
446.839	1614.99
447.046	1463.44
447.252	1703.06
447.459	1658
447.665	1690.77
447.871	1797.26
448.078	1893.52
448.284	1899.66
448.491	2022.54
448.697	2081.93
448.903	2190.47
449.11	2069.64
449.316	2194.57
449.522	2294.92
449.728	2434.18
449.935	2505.86
450.141	2536.58
450.347	2786.43
450.553	2823.3
450.76	2761.86
450.966	2894.97
451.172	3015.8
451.378	3216.51
451.584	3292.28
451.791	3515.51
451.997	3484.79
452.203	3576.95
452.409	3742.83
452.615	3826.8
452.821	3837.04
453.027	3843.18
453.233	4420.71
453.44	4072.56
453.646	4516.97
453.852	4670.56
454.058	4643.94
454.264	4920.42
454.47	5250.14
454.676	5276.76
454.882	5715.03
455.088	5411.93
455.294	5719.12
455.5	6251.6
455.705	6528.07
455.911	6468.68
456.117	6691.91
456.323	6962.24
456.529	7042.11
456.735	7601.21
456.941	7855.15
457.147	8180.78
457.352	8311.85
457.558	8590.38
457.764	9145.38
457.97	9333.79
458.176	9591.83
458.381	10144.78
458.587	10415.12
458.793	10957.83
458.999	10834.95
459.204	12000.24
459.41	12809.19
459.616	12442.6
459.821	13120.48
460.027	13777.88
460.233	14216.15
460.438	14623.69
460.644	15420.35
460.85	15555.52
461.055	15940.54
461.261	17028.01
461.466	16499.63
461.672	17161.12
461.878	18903.95
462.083	18643.85
462.289	19024.78
462.494	19811.2
462.7	20009.85
462.905	20140.92
463.111	21791.58
463.316	22846.29
463.522	23343.94
463.727	23898.94
463.932	25158.44
464.138	26147.61
464.343	26749.71
464.549	26802.96
464.754	28900.08
464.959	29715.17
465.165	30141.15
465.37	29971.17
465.575	29844.2
465.781	32086.72
465.986	32742.07
466.191	32608.95
466.397	33071.79
466.602	31957.7
466.807	33854.12
467.012	34183.84
467.218	34902.68
467.423	34820.76
467.628	35515.02
