Data from USB4F104151__220__11-06-03-327.txt Node

Date: Wed Feb 26 11:06:03 EST 2025
User: louis
Spectrometer: USB4F10415
Trigger mode: 4
Integration Time (sec): 1.000000E-1
Scans to average: 1
Electric dark correction enabled: true
Nonlinearity correction enabled: false
Boxcar width: 0
XAxis mode: Wavelengths
Number of Pixels in Spectrum: 3648
>>>>>Begin Spectral Data<<<<<
178.204	-375.63
178.424	-375.63
178.644	-375.63
178.864	-400.21
179.084	-334.67
179.304	11.43
179.524	-17.24
179.744	-13.14
179.964	11.43
180.184	44.2
180.404	21.67
180.624	-35.67
180.844	23.72
181.064	-58.2
181.283	36.01
181.503	-41.81
181.723	17.58
181.943	-107.35
182.163	210.09
182.383	-23.38
182.602	87.21
182.822	81.07
183.042	31.91
183.262	-2.9
183.482	15.53
183.701	-45.91
183.921	25.77
184.141	27.82
184.361	60.59
184.58	109.74
184.8	9.39
185.02	-52.05
185.239	179.37
185.459	117.93
185.679	107.69
185.898	-93.01
186.118	70.83
186.338	160.94
186.557	85.16
186.777	13.48
186.997	-25.43
187.216	23.72
187.436	156.84
187.655	58.54
187.875	97.45
188.095	29.87
188.314	113.83
188.534	218.28
188.753	-0.85
188.973	60.59
189.192	232.62
189.412	1.19
189.631	60.59
189.851	95.4
190.07	165.03
190.29	-41.81
190.509	76.97
190.729	54.44
190.948	72.87
191.168	234.66
191.387	126.12
191.607	-62.29
191.826	156.84
192.045	27.82
192.265	21.67
192.484	132.26
192.704	-13.14
192.923	-88.92
193.142	162.98
193.362	126.12
193.581	203.94
193.8	52.39
194.02	132.26
194.239	38.06
194.458	169.13
194.678	23.72
194.897	109.74
195.116	62.63
195.335	11.43
195.555	48.3
195.774	-52.05
195.993	111.78
196.212	38.06
196.432	44.2
196.651	7.34
196.87	25.77
197.089	232.62
197.308	126.12
197.528	185.51
197.747	25.77
197.966	103.59
198.185	187.56
198.404	27.82
198.623	124.07
198.842	160.94
199.062	115.88
199.281	132.26
199.5	87.21
199.719	27.82
199.938	105.64
200.157	25.77
200.376	62.63
200.595	183.46
200.814	62.63
201.033	23.72
201.252	132.26
201.471	85.16
201.69	38.06
201.909	52.39
202.128	109.74
202.347	70.83
202.566	9.39
202.785	-80.72
203.004	-11.09
203.223	279.72
203.442	15.53
203.661	-33.62
203.879	93.35
204.098	97.45
204.317	-82.77
204.536	130.22
204.755	48.3
204.974	97.45
205.193	-15.19
205.411	232.62
205.63	171.18
205.849	87.21
206.068	17.58
206.287	-9.05
206.505	68.78
206.724	40.11
206.943	-86.87
207.162	-21.33
207.381	91.31
207.599	105.64
207.818	70.83
208.037	5.29
208.255	101.55
208.474	81.07
208.693	93.35
208.911	-29.52
209.13	167.08
209.349	72.87
209.567	27.82
209.786	60.59
210.005	76.97
210.223	66.73
210.442	-99.16
210.661	58.54
210.879	111.78
211.098	44.2
211.316	111.78
211.535	111.78
211.753	25.77
211.972	130.22
212.191	21.67
212.409	64.68
212.628	68.78
212.846	7.34
213.065	107.69
213.283	40.11
213.502	21.67
213.72	25.77
213.938	76.97
214.157	-37.72
214.375	101.55
214.594	103.59
214.812	81.07
215.031	46.25
215.249	-27.48
215.467	64.68
215.686	91.31
215.904	138.41
216.122	158.89
216.341	152.74
216.559	115.88
216.778	87.21
216.996	56.49
217.214	-0.85
217.432	85.16
217.651	-45.91
217.869	31.91
218.087	83.11
218.306	-29.52
218.524	60.59
218.742	50.35
218.96	122.02
219.179	25.77
219.397	79.02
219.615	357.54
219.833	128.17
220.051	-41.81
220.27	111.78
220.488	154.79
220.706	122.02
220.924	-33.62
221.142	7.34
221.36	44.2
221.578	3.24
221.796	85.16
222.015	44.2
222.233	36.01
222.451	222.38
222.669	-62.29
222.887	101.55
223.105	48.3
223.323	44.2
223.541	3.24
223.759	38.06
223.977	124.07
224.195	119.98
224.413	44.2
224.631	111.78
224.849	165.03
225.067	249
225.285	13.48
225.503	60.59
225.721	-19.29
225.939	101.55
226.157	-4.95
226.375	259.24
226.592	-9.05
226.81	-0.85
227.028	93.35
227.246	124.07
227.464	97.45
227.682	130.22
227.9	154.79
228.117	68.78
228.335	44.2
228.553	76.97
228.771	99.5
228.989	93.35
229.206	83.11
229.424	50.35
229.642	-2.9
229.86	9.39
230.077	189.61
230.295	105.64
230.513	101.55
230.731	64.68
230.948	249
231.166	183.46
231.384	-52.05
231.601	15.53
231.819	185.51
232.037	58.54
232.254	60.59
232.472	64.68
232.689	-9.05
232.907	158.89
233.125	-7
233.342	-39.76
233.56	40.11
233.777	17.58
233.995	25.77
234.213	156.84
234.43	134.31
234.648	79.02
234.865	-4.95
235.083	42.15
235.3	44.2
235.518	105.64
235.735	134.31
235.953	52.39
236.17	97.45
236.388	66.73
236.605	-15.19
236.822	99.5
237.04	124.07
237.257	79.02
237.475	-35.67
237.692	25.77
237.909	95.4
238.127	29.87
238.344	85.16
238.562	36.01
238.779	-64.34
238.996	-43.86
239.214	68.78
239.431	138.41
239.648	56.49
239.865	97.45
240.083	101.55
240.3	-37.72
240.517	-35.67
240.735	-7
240.952	126.12
241.169	99.5
241.386	122.02
241.603	19.63
241.821	38.06
242.038	50.35
242.255	136.36
242.472	-13.14
242.689	81.07
242.907	101.55
243.124	113.83
243.341	23.72
243.558	3.24
243.775	-54.1
243.992	-23.38
244.209	119.98
244.426	107.69
244.643	130.22
244.86	40.11
245.078	146.6
245.295	44.2
245.512	52.39
245.729	-2.9
245.946	111.78
246.163	40.11
246.38	13.48
246.597	64.68
246.814	60.59
247.031	40.11
247.248	-15.19
247.464	101.55
247.681	25.77
247.898	46.25
248.115	58.54
248.332	11.43
248.549	130.22
248.766	142.5
248.983	81.07
249.2	85.16
249.417	130.22
249.633	79.02
249.85	142.5
250.067	31.91
250.284	17.58
250.501	56.49
250.717	101.55
250.934	-66.39
251.151	27.82
251.368	103.59
251.585	-15.19
251.801	36.01
252.018	-25.43
252.235	119.98
252.451	-70.48
252.668	-33.62
252.885	95.4
253.102	52.39
253.318	5.29
253.535	3.24
253.752	-37.72
253.968	-19.29
254.185	-70.48
254.401	-7
254.618	62.63
254.835	126.12
255.051	132.26
255.268	160.94
255.484	62.63
255.701	3.24
255.917	148.65
256.134	-33.62
256.351	117.93
256.567	-31.57
256.784	3.24
257	-45.91
257.217	167.08
257.433	105.64
257.65	93.35
257.866	140.46
258.082	-21.33
258.299	29.87
258.515	38.06
258.732	48.3
258.948	36.01
259.165	113.83
259.381	-9.05
259.597	81.07
259.814	79.02
260.03	91.31
260.246	97.45
260.463	122.02
260.679	130.22
260.895	105.64
261.112	113.83
261.328	122.02
261.544	-7
261.761	185.51
261.977	33.96
262.193	-2.9
262.409	115.88
262.626	72.87
262.842	-37.72
263.058	103.59
263.274	130.22
263.49	87.21
263.707	42.15
263.923	72.87
264.139	-21.33
264.355	25.77
264.571	99.5
264.787	56.49
265.004	214.18
265.22	44.2
265.436	-27.48
265.652	31.91
265.868	191.66
266.084	-37.72
266.3	93.35
266.516	27.82
266.732	72.87
266.948	48.3
267.164	-17.24
267.38	91.31
267.596	107.69
267.812	160.94
268.028	40.11
268.244	83.11
268.46	74.92
268.676	1.19
268.892	95.4
269.108	-60.24
269.324	-4.95
269.54	-47.96
269.756	107.69
269.972	29.87
270.188	1.19
270.403	-70.48
270.619	-54.1
270.835	83.11
271.051	68.78
271.267	1.19
271.483	27.82
271.698	89.26
271.914	54.44
272.13	119.98
272.346	7.34
272.562	89.26
272.777	126.12
272.993	64.68
273.209	50.35
273.425	70.83
273.64	-54.1
273.856	70.83
274.072	-0.85
274.287	3.24
274.503	111.78
274.719	85.16
274.934	19.63
275.15	-2.9
275.366	74.92
275.581	-107.35
275.797	44.2
276.012	23.72
276.228	15.53
276.444	64.68
276.659	187.56
276.875	-7
277.09	17.58
277.306	15.53
277.521	36.01
277.737	15.53
277.952	42.15
278.168	29.87
278.383	87.21
278.599	56.49
278.814	95.4
279.03	42.15
279.245	70.83
279.461	25.77
279.676	101.55
279.892	-66.39
280.107	7.34
280.322	-21.33
280.538	74.92
280.753	60.59
280.969	97.45
281.184	-33.62
281.399	165.03
281.615	3.24
281.83	68.78
282.045	-45.91
282.26	11.43
282.476	11.43
282.691	162.98
282.906	15.53
283.122	101.55
283.337	25.77
283.552	111.78
283.767	-39.76
283.983	134.31
284.198	13.48
284.413	122.02
284.628	-68.44
284.843	36.01
285.058	64.68
285.274	64.68
285.489	-27.48
285.704	119.98
285.919	31.91
286.134	-11.09
286.349	68.78
286.564	42.15
286.779	111.78
286.995	17.58
287.21	-13.14
287.425	132.26
287.64	-9.05
287.855	13.48
288.07	-29.52
288.285	154.79
288.5	117.93
288.715	-2.9
288.93	-27.48
289.145	-64.34
289.36	111.78
289.575	38.06
289.79	140.46
290.004	-2.9
290.219	74.92
290.434	42.15
290.649	-43.86
290.864	17.58
291.079	-9.05
291.294	60.59
291.509	126.12
291.724	7.34
291.938	-7
292.153	31.91
292.368	-0.85
292.583	70.83
292.798	87.21
293.012	128.17
293.227	56.49
293.442	-13.14
293.657	165.03
293.871	132.26
294.086	56.49
294.301	152.74
294.516	152.74
294.73	140.46
294.945	-76.63
295.16	1.19
295.374	126.12
295.589	165.03
295.804	7.34
296.018	29.87
296.233	144.55
296.447	-2.9
296.662	-56.15
296.877	101.55
297.091	19.63
297.306	27.82
297.52	91.31
297.735	152.74
297.949	38.06
298.164	105.64
298.378	113.83
298.593	-9.05
298.807	-19.29
299.022	132.26
299.236	154.79
299.451	33.96
299.665	89.26
299.88	13.48
300.094	64.68
300.309	68.78
300.523	95.4
300.737	5.29
300.952	83.11
301.166	72.87
301.381	-50
301.595	-39.76
301.809	91.31
302.024	-4.95
302.238	-21.33
302.452	195.75
302.667	66.73
302.881	109.74
303.095	60.59
303.309	33.96
303.524	3.24
303.738	5.29
303.952	-37.72
304.166	109.74
304.381	-50
304.595	197.8
304.809	85.16
305.023	52.39
305.237	-4.95
305.452	60.59
305.666	89.26
305.88	21.67
306.094	79.02
306.308	74.92
306.522	95.4
306.736	87.21
306.95	85.16
307.164	25.77
307.379	38.06
307.593	156.84
307.807	89.26
308.021	64.68
308.235	17.58
308.449	-52.05
308.663	87.21
308.877	173.22
309.091	89.26
309.305	66.73
309.519	-64.34
309.733	103.59
309.947	-43.86
310.161	64.68
310.374	144.55
310.588	136.36
310.802	-39.76
311.016	25.77
311.23	93.35
311.444	-31.57
311.658	9.39
311.872	142.5
312.085	117.93
312.299	152.74
312.513	124.07
312.727	93.35
312.941	21.67
313.154	119.98
313.368	64.68
313.582	124.07
313.796	117.93
314.009	58.54
314.223	144.55
314.437	81.07
314.651	79.02
314.864	-37.72
315.078	38.06
315.292	-58.2
315.505	64.68
315.719	119.98
315.933	9.39
316.146	19.63
316.36	-60.24
316.573	214.18
316.787	81.07
317.001	81.07
317.214	-58.2
317.428	58.54
317.641	-15.19
317.855	31.91
318.068	25.77
318.282	-0.85
318.495	220.33
318.709	87.21
318.922	36.01
319.136	128.17
319.349	72.87
319.563	64.68
319.776	122.02
319.99	-76.63
320.203	76.97
320.417	-7
320.63	44.2
320.843	175.27
321.057	93.35
321.27	54.44
321.483	54.44
321.697	132.26
321.91	36.01
322.124	52.39
322.337	58.54
322.55	-25.43
322.763	93.35
322.977	91.31
323.19	-0.85
323.403	87.21
323.617	56.49
323.83	132.26
324.043	27.82
324.256	36.01
324.469	15.53
324.683	154.79
324.896	5.29
325.109	5.29
325.322	50.35
325.535	140.46
325.748	119.98
325.962	31.91
326.175	64.68
326.388	167.08
326.601	179.37
326.814	113.83
327.027	97.45
327.24	150.7
327.453	-101.2
327.666	126.12
327.879	142.5
328.092	31.91
328.305	97.45
328.518	9.39
328.731	36.01
328.944	-21.33
329.157	72.87
329.37	31.91
329.583	167.08
329.796	122.02
330.009	-41.81
330.222	93.35
330.435	56.49
330.648	17.58
330.861	132.26
331.073	64.68
331.286	136.36
331.499	60.59
331.712	-56.15
331.925	21.67
332.138	95.4
332.35	179.37
332.563	-9.05
332.776	191.66
332.989	-45.91
333.202	68.78
333.414	91.31
333.627	76.97
333.84	-7
334.053	5.29
334.265	5.29
334.478	-74.58
334.691	11.43
334.903	-2.9
335.116	-0.85
335.329	23.72
335.541	144.55
335.754	124.07
335.966	21.67
336.179	19.63
336.392	-58.2
336.604	66.73
336.817	124.07
337.029	33.96
337.242	25.77
337.454	144.55
337.667	3.24
337.88	216.23
338.092	76.97
338.305	62.63
338.517	1.19
338.729	11.43
338.942	160.94
339.154	-27.48
339.367	5.29
339.579	54.44
339.792	66.73
340.004	74.92
340.217	36.01
340.429	9.39
340.641	-37.72
340.854	25.77
341.066	19.63
341.278	113.83
341.491	226.47
341.703	109.74
341.915	31.91
342.128	52.39
342.34	72.87
342.552	3.24
342.764	103.59
342.977	70.83
343.189	27.82
343.401	132.26
343.613	-43.86
343.826	72.87
344.038	58.54
344.25	38.06
344.462	48.3
344.674	130.22
344.886	93.35
345.099	91.31
345.311	44.2
345.523	-95.06
345.735	-78.68
345.947	-11.09
346.159	91.31
346.371	154.79
346.583	58.54
346.795	191.66
347.007	31.91
347.219	146.6
347.431	42.15
347.643	83.11
347.855	5.29
348.067	154.79
348.279	21.67
348.491	74.92
348.703	152.74
348.915	85.16
349.127	31.91
349.339	5.29
349.551	40.11
349.763	107.69
349.975	107.69
350.187	23.72
350.399	68.78
350.61	152.74
350.822	-11.09
351.034	54.44
351.246	70.83
351.458	111.78
351.669	68.78
351.881	124.07
352.093	72.87
352.305	138.41
352.517	52.39
352.728	169.13
352.94	136.36
353.152	124.07
353.363	-35.67
353.575	36.01
353.787	146.6
353.999	33.96
354.21	103.59
354.422	-60.24
354.633	54.44
354.845	9.39
355.057	72.87
355.268	-41.81
355.48	70.83
355.692	-23.38
355.903	-27.48
356.115	3.24
356.326	-33.62
356.538	107.69
356.749	79.02
356.961	126.12
357.172	31.91
357.384	-15.19
357.595	228.52
357.807	58.54
358.018	25.77
358.23	-17.24
358.441	169.13
358.653	54.44
358.864	42.15
359.075	99.5
359.287	36.01
359.498	109.74
359.709	44.2
359.921	119.98
360.132	74.92
360.344	27.82
360.555	70.83
360.766	54.44
360.977	60.59
361.189	142.5
361.4	101.55
361.611	81.07
361.823	107.69
362.034	33.96
362.245	40.11
362.456	13.48
362.667	124.07
362.879	-7
363.09	-25.43
363.301	70.83
363.512	79.02
363.723	-23.38
363.935	44.2
364.146	130.22
364.357	29.87
364.568	48.3
364.779	-11.09
364.99	158.89
365.201	-2.9
365.412	99.5
365.623	-50
365.834	83.11
366.045	29.87
366.256	97.45
366.467	89.26
366.678	62.63
366.889	48.3
367.1	58.54
367.311	54.44
367.522	9.39
367.733	68.78
367.944	66.73
368.155	-13.14
368.366	124.07
368.577	52.39
368.788	173.22
368.999	15.53
369.209	15.53
369.42	185.51
369.631	142.5
369.842	113.83
370.053	-21.33
370.264	128.17
370.474	27.82
370.685	64.68
370.896	140.46
371.107	142.5
371.317	68.78
371.528	89.26
371.739	179.37
371.95	115.88
372.16	185.51
372.371	-15.19
372.582	52.39
372.792	97.45
373.003	76.97
373.214	115.88
373.424	142.5
373.635	-56.15
373.846	60.59
374.056	54.44
374.267	150.7
374.477	36.01
374.688	-37.72
374.898	103.59
375.109	56.49
375.319	101.55
375.53	165.03
375.74	165.03
375.951	15.53
376.161	13.48
376.372	74.92
376.582	-39.76
376.793	138.41
377.003	81.07
377.214	27.82
377.424	142.5
377.635	27.82
377.845	-52.05
378.055	177.32
378.266	-41.81
378.476	-15.19
378.686	130.22
378.897	109.74
379.107	187.56
379.317	132.26
379.528	3.24
379.738	48.3
379.948	-21.33
380.158	126.12
380.369	1.19
380.579	158.89
380.789	42.15
380.999	46.25
381.21	132.26
381.42	238.76
381.63	-19.29
381.84	97.45
382.05	105.64
382.261	85.16
382.471	109.74
382.681	119.98
382.891	148.65
383.101	97.45
383.311	15.53
383.521	-29.52
383.731	68.78
383.941	115.88
384.151	156.84
384.361	68.78
384.571	29.87
384.781	27.82
384.991	115.88
385.201	208.04
385.411	124.07
385.621	103.59
385.831	-2.9
386.041	136.36
386.251	64.68
386.461	95.4
386.671	-7
386.881	169.13
387.091	15.53
387.301	87.21
387.511	62.63
387.72	205.99
387.93	89.26
388.14	-62.29
388.35	105.64
388.56	136.36
388.769	130.22
388.979	48.3
389.189	-11.09
389.399	54.44
389.609	171.18
389.818	136.36
390.028	44.2
390.238	74.92
390.447	-50
390.657	119.98
390.867	56.49
391.076	-138.07
391.286	40.11
391.496	111.78
391.705	126.12
391.915	160.94
392.125	117.93
392.334	76.97
392.544	169.13
392.753	115.88
392.963	3.24
393.172	54.44
393.382	103.59
393.591	214.18
393.801	-45.91
394.01	154.79
394.22	66.73
394.429	33.96
394.639	72.87
394.848	117.93
395.058	-9.05
395.267	7.34
395.477	91.31
395.686	103.59
395.895	244.9
396.105	249
396.314	60.59
396.524	117.93
396.733	-9.05
396.942	134.31
397.152	42.15
397.361	68.78
397.57	58.54
397.78	68.78
397.989	138.41
398.198	208.04
398.407	87.21
398.617	13.48
398.826	97.45
399.035	21.67
399.244	144.55
399.453	85.16
399.663	126.12
399.872	81.07
400.081	7.34
400.29	138.41
400.499	-31.57
400.708	44.2
400.917	122.02
401.127	9.39
401.336	36.01
401.545	214.18
401.754	150.7
401.963	169.13
402.172	56.49
402.381	-7
402.59	87.21
402.799	-9.05
403.008	136.36
403.217	58.54
403.426	85.16
403.635	-15.19
403.844	79.02
404.053	-19.29
404.262	13.48
404.471	179.37
404.68	66.73
404.888	27.82
405.097	54.44
405.306	99.5
405.515	40.11
405.724	27.82
405.933	146.6
406.142	91.31
406.35	27.82
406.559	91.31
406.768	83.11
406.977	185.51
407.185	91.31
407.394	85.16
407.603	-15.19
407.812	44.2
408.02	126.12
408.229	50.35
408.438	38.06
408.646	-13.14
408.855	40.11
409.064	11.43
409.272	142.5
409.481	99.5
409.69	5.29
409.898	48.3
410.107	85.16
410.315	142.5
410.524	-11.09
410.733	-9.05
410.941	52.39
411.15	183.46
411.358	152.74
411.567	208.04
411.775	76.97
411.984	124.07
412.192	105.64
412.401	23.72
412.609	124.07
412.818	99.5
413.026	105.64
413.234	40.11
413.443	54.44
413.651	17.58
413.86	44.2
414.068	103.59
414.276	183.46
414.485	3.24
414.693	117.93
414.901	134.31
415.11	162.98
415.318	119.98
415.526	132.26
415.734	158.89
415.943	60.59
416.151	173.22
416.359	25.77
416.567	38.06
416.776	197.8
416.984	101.55
417.192	185.51
417.4	85.16
417.608	-47.96
417.817	-56.15
418.025	130.22
418.233	185.51
418.441	-7
418.649	-2.9
418.857	122.02
419.065	175.27
419.273	42.15
419.481	85.16
419.689	31.91
419.897	13.48
420.105	25.77
420.313	154.79
420.521	140.46
420.729	142.5
420.937	58.54
421.145	15.53
421.353	81.07
421.561	93.35
421.769	148.65
421.977	50.35
422.185	115.88
422.393	70.83
422.601	89.26
422.809	66.73
423.017	119.98
423.224	97.45
423.432	148.65
423.64	17.58
423.848	156.84
424.056	-13.14
424.263	154.79
424.471	68.78
424.679	136.36
424.887	15.53
425.094	230.57
425.302	122.02
425.51	36.01
425.718	142.5
425.925	60.59
426.133	89.26
426.341	285.86
426.548	60.59
426.756	46.25
426.964	122.02
427.171	40.11
427.379	132.26
427.586	79.02
427.794	126.12
428.001	224.42
428.209	134.31
428.417	175.27
428.624	124.07
428.832	79.02
429.039	107.69
429.247	79.02
429.454	195.75
429.662	162.98
429.869	140.46
430.076	193.7
430.284	126.12
430.491	97.45
430.699	79.02
430.906	181.42
431.114	148.65
431.321	146.6
431.528	140.46
431.736	152.74
431.943	134.31
432.15	169.13
432.358	195.75
432.565	277.67
432.772	27.82
432.979	281.77
433.187	113.83
433.394	220.33
433.601	111.78
433.808	255.14
434.016	281.77
434.223	179.37
434.43	140.46
434.637	271.53
434.844	283.81
435.052	361.64
435.259	296.1
435.466	220.33
435.673	265.38
435.88	324.77
436.087	369.83
436.294	353.45
436.501	320.68
436.708	222.38
436.915	318.63
437.122	328.87
437.329	300.2
437.537	345.25
437.743	349.35
437.95	480.42
438.157	361.64
438.364	345.25
438.571	373.92
438.778	507.04
438.985	484.52
439.192	449.7
439.399	461.99
439.606	519.33
439.813	502.95
440.02	685.22
440.227	634.02
440.433	539.81
440.64	597.15
440.847	529.57
441.054	672.93
441.261	670.88
441.467	582.82
441.674	642.21
441.881	763.04
442.088	670.88
442.294	699.55
442.501	808.09
442.708	793.76
442.914	842.91
443.121	857.25
443.328	926.88
443.534	898.2
443.741	857.25
443.948	818.33
444.154	984.22
444.361	1068.19
444.568	1041.56
444.774	922.78
444.981	978.08
445.187	1268.89
445.394	1225.88
445.6	1117.34
445.807	1336.47
446.013	1350.81
446.22	1221.78
446.426	1397.91
446.633	1516.69
446.839	1709.2
447.046	1404.05
447.252	1651.86
447.459	1701.01
447.665	1666.19
447.871	1920.14
448.078	2006.16
448.284	1954.96
448.491	2100.36
448.697	2028.68
448.903	2034.83
449.11	2256.01
449.316	2204.81
449.522	2311.3
449.728	2366.6
449.935	2454.66
450.141	2475.14
450.347	2733.18
450.553	2602.11
450.76	2866.3
450.966	2946.17
451.172	2997.37
451.378	3144.83
451.584	3169.4
451.791	3447.93
451.997	3499.13
452.203	3476.6
452.409	3724.4
452.615	3925.1
452.821	3755.12
453.027	3693.68
453.233	4355.18
453.44	4224.11
453.646	4473.96
453.852	4576.36
454.058	4881.5
454.264	4973.66
454.47	5258.33
454.676	5293.15
454.882	5680.21
455.088	5643.35
455.294	5741.65
455.5	6304.84
455.705	6696
455.911	6515.78
456.117	6683.72
456.323	7031.87
456.529	7003.2
456.735	7646.26
456.941	7859.25
457.147	8242.22
457.352	8123.44
457.558	8625.19
457.764	8993.83
457.97	9489.43
458.176	9638.94
458.381	10318.86
458.587	10636.3
458.793	10980.36
458.999	11301.89
459.204	12264.43
459.41	12739.56
459.616	12557.29
459.821	13220.83
460.027	13874.13
460.233	14640.08
460.438	14681.03
460.644	15211.46
460.85	15455.17
461.055	16153.52
461.261	16675.76
461.466	16882.6
461.672	16843.69
461.878	18844.56
462.083	18426.77
462.289	19139.46
462.494	20013.95
462.7	20190.07
462.905	20126.58
463.111	21947.23
463.316	23018.32
463.522	23286.6
463.727	24136.51
463.932	25150.25
464.138	25821.98
464.343	27036.43
464.549	27120.4
464.754	29010.67
464.959	29776.61
465.165	30130.91
465.37	30257.88
465.575	30079.71
465.781	31781.57
465.986	33321.65
466.191	32350.91
466.397	32965.3
466.602	32012.99
466.807	34097.83
467.012	34411.17
467.218	34941.59
467.423	35299.98
467.628	36635.26
467.833	38228.58
468.038	37327.47
468.244	36610.68
468.449	38789.72
468.654	37767.79
