Data from USB4F104151__292__11-21-12-128.txt Node

Date: Wed Feb 26 11:21:12 EST 2025
User: louis
Spectrometer: USB4F10415
Trigger mode: 4
Integration Time (sec): 1.000000E-1
Scans to average: 1
Electric dark correction enabled: true
Nonlinearity correction enabled: false
Boxcar width: 0
XAxis mode: Wavelengths
Number of Pixels in Spectrum: 3648
>>>>>Begin Spectral Data<<<<<
178.204	-400.89
178.424	-400.89
178.644	-400.89
178.864	-415.23
179.084	-435.71
179.304	-40.45
179.524	-58.88
179.744	59.9
179.964	18.94
180.184	23.04
180.404	61.95
180.624	-34.3
180.844	37.38
181.064	-69.12
181.283	-17.92
181.503	-13.82
181.723	33.28
181.943	-177.66
182.163	186.88
182.383	35.33
182.602	35.33
182.822	158.21
183.042	107.01
183.262	-73.21
183.482	-15.87
183.701	-5.63
183.921	70.14
184.141	-46.59
184.361	119.29
184.58	55.81
184.8	104.96
185.02	16.9
185.239	-3.58
185.459	55.81
185.679	66.05
185.898	-83.45
186.118	80.38
186.338	76.29
186.557	43.52
186.777	-58.88
186.997	-17.92
187.216	-1.54
187.436	176.64
187.655	-7.68
187.875	80.38
188.095	41.47
188.314	98.81
188.534	162.3
188.753	-24.06
188.973	123.39
189.192	104.96
189.412	47.62
189.631	37.38
189.851	143.87
190.07	150.01
190.29	-50.69
190.509	-24.06
190.729	37.38
190.948	123.39
191.168	281.08
191.387	37.38
191.607	-13.82
191.826	6.66
192.045	55.81
192.265	-1.54
192.484	8.7
192.704	-60.93
192.923	10.75
193.142	190.97
193.362	45.57
193.581	111.1
193.8	45.57
194.02	27.14
194.239	55.81
194.458	53.76
194.678	-22.02
194.897	25.09
195.116	-1.54
195.335	166.4
195.555	64
195.774	-54.78
195.993	123.39
196.212	-54.78
196.432	-46.59
196.651	-73.21
196.87	84.48
197.089	205.31
197.308	-19.97
197.528	0.51
197.747	-13.82
197.966	66.05
198.185	90.62
198.404	-81.41
198.623	70.14
198.842	33.28
199.062	94.72
199.281	168.45
199.5	53.76
199.719	74.24
199.938	150.01
200.157	-19.97
200.376	133.63
200.595	141.82
200.814	109.05
201.033	-36.35
201.252	168.45
201.471	6.66
201.69	66.05
201.909	27.14
202.128	49.66
202.347	49.66
202.566	-19.97
202.785	-46.59
203.004	33.28
203.223	195.07
203.442	80.38
203.661	-9.73
203.879	115.2
204.098	107.01
204.317	-34.3
204.536	86.53
204.755	-17.92
204.974	143.87
205.193	20.99
205.411	195.07
205.63	53.76
205.849	18.94
206.068	-32.26
206.287	-11.78
206.505	98.81
206.724	37.38
206.943	4.61
207.162	-1.54
207.381	47.62
207.599	-22.02
207.818	33.28
208.037	-87.55
208.255	-5.63
208.474	76.29
208.693	59.9
208.911	10.75
209.13	109.05
209.349	70.14
209.567	25.09
209.786	12.8
210.005	37.38
210.223	14.85
210.442	-120.32
210.661	-15.87
210.879	53.76
211.098	-56.83
211.316	61.95
211.535	66.05
211.753	6.66
211.972	29.18
212.191	-52.74
212.409	-54.78
212.628	207.36
212.846	-101.89
213.065	72.19
213.283	154.11
213.502	-36.35
213.72	10.75
213.938	-5.63
214.157	-26.11
214.375	215.55
214.594	6.66
214.812	49.66
215.031	-1.54
215.249	119.29
215.467	41.47
215.686	37.38
215.904	4.61
216.122	-11.78
216.341	45.57
216.559	8.7
216.778	94.72
216.996	57.86
217.214	41.47
217.432	10.75
217.651	-65.02
217.869	14.85
218.087	-65.02
218.306	-17.92
218.524	-3.58
218.742	20.99
218.96	80.38
219.179	51.71
219.397	61.95
219.615	209.4
219.833	84.48
220.051	-58.88
220.27	64
220.488	72.19
220.706	59.9
220.924	-114.17
221.142	-32.26
221.36	27.14
221.578	-1.54
221.796	-46.59
222.015	39.42
222.233	33.28
222.451	131.58
222.669	57.86
222.887	94.72
223.105	6.66
223.323	-7.68
223.541	-30.21
223.759	2.56
223.977	14.85
224.195	178.69
224.413	49.66
224.631	47.62
224.849	49.66
225.067	174.59
225.285	-44.54
225.503	51.71
225.721	-42.5
225.939	78.33
226.157	31.23
226.375	219.64
226.592	-60.93
226.81	10.75
227.028	150.01
227.246	47.62
227.464	47.62
227.682	68.09
227.9	43.52
228.117	-48.64
228.335	68.09
228.553	8.7
228.771	49.66
228.989	107.01
229.206	66.05
229.424	6.66
229.642	-1.54
229.86	-58.88
230.077	82.43
230.295	51.71
230.513	104.96
230.731	143.87
230.948	104.96
231.166	27.14
231.384	47.62
231.601	-1.54
231.819	209.4
232.037	4.61
232.254	-5.63
232.472	-9.73
232.689	6.66
232.907	98.81
233.125	12.8
233.342	-28.16
233.56	37.38
233.777	-62.98
233.995	49.66
234.213	102.91
234.43	12.8
234.648	49.66
234.865	10.75
235.083	92.67
235.3	70.14
235.518	96.77
235.735	125.44
235.953	86.53
236.17	125.44
236.388	14.85
236.605	-19.97
236.822	92.67
237.04	64
237.257	35.33
237.475	-56.83
237.692	92.67
237.909	14.85
238.127	25.09
238.344	16.9
238.562	104.96
238.779	-87.55
238.996	-7.68
239.214	-13.82
239.431	-13.82
239.648	-1.54
239.865	86.53
240.083	33.28
240.3	4.61
240.517	-5.63
240.735	76.29
240.952	113.15
241.169	2.56
241.386	33.28
241.603	51.71
241.821	-28.16
242.038	-19.97
242.255	117.25
242.472	-36.35
242.689	31.23
242.907	90.62
243.124	66.05
243.341	35.33
243.558	-9.73
243.775	-40.45
243.992	-62.98
244.209	113.15
244.426	168.45
244.643	35.33
244.86	-11.78
245.078	162.3
245.295	55.81
245.512	25.09
245.729	0.51
245.946	27.14
246.163	14.85
246.38	-19.97
246.597	57.86
246.814	94.72
247.031	129.53
247.248	84.48
247.464	41.47
247.681	74.24
247.898	39.42
248.115	61.95
248.332	-97.79
248.549	197.12
248.766	178.69
248.983	137.73
249.2	125.44
249.417	80.38
249.633	-26.11
249.85	64
250.067	-7.68
250.284	35.33
250.501	57.86
250.717	131.58
250.934	-48.64
251.151	18.94
251.368	107.01
251.585	82.43
251.801	12.8
252.018	-32.26
252.235	107.01
252.451	39.42
252.668	-36.35
252.885	133.63
253.102	80.38
253.318	-50.69
253.535	-26.11
253.752	6.66
253.968	57.86
254.185	-24.06
254.401	16.9
254.618	-1.54
254.835	-75.26
255.051	90.62
255.268	33.28
255.484	78.33
255.701	14.85
255.917	80.38
256.134	6.66
256.351	0.51
256.567	-65.02
256.784	27.14
257	-58.88
257.217	78.33
257.433	86.53
257.65	47.62
257.866	82.43
258.082	-60.93
258.299	-71.17
258.515	90.62
258.732	2.56
258.948	-46.59
259.165	84.48
259.381	-42.5
259.597	98.81
259.814	20.99
260.03	61.95
260.246	-56.83
260.463	125.44
260.679	104.96
260.895	39.42
261.112	102.91
261.328	-1.54
261.544	-44.54
261.761	125.44
261.977	-62.98
262.193	-30.21
262.409	119.29
262.626	-19.97
262.842	-11.78
263.058	-81.41
263.274	113.15
263.49	66.05
263.707	55.81
263.923	53.76
264.139	-48.64
264.355	123.39
264.571	84.48
264.787	41.47
265.004	74.24
265.22	6.66
265.436	-30.21
265.652	20.99
265.868	25.09
266.084	43.52
266.3	4.61
266.516	16.9
266.732	39.42
266.948	43.52
267.164	-85.5
267.38	107.01
267.596	51.71
267.812	168.45
268.028	29.18
268.244	70.14
268.46	33.28
268.676	72.19
268.892	61.95
269.108	27.14
269.324	-69.12
269.54	-9.73
269.756	117.25
269.972	-40.45
270.188	-69.12
270.403	-99.84
270.619	-48.64
270.835	68.09
271.051	66.05
271.267	-62.98
271.483	-54.78
271.698	137.73
271.914	49.66
272.13	18.94
272.346	-42.5
272.562	57.86
272.777	59.9
272.993	-54.78
273.209	27.14
273.425	107.01
273.64	-17.92
273.856	88.57
274.072	-54.78
274.287	-87.55
274.503	39.42
274.719	131.58
274.934	2.56
275.15	-114.17
275.366	55.81
275.581	23.04
275.797	6.66
276.012	72.19
276.228	-83.45
276.444	100.86
276.659	25.09
276.875	-19.97
277.09	39.42
277.306	-19.97
277.521	104.96
277.737	-44.54
277.952	98.81
278.168	35.33
278.383	25.09
278.599	84.48
278.814	25.09
279.03	66.05
279.245	150.01
279.461	68.09
279.676	55.81
279.892	-5.63
280.107	-5.63
280.322	-87.55
280.538	43.52
280.753	-46.59
280.969	12.8
281.184	47.62
281.399	135.68
281.615	-40.45
281.83	12.8
282.045	-71.17
282.26	-124.41
282.476	59.9
282.691	53.76
282.906	121.34
283.122	27.14
283.337	-48.64
283.552	74.24
283.767	-112.13
283.983	55.81
284.198	8.7
284.413	90.62
284.628	-62.98
284.843	74.24
285.058	61.95
285.274	-26.11
285.489	47.62
285.704	129.53
285.919	94.72
286.134	-32.26
286.349	10.75
286.564	59.9
286.779	143.87
286.995	-60.93
287.21	2.56
287.425	35.33
287.64	-44.54
287.855	82.43
288.07	-73.21
288.285	104.96
288.5	86.53
288.715	86.53
288.93	41.47
289.145	-22.02
289.36	158.21
289.575	-40.45
289.79	41.47
290.004	-38.4
290.219	78.33
290.434	-44.54
290.649	51.71
290.864	76.29
291.079	51.71
291.294	78.33
291.509	66.05
291.724	-3.58
291.938	-24.06
292.153	80.38
292.368	37.38
292.583	45.57
292.798	102.91
293.012	80.38
293.227	45.57
293.442	6.66
293.657	88.57
293.871	72.19
294.086	72.19
294.301	78.33
294.516	129.53
294.73	23.04
294.945	-71.17
295.16	-73.21
295.374	76.29
295.589	98.81
295.804	37.38
296.018	-9.73
296.233	86.53
296.447	61.95
296.662	-30.21
296.877	209.4
297.091	68.09
297.306	51.71
297.52	8.7
297.735	92.67
297.949	96.77
298.164	47.62
298.378	74.24
298.593	-126.46
298.807	-17.92
299.022	14.85
299.236	133.63
299.451	-9.73
299.665	33.28
299.88	12.8
300.094	-5.63
300.309	31.23
300.523	6.66
300.737	-56.83
300.952	123.39
301.166	-7.68
301.381	-89.6
301.595	25.09
301.809	35.33
302.024	39.42
302.238	-34.3
302.452	27.14
302.667	-42.5
302.881	115.2
303.095	152.06
303.309	39.42
303.524	10.75
303.738	64
303.952	-34.3
304.166	23.04
304.381	-87.55
304.595	160.25
304.809	-24.06
305.023	14.85
305.237	-22.02
305.452	14.85
305.666	10.75
305.88	61.95
306.094	125.44
306.308	20.99
306.522	47.62
306.736	74.24
306.95	33.28
307.164	2.56
307.379	25.09
307.593	129.53
307.807	86.53
308.021	70.14
308.235	39.42
308.449	-34.3
308.663	-30.21
308.877	233.98
309.091	47.62
309.305	10.75
309.519	-110.08
309.733	147.97
309.947	-3.58
310.161	66.05
310.374	31.23
310.588	82.43
310.802	-3.58
311.016	37.38
311.23	51.71
311.444	-17.92
311.658	43.52
311.872	217.6
312.085	90.62
312.299	190.97
312.513	107.01
312.727	47.62
312.941	-36.35
313.154	53.76
313.368	39.42
313.582	10.75
313.796	20.99
314.009	-28.16
314.223	92.67
314.437	64
314.651	113.15
314.864	-69.12
315.078	-17.92
315.292	-91.65
315.505	27.14
315.719	78.33
315.933	45.57
316.146	-28.16
316.36	-58.88
316.573	109.05
316.787	70.14
317.001	80.38
317.214	-7.68
317.428	111.1
317.641	-40.45
317.855	-9.73
318.068	90.62
318.282	100.86
318.495	227.84
318.709	53.76
318.922	23.04
319.136	117.25
319.349	104.96
319.563	-3.58
319.776	31.23
319.99	-58.88
320.203	131.58
320.417	-19.97
320.63	72.19
320.843	176.64
321.057	43.52
321.27	-24.06
321.483	53.76
321.697	55.81
321.91	18.94
322.124	47.62
322.337	107.01
322.55	-73.21
322.763	-7.68
322.977	45.57
323.19	-54.78
323.403	-28.16
323.617	92.67
323.83	119.29
324.043	-46.59
324.256	137.73
324.469	-91.65
324.683	117.25
324.896	43.52
325.109	41.47
325.322	-85.5
325.535	125.44
325.748	39.42
325.962	-36.35
326.175	16.9
326.388	98.81
326.601	164.35
326.814	41.47
327.027	-30.21
327.24	102.91
327.453	-151.04
327.666	72.19
327.879	184.83
328.092	51.71
328.305	59.9
328.518	0.51
328.731	-87.55
328.944	-3.58
329.157	90.62
329.37	-11.78
329.583	154.11
329.796	154.11
330.009	-81.41
330.222	98.81
330.435	94.72
330.648	43.52
330.861	16.9
331.073	35.33
331.286	72.19
331.499	37.38
331.712	31.23
331.925	55.81
332.138	-15.87
332.35	123.39
332.563	-15.87
332.776	94.72
332.989	-30.21
333.202	16.9
333.414	-1.54
333.627	12.8
333.84	20.99
334.053	61.95
334.265	-30.21
334.478	-11.78
334.691	55.81
334.903	12.8
335.116	-13.82
335.329	78.33
335.541	61.95
335.754	119.29
335.966	-60.93
336.179	35.33
336.392	-17.92
336.604	43.52
336.817	180.73
337.029	51.71
337.242	55.81
337.454	59.9
337.667	29.18
337.88	51.71
338.092	35.33
338.305	96.77
338.517	-9.73
338.729	61.95
338.942	90.62
339.154	45.57
339.367	-36.35
339.579	53.76
339.792	-48.64
340.004	57.86
340.217	27.14
340.429	68.09
340.641	-17.92
340.854	-28.16
341.066	8.7
341.278	113.15
341.491	152.06
341.703	8.7
341.915	-3.58
342.128	162.3
342.34	53.76
342.552	-38.4
342.764	45.57
342.977	39.42
343.189	90.62
343.401	37.38
343.613	-40.45
343.826	49.66
344.038	-36.35
344.25	20.99
344.462	-19.97
344.674	76.29
344.886	-50.69
345.099	37.38
345.311	117.25
345.523	-50.69
345.735	-79.36
345.947	6.66
346.159	35.33
346.371	-13.82
346.583	-15.87
346.795	184.83
347.007	29.18
347.219	-36.35
347.431	47.62
347.643	190.97
347.855	31.23
348.067	137.73
348.279	-97.79
348.491	98.81
348.703	70.14
348.915	53.76
349.127	-44.54
349.339	-11.78
349.551	47.62
349.763	84.48
349.975	74.24
350.187	174.59
350.399	119.29
350.61	113.15
350.822	-24.06
351.034	53.76
351.246	-22.02
351.458	55.81
351.669	102.91
351.881	96.77
352.093	152.06
352.305	92.67
352.517	107.01
352.728	94.72
352.94	41.47
353.152	6.66
353.363	4.61
353.575	66.05
353.787	205.31
353.999	107.01
354.21	145.92
354.422	-11.78
354.633	35.33
354.845	-56.83
355.057	47.62
355.268	-24.06
355.48	94.72
355.692	-52.74
355.903	18.94
356.115	-65.02
356.326	-50.69
356.538	82.43
356.749	76.29
356.961	90.62
357.172	-7.68
357.384	-9.73
357.595	176.64
357.807	27.14
358.018	61.95
358.23	59.9
358.441	113.15
358.653	41.47
358.864	41.47
359.075	10.75
359.287	104.96
359.498	98.81
359.709	35.33
359.921	61.95
360.132	-24.06
360.344	61.95
360.555	45.57
360.766	68.09
360.977	14.85
361.189	131.58
361.4	-32.26
361.611	131.58
361.823	64
362.034	-26.11
362.245	-5.63
362.456	14.85
362.667	111.1
362.879	-93.69
363.09	94.72
363.301	127.49
363.512	0.51
363.723	43.52
363.935	-15.87
364.146	66.05
364.357	2.56
364.568	59.9
364.779	-75.26
364.99	162.3
365.201	20.99
365.412	104.96
365.623	-73.21
365.834	84.48
366.045	20.99
366.256	117.25
366.467	135.68
366.678	66.05
366.889	98.81
367.1	-22.02
367.311	113.15
367.522	29.18
367.733	113.15
367.944	27.14
368.155	35.33
368.366	125.44
368.577	74.24
368.788	61.95
368.999	-9.73
369.209	55.81
369.42	178.69
369.631	221.69
369.842	119.29
370.053	66.05
370.264	160.25
370.474	-15.87
370.685	31.23
370.896	-71.17
371.107	96.77
371.317	96.77
371.528	-44.54
371.739	88.57
371.95	113.15
372.16	107.01
372.371	-11.78
372.582	-50.69
372.792	27.14
373.003	18.94
373.214	51.71
373.424	107.01
373.635	-11.78
373.846	90.62
374.056	80.38
374.267	14.85
374.477	16.9
374.688	6.66
374.898	133.63
375.109	31.23
375.319	20.99
375.53	129.53
375.74	141.82
375.951	-36.35
376.161	127.49
376.372	158.21
376.582	-40.45
376.793	66.05
377.003	14.85
377.214	-9.73
377.424	109.05
377.635	20.99
377.845	18.94
378.055	152.06
378.266	-7.68
378.476	78.33
378.686	92.67
378.897	-26.11
379.107	170.49
379.317	111.1
379.528	-26.11
379.738	43.52
379.948	-48.64
380.158	107.01
380.369	-1.54
380.579	43.52
380.789	-30.21
380.999	76.29
381.21	78.33
381.42	160.25
381.63	4.61
381.84	25.09
382.05	88.57
382.261	123.39
382.471	94.72
382.681	-1.54
382.891	119.29
383.101	68.09
383.311	27.14
383.521	-28.16
383.731	92.67
383.941	109.05
384.151	74.24
384.361	2.56
384.571	57.86
384.781	45.57
384.991	127.49
385.201	190.97
385.411	43.52
385.621	80.38
385.831	141.82
386.041	64
386.251	43.52
386.461	158.21
386.671	76.29
386.881	98.81
387.091	45.57
387.301	84.48
387.511	96.77
387.72	107.01
387.93	90.62
388.14	-52.74
388.35	37.38
388.56	113.15
388.769	72.19
388.979	39.42
389.189	76.29
389.399	16.9
389.609	-5.63
389.818	41.47
390.028	84.48
390.238	29.18
390.447	14.85
390.657	109.05
390.867	49.66
391.076	-89.6
391.286	35.33
391.496	45.57
391.705	45.57
391.915	80.38
392.125	201.21
392.334	10.75
392.544	113.15
392.753	-11.78
392.963	-44.54
393.172	78.33
393.382	4.61
393.591	170.49
393.801	16.9
394.01	152.06
394.22	76.29
394.429	12.8
394.639	2.56
394.848	86.53
395.058	57.86
395.267	0.51
395.477	137.73
395.686	84.48
395.895	137.73
396.105	84.48
396.314	55.81
396.524	88.57
396.733	14.85
396.942	137.73
397.152	64
397.361	135.68
397.57	43.52
397.78	94.72
397.989	129.53
398.198	184.83
398.407	86.53
398.617	14.85
398.826	64
399.035	-9.73
399.244	158.21
399.453	94.72
399.663	80.38
399.872	96.77
400.081	-54.78
400.29	127.49
400.499	-9.73
400.708	127.49
400.917	-65.02
401.127	94.72
401.336	-34.3
401.545	100.86
401.754	96.77
401.963	147.97
402.172	10.75
402.381	-108.03
402.59	-3.58
402.799	33.28
403.008	113.15
403.217	92.67
403.426	137.73
403.635	-87.55
403.844	41.47
404.053	41.47
404.262	43.52
404.471	129.53
404.68	29.18
404.888	-1.54
405.097	14.85
405.306	70.14
405.515	145.92
405.724	51.71
405.933	76.29
406.142	80.38
406.35	143.87
406.559	92.67
406.768	-7.68
406.977	264.7
407.185	66.05
407.394	137.73
407.603	-44.54
407.812	104.96
408.02	150.01
408.229	0.51
408.438	80.38
408.646	-83.45
408.855	94.72
409.064	113.15
409.272	-19.97
409.481	104.96
409.69	-7.68
409.898	-56.83
410.107	123.39
410.315	72.19
410.524	-46.59
410.733	25.09
410.941	37.38
411.15	119.29
411.358	141.82
411.567	115.2
411.775	64
411.984	70.14
412.192	76.29
412.401	-7.68
412.609	217.6
412.818	119.29
413.026	74.24
413.234	-28.16
413.443	14.85
413.651	-81.41
413.86	37.38
414.068	158.21
414.276	195.07
414.485	-32.26
414.693	139.77
414.901	119.29
415.11	90.62
415.318	72.19
415.526	6.66
415.734	117.25
415.943	78.33
416.151	131.58
416.359	51.71
416.567	74.24
416.776	141.82
416.984	141.82
417.192	227.84
417.4	-54.78
417.608	61.95
417.817	-42.5
418.025	66.05
418.233	225.79
418.441	43.52
418.649	-67.07
418.857	64
419.065	92.67
419.273	82.43
419.481	94.72
419.689	37.38
419.897	10.75
420.105	-56.83
420.313	96.77
420.521	162.3
420.729	141.82
420.937	10.75
421.145	-13.82
421.353	141.82
421.561	184.83
421.769	139.77
421.977	43.52
422.185	113.15
422.393	45.57
422.601	160.25
422.809	88.57
423.017	90.62
423.224	88.57
423.432	107.01
423.64	20.99
423.848	113.15
424.056	-19.97
424.263	135.68
424.471	86.53
424.679	88.57
424.887	0.51
425.094	160.25
425.302	64
425.51	107.01
425.718	121.34
425.925	59.9
426.133	74.24
426.341	186.88
426.548	72.19
426.756	78.33
426.964	102.91
427.171	-44.54
427.379	37.38
427.586	145.92
427.794	94.72
428.001	123.39
428.209	14.85
428.417	117.25
428.624	133.63
428.832	127.49
429.039	-3.58
429.247	119.29
429.454	139.77
429.662	176.64
429.869	102.91
430.076	156.16
430.284	209.4
430.491	203.26
430.699	152.06
430.906	211.45
431.114	174.59
431.321	133.63
431.528	131.58
431.736	236.03
431.943	135.68
432.15	195.07
432.358	164.35
432.565	424.44
432.772	2.56
432.979	207.36
433.187	68.09
433.394	276.99
433.601	166.4
433.808	252.41
434.016	254.46
434.223	291.32
434.43	233.98
434.637	272.89
434.844	328.19
435.052	305.66
435.259	336.38
435.466	309.76
435.673	305.66
435.88	283.13
436.087	377.34
436.294	375.29
436.501	455.16
436.708	328.19
436.915	418.3
437.122	385.53
437.329	367.1
437.537	332.28
437.743	385.53
437.95	446.97
438.157	408.06
438.364	412.15
438.571	543.22
438.778	539.13
438.985	539.13
439.192	520.7
439.399	547.32
439.606	596.47
439.813	594.42
440.02	674.29
440.227	721.4
440.433	612.85
440.64	598.52
440.847	571.9
441.054	578.04
441.261	819.7
441.467	752.12
441.674	772.6
441.881	907.76
442.088	838.13
442.294	963.06
442.501	991.73
442.708	1006.06
442.914	885.23
443.121	1036.78
443.328	1116.65
443.534	1108.46
443.741	1108.46
443.948	1006.06
444.154	1141.23
444.361	1360.36
444.568	1223.15
444.774	1268.2
444.981	1239.53
445.187	1522.15
445.394	1448.43
445.6	1419.75
445.807	1696.23
446.013	1577.45
446.22	1522.15
446.426	1751.53
446.633	1792.48
446.839	1952.23
447.046	1765.86
447.252	2189.79
447.459	1995.23
447.665	2021.86
447.871	2179.55
448.078	2464.22
448.284	2324.96
448.491	2503.13
448.697	2697.69
448.903	2613.72
449.11	2693.59
449.316	2714.07
449.522	2963.92
449.728	3015.12
449.935	3154.38
450.141	3043.79
450.347	3412.43
450.553	3320.27
450.76	3387.85
450.966	3619.27
451.172	3740.1
451.378	3819.97
451.584	3946.95
451.791	4245.95
451.997	4434.36
452.203	4518.33
452.409	4819.38
452.615	4768.18
452.821	4794.81
453.027	4782.52
453.233	5523.88
453.44	5171.63
453.646	5560.75
453.852	5843.37
454.058	6074.79
454.264	6121.89
454.47	6705.56
454.676	6793.62
454.882	7303.57
455.088	6734.23
455.294	7242.13
455.5	7868.81
455.705	8243.59
455.911	8395.14
456.117	8419.71
456.323	8788.35
456.529	8714.62
456.735	9740.65
456.941	9884.01
457.147	10115.43
457.352	10443.1
457.558	10774.88
457.764	11446.61
457.97	11747.66
458.176	12056.9
458.381	12773.69
458.587	12990.78
458.793	13629.74
458.999	13793.58
459.204	15169.82
459.41	15855.89
459.616	15565.07
459.821	16558.34
460.027	17481.97
460.233	18039.02
460.438	17838.32
460.644	19357.91
460.85	19222.75
461.055	20121.8
461.261	20947.14
461.466	20621.51
461.672	21274.81
461.878	23629.98
462.083	23511.19
462.289	23765.14
462.494	24721.54
462.7	24864.9
462.905	25254.01
463.111	27545.69
463.316	28319.82
463.522	29151.3
463.727	30136.37
463.932	31014.95
464.138	32045.08
464.343	33286.15
464.549	33624.06
464.754	36167.64
464.959	36917.2
465.165	37392.33
465.37	36827.09
465.575	37676.99
465.781	39829.41
465.986	41271.18
466.191	40394.65
466.397	40511.38
466.602	39833.5
466.807	42188.67
467.012	43050.86
467.218	43405.16
467.423	43571.05
467.628	44676.95
467.833	47195.95
468.038	46626.62
