Data from USB4F104151__117__10-46-04-559.txt Node

Date: Wed Feb 26 10:46:04 EST 2025
User: louis
Spectrometer: USB4F10415
Trigger mode: 4
Integration Time (sec): 1.000000E-1
Scans to average: 1
Electric dark correction enabled: true
Nonlinearity correction enabled: false
Boxcar width: 0
XAxis mode: Wavelengths
Number of Pixels in Spectrum: 3648
>>>>>Begin Spectral Data<<<<<
178.204	-429.56
178.424	-429.56
178.644	-429.56
178.864	-437.75
179.084	-349.69
179.304	-9.73
179.524	-1.54
179.744	8.7
179.964	61.95
180.184	-15.87
180.404	-22.02
180.624	-5.63
180.844	-13.82
181.064	-44.54
181.283	84.48
181.503	-40.45
181.723	-1.54
181.943	-181.76
182.163	195.07
182.383	-5.63
182.602	59.9
182.822	133.63
183.042	100.86
183.262	-17.92
183.482	49.66
183.701	78.33
183.921	25.09
184.141	-50.69
184.361	107.01
184.58	43.52
184.8	-52.74
185.02	-13.82
185.239	31.23
185.459	72.19
185.679	104.96
185.898	-126.46
186.118	76.29
186.338	64
186.557	96.77
186.777	-65.02
186.997	57.86
187.216	51.71
187.436	145.92
187.655	88.57
187.875	119.29
188.095	33.28
188.314	59.9
188.534	133.63
188.753	27.14
188.973	117.25
189.192	207.36
189.412	33.28
189.631	20.99
189.851	0.51
190.07	209.4
190.29	-38.4
190.509	-36.35
190.729	29.18
190.948	166.4
191.168	225.79
191.387	49.66
191.607	-15.87
191.826	53.76
192.045	92.67
192.265	47.62
192.484	80.38
192.704	45.57
192.923	-114.17
193.142	213.5
193.362	78.33
193.581	133.63
193.8	61.95
194.02	141.82
194.239	66.05
194.458	55.81
194.678	29.18
194.897	-3.58
195.116	78.33
195.335	18.94
195.555	-15.87
195.774	-22.02
195.993	111.1
196.212	43.52
196.432	14.85
196.651	-22.02
196.87	70.14
197.089	270.84
197.308	53.76
197.528	90.62
197.747	25.09
197.966	113.15
198.185	39.42
198.404	-79.36
198.623	100.86
198.842	184.83
199.062	172.54
199.281	70.14
199.5	51.71
199.719	193.02
199.938	0.51
200.157	57.86
200.376	102.91
200.595	125.44
200.814	64
201.033	51.71
201.252	94.72
201.471	23.04
201.69	84.48
201.909	23.04
202.128	162.3
202.347	125.44
202.566	98.81
202.785	-116.22
203.004	31.23
203.223	221.69
203.442	14.85
203.661	27.14
203.879	82.43
204.098	119.29
204.317	-60.93
204.536	139.77
204.755	18.94
204.974	94.72
205.193	-60.93
205.411	193.02
205.63	76.29
205.849	57.86
206.068	-3.58
206.287	-42.5
206.505	49.66
206.724	86.53
206.943	-48.64
207.162	-40.45
207.381	55.81
207.599	45.57
207.818	68.09
208.037	-46.59
208.255	92.67
208.474	14.85
208.693	55.81
208.911	14.85
209.13	14.85
209.349	37.38
209.567	70.14
209.786	74.24
210.005	47.62
210.223	119.29
210.442	-81.41
210.661	53.76
210.879	111.1
211.098	37.38
211.316	-9.73
211.535	84.48
211.753	41.47
211.972	94.72
212.191	-17.92
212.409	43.52
212.628	78.33
212.846	-15.87
213.065	119.29
213.283	174.59
213.502	55.81
213.72	78.33
213.938	-30.21
214.157	61.95
214.375	92.67
214.594	80.38
214.812	123.39
215.031	-19.97
215.249	2.56
215.467	133.63
215.686	84.48
215.904	72.19
216.122	98.81
216.341	121.34
216.559	0.51
216.778	102.91
216.996	164.35
217.214	-1.54
217.432	39.42
217.651	-54.78
217.869	-11.78
218.087	66.05
218.306	61.95
218.524	57.86
218.742	-1.54
218.96	174.59
219.179	-9.73
219.397	76.29
219.615	207.36
219.833	55.81
220.051	4.61
220.27	82.43
220.488	80.38
220.706	23.04
220.924	-15.87
221.142	27.14
221.36	10.75
221.578	35.33
221.796	59.9
222.015	-48.64
222.233	-38.4
222.451	195.07
222.669	23.04
222.887	113.15
223.105	0.51
223.323	-58.88
223.541	6.66
223.759	115.2
223.977	4.61
224.195	170.49
224.413	57.86
224.631	86.53
224.849	31.23
225.067	211.45
225.285	39.42
225.503	43.52
225.721	-95.74
225.939	-1.54
226.157	123.39
226.375	188.93
226.592	14.85
226.81	-30.21
227.028	119.29
227.246	162.3
227.464	-1.54
227.682	70.14
227.9	6.66
228.117	64
228.335	129.53
228.553	53.76
228.771	39.42
228.989	70.14
229.206	133.63
229.424	-58.88
229.642	90.62
229.86	6.66
230.077	92.67
230.295	82.43
230.513	150.01
230.731	49.66
230.948	276.99
231.166	195.07
231.384	-11.78
231.601	-87.55
231.819	219.64
232.037	-19.97
232.254	-58.88
232.472	64
232.689	31.23
232.907	168.45
233.125	27.14
233.342	-9.73
233.56	-52.74
233.777	18.94
233.995	-9.73
234.213	14.85
234.43	121.34
234.648	-1.54
234.865	4.61
235.083	-1.54
235.3	66.05
235.518	115.2
235.735	150.01
235.953	53.76
236.17	51.71
236.388	-13.82
236.605	78.33
236.822	111.1
237.04	133.63
237.257	119.29
237.475	0.51
237.692	-3.58
237.909	18.94
238.127	-17.92
238.344	84.48
238.562	25.09
238.779	-22.02
238.996	43.52
239.214	14.85
239.431	119.29
239.648	33.28
239.865	84.48
240.083	70.14
240.3	-19.97
240.517	-13.82
240.735	41.47
240.952	123.39
241.169	84.48
241.386	84.48
241.603	68.09
241.821	-42.5
242.038	86.53
242.255	115.2
242.472	-9.73
242.689	90.62
242.907	119.29
243.124	-9.73
243.341	96.77
243.558	-13.82
243.775	-65.02
243.992	6.66
244.209	49.66
244.426	158.21
244.643	88.57
244.86	39.42
245.078	150.01
245.295	25.09
245.512	39.42
245.729	27.14
245.946	82.43
246.163	55.81
246.38	68.09
246.597	88.57
246.814	29.18
247.031	72.19
247.248	51.71
247.464	96.77
247.681	-34.3
247.898	88.57
248.115	96.77
248.332	-58.88
248.549	178.69
248.766	260.6
248.983	66.05
249.2	111.1
249.417	64
249.633	-71.17
249.85	33.28
250.067	-87.55
250.284	51.71
250.501	23.04
250.717	84.48
250.934	4.61
251.151	78.33
251.368	-30.21
251.585	115.2
251.801	-22.02
252.018	10.75
252.235	64
252.451	-60.93
252.668	-5.63
252.885	96.77
253.102	10.75
253.318	-34.3
253.535	25.09
253.752	-77.31
253.968	-65.02
254.185	-46.59
254.401	92.67
254.618	64
254.835	-3.58
255.051	115.2
255.268	152.06
255.484	16.9
255.701	49.66
255.917	80.38
256.134	-30.21
256.351	-11.78
256.567	-81.41
256.784	8.7
257	-13.82
257.217	139.77
257.433	131.58
257.65	23.04
257.866	154.11
258.082	-73.21
258.299	-24.06
258.515	23.04
258.732	4.61
258.948	-36.35
259.165	31.23
259.381	-79.36
259.597	109.05
259.814	64
260.03	-36.35
260.246	-26.11
260.463	117.25
260.679	98.81
260.895	53.76
261.112	16.9
261.328	14.85
261.544	-48.64
261.761	125.44
261.977	29.18
262.193	-1.54
262.409	184.83
262.626	37.38
262.842	131.58
263.058	53.76
263.274	113.15
263.49	-22.02
263.707	72.19
263.923	92.67
264.139	14.85
264.355	64
264.571	88.57
264.787	88.57
265.004	109.05
265.22	74.24
265.436	-65.02
265.652	-26.11
265.868	37.38
266.084	2.56
266.3	18.94
266.516	-30.21
266.732	14.85
266.948	35.33
267.164	88.57
267.38	141.82
267.596	49.66
267.812	139.77
268.028	-28.16
268.244	-17.92
268.46	68.09
268.676	14.85
268.892	47.62
269.108	41.47
269.324	2.56
269.54	-32.26
269.756	-34.3
269.972	12.8
270.188	-22.02
270.403	-67.07
270.619	55.81
270.835	33.28
271.051	61.95
271.267	-69.12
271.483	12.8
271.698	61.95
271.914	59.9
272.13	45.57
272.346	31.23
272.562	47.62
272.777	143.87
272.993	39.42
273.209	-22.02
273.425	98.81
273.64	57.86
273.856	109.05
274.072	-17.92
274.287	-26.11
274.503	86.53
274.719	168.45
274.934	47.62
275.15	4.61
275.366	59.9
275.581	68.09
275.797	25.09
276.012	8.7
276.228	-26.11
276.444	68.09
276.659	129.53
276.875	-3.58
277.09	12.8
277.306	23.04
277.521	104.96
277.737	-3.58
277.952	141.82
278.168	55.81
278.383	96.77
278.599	2.56
278.814	104.96
279.03	-5.63
279.245	127.49
279.461	100.86
279.676	111.1
279.892	-44.54
280.107	-44.54
280.322	-30.21
280.538	18.94
280.753	-11.78
280.969	64
281.184	74.24
281.399	137.73
281.615	57.86
281.83	127.49
282.045	-44.54
282.26	33.28
282.476	14.85
282.691	145.92
282.906	80.38
283.122	51.71
283.337	-1.54
283.552	51.71
283.767	2.56
283.983	92.67
284.198	-3.58
284.413	41.47
284.628	-73.21
284.843	86.53
285.058	49.66
285.274	31.23
285.489	-58.88
285.704	45.57
285.919	-32.26
286.134	-26.11
286.349	8.7
286.564	-34.3
286.779	170.49
286.995	74.24
287.21	-120.32
287.425	70.14
287.64	29.18
287.855	29.18
288.07	-46.59
288.285	111.1
288.5	164.35
288.715	-30.21
288.93	8.7
289.145	12.8
289.36	66.05
289.575	-17.92
289.79	90.62
290.004	0.51
290.219	72.19
290.434	25.09
290.649	6.66
290.864	72.19
291.079	59.9
291.294	47.62
291.509	49.66
291.724	8.7
291.938	-13.82
292.153	41.47
292.368	10.75
292.583	49.66
292.798	92.67
293.012	145.92
293.227	-1.54
293.442	-11.78
293.657	90.62
293.871	164.35
294.086	29.18
294.301	246.27
294.516	84.48
294.73	64
294.945	-13.82
295.16	31.23
295.374	150.01
295.589	98.81
295.804	2.56
296.018	115.2
296.233	145.92
296.447	76.29
296.662	-46.59
296.877	123.39
297.091	57.86
297.306	-3.58
297.52	29.18
297.735	-3.58
297.949	37.38
298.164	59.9
298.378	107.01
298.593	29.18
298.807	8.7
299.022	-7.68
299.236	92.67
299.451	41.47
299.665	68.09
299.88	88.57
300.094	8.7
300.309	76.29
300.523	20.99
300.737	88.57
300.952	45.57
301.166	145.92
301.381	-38.4
301.595	25.09
301.809	10.75
302.024	47.62
302.238	-44.54
302.452	111.1
302.667	102.91
302.881	184.83
303.095	72.19
303.309	61.95
303.524	0.51
303.738	29.18
303.952	-32.26
304.166	84.48
304.381	-65.02
304.595	174.59
304.809	25.09
305.023	41.47
305.237	59.9
305.452	14.85
305.666	107.01
305.88	55.81
306.094	49.66
306.308	20.99
306.522	64
306.736	76.29
306.95	90.62
307.164	6.66
307.379	-11.78
307.593	143.87
307.807	158.21
308.021	166.4
308.235	100.86
308.449	-48.64
308.663	39.42
308.877	168.45
309.091	59.9
309.305	86.53
309.519	-136.7
309.733	115.2
309.947	-60.93
310.161	66.05
310.374	47.62
310.588	145.92
310.802	49.66
311.016	-50.69
311.23	72.19
311.444	-11.78
311.658	78.33
311.872	61.95
312.085	154.11
312.299	143.87
312.513	129.53
312.727	74.24
312.941	4.61
313.154	55.81
313.368	55.81
313.582	-32.26
313.796	64
314.009	-19.97
314.223	117.25
314.437	82.43
314.651	100.86
314.864	-19.97
315.078	39.42
315.292	-89.6
315.505	66.05
315.719	88.57
315.933	53.76
316.146	-15.87
316.36	107.01
316.573	121.34
316.787	137.73
317.001	64
317.214	-24.06
317.428	23.04
317.641	-73.21
317.855	57.86
318.068	25.09
318.282	29.18
318.495	195.07
318.709	160.25
318.922	-24.06
319.136	139.77
319.349	164.35
319.563	2.56
319.776	139.77
319.99	-46.59
320.203	41.47
320.417	70.14
320.63	84.48
320.843	176.64
321.057	166.4
321.27	2.56
321.483	80.38
321.697	115.2
321.91	109.05
322.124	133.63
322.337	59.9
322.55	-13.82
322.763	98.81
322.977	-60.93
323.19	12.8
323.403	47.62
323.617	35.33
323.83	80.38
324.043	55.81
324.256	59.9
324.469	-44.54
324.683	16.9
324.896	-7.68
325.109	119.29
325.322	-32.26
325.535	72.19
325.748	115.2
325.962	-15.87
326.175	61.95
326.388	39.42
326.601	154.11
326.814	-17.92
327.027	39.42
327.24	145.92
327.453	-19.97
327.666	55.81
327.879	160.25
328.092	82.43
328.305	82.43
328.518	43.52
328.731	-40.45
328.944	35.33
329.157	61.95
329.37	4.61
329.583	201.21
329.796	49.66
330.009	-54.78
330.222	51.71
330.435	57.86
330.648	-5.63
330.861	53.76
331.073	113.15
331.286	135.68
331.499	70.14
331.712	96.77
331.925	78.33
332.138	119.29
332.35	102.91
332.563	25.09
332.776	127.49
332.989	16.9
333.202	45.57
333.414	35.33
333.627	64
333.84	31.23
334.053	80.38
334.265	66.05
334.478	61.95
334.691	41.47
334.903	53.76
335.116	23.04
335.329	57.86
335.541	78.33
335.754	223.74
335.966	41.47
336.179	23.04
336.392	33.28
336.604	2.56
336.817	90.62
337.029	115.2
337.242	57.86
337.454	88.57
337.667	109.05
337.88	133.63
338.092	92.67
338.305	72.19
338.517	61.95
338.729	55.81
338.942	135.68
339.154	-38.4
339.367	-58.88
339.579	160.25
339.792	-36.35
340.004	61.95
340.217	0.51
340.429	23.04
340.641	6.66
340.854	25.09
341.066	41.47
341.278	16.9
341.491	188.93
341.703	43.52
341.915	-17.92
342.128	152.06
342.34	84.48
342.552	-13.82
342.764	16.9
342.977	6.66
343.189	68.09
343.401	43.52
343.613	-56.83
343.826	31.23
344.038	0.51
344.25	45.57
344.462	10.75
344.674	76.29
344.886	100.86
345.099	51.71
345.311	111.1
345.523	20.99
345.735	-15.87
345.947	80.38
346.159	-9.73
346.371	70.14
346.583	-17.92
346.795	322.04
347.007	53.76
347.219	31.23
347.431	-52.74
347.643	57.86
347.855	12.8
348.067	152.06
348.279	-40.45
348.491	4.61
348.703	88.57
348.915	55.81
349.127	-26.11
349.339	-9.73
349.551	12.8
349.763	109.05
349.975	-3.58
350.187	168.45
350.399	190.97
350.61	123.39
350.822	133.63
351.034	8.7
351.246	121.34
351.458	96.77
351.669	107.01
351.881	119.29
352.093	111.1
352.305	113.15
352.517	49.66
352.728	88.57
352.94	82.43
353.152	90.62
353.363	-87.55
353.575	37.38
353.787	131.58
353.999	31.23
354.21	152.06
354.422	-91.65
354.633	51.71
354.845	59.9
355.057	55.81
355.268	125.44
355.48	180.73
355.692	0.51
355.903	72.19
356.115	64
356.326	-62.98
356.538	172.54
356.749	113.15
356.961	139.77
357.172	121.34
357.384	-34.3
357.595	219.64
357.807	-97.79
358.018	-3.58
358.23	49.66
358.441	180.73
358.653	88.57
358.864	41.47
359.075	43.52
359.287	100.86
359.498	51.71
359.709	57.86
359.921	-3.58
360.132	84.48
360.344	8.7
360.555	37.38
360.766	14.85
360.977	12.8
361.189	45.57
361.4	29.18
361.611	102.91
361.823	90.62
362.034	31.23
362.245	-79.36
362.456	18.94
362.667	137.73
362.879	2.56
363.09	107.01
363.301	86.53
363.512	78.33
363.723	43.52
363.935	6.66
364.146	129.53
364.357	41.47
364.568	41.47
364.779	35.33
364.99	18.94
365.201	64
365.412	137.73
365.623	-17.92
365.834	102.91
366.045	92.67
366.256	39.42
366.467	49.66
366.678	-28.16
366.889	-7.68
367.1	-3.58
367.311	168.45
367.522	-5.63
367.733	23.04
367.944	115.2
368.155	25.09
368.366	25.09
368.577	27.14
368.788	168.45
368.999	-5.63
369.209	66.05
369.42	186.88
369.631	285.18
369.842	94.72
370.053	39.42
370.264	98.81
370.474	35.33
370.685	14.85
370.896	8.7
371.107	147.97
371.317	123.39
371.528	90.62
371.739	123.39
371.95	35.33
372.16	137.73
372.371	-65.02
372.582	29.18
372.792	88.57
373.003	74.24
373.214	115.2
373.424	68.09
373.635	-32.26
373.846	180.73
374.056	25.09
374.267	74.24
374.477	45.57
374.688	27.14
374.898	94.72
375.109	35.33
375.319	59.9
375.53	127.49
375.74	88.57
375.951	20.99
376.161	49.66
376.372	141.82
376.582	53.76
376.793	84.48
377.003	-48.64
377.214	-42.5
377.424	111.1
377.635	-7.68
377.845	33.28
378.055	94.72
378.266	-97.79
378.476	82.43
378.686	55.81
378.897	80.38
379.107	98.81
379.317	33.28
379.528	10.75
379.738	104.96
379.948	-5.63
380.158	195.07
380.369	18.94
380.579	96.77
380.789	20.99
380.999	59.9
381.21	25.09
381.42	141.82
381.63	-5.63
381.84	160.25
382.05	145.92
382.261	125.44
382.471	150.01
382.681	8.7
382.891	115.2
383.101	37.38
383.311	-26.11
383.521	12.8
383.731	84.48
383.941	107.01
384.151	211.45
384.361	43.52
384.571	90.62
384.781	70.14
384.991	195.07
385.201	203.26
385.411	137.73
385.621	104.96
385.831	139.77
386.041	76.29
386.251	70.14
386.461	90.62
386.671	55.81
386.881	41.47
387.091	104.96
387.301	115.2
387.511	37.38
387.72	86.53
387.93	147.97
388.14	-9.73
388.35	-26.11
388.56	109.05
388.769	98.81
388.979	-17.92
389.189	59.9
389.399	33.28
389.609	102.91
389.818	113.15
390.028	16.9
390.238	102.91
390.447	33.28
390.657	86.53
390.867	18.94
391.076	-30.21
391.286	94.72
391.496	25.09
391.705	-5.63
391.915	223.74
392.125	104.96
392.334	10.75
392.544	104.96
392.753	111.1
392.963	0.51
393.172	33.28
393.382	-58.88
393.591	262.65
393.801	-17.92
394.01	102.91
394.22	145.92
394.429	4.61
394.639	64
394.848	172.54
395.058	160.25
395.267	-7.68
395.477	55.81
395.686	88.57
395.895	244.22
396.105	186.88
396.314	14.85
396.524	94.72
396.733	35.33
396.942	70.14
397.152	51.71
397.361	150.01
397.57	59.9
397.78	-22.02
397.989	115.2
398.198	248.32
398.407	74.24
398.617	84.48
398.826	-26.11
399.035	59.9
399.244	141.82
399.453	102.91
399.663	121.34
399.872	49.66
400.081	-83.45
400.29	186.88
400.499	-30.21
400.708	158.21
400.917	45.57
401.127	64
401.336	-17.92
401.545	152.06
401.754	152.06
401.963	170.49
402.172	74.24
402.381	-85.5
402.59	2.56
402.799	25.09
403.008	143.87
403.217	27.14
403.426	35.33
403.635	-48.64
403.844	72.19
404.053	82.43
404.262	23.04
404.471	147.97
404.68	45.57
404.888	61.95
405.097	41.47
405.306	104.96
405.515	51.71
405.724	121.34
405.933	109.05
406.142	70.14
406.35	100.86
406.559	61.95
406.768	88.57
406.977	158.21
407.185	92.67
407.394	111.1
407.603	18.94
407.812	29.18
408.02	186.88
408.229	53.76
408.438	98.81
408.646	-5.63
408.855	29.18
409.064	72.19
409.272	-19.97
409.481	98.81
409.69	29.18
409.898	49.66
410.107	45.57
410.315	168.45
410.524	4.61
410.733	27.14
410.941	57.86
411.15	125.44
411.358	117.25
411.567	154.11
411.775	88.57
411.984	61.95
412.192	84.48
412.401	27.14
412.609	213.5
412.818	129.53
413.026	66.05
413.234	0.51
413.443	2.56
413.651	-13.82
413.86	59.9
414.068	129.53
414.276	172.54
414.485	-7.68
414.693	133.63
414.901	193.02
415.11	92.67
415.318	12.8
415.526	104.96
415.734	160.25
415.943	82.43
416.151	158.21
416.359	80.38
416.567	64
416.776	160.25
416.984	92.67
417.192	182.78
417.4	84.48
417.608	29.18
417.817	31.23
418.025	135.68
418.233	129.53
418.441	90.62
418.649	29.18
418.857	47.62
419.065	141.82
419.273	6.66
419.481	70.14
419.689	86.53
419.897	59.9
420.105	-30.21
420.313	145.92
420.521	203.26
420.729	143.87
420.937	43.52
421.145	-40.45
421.353	115.2
421.561	172.54
421.769	94.72
421.977	-36.35
422.185	145.92
422.393	92.67
422.601	76.29
422.809	92.67
423.017	133.63
423.224	117.25
423.432	125.44
423.64	78.33
423.848	127.49
424.056	59.9
424.263	160.25
424.471	49.66
424.679	223.74
424.887	8.7
425.094	164.35
425.302	121.34
425.51	14.85
425.718	178.69
425.925	104.96
426.133	51.71
426.341	207.36
426.548	119.29
426.756	59.9
426.964	160.25
427.171	-1.54
427.379	94.72
427.586	129.53
427.794	70.14
428.001	188.93
428.209	152.06
428.417	188.93
428.624	147.97
428.832	131.58
429.039	184.83
429.247	160.25
429.454	229.88
429.662	283.13
429.869	209.4
430.076	143.87
430.284	158.21
430.491	180.73
430.699	268.8
430.906	287.23
431.114	186.88
431.321	166.4
431.528	145.92
431.736	207.36
431.943	195.07
432.15	252.41
432.358	211.45
432.565	221.69
432.772	59.9
432.979	287.23
433.187	96.77
433.394	262.65
433.601	252.41
433.808	283.13
434.016	289.28
434.223	342.52
434.43	199.16
434.637	365.05
434.844	320
435.052	254.46
435.259	387.58
435.466	313.85
435.673	268.8
435.88	328.19
436.087	383.48
436.294	477.69
436.501	414.2
436.708	346.62
436.915	315.9
437.122	399.87
437.329	332.28
437.537	469.5
437.743	479.74
437.95	571.9
438.157	436.73
438.364	426.49
438.571	498.17
438.778	569.85
438.985	567.8
439.192	666.1
439.399	504.31
439.606	580.09
439.813	582.14
440.02	821.75
440.227	854.51
440.433	725.49
440.64	672.25
440.847	717.3
441.054	862.71
441.261	803.32
441.467	760.31
441.674	821.75
441.881	879.09
442.088	858.61
442.294	958.96
442.501	979.44
442.708	1038.83
442.914	1032.69
443.121	1184.24
443.328	1149.42
443.534	1251.82
443.741	1174
443.948	1128.94
444.154	1204.72
444.361	1493.48
444.568	1354.22
444.774	1427.95
444.981	1266.16
445.187	1481.19
445.394	1516.01
445.6	1530.34
445.807	1710.57
446.013	1671.65
446.22	1665.51
446.426	1792.48
446.633	1874.4
446.839	2169.31
447.046	1929.7
447.252	2105.82
447.459	2028
447.665	2064.86
447.871	2316.76
448.078	2589.14
448.284	2443.74
448.491	2636.25
448.697	2789.85
448.903	2826.71
449.11	2859.48
449.316	2814.42
449.522	3082.7
449.728	3250.64
449.935	3224.01
450.141	3402.19
450.347	3545.55
450.553	3621.32
450.76	3592.65
450.966	3834.31
451.172	3977.67
451.378	4258.24
451.584	4250.05
451.791	4456.89
451.997	4590.01
452.203	4805.05
452.409	4981.17
452.615	5034.42
452.821	4983.22
453.027	5044.66
453.233	5613.99
453.44	5747.11
453.646	5937.57
453.852	6107.55
454.058	6230.43
454.264	6547.87
454.47	6818.2
454.676	7102.87
454.882	7510.41
455.088	7336.34
455.294	7614.86
455.5	8024.45
455.705	8638.84
455.911	8685.95
456.117	8872.31
456.323	9079.16
456.529	9312.63
456.735	9906.54
456.941	10199.4
457.147	10623.33
457.352	10871.13
457.558	11225.43
457.764	11921.74
457.97	12153.16
458.176	12669.25
458.381	13420.85
458.587	13513.01
458.793	14203.18
458.999	14434.6
459.204	16003.34
459.41	16582.91
459.616	16179.47
459.821	17242.36
460.027	17967.34
460.233	18897.12
460.438	18874.59
460.644	20037.84
460.85	20089.04
461.055	21078.21
461.261	22073.52
461.466	21725.36
461.672	21909.68
461.878	24436.88
462.083	24244.37
462.289	24795.27
462.494	25905.27
462.7	26046.58
462.905	26400.88
463.111	28293.2
463.316	29751.35
463.522	30187.57
463.727	31594.53
463.932	32606.22
464.138	33433.6
464.343	35162.09
464.549	35467.23
464.754	37576.64
464.959	38612.91
465.165	39088.04
465.37	38768.56
465.575	38709.17
465.781	41420.68
465.986	42504.06
466.191	42131.33
466.397	42596.21
466.602	41240.46
466.807	43755.36
467.012	44599.13
467.218	45221.71
467.423	45055.82
467.628	46346.04
467.833	48518.94
468.038	47834.92
468.244	47044.4
468.449	49694.47
468.654	48215.84
468.859	48271.14
469.064	48293.66
