Data from USB4F104151__243__11-19-45-037.txt Node

Date: Wed Feb 26 11:19:45 EST 2025
User: louis
Spectrometer: USB4F10415
Trigger mode: 4
Integration Time (sec): 1.000000E-1
Scans to average: 1
Electric dark correction enabled: true
Nonlinearity correction enabled: false
Boxcar width: 0
XAxis mode: Wavelengths
Number of Pixels in Spectrum: 3648
>>>>>Begin Spectral Data<<<<<
178.204	-438.95
178.424	-438.95
178.644	-438.95
178.864	-377.51
179.084	-350.89
179.304	68.95
179.524	-29.35
179.744	9.56
179.964	13.65
180.184	-4.78
180.404	99.67
180.624	-15.02
180.844	32.08
181.064	-37.55
181.283	11.61
181.503	-160.42
181.723	11.61
181.943	-23.21
182.163	148.82
182.383	-8.87
182.602	120.15
182.822	210.26
183.042	152.91
183.262	-31.4
183.482	-23.21
183.701	130.39
183.921	83.28
184.141	-43.69
184.361	38.23
184.58	64.85
184.8	89.43
185.02	1.37
185.239	128.34
185.459	99.67
185.679	132.44
185.898	-92.84
186.118	46.42
186.338	25.94
186.557	120.15
186.777	-21.16
186.997	7.51
187.216	48.47
187.436	204.11
187.655	68.95
187.875	116.05
188.095	52.56
188.314	60.76
188.534	111.96
188.753	-8.87
188.973	167.25
189.192	185.68
189.412	-29.35
189.631	-41.64
189.851	75.09
190.07	236.88
190.29	-4.78
190.509	-19.11
190.729	42.32
190.948	116.05
191.168	279.89
191.387	105.81
191.607	52.56
191.826	85.33
192.045	1.37
192.265	62.8
192.484	136.53
192.704	23.89
192.923	-19.11
193.142	200.02
193.362	97.62
193.581	181.59
193.8	81.24
194.02	109.91
194.239	126.29
194.458	109.91
194.678	54.61
194.897	3.41
195.116	38.23
195.335	93.52
195.555	109.91
195.774	9.56
195.993	150.87
196.212	34.13
196.432	89.43
196.651	-37.55
196.87	32.08
197.089	187.73
197.308	87.38
197.528	109.91
197.747	17.75
197.966	62.8
198.185	83.28
198.404	-4.78
198.623	58.71
198.842	146.77
199.062	118.1
199.281	99.67
199.5	21.84
199.719	105.81
199.938	58.71
200.157	99.67
200.376	38.23
200.595	157.01
200.814	126.29
201.033	58.71
201.252	208.21
201.471	142.68
201.69	77.14
201.909	68.95
202.128	75.09
202.347	68.95
202.566	19.8
202.785	-27.31
203.004	-45.74
203.223	290.13
203.442	68.95
203.661	-53.93
203.879	142.68
204.098	150.87
204.317	-23.21
204.536	126.29
204.755	107.86
204.974	126.29
205.193	68.95
205.411	195.92
205.63	210.26
205.849	36.18
206.068	-43.69
206.287	-68.27
206.505	120.15
206.724	38.23
206.943	3.41
207.162	-25.26
207.381	138.58
207.599	66.9
207.818	71
208.037	-58.03
208.255	-4.78
208.474	75.09
208.693	50.52
208.911	17.75
209.13	116.05
209.349	134.48
209.567	130.39
209.786	36.18
210.005	81.24
210.223	64.85
210.442	-6.83
210.661	58.71
210.879	48.47
211.098	5.46
211.316	111.96
211.535	23.89
211.753	122.2
211.972	54.61
212.191	-2.73
212.409	-12.97
212.628	77.14
212.846	1.37
213.065	134.48
213.283	232.79
213.502	56.66
213.72	85.33
213.938	25.94
214.157	-21.16
214.375	150.87
214.594	25.94
214.812	97.62
215.031	50.52
215.249	25.94
215.467	17.75
215.686	68.95
215.904	40.28
216.122	122.2
216.341	91.48
216.559	81.24
216.778	50.52
216.996	146.77
217.214	-35.5
217.432	1.37
217.651	71
217.869	56.66
218.087	126.29
218.306	60.76
218.524	27.99
218.742	19.8
218.96	23.89
219.179	27.99
219.397	-64.17
219.615	187.73
219.833	197.97
220.051	11.61
220.27	64.85
220.488	66.9
220.706	97.62
220.924	-12.97
221.142	27.99
221.36	101.72
221.578	142.68
221.796	-72.36
222.015	79.19
222.233	79.19
222.451	150.87
222.669	-47.79
222.887	42.32
223.105	-41.64
223.323	101.72
223.541	-0.68
223.759	48.47
223.977	105.81
224.195	154.96
224.413	206.16
224.631	32.08
224.849	-12.97
225.067	281.94
225.285	46.42
225.503	32.08
225.721	-27.31
225.939	-51.88
226.157	77.14
226.375	218.45
226.592	-33.45
226.81	11.61
227.028	159.06
227.246	140.63
227.464	111.96
227.682	195.92
227.9	5.46
228.117	36.18
228.335	109.91
228.553	79.19
228.771	64.85
228.989	87.38
229.206	105.81
229.424	48.47
229.642	83.28
229.86	-25.26
230.077	173.39
230.295	79.19
230.513	89.43
230.731	79.19
230.948	232.79
231.166	191.83
231.384	3.41
231.601	83.28
231.819	232.79
232.037	30.04
232.254	-41.64
232.472	15.7
232.689	5.46
232.907	101.72
233.125	-4.78
233.342	9.56
233.56	38.23
233.777	-33.45
233.995	1.37
234.213	132.44
234.43	62.8
234.648	75.09
234.865	42.32
235.083	56.66
235.3	154.96
235.518	5.46
235.735	136.53
235.953	73.04
236.17	60.76
236.388	85.33
236.605	109.91
236.822	77.14
237.04	66.9
237.257	105.81
237.475	-37.55
237.692	93.52
237.909	120.15
238.127	60.76
238.344	-8.87
238.562	122.2
238.779	-25.26
238.996	3.41
239.214	68.95
239.431	60.76
239.648	27.99
239.865	142.68
240.083	46.42
240.3	56.66
240.517	81.24
240.735	-6.83
240.952	290.13
241.169	73.04
241.386	140.63
241.603	9.56
241.821	-6.83
242.038	130.39
242.255	124.24
242.472	-8.87
242.689	144.72
242.907	73.04
243.124	79.19
243.341	5.46
243.558	36.18
243.775	32.08
243.992	-23.21
244.209	79.19
244.426	105.81
244.643	120.15
244.86	32.08
245.078	81.24
245.295	103.76
245.512	-12.97
245.729	54.61
245.946	136.53
246.163	83.28
246.38	-21.16
246.597	101.72
246.814	101.72
247.031	54.61
247.248	40.28
247.464	91.48
247.681	142.68
247.898	91.48
248.115	109.91
248.332	19.8
248.549	159.06
248.766	128.34
248.983	40.28
249.2	56.66
249.417	144.72
249.633	-47.79
249.85	-0.68
250.067	85.33
250.284	52.56
250.501	64.85
250.717	144.72
250.934	-43.69
251.151	73.04
251.368	-10.92
251.585	79.19
251.801	7.51
252.018	44.37
252.235	114
252.451	-68.27
252.668	58.71
252.885	109.91
253.102	34.13
253.318	44.37
253.535	23.89
253.752	-10.92
253.968	-4.78
254.185	-53.93
254.401	64.85
254.618	40.28
254.835	-33.45
255.051	185.68
255.268	73.04
255.484	81.24
255.701	105.81
255.917	109.91
256.134	66.9
256.351	68.95
256.567	-21.16
256.784	124.24
257	-82.6
257.217	140.63
257.433	134.48
257.65	50.52
257.866	93.52
258.082	42.32
258.299	3.41
258.515	99.67
258.732	9.56
258.948	-17.07
259.165	40.28
259.381	-64.17
259.597	124.24
259.814	19.8
260.03	99.67
260.246	23.89
260.463	132.44
260.679	140.63
260.895	21.84
261.112	71
261.328	89.43
261.544	1.37
261.761	195.92
261.977	52.56
262.193	11.61
262.409	163.15
262.626	68.95
262.842	11.61
263.058	11.61
263.274	107.86
263.49	-25.26
263.707	101.72
263.923	83.28
264.139	-49.83
264.355	40.28
264.571	140.63
264.787	114
265.004	195.92
265.22	85.33
265.436	-37.55
265.652	-0.68
265.868	17.75
266.084	11.61
266.3	77.14
266.516	-27.31
266.732	68.95
266.948	11.61
267.164	-23.21
267.38	105.81
267.596	146.77
267.812	195.92
268.028	71
268.244	23.89
268.46	1.37
268.676	44.37
268.892	130.39
269.108	-68.27
269.324	36.18
269.54	-49.83
269.756	118.1
269.972	-70.31
270.188	-23.21
270.403	-41.64
270.619	7.51
270.835	54.61
271.051	138.58
271.267	27.99
271.483	-39.59
271.698	89.43
271.914	-21.16
272.13	66.9
272.346	44.37
272.562	-12.97
272.777	140.63
272.993	50.52
273.209	46.42
273.425	62.8
273.64	-96.94
273.856	142.68
274.072	36.18
274.287	64.85
274.503	111.96
274.719	85.33
274.934	17.75
275.15	-139.94
275.366	34.13
275.581	-29.35
275.797	25.94
276.012	120.15
276.228	32.08
276.444	58.71
276.659	181.59
276.875	-76.46
277.09	79.19
277.306	50.52
277.521	62.8
277.737	7.51
277.952	107.86
278.168	77.14
278.383	62.8
278.599	58.71
278.814	87.38
279.03	40.28
279.245	71
279.461	81.24
279.676	148.82
279.892	-2.73
280.107	-4.78
280.322	32.08
280.538	38.23
280.753	-31.4
280.969	148.82
281.184	38.23
281.399	126.29
281.615	44.37
281.83	66.9
282.045	-12.97
282.26	-10.92
282.476	-23.21
282.691	60.76
282.906	150.87
283.122	11.61
283.337	-0.68
283.552	91.48
283.767	-23.21
283.983	132.44
284.198	25.94
284.413	146.77
284.628	-74.41
284.843	99.67
285.058	73.04
285.274	58.71
285.489	42.32
285.704	169.3
285.919	15.7
286.134	58.71
286.349	-2.73
286.564	-43.69
286.779	171.35
286.995	25.94
287.21	-4.78
287.425	130.39
287.64	1.37
287.855	64.85
288.07	15.7
288.285	64.85
288.5	247.12
288.715	146.77
288.93	75.09
289.145	79.19
289.36	142.68
289.575	-25.26
289.79	144.72
290.004	-2.73
290.219	132.44
290.434	-43.69
290.649	32.08
290.864	3.41
291.079	32.08
291.294	116.05
291.509	58.71
291.724	93.52
291.938	-51.88
292.153	77.14
292.368	56.66
292.583	38.23
292.798	-15.02
293.012	58.71
293.227	54.61
293.442	-0.68
293.657	87.38
293.871	197.97
294.086	64.85
294.301	193.87
294.516	183.63
294.73	54.61
294.945	-8.87
295.16	50.52
295.374	161.11
295.589	93.52
295.804	-6.83
296.018	64.85
296.233	120.15
296.447	134.48
296.662	34.13
296.877	114
297.091	150.87
297.306	5.46
297.52	126.29
297.735	44.37
297.949	83.28
298.164	120.15
298.378	75.09
298.593	-39.59
298.807	5.46
299.022	58.71
299.236	111.96
299.451	-33.45
299.665	93.52
299.88	89.43
300.094	48.47
300.309	40.28
300.523	64.85
300.737	-25.26
300.952	142.68
301.166	103.76
301.381	-80.55
301.595	25.94
301.809	56.66
302.024	11.61
302.238	-0.68
302.452	122.2
302.667	-2.73
302.881	122.2
303.095	138.58
303.309	79.19
303.524	9.56
303.738	30.04
303.952	-17.07
304.166	85.33
304.381	-45.74
304.595	148.82
304.809	42.32
305.023	58.71
305.237	15.7
305.452	48.47
305.666	128.34
305.88	75.09
306.094	148.82
306.308	144.72
306.522	62.8
306.736	132.44
306.95	79.19
307.164	103.76
307.379	-12.97
307.593	105.81
307.807	75.09
308.021	142.68
308.235	97.62
308.449	-31.4
308.663	-12.97
308.877	193.87
309.091	58.71
309.305	66.9
309.519	-53.93
309.733	191.83
309.947	-41.64
310.161	85.33
310.374	93.52
310.588	116.05
310.802	-15.02
311.016	13.65
311.23	64.85
311.444	81.24
311.658	27.99
311.872	181.59
312.085	132.44
312.299	122.2
312.513	148.82
312.727	17.75
312.941	-53.93
313.154	15.7
313.368	130.39
313.582	50.52
313.796	140.63
314.009	95.57
314.223	197.97
314.437	95.57
314.651	103.76
314.864	7.51
315.078	-23.21
315.292	-19.11
315.505	-25.26
315.719	148.82
315.933	101.72
316.146	93.52
316.36	-47.79
316.573	122.2
316.787	111.96
317.001	157.01
317.214	-35.5
317.428	77.14
317.641	-45.74
317.855	66.9
318.068	79.19
318.282	95.57
318.495	171.35
318.709	54.61
318.922	64.85
319.136	161.11
319.349	165.2
319.563	120.15
319.776	120.15
319.99	-51.88
320.203	89.43
320.417	58.71
320.63	52.56
320.843	128.34
321.057	134.48
321.27	-4.78
321.483	50.52
321.697	146.77
321.91	93.52
322.124	75.09
322.337	3.41
322.55	38.23
322.763	116.05
322.977	21.84
323.19	93.52
323.403	48.47
323.617	54.61
323.83	165.2
324.043	30.04
324.256	68.95
324.469	-21.16
324.683	118.1
324.896	71
325.109	73.04
325.322	-0.68
325.535	99.67
325.748	103.76
325.962	38.23
326.175	101.72
326.388	77.14
326.601	124.24
326.814	46.42
327.027	54.61
327.24	197.97
327.453	-119.46
327.666	-4.78
327.879	148.82
328.092	93.52
328.305	109.91
328.518	56.66
328.731	-23.21
328.944	-8.87
329.157	175.44
329.37	-45.74
329.583	130.39
329.796	83.28
330.009	-45.74
330.222	181.59
330.435	107.86
330.648	54.61
330.861	19.8
331.073	142.68
331.286	95.57
331.499	25.94
331.712	-31.4
331.925	73.04
332.138	-4.78
332.35	103.76
332.563	48.47
332.776	146.77
332.989	9.56
333.202	9.56
333.414	-21.16
333.627	42.32
333.84	25.94
334.053	7.51
334.265	21.84
334.478	36.18
334.691	58.71
334.903	60.76
335.116	66.9
335.329	52.56
335.541	159.06
335.754	202.07
335.966	54.61
336.179	105.81
336.392	62.8
336.604	30.04
336.817	40.28
337.029	130.39
337.242	-0.68
337.454	77.14
337.667	32.08
337.88	218.45
338.092	54.61
338.305	142.68
338.517	79.19
338.729	138.58
338.942	193.87
339.154	-80.55
339.367	25.94
339.579	105.81
339.792	-47.79
340.004	99.67
340.217	23.89
340.429	130.39
340.641	15.7
340.854	66.9
341.066	48.47
341.278	142.68
341.491	228.69
341.703	44.37
341.915	91.48
342.128	79.19
342.34	105.81
342.552	-0.68
342.764	83.28
342.977	105.81
343.189	62.8
343.401	107.86
343.613	-31.4
343.826	58.71
344.038	-6.83
344.25	197.97
344.462	34.13
344.674	114
344.886	11.61
345.099	167.25
345.311	95.57
345.523	95.57
345.735	-137.9
345.947	36.18
346.159	23.89
346.371	107.86
346.583	11.61
346.795	247.12
347.007	15.7
347.219	71
347.431	11.61
347.643	185.68
347.855	62.8
348.067	197.97
348.279	-10.92
348.491	60.76
348.703	95.57
348.915	-21.16
349.127	111.96
349.339	73.04
349.551	25.94
349.763	111.96
349.975	103.76
350.187	81.24
350.399	134.48
350.61	93.52
350.822	-12.97
351.034	77.14
351.246	165.2
351.458	87.38
351.669	66.9
351.881	60.76
352.093	132.44
352.305	81.24
352.517	58.71
352.728	154.96
352.94	46.42
353.152	132.44
353.363	-60.07
353.575	85.33
353.787	230.74
353.999	136.53
354.21	140.63
354.422	-55.98
354.633	-51.88
354.845	32.08
355.057	126.29
355.268	165.2
355.48	68.95
355.692	-25.26
355.903	68.95
356.115	95.57
356.326	-90.79
356.538	197.97
356.749	48.47
356.961	134.48
357.172	38.23
357.384	-25.26
357.595	195.92
357.807	-55.98
358.018	-27.31
358.23	73.04
358.441	79.19
358.653	85.33
358.864	77.14
359.075	-6.83
359.287	97.62
359.498	103.76
359.709	58.71
359.921	107.86
360.132	107.86
360.344	87.38
360.555	13.65
360.766	87.38
360.977	81.24
361.189	132.44
361.4	48.47
361.611	99.67
361.823	93.52
362.034	62.8
362.245	-117.42
362.456	11.61
362.667	114
362.879	11.61
363.09	105.81
363.301	144.72
363.512	116.05
363.723	-53.93
363.935	-10.92
364.146	154.96
364.357	-68.27
364.568	109.91
364.779	-8.87
364.99	150.87
365.201	-64.17
365.412	128.34
365.623	-49.83
365.834	97.62
366.045	36.18
366.256	109.91
366.467	146.77
366.678	68.95
366.889	68.95
367.1	-21.16
367.311	159.06
367.522	-15.02
367.733	54.61
367.944	111.96
368.155	50.52
368.366	150.87
368.577	210.26
368.788	99.67
368.999	-43.69
369.209	21.84
369.42	128.34
369.631	273.75
369.842	124.24
370.053	-4.78
370.264	103.76
370.474	-6.83
370.685	11.61
370.896	83.28
371.107	208.21
371.317	23.89
371.528	15.7
371.739	185.68
371.95	150.87
372.16	75.09
372.371	15.7
372.582	23.89
372.792	132.44
373.003	99.67
373.214	120.15
373.424	122.2
373.635	-21.16
373.846	150.87
374.056	71
374.267	50.52
374.477	124.24
374.688	19.8
374.898	42.32
375.109	64.85
375.319	52.56
375.53	200.02
375.74	146.77
375.951	-0.68
376.161	66.9
376.372	144.72
376.582	17.75
376.793	173.39
377.003	-0.68
377.214	-15.02
377.424	54.61
377.635	-4.78
377.845	-23.21
378.055	148.82
378.266	-76.46
378.476	87.38
378.686	122.2
378.897	93.52
379.107	105.81
379.317	73.04
379.528	-2.73
379.738	134.48
379.948	-53.93
380.158	109.91
380.369	44.37
380.579	126.29
380.789	62.8
380.999	105.81
381.21	144.72
381.42	208.21
381.63	83.28
381.84	93.52
382.05	87.38
382.261	103.76
382.471	175.44
382.681	25.94
382.891	257.36
383.101	81.24
383.311	50.52
383.521	52.56
383.731	89.43
383.941	114
384.151	130.39
384.361	79.19
384.571	120.15
384.781	44.37
384.991	191.83
385.201	169.3
385.411	95.57
385.621	77.14
385.831	142.68
386.041	105.81
386.251	42.32
386.461	120.15
386.671	85.33
386.881	68.95
387.091	58.71
387.301	85.33
387.511	23.89
387.72	122.2
387.93	124.24
388.14	-47.79
388.35	68.95
388.56	128.34
388.769	144.72
388.979	77.14
389.189	-76.46
389.399	75.09
389.609	105.81
389.818	93.52
390.028	73.04
390.238	140.63
390.447	-19.11
390.657	120.15
390.867	118.1
391.076	-17.07
391.286	132.44
391.496	40.28
391.705	64.85
391.915	159.06
392.125	144.72
392.334	30.04
392.544	181.59
392.753	105.81
392.963	40.28
393.172	46.42
393.382	-25.26
393.591	200.02
393.801	56.66
394.01	197.97
394.22	124.24
394.429	9.56
394.639	36.18
394.848	132.44
395.058	128.34
395.267	-4.78
395.477	163.15
395.686	36.18
395.895	191.83
396.105	304.46
396.314	85.33
396.524	68.95
396.733	25.94
396.942	66.9
397.152	144.72
397.361	159.06
397.57	114
397.78	83.28
397.989	87.38
398.198	230.74
398.407	1.37
398.617	124.24
398.826	58.71
399.035	-6.83
399.244	79.19
399.453	89.43
399.663	66.9
399.872	132.44
400.081	5.46
400.29	152.91
400.499	-45.74
400.708	114
400.917	97.62
401.127	36.18
401.336	-0.68
401.545	243.03
401.754	114
401.963	42.32
402.172	19.8
402.381	5.46
402.59	124.24
402.799	52.56
403.008	210.26
403.217	99.67
403.426	138.58
403.635	-88.75
403.844	71
404.053	46.42
404.262	38.23
404.471	210.26
404.68	42.32
404.888	23.89
405.097	107.86
405.306	146.77
405.515	120.15
405.724	44.37
405.933	62.8
406.142	101.72
406.35	136.53
406.559	27.99
406.768	97.62
406.977	189.78
407.185	83.28
407.394	105.81
407.603	-49.83
407.812	99.67
408.02	189.78
408.229	120.15
408.438	93.52
408.646	30.04
408.855	-4.78
409.064	163.15
409.272	-27.31
409.481	97.62
409.69	7.51
409.898	52.56
410.107	83.28
410.315	167.25
410.524	42.32
410.733	85.33
410.941	64.85
411.15	130.39
411.358	144.72
411.567	177.49
411.775	91.48
411.984	79.19
412.192	124.24
412.401	34.13
412.609	224.59
412.818	236.88
413.026	95.57
413.234	93.52
413.443	99.67
413.651	73.04
413.86	9.56
414.068	197.97
414.276	189.78
414.485	48.47
414.693	193.87
414.901	181.59
415.11	54.61
415.318	-49.83
415.526	66.9
415.734	118.1
415.943	93.52
416.151	195.92
416.359	89.43
416.567	87.38
416.776	81.24
416.984	83.28
417.192	261.46
417.4	17.75
417.608	25.94
417.817	32.08
418.025	118.1
418.233	103.76
418.441	13.65
418.649	23.89
418.857	62.8
419.065	202.07
419.273	38.23
419.481	42.32
419.689	79.19
419.897	77.14
420.105	1.37
420.313	81.24
420.521	154.96
420.729	146.77
420.937	62.8
421.145	87.38
421.353	87.38
421.561	175.44
421.769	79.19
421.977	36.18
422.185	85.33
422.393	13.65
422.601	132.44
422.809	91.48
423.017	120.15
423.224	99.67
423.432	101.72
423.64	130.39
423.848	136.53
424.056	32.08
424.263	146.77
424.471	46.42
424.679	140.63
424.887	44.37
425.094	146.77
425.302	159.06
425.51	81.24
425.718	114
425.925	97.62
426.133	54.61
426.341	259.41
426.548	142.68
426.756	36.18
426.964	142.68
427.171	42.32
427.379	169.3
427.586	79.19
427.794	122.2
428.001	216.4
428.209	89.43
428.417	181.59
428.624	132.44
428.832	154.96
429.039	122.2
429.247	148.82
429.454	91.48
429.662	220.5
429.869	197.97
430.076	144.72
430.284	214.35
430.491	249.17
430.699	200.02
430.906	220.5
431.114	157.01
431.321	165.2
431.528	165.2
431.736	228.69
431.943	202.07
432.15	222.55
432.358	202.07
432.565	261.46
432.772	56.66
432.979	247.12
433.187	173.39
433.394	247.12
433.601	204.11
433.808	290.13
434.016	304.46
434.223	281.94
434.43	269.65
434.637	269.65
434.844	273.75
435.052	333.14
435.259	308.56
435.466	363.86
435.673	349.52
435.88	310.61
436.087	349.52
436.294	406.86
436.501	329.04
436.708	318.8
436.915	281.94
437.122	388.43
437.329	337.23
437.537	359.76
437.743	449.87
437.95	548.17
438.157	404.82
438.364	425.29
438.571	367.95
438.778	460.11
438.985	511.31
439.192	474.45
439.399	456.01
439.606	580.94
439.813	646.48
440.02	656.72
440.227	744.78
440.433	632.14
440.64	621.9
440.847	605.52
441.054	697.67
441.261	820.55
441.467	718.15
441.674	752.97
441.881	806.22
442.088	775.5
442.294	879.94
442.501	851.27
442.708	896.33
442.914	937.29
443.121	920.9
443.328	1027.4
443.534	1062.21
443.741	1039.69
443.948	933.19
444.154	1080.64
444.361	1285.44
444.568	1162.56
444.774	1197.38
444.981	1051.97
445.187	1332.54
445.394	1285.44
445.6	1322.31
445.807	1523.01
446.013	1559.87
446.22	1496.38
446.426	1627.45
446.633	1660.22
446.839	1899.83
447.046	1740.09
447.252	1871.16
447.459	1985.85
447.665	1926.46
447.871	2073.91
448.078	2151.73
448.284	2121.01
448.491	2213.17
448.697	2311.47
448.903	2487.6
449.11	2583.85
449.316	2368.82
449.522	2737.45
449.728	2872.62
449.935	2975.02
450.141	2821.42
450.347	3091.75
450.553	3061.03
450.76	3202.34
450.966	3263.78
451.172	3527.97
451.378	3527.97
451.584	3603.74
451.791	3910.94
451.997	4150.55
452.203	4128.02
452.409	4248.85
452.615	4451.6
452.821	4390.16
453.027	4523.28
453.233	4963.59
453.44	4801.8
453.646	5051.66
453.852	5287.17
454.058	5537.02
454.264	5637.38
454.47	6032.63
454.676	5926.14
454.882	6450.42
455.088	6399.22
455.294	6814.96
455.5	7075.05
455.705	7535.84
455.911	7566.56
456.117	7630.05
456.323	8137.95
456.529	8158.42
456.735	8856.78
456.941	8987.85
457.147	9135.31
457.352	9417.93
457.558	9702.59
457.764	10286.26
457.97	10519.73
458.176	11029.68
458.381	11578.53
458.587	11879.58
458.793	12252.31
458.999	12375.19
459.204	13974.66
459.41	14584.95
459.616	14439.55
459.821	15242.35
460.027	15770.72
460.233	16327.77
460.438	16643.16
460.644	17300.56
460.85	17556.55
461.055	18404.41
461.261	19260.46
461.466	18887.73
461.672	19280.94
461.878	21640.2
462.083	21054.48
462.289	21715.98
462.494	22555.65
462.7	22963.19
462.905	22987.77
463.111	24714.2
463.316	25783.24
463.522	26282.95
463.727	27134.9
463.932	28257.19
464.138	29254.55
464.343	30618.5
464.549	30485.38
464.754	32641.89
464.959	33629.01
465.165	34206.54
465.37	33948.5
465.575	34042.7
465.781	36309.8
465.986	37495.58
466.191	36655.91
466.397	37241.63
466.602	36143.92
466.807	38288.14
467.012	39234.3
467.218	39465.72
467.423	39367.42
467.628	40970.98
467.833	42793.67
