Data from USB4F104151__2__10-41-03-791.txt Node

Date: Wed Feb 26 10:41:03 EST 2025
User: louis
Spectrometer: USB4F10415
Trigger mode: 4
Integration Time (sec): 1.000000E-1
Scans to average: 1
Electric dark correction enabled: true
Nonlinearity correction enabled: false
Boxcar width: 0
XAxis mode: Wavelengths
Number of Pixels in Spectrum: 3648
>>>>>Begin Spectral Data<<<<<
178.204	-385.02
178.424	-385.02
178.644	-385.02
178.864	-425.98
179.084	-385.02
179.304	32.77
179.524	2.05
179.744	20.48
179.964	-18.43
180.184	-2.05
180.404	47.1
180.624	14.34
180.844	-20.48
181.064	-83.97
181.283	34.82
181.503	-75.77
181.723	49.15
181.943	-53.25
182.163	163.84
182.383	-14.34
182.602	96.25
182.822	106.49
183.042	57.34
183.262	28.67
183.482	38.91
183.701	77.82
183.921	88.06
184.141	-8.19
184.361	124.93
184.58	71.68
184.8	20.48
185.02	-30.72
185.239	86.01
185.459	151.55
185.679	126.97
185.898	-131.07
186.118	43.01
186.338	45.06
186.557	114.69
186.777	-65.53
186.997	10.24
187.216	40.96
187.436	169.98
187.655	75.77
187.875	133.12
188.095	131.07
188.314	157.69
188.534	112.64
188.753	-57.34
188.973	139.26
189.192	245.76
189.412	-6.14
189.631	49.15
189.851	75.77
190.07	212.99
190.29	38.91
190.509	26.62
190.729	129.02
190.948	145.41
191.168	319.48
191.387	73.73
191.607	86.01
191.826	86.01
192.045	149.5
192.265	47.1
192.484	90.11
192.704	32.77
192.923	8.19
193.142	227.32
193.362	98.3
193.581	182.27
193.8	131.07
194.02	135.17
194.239	22.53
194.458	36.86
194.678	26.62
194.897	73.73
195.116	20.48
195.335	57.34
195.555	83.97
195.774	55.3
195.993	147.45
196.212	28.67
196.432	-28.67
196.651	65.54
196.87	47.1
197.089	210.94
197.308	59.39
197.528	59.39
197.747	-38.91
197.966	61.44
198.185	139.26
198.404	-6.14
198.623	141.31
198.842	178.17
199.062	83.97
199.281	184.32
199.5	86.01
199.719	180.22
199.938	59.39
200.157	77.82
200.376	53.25
200.595	167.93
200.814	71.68
201.033	-14.34
201.252	143.36
201.471	51.2
201.69	147.45
201.909	65.54
202.128	106.49
202.347	114.69
202.566	43.01
202.785	-4.1
203.004	-24.58
203.223	305.15
203.442	6.14
203.661	6.14
203.879	81.92
204.098	133.12
204.317	-36.86
204.536	14.34
204.755	118.78
204.974	100.35
205.193	-16.38
205.411	147.45
205.63	73.73
205.849	-12.29
206.068	6.14
206.287	-112.64
206.505	153.6
206.724	38.91
206.943	75.77
207.162	-12.29
207.381	122.88
207.599	116.73
207.818	106.49
208.037	-32.77
208.255	-6.14
208.474	96.25
208.693	69.63
208.911	61.44
209.13	71.68
209.349	83.97
209.567	69.63
209.786	67.58
210.005	61.44
210.223	83.97
210.442	-139.26
210.661	28.67
210.879	88.06
211.098	86.01
211.316	0
211.535	90.11
211.753	137.21
211.972	90.11
212.191	-4.1
212.409	-4.1
212.628	83.97
212.846	28.67
213.065	92.16
213.283	73.73
213.502	32.77
213.72	59.39
213.938	43.01
214.157	45.06
214.375	122.88
214.594	2.05
214.812	49.15
215.031	81.92
215.249	43.01
215.467	57.34
215.686	71.68
215.904	81.92
216.122	92.16
216.341	147.45
216.559	106.49
216.778	124.93
216.996	122.88
217.214	51.2
217.432	57.34
217.651	-2.05
217.869	36.86
218.087	65.54
218.306	-10.24
218.524	10.24
218.742	83.97
218.96	26.62
219.179	45.06
219.397	47.1
219.615	264.19
219.833	110.59
220.051	-16.38
220.27	110.59
220.488	159.74
220.706	145.41
220.924	20.48
221.142	16.38
221.36	96.25
221.578	155.65
221.796	-6.14
222.015	30.72
222.233	67.58
222.451	204.8
222.669	-57.34
222.887	139.26
223.105	-26.62
223.323	24.58
223.541	12.29
223.759	129.02
223.977	79.87
224.195	210.94
224.413	67.58
224.631	57.34
224.849	6.14
225.067	200.7
225.285	18.43
225.503	-32.77
225.721	-65.53
225.939	10.24
226.157	59.39
226.375	299
226.592	-16.38
226.81	57.34
227.028	67.58
227.246	149.5
227.464	30.72
227.682	135.17
227.9	100.35
228.117	61.44
228.335	122.88
228.553	6.14
228.771	53.25
228.989	4.1
229.206	108.54
229.424	98.3
229.642	8.19
229.86	-6.14
230.077	88.06
230.295	75.77
230.513	124.93
230.731	59.39
230.948	227.32
231.166	147.45
231.384	106.49
231.601	-30.72
231.819	223.23
232.037	-24.58
232.254	-110.59
232.472	-12.29
232.689	-6.14
232.907	55.3
233.125	-26.62
233.342	34.82
233.56	8.19
233.777	73.73
233.995	88.06
234.213	110.59
234.43	122.88
234.648	18.43
234.865	18.43
235.083	14.34
235.3	28.67
235.518	63.49
235.735	157.69
235.953	108.54
236.17	98.3
236.388	137.21
236.605	126.97
236.822	169.98
237.04	210.94
237.257	53.25
237.475	-57.34
237.692	118.78
237.909	161.79
238.127	-24.58
238.344	28.67
238.562	139.26
238.779	-26.62
238.996	69.63
239.214	100.35
239.431	104.45
239.648	43.01
239.865	112.64
240.083	137.21
240.3	36.86
240.517	63.49
240.735	34.82
240.952	188.41
241.169	20.48
241.386	157.69
241.603	90.11
241.821	-53.25
242.038	34.82
242.255	79.87
242.472	10.24
242.689	94.21
242.907	108.54
243.124	75.77
243.341	-96.25
243.558	18.43
243.775	14.34
243.992	-47.1
244.209	63.49
244.426	143.36
244.643	221.18
244.86	12.29
245.078	110.59
245.295	100.35
245.512	96.25
245.729	-22.53
245.946	65.54
246.163	12.29
246.38	-12.29
246.597	38.91
246.814	59.39
247.031	38.91
247.248	133.12
247.464	169.98
247.681	129.02
247.898	43.01
248.115	65.54
248.332	59.39
248.549	120.83
248.766	202.75
248.983	81.92
249.2	167.93
249.417	81.92
249.633	10.24
249.85	88.06
250.067	8.19
250.284	34.82
250.501	67.58
250.717	118.78
250.934	-71.68
251.151	18.43
251.368	22.53
251.585	92.16
251.801	92.16
252.018	-51.2
252.235	163.84
252.451	-8.19
252.668	26.62
252.885	153.6
253.102	49.15
253.318	14.34
253.535	36.86
253.752	-14.34
253.968	20.48
254.185	51.2
254.401	77.82
254.618	147.45
254.835	65.54
255.051	53.25
255.268	165.89
255.484	18.43
255.701	53.25
255.917	129.02
256.134	38.91
256.351	100.35
256.567	-16.38
256.784	32.77
257	-96.25
257.217	124.93
257.433	149.5
257.65	79.87
257.866	215.04
258.082	16.38
258.299	16.38
258.515	12.29
258.732	45.06
258.948	8.19
259.165	104.45
259.381	-12.29
259.597	77.82
259.814	43.01
260.03	30.72
260.246	-16.38
260.463	159.74
260.679	73.73
260.895	71.68
261.112	43.01
261.328	34.82
261.544	32.77
261.761	133.12
261.977	-53.25
262.193	-8.19
262.409	57.34
262.626	77.82
262.842	51.2
263.058	-26.62
263.274	133.12
263.49	55.3
263.707	77.82
263.923	49.15
264.139	-63.49
264.355	73.73
264.571	163.84
264.787	83.97
265.004	92.16
265.22	88.06
265.436	-38.91
265.652	30.72
265.868	-10.24
266.084	24.58
266.3	6.14
266.516	24.58
266.732	71.68
266.948	139.26
267.164	57.34
267.38	126.97
267.596	94.21
267.812	198.65
268.028	75.77
268.244	45.06
268.46	47.1
268.676	30.72
268.892	108.54
269.108	-73.73
269.324	-38.91
269.54	34.82
269.756	141.31
269.972	-86.01
270.188	43.01
270.403	16.38
270.619	24.58
270.835	65.54
271.051	77.82
271.267	12.29
271.483	-8.19
271.698	129.02
271.914	102.4
272.13	83.97
272.346	61.44
272.562	30.72
272.777	155.65
272.993	36.86
273.209	4.1
273.425	100.35
273.64	-81.92
273.856	28.67
274.072	-77.82
274.287	-2.05
274.503	65.54
274.719	139.26
274.934	26.62
275.15	-61.44
275.366	14.34
275.581	18.43
275.797	108.54
276.012	40.96
276.228	22.53
276.444	79.87
276.659	106.49
276.875	-14.34
277.09	55.3
277.306	18.43
277.521	90.11
277.737	92.16
277.952	129.02
278.168	32.77
278.383	47.1
278.599	81.92
278.814	157.69
279.03	6.14
279.245	180.22
279.461	88.06
279.676	94.21
279.892	-18.43
280.107	-57.34
280.322	-14.34
280.538	94.21
280.753	45.06
280.969	40.96
281.184	69.63
281.399	108.54
281.615	26.62
281.83	59.39
282.045	-20.48
282.26	-47.1
282.476	63.49
282.691	92.16
282.906	86.01
283.122	14.34
283.337	26.62
283.552	77.82
283.767	-14.34
283.983	75.77
284.198	79.87
284.413	98.3
284.628	-49.15
284.843	71.68
285.058	118.78
285.274	16.38
285.489	30.72
285.704	133.12
285.919	92.16
286.134	28.67
286.349	59.39
286.564	-73.73
286.779	180.22
286.995	98.3
287.21	-2.05
287.425	167.93
287.64	22.53
287.855	30.72
288.07	16.38
288.285	143.36
288.5	139.26
288.715	114.69
288.93	47.1
289.145	18.43
289.36	104.45
289.575	59.39
289.79	108.54
290.004	-40.96
290.219	75.77
290.434	-6.14
290.649	24.58
290.864	24.58
291.079	43.01
291.294	-6.14
291.509	26.62
291.724	116.73
291.938	43.01
292.153	10.24
292.368	24.58
292.583	69.63
292.798	71.68
293.012	65.54
293.227	88.06
293.442	24.58
293.657	135.17
293.871	116.73
294.086	-24.58
294.301	212.99
294.516	126.97
294.73	45.06
294.945	0
295.16	12.29
295.374	112.64
295.589	47.1
295.804	-55.3
296.018	102.4
296.233	235.52
296.447	63.49
296.662	-63.49
296.877	131.07
297.091	77.82
297.306	49.15
297.52	67.58
297.735	65.54
297.949	81.92
298.164	96.25
298.378	96.25
298.593	12.29
298.807	-4.1
299.022	32.77
299.236	129.02
299.451	-34.82
299.665	79.87
299.88	2.05
300.094	137.21
300.309	75.77
300.523	71.68
300.737	24.58
300.952	116.73
301.166	81.92
301.381	-45.06
301.595	34.82
301.809	98.3
302.024	63.49
302.238	-61.44
302.452	92.16
302.667	34.82
302.881	108.54
303.095	118.78
303.309	92.16
303.524	22.53
303.738	-14.34
303.952	-14.34
304.166	122.88
304.381	-55.3
304.595	139.26
304.809	34.82
305.023	75.77
305.237	24.58
305.452	-34.82
305.666	92.16
305.88	61.44
306.094	71.68
306.308	38.91
306.522	51.2
306.736	133.12
306.95	71.68
307.164	43.01
307.379	45.06
307.593	206.84
307.807	208.89
308.021	79.87
308.235	126.97
308.449	38.91
308.663	55.3
308.877	276.48
309.091	75.77
309.305	83.97
309.519	-96.25
309.733	100.35
309.947	-69.63
310.161	53.25
310.374	16.38
310.588	184.32
310.802	57.34
311.016	-45.06
311.23	98.3
311.444	49.15
311.658	-18.43
311.872	40.96
312.085	86.01
312.299	153.6
312.513	139.26
312.727	116.73
312.941	75.77
313.154	81.92
313.368	47.1
313.582	36.86
313.796	108.54
314.009	92.16
314.223	124.93
314.437	47.1
314.651	155.65
314.864	96.25
315.078	83.97
315.292	-6.14
315.505	-6.14
315.719	110.59
315.933	126.97
316.146	51.2
316.36	30.72
316.573	163.84
316.787	102.4
317.001	67.58
317.214	-61.44
317.428	40.96
317.641	-106.49
317.855	12.29
318.068	47.1
318.282	65.54
318.495	186.37
318.709	104.45
318.922	49.15
319.136	167.93
319.349	81.92
319.563	-2.05
319.776	90.11
319.99	-43.01
320.203	98.3
320.417	51.2
320.63	77.82
320.843	188.41
321.057	129.02
321.27	73.73
321.483	169.98
321.697	141.31
321.91	83.97
322.124	2.05
322.337	16.38
322.55	34.82
322.763	51.2
322.977	8.19
323.19	14.34
323.403	69.63
323.617	24.58
323.83	167.93
324.043	43.01
324.256	81.92
324.469	-38.91
324.683	129.02
324.896	30.72
325.109	14.34
325.322	-55.3
325.535	165.89
325.748	135.17
325.962	8.19
326.175	122.88
326.388	116.73
326.601	90.11
326.814	32.77
327.027	43.01
327.24	190.46
327.453	-77.82
327.666	124.93
327.879	161.79
328.092	145.41
328.305	57.34
328.518	-59.39
328.731	8.19
328.944	92.16
329.157	145.41
329.37	12.29
329.583	169.98
329.796	112.64
330.009	-38.91
330.222	49.15
330.435	51.2
330.648	100.35
330.861	75.77
331.073	79.87
331.286	110.59
331.499	65.54
331.712	38.91
331.925	24.58
332.138	55.3
332.35	202.75
332.563	57.34
332.776	69.63
332.989	-18.43
333.202	22.53
333.414	20.48
333.627	67.58
333.84	63.49
334.053	110.59
334.265	-16.38
334.478	51.2
334.691	55.3
334.903	14.34
335.116	55.3
335.329	63.49
335.541	86.01
335.754	239.61
335.966	36.86
336.179	116.73
336.392	55.3
336.604	24.58
336.817	40.96
337.029	34.82
337.242	157.69
337.454	133.12
337.667	55.3
337.88	139.26
338.092	79.87
338.305	81.92
338.517	22.53
338.729	65.54
338.942	120.83
339.154	0
339.367	36.86
339.579	47.1
339.792	-28.67
340.004	100.35
340.217	28.67
340.429	61.44
340.641	47.1
340.854	47.1
341.066	59.39
341.278	161.79
341.491	204.8
341.703	53.25
341.915	47.1
342.128	161.79
342.34	122.88
342.552	2.05
342.764	61.44
342.977	2.05
343.189	143.36
343.401	112.64
343.613	-18.43
343.826	81.92
344.038	-4.1
344.25	-24.58
344.462	-14.34
344.674	61.44
344.886	-28.67
345.099	63.49
345.311	131.07
345.523	26.62
345.735	-20.48
345.947	81.92
346.159	49.15
346.371	77.82
346.583	47.1
346.795	182.27
347.007	6.14
347.219	116.73
347.431	-26.62
347.643	141.31
347.855	18.43
348.067	184.32
348.279	4.1
348.491	112.64
348.703	67.58
348.915	36.86
349.127	38.91
349.339	94.21
349.551	-24.58
349.763	182.27
349.975	49.15
350.187	79.87
350.399	114.69
350.61	188.41
350.822	104.45
351.034	67.58
351.246	106.49
351.458	18.43
351.669	67.58
351.881	165.89
352.093	77.82
352.305	110.59
352.517	120.83
352.728	124.93
352.94	-2.05
353.152	116.73
353.363	4.1
353.575	131.07
353.787	200.7
353.999	77.82
354.21	147.45
354.422	-32.77
354.633	90.11
354.845	112.64
355.057	102.4
355.268	65.54
355.48	92.16
355.692	-30.72
355.903	90.11
356.115	-34.82
356.326	-4.1
356.538	116.73
356.749	110.59
356.961	124.93
357.172	110.59
357.384	0
357.595	241.66
357.807	-30.72
358.018	28.67
358.23	49.15
358.441	184.32
358.653	51.2
358.864	106.49
359.075	47.1
359.287	26.62
359.498	108.54
359.709	129.02
359.921	20.48
360.132	178.17
360.344	114.69
360.555	-20.48
360.766	32.77
360.977	47.1
361.189	153.6
361.4	26.62
361.611	165.89
361.823	161.79
362.034	104.45
362.245	-59.39
362.456	59.39
362.667	126.97
362.879	-34.82
363.09	75.77
363.301	67.58
363.512	22.53
363.723	8.19
363.935	-2.05
364.146	49.15
364.357	2.05
364.568	34.82
364.779	-16.38
364.99	180.22
365.201	-47.1
365.412	188.41
365.623	26.62
365.834	126.97
366.045	104.45
366.256	112.64
366.467	129.02
366.678	-22.53
366.889	34.82
367.1	88.06
367.311	159.74
367.522	49.15
367.733	81.92
367.944	147.45
368.155	79.87
368.366	122.88
368.577	145.41
368.788	190.46
368.999	20.48
369.209	120.83
369.42	243.71
369.631	251.9
369.842	165.89
370.053	-20.48
370.264	96.25
370.474	-65.53
370.685	40.96
370.896	51.2
371.107	141.31
371.317	118.78
371.528	67.58
371.739	174.08
371.95	104.45
372.16	139.26
372.371	34.82
372.582	102.4
372.792	106.49
373.003	38.91
373.214	131.07
373.424	69.63
373.635	75.77
373.846	227.32
374.056	14.34
374.267	22.53
374.477	18.43
374.688	6.14
374.898	30.72
375.109	75.77
375.319	133.12
375.53	104.45
375.74	157.69
375.951	-30.72
376.161	96.25
376.372	176.13
376.582	110.59
376.793	208.89
377.003	47.1
377.214	-55.3
377.424	112.64
377.635	49.15
377.845	96.25
378.055	100.35
378.266	-2.05
378.476	28.67
378.686	124.93
378.897	69.63
379.107	145.41
379.317	8.19
379.528	96.25
379.738	102.4
379.948	-57.34
380.158	143.36
380.369	96.25
380.579	51.2
380.789	38.91
380.999	145.41
381.21	145.41
381.42	215.04
381.63	108.54
381.84	79.87
382.05	120.83
382.261	147.45
382.471	161.79
382.681	32.77
382.891	100.35
383.101	53.25
383.311	-20.48
383.521	8.19
383.731	149.5
383.941	172.03
384.151	10.24
384.361	69.63
384.571	100.35
384.781	36.86
384.991	186.37
385.201	135.17
385.411	151.55
385.621	81.92
385.831	73.73
386.041	122.88
386.251	75.77
386.461	88.06
386.671	106.49
386.881	22.53
387.091	24.58
387.301	92.16
387.511	30.72
387.72	102.4
387.93	126.97
388.14	-34.82
388.35	55.3
388.56	133.12
388.769	165.89
388.979	32.77
389.189	8.19
389.399	96.25
389.609	96.25
389.818	96.25
390.028	92.16
390.238	75.77
390.447	-49.15
390.657	81.92
390.867	-26.62
391.076	28.67
391.286	63.49
391.496	51.2
391.705	135.17
391.915	159.74
392.125	79.87
392.334	67.58
392.544	147.45
392.753	108.54
392.963	47.1
393.172	16.38
393.382	83.97
393.591	118.78
393.801	49.15
394.01	126.97
394.22	135.17
394.429	-4.1
394.639	79.87
394.848	126.97
395.058	73.73
395.267	63.49
395.477	51.2
395.686	124.93
395.895	200.7
396.105	172.03
396.314	100.35
396.524	8.19
396.733	-47.1
396.942	118.78
397.152	120.83
397.361	151.55
397.57	30.72
397.78	-12.29
397.989	59.39
398.198	167.93
398.407	131.07
398.617	100.35
398.826	88.06
399.035	26.62
399.244	114.69
399.453	100.35
399.663	69.63
399.872	59.39
400.081	30.72
400.29	135.17
400.499	-16.38
400.708	122.88
400.917	20.48
401.127	63.49
401.336	-28.67
401.545	239.61
401.754	186.37
401.963	22.53
402.172	83.97
402.381	-65.53
402.59	4.1
402.799	-14.34
403.008	34.82
403.217	49.15
403.426	137.21
403.635	-63.49
403.844	79.87
404.053	67.58
404.262	47.1
404.471	174.08
404.68	53.25
404.888	-16.38
405.097	55.3
405.306	100.35
405.515	106.49
405.724	77.82
405.933	137.21
406.142	90.11
406.35	145.41
406.559	57.34
406.768	59.39
406.977	204.8
407.185	102.4
407.394	135.17
407.603	-28.67
407.812	79.87
408.02	202.75
408.229	32.77
408.438	100.35
408.646	26.62
408.855	32.77
409.064	110.59
409.272	79.87
409.481	65.54
409.69	20.48
409.898	40.96
410.107	81.92
410.315	131.07
410.524	79.87
410.733	-12.29
410.941	-34.82
411.15	137.21
411.358	192.51
411.567	210.94
411.775	92.16
411.984	145.41
412.192	55.3
412.401	30.72
412.609	167.93
412.818	198.65
413.026	126.97
413.234	90.11
413.443	38.91
413.651	32.77
413.86	100.35
414.068	104.45
414.276	151.55
414.485	0
414.693	208.89
414.901	169.98
415.11	98.3
415.318	30.72
415.526	49.15
415.734	81.92
415.943	26.62
416.151	208.89
416.359	86.01
416.567	79.87
416.776	98.3
416.984	163.84
417.192	210.94
417.4	16.38
417.608	43.01
417.817	4.1
418.025	131.07
418.233	219.13
418.441	22.53
418.649	40.96
418.857	71.68
419.065	190.46
419.273	-61.44
419.481	10.24
419.689	133.12
419.897	24.58
420.105	14.34
420.313	102.4
420.521	178.17
420.729	137.21
420.937	124.93
421.145	14.34
421.353	116.73
421.561	190.46
421.769	102.4
421.977	4.1
422.185	180.22
422.393	92.16
422.601	163.84
422.809	86.01
423.017	34.82
423.224	114.69
423.432	169.98
423.64	77.82
423.848	208.89
424.056	-36.86
424.263	194.56
424.471	106.49
424.679	219.13
424.887	53.25
425.094	182.27
425.302	159.74
425.51	135.17
425.718	145.41
425.925	49.15
426.133	2.05
426.341	317.44
426.548	167.93
426.756	79.87
426.964	137.21
427.171	24.58
427.379	124.93
427.586	49.15
427.794	126.97
428.001	239.61
428.209	69.63
428.417	161.79
428.624	126.97
428.832	178.17
429.039	155.65
429.247	141.31
429.454	149.5
429.662	264.19
429.869	139.26
430.076	88.06
430.284	225.28
430.491	292.86
430.699	200.7
430.906	296.96
431.114	63.49
431.321	280.57
431.528	153.6
431.736	186.37
431.943	184.32
432.15	135.17
432.358	159.74
432.565	315.39
432.772	-36.86
432.979	288.76
433.187	137.21
433.394	274.43
433.601	77.82
433.808	235.52
434.016	251.9
434.223	210.94
434.43	165.89
434.637	270.33
434.844	354.3
435.052	296.96
435.259	378.87
435.466	335.87
435.673	258.04
435.88	311.29
436.087	313.34
436.294	387.07
436.501	368.63
436.708	362.49
436.915	366.59
437.122	374.78
437.329	323.58
437.537	342.01
437.743	350.2
437.95	376.83
438.157	419.83
438.364	411.64
438.571	466.94
438.778	516.09
438.985	436.22
439.192	520.18
439.399	524.28
439.606	524.28
439.813	649.21
440.02	606.2
440.227	757.75
440.433	636.92
440.64	634.87
440.847	593.91
441.054	626.68
441.261	837.62
441.467	792.56
441.674	739.32
441.881	835.57
442.088	620.53
442.294	833.52
442.501	808.95
442.708	944.11
442.914	870.39
443.121	925.68
443.328	985.07
443.534	1071.09
443.741	1032.18
443.948	901.11
444.154	1083.38
444.361	1267.69
444.568	1230.83
444.774	1204.21
444.981	1085.42
445.187	1376.23
445.394	1306.6
445.6	1257.45
445.807	1384.43
446.013	1411.05
446.22	1400.81
446.426	1662.95
446.633	1628.14
446.839	1873.89
447.046	1624.04
447.252	1806.31
447.459	1820.64
447.665	1681.38
447.871	2119.65
448.078	2148.32
448.284	2093.02
448.491	2215.9
448.697	2334.68
448.903	2529.24
449.11	2482.14
449.316	2447.32
449.522	2715.61
449.728	2758.61
449.935	2830.29
450.141	2719.7
450.347	3112.91
450.553	2957.27
450.76	3221.45
450.966	3282.89
451.172	3428.3
451.378	3471.31
451.584	3577.8
451.791	3776.45
451.997	4014.02
452.203	3979.2
452.409	4218.82
452.615	4468.67
452.821	4313.02
453.027	4366.27
453.233	4806.58
453.44	4681.66
453.646	4978.61
453.852	5189.55
454.058	5410.73
454.264	5453.74
454.47	5908.39
454.676	5724.07
454.882	6408.09
455.088	6191.01
455.294	6526.88
455.5	7020.44
455.705	7323.54
455.911	7325.58
456.117	7626.64
456.323	7720.84
456.529	7935.88
456.735	8572.8
456.941	8804.22
457.147	9115.51
457.352	9365.36
457.558	9420.66
457.764	10166.12
457.97	10579.81
458.176	10766.17
458.381	11298.64
458.587	11546.45
458.793	11988.81
458.999	12238.66
459.204	13618.99
459.41	13961
459.616	13801.26
459.821	14579.49
460.027	15451.92
460.233	16129.8
460.438	16131.85
460.644	17039.1
460.85	17155.83
461.055	17796.85
461.261	18657
461.466	18337.51
461.672	18779.87
461.878	20858.56
462.083	20807.36
462.289	21245.63
462.494	22159.02
462.7	22052.53
462.905	22697.64
463.111	24329.87
463.316	25450.11
463.522	25804.41
463.727	26629.74
463.932	27915.86
464.138	28573.26
464.343	29568.57
464.549	29636.16
464.754	31950.36
464.959	32783.88
465.165	33469.95
465.37	33156.61
465.575	33179.14
465.781	35450.34
465.986	36349.4
466.191	35821.02
466.397	36130.26
466.602	35280.36
466.807	37316.04
467.012	37944.76
467.218	39028.14
467.423	38645.17
467.628	39951.77
467.833	41688.45
468.038	40615.32
