Data from USB4F104151__67__10-43-57-773.txt Node

Date: Wed Feb 26 10:43:57 EST 2025
User: louis
Spectrometer: USB4F10415
Trigger mode: 4
Integration Time (sec): 1.000000E-1
Scans to average: 1
Electric dark correction enabled: true
Nonlinearity correction enabled: false
Boxcar width: 0
XAxis mode: Wavelengths
Number of Pixels in Spectrum: 3648
>>>>>Begin Spectral Data<<<<<
178.204	-454.31
178.424	-454.31
178.644	-454.31
178.864	-429.73
179.084	-401.06
179.304	-9.9
179.524	-73.39
179.744	16.73
179.964	80.21
180.184	-77.48
180.404	-7.85
180.624	-16.04
180.844	-3.75
181.064	-46.76
181.283	80.21
181.503	-9.9
181.723	67.92
181.943	-110.25
182.163	139.6
182.383	-18.09
182.602	51.54
182.822	137.56
183.042	45.4
183.262	-34.47
183.482	4.44
183.701	-20.14
183.921	22.87
184.141	-75.43
184.361	133.46
184.58	53.59
184.8	63.83
185.02	8.53
185.239	59.73
185.459	98.64
185.679	151.89
185.898	-73.39
186.118	104.79
186.338	-3.75
186.557	61.78
186.777	-100.01
186.997	-5.8
187.216	51.54
187.436	129.36
187.655	121.17
187.875	74.07
188.095	-26.28
188.314	184.66
188.534	119.12
188.753	-13.99
188.973	141.65
189.192	186.71
189.412	33.11
189.631	108.88
189.851	8.53
190.07	117.08
190.29	14.68
190.509	31.06
190.729	63.83
190.948	131.41
191.168	254.29
191.387	57.68
191.607	-57
191.826	112.98
192.045	-7.85
192.265	53.59
192.484	117.08
192.704	35.16
192.923	-63.15
193.142	205.14
193.362	160.08
193.581	166.23
193.8	74.07
194.02	55.64
194.239	45.4
194.458	98.64
194.678	-5.8
194.897	31.06
195.116	80.21
195.335	119.12
195.555	53.59
195.774	8.53
195.993	92.5
196.212	-30.38
196.432	29.01
196.651	57.68
196.87	80.21
197.089	235.86
197.308	80.21
197.528	131.41
197.747	-16.04
197.966	139.6
198.185	115.03
198.404	-32.43
198.623	110.93
198.842	110.93
199.062	119.12
199.281	266.58
199.5	108.88
199.719	69.97
199.938	43.35
200.157	12.63
200.376	78.16
200.595	98.64
200.814	57.68
201.033	31.06
201.252	211.28
201.471	59.73
201.69	33.11
201.909	22.87
202.128	145.75
202.347	14.68
202.566	57.68
202.785	-54.95
203.004	18.77
203.223	250.19
203.442	78.16
203.661	20.82
203.879	-13.99
204.098	141.65
204.317	-57
204.536	51.54
204.755	24.92
204.974	92.5
205.193	29.01
205.411	182.61
205.63	123.22
205.849	2.39
206.068	-18.09
206.287	-73.39
206.505	207.19
206.724	43.35
206.943	2.39
207.162	2.39
207.381	-18.09
207.599	106.84
207.818	39.25
208.037	31.06
208.255	-110.25
208.474	18.77
208.693	78.16
208.911	57.68
209.13	102.74
209.349	49.49
209.567	100.69
209.786	-20.14
210.005	84.31
210.223	43.35
210.442	-24.23
210.661	74.07
210.879	88.4
211.098	55.64
211.316	49.49
211.535	96.6
211.753	72.02
211.972	29.01
212.191	-26.28
212.409	102.74
212.628	82.26
212.846	-106.15
213.065	-44.71
213.283	108.88
213.502	26.96
213.72	33.11
213.938	69.97
214.157	26.96
214.375	90.45
214.594	2.39
214.812	65.88
215.031	-61.1
215.249	35.16
215.467	117.08
215.686	18.77
215.904	57.68
216.122	51.54
216.341	117.08
216.559	43.35
216.778	90.45
216.996	117.08
217.214	33.11
217.432	49.49
217.651	-93.87
217.869	18.77
218.087	53.59
218.306	29.01
218.524	6.49
218.742	2.39
218.96	78.16
219.179	65.88
219.397	4.44
219.615	272.72
219.833	55.64
220.051	-22.19
220.27	92.5
220.488	106.84
220.706	55.64
220.924	12.63
221.142	2.39
221.36	37.2
221.578	78.16
221.796	26.96
222.015	-40.62
222.233	86.36
222.451	119.12
222.669	-40.62
222.887	37.2
223.105	-46.76
223.323	4.44
223.541	-97.96
223.759	57.68
223.977	37.2
224.195	256.34
224.413	115.03
224.631	33.11
224.849	14.68
225.067	174.42
225.285	41.3
225.503	-67.24
225.721	-73.39
225.939	61.78
226.157	6.49
226.375	229.71
226.592	26.96
226.81	104.79
227.028	106.84
227.246	139.6
227.464	106.84
227.682	104.79
227.9	63.83
228.117	125.27
228.335	110.93
228.553	31.06
228.771	29.01
228.989	43.35
229.206	65.88
229.424	-11.95
229.642	-38.57
229.86	2.39
230.077	117.08
230.295	-26.28
230.513	96.6
230.731	12.63
230.948	184.66
231.166	119.12
231.384	8.53
231.601	-61.1
231.819	217.43
232.037	6.49
232.254	-69.29
232.472	41.3
232.689	-30.38
232.907	149.84
233.125	53.59
233.342	24.92
233.56	-52.91
233.777	0.34
233.995	31.06
234.213	135.51
234.43	82.26
234.648	78.16
234.865	-34.47
235.083	63.83
235.3	33.11
235.518	59.73
235.735	135.51
235.953	61.78
236.17	51.54
236.388	33.11
236.605	26.96
236.822	160.08
237.04	145.75
237.257	-13.99
237.475	-30.38
237.692	100.69
237.909	74.07
238.127	39.25
238.344	26.96
238.562	6.49
238.779	86.36
238.996	55.64
239.214	69.97
239.431	98.64
239.648	37.2
239.865	59.73
240.083	78.16
240.3	-11.95
240.517	0.34
240.735	22.87
240.952	223.57
241.169	29.01
241.386	80.21
241.603	80.21
241.821	16.73
242.038	22.87
242.255	90.45
242.472	-38.57
242.689	65.88
242.907	104.79
243.124	164.18
243.341	14.68
243.558	29.01
243.775	-30.38
243.992	-73.39
244.209	80.21
244.426	153.94
244.643	137.56
244.86	55.64
245.078	59.73
245.295	90.45
245.512	49.49
245.729	6.49
245.946	108.88
246.163	67.92
246.38	47.44
246.597	39.25
246.814	90.45
247.031	53.59
247.248	53.59
247.464	94.55
247.681	53.59
247.898	69.97
248.115	29.01
248.332	20.82
248.549	172.37
248.766	291.15
248.983	53.59
249.2	80.21
249.417	170.32
249.633	10.58
249.85	88.4
250.067	24.92
250.284	72.02
250.501	0.34
250.717	-7.85
250.934	-52.91
251.151	102.74
251.368	-1.71
251.585	162.13
251.801	20.82
252.018	-34.47
252.235	125.27
252.451	-26.28
252.668	-28.33
252.885	139.6
253.102	69.97
253.318	-42.67
253.535	49.49
253.752	8.53
253.968	-71.34
254.185	-9.9
254.401	94.55
254.618	110.93
254.835	20.82
255.051	92.5
255.268	106.84
255.484	14.68
255.701	22.87
255.917	74.07
256.134	-7.85
256.351	24.92
256.567	63.83
256.784	100.69
257	2.39
257.217	61.78
257.433	127.32
257.65	-5.8
257.866	139.6
258.082	-36.52
258.299	-7.85
258.515	-9.9
258.732	-16.04
258.948	8.53
259.165	55.64
259.381	-16.04
259.597	41.3
259.814	55.64
260.03	10.58
260.246	-11.95
260.463	82.26
260.679	149.84
260.895	100.69
261.112	88.4
261.328	-36.52
261.544	16.73
261.761	233.81
261.977	26.96
262.193	-42.67
262.409	129.36
262.626	41.3
262.842	20.82
263.058	12.63
263.274	49.49
263.49	127.32
263.707	12.63
263.923	43.35
264.139	-38.57
264.355	29.01
264.571	43.35
264.787	41.3
265.004	135.51
265.22	6.49
265.436	0.34
265.652	-30.38
265.868	31.06
266.084	-30.38
266.3	41.3
266.516	-22.19
266.732	24.92
266.948	45.4
267.164	-24.23
267.38	78.16
267.596	-20.14
267.812	184.66
268.028	59.73
268.244	4.44
268.46	61.78
268.676	78.16
268.892	45.4
269.108	18.77
269.324	-9.9
269.54	-77.48
269.756	80.21
269.972	10.58
270.188	-9.9
270.403	26.96
270.619	90.45
270.835	115.03
271.051	51.54
271.267	37.2
271.483	-44.71
271.698	84.31
271.914	74.07
272.13	47.44
272.346	35.16
272.562	78.16
272.777	115.03
272.993	-1.71
273.209	47.44
273.425	49.49
273.64	-100.01
273.856	139.6
274.072	10.58
274.287	86.36
274.503	35.16
274.719	88.4
274.934	-13.99
275.15	-18.09
275.366	6.49
275.581	18.77
275.797	4.44
276.012	135.51
276.228	72.02
276.444	49.49
276.659	147.8
276.875	-5.8
277.09	8.53
277.306	12.63
277.521	41.3
277.737	0.34
277.952	47.44
278.168	14.68
278.383	63.83
278.599	43.35
278.814	98.64
279.03	72.02
279.245	139.6
279.461	29.01
279.676	215.38
279.892	-36.52
280.107	-30.38
280.322	-69.29
280.538	90.45
280.753	-83.63
280.969	57.68
281.184	-13.99
281.399	160.08
281.615	47.44
281.83	12.63
282.045	2.39
282.26	8.53
282.476	67.92
282.691	33.11
282.906	-13.99
283.122	69.97
283.337	-32.43
283.552	-7.85
283.767	72.02
283.983	96.6
284.198	86.36
284.413	35.16
284.628	-81.58
284.843	18.77
285.058	49.49
285.274	55.64
285.489	-26.28
285.704	59.73
285.919	-5.8
286.134	69.97
286.349	33.11
286.564	-11.95
286.779	184.66
286.995	14.68
287.21	-81.58
287.425	106.84
287.64	86.36
287.855	47.44
288.07	-102.06
288.285	69.97
288.5	164.18
288.715	86.36
288.93	-3.75
289.145	-9.9
289.36	98.64
289.575	2.39
289.79	135.51
290.004	16.73
290.219	102.74
290.434	14.68
290.649	-46.76
290.864	-28.33
291.079	22.87
291.294	162.13
291.509	92.5
291.724	33.11
291.938	20.82
292.153	63.83
292.368	29.01
292.583	43.35
292.798	57.68
293.012	39.25
293.227	74.07
293.442	-7.85
293.657	94.55
293.871	115.03
294.086	100.69
294.301	176.47
294.516	145.75
294.73	49.49
294.945	-32.43
295.16	63.83
295.374	137.56
295.589	141.65
295.804	49.49
296.018	26.96
296.233	129.36
296.447	90.45
296.662	18.77
296.877	104.79
297.091	100.69
297.306	59.73
297.52	24.92
297.735	86.36
297.949	57.68
298.164	14.68
298.378	78.16
298.593	-28.33
298.807	12.63
299.022	12.63
299.236	131.41
299.451	33.11
299.665	41.3
299.88	80.21
300.094	8.53
300.309	4.44
300.523	37.2
300.737	112.98
300.952	96.6
301.166	63.83
301.381	-71.34
301.595	26.96
301.809	20.82
302.024	57.68
302.238	-38.57
302.452	139.6
302.667	49.49
302.881	76.12
303.095	209.23
303.309	86.36
303.524	-52.91
303.738	8.53
303.952	-28.33
304.166	57.68
304.381	0.34
304.595	123.22
304.809	20.82
305.023	43.35
305.237	6.49
305.452	10.58
305.666	106.84
305.88	86.36
306.094	61.78
306.308	-7.85
306.522	110.93
306.736	86.36
306.95	117.08
307.164	4.44
307.379	-59.05
307.593	192.85
307.807	88.4
308.021	88.4
308.235	168.27
308.449	-26.28
308.663	76.12
308.877	201.04
309.091	72.02
309.305	31.06
309.519	-65.19
309.733	117.08
309.947	-69.29
310.161	18.77
310.374	145.75
310.588	106.84
310.802	6.49
311.016	-38.57
311.23	20.82
311.444	24.92
311.658	74.07
311.872	172.37
312.085	94.55
312.299	115.03
312.513	203.09
312.727	37.2
312.941	-95.91
313.154	51.54
313.368	72.02
313.582	86.36
313.796	24.92
314.009	22.87
314.223	155.99
314.437	143.7
314.651	82.26
314.864	-16.04
315.078	-1.71
315.292	-34.47
315.505	-13.99
315.719	24.92
315.933	78.16
316.146	18.77
316.36	-20.14
316.573	110.93
316.787	47.44
317.001	94.55
317.214	-95.91
317.428	65.88
317.641	-18.09
317.855	-42.67
318.068	37.2
318.282	55.64
318.495	135.51
318.709	20.82
318.922	61.78
319.136	162.13
319.349	90.45
319.563	-7.85
319.776	139.6
319.99	22.87
320.203	117.08
320.417	-36.52
320.63	186.71
320.843	115.03
321.057	92.5
321.27	26.96
321.483	45.4
321.697	119.12
321.91	69.97
322.124	92.5
322.337	80.21
322.55	69.97
322.763	47.44
322.977	37.2
323.19	-18.09
323.403	37.2
323.617	65.88
323.83	29.01
324.043	-1.71
324.256	63.83
324.469	-34.47
324.683	90.45
324.896	0.34
325.109	-18.09
325.322	-89.77
325.535	160.08
325.748	104.79
325.962	82.26
326.175	69.97
326.388	98.64
326.601	141.65
326.814	61.78
327.027	37.2
327.24	225.62
327.453	-83.63
327.666	86.36
327.879	100.69
328.092	55.64
328.305	26.96
328.518	-42.67
328.731	-3.75
328.944	4.44
329.157	139.6
329.37	-22.19
329.583	260.43
329.796	131.41
330.009	-26.28
330.222	102.74
330.435	106.84
330.648	31.06
330.861	47.44
331.073	49.49
331.286	100.69
331.499	69.97
331.712	-1.71
331.925	108.88
332.138	47.44
332.35	63.83
332.563	-34.47
332.776	258.39
332.989	-44.71
333.202	78.16
333.414	100.69
333.627	-38.57
333.84	41.3
334.053	63.83
334.265	-30.38
334.478	20.82
334.691	-11.95
334.903	69.97
335.116	-61.1
335.329	37.2
335.541	65.88
335.754	215.38
335.966	-30.38
336.179	14.68
336.392	-83.63
336.604	47.44
336.817	162.13
337.029	35.16
337.242	41.3
337.454	63.83
337.667	-9.9
337.88	147.8
338.092	90.45
338.305	90.45
338.517	-5.8
338.729	92.5
338.942	166.23
339.154	-42.67
339.367	-71.34
339.579	43.35
339.792	-32.43
340.004	98.64
340.217	26.96
340.429	117.08
340.641	22.87
340.854	-36.52
341.066	74.07
341.278	74.07
341.491	108.88
341.703	53.59
341.915	106.84
342.128	131.41
342.34	47.44
342.552	-22.19
342.764	57.68
342.977	35.16
343.189	78.16
343.401	22.87
343.613	-73.39
343.826	82.26
344.038	-30.38
344.25	80.21
344.462	-7.85
344.674	117.08
344.886	-16.04
345.099	45.4
345.311	96.6
345.523	-28.33
345.735	-81.58
345.947	26.96
346.159	67.92
346.371	65.88
346.583	45.4
346.795	182.61
347.007	53.59
347.219	131.41
347.431	74.07
347.643	20.82
347.855	53.59
348.067	164.18
348.279	-11.95
348.491	-9.9
348.703	53.59
348.915	39.25
349.127	39.25
349.339	24.92
349.551	12.63
349.763	123.22
349.975	39.25
350.187	112.98
350.399	76.12
350.61	86.36
350.822	6.49
351.034	6.49
351.246	82.26
351.458	35.16
351.669	90.45
351.881	80.21
352.093	151.89
352.305	84.31
352.517	-7.85
352.728	98.64
352.94	63.83
353.152	125.27
353.363	-3.75
353.575	112.98
353.787	127.32
353.999	47.44
354.21	149.84
354.422	33.11
354.633	-32.43
354.845	0.34
355.057	33.11
355.268	82.26
355.48	141.65
355.692	37.2
355.903	78.16
356.115	37.2
356.326	-65.19
356.538	72.02
356.749	106.84
356.961	168.27
357.172	90.45
357.384	-3.75
357.595	221.52
357.807	4.44
358.018	-11.95
358.23	22.87
358.441	133.46
358.653	47.44
358.864	39.25
359.075	-63.15
359.287	63.83
359.498	78.16
359.709	61.78
359.921	37.2
360.132	102.74
360.344	55.64
360.555	39.25
360.766	61.78
360.977	69.97
361.189	139.6
361.4	51.54
361.611	67.92
361.823	82.26
362.034	74.07
362.245	-59.05
362.456	16.73
362.667	86.36
362.879	-16.04
363.09	49.49
363.301	2.39
363.512	0.34
363.723	-30.38
363.935	55.64
364.146	78.16
364.357	-3.75
364.568	104.79
364.779	-97.96
364.99	186.71
365.201	-30.38
365.412	151.89
365.623	-44.71
365.834	72.02
366.045	84.31
366.256	96.6
366.467	119.12
366.678	41.3
366.889	-67.24
367.1	-69.29
367.311	135.51
367.522	6.49
367.733	141.65
367.944	108.88
368.155	51.54
368.366	106.84
368.577	117.08
368.788	84.31
368.999	31.06
369.209	53.59
369.42	219.47
369.631	149.84
369.842	96.6
370.053	22.87
370.264	74.07
370.474	-69.29
370.685	90.45
370.896	10.58
371.107	115.03
371.317	143.7
371.528	0.34
371.739	88.4
371.95	37.2
372.16	82.26
372.371	-11.95
372.582	0.34
372.792	74.07
373.003	125.27
373.214	115.03
373.424	96.6
373.635	24.92
373.846	133.46
374.056	-20.14
374.267	20.82
374.477	65.88
374.688	-36.52
374.898	67.92
375.109	96.6
375.319	94.55
375.53	125.27
375.74	61.78
375.951	63.83
376.161	57.68
376.372	131.41
376.582	-28.33
376.793	18.77
377.003	-22.19
377.214	45.4
377.424	121.17
377.635	141.65
377.845	-48.81
378.055	151.89
378.266	-85.67
378.476	16.73
378.686	18.77
378.897	49.49
379.107	184.66
379.317	90.45
379.528	-5.8
379.738	119.12
379.948	-79.53
380.158	112.98
380.369	47.44
380.579	78.16
380.789	78.16
380.999	88.4
381.21	86.36
381.42	278.87
381.63	37.2
381.84	137.56
382.05	80.21
382.261	110.93
382.471	180.56
382.681	12.63
382.891	166.23
383.101	80.21
383.311	35.16
383.521	20.82
383.731	74.07
383.941	41.3
384.151	22.87
384.361	74.07
384.571	115.03
384.781	57.68
384.991	215.38
385.201	80.21
385.411	-7.85
385.621	125.27
385.831	49.49
386.041	59.73
386.251	47.44
386.461	149.84
386.671	-3.75
386.881	69.97
387.091	45.4
387.301	74.07
387.511	10.58
387.72	43.35
387.93	88.4
388.14	-52.91
388.35	37.2
388.56	102.74
388.769	106.84
388.979	63.83
389.189	-30.38
389.399	53.59
389.609	145.75
389.818	76.12
390.028	41.3
390.238	119.12
390.447	6.49
390.657	106.84
390.867	96.6
391.076	-50.86
391.286	86.36
391.496	51.54
391.705	26.96
391.915	69.97
392.125	158.03
392.334	-42.67
392.544	196.95
392.753	117.08
392.963	10.58
393.172	39.25
393.382	26.96
393.591	194.9
393.801	74.07
394.01	170.32
394.22	47.44
394.429	41.3
394.639	49.49
394.848	33.11
395.058	39.25
395.267	18.77
395.477	86.36
395.686	67.92
395.895	248.15
396.105	194.9
396.314	-20.14
396.524	112.98
396.733	43.35
396.942	205.14
397.152	47.44
397.361	90.45
397.57	8.53
397.78	18.77
397.989	172.37
398.198	166.23
398.407	-7.85
398.617	29.01
398.826	104.79
399.035	92.5
399.244	155.99
399.453	37.2
399.663	26.96
399.872	31.06
400.081	-48.81
400.29	61.78
400.499	86.36
400.708	0.34
400.917	47.44
401.127	10.58
401.336	-44.71
401.545	194.9
401.754	153.94
401.963	188.75
402.172	72.02
402.381	-44.71
402.59	67.92
402.799	100.69
403.008	84.31
403.217	37.2
403.426	-20.14
403.635	-63.15
403.844	59.73
404.053	84.31
404.262	37.2
404.471	227.67
404.68	129.36
404.888	37.2
405.097	102.74
405.306	37.2
405.515	133.46
405.724	47.44
405.933	61.78
406.142	115.03
406.35	125.27
406.559	41.3
406.768	49.49
406.977	198.99
407.185	92.5
407.394	133.46
407.603	-52.91
407.812	-1.71
408.02	158.03
408.229	45.4
408.438	45.4
408.646	-1.71
408.855	59.73
409.064	143.7
409.272	37.2
409.481	35.16
409.69	-69.29
409.898	10.58
410.107	141.65
410.315	102.74
410.524	47.44
410.733	-18.09
410.941	33.11
411.15	153.94
411.358	168.27
411.567	188.75
411.775	57.68
411.984	82.26
412.192	35.16
412.401	-9.9
412.609	164.18
412.818	158.03
413.026	80.21
413.234	47.44
413.443	-3.75
413.651	16.73
413.86	2.39
414.068	125.27
414.276	149.84
414.485	115.03
414.693	170.32
414.901	160.08
415.11	115.03
415.318	20.82
415.526	100.69
415.734	229.71
415.943	37.2
416.151	117.08
416.359	0.34
416.567	115.03
416.776	106.84
416.984	86.36
417.192	174.42
417.4	-48.81
417.608	29.01
417.817	33.11
418.025	61.78
418.233	188.75
418.441	-16.04
418.649	18.77
418.857	88.4
419.065	172.37
419.273	49.49
419.481	47.44
419.689	31.06
419.897	4.44
420.105	8.53
420.313	168.27
420.521	149.84
420.729	198.99
420.937	-11.95
421.145	0.34
421.353	158.03
421.561	170.32
421.769	153.94
421.977	45.4
422.185	198.99
422.393	37.2
422.601	145.75
422.809	72.02
423.017	76.12
423.224	98.64
423.432	86.36
423.64	112.98
423.848	92.5
424.056	22.87
424.263	141.65
424.471	24.92
424.679	143.7
424.887	47.44
425.094	119.12
425.302	106.84
425.51	29.01
425.718	133.46
425.925	151.89
426.133	59.73
426.341	205.14
426.548	57.68
426.756	26.96
426.964	57.68
427.171	-9.9
427.379	188.75
427.586	63.83
427.794	86.36
428.001	86.36
428.209	80.21
428.417	108.88
428.624	227.67
428.832	127.32
429.039	141.65
429.247	145.75
429.454	137.56
429.662	143.7
429.869	53.59
430.076	205.14
430.284	110.93
430.491	244.05
430.699	172.37
430.906	215.38
431.114	100.69
431.321	168.27
431.528	115.03
431.736	158.03
431.943	242
432.15	282.96
432.358	188.75
432.565	268.63
432.772	104.79
432.979	285.01
433.187	37.2
433.394	203.09
433.601	155.99
433.808	264.53
434.016	217.43
434.223	262.48
434.43	207.19
434.637	242
434.844	268.63
435.052	250.19
435.259	164.18
435.466	225.62
435.673	297.3
435.88	313.68
436.087	362.83
436.294	387.41
436.501	328.02
436.708	340.3
436.915	203.09
437.122	336.21
437.329	303.44
437.537	387.41
437.743	409.94
437.95	448.85
438.157	319.82
438.364	424.27
438.571	342.35
438.778	379.22
438.985	424.27
439.192	405.84
439.399	364.88
439.606	422.22
439.813	526.67
440.02	731.47
440.227	659.79
440.433	618.83
440.64	479.57
440.847	495.95
441.054	573.77
441.261	672.08
441.467	614.73
441.674	567.63
441.881	672.08
442.088	606.54
442.294	737.61
442.501	751.95
442.708	749.9
442.914	811.34
443.121	809.29
443.328	901.45
443.534	880.97
443.741	917.83
443.948	848.2
444.154	844.1
444.361	1139.01
444.568	948.55
444.774	966.98
444.981	891.21
445.187	1247.55
445.394	1214.79
445.6	1167.68
445.807	1278.27
446.013	1239.36
446.22	1089.86
446.426	1329.47
446.633	1507.65
446.839	1528.13
447.046	1397.06
447.252	1515.84
447.459	1550.65
447.665	1663.29
447.871	1714.49
448.078	1808.7
448.284	1851.71
448.491	1894.71
448.697	1890.62
448.903	2148.66
449.11	2097.46
449.316	1997.11
449.522	2230.58
449.728	2326.83
449.935	2421.04
450.141	2478.38
450.347	2580.78
450.553	2664.75
450.76	2756.91
450.966	2906.41
451.172	2793.77
451.378	3043.62
451.584	3014.95
451.791	3252.52
451.997	3432.74
452.203	3348.77
452.409	3639.58
452.615	3784.99
452.821	3662.11
453.027	3617.05
453.233	4096.28
453.44	4155.67
453.646	4131.09
453.852	4436.24
454.058	4698.38
454.264	4620.56
454.47	5120.26
454.676	5196.04
454.882	5361.92
455.088	5286.15
455.294	5490.95
455.5	5892.35
455.705	6273.27
455.911	6383.86
456.117	6396.15
456.323	6904.04
456.529	6846.7
456.735	7323.88
456.941	7370.98
457.147	7827.68
457.352	7919.84
457.558	7999.71
457.764	8650.96
457.97	9013.45
458.176	9269.45
458.381	9801.92
458.587	9922.75
458.793	10436.79
458.999	10492.09
459.204	11460.77
459.41	12150.94
459.616	11974.81
459.821	12476.57
460.027	13047.95
460.233	13691.01
460.438	13705.35
460.644	14487.67
460.85	14753.91
461.055	15224.94
461.261	15978.59
461.466	15433.83
461.672	15943.78
461.878	18194.5
462.083	17766.47
462.289	18233.41
462.494	18892.85
462.7	19251.25
462.905	19206.19
463.111	20529.18
463.316	22237.19
463.522	22173.7
463.727	22775.8
463.932	23934.95
464.138	24238.05
464.343	25579.47
464.549	25651.15
464.754	27594.67
464.959	28358.56
465.165	28770.21
465.37	28579.75
465.575	28592.03
465.781	30640
465.986	31442.81
466.191	31244.15
466.397	31100.79
466.602	30564.23
466.807	31993.71
467.012	32493.41
467.218	33496.92
467.423	33179.48
467.628	34563.91
467.833	36271.92
468.038	35628.85
468.244	35008.32
468.449	36648.74
468.654	36159.28
468.859	35899.19
469.064	35845.94
