Data from USB4F104151__59__10-43-45-774.txt Node

Date: Wed Feb 26 10:43:45 EST 2025
User: louis
Spectrometer: USB4F10415
Trigger mode: 4
Integration Time (sec): 1.000000E-1
Scans to average: 1
Electric dark correction enabled: true
Nonlinearity correction enabled: false
Boxcar width: 0
XAxis mode: Wavelengths
Number of Pixels in Spectrum: 3648
>>>>>Begin Spectral Data<<<<<
178.204	-416.25
178.424	-416.25
178.644	-416.25
178.864	-379.39
179.084	-313.85
179.304	-41.47
179.524	13.82
179.744	17.92
179.964	-16.9
180.184	24.06
180.404	79.36
180.624	-23.04
180.844	-35.33
181.064	-41.47
181.283	7.68
181.503	-23.04
181.723	38.4
181.943	-25.09
182.163	179.71
182.383	17.92
182.602	28.16
182.822	130.56
183.042	138.75
183.262	-20.99
183.482	42.5
183.701	62.98
183.921	69.12
184.141	-12.8
184.361	36.35
184.58	58.88
184.8	83.45
185.02	-45.57
185.239	44.54
185.459	124.41
185.679	138.75
185.898	-27.14
186.118	69.12
186.338	42.5
186.557	112.13
186.777	-59.9
186.997	38.4
187.216	1.54
187.436	151.04
187.655	148.99
187.875	69.12
188.095	50.69
188.314	91.65
188.534	163.33
188.753	22.02
188.973	83.45
189.192	95.74
189.412	-8.7
189.631	-33.28
189.851	108.03
190.07	235
190.29	-80.38
190.509	24.06
190.729	46.59
190.948	73.21
191.168	296.44
191.387	83.45
191.607	-10.75
191.826	73.21
192.045	30.21
192.265	40.45
192.484	46.59
192.704	73.21
192.923	-25.09
193.142	136.7
193.362	73.21
193.581	132.61
193.8	103.93
194.02	50.69
194.239	-14.85
194.458	103.93
194.678	56.83
194.897	30.21
195.116	62.98
195.335	-0.51
195.555	65.02
195.774	-43.52
195.993	177.66
196.212	79.36
196.432	-4.61
196.651	77.31
196.87	11.78
197.089	249.34
197.308	83.45
197.528	36.35
197.747	-33.28
197.966	42.5
198.185	114.17
198.404	-27.14
198.623	75.26
198.842	126.46
199.062	124.41
199.281	105.98
199.5	-16.9
199.719	81.41
199.938	24.06
200.157	50.69
200.376	40.45
200.595	65.02
200.814	101.89
201.033	-51.71
201.252	151.04
201.471	48.64
201.69	46.59
201.909	-14.85
202.128	132.61
202.347	34.3
202.566	140.8
202.785	-33.28
203.004	1.54
203.223	308.73
203.442	-23.04
203.661	15.87
203.879	79.36
204.098	185.85
204.317	-59.9
204.536	85.5
204.755	114.17
204.974	83.45
205.193	-25.09
205.411	146.94
205.63	93.69
205.849	95.74
206.068	52.74
206.287	-2.56
206.505	114.17
206.724	95.74
206.943	93.69
207.162	42.5
207.381	13.82
207.599	15.87
207.818	-51.71
208.037	-57.86
208.255	54.78
208.474	62.98
208.693	32.26
208.911	15.87
209.13	116.22
209.349	103.93
209.567	169.47
209.786	97.79
210.005	56.83
210.223	42.5
210.442	-2.56
210.661	-2.56
210.879	54.78
211.098	-31.23
211.316	42.5
211.535	36.35
211.753	105.98
211.972	148.99
212.191	11.78
212.409	-31.23
212.628	69.12
212.846	-76.29
213.065	75.26
213.283	91.65
213.502	32.26
213.72	52.74
213.938	40.45
214.157	75.26
214.375	85.5
214.594	34.3
214.812	79.36
215.031	9.73
215.249	58.88
215.467	7.68
215.686	40.45
215.904	116.22
216.122	44.54
216.341	146.94
216.559	15.87
216.778	103.93
216.996	153.09
217.214	62.98
217.432	36.35
217.651	9.73
217.869	58.88
218.087	56.83
218.306	34.3
218.524	32.26
218.742	-23.04
218.96	99.84
219.179	34.3
219.397	81.41
219.615	282.11
219.833	95.74
220.051	-16.9
220.27	138.75
220.488	134.65
220.706	65.02
220.924	1.54
221.142	-72.19
221.36	91.65
221.578	46.59
221.796	46.59
222.015	87.55
222.233	120.32
222.451	146.94
222.669	-45.57
222.887	65.02
223.105	-10.75
223.323	26.11
223.541	1.54
223.759	79.36
223.977	-8.7
224.195	99.84
224.413	130.56
224.631	79.36
224.849	38.4
225.067	235
225.285	42.5
225.503	-25.09
225.721	-107.01
225.939	75.26
226.157	36.35
226.375	218.62
226.592	-12.8
226.81	1.54
227.028	103.93
227.246	75.26
227.464	36.35
227.682	101.89
227.9	85.5
228.117	28.16
228.335	97.79
228.553	44.54
228.771	44.54
228.989	71.17
229.206	71.17
229.424	9.73
229.642	54.78
229.86	54.78
230.077	151.04
230.295	28.16
230.513	128.51
230.731	69.12
230.948	179.71
231.166	153.09
231.384	36.35
231.601	-74.24
231.819	218.62
232.037	17.92
232.254	-64
232.472	44.54
232.689	7.68
232.907	138.75
233.125	46.59
233.342	30.21
233.56	50.69
233.777	5.63
233.995	44.54
234.213	132.61
234.43	89.6
234.648	77.31
234.865	71.17
235.083	120.32
235.3	-0.51
235.518	128.51
235.735	144.89
235.953	122.37
236.17	83.45
236.388	93.69
236.605	87.55
236.822	110.08
237.04	181.76
237.257	42.5
237.475	-41.47
237.692	62.98
237.909	85.5
238.127	11.78
238.344	91.65
238.562	54.78
238.779	-41.47
238.996	-59.9
239.214	67.07
239.431	36.35
239.648	67.07
239.865	122.37
240.083	112.13
240.3	-4.61
240.517	34.3
240.735	73.21
240.952	124.41
241.169	103.93
241.386	93.69
241.603	48.64
241.821	30.21
242.038	56.83
242.255	58.88
242.472	-31.23
242.689	3.58
242.907	83.45
243.124	11.78
243.341	65.02
243.558	3.58
243.775	-98.81
243.992	-57.86
244.209	128.51
244.426	144.89
244.643	73.21
244.86	26.11
245.078	144.89
245.295	69.12
245.512	56.83
245.729	-12.8
245.946	46.59
246.163	32.26
246.38	11.78
246.597	130.56
246.814	54.78
247.031	-10.75
247.248	32.26
247.464	54.78
247.681	46.59
247.898	54.78
248.115	87.55
248.332	17.92
248.549	128.51
248.766	167.42
248.983	28.16
249.2	54.78
249.417	83.45
249.633	62.98
249.85	120.32
250.067	-2.56
250.284	-33.28
250.501	124.41
250.717	30.21
250.934	-64
251.151	108.03
251.368	28.16
251.585	132.61
251.801	73.21
252.018	-27.14
252.235	67.07
252.451	-104.96
252.668	40.45
252.885	103.93
253.102	-10.75
253.318	-16.9
253.535	26.11
253.752	-39.42
253.968	-29.18
254.185	-74.24
254.401	-16.9
254.618	75.26
254.835	3.58
255.051	171.52
255.268	108.03
255.484	87.55
255.701	42.5
255.917	73.21
256.134	62.98
256.351	36.35
256.567	-43.52
256.784	-4.61
257	-10.75
257.217	67.07
257.433	81.41
257.65	52.74
257.866	110.08
258.082	-31.23
258.299	-57.86
258.515	40.45
258.732	26.11
258.948	-4.61
259.165	52.74
259.381	-29.18
259.597	108.03
259.814	-23.04
260.03	54.78
260.246	15.87
260.463	93.69
260.679	181.76
260.895	52.74
261.112	108.03
261.328	-20.99
261.544	13.82
261.761	153.09
261.977	17.92
262.193	19.97
262.409	65.02
262.626	1.54
262.842	95.74
263.058	34.3
263.274	112.13
263.49	67.07
263.707	58.88
263.923	-6.66
264.139	-16.9
264.355	-10.75
264.571	157.18
264.787	108.03
265.004	110.08
265.22	81.41
265.436	36.35
265.652	42.5
265.868	105.98
266.084	-70.14
266.3	65.02
266.516	-33.28
266.732	65.02
266.948	91.65
267.164	32.26
267.38	56.83
267.596	93.69
267.812	136.7
268.028	87.55
268.244	-25.09
268.46	52.74
268.676	-10.75
268.892	50.69
269.108	-18.94
269.324	-37.38
269.54	-41.47
269.756	138.75
269.972	-61.95
270.188	36.35
270.403	-37.38
270.619	-10.75
270.835	118.27
271.051	77.31
271.267	128.51
271.483	-20.99
271.698	124.41
271.914	58.88
272.13	32.26
272.346	-14.85
272.562	69.12
272.777	128.51
272.993	42.5
273.209	54.78
273.425	163.33
273.64	-55.81
273.856	79.36
274.072	-8.7
274.287	58.88
274.503	118.27
274.719	83.45
274.934	50.69
275.15	-74.24
275.366	34.3
275.581	-49.66
275.797	44.54
276.012	7.68
276.228	38.4
276.444	83.45
276.659	167.42
276.875	40.45
277.09	30.21
277.306	28.16
277.521	116.22
277.737	97.79
277.952	89.6
278.168	87.55
278.383	28.16
278.599	138.75
278.814	130.56
279.03	11.78
279.245	93.69
279.461	71.17
279.676	122.37
279.892	-41.47
280.107	-53.76
280.322	-31.23
280.538	34.3
280.753	3.58
280.969	40.45
281.184	38.4
281.399	103.93
281.615	91.65
281.83	32.26
282.045	15.87
282.26	13.82
282.476	7.68
282.691	136.7
282.906	65.02
283.122	91.65
283.337	-35.33
283.552	52.74
283.767	62.98
283.983	95.74
284.198	-35.33
284.413	75.26
284.628	-10.75
284.843	28.16
285.058	81.41
285.274	48.64
285.489	60.93
285.704	11.78
285.919	-20.99
286.134	36.35
286.349	30.21
286.564	46.59
286.779	179.71
286.995	3.58
287.21	-53.76
287.425	93.69
287.64	34.3
287.855	75.26
288.07	44.54
288.285	169.47
288.5	128.51
288.715	126.46
288.93	13.82
289.145	-35.33
289.36	138.75
289.575	-47.62
289.79	140.8
290.004	3.58
290.219	83.45
290.434	38.4
290.649	19.97
290.864	-25.09
291.079	85.5
291.294	62.98
291.509	42.5
291.724	50.69
291.938	-10.75
292.153	50.69
292.368	50.69
292.583	77.31
292.798	89.6
293.012	93.69
293.227	-0.51
293.442	46.59
293.657	54.78
293.871	161.28
294.086	44.54
294.301	196.09
294.516	167.42
294.73	83.45
294.945	-23.04
295.16	22.02
295.374	105.98
295.589	99.84
295.804	34.3
296.018	11.78
296.233	161.28
296.447	7.68
296.662	44.54
296.877	122.37
297.091	52.74
297.306	26.11
297.52	56.83
297.735	17.92
297.949	75.26
298.164	103.93
298.378	52.74
298.593	-27.14
298.807	-43.52
299.022	22.02
299.236	148.99
299.451	22.02
299.665	48.64
299.88	54.78
300.094	40.45
300.309	11.78
300.523	46.59
300.737	3.58
300.952	58.88
301.166	60.93
301.381	-18.94
301.595	38.4
301.809	54.78
302.024	30.21
302.238	-51.71
302.452	138.75
302.667	46.59
302.881	171.52
303.095	58.88
303.309	58.88
303.524	-10.75
303.738	17.92
303.952	22.02
304.166	116.22
304.381	-76.29
304.595	134.65
304.809	54.78
305.023	132.61
305.237	91.65
305.452	1.54
305.666	54.78
305.88	142.85
306.094	120.32
306.308	91.65
306.522	95.74
306.736	99.84
306.95	169.47
307.164	26.11
307.379	-45.57
307.593	187.9
307.807	99.84
308.021	130.56
308.235	140.8
308.449	-90.62
308.663	73.21
308.877	181.76
309.091	58.88
309.305	103.93
309.519	-14.85
309.733	108.03
309.947	-10.75
310.161	83.45
310.374	136.7
310.588	114.17
310.802	-80.38
311.016	56.83
311.23	65.02
311.444	-102.91
311.658	40.45
311.872	116.22
312.085	136.7
312.299	181.76
312.513	181.76
312.727	34.3
312.941	-41.47
313.154	151.04
313.368	-55.81
313.582	81.41
313.796	3.58
314.009	71.17
314.223	144.89
314.437	11.78
314.651	97.79
314.864	-16.9
315.078	19.97
315.292	-109.05
315.505	75.26
315.719	65.02
315.933	56.83
316.146	-25.09
316.36	-94.72
316.573	112.13
316.787	50.69
317.001	179.71
317.214	19.97
317.428	58.88
317.641	7.68
317.855	124.41
318.068	112.13
318.282	132.61
318.495	206.33
318.709	83.45
318.922	26.11
319.136	153.09
319.349	91.65
319.563	62.98
319.776	148.99
319.99	-10.75
320.203	108.03
320.417	42.5
320.63	56.83
320.843	134.65
321.057	15.87
321.27	22.02
321.483	112.13
321.697	101.89
321.91	26.11
322.124	124.41
322.337	124.41
322.55	62.98
322.763	17.92
322.977	44.54
323.19	77.31
323.403	3.58
323.617	91.65
323.83	124.41
324.043	30.21
324.256	73.21
324.469	-51.71
324.683	153.09
324.896	116.22
325.109	17.92
325.322	-59.9
325.535	58.88
325.748	99.84
325.962	75.26
326.175	-8.7
326.388	132.61
326.601	95.74
326.814	114.17
327.027	28.16
327.24	99.84
327.453	7.68
327.666	83.45
327.879	144.89
328.092	118.27
328.305	87.55
328.518	52.74
328.731	69.12
328.944	-33.28
329.157	1.54
329.37	67.07
329.583	245.24
329.796	153.09
330.009	-29.18
330.222	159.23
330.435	91.65
330.648	73.21
330.861	50.69
331.073	42.5
331.286	108.03
331.499	108.03
331.712	-59.9
331.925	142.85
332.138	15.87
332.35	171.52
332.563	22.02
332.776	75.26
332.989	-23.04
333.202	38.4
333.414	30.21
333.627	40.45
333.84	-70.14
334.053	17.92
334.265	30.21
334.478	-57.86
334.691	114.17
334.903	46.59
335.116	-59.9
335.329	7.68
335.541	46.59
335.754	114.17
335.966	30.21
336.179	54.78
336.392	30.21
336.604	-29.18
336.817	93.69
337.029	153.09
337.242	83.45
337.454	91.65
337.667	38.4
337.88	196.09
338.092	52.74
338.305	97.79
338.517	67.07
338.729	69.12
338.942	181.76
339.154	-84.48
339.367	-6.66
339.579	-0.51
339.792	-8.7
340.004	159.23
340.217	38.4
340.429	101.89
340.641	5.63
340.854	-31.23
341.066	30.21
341.278	108.03
341.491	173.57
341.703	7.68
341.915	30.21
342.128	116.22
342.34	146.94
342.552	-18.94
342.764	85.5
342.977	65.02
343.189	138.75
343.401	89.6
343.613	1.54
343.826	15.87
344.038	-64
344.25	62.98
344.462	-23.04
344.674	54.78
344.886	40.45
345.099	128.51
345.311	67.07
345.523	48.64
345.735	-117.25
345.947	17.92
346.159	122.37
346.371	99.84
346.583	48.64
346.795	202.24
347.007	67.07
347.219	54.78
347.431	24.06
347.643	75.26
347.855	52.74
348.067	161.28
348.279	-57.86
348.491	97.79
348.703	54.78
348.915	87.55
349.127	42.5
349.339	-0.51
349.551	-68.09
349.763	93.69
349.975	65.02
350.187	36.35
350.399	128.51
350.61	42.5
350.822	62.98
351.034	26.11
351.246	87.55
351.458	97.79
351.669	58.88
351.881	52.74
352.093	112.13
352.305	128.51
352.517	26.11
352.728	105.98
352.94	89.6
353.152	67.07
353.363	-20.99
353.575	155.13
353.787	134.65
353.999	38.4
354.21	163.33
354.422	1.54
354.633	-43.52
354.845	75.26
355.057	5.63
355.268	28.16
355.48	85.5
355.692	3.58
355.903	3.58
356.115	-14.85
356.326	-43.52
356.538	142.85
356.749	56.83
356.961	140.8
357.172	77.31
357.384	75.26
357.595	202.24
357.807	81.41
358.018	-39.42
358.23	126.46
358.441	93.69
358.653	69.12
358.864	73.21
359.075	11.78
359.287	38.4
359.498	132.61
359.709	163.33
359.921	58.88
360.132	93.69
360.344	58.88
360.555	7.68
360.766	85.5
360.977	62.98
361.189	101.89
361.4	-47.62
361.611	116.22
361.823	67.07
362.034	-37.38
362.245	-33.28
362.456	108.03
362.667	128.51
362.879	-27.14
363.09	30.21
363.301	1.54
363.512	40.45
363.723	36.35
363.935	122.37
364.146	77.31
364.357	91.65
364.568	58.88
364.779	34.3
364.99	144.89
365.201	-16.9
365.412	91.65
365.623	-121.34
365.834	95.74
366.045	-16.9
366.256	95.74
366.467	91.65
366.678	97.79
366.889	83.45
367.1	11.78
367.311	103.93
367.522	-10.75
367.733	46.59
367.944	108.03
368.155	42.5
368.366	77.31
368.577	89.6
368.788	120.32
368.999	-55.81
369.209	89.6
369.42	218.62
369.631	192
369.842	118.27
370.053	62.98
370.264	112.13
370.474	-92.67
370.685	42.5
370.896	-14.85
371.107	108.03
371.317	105.98
371.528	52.74
371.739	171.52
371.95	95.74
372.16	91.65
372.371	9.73
372.582	52.74
372.792	103.93
373.003	93.69
373.214	85.5
373.424	116.22
373.635	-115.2
373.846	124.41
374.056	108.03
374.267	105.98
374.477	101.89
374.688	44.54
374.898	11.78
375.109	15.87
375.319	79.36
375.53	79.36
375.74	89.6
375.951	50.69
376.161	67.07
376.372	93.69
376.582	-33.28
376.793	26.11
377.003	58.88
377.214	-2.56
377.424	93.69
377.635	11.78
377.845	85.5
378.055	226.81
378.266	-90.62
378.476	67.07
378.686	15.87
378.897	87.55
379.107	93.69
379.317	97.79
379.528	44.54
379.738	62.98
379.948	28.16
380.158	130.56
380.369	24.06
380.579	67.07
380.789	3.58
380.999	75.26
381.21	134.65
381.42	245.24
381.63	60.93
381.84	155.13
382.05	103.93
382.261	110.08
382.471	97.79
382.681	73.21
382.891	214.52
383.101	77.31
383.311	3.58
383.521	13.82
383.731	120.32
383.941	138.75
384.151	38.4
384.361	15.87
384.571	56.83
384.781	50.69
384.991	275.96
385.201	206.33
385.411	97.79
385.621	79.36
385.831	97.79
386.041	24.06
386.251	32.26
386.461	130.56
386.671	5.63
386.881	50.69
387.091	42.5
387.301	71.17
387.511	73.21
387.72	157.18
387.93	138.75
388.14	28.16
388.35	91.65
388.56	99.84
388.769	157.18
388.979	9.73
389.189	11.78
389.399	42.5
389.609	34.3
389.818	99.84
390.028	52.74
390.238	136.7
390.447	-41.47
390.657	95.74
390.867	-43.52
391.076	7.68
391.286	87.55
391.496	26.11
391.705	9.73
391.915	157.18
392.125	124.41
392.334	24.06
392.544	157.18
392.753	114.17
392.963	9.73
393.172	62.98
393.382	-6.66
393.591	200.19
393.801	91.65
394.01	87.55
394.22	60.93
394.429	46.59
394.639	60.93
394.848	91.65
395.058	62.98
395.267	19.97
395.477	103.93
395.686	122.37
395.895	226.81
396.105	173.57
396.314	73.21
396.524	3.58
396.733	46.59
396.942	142.85
397.152	122.37
397.361	79.36
397.57	108.03
397.78	93.69
397.989	93.69
398.198	183.81
398.407	36.35
398.617	13.82
398.826	108.03
399.035	69.12
399.244	120.32
399.453	9.73
399.663	83.45
399.872	108.03
400.081	1.54
400.29	177.66
400.499	36.35
400.708	128.51
400.917	9.73
401.127	30.21
401.336	24.06
401.545	173.57
401.754	146.94
401.963	159.23
402.172	1.54
402.381	-2.56
402.59	-6.66
402.799	97.79
403.008	105.98
403.217	13.82
403.426	83.45
403.635	-64
403.844	22.02
404.053	67.07
404.262	52.74
404.471	118.27
404.68	60.93
404.888	116.22
405.097	24.06
405.306	169.47
405.515	95.74
405.724	36.35
405.933	132.61
406.142	28.16
406.35	157.18
406.559	-0.51
406.768	91.65
406.977	187.9
407.185	85.5
407.394	91.65
407.603	-8.7
407.812	105.98
408.02	58.88
408.229	99.84
408.438	-0.51
408.646	3.58
408.855	30.21
409.064	-2.56
409.272	-23.04
409.481	148.99
409.69	-33.28
409.898	-64
410.107	97.79
410.315	112.13
410.524	-10.75
410.733	110.08
410.941	38.4
411.15	79.36
411.358	99.84
411.567	97.79
411.775	120.32
411.984	89.6
412.192	89.6
412.401	56.83
412.609	212.48
412.818	183.81
413.026	138.75
413.234	-10.75
413.443	91.65
413.651	38.4
413.86	89.6
414.068	101.89
414.276	189.95
414.485	83.45
414.693	202.24
414.901	148.99
415.11	91.65
415.318	93.69
415.526	-2.56
415.734	138.75
415.943	73.21
416.151	99.84
416.359	15.87
416.567	89.6
416.776	95.74
416.984	118.27
417.192	230.91
417.4	83.45
417.608	79.36
417.817	-35.33
418.025	97.79
418.233	247.29
418.441	-8.7
418.649	-51.71
418.857	89.6
419.065	204.28
419.273	-4.61
419.481	56.83
419.689	69.12
419.897	22.02
420.105	22.02
420.313	103.93
420.521	239.1
420.729	108.03
420.937	101.89
421.145	24.06
421.353	91.65
421.561	146.94
421.769	159.23
421.977	-49.66
422.185	114.17
422.393	46.59
422.601	241.15
422.809	108.03
423.017	108.03
423.224	136.7
423.432	91.65
423.64	97.79
423.848	118.27
424.056	22.02
424.263	202.24
424.471	50.69
424.679	171.52
424.887	83.45
425.094	134.65
425.302	165.37
425.51	44.54
425.718	151.04
425.925	171.52
426.133	48.64
426.341	241.15
426.548	-4.61
426.756	75.26
426.964	120.32
427.171	-10.75
427.379	118.27
427.586	128.51
427.794	105.98
428.001	189.95
428.209	105.98
428.417	148.99
428.624	189.95
428.832	120.32
429.039	140.8
429.247	130.56
429.454	112.13
429.662	214.52
429.869	169.47
430.076	142.85
430.284	185.85
430.491	286.2
430.699	241.15
430.906	278.01
431.114	148.99
431.321	220.67
431.528	136.7
431.736	101.89
431.943	282.11
432.15	189.95
432.358	208.38
432.565	312.83
432.772	167.42
432.979	173.57
433.187	157.18
433.394	214.52
433.601	187.9
433.808	232.96
434.016	331.26
434.223	278.01
434.43	224.76
434.637	292.35
434.844	308.73
435.052	230.91
435.259	314.88
435.466	372.22
435.673	267.77
435.88	357.88
436.087	488.95
436.294	423.42
436.501	437.75
436.708	374.27
436.915	378.36
437.122	404.99
437.329	353.79
437.537	470.52
437.743	327.16
437.95	544.25
438.157	466.42
438.364	507.38
438.571	460.28
438.778	564.73
438.985	574.97
439.192	603.64
439.399	564.73
439.606	566.78
439.813	646.65
440.02	695.8
440.227	818.68
440.433	736.76
440.64	681.46
440.847	605.69
441.054	790
441.261	855.54
441.467	769.52
441.674	769.52
441.881	857.59
442.088	869.87
442.294	990.7
442.501	1029.62
442.708	1019.38
442.914	966.13
443.121	1041.9
443.328	1119.73
443.534	1246.7
443.741	1078.77
443.948	994.8
444.154	1277.42
444.361	1383.91
444.568	1295.85
444.774	1351.15
444.981	1263.08
445.187	1459.69
445.394	1648.1
445.6	1469.93
445.807	1619.43
446.013	1627.62
446.22	1580.52
446.426	1674.73
446.633	1885.67
446.839	2045.41
447.046	1799.65
447.252	2053.6
447.459	2112.99
447.665	2129.38
447.871	2252.25
448.078	2520.54
448.284	2348.51
448.491	2477.53
448.697	2575.83
448.903	2715.09
449.11	2917.84
449.316	2799.06
449.522	3046.87
449.728	3120.59
449.935	3188.18
450.141	3175.89
450.347	3634.63
450.553	3409.36
450.76	3378.64
450.966	3694.02
451.172	3816.9
451.378	4126.15
451.584	4111.81
451.791	4363.71
451.997	4462.01
452.203	4564.41
452.409	4664.76
452.615	5033.4
452.821	4867.51
453.027	4953.52
453.233	5649.83
453.44	5373.36
453.646	5615.02
453.852	5975.46
454.058	6198.69
454.264	6487.45
454.47	6679.96
454.676	6915.48
454.882	7536.01
455.088	7083.41
455.294	7454.09
455.5	7863.69
455.705	8410.5
455.911	8461.69
456.117	8535.42
456.323	9020.79
456.529	9078.13
456.735	9813.35
456.941	9942.38
457.147	10343.78
457.352	10751.32
457.558	11031.9
457.764	11752.78
457.97	11988.3
458.176	12440.9
458.381	13221.17
458.587	13237.56
458.793	13960.49
458.999	14044.46
459.204	15613.2
459.41	16463.11
459.616	16004.36
459.821	16852.22
460.027	17970.41
460.233	18771.17
460.438	18648.29
460.644	19604.69
460.85	20018.38
461.055	20739.27
461.261	21824.69
461.466	21161.15
461.672	21685.43
461.878	23983.25
462.083	23831.7
462.289	24423.56
462.494	25574.52
462.7	25803.89
462.905	26238.06
463.111	27798.62
463.316	29604.92
463.522	30051.38
463.727	30870.57
463.932	32357.39
464.138	32828.43
464.343	34716.65
464.549	34448.37
464.754	37227.46
464.959	38175.67
465.165	38804.4
465.37	38585.27
465.575	38548.4
465.781	41403.27
465.986	42173.31
466.191	41591.69
466.397	41794.43
466.602	41116.56
466.807	43109.23
467.012	44172.13
467.218	44671.83
467.423	45345.61
467.628	46117.7
467.833	48560.92
468.038	47668.01
468.244	46744.37
468.449	49058.58
468.654	48065.31
