Data from USB4F104151__151__11-04-25-338.txt Node

Date: Wed Feb 26 11:04:25 EST 2025
User: louis
Spectrometer: USB4F10415
Trigger mode: 4
Integration Time (sec): 1.000000E-1
Scans to average: 1
Electric dark correction enabled: true
Nonlinearity correction enabled: false
Boxcar width: 0
XAxis mode: Wavelengths
Number of Pixels in Spectrum: 3648
>>>>>Begin Spectral Data<<<<<
178.204	-435.71
178.424	-435.71
178.644	-435.71
178.864	-413.18
179.084	-439.8
179.304	0.51
179.524	-28.16
179.744	-28.16
179.964	84.48
180.184	18.94
180.404	12.8
180.624	29.18
180.844	-36.35
181.064	-89.6
181.283	2.56
181.503	-38.4
181.723	72.19
181.943	-81.41
182.163	166.4
182.383	10.75
182.602	57.86
182.822	137.73
183.042	78.33
183.262	-34.3
183.482	-73.21
183.701	-36.35
183.921	109.05
184.141	-58.88
184.361	57.86
184.58	76.29
184.8	102.91
185.02	8.7
185.239	168.45
185.459	-22.02
185.679	158.21
185.898	-56.83
186.118	35.33
186.338	217.6
186.557	82.43
186.777	-54.78
186.997	39.42
187.216	31.23
187.436	158.21
187.655	37.38
187.875	119.29
188.095	88.57
188.314	133.63
188.534	137.73
188.753	-85.5
188.973	121.34
189.192	156.16
189.412	37.38
189.631	70.14
189.851	27.14
190.07	219.64
190.29	37.38
190.509	10.75
190.729	135.68
190.948	88.57
191.168	274.94
191.387	57.86
191.607	51.71
191.826	113.15
192.045	59.9
192.265	39.42
192.484	-24.06
192.704	0.51
192.923	-112.13
193.142	170.49
193.362	102.91
193.581	154.11
193.8	45.57
194.02	98.81
194.239	43.52
194.458	201.21
194.678	-22.02
194.897	16.9
195.116	72.19
195.335	96.77
195.555	59.9
195.774	-11.78
195.993	162.3
196.212	119.29
196.432	18.94
196.651	-26.11
196.87	2.56
197.089	266.75
197.308	39.42
197.528	51.71
197.747	-15.87
197.966	66.05
198.185	164.35
198.404	31.23
198.623	82.43
198.842	141.82
199.062	53.76
199.281	31.23
199.5	41.47
199.719	74.24
199.938	82.43
200.157	14.85
200.376	68.09
200.595	104.96
200.814	98.81
201.033	31.23
201.252	104.96
201.471	43.52
201.69	88.57
201.909	57.86
202.128	133.63
202.347	53.76
202.566	27.14
202.785	-120.32
203.004	-17.92
203.223	231.93
203.442	80.38
203.661	-38.4
203.879	66.05
204.098	107.01
204.317	23.04
204.536	147.97
204.755	111.1
204.974	125.44
205.193	-24.06
205.411	150.01
205.63	102.91
205.849	109.05
206.068	88.57
206.287	31.23
206.505	154.11
206.724	39.42
206.943	18.94
207.162	10.75
207.381	184.83
207.599	43.52
207.818	16.9
208.037	23.04
208.255	-11.78
208.474	33.28
208.693	16.9
208.911	-26.11
209.13	160.25
209.349	53.76
209.567	109.05
209.786	86.53
210.005	117.25
210.223	39.42
210.442	-122.37
210.661	37.38
210.879	102.91
211.098	55.81
211.316	39.42
211.535	98.81
211.753	23.04
211.972	33.28
212.191	-24.06
212.409	12.8
212.628	104.96
212.846	-3.58
213.065	20.99
213.283	131.58
213.502	-1.54
213.72	145.92
213.938	100.86
214.157	25.09
214.375	70.14
214.594	-30.21
214.812	107.01
215.031	-7.68
215.249	57.86
215.467	25.09
215.686	61.95
215.904	33.28
216.122	70.14
216.341	127.49
216.559	70.14
216.778	51.71
216.996	162.3
217.214	43.52
217.432	-19.97
217.651	-28.16
217.869	16.9
218.087	68.09
218.306	53.76
218.524	61.95
218.742	20.99
218.96	59.9
219.179	16.9
219.397	51.71
219.615	221.69
219.833	70.14
220.051	2.56
220.27	10.75
220.488	107.01
220.706	92.67
220.924	-5.63
221.142	-1.54
221.36	178.69
221.578	113.15
221.796	-30.21
222.015	80.38
222.233	78.33
222.451	145.92
222.669	20.99
222.887	72.19
223.105	-40.45
223.323	33.28
223.541	-9.73
223.759	10.75
223.977	16.9
224.195	113.15
224.413	107.01
224.631	27.14
224.849	88.57
225.067	168.45
225.285	8.7
225.503	6.66
225.721	-48.64
225.939	0.51
226.157	53.76
226.375	254.46
226.592	20.99
226.81	10.75
227.028	135.68
227.246	193.02
227.464	45.57
227.682	84.48
227.9	104.96
228.117	66.05
228.335	152.06
228.553	14.85
228.771	35.33
228.989	76.29
229.206	147.97
229.424	16.9
229.642	37.38
229.86	-17.92
230.077	172.54
230.295	117.25
230.513	129.53
230.731	39.42
230.948	231.93
231.166	135.68
231.384	107.01
231.601	33.28
231.819	154.11
232.037	-71.17
232.254	-42.5
232.472	29.18
232.689	35.33
232.907	123.39
233.125	35.33
233.342	2.56
233.56	104.96
233.777	-9.73
233.995	55.81
234.213	70.14
234.43	-5.63
234.648	-46.59
234.865	25.09
235.083	12.8
235.3	12.8
235.518	82.43
235.735	92.67
235.953	127.49
236.17	43.52
236.388	53.76
236.605	109.05
236.822	94.72
237.04	139.77
237.257	162.3
237.475	-46.59
237.692	74.24
237.909	-3.58
238.127	-19.97
238.344	82.43
238.562	4.61
238.779	-42.5
238.996	-65.02
239.214	59.9
239.431	70.14
239.648	88.57
239.865	150.01
240.083	72.19
240.3	84.48
240.517	2.56
240.735	53.76
240.952	145.92
241.169	14.85
241.386	53.76
241.603	-19.97
241.821	47.62
242.038	51.71
242.255	49.66
242.472	0.51
242.689	76.29
242.907	59.9
243.124	45.57
243.341	31.23
243.558	25.09
243.775	51.71
243.992	-89.6
244.209	74.24
244.426	164.35
244.643	20.99
244.86	-28.16
245.078	59.9
245.295	-19.97
245.512	68.09
245.729	-42.5
245.946	88.57
246.163	100.86
246.38	25.09
246.597	70.14
246.814	72.19
247.031	47.62
247.248	49.66
247.464	78.33
247.681	76.29
247.898	59.9
248.115	100.86
248.332	-52.74
248.549	199.16
248.766	184.83
248.983	80.38
249.2	76.29
249.417	141.82
249.633	-7.68
249.85	33.28
250.067	37.38
250.284	37.38
250.501	68.09
250.717	111.1
250.934	-67.07
251.151	0.51
251.368	10.75
251.585	100.86
251.801	92.67
252.018	-36.35
252.235	94.72
252.451	-5.63
252.668	57.86
252.885	137.73
253.102	64
253.318	18.94
253.535	14.85
253.752	98.81
253.968	-11.78
254.185	-81.41
254.401	90.62
254.618	139.77
254.835	47.62
255.051	119.29
255.268	68.09
255.484	80.38
255.701	31.23
255.917	78.33
256.134	-56.83
256.351	16.9
256.567	-50.69
256.784	25.09
257	-60.93
257.217	47.62
257.433	119.29
257.65	68.09
257.866	213.5
258.082	-15.87
258.299	-19.97
258.515	111.1
258.732	102.91
258.948	-30.21
259.165	53.76
259.381	-142.85
259.597	-15.87
259.814	80.38
260.03	55.81
260.246	-38.4
260.463	141.82
260.679	145.92
260.895	49.66
261.112	68.09
261.328	90.62
261.544	14.85
261.761	182.78
261.977	4.61
262.193	-26.11
262.409	45.57
262.626	39.42
262.842	59.9
263.058	16.9
263.274	94.72
263.49	23.04
263.707	59.9
263.923	33.28
264.139	-69.12
264.355	-54.78
264.571	47.62
264.787	84.48
265.004	55.81
265.22	84.48
265.436	-36.35
265.652	-3.58
265.868	59.9
266.084	-19.97
266.3	31.23
266.516	23.04
266.732	45.57
266.948	39.42
267.164	119.29
267.38	4.61
267.596	37.38
267.812	145.92
268.028	43.52
268.244	6.66
268.46	74.24
268.676	53.76
268.892	111.1
269.108	-5.63
269.324	41.47
269.54	20.99
269.756	100.86
269.972	-9.73
270.188	4.61
270.403	16.9
270.619	80.38
270.835	59.9
271.051	35.33
271.267	2.56
271.483	10.75
271.698	80.38
271.914	88.57
272.13	49.66
272.346	-65.02
272.562	41.47
272.777	86.53
272.993	20.99
273.209	-5.63
273.425	111.1
273.64	-19.97
273.856	61.95
274.072	2.56
274.287	-26.11
274.503	55.81
274.719	80.38
274.934	98.81
275.15	-87.55
275.366	10.75
275.581	-52.74
275.797	92.67
276.012	16.9
276.228	-46.59
276.444	41.47
276.659	127.49
276.875	-32.26
277.09	39.42
277.306	-26.11
277.521	107.01
277.737	10.75
277.952	172.54
278.168	51.71
278.383	-19.97
278.599	-15.87
278.814	180.73
279.03	39.42
279.245	59.9
279.461	-3.58
279.676	107.01
279.892	-58.88
280.107	-1.54
280.322	-5.63
280.538	68.09
280.753	-46.59
280.969	109.05
281.184	2.56
281.399	160.25
281.615	125.44
281.83	123.39
282.045	-40.45
282.26	74.24
282.476	66.05
282.691	98.81
282.906	55.81
283.122	90.62
283.337	16.9
283.552	43.52
283.767	-44.54
283.983	115.2
284.198	35.33
284.413	61.95
284.628	-22.02
284.843	76.29
285.058	88.57
285.274	12.8
285.489	-19.97
285.704	49.66
285.919	37.38
286.134	35.33
286.349	20.99
286.564	25.09
286.779	107.01
286.995	27.14
287.21	-77.31
287.425	100.86
287.64	31.23
287.855	68.09
288.07	-46.59
288.285	113.15
288.5	166.4
288.715	-26.11
288.93	94.72
289.145	-11.78
289.36	113.15
289.575	57.86
289.79	211.45
290.004	-13.82
290.219	104.96
290.434	-40.45
290.649	-1.54
290.864	8.7
291.079	-38.4
291.294	84.48
291.509	76.29
291.724	31.23
291.938	20.99
292.153	70.14
292.368	57.86
292.583	125.44
292.798	115.2
293.012	39.42
293.227	102.91
293.442	-13.82
293.657	121.34
293.871	94.72
294.086	80.38
294.301	147.97
294.516	82.43
294.73	135.68
294.945	-13.82
295.16	18.94
295.374	113.15
295.589	96.77
295.804	61.95
296.018	18.94
296.233	154.11
296.447	70.14
296.662	53.76
296.877	113.15
297.091	78.33
297.306	102.91
297.52	35.33
297.735	94.72
297.949	29.18
298.164	51.71
298.378	31.23
298.593	12.8
298.807	-38.4
299.022	98.81
299.236	82.43
299.451	29.18
299.665	-28.16
299.88	55.81
300.094	20.99
300.309	14.85
300.523	76.29
300.737	6.66
300.952	86.53
301.166	127.49
301.381	27.14
301.595	-69.12
301.809	72.19
302.024	-30.21
302.238	-11.78
302.452	201.21
302.667	84.48
302.881	141.82
303.095	180.73
303.309	55.81
303.524	10.75
303.738	92.67
303.952	66.05
304.166	31.23
304.381	-87.55
304.595	174.59
304.809	14.85
305.023	-52.74
305.237	59.9
305.452	59.9
305.666	168.45
305.88	117.25
306.094	70.14
306.308	57.86
306.522	-19.97
306.736	150.01
306.95	166.4
307.164	35.33
307.379	57.86
307.593	219.64
307.807	133.63
308.021	84.48
308.235	84.48
308.449	-34.3
308.663	51.71
308.877	197.12
309.091	94.72
309.305	119.29
309.519	-81.41
309.733	117.25
309.947	-34.3
310.161	94.72
310.374	70.14
310.588	111.1
310.802	-40.45
311.016	0.51
311.23	47.62
311.444	68.09
311.658	16.9
311.872	133.63
312.085	113.15
312.299	111.1
312.513	129.53
312.727	-17.92
312.941	-40.45
313.154	16.9
313.368	109.05
313.582	53.76
313.796	25.09
314.009	-19.97
314.223	156.16
314.437	25.09
314.651	64
314.864	-17.92
315.078	-17.92
315.292	-71.17
315.505	14.85
315.719	41.47
315.933	12.8
316.146	27.14
316.36	-69.12
316.573	100.86
316.787	86.53
317.001	145.92
317.214	-3.58
317.428	119.29
317.641	-9.73
317.855	78.33
318.068	47.62
318.282	150.01
318.495	225.79
318.709	113.15
318.922	33.28
319.136	141.82
319.349	66.05
319.563	98.81
319.776	39.42
319.99	-77.31
320.203	68.09
320.417	94.72
320.63	104.96
320.843	215.55
321.057	59.9
321.27	-1.54
321.483	160.25
321.697	197.12
321.91	76.29
322.124	133.63
322.337	66.05
322.55	-22.02
322.763	31.23
322.977	-26.11
323.19	27.14
323.403	25.09
323.617	143.87
323.83	131.58
324.043	57.86
324.256	82.43
324.469	-24.06
324.683	109.05
324.896	18.94
325.109	119.29
325.322	-60.93
325.535	158.21
325.748	135.68
325.962	4.61
326.175	47.62
326.388	76.29
326.601	176.64
326.814	41.47
327.027	16.9
327.24	184.83
327.453	-62.98
327.666	117.25
327.879	88.57
328.092	164.35
328.305	109.05
328.518	-5.63
328.731	57.86
328.944	14.85
329.157	6.66
329.37	27.14
329.583	158.21
329.796	176.64
330.009	-67.07
330.222	119.29
330.435	170.49
330.648	55.81
330.861	64
331.073	80.38
331.286	84.48
331.499	53.76
331.712	-52.74
331.925	-32.26
332.138	6.66
332.35	107.01
332.563	-11.78
332.776	197.12
332.989	-17.92
333.202	-32.26
333.414	-26.11
333.627	39.42
333.84	59.9
334.053	76.29
334.265	-38.4
334.478	76.29
334.691	53.76
334.903	-15.87
335.116	-9.73
335.329	41.47
335.541	121.34
335.754	178.69
335.966	59.9
336.179	76.29
336.392	47.62
336.604	14.85
336.817	143.87
337.029	129.53
337.242	23.04
337.454	119.29
337.667	2.56
337.88	154.11
338.092	117.25
338.305	18.94
338.517	33.28
338.729	94.72
338.942	57.86
339.154	-60.93
339.367	-38.4
339.579	88.57
339.792	31.23
340.004	121.34
340.217	96.77
340.429	61.95
340.641	-50.69
340.854	29.18
341.066	29.18
341.278	113.15
341.491	238.08
341.703	53.76
341.915	74.24
342.128	176.64
342.34	55.81
342.552	-30.21
342.764	119.29
342.977	20.99
343.189	39.42
343.401	33.28
343.613	-54.78
343.826	68.09
344.038	-1.54
344.25	25.09
344.462	-28.16
344.674	68.09
344.886	61.95
345.099	78.33
345.311	68.09
345.523	61.95
345.735	-83.45
345.947	90.62
346.159	72.19
346.371	49.66
346.583	6.66
346.795	135.68
347.007	117.25
347.219	84.48
347.431	4.61
347.643	119.29
347.855	23.04
348.067	193.02
348.279	29.18
348.491	45.57
348.703	57.86
348.915	64
349.127	-48.64
349.339	6.66
349.551	66.05
349.763	82.43
349.975	88.57
350.187	80.38
350.399	123.39
350.61	51.71
350.822	66.05
351.034	16.9
351.246	41.47
351.458	117.25
351.669	31.23
351.881	78.33
352.093	180.73
352.305	113.15
352.517	39.42
352.728	119.29
352.94	31.23
353.152	76.29
353.363	4.61
353.575	102.91
353.787	143.87
353.999	37.38
354.21	109.05
354.422	10.75
354.633	-7.68
354.845	23.04
355.057	27.14
355.268	137.73
355.48	129.53
355.692	23.04
355.903	76.29
356.115	-13.82
356.326	-99.84
356.538	123.39
356.749	117.25
356.961	137.73
357.172	84.48
357.384	37.38
357.595	229.88
357.807	72.19
358.018	-19.97
358.23	16.9
358.441	119.29
358.653	78.33
358.864	86.53
359.075	-56.83
359.287	119.29
359.498	219.64
359.709	102.91
359.921	45.57
360.132	64
360.344	68.09
360.555	39.42
360.766	84.48
360.977	49.66
361.189	123.39
361.4	41.47
361.611	147.97
361.823	123.39
362.034	119.29
362.245	-46.59
362.456	68.09
362.667	61.95
362.879	-34.3
363.09	25.09
363.301	113.15
363.512	53.76
363.723	8.7
363.935	12.8
364.146	137.73
364.357	88.57
364.568	8.7
364.779	23.04
364.99	131.58
365.201	-38.4
365.412	72.19
365.623	-15.87
365.834	70.14
366.045	4.61
366.256	57.86
366.467	84.48
366.678	23.04
366.889	84.48
367.1	47.62
367.311	72.19
367.522	49.66
367.733	78.33
367.944	133.63
368.155	49.66
368.366	88.57
368.577	78.33
368.788	61.95
368.999	-5.63
369.209	16.9
369.42	229.88
369.631	174.59
369.842	107.01
370.053	-19.97
370.264	107.01
370.474	4.61
370.685	84.48
370.896	49.66
371.107	131.58
371.317	45.57
371.528	49.66
371.739	107.01
371.95	107.01
372.16	113.15
372.371	35.33
372.582	33.28
372.792	125.44
373.003	72.19
373.214	66.05
373.424	68.09
373.635	-11.78
373.846	213.5
374.056	94.72
374.267	47.62
374.477	170.49
374.688	-1.54
374.898	66.05
375.109	12.8
375.319	90.62
375.53	125.44
375.74	176.64
375.951	61.95
376.161	47.62
376.372	107.01
376.582	70.14
376.793	86.53
377.003	18.94
377.214	43.52
377.424	2.56
377.635	-11.78
377.845	61.95
378.055	225.79
378.266	8.7
378.476	0.51
378.686	80.38
378.897	107.01
379.107	27.14
379.317	14.85
379.528	33.28
379.738	102.91
379.948	-24.06
380.158	51.71
380.369	74.24
380.579	74.24
380.789	59.9
380.999	96.77
381.21	117.25
381.42	188.93
381.63	61.95
381.84	102.91
382.05	27.14
382.261	100.86
382.471	170.49
382.681	27.14
382.891	168.45
383.101	0.51
383.311	57.86
383.521	90.62
383.731	127.49
383.941	135.68
384.151	45.57
384.361	-5.63
384.571	45.57
384.781	76.29
384.991	178.69
385.201	190.97
385.411	94.72
385.621	131.58
385.831	104.96
386.041	145.92
386.251	49.66
386.461	100.86
386.671	-9.73
386.881	162.3
387.091	-3.58
387.301	137.73
387.511	98.81
387.72	18.94
387.93	152.06
388.14	-60.93
388.35	2.56
388.56	115.2
388.769	111.1
388.979	129.53
389.189	18.94
389.399	68.09
389.609	123.39
389.818	94.72
390.028	129.53
390.238	160.25
390.447	25.09
390.657	100.86
390.867	84.48
391.076	-65.02
391.286	123.39
391.496	-22.02
391.705	49.66
391.915	154.11
392.125	92.67
392.334	-38.4
392.544	115.2
392.753	37.38
392.963	-56.83
393.172	53.76
393.382	53.76
393.591	197.12
393.801	31.23
394.01	156.16
394.22	109.05
394.429	39.42
394.639	43.52
394.848	117.25
395.058	59.9
395.267	23.04
395.477	68.09
395.686	172.54
395.895	213.5
396.105	193.02
396.314	49.66
396.524	-15.87
396.733	41.47
396.942	109.05
397.152	129.53
397.361	137.73
397.57	78.33
397.78	117.25
397.989	104.96
398.198	193.02
398.407	115.2
398.617	141.82
398.826	53.76
399.035	-17.92
399.244	199.16
399.453	61.95
399.663	68.09
399.872	66.05
400.081	-52.74
400.29	178.69
400.499	-34.3
400.708	100.86
400.917	35.33
401.127	6.66
401.336	37.38
401.545	229.88
401.754	160.25
401.963	68.09
402.172	18.94
402.381	18.94
402.59	39.42
402.799	64
403.008	119.29
403.217	164.35
403.426	123.39
403.635	-42.5
403.844	33.28
404.053	-28.16
404.262	35.33
404.471	236.03
404.68	76.29
404.888	27.14
405.097	14.85
405.306	102.91
405.515	215.55
405.724	61.95
405.933	111.1
406.142	72.19
406.35	135.68
406.559	37.38
406.768	176.64
406.977	150.01
407.185	-5.63
407.394	88.57
407.603	47.62
407.812	59.9
408.02	184.83
408.229	-3.58
408.438	61.95
408.646	-9.73
408.855	43.52
409.064	137.73
409.272	123.39
409.481	53.76
409.69	-36.35
409.898	-5.63
410.107	41.47
410.315	82.43
410.524	-24.06
410.733	64
410.941	4.61
411.15	80.38
411.358	166.4
411.567	172.54
411.775	43.52
411.984	47.62
412.192	172.54
412.401	41.47
412.609	121.34
412.818	168.45
413.026	160.25
413.234	10.75
413.443	109.05
413.651	37.38
413.86	129.53
414.068	86.53
414.276	252.41
414.485	37.38
414.693	225.79
414.901	174.59
415.11	115.2
415.318	102.91
415.526	6.66
415.734	141.82
415.943	117.25
416.151	217.6
416.359	-5.63
416.567	98.81
416.776	66.05
416.984	43.52
417.192	244.22
417.4	31.23
417.608	53.76
417.817	68.09
418.025	236.03
418.233	207.36
418.441	-38.4
418.649	-60.93
418.857	33.28
419.065	168.45
419.273	4.61
419.481	74.24
419.689	100.86
419.897	0.51
420.105	25.09
420.313	119.29
420.521	182.78
420.729	178.69
420.937	72.19
421.145	4.61
421.353	154.11
421.561	145.92
421.769	59.9
421.977	96.77
422.185	203.26
422.393	35.33
422.601	113.15
422.809	111.1
423.017	27.14
423.224	164.35
423.432	121.34
423.64	98.81
423.848	203.26
424.056	39.42
424.263	129.53
424.471	57.86
424.679	107.01
424.887	39.42
425.094	102.91
425.302	143.87
425.51	59.9
425.718	154.11
425.925	104.96
426.133	51.71
426.341	231.93
426.548	66.05
426.756	70.14
426.964	74.24
427.171	-3.58
427.379	117.25
427.586	104.96
427.794	152.06
428.001	107.01
428.209	197.12
428.417	205.31
428.624	199.16
428.832	111.1
429.039	117.25
429.247	88.57
429.454	193.02
429.662	137.73
429.869	115.2
430.076	80.38
430.284	129.53
430.491	205.31
430.699	113.15
430.906	295.42
431.114	236.03
431.321	158.21
431.528	141.82
431.736	160.25
431.943	170.49
432.15	203.26
432.358	221.69
432.565	313.85
432.772	119.29
432.979	238.08
433.187	158.21
433.394	180.73
433.601	166.4
433.808	238.08
434.016	274.94
434.223	213.5
434.43	205.31
434.637	330.23
434.844	354.81
435.052	270.84
435.259	291.32
435.466	246.27
435.673	266.75
435.88	264.7
436.087	389.63
436.294	418.3
436.501	320
436.708	307.71
436.915	395.77
437.122	414.2
437.329	283.13
437.537	346.62
437.743	401.91
437.95	446.97
438.157	465.4
438.364	379.39
438.571	481.78
438.778	494.07
438.985	406.01
439.192	553.46
439.399	543.22
439.606	549.37
439.813	561.66
440.02	682.49
440.227	717.3
440.433	508.41
440.64	621.05
440.847	616.95
441.054	655.86
441.261	840.18
441.467	756.21
441.674	635.38
441.881	719.35
442.088	754.16
442.294	807.41
442.501	795.12
442.708	829.94
442.914	864.75
443.121	999.92
443.328	952.82
443.534	1022.45
443.741	952.82
443.948	870.9
444.154	1147.37
444.361	1315.31
444.568	1092.08
444.774	1126.89
444.981	1112.56
445.187	1321.45
445.394	1245.68
445.6	1163.76
445.807	1452.52
446.013	1395.18
446.22	1309.16
446.426	1624.55
446.633	1571.3
446.839	1765.86
447.046	1591.78
447.252	1931.75
447.459	1835.49
447.665	1708.52
447.871	2120.16
448.078	2103.78
448.284	2159.07
448.491	2144.74
448.697	2376.16
448.903	2431.45
449.11	2398.68
449.316	2408.92
449.522	2634.2
449.728	2632.15
449.935	2818.52
450.141	2701.78
450.347	2822.61
450.553	2845.14
450.76	3017.17
450.966	3240.4
451.172	3320.27
451.378	3426.76
451.584	3547.59
451.791	3832.26
451.997	3938.76
452.203	4000.19
452.409	4194.75
452.615	4313.53
452.821	4155.84
453.027	4225.47
453.233	4759.99
453.44	4667.83
453.646	4831.67
453.852	5112.24
454.058	5343.66
454.264	5548.46
454.47	5708.2
454.676	5884.33
454.882	6422.94
455.088	6076.84
455.294	6486.43
455.5	6797.72
455.705	7328.14
455.911	7170.45
456.117	7451.02
456.323	7735.69
456.529	7616.91
456.735	8225.15
456.941	8610.17
457.147	8999.29
457.352	9185.65
457.558	9425.26
457.764	10172.77
457.97	10475.87
458.176	10652
458.381	11383.12
458.587	11450.71
458.793	12114.25
458.999	12038.47
459.204	13549.87
459.41	13984.04
459.616	13777.2
459.821	14465.32
460.027	15227.16
460.233	15941.9
460.438	15956.24
460.644	17008.89
460.85	17096.96
461.055	17619.19
461.261	18374.89
461.466	17866.99
461.672	18782.43
461.878	20697.28
462.083	20265.16
462.289	20932.8
462.494	21868.72
462.7	21778.61
462.905	22210.73
463.111	24141.97
463.316	25094.27
463.522	25434.24
463.727	26191.98
463.932	27416.67
464.138	28373.07
464.343	29235.27
464.549	29509.69
464.754	31649.82
464.959	32569.36
465.165	33153.03
465.37	32651.28
465.575	32794.64
465.781	34916.33
465.986	36069.34
466.191	35532.77
466.397	35950.56
466.602	35147.75
466.807	37003.21
467.012	37324.74
467.218	38145.98
467.423	38426.55
467.628	39135.15
467.833	41586.57
468.038	40429.46
468.244	39485.35
