Data from USB4F104151__235__11-06-28-724.txt Node

Date: Wed Feb 26 11:06:28 EST 2025
User: louis
Spectrometer: USB4F10415
Trigger mode: 4
Integration Time (sec): 1.000000E-1
Scans to average: 1
Electric dark correction enabled: true
Nonlinearity correction enabled: false
Boxcar width: 0
XAxis mode: Wavelengths
Number of Pixels in Spectrum: 3648
>>>>>Begin Spectral Data<<<<<
178.204	-392.87
178.424	-392.87
178.644	-392.87
178.864	-378.53
179.084	-399.01
179.304	-40.62
179.524	14.68
179.744	26.96
179.964	37.2
180.184	39.25
180.404	26.96
180.624	-54.95
180.844	-1.71
181.064	-44.71
181.283	-1.71
181.503	-75.43
181.723	74.07
181.943	-136.87
182.163	139.6
182.383	100.69
182.602	74.07
182.822	104.79
183.042	108.88
183.262	-5.8
183.482	51.54
183.701	-18.09
183.921	39.25
184.141	-30.38
184.361	133.46
184.58	16.73
184.8	61.78
185.02	12.63
185.239	78.16
185.459	37.2
185.679	221.52
185.898	-5.8
186.118	37.2
186.338	59.73
186.557	69.97
186.777	-11.95
186.997	-11.95
187.216	-67.24
187.436	129.36
187.655	14.68
187.875	76.12
188.095	72.02
188.314	92.5
188.534	90.45
188.753	-69.29
188.973	143.7
189.192	155.99
189.412	63.83
189.631	-11.95
189.851	53.59
190.07	74.07
190.29	-71.34
190.509	12.63
190.729	53.59
190.948	160.08
191.168	229.71
191.387	119.12
191.607	59.73
191.826	14.68
192.045	20.82
192.265	37.2
192.484	33.11
192.704	59.73
192.923	-46.76
193.142	158.03
193.362	133.46
193.581	104.79
193.8	112.98
194.02	63.83
194.239	96.6
194.458	74.07
194.678	35.16
194.897	-57
195.116	45.4
195.335	-13.99
195.555	18.77
195.774	22.87
195.993	112.98
196.212	37.2
196.432	24.92
196.651	-32.43
196.87	41.3
197.089	219.47
197.308	16.73
197.528	102.74
197.747	-30.38
197.966	143.7
198.185	172.37
198.404	-81.58
198.623	172.37
198.842	186.71
199.062	51.54
199.281	110.93
199.5	45.4
199.719	63.83
199.938	127.32
200.157	108.88
200.376	196.95
200.595	201.04
200.814	117.08
201.033	16.73
201.252	221.52
201.471	16.73
201.69	76.12
201.909	94.55
202.128	84.31
202.347	90.45
202.566	-1.71
202.785	-54.95
203.004	-42.67
203.223	166.23
203.442	-3.75
203.661	10.58
203.879	57.68
204.098	127.32
204.317	-28.33
204.536	74.07
204.755	153.94
204.974	41.3
205.193	-52.91
205.411	196.95
205.63	67.92
205.849	94.55
206.068	76.12
206.287	-50.86
206.505	135.51
206.724	76.12
206.943	-63.15
207.162	16.73
207.381	74.07
207.599	8.53
207.818	57.68
208.037	10.58
208.255	78.16
208.474	37.2
208.693	26.96
208.911	16.73
209.13	94.55
209.349	127.32
209.567	141.65
209.786	47.44
210.005	82.26
210.223	-28.33
210.442	-143.02
210.661	33.11
210.879	33.11
211.098	112.98
211.316	63.83
211.535	117.08
211.753	35.16
211.972	61.78
212.191	-7.85
212.409	41.3
212.628	37.2
212.846	-1.71
213.065	53.59
213.283	119.12
213.502	33.11
213.72	67.92
213.938	-20.14
214.157	-85.67
214.375	106.84
214.594	14.68
214.812	84.31
215.031	29.01
215.249	55.64
215.467	18.77
215.686	-54.95
215.904	76.12
216.122	131.41
216.341	205.14
216.559	121.17
216.778	69.97
216.996	162.13
217.214	18.77
217.432	74.07
217.651	-38.57
217.869	45.4
218.087	-16.04
218.306	24.92
218.524	-44.71
218.742	-13.99
218.96	88.4
219.179	43.35
219.397	20.82
219.615	276.82
219.833	94.55
220.051	33.11
220.27	104.79
220.488	106.84
220.706	61.78
220.924	-69.29
221.142	-20.14
221.36	53.59
221.578	149.84
221.796	-3.75
222.015	-7.85
222.233	90.45
222.451	170.32
222.669	12.63
222.887	135.51
223.105	37.2
223.323	51.54
223.541	-28.33
223.759	104.79
223.977	53.59
224.195	198.99
224.413	72.02
224.631	16.73
224.849	47.44
225.067	205.14
225.285	45.4
225.503	-34.47
225.721	-36.52
225.939	53.59
226.157	35.16
226.375	184.66
226.592	-5.8
226.81	47.44
227.028	108.88
227.246	121.17
227.464	74.07
227.682	127.32
227.9	80.21
228.117	92.5
228.335	67.92
228.553	35.16
228.771	78.16
228.989	78.16
229.206	72.02
229.424	-73.39
229.642	-3.75
229.86	-63.15
230.077	119.12
230.295	69.97
230.513	82.26
230.731	61.78
230.948	168.27
231.166	192.85
231.384	26.96
231.601	-18.09
231.819	254.29
232.037	43.35
232.254	-13.99
232.472	47.44
232.689	-24.23
232.907	125.27
233.125	18.77
233.342	-65.19
233.56	-11.95
233.777	51.54
233.995	43.35
234.213	151.89
234.43	96.6
234.648	125.27
234.865	4.44
235.083	88.4
235.3	78.16
235.518	100.69
235.735	131.41
235.953	96.6
236.17	74.07
236.388	8.53
236.605	49.49
236.822	141.65
237.04	102.74
237.257	43.35
237.475	-87.72
237.692	51.54
237.909	115.03
238.127	35.16
238.344	80.21
238.562	49.49
238.779	-59.05
238.996	-26.28
239.214	49.49
239.431	82.26
239.648	35.16
239.865	102.74
240.083	121.17
240.3	24.92
240.517	-1.71
240.735	69.97
240.952	92.5
241.169	29.01
241.386	78.16
241.603	69.97
241.821	18.77
242.038	104.79
242.255	65.88
242.472	-63.15
242.689	72.02
242.907	26.96
243.124	115.03
243.341	16.73
243.558	22.87
243.775	-52.91
243.992	-20.14
244.209	63.83
244.426	186.71
244.643	39.25
244.86	-30.38
245.078	92.5
245.295	22.87
245.512	-22.19
245.729	-18.09
245.946	178.51
246.163	94.55
246.38	65.88
246.597	59.73
246.814	76.12
247.031	78.16
247.248	-18.09
247.464	35.16
247.681	106.84
247.898	31.06
248.115	67.92
248.332	-42.67
248.549	51.54
248.766	172.37
248.983	53.59
249.2	90.45
249.417	49.49
249.633	-11.95
249.85	78.16
250.067	4.44
250.284	31.06
250.501	35.16
250.717	133.46
250.934	-3.75
251.151	-75.43
251.368	-9.9
251.585	51.54
251.801	-42.67
252.018	-50.86
252.235	151.89
252.451	-85.67
252.668	125.27
252.885	160.08
253.102	41.3
253.318	-38.57
253.535	20.82
253.752	-36.52
253.968	0.34
254.185	-44.71
254.401	69.97
254.618	115.03
254.835	33.11
255.051	100.69
255.268	92.5
255.484	26.96
255.701	8.53
255.917	90.45
256.134	65.88
256.351	-18.09
256.567	-40.62
256.784	100.69
257	-71.34
257.217	69.97
257.433	72.02
257.65	-16.04
257.866	160.08
258.082	-69.29
258.299	-44.71
258.515	10.58
258.732	-40.62
258.948	-32.43
259.165	147.8
259.381	-13.99
259.597	78.16
259.814	-36.52
260.03	-11.95
260.246	-42.67
260.463	186.71
260.679	143.7
260.895	-13.99
261.112	57.68
261.328	10.58
261.544	-63.15
261.761	285.01
261.977	-7.85
262.193	-48.81
262.409	112.98
262.626	22.87
262.842	84.31
263.058	-34.47
263.274	29.01
263.49	76.12
263.707	45.4
263.923	78.16
264.139	4.44
264.355	63.83
264.571	184.66
264.787	14.68
265.004	106.84
265.22	2.39
265.436	-16.04
265.652	59.73
265.868	110.93
266.084	-42.67
266.3	45.4
266.516	-38.57
266.732	74.07
266.948	37.2
267.164	45.4
267.38	61.78
267.596	37.2
267.812	153.94
268.028	67.92
268.244	-32.43
268.46	84.31
268.676	63.83
268.892	96.6
269.108	12.63
269.324	-44.71
269.54	-69.29
269.756	96.6
269.972	-18.09
270.188	-28.33
270.403	-48.81
270.619	59.73
270.835	190.8
271.051	72.02
271.267	4.44
271.483	53.59
271.698	51.54
271.914	72.02
272.13	6.49
272.346	26.96
272.562	76.12
272.777	96.6
272.993	-26.28
273.209	18.77
273.425	78.16
273.64	-38.57
273.856	131.41
274.072	-69.29
274.287	4.44
274.503	106.84
274.719	63.83
274.934	4.44
275.15	-7.85
275.366	74.07
275.581	-20.14
275.797	63.83
276.012	16.73
276.228	-69.29
276.444	6.49
276.659	102.74
276.875	-102.06
277.09	35.16
277.306	-3.75
277.521	67.92
277.737	43.35
277.952	24.92
278.168	65.88
278.383	20.82
278.599	123.22
278.814	20.82
279.03	10.58
279.245	123.22
279.461	106.84
279.676	47.44
279.892	-30.38
280.107	29.01
280.322	37.2
280.538	162.13
280.753	16.73
280.969	135.51
281.184	-48.81
281.399	119.12
281.615	-79.53
281.83	106.84
282.045	-16.04
282.26	80.21
282.476	4.44
282.691	47.44
282.906	18.77
283.122	12.63
283.337	-3.75
283.552	29.01
283.767	-26.28
283.983	164.18
284.198	-7.85
284.413	16.73
284.628	-63.15
284.843	31.06
285.058	106.84
285.274	10.58
285.489	-22.19
285.704	112.98
285.919	29.01
286.134	-36.52
286.349	55.64
286.564	82.26
286.779	102.74
286.995	16.73
287.21	0.34
287.425	4.44
287.64	0.34
287.855	69.97
288.07	-65.19
288.285	98.64
288.5	127.32
288.715	78.16
288.93	-20.14
289.145	8.53
289.36	123.22
289.575	-9.9
289.79	184.66
290.004	55.64
290.219	123.22
290.434	-22.19
290.649	-81.58
290.864	-38.57
291.079	82.26
291.294	-30.38
291.509	4.44
291.724	102.74
291.938	61.78
292.153	31.06
292.368	-52.91
292.583	69.97
292.798	123.22
293.012	53.59
293.227	8.53
293.442	8.53
293.657	137.56
293.871	178.51
294.086	108.88
294.301	203.09
294.516	119.12
294.73	2.39
294.945	45.4
295.16	22.87
295.374	112.98
295.589	78.16
295.804	-3.75
296.018	35.16
296.233	100.69
296.447	78.16
296.662	16.73
296.877	123.22
297.091	133.46
297.306	47.44
297.52	65.88
297.735	135.51
297.949	45.4
298.164	69.97
298.378	112.98
298.593	-22.19
298.807	-5.8
299.022	43.35
299.236	121.17
299.451	-9.9
299.665	-42.67
299.88	33.11
300.094	35.16
300.309	4.44
300.523	6.49
300.737	-5.8
300.952	69.97
301.166	6.49
301.381	-9.9
301.595	-22.19
301.809	-1.71
302.024	-52.91
302.238	-136.87
302.452	180.56
302.667	86.36
302.881	155.99
303.095	33.11
303.309	39.25
303.524	65.88
303.738	90.45
303.952	57.68
304.166	14.68
304.381	-42.67
304.595	225.62
304.809	-34.47
305.023	26.96
305.237	10.58
305.452	-57
305.666	90.45
305.88	131.41
306.094	57.68
306.308	96.6
306.522	155.99
306.736	61.78
306.95	192.85
307.164	-30.38
307.379	51.54
307.593	174.42
307.807	112.98
308.021	112.98
308.235	37.2
308.449	-106.15
308.663	69.97
308.877	242
309.091	6.49
309.305	82.26
309.519	-40.62
309.733	72.02
309.947	-106.15
310.161	35.16
310.374	106.84
310.588	112.98
310.802	-38.57
311.016	26.96
311.23	35.16
311.444	72.02
311.658	-9.9
311.872	139.6
312.085	102.74
312.299	135.51
312.513	180.56
312.727	31.06
312.941	2.39
313.154	59.73
313.368	33.11
313.582	12.63
313.796	2.39
314.009	33.11
314.223	160.08
314.437	-11.95
314.651	92.5
314.864	22.87
315.078	18.77
315.292	-71.34
315.505	41.3
315.719	78.16
315.933	6.49
316.146	-87.72
316.36	-13.99
316.573	121.17
316.787	121.17
317.001	16.73
317.214	-69.29
317.428	92.5
317.641	-38.57
317.855	6.49
318.068	6.49
318.282	37.2
318.495	205.14
318.709	80.21
318.922	-42.67
319.136	176.47
319.349	88.4
319.563	31.06
319.776	69.97
319.99	-50.86
320.203	129.36
320.417	39.25
320.63	123.22
320.843	237.91
321.057	45.4
321.27	72.02
321.483	55.64
321.697	147.8
321.91	49.49
322.124	-22.19
322.337	2.39
322.55	-97.96
322.763	43.35
322.977	57.68
323.19	4.44
323.403	80.21
323.617	76.12
323.83	110.93
324.043	16.73
324.256	49.49
324.469	-97.96
324.683	117.08
324.896	51.54
325.109	35.16
325.322	-9.9
325.535	100.69
325.748	108.88
325.962	24.92
326.175	45.4
326.388	20.82
326.601	135.51
326.814	-11.95
327.027	78.16
327.24	102.74
327.453	-44.71
327.666	94.55
327.879	112.98
328.092	102.74
328.305	92.5
328.518	39.25
328.731	-36.52
328.944	-3.75
329.157	12.63
329.37	-22.19
329.583	137.56
329.796	160.08
330.009	-46.76
330.222	74.07
330.435	74.07
330.648	41.3
330.861	0.34
331.073	10.58
331.286	110.93
331.499	94.55
331.712	35.16
331.925	78.16
332.138	51.54
332.35	86.36
332.563	26.96
332.776	149.84
332.989	8.53
333.202	18.77
333.414	61.78
333.627	53.59
333.84	26.96
334.053	53.59
334.265	-73.39
334.478	-22.19
334.691	14.68
334.903	59.73
335.116	-44.71
335.329	0.34
335.541	57.68
335.754	155.99
335.966	84.31
336.179	49.49
336.392	-34.47
336.604	39.25
336.817	37.2
337.029	39.25
337.242	20.82
337.454	55.64
337.667	-3.75
337.88	86.36
338.092	29.01
338.305	117.08
338.517	57.68
338.729	53.59
338.942	145.75
339.154	43.35
339.367	-40.62
339.579	59.73
339.792	26.96
340.004	102.74
340.217	74.07
340.429	12.63
340.641	-65.19
340.854	-3.75
341.066	-52.91
341.278	84.31
341.491	139.6
341.703	20.82
341.915	90.45
342.128	121.17
342.34	92.5
342.552	-36.52
342.764	39.25
342.977	-48.81
343.189	-32.43
343.401	37.2
343.613	-63.15
343.826	37.2
344.038	24.92
344.25	67.92
344.462	-138.92
344.674	57.68
344.886	4.44
345.099	117.08
345.311	96.6
345.523	12.63
345.735	-73.39
345.947	12.63
346.159	76.12
346.371	14.68
346.583	47.44
346.795	121.17
347.007	4.44
347.219	121.17
347.431	10.58
347.643	86.36
347.855	4.44
348.067	149.84
348.279	45.4
348.491	110.93
348.703	133.46
348.915	6.49
349.127	4.44
349.339	82.26
349.551	22.87
349.763	35.16
349.975	90.45
350.187	88.4
350.399	162.13
350.61	86.36
350.822	51.54
351.034	76.12
351.246	-9.9
351.458	137.56
351.669	61.78
351.881	51.54
352.093	131.41
352.305	221.52
352.517	90.45
352.728	112.98
352.94	53.59
353.152	127.32
353.363	35.16
353.575	67.92
353.787	221.52
353.999	41.3
354.21	137.56
354.422	110.93
354.633	-36.52
354.845	35.16
355.057	92.5
355.268	90.45
355.48	63.83
355.692	-52.91
355.903	8.53
356.115	8.53
356.326	-167.59
356.538	166.23
356.749	135.51
356.961	153.94
357.172	104.79
357.384	-48.81
357.595	225.62
357.807	53.59
358.018	49.49
358.23	37.2
358.441	110.93
358.653	108.88
358.864	-40.62
359.075	-30.38
359.287	67.92
359.498	192.85
359.709	92.5
359.921	-50.86
360.132	39.25
360.344	31.06
360.555	-54.95
360.766	-9.9
360.977	37.2
361.189	88.4
361.4	49.49
361.611	147.8
361.823	149.84
362.034	92.5
362.245	-93.87
362.456	16.73
362.667	143.7
362.879	-38.57
363.09	4.44
363.301	155.99
363.512	12.63
363.723	4.44
363.935	35.16
364.146	125.27
364.357	8.53
364.568	10.58
364.779	-59.05
364.99	110.93
365.201	-18.09
365.412	127.32
365.623	-38.57
365.834	53.59
366.045	88.4
366.256	115.03
366.467	20.82
366.678	-5.8
366.889	78.16
367.1	16.73
367.311	119.12
367.522	-16.04
367.733	37.2
367.944	84.31
368.155	57.68
368.366	121.17
368.577	94.55
368.788	137.56
368.999	-36.52
369.209	84.31
369.42	139.6
369.631	248.15
369.842	24.92
370.053	57.68
370.264	82.26
370.474	-52.91
370.685	53.59
370.896	-67.24
371.107	170.32
371.317	110.93
371.528	47.44
371.739	117.08
371.95	117.08
372.16	51.54
372.371	-26.28
372.582	24.92
372.792	74.07
373.003	51.54
373.214	80.21
373.424	72.02
373.635	-40.62
373.846	176.47
374.056	112.98
374.267	100.69
374.477	100.69
374.688	14.68
374.898	119.12
375.109	72.02
375.319	125.27
375.53	94.55
375.74	129.36
375.951	88.4
376.161	102.74
376.372	203.09
376.582	26.96
376.793	76.12
377.003	22.87
377.214	-3.75
377.424	141.65
377.635	96.6
377.845	-5.8
378.055	153.94
378.266	-32.43
378.476	63.83
378.686	45.4
378.897	135.51
379.107	57.68
379.317	61.78
379.528	43.35
379.738	143.7
379.948	-5.8
380.158	160.08
380.369	84.31
380.579	67.92
380.789	59.73
380.999	72.02
381.21	119.12
381.42	203.09
381.63	35.16
381.84	74.07
382.05	24.92
382.261	182.61
382.471	94.55
382.681	47.44
382.891	158.03
383.101	57.68
383.311	4.44
383.521	88.4
383.731	133.46
383.941	102.74
384.151	57.68
384.361	20.82
384.571	164.18
384.781	22.87
384.991	166.23
385.201	119.12
385.411	139.6
385.621	78.16
385.831	55.64
386.041	67.92
386.251	-11.95
386.461	121.17
386.671	45.4
386.881	129.36
387.091	-11.95
387.301	119.12
387.511	51.54
387.72	26.96
387.93	88.4
388.14	-122.54
388.35	80.21
388.56	155.99
388.769	45.4
388.979	65.88
389.189	-18.09
389.399	-20.14
389.609	115.03
389.818	121.17
390.028	-13.99
390.238	82.26
390.447	47.44
390.657	102.74
390.867	41.3
391.076	-63.15
391.286	61.78
391.496	63.83
391.705	31.06
391.915	141.65
392.125	221.52
392.334	-28.33
392.544	127.32
392.753	100.69
392.963	-40.62
393.172	49.49
393.382	-73.39
393.591	139.6
393.801	-9.9
394.01	205.14
394.22	108.88
394.429	2.39
394.639	-46.76
394.848	88.4
395.058	123.22
395.267	33.11
395.477	74.07
395.686	49.49
395.895	145.75
396.105	246.1
396.314	45.4
396.524	26.96
396.733	24.92
396.942	108.88
397.152	96.6
397.361	153.94
397.57	88.4
397.78	67.92
397.989	139.6
398.198	170.32
398.407	76.12
398.617	96.6
398.826	80.21
399.035	31.06
399.244	143.7
399.453	51.54
399.663	67.92
399.872	-9.9
400.081	35.16
400.29	133.46
400.499	4.44
400.708	84.31
400.917	-3.75
401.127	-48.81
401.336	8.53
401.545	188.75
401.754	76.12
401.963	26.96
402.172	29.01
402.381	-26.28
402.59	53.59
402.799	2.39
403.008	215.38
403.217	127.32
403.426	88.4
403.635	-73.39
403.844	-20.14
404.053	-3.75
404.262	16.73
404.471	158.03
404.68	26.96
404.888	110.93
405.097	63.83
405.306	39.25
405.515	74.07
405.724	86.36
405.933	151.89
406.142	88.4
406.35	123.22
406.559	-20.14
406.768	94.55
406.977	137.56
407.185	51.54
407.394	135.51
407.603	-22.19
407.812	98.64
408.02	205.14
408.229	76.12
408.438	57.68
408.646	22.87
408.855	20.82
409.064	112.98
409.272	35.16
409.481	80.21
409.69	18.77
409.898	-18.09
410.107	59.73
410.315	129.36
410.524	51.54
410.733	-11.95
410.941	14.68
411.15	78.16
411.358	65.88
411.567	237.91
411.775	59.73
411.984	143.7
412.192	123.22
412.401	41.3
412.609	180.56
412.818	186.71
413.026	76.12
413.234	6.49
413.443	145.75
413.651	-7.85
413.86	76.12
414.068	84.31
414.276	172.37
414.485	55.64
414.693	215.38
414.901	180.56
415.11	115.03
415.318	4.44
415.526	35.16
415.734	115.03
415.943	57.68
416.151	180.56
416.359	43.35
416.567	53.59
416.776	31.06
416.984	131.41
417.192	82.26
417.4	12.63
417.608	49.49
417.817	-5.8
418.025	117.08
418.233	207.19
418.441	16.73
418.649	49.49
418.857	20.82
419.065	166.23
419.273	18.77
419.481	39.25
419.689	29.01
419.897	63.83
420.105	-16.04
420.313	74.07
420.521	176.47
420.729	123.22
420.937	41.3
421.145	24.92
421.353	133.46
421.561	192.85
421.769	55.64
421.977	-42.67
422.185	55.64
422.393	55.64
422.601	121.17
422.809	180.56
423.017	74.07
423.224	22.87
423.432	235.86
423.64	61.78
423.848	176.47
424.056	43.35
424.263	225.62
424.471	90.45
424.679	119.12
424.887	-16.04
425.094	145.75
425.302	67.92
425.51	22.87
425.718	207.19
425.925	131.41
426.133	26.96
426.341	203.09
426.548	69.97
426.756	80.21
426.964	94.55
427.171	4.44
427.379	182.61
427.586	131.41
427.794	186.71
428.001	186.71
428.209	229.71
428.417	209.23
428.624	84.31
428.832	84.31
429.039	88.4
429.247	86.36
429.454	139.6
429.662	190.8
429.869	90.45
430.076	147.8
430.284	143.7
430.491	188.75
430.699	180.56
430.906	274.77
431.114	153.94
431.321	155.99
431.528	84.31
431.736	164.18
431.943	182.61
432.15	180.56
432.358	219.47
432.565	340.3
432.772	45.4
432.979	242
433.187	90.45
433.394	158.03
433.601	139.6
433.808	237.91
434.016	323.92
434.223	215.38
434.43	242
434.637	237.91
434.844	270.67
435.052	246.1
435.259	364.88
435.466	262.48
435.673	344.4
435.88	354.64
436.087	307.54
436.294	430.41
436.501	409.94
436.708	459.09
436.915	334.16
437.122	430.41
437.329	325.97
437.537	356.69
437.743	446.8
437.95	465.23
438.157	471.37
438.364	448.85
438.571	362.83
438.778	450.89
438.985	522.57
439.192	610.64
439.399	420.17
439.606	555.34
439.813	598.35
440.02	674.12
440.227	778.57
440.433	629.07
440.64	631.12
440.847	643.4
441.054	696.65
441.261	756.04
441.467	710.99
441.674	702.79
441.881	921.93
442.088	710.99
442.294	948.55
442.501	919.88
442.708	971.08
442.914	1044.81
443.121	962.89
443.328	985.41
443.534	1102.15
443.741	1091.91
443.948	1026.37
444.154	1130.82
444.361	1247.55
444.568	1202.5
444.774	1202.5
444.981	1169.73
445.187	1405.25
445.394	1421.63
445.6	1376.58
445.807	1458.5
446.013	1548.61
446.22	1413.44
446.426	1718.59
446.633	1677.63
446.839	1915.19
447.046	1767.74
447.252	2058.55
447.459	1868.09
447.665	1972.54
447.871	2165.04
448.078	2351.41
448.284	2253.11
448.491	2382.13
448.697	2472.24
448.903	2611.5
449.11	2515.25
449.316	2545.97
449.522	2812.2
449.728	2994.47
449.935	2959.66
450.141	3002.66
450.347	3299.62
450.553	3268.9
450.76	3334.43
450.966	3504.42
451.172	3598.62
451.378	3739.93
451.584	3807.52
451.791	4008.22
451.997	4141.33
452.203	4262.16
452.409	4464.91
452.615	4661.52
452.821	4735.25
453.027	4659.47
453.233	5155.08
453.44	5093.64
453.646	5540.1
453.852	5550.34
454.058	5699.84
454.264	5906.68
454.47	6303.99
454.676	6557.94
454.882	6873.32
455.088	6469.87
455.294	7069.93
455.5	7469.28
455.705	8136.92
455.911	7694.56
456.117	8007.9
456.323	8300.76
456.529	8366.29
456.735	9001.16
456.941	9371.85
457.147	9808.06
457.352	9976
457.558	10365.11
457.764	10903.73
457.97	11188.39
458.176	11669.67
458.381	12191.9
458.587	12488.85
458.793	13320.33
458.999	12966.03
459.204	14727.28
459.41	15200.37
459.616	15169.65
459.821	16171.1
460.027	16388.19
460.233	17234
460.438	17553.48
460.644	18384.96
460.85	18622.52
461.055	19159.09
461.261	19959.84
461.466	20164.64
461.672	20373.53
461.878	22814.71
462.083	22102.02
462.289	22820.86
462.494	23986.15
462.7	23961.58
462.905	24236
463.111	25901
463.316	27508.66
463.522	28096.42
463.727	29157.27
463.932	30220.17
464.138	30916.48
464.343	32450.41
464.549	32014.19
464.754	34869.06
464.959	35565.37
465.165	36175.66
465.37	36302.64
465.575	35936.05
465.781	38549.26
465.986	39775.99
466.191	39061.25
466.397	39354.11
466.602	38274.83
466.807	40670.95
467.012	41266.91
467.218	41826.01
467.423	42026.71
467.628	43136.71
467.833	45266.59
468.038	44639.92
468.244	43935.41
468.449	46380.69
468.654	45156
