Data from USB4F104151__245__11-19-55-236.txt Node

Date: Wed Feb 26 11:19:55 EST 2025
User: louis
Spectrometer: USB4F10415
Trigger mode: 4
Integration Time (sec): 1.000000E-1
Scans to average: 1
Electric dark correction enabled: true
Nonlinearity correction enabled: false
Boxcar width: 0
XAxis mode: Wavelengths
Number of Pixels in Spectrum: 3648
>>>>>Begin Spectral Data<<<<<
178.204	-338.43
178.424	-338.43
178.644	-338.43
178.864	-338.43
179.084	-391.67
179.304	-31.23
179.524	-43.52
179.744	-61.95
179.964	87.55
180.184	30.21
180.404	62.98
180.624	-29.18
180.844	17.92
181.064	-27.14
181.283	-12.8
181.503	-49.66
181.723	56.83
181.943	-72.19
182.163	130.56
182.383	-2.56
182.602	99.84
182.822	189.95
183.042	52.74
183.262	-104.96
183.482	13.82
183.701	-6.66
183.921	103.93
184.141	-6.66
184.361	101.89
184.58	91.65
184.8	103.93
185.02	-0.51
185.239	132.61
185.459	148.99
185.679	183.81
185.898	-64
186.118	52.74
186.338	110.08
186.557	112.13
186.777	-2.56
186.997	19.97
187.216	-33.28
187.436	251.39
187.655	40.45
187.875	89.6
188.095	50.69
188.314	148.99
188.534	177.66
188.753	-31.23
188.973	196.09
189.192	89.6
189.412	7.68
189.631	9.73
189.851	65.02
190.07	163.33
190.29	-47.62
190.509	32.26
190.729	40.45
190.948	134.65
191.168	257.53
191.387	56.83
191.607	52.74
191.826	62.98
192.045	46.59
192.265	75.26
192.484	89.6
192.704	34.3
192.923	-23.04
193.142	142.85
193.362	153.09
193.581	185.85
193.8	97.79
194.02	132.61
194.239	5.63
194.458	75.26
194.678	67.07
194.897	22.02
195.116	69.12
195.335	71.17
195.555	79.36
195.774	40.45
195.993	161.28
196.212	48.64
196.432	34.3
196.651	9.73
196.87	5.63
197.089	257.53
197.308	54.78
197.528	50.69
197.747	-37.38
197.966	95.74
198.185	95.74
198.404	5.63
198.623	192
198.842	95.74
199.062	138.75
199.281	91.65
199.5	81.41
199.719	60.93
199.938	79.36
200.157	48.64
200.376	128.51
200.595	173.57
200.814	60.93
201.033	7.68
201.252	148.99
201.471	97.79
201.69	101.89
201.909	60.93
202.128	62.98
202.347	36.35
202.566	13.82
202.785	-10.75
203.004	-16.9
203.223	280.06
203.442	36.35
203.661	-84.48
203.879	71.17
204.098	161.28
204.317	-16.9
204.536	89.6
204.755	167.42
204.974	67.07
205.193	60.93
205.411	114.17
205.63	181.76
205.849	54.78
206.068	28.16
206.287	26.11
206.505	200.19
206.724	30.21
206.943	73.21
207.162	62.98
207.381	73.21
207.599	-2.56
207.818	42.5
208.037	11.78
208.255	128.51
208.474	105.98
208.693	105.98
208.911	44.54
209.13	97.79
209.349	77.31
209.567	77.31
209.786	-8.7
210.005	151.04
210.223	46.59
210.442	-94.72
210.661	50.69
210.879	69.12
211.098	71.17
211.316	95.74
211.535	122.37
211.753	58.88
211.972	103.93
212.191	-49.66
212.409	-4.61
212.628	71.17
212.846	9.73
213.065	28.16
213.283	110.08
213.502	32.26
213.72	65.02
213.938	38.4
214.157	17.92
214.375	101.89
214.594	56.83
214.812	91.65
215.031	19.97
215.249	67.07
215.467	110.08
215.686	24.06
215.904	153.09
216.122	60.93
216.341	77.31
216.559	62.98
216.778	17.92
216.996	75.26
217.214	13.82
217.432	-25.09
217.651	3.58
217.869	118.27
218.087	40.45
218.306	-10.75
218.524	75.26
218.742	42.5
218.96	65.02
219.179	56.83
219.397	13.82
219.615	275.96
219.833	110.08
220.051	9.73
220.27	128.51
220.488	200.19
220.706	19.97
220.924	19.97
221.142	17.92
221.36	87.55
221.578	95.74
221.796	26.11
222.015	124.41
222.233	85.5
222.451	181.76
222.669	-23.04
222.887	75.26
223.105	-18.94
223.323	32.26
223.541	11.78
223.759	48.64
223.977	11.78
224.195	136.7
224.413	75.26
224.631	67.07
224.849	52.74
225.067	212.48
225.285	28.16
225.503	24.06
225.721	-74.24
225.939	89.6
226.157	120.32
226.375	198.14
226.592	-45.57
226.81	56.83
227.028	105.98
227.246	126.46
227.464	34.3
227.682	130.56
227.9	124.41
228.117	87.55
228.335	69.12
228.553	36.35
228.771	62.98
228.989	54.78
229.206	130.56
229.424	19.97
229.642	-27.14
229.86	15.87
230.077	148.99
230.295	42.5
230.513	210.43
230.731	26.11
230.948	216.57
231.166	118.27
231.384	40.45
231.601	-27.14
231.819	157.18
232.037	13.82
232.254	-39.42
232.472	-6.66
232.689	38.4
232.907	108.03
233.125	15.87
233.342	7.68
233.56	-8.7
233.777	13.82
233.995	81.41
234.213	146.94
234.43	138.75
234.648	112.13
234.865	-10.75
235.083	62.98
235.3	48.64
235.518	48.64
235.735	173.57
235.953	85.5
236.17	58.88
236.388	28.16
236.605	36.35
236.822	112.13
237.04	112.13
237.257	81.41
237.475	-31.23
237.692	67.07
237.909	34.3
238.127	54.78
238.344	73.21
238.562	9.73
238.779	24.06
238.996	17.92
239.214	46.59
239.431	112.13
239.648	-25.09
239.865	142.85
240.083	144.89
240.3	-27.14
240.517	22.02
240.735	71.17
240.952	142.85
241.169	95.74
241.386	110.08
241.603	5.63
241.821	-20.99
242.038	110.08
242.255	173.57
242.472	-68.09
242.689	71.17
242.907	144.89
243.124	110.08
243.341	11.78
243.558	60.93
243.775	-51.71
243.992	-2.56
244.209	108.03
244.426	185.85
244.643	38.4
244.86	3.58
245.078	155.13
245.295	87.55
245.512	52.74
245.729	15.87
245.946	118.27
246.163	103.93
246.38	79.36
246.597	13.82
246.814	71.17
247.031	120.32
247.248	36.35
247.464	112.13
247.681	79.36
247.898	69.12
248.115	91.65
248.332	-0.51
248.549	134.65
248.766	196.09
248.983	140.8
249.2	77.31
249.417	81.41
249.633	9.73
249.85	50.69
250.067	30.21
250.284	48.64
250.501	89.6
250.717	132.61
250.934	-25.09
251.151	-14.85
251.368	60.93
251.585	24.06
251.801	71.17
252.018	-80.38
252.235	120.32
252.451	26.11
252.668	89.6
252.885	122.37
253.102	93.69
253.318	38.4
253.535	56.83
253.752	50.69
253.968	46.59
254.185	-16.9
254.401	87.55
254.618	50.69
254.835	-25.09
255.051	105.98
255.268	73.21
255.484	101.89
255.701	40.45
255.917	153.09
256.134	46.59
256.351	48.64
256.567	44.54
256.784	54.78
257	-27.14
257.217	105.98
257.433	91.65
257.65	56.83
257.866	208.38
258.082	-64
258.299	-10.75
258.515	103.93
258.732	-39.42
258.948	-55.81
259.165	77.31
259.381	-25.09
259.597	183.81
259.814	1.54
260.03	103.93
260.246	1.54
260.463	194.05
260.679	95.74
260.895	118.27
261.112	175.61
261.328	-12.8
261.544	-23.04
261.761	146.94
261.977	-27.14
262.193	-29.18
262.409	110.08
262.626	13.82
262.842	-8.7
263.058	34.3
263.274	85.5
263.49	15.87
263.707	97.79
263.923	56.83
264.139	-64
264.355	36.35
264.571	134.65
264.787	116.22
265.004	89.6
265.22	9.73
265.436	-6.66
265.652	103.93
265.868	89.6
266.084	36.35
266.3	34.3
266.516	-27.14
266.732	118.27
266.948	28.16
267.164	-74.24
267.38	103.93
267.596	87.55
267.812	275.96
268.028	79.36
268.244	36.35
268.46	48.64
268.676	-43.52
268.892	62.98
269.108	-0.51
269.324	-23.04
269.54	38.4
269.756	163.33
269.972	-6.66
270.188	99.84
270.403	13.82
270.619	56.83
270.835	124.41
271.051	126.46
271.267	42.5
271.483	58.88
271.698	192
271.914	93.69
272.13	50.69
272.346	34.3
272.562	58.88
272.777	142.85
272.993	108.03
273.209	17.92
273.425	140.8
273.64	-31.23
273.856	83.45
274.072	40.45
274.287	60.93
274.503	169.47
274.719	99.84
274.934	87.55
275.15	-39.42
275.366	71.17
275.581	-4.61
275.797	7.68
276.012	60.93
276.228	13.82
276.444	83.45
276.659	97.79
276.875	-8.7
277.09	52.74
277.306	-10.75
277.521	95.74
277.737	83.45
277.952	89.6
278.168	42.5
278.383	22.02
278.599	38.4
278.814	148.99
279.03	48.64
279.245	153.09
279.461	9.73
279.676	105.98
279.892	65.02
280.107	24.06
280.322	-31.23
280.538	24.06
280.753	36.35
280.969	91.65
281.184	56.83
281.399	167.42
281.615	32.26
281.83	83.45
282.045	-0.51
282.26	24.06
282.476	42.5
282.691	105.98
282.906	173.57
283.122	-2.56
283.337	1.54
283.552	62.98
283.767	62.98
283.983	87.55
284.198	-8.7
284.413	134.65
284.628	-86.53
284.843	-0.51
285.058	34.3
285.274	34.3
285.489	-4.61
285.704	101.89
285.919	17.92
286.134	44.54
286.349	65.02
286.564	-4.61
286.779	134.65
286.995	26.11
287.21	-4.61
287.425	32.26
287.64	-0.51
287.855	114.17
288.07	-4.61
288.285	140.8
288.5	126.46
288.715	91.65
288.93	-18.94
289.145	75.26
289.36	124.41
289.575	44.54
289.79	136.7
290.004	-20.99
290.219	103.93
290.434	-0.51
290.649	-31.23
290.864	67.07
291.079	-76.29
291.294	46.59
291.509	52.74
291.724	32.26
291.938	-0.51
292.153	140.8
292.368	3.58
292.583	69.12
292.798	99.84
293.012	118.27
293.227	36.35
293.442	9.73
293.657	155.13
293.871	157.18
294.086	116.22
294.301	171.52
294.516	116.22
294.73	28.16
294.945	-27.14
295.16	54.78
295.374	130.56
295.589	175.61
295.804	-25.09
296.018	-16.9
296.233	130.56
296.447	118.27
296.662	-39.42
296.877	128.51
297.091	91.65
297.306	83.45
297.52	71.17
297.735	56.83
297.949	114.17
298.164	65.02
298.378	124.41
298.593	-14.85
298.807	48.64
299.022	-14.85
299.236	185.85
299.451	-55.81
299.665	24.06
299.88	44.54
300.094	89.6
300.309	114.17
300.523	85.5
300.737	32.26
300.952	95.74
301.166	95.74
301.381	-47.62
301.595	118.27
301.809	-2.56
302.024	114.17
302.238	-6.66
302.452	101.89
302.667	83.45
302.881	173.57
303.095	110.08
303.309	108.03
303.524	48.64
303.738	-53.76
303.952	62.98
304.166	54.78
304.381	-39.42
304.595	124.41
304.809	71.17
305.023	48.64
305.237	26.11
305.452	60.93
305.666	58.88
305.88	56.83
306.094	3.58
306.308	134.65
306.522	75.26
306.736	103.93
306.95	103.93
307.164	48.64
307.379	95.74
307.593	167.42
307.807	189.95
308.021	97.79
308.235	157.18
308.449	-16.9
308.663	75.26
308.877	228.86
309.091	44.54
309.305	192
309.519	-51.71
309.733	81.41
309.947	-20.99
310.161	103.93
310.374	87.55
310.588	153.09
310.802	-6.66
311.016	54.78
311.23	148.99
311.444	-45.57
311.658	-27.14
311.872	67.07
312.085	198.14
312.299	136.7
312.513	120.32
312.727	67.07
312.941	32.26
313.154	73.21
313.368	65.02
313.582	62.98
313.796	54.78
314.009	52.74
314.223	124.41
314.437	-12.8
314.651	87.55
314.864	34.3
315.078	54.78
315.292	-6.66
315.505	38.4
315.719	44.54
315.933	58.88
316.146	32.26
316.36	-47.62
316.573	140.8
316.787	24.06
317.001	-2.56
317.214	-51.71
317.428	28.16
317.641	67.07
317.855	-18.94
318.068	17.92
318.282	101.89
318.495	208.38
318.709	177.66
318.922	-23.04
319.136	167.42
319.349	83.45
319.563	56.83
319.776	128.51
319.99	-14.85
320.203	124.41
320.417	48.64
320.63	87.55
320.843	169.47
321.057	120.32
321.27	85.5
321.483	120.32
321.697	194.05
321.91	48.64
322.124	173.57
322.337	95.74
322.55	-4.61
322.763	153.09
322.977	15.87
323.19	7.68
323.403	54.78
323.617	83.45
323.83	128.51
324.043	38.4
324.256	103.93
324.469	1.54
324.683	140.8
324.896	-16.9
325.109	-8.7
325.322	24.06
325.535	163.33
325.748	142.85
325.962	24.06
326.175	62.98
326.388	114.17
326.601	114.17
326.814	-0.51
327.027	101.89
327.24	103.93
327.453	-29.18
327.666	144.89
327.879	91.65
328.092	118.27
328.305	40.45
328.518	3.58
328.731	62.98
328.944	36.35
329.157	116.22
329.37	85.5
329.583	138.75
329.796	181.76
330.009	-35.33
330.222	108.03
330.435	146.94
330.648	40.45
330.861	101.89
331.073	110.08
331.286	77.31
331.499	22.02
331.712	34.3
331.925	-4.61
332.138	95.74
332.35	120.32
332.563	13.82
332.776	130.56
332.989	58.88
333.202	40.45
333.414	11.78
333.627	17.92
333.84	50.69
334.053	95.74
334.265	-57.86
334.478	26.11
334.691	67.07
334.903	85.5
335.116	15.87
335.329	30.21
335.541	116.22
335.754	208.38
335.966	24.06
336.179	77.31
336.392	34.3
336.604	22.02
336.817	134.65
337.029	116.22
337.242	22.02
337.454	-4.61
337.667	75.26
337.88	142.85
338.092	130.56
338.305	110.08
338.517	-6.66
338.729	105.98
338.942	134.65
339.154	22.02
339.367	-18.94
339.579	105.98
339.792	-29.18
340.004	130.56
340.217	60.93
340.429	148.99
340.641	9.73
340.854	17.92
341.066	95.74
341.278	134.65
341.491	181.76
341.703	93.69
341.915	48.64
342.128	126.46
342.34	54.78
342.552	7.68
342.764	15.87
342.977	-55.81
343.189	99.84
343.401	79.36
343.613	-55.81
343.826	34.3
344.038	13.82
344.25	48.64
344.462	1.54
344.674	91.65
344.886	52.74
345.099	85.5
345.311	108.03
345.523	-35.33
345.735	-18.94
345.947	85.5
346.159	87.55
346.371	-4.61
346.583	17.92
346.795	134.65
347.007	40.45
347.219	24.06
347.431	54.78
347.643	210.43
347.855	140.8
348.067	67.07
348.279	48.64
348.491	50.69
348.703	118.27
348.915	65.02
349.127	17.92
349.339	54.78
349.551	38.4
349.763	65.02
349.975	112.13
350.187	153.09
350.399	97.79
350.61	167.42
350.822	24.06
351.034	79.36
351.246	105.98
351.458	42.5
351.669	114.17
351.881	101.89
352.093	140.8
352.305	83.45
352.517	50.69
352.728	130.56
352.94	77.31
353.152	183.81
353.363	28.16
353.575	75.26
353.787	144.89
353.999	56.83
354.21	165.37
354.422	26.11
354.633	105.98
354.845	85.5
355.057	36.35
355.268	26.11
355.48	140.8
355.692	5.63
355.903	62.98
356.115	-25.09
356.326	-6.66
356.538	161.28
356.749	99.84
356.961	202.24
357.172	46.59
357.384	-20.99
357.595	153.09
357.807	91.65
358.018	58.88
358.23	73.21
358.441	232.96
358.653	71.17
358.864	110.08
359.075	17.92
359.287	134.65
359.498	34.3
359.709	118.27
359.921	114.17
360.132	50.69
360.344	-12.8
360.555	5.63
360.766	-18.94
360.977	89.6
361.189	153.09
361.4	-23.04
361.611	116.22
361.823	91.65
362.034	83.45
362.245	-78.33
362.456	75.26
362.667	108.03
362.879	30.21
363.09	110.08
363.301	99.84
363.512	73.21
363.723	-27.14
363.935	1.54
364.146	128.51
364.357	11.78
364.568	118.27
364.779	28.16
364.99	198.14
365.201	1.54
365.412	194.05
365.623	-43.52
365.834	38.4
366.045	42.5
366.256	81.41
366.467	99.84
366.678	26.11
366.889	67.07
367.1	-2.56
367.311	128.51
367.522	26.11
367.733	1.54
367.944	40.45
368.155	-25.09
368.366	148.99
368.577	144.89
368.788	134.65
368.999	-25.09
369.209	46.59
369.42	202.24
369.631	298.49
369.842	48.64
370.053	91.65
370.264	153.09
370.474	-14.85
370.685	40.45
370.896	108.03
371.107	46.59
371.317	93.69
371.528	85.5
371.739	169.47
371.95	44.54
372.16	60.93
372.371	-18.94
372.582	91.65
372.792	85.5
373.003	26.11
373.214	87.55
373.424	44.54
373.635	56.83
373.846	103.93
374.056	30.21
374.267	118.27
374.477	62.98
374.688	-6.66
374.898	71.17
375.109	67.07
375.319	77.31
375.53	124.41
375.74	136.7
375.951	-25.09
376.161	114.17
376.372	116.22
376.582	40.45
376.793	67.07
377.003	62.98
377.214	85.5
377.424	120.32
377.635	30.21
377.845	9.73
378.055	87.55
378.266	7.68
378.476	32.26
378.686	-25.09
378.897	124.41
379.107	95.74
379.317	161.28
379.528	9.73
379.738	128.51
379.948	-2.56
380.158	91.65
380.369	24.06
380.579	73.21
380.789	71.17
380.999	62.98
381.21	103.93
381.42	230.91
381.63	-14.85
381.84	142.85
382.05	77.31
382.261	245.24
382.471	93.69
382.681	-39.42
382.891	189.95
383.101	-18.94
383.311	-31.23
383.521	69.12
383.731	38.4
383.941	89.6
384.151	62.98
384.361	42.5
384.571	5.63
384.781	65.02
384.991	230.91
385.201	194.05
385.411	62.98
385.621	58.88
385.831	134.65
386.041	48.64
386.251	97.79
386.461	132.61
386.671	97.79
386.881	79.36
387.091	116.22
387.301	146.94
387.511	71.17
387.72	157.18
387.93	183.81
388.14	-72.19
388.35	175.61
388.56	89.6
388.769	101.89
388.979	65.02
389.189	-49.66
389.399	87.55
389.609	71.17
389.818	122.37
390.028	132.61
390.238	118.27
390.447	42.5
390.657	108.03
390.867	24.06
391.076	38.4
391.286	118.27
391.496	-0.51
391.705	71.17
391.915	169.47
392.125	19.97
392.334	22.02
392.544	132.61
392.753	79.36
392.963	22.02
393.172	54.78
393.382	7.68
393.591	208.38
393.801	56.83
394.01	179.71
394.22	46.59
394.429	81.41
394.639	-20.99
394.848	95.74
395.058	44.54
395.267	67.07
395.477	116.22
395.686	161.28
395.895	263.68
396.105	212.48
396.314	85.5
396.524	15.87
396.733	9.73
396.942	185.85
397.152	144.89
397.361	198.14
397.57	169.47
397.78	13.82
397.989	83.45
398.198	263.68
398.407	148.99
398.617	32.26
398.826	101.89
399.035	120.32
399.244	85.5
399.453	85.5
399.663	34.3
399.872	105.98
400.081	-0.51
400.29	91.65
400.499	7.68
400.708	118.27
400.917	52.74
401.127	95.74
401.336	5.63
401.545	173.57
401.754	112.13
401.963	85.5
402.172	58.88
402.381	-55.81
402.59	108.03
402.799	34.3
403.008	58.88
403.217	144.89
403.426	122.37
403.635	1.54
403.844	124.41
404.053	-23.04
404.262	-29.18
404.471	163.33
404.68	93.69
404.888	187.9
405.097	46.59
405.306	91.65
405.515	183.81
405.724	34.3
405.933	124.41
406.142	58.88
406.35	187.9
406.559	50.69
406.768	60.93
406.977	243.2
407.185	75.26
407.394	103.93
407.603	-16.9
407.812	95.74
408.02	101.89
408.229	52.74
408.438	54.78
408.646	-29.18
408.855	48.64
409.064	122.37
409.272	-14.85
409.481	128.51
409.69	-29.18
409.898	5.63
410.107	69.12
410.315	120.32
410.524	-31.23
410.733	122.37
410.941	144.89
411.15	60.93
411.358	120.32
411.567	204.28
411.775	44.54
411.984	73.21
412.192	108.03
412.401	11.78
412.609	146.94
412.818	175.61
413.026	112.13
413.234	42.5
413.443	67.07
413.651	34.3
413.86	-2.56
414.068	194.05
414.276	218.62
414.485	103.93
414.693	169.47
414.901	208.38
415.11	52.74
415.318	19.97
415.526	50.69
415.734	136.7
415.943	28.16
416.151	185.85
416.359	81.41
416.567	124.41
416.776	112.13
416.984	142.85
417.192	255.48
417.4	46.59
417.608	7.68
417.817	-2.56
418.025	181.76
418.233	185.85
418.441	-39.42
418.649	11.78
418.857	99.84
419.065	194.05
419.273	93.69
419.481	118.27
419.689	19.97
419.897	7.68
420.105	26.11
420.313	120.32
420.521	97.79
420.729	183.81
420.937	3.58
421.145	-23.04
421.353	194.05
421.561	157.18
421.769	169.47
421.977	24.06
422.185	130.56
422.393	114.17
422.601	48.64
422.809	161.28
423.017	52.74
423.224	122.37
423.432	110.08
423.64	89.6
423.848	118.27
424.056	24.06
424.263	144.89
424.471	26.11
424.679	179.71
424.887	5.63
425.094	206.33
425.302	99.84
425.51	54.78
425.718	140.8
425.925	52.74
426.133	58.88
426.341	183.81
426.548	34.3
426.756	24.06
426.964	155.13
427.171	48.64
427.379	73.21
427.586	130.56
427.794	167.42
428.001	128.51
428.209	103.93
428.417	146.94
428.624	222.72
428.832	114.17
429.039	108.03
429.247	130.56
429.454	116.22
429.662	181.76
429.869	183.81
430.076	163.33
430.284	173.57
430.491	224.76
430.699	157.18
430.906	226.81
431.114	224.76
431.321	235
431.528	83.45
431.736	228.86
431.943	169.47
432.15	194.05
432.358	204.28
432.565	302.59
432.772	95.74
432.979	296.44
433.187	151.04
433.394	296.44
433.601	185.85
433.808	247.29
434.016	314.88
434.223	323.07
434.43	226.81
434.637	247.29
434.844	232.96
435.052	263.68
435.259	302.59
435.466	275.96
435.673	304.64
435.88	298.49
436.087	394.75
436.294	425.47
436.501	357.88
436.708	364.03
436.915	392.7
437.122	454.14
437.329	308.73
437.537	353.79
437.743	298.49
437.95	452.09
438.157	384.51
438.364	499.19
438.571	423.42
438.778	507.38
438.985	515.58
439.192	593.4
439.399	542.2
439.606	570.87
439.813	570.87
440.02	605.69
440.227	783.86
440.433	665.08
440.64	673.27
440.847	521.72
441.054	679.41
441.261	804.34
441.467	728.56
441.674	691.7
441.881	847.35
442.088	720.37
442.294	798.2
442.501	847.35
442.708	843.25
442.914	953.84
443.121	986.61
443.328	1054.19
443.534	1146.35
443.741	972.27
443.948	1000.94
444.154	1134.06
444.361	1295.85
444.568	1154.54
444.774	1203.69
444.981	1101.3
445.187	1410.54
445.394	1248.75
445.6	1383.91
445.807	1441.26
446.013	1424.87
446.22	1371.63
446.426	1594.86
446.633	1678.82
446.839	1816.04
447.046	1629.67
447.252	1861.09
447.459	1908.19
447.665	1857
447.871	2104.8
448.078	2229.73
448.284	2237.92
448.491	2282.97
448.697	2379.23
448.903	2409.95
449.11	2495.96
449.316	2545.11
449.522	2661.85
449.728	2694.61
449.935	3044.82
450.141	2946.52
450.347	3167.7
450.553	3012.05
450.76	3096.02
450.966	3315.15
451.172	3399.12
451.378	3532.23
451.584	3659.21
451.791	3849.67
451.997	4066.75
452.203	4058.56
452.409	4285.89
452.615	4449.72
452.821	4351.42
453.027	4412.86
453.233	4961.72
453.44	4810.17
453.646	5017.01
453.852	5178.8
454.058	5637.55
454.264	5588.39
454.47	6051.24
454.676	5930.41
454.882	6620.57
455.088	6485.41
455.294	6731.16
455.5	7134.61
455.705	7388.56
455.911	7335.31
456.117	7595.4
456.323	8007.05
456.529	7904.65
456.735	8584.57
456.941	8795.51
457.147	9235.83
457.352	9379.18
457.558	9839.98
457.764	10411.36
457.97	10544.48
458.176	10937.69
458.381	11664.72
458.587	11865.42
458.793	12361.03
458.999	12404.03
459.204	13921.58
459.41	14365.99
459.616	14079.27
459.821	14841.12
460.027	15654.16
460.233	16612.61
460.438	16332.04
460.644	17390.84
460.85	17571.06
461.055	18230.51
461.261	18932.96
461.466	18775.27
461.672	19057.89
461.878	21474.49
462.083	20968.64
462.289	21791.92
462.494	22543.53
462.7	22564.01
462.905	22809.76
463.111	24949.89
463.316	25756.79
463.522	26125.43
463.727	27069.54
463.932	28429.39
464.138	29203.52
464.343	30868.52
464.549	30284.85
464.754	32742.41
464.959	33479.68
465.165	34298.87
465.37	34110.46
465.575	33881.08
465.781	36352.98
465.986	37323.72
466.191	36682.7
466.397	37280.71
466.602	35902.43
466.807	38194.11
467.012	38960.05
467.218	39586.72
467.423	39580.58
467.628	40969.1
467.833	43027.31
468.038	41745.28
468.244	41522.05
