Data from USB4F104151__11__10-41-25-289.txt Node

Date: Wed Feb 26 10:41:25 EST 2025
User: louis
Spectrometer: USB4F10415
Trigger mode: 4
Integration Time (sec): 1.000000E-1
Scans to average: 1
Electric dark correction enabled: true
Nonlinearity correction enabled: false
Boxcar width: 0
XAxis mode: Wavelengths
Number of Pixels in Spectrum: 3648
>>>>>Begin Spectral Data<<<<<
178.204	-376.14
178.424	-376.14
178.644	-376.14
178.864	-376.14
179.084	-382.29
179.304	4.78
179.524	-13.65
179.744	33.45
179.964	-13.65
180.184	-30.04
180.404	70.31
180.624	-56.66
180.844	-81.24
181.064	-42.32
181.283	94.89
181.503	-21.85
181.723	55.98
181.943	-111.96
182.163	232.1
182.383	-25.94
182.602	101.03
182.822	111.27
183.042	115.37
183.262	-11.61
183.482	-21.85
183.701	55.98
183.921	72.36
184.141	25.26
184.361	47.79
184.58	82.6
184.8	6.83
185.02	2.73
185.239	49.83
185.459	82.6
185.679	197.29
185.898	-99.67
186.118	62.12
186.338	137.9
186.557	144.04
186.777	-42.32
186.997	27.31
187.216	-1.37
187.436	193.19
187.655	125.61
187.875	49.83
188.095	82.6
188.314	60.07
188.534	221.86
188.753	-44.37
188.973	209.58
189.192	217.77
189.412	10.92
189.631	88.75
189.851	55.98
190.07	111.27
190.29	-62.8
190.509	23.21
190.729	96.94
190.948	154.28
191.168	309.93
191.387	68.27
191.607	-3.41
191.826	43.69
192.045	62.12
192.265	39.59
192.484	109.22
192.704	4.78
192.923	-87.38
193.142	176.81
193.362	53.93
193.581	160.42
193.8	121.51
194.02	131.75
194.239	70.31
194.458	117.42
194.678	74.41
194.897	-9.56
195.116	80.55
195.335	70.31
195.555	103.08
195.774	49.83
195.993	187.05
196.212	53.93
196.432	35.5
196.651	4.78
196.87	33.45
197.089	273.06
197.308	70.31
197.528	107.18
197.747	6.83
197.966	25.26
198.185	180.9
198.404	-75.09
198.623	76.46
198.842	113.32
199.062	72.36
199.281	154.28
199.5	55.98
199.719	19.11
199.938	133.8
200.157	88.75
200.376	158.38
200.595	135.85
200.814	117.42
201.033	60.07
201.252	131.75
201.471	68.27
201.69	55.98
201.909	-11.61
202.128	111.27
202.347	58.03
202.566	60.07
202.785	-17.75
203.004	33.45
203.223	258.73
203.442	84.65
203.661	-1.37
203.879	82.6
204.098	166.57
204.317	-56.66
204.536	125.61
204.755	90.79
204.974	62.12
205.193	78.51
205.411	232.1
205.63	101.03
205.849	72.36
206.068	25.26
206.287	-9.56
206.505	119.46
206.724	8.87
206.943	80.55
207.162	-1.37
207.381	113.32
207.599	84.65
207.818	76.46
208.037	-48.47
208.255	107.18
208.474	105.13
208.693	51.88
208.911	-71
209.13	68.27
209.349	107.18
209.567	62.12
209.786	101.03
210.005	139.94
210.223	21.16
210.442	-60.76
210.661	-23.89
210.879	107.18
211.098	53.93
211.316	-60.76
211.535	31.4
211.753	66.22
211.972	55.98
212.191	35.5
212.409	51.88
212.628	66.22
212.846	23.21
213.065	-3.41
213.283	109.22
213.502	39.59
213.72	53.93
213.938	84.65
214.157	25.26
214.375	68.27
214.594	90.79
214.812	64.17
215.031	6.83
215.249	31.4
215.467	74.41
215.686	88.75
215.904	66.22
216.122	103.08
216.341	199.34
216.559	82.6
216.778	131.75
216.996	84.65
217.214	103.08
217.432	-17.75
217.651	-25.94
217.869	68.27
218.087	72.36
218.306	10.92
218.524	76.46
218.742	25.26
218.96	164.52
219.179	27.31
219.397	12.97
219.615	158.38
219.833	115.37
220.051	-81.24
220.27	107.18
220.488	201.38
220.706	51.88
220.924	27.31
221.142	-62.8
221.36	15.02
221.578	90.79
221.796	-36.18
222.015	90.79
222.233	43.69
222.451	225.96
222.669	-9.56
222.887	103.08
223.105	70.31
223.323	17.07
223.541	-15.7
223.759	94.89
223.977	19.11
224.195	144.04
224.413	37.55
224.631	129.7
224.849	111.27
225.067	281.25
225.285	29.35
225.503	43.69
225.721	-38.23
225.939	60.07
226.157	70.31
226.375	260.77
226.592	4.78
226.81	92.84
227.028	88.75
227.246	111.27
227.464	96.94
227.682	160.42
227.9	-50.52
228.117	45.74
228.335	144.04
228.553	88.75
228.771	58.03
228.989	115.37
229.206	125.61
229.424	27.31
229.642	-9.56
229.86	33.45
230.077	158.38
230.295	86.7
230.513	160.42
230.731	31.4
230.948	141.99
231.166	182.95
231.384	39.59
231.601	-17.75
231.819	172.71
232.037	41.64
232.254	23.21
232.472	15.02
232.689	45.74
232.907	125.61
233.125	88.75
233.342	31.4
233.56	64.17
233.777	37.55
233.995	-15.7
234.213	84.65
234.43	70.31
234.648	19.11
234.865	58.03
235.083	45.74
235.3	27.31
235.518	94.89
235.735	144.04
235.953	113.32
236.17	49.83
236.388	-17.75
236.605	115.37
236.822	74.41
237.04	133.8
237.257	70.31
237.475	-25.94
237.692	76.46
237.909	49.83
238.127	80.55
238.344	70.31
238.562	0.68
238.779	-25.94
238.996	-21.85
239.214	96.94
239.431	113.32
239.648	15.02
239.865	121.51
240.083	144.04
240.3	27.31
240.517	-3.41
240.735	86.7
240.952	252.58
241.169	43.69
241.386	133.8
241.603	135.85
241.821	49.83
242.038	105.13
242.255	86.7
242.472	-81.24
242.689	144.04
242.907	101.03
243.124	66.22
243.341	96.94
243.558	27.31
243.775	-30.04
243.992	-44.37
244.209	98.99
244.426	176.81
244.643	117.42
244.86	-9.56
245.078	111.27
245.295	121.51
245.512	-44.37
245.729	27.31
245.946	113.32
246.163	90.79
246.38	72.36
246.597	113.32
246.814	10.92
247.031	27.31
247.248	86.7
247.464	94.89
247.681	117.42
247.898	72.36
248.115	135.85
248.332	-60.76
248.549	133.8
248.766	141.99
248.983	60.07
249.2	103.08
249.417	150.18
249.633	62.12
249.85	90.79
250.067	96.94
250.284	62.12
250.501	125.61
250.717	27.31
250.934	-30.04
251.151	45.74
251.368	55.98
251.585	111.27
251.801	-5.46
252.018	-97.62
252.235	133.8
252.451	-32.08
252.668	-7.51
252.885	125.61
253.102	135.85
253.318	12.97
253.535	84.65
253.752	-13.65
253.968	68.27
254.185	8.87
254.401	58.03
254.618	113.32
254.835	51.88
255.051	178.86
255.268	96.94
255.484	33.45
255.701	37.55
255.917	144.04
256.134	-27.99
256.351	55.98
256.567	-5.46
256.784	17.07
257	-42.32
257.217	127.66
257.433	49.83
257.65	78.51
257.866	139.94
258.082	-27.99
258.299	10.92
258.515	80.55
258.732	23.21
258.948	8.87
259.165	62.12
259.381	74.41
259.597	68.27
259.814	-5.46
260.03	6.83
260.246	23.21
260.463	152.23
260.679	166.57
260.895	70.31
261.112	66.22
261.328	31.4
261.544	58.03
261.761	119.46
261.977	31.4
262.193	51.88
262.409	107.18
262.626	90.79
262.842	82.6
263.058	-1.37
263.274	168.62
263.49	162.47
263.707	29.35
263.923	101.03
264.139	-81.24
264.355	141.99
264.571	141.99
264.787	60.07
265.004	150.18
265.22	141.99
265.436	-3.41
265.652	-23.89
265.868	78.51
266.084	-87.38
266.3	78.51
266.516	-5.46
266.732	146.09
266.948	117.42
267.164	35.5
267.38	131.75
267.596	160.42
267.812	209.58
268.028	94.89
268.244	33.45
268.46	78.51
268.676	55.98
268.892	168.62
269.108	33.45
269.324	-11.61
269.54	8.87
269.756	135.85
269.972	17.07
270.188	37.55
270.403	-3.41
270.619	31.4
270.835	193.19
271.051	2.73
271.267	-30.04
271.483	29.35
271.698	107.18
271.914	53.93
272.13	39.59
272.346	12.97
272.562	96.94
272.777	133.8
272.993	23.21
273.209	6.83
273.425	170.66
273.64	-32.08
273.856	98.99
274.072	-54.61
274.287	-7.51
274.503	84.65
274.719	115.37
274.934	33.45
275.15	-50.52
275.366	86.7
275.581	17.07
275.797	-21.85
276.012	47.79
276.228	74.41
276.444	82.6
276.659	121.51
276.875	-25.94
277.09	49.83
277.306	-5.46
277.521	107.18
277.737	17.07
277.952	68.27
278.168	53.93
278.383	129.7
278.599	60.07
278.814	162.47
279.03	-36.18
279.245	176.81
279.461	90.79
279.676	121.51
279.892	-34.13
280.107	-9.56
280.322	-34.13
280.538	115.37
280.753	53.93
280.969	19.11
281.184	160.42
281.399	158.38
281.615	53.93
281.83	105.13
282.045	-87.38
282.26	2.73
282.476	80.55
282.691	90.79
282.906	127.66
283.122	68.27
283.337	-21.85
283.552	66.22
283.767	-11.61
283.983	125.61
284.198	-32.08
284.413	25.26
284.628	6.83
284.843	76.46
285.058	45.74
285.274	2.73
285.489	-23.89
285.704	146.09
285.919	39.59
286.134	68.27
286.349	27.31
286.564	64.17
286.779	154.28
286.995	25.26
287.21	0.68
287.425	139.94
287.64	-3.41
287.855	125.61
288.07	-3.41
288.285	92.84
288.5	172.71
288.715	45.74
288.93	35.5
289.145	45.74
289.36	174.76
289.575	45.74
289.79	154.28
290.004	103.08
290.219	131.75
290.434	29.35
290.649	10.92
290.864	-21.85
291.079	107.18
291.294	64.17
291.509	135.85
291.724	29.35
291.938	74.41
292.153	66.22
292.368	35.5
292.583	135.85
292.798	152.23
293.012	113.32
293.227	131.75
293.442	37.55
293.657	101.03
293.871	123.56
294.086	55.98
294.301	180.9
294.516	129.7
294.73	66.22
294.945	-48.47
295.16	17.07
295.374	74.41
295.589	70.31
295.804	-23.89
296.018	29.35
296.233	96.94
296.447	60.07
296.662	88.75
296.877	156.33
297.091	170.66
297.306	8.87
297.52	37.55
297.735	101.03
297.949	60.07
298.164	74.41
298.378	133.8
298.593	-44.37
298.807	64.17
299.022	49.83
299.236	178.86
299.451	31.4
299.665	70.31
299.88	43.69
300.094	35.5
300.309	15.02
300.523	72.36
300.737	82.6
300.952	117.42
301.166	74.41
301.381	37.55
301.595	58.03
301.809	66.22
302.024	62.12
302.238	27.31
302.452	137.9
302.667	92.84
302.881	209.58
303.095	80.55
303.309	60.07
303.524	31.4
303.738	-25.94
303.952	8.87
304.166	19.11
304.381	-23.89
304.595	195.24
304.809	-19.8
305.023	72.36
305.237	55.98
305.452	88.75
305.666	86.7
305.88	107.18
306.094	125.61
306.308	137.9
306.522	109.22
306.736	199.34
306.95	62.12
307.164	80.55
307.379	49.83
307.593	129.7
307.807	150.18
308.021	92.84
308.235	111.27
308.449	-114
308.663	45.74
308.877	225.96
309.091	58.03
309.305	80.55
309.519	-85.33
309.733	178.86
309.947	-30.04
310.161	88.75
310.374	72.36
310.588	193.19
310.802	-15.7
311.016	-42.32
311.23	49.83
311.444	47.79
311.658	27.31
311.872	168.62
312.085	195.24
312.299	176.81
312.513	156.33
312.727	43.69
312.941	60.07
313.154	51.88
313.368	111.27
313.582	43.69
313.796	82.6
314.009	76.46
314.223	129.7
314.437	101.03
314.651	154.28
314.864	39.59
315.078	-79.19
315.292	8.87
315.505	53.93
315.719	43.69
315.933	80.55
316.146	88.75
316.36	17.07
316.573	82.6
316.787	37.55
317.001	113.32
317.214	4.78
317.428	10.92
317.641	17.07
317.855	17.07
318.068	84.65
318.282	86.7
318.495	223.91
318.709	55.98
318.922	117.42
319.136	88.75
319.349	129.7
319.563	29.35
319.776	41.64
319.99	-1.37
320.203	111.27
320.417	41.64
320.63	154.28
320.843	172.71
321.057	60.07
321.27	53.93
321.483	53.93
321.697	154.28
321.91	23.21
322.124	125.61
322.337	86.7
322.55	0.68
322.763	6.83
322.977	141.99
323.19	-3.41
323.403	125.61
323.617	105.13
323.83	119.46
324.043	15.02
324.256	133.8
324.469	-42.32
324.683	78.51
324.896	72.36
325.109	98.99
325.322	-30.04
325.535	125.61
325.748	94.89
325.962	21.16
326.175	68.27
326.388	92.84
326.601	154.28
326.814	37.55
327.027	103.08
327.24	150.18
327.453	15.02
327.666	84.65
327.879	133.8
328.092	92.84
328.305	182.95
328.518	-9.56
328.731	10.92
328.944	47.79
329.157	119.46
329.37	78.51
329.583	264.87
329.796	193.19
330.009	-46.42
330.222	139.94
330.435	90.79
330.648	84.65
330.861	72.36
331.073	60.07
331.286	127.66
331.499	78.51
331.712	2.73
331.925	-48.47
332.138	-36.18
332.35	213.67
332.563	45.74
332.776	123.56
332.989	0.68
333.202	-13.65
333.414	111.27
333.627	80.55
333.84	60.07
334.053	98.99
334.265	76.46
334.478	35.5
334.691	58.03
334.903	37.55
335.116	66.22
335.329	80.55
335.541	23.21
335.754	113.32
335.966	27.31
336.179	25.26
336.392	105.13
336.604	-1.37
336.817	121.51
337.029	27.31
337.242	58.03
337.454	121.51
337.667	49.83
337.88	127.66
338.092	53.93
338.305	78.51
338.517	-25.94
338.729	92.84
338.942	193.19
339.154	-9.56
339.367	-13.65
339.579	51.88
339.792	58.03
340.004	43.69
340.217	49.83
340.429	31.4
340.641	2.73
340.854	4.78
341.066	-5.46
341.278	191.14
341.491	232.1
341.703	64.17
341.915	-50.52
342.128	148.14
342.34	33.45
342.552	-44.37
342.764	70.31
342.977	2.73
343.189	76.46
343.401	78.51
343.613	-81.24
343.826	121.51
344.038	37.55
344.25	-7.51
344.462	74.41
344.674	109.22
344.886	25.26
345.099	88.75
345.311	47.79
345.523	51.88
345.735	31.4
345.947	49.83
346.159	4.78
346.371	29.35
346.583	-19.8
346.795	248.49
347.007	41.64
347.219	98.99
347.431	19.11
347.643	152.23
347.855	90.79
348.067	199.34
348.279	-27.99
348.491	66.22
348.703	197.29
348.915	27.31
349.127	-5.46
349.339	37.55
349.551	-27.99
349.763	21.16
349.975	66.22
350.187	92.84
350.399	154.28
350.61	12.97
350.822	43.69
351.034	139.94
351.246	25.26
351.458	103.08
351.669	156.33
351.881	119.46
352.093	148.14
352.305	174.76
352.517	101.03
352.728	156.33
352.94	31.4
353.152	109.22
353.363	-48.47
353.575	94.89
353.787	105.13
353.999	66.22
354.21	137.9
354.422	-19.8
354.633	78.51
354.845	21.16
355.057	82.6
355.268	121.51
355.48	137.9
355.692	-44.37
355.903	82.6
356.115	12.97
356.326	-71
356.538	217.77
356.749	123.56
356.961	127.66
357.172	58.03
357.384	27.31
357.595	248.49
357.807	60.07
358.018	-50.52
358.23	35.5
358.441	133.8
358.653	105.13
358.864	47.79
359.075	17.07
359.287	133.8
359.498	129.7
359.709	144.04
359.921	64.17
360.132	43.69
360.344	64.17
360.555	-34.13
360.766	98.99
360.977	31.4
361.189	131.75
361.4	125.61
361.611	103.08
361.823	201.38
362.034	0.68
362.245	-15.7
362.456	141.99
362.667	127.66
362.879	-19.8
363.09	115.37
363.301	98.99
363.512	23.21
363.723	64.17
363.935	90.79
364.146	191.14
364.357	70.31
364.568	86.7
364.779	-66.9
364.99	207.53
365.201	31.4
365.412	197.29
365.623	-34.13
365.834	131.75
366.045	68.27
366.256	117.42
366.467	72.36
366.678	92.84
366.889	107.18
367.1	-32.08
367.311	105.13
367.522	23.21
367.733	201.38
367.944	117.42
368.155	47.79
368.366	135.85
368.577	139.94
368.788	152.23
368.999	-50.52
369.209	6.83
369.42	174.76
369.631	285.35
369.842	74.41
370.053	47.79
370.264	156.33
370.474	-58.71
370.685	121.51
370.896	27.31
371.107	115.37
371.317	135.85
371.528	76.46
371.739	64.17
371.95	96.94
372.16	8.87
372.371	-38.23
372.582	109.22
372.792	148.14
373.003	66.22
373.214	96.94
373.424	211.62
373.635	31.4
373.846	170.66
374.056	-5.46
374.267	166.57
374.477	117.42
374.688	4.78
374.898	84.65
375.109	68.27
375.319	10.92
375.53	117.42
375.74	170.66
375.951	-30.04
376.161	103.08
376.372	111.27
376.582	66.22
376.793	117.42
377.003	27.31
377.214	-34.13
377.424	41.64
377.635	66.22
377.845	25.26
378.055	162.47
378.266	35.5
378.476	115.37
378.686	156.33
378.897	94.89
379.107	168.62
379.317	162.47
379.528	21.16
379.738	154.28
379.948	-13.65
380.158	39.59
380.369	141.99
380.579	88.75
380.789	88.75
380.999	72.36
381.21	84.65
381.42	162.47
381.63	6.83
381.84	117.42
382.05	109.22
382.261	174.76
382.471	115.37
382.681	10.92
382.891	98.99
383.101	119.46
383.311	55.98
383.521	-32.08
383.731	76.46
383.941	113.32
384.151	55.98
384.361	15.02
384.571	150.18
384.781	111.27
384.991	230.06
385.201	166.57
385.411	150.18
385.621	154.28
385.831	39.59
386.041	78.51
386.251	45.74
386.461	80.55
386.671	70.31
386.881	72.36
387.091	111.27
387.301	150.18
387.511	39.59
387.72	174.76
387.93	84.65
388.14	-50.52
388.35	76.46
388.56	146.09
388.769	148.14
388.979	127.66
389.189	41.64
389.399	27.31
389.609	113.32
389.818	174.76
390.028	121.51
390.238	68.27
390.447	98.99
390.657	96.94
390.867	51.88
391.076	-71
391.286	92.84
391.496	127.66
391.705	101.03
391.915	98.99
392.125	121.51
392.334	25.26
392.544	152.23
392.753	119.46
392.963	31.4
393.172	131.75
393.382	45.74
393.591	213.67
393.801	17.07
394.01	96.94
394.22	123.56
394.429	68.27
394.639	131.75
394.848	105.13
395.058	39.59
395.267	31.4
395.477	115.37
395.686	133.8
395.895	195.24
396.105	291.49
396.314	92.84
396.524	15.02
396.733	55.98
396.942	35.5
397.152	90.79
397.361	189.1
397.57	86.7
397.78	94.89
397.989	168.62
398.198	197.29
398.407	98.99
398.617	90.79
398.826	92.84
399.035	25.26
399.244	129.7
399.453	82.6
399.663	64.17
399.872	66.22
400.081	29.35
400.29	238.25
400.499	-34.13
400.708	98.99
400.917	53.93
401.127	96.94
401.336	23.21
401.545	232.1
401.754	98.99
401.963	121.51
402.172	123.56
402.381	-23.89
402.59	35.5
402.799	94.89
403.008	111.27
403.217	78.51
403.426	101.03
403.635	-25.94
403.844	53.93
404.053	19.11
404.262	35.5
404.471	148.14
404.68	80.55
404.888	37.55
405.097	31.4
405.306	58.03
405.515	107.18
405.724	49.83
405.933	133.8
406.142	49.83
406.35	148.14
406.559	72.36
406.768	98.99
406.977	168.62
407.185	152.23
407.394	162.47
407.603	10.92
407.812	78.51
408.02	211.62
408.229	47.79
408.438	90.79
408.646	21.16
408.855	51.88
409.064	152.23
409.272	-64.85
409.481	76.46
409.69	8.87
409.898	-85.33
410.107	107.18
410.315	158.38
410.524	2.73
410.733	141.99
410.941	98.99
411.15	74.41
411.358	133.8
411.567	74.41
411.775	92.84
411.984	72.36
412.192	121.51
412.401	-54.61
412.609	105.13
412.818	133.8
413.026	137.9
413.234	55.98
413.443	10.92
413.651	80.55
413.86	-3.41
414.068	111.27
414.276	250.53
414.485	80.55
414.693	148.14
414.901	203.43
415.11	172.71
415.318	78.51
415.526	70.31
415.734	62.12
415.943	80.55
416.151	205.48
416.359	55.98
416.567	213.67
416.776	137.9
416.984	105.13
417.192	213.67
417.4	68.27
417.608	17.07
417.817	10.92
418.025	154.28
418.233	182.95
418.441	-5.46
418.649	2.73
418.857	82.6
419.065	94.89
419.273	39.59
419.481	45.74
419.689	68.27
419.897	2.73
420.105	-38.23
420.313	144.04
420.521	158.38
420.729	148.14
420.937	-3.41
421.145	-44.37
421.353	174.76
421.561	131.75
421.769	27.31
421.977	-13.65
422.185	131.75
422.393	105.13
422.601	98.99
422.809	62.12
423.017	115.37
423.224	154.28
423.432	133.8
423.64	92.84
423.848	148.14
424.056	-21.85
424.263	164.52
424.471	74.41
424.679	230.06
424.887	72.36
425.094	191.14
425.302	117.42
425.51	84.65
425.718	92.84
425.925	215.72
426.133	76.46
426.341	228.01
426.548	144.04
426.756	68.27
426.964	201.38
427.171	62.12
427.379	98.99
427.586	131.75
427.794	127.66
428.001	213.67
428.209	139.94
428.417	211.62
428.624	174.76
428.832	182.95
429.039	115.37
429.247	176.81
429.454	172.71
429.662	264.87
429.869	152.23
430.076	164.52
430.284	225.96
430.491	328.36
430.699	260.77
430.906	287.4
431.114	172.71
431.321	213.67
431.528	103.08
431.736	213.67
431.943	264.87
432.15	260.77
432.358	182.95
432.565	266.92
432.772	62.12
432.979	311.97
433.187	103.08
433.394	258.73
433.601	172.71
433.808	230.06
434.016	232.1
434.223	273.06
434.43	242.34
434.637	281.25
434.844	320.17
435.052	322.21
435.259	277.16
435.466	395.94
435.673	271.01
435.88	314.02
436.087	420.52
436.294	367.27
436.501	385.7
436.708	279.21
436.915	381.6
437.122	397.99
437.329	314.02
437.537	416.42
437.743	451.24
437.95	518.82
438.157	402.08
438.364	486.05
438.571	467.62
438.778	443.04
438.985	471.72
439.192	563.87
439.399	539.3
439.606	453.28
439.813	524.96
440.02	705.18
440.227	756.38
440.433	660.13
440.64	668.32
440.847	662.18
441.054	709.28
441.261	883.36
441.467	735.9
441.674	756.38
441.881	832.16
442.088	780.96
442.294	817.82
442.501	934.56
442.708	991.9
442.914	895.64
443.121	871.07
443.328	957.08
443.534	1094.3
443.741	989.85
443.948	996
444.154	1106.59
444.361	1270.42
444.568	1114.78
444.774	1170.07
444.981	1213.08
445.187	1383.06
445.394	1368.73
445.6	1401.49
445.807	1567.38
446.013	1444.5
446.22	1450.64
446.426	1745.55
446.633	1804.94
446.839	1886.86
447.046	1673.87
447.252	1897.1
447.459	1856.14
447.665	1985.16
447.871	2044.56
448.078	2329.22
448.284	2214.54
448.491	2300.55
448.697	2513.54
448.903	2484.87
449.11	2574.98
449.316	2574.98
449.522	2865.79
449.728	2853.5
449.935	2906.75
450.141	2992.76
450.347	3269.24
450.553	3125.88
450.76	3213.95
450.966	3381.88
451.172	3410.55
451.378	3572.34
451.584	3725.94
451.791	3988.08
451.997	4192.87
452.203	4242.03
452.409	4502.12
452.615	4481.64
452.821	4414.06
453.027	4514.41
453.233	5116.51
453.44	4883.04
453.646	5202.52
453.852	5331.55
454.058	5722.71
454.264	5714.52
454.47	6367.82
454.676	6220.36
454.882	6687.3
455.088	6572.61
455.294	6666.82
455.5	7137.85
455.705	7690.81
455.911	7821.88
456.117	7821.88
456.323	8028.72
456.529	8172.08
456.735	9118.24
456.941	9046.56
457.147	9480.73
457.352	9605.66
457.558	9914.9
457.764	10754.57
457.97	11037.19
458.176	11319.81
458.381	11833.85
458.587	12018.16
458.793	12517.87
458.999	12702.18
459.204	14238.16
459.41	14830.02
459.616	14694.86
459.821	15204.8
460.027	16101.81
460.233	16452.02
460.438	17082.79
460.644	17887.64
460.85	17963.42
461.055	18809.23
461.261	19652.99
461.466	19163.53
461.672	19638.65
461.878	21956.96
462.083	21590.37
462.289	21995.87
462.494	22843.73
462.7	22923.6
462.905	23306.57
463.111	25497.89
463.316	26360.09
463.522	27040.01
463.727	27902.21
463.932	29143.28
464.138	29829.35
464.343	31144.14
464.549	31158.48
464.754	33558.7
464.959	34576.54
465.165	35152.02
465.37	34754.71
465.575	34787.48
465.781	36993.14
465.986	38494.3
466.191	37464.18
466.397	37955.69
466.602	37167.22
466.807	38813.79
467.012	39899.21
467.218	40409.15
467.423	40751.16
467.628	41943.08
467.833	43788.3
