Data from USB4F104151__199__11-05-31-030.txt Node

Date: Wed Feb 26 11:05:31 EST 2025
User: louis
Spectrometer: USB4F10415
Trigger mode: 4
Integration Time (sec): 1.000000E-1
Scans to average: 1
Electric dark correction enabled: true
Nonlinearity correction enabled: false
Boxcar width: 0
XAxis mode: Wavelengths
Number of Pixels in Spectrum: 3648
>>>>>Begin Spectral Data<<<<<
178.204	-338.43
178.424	-338.43
178.644	-338.43
178.864	-309.76
179.084	-385.53
179.304	17.92
179.524	7.68
179.744	-51.71
179.964	48.64
180.184	36.35
180.404	24.06
180.624	-20.99
180.844	-16.9
181.064	-98.81
181.283	24.06
181.503	-41.47
181.723	71.17
181.943	-10.75
182.163	194.05
182.383	56.83
182.602	155.13
182.822	196.09
183.042	46.59
183.262	-25.09
183.482	91.65
183.701	-37.38
183.921	101.89
184.141	-14.85
184.361	138.75
184.58	91.65
184.8	46.59
185.02	81.41
185.239	130.56
185.459	134.65
185.679	146.94
185.898	-109.05
186.118	7.68
186.338	105.98
186.557	232.96
186.777	13.82
186.997	97.79
187.216	87.55
187.436	206.33
187.655	103.93
187.875	157.18
188.095	120.32
188.314	192
188.534	50.69
188.753	24.06
188.973	159.23
189.192	185.85
189.412	15.87
189.631	42.5
189.851	89.6
190.07	232.96
190.29	3.58
190.509	42.5
190.729	103.93
190.948	187.9
191.168	220.67
191.387	83.45
191.607	67.07
191.826	99.84
192.045	50.69
192.265	112.13
192.484	85.5
192.704	54.78
192.923	-27.14
193.142	140.8
193.362	169.47
193.581	185.85
193.8	54.78
194.02	148.99
194.239	89.6
194.458	146.94
194.678	71.17
194.897	32.26
195.116	153.09
195.335	62.98
195.555	134.65
195.774	60.93
195.993	132.61
196.212	32.26
196.432	50.69
196.651	85.5
196.87	108.03
197.089	302.59
197.308	120.32
197.528	85.5
197.747	-43.52
197.966	24.06
198.185	222.72
198.404	-59.9
198.623	138.75
198.842	148.99
199.062	155.13
199.281	93.69
199.5	36.35
199.719	163.33
199.938	124.41
200.157	187.9
200.376	175.61
200.595	140.8
200.814	118.27
201.033	9.73
201.252	226.81
201.471	89.6
201.69	108.03
201.909	116.22
202.128	163.33
202.347	112.13
202.566	62.98
202.785	-12.8
203.004	-57.86
203.223	280.06
203.442	60.93
203.661	60.93
203.879	75.26
204.098	140.8
204.317	19.97
204.536	93.69
204.755	163.33
204.974	36.35
205.193	3.58
205.411	171.52
205.63	134.65
205.849	105.98
206.068	44.54
206.287	19.97
206.505	169.47
206.724	48.64
206.943	110.08
207.162	48.64
207.381	50.69
207.599	60.93
207.818	99.84
208.037	-20.99
208.255	67.07
208.474	103.93
208.693	126.46
208.911	30.21
209.13	142.85
209.349	194.05
209.567	169.47
209.786	142.85
210.005	110.08
210.223	7.68
210.442	-90.62
210.661	32.26
210.879	103.93
211.098	9.73
211.316	60.93
211.535	116.22
211.753	122.37
211.972	204.28
212.191	34.3
212.409	73.21
212.628	105.98
212.846	26.11
213.065	77.31
213.283	108.03
213.502	130.56
213.72	46.59
213.938	134.65
214.157	44.54
214.375	169.47
214.594	105.98
214.812	112.13
215.031	13.82
215.249	71.17
215.467	19.97
215.686	87.55
215.904	116.22
216.122	69.12
216.341	136.7
216.559	130.56
216.778	83.45
216.996	161.28
217.214	34.3
217.432	22.02
217.651	-23.04
217.869	62.98
218.087	19.97
218.306	44.54
218.524	65.02
218.742	38.4
218.96	112.13
219.179	69.12
219.397	122.37
219.615	267.77
219.833	105.98
220.051	30.21
220.27	112.13
220.488	151.04
220.706	46.59
220.924	32.26
221.142	-0.51
221.36	134.65
221.578	142.85
221.796	50.69
222.015	65.02
222.233	71.17
222.451	251.39
222.669	-37.38
222.887	128.51
223.105	-12.8
223.323	50.69
223.541	36.35
223.759	50.69
223.977	65.02
224.195	198.14
224.413	85.5
224.631	67.07
224.849	93.69
225.067	214.52
225.285	22.02
225.503	32.26
225.721	-20.99
225.939	105.98
226.157	148.99
226.375	271.87
226.592	-6.66
226.81	87.55
227.028	157.18
227.246	171.52
227.464	91.65
227.682	163.33
227.9	206.33
228.117	38.4
228.335	103.93
228.553	114.17
228.771	112.13
228.989	105.98
229.206	120.32
229.424	24.06
229.642	81.41
229.86	46.59
230.077	241.15
230.295	58.88
230.513	136.7
230.731	95.74
230.948	140.8
231.166	185.85
231.384	103.93
231.601	24.06
231.819	226.81
232.037	-25.09
232.254	-45.57
232.472	3.58
232.689	30.21
232.907	132.61
233.125	50.69
233.342	73.21
233.56	36.35
233.777	42.5
233.995	138.75
234.213	97.79
234.43	159.23
234.648	99.84
234.865	48.64
235.083	34.3
235.3	93.69
235.518	105.98
235.735	163.33
235.953	144.89
236.17	81.41
236.388	101.89
236.605	142.85
236.822	144.89
237.04	101.89
237.257	118.27
237.475	17.92
237.692	85.5
237.909	185.85
238.127	93.69
238.344	85.5
238.562	126.46
238.779	28.16
238.996	52.74
239.214	60.93
239.431	124.41
239.648	-0.51
239.865	198.14
240.083	32.26
240.3	54.78
240.517	42.5
240.735	65.02
240.952	161.28
241.169	120.32
241.386	81.41
241.603	11.78
241.821	-2.56
242.038	101.89
242.255	83.45
242.472	-20.99
242.689	110.08
242.907	140.8
243.124	22.02
243.341	75.26
243.558	1.54
243.775	-29.18
243.992	40.45
244.209	130.56
244.426	167.42
244.643	83.45
244.86	48.64
245.078	151.04
245.295	128.51
245.512	44.54
245.729	120.32
245.946	87.55
246.163	85.5
246.38	56.83
246.597	169.47
246.814	97.79
247.031	110.08
247.248	75.26
247.464	89.6
247.681	44.54
247.898	118.27
248.115	120.32
248.332	-27.14
248.549	210.43
248.766	167.42
248.983	97.79
249.2	126.46
249.417	177.66
249.633	34.3
249.85	95.74
250.067	5.63
250.284	75.26
250.501	151.04
250.717	87.55
250.934	32.26
251.151	13.82
251.368	105.98
251.585	58.88
251.801	148.99
252.018	28.16
252.235	165.37
252.451	48.64
252.668	71.17
252.885	126.46
253.102	77.31
253.318	95.74
253.535	7.68
253.752	79.36
253.968	-20.99
254.185	7.68
254.401	116.22
254.618	87.55
254.835	1.54
255.051	124.41
255.268	128.51
255.484	155.13
255.701	38.4
255.917	93.69
256.134	9.73
256.351	89.6
256.567	24.06
256.784	105.98
257	-64
257.217	175.61
257.433	71.17
257.65	79.36
257.866	159.23
258.082	24.06
258.299	75.26
258.515	60.93
258.732	32.26
258.948	19.97
259.165	99.84
259.381	-4.61
259.597	108.03
259.814	58.88
260.03	46.59
260.246	24.06
260.463	198.14
260.679	192
260.895	87.55
261.112	71.17
261.328	77.31
261.544	19.97
261.761	235
261.977	48.64
262.193	-0.51
262.409	204.28
262.626	114.17
262.842	75.26
263.058	42.5
263.274	136.7
263.49	93.69
263.707	159.23
263.923	108.03
264.139	22.02
264.355	159.23
264.571	54.78
264.787	87.55
265.004	130.56
265.22	48.64
265.436	28.16
265.652	54.78
265.868	136.7
266.084	-41.47
266.3	65.02
266.516	-25.09
266.732	118.27
266.948	83.45
267.164	38.4
267.38	118.27
267.596	52.74
267.812	224.76
268.028	93.69
268.244	-8.7
268.46	99.84
268.676	114.17
268.892	56.83
269.108	34.3
269.324	50.69
269.54	11.78
269.756	124.41
269.972	-16.9
270.188	75.26
270.403	13.82
270.619	54.78
270.835	85.5
271.051	67.07
271.267	50.69
271.483	81.41
271.698	146.94
271.914	140.8
272.13	32.26
272.346	-16.9
272.562	114.17
272.777	228.86
272.993	46.59
273.209	-39.42
273.425	91.65
273.64	99.84
273.856	65.02
274.072	9.73
274.287	85.5
274.503	83.45
274.719	128.51
274.934	83.45
275.15	15.87
275.366	54.78
275.581	38.4
275.797	32.26
276.012	89.6
276.228	77.31
276.444	7.68
276.659	169.47
276.875	9.73
277.09	36.35
277.306	13.82
277.521	142.85
277.737	91.65
277.952	85.5
278.168	48.64
278.383	97.79
278.599	161.28
278.814	73.21
279.03	-10.75
279.245	159.23
279.461	95.74
279.676	157.18
279.892	15.87
280.107	1.54
280.322	7.68
280.538	69.12
280.753	56.83
280.969	65.02
281.184	44.54
281.399	222.72
281.615	34.3
281.83	58.88
282.045	-74.24
282.26	-6.66
282.476	62.98
282.691	165.37
282.906	60.93
283.122	110.08
283.337	-20.99
283.552	130.56
283.767	99.84
283.983	112.13
284.198	181.76
284.413	132.61
284.628	-39.42
284.843	54.78
285.058	140.8
285.274	95.74
285.489	19.97
285.704	177.66
285.919	44.54
286.134	112.13
286.349	50.69
286.564	89.6
286.779	116.22
286.995	-47.62
287.21	-4.61
287.425	163.33
287.64	24.06
287.855	128.51
288.07	13.82
288.285	171.52
288.5	173.57
288.715	116.22
288.93	46.59
289.145	73.21
289.36	91.65
289.575	46.59
289.79	116.22
290.004	79.36
290.219	126.46
290.434	3.58
290.649	-57.86
290.864	19.97
291.079	34.3
291.294	65.02
291.509	73.21
291.724	46.59
291.938	58.88
292.153	206.33
292.368	214.52
292.583	112.13
292.798	110.08
293.012	101.89
293.227	177.66
293.442	77.31
293.657	105.98
293.871	181.76
294.086	89.6
294.301	155.13
294.516	81.41
294.73	52.74
294.945	-49.66
295.16	42.5
295.374	128.51
295.589	97.79
295.804	52.74
296.018	62.98
296.233	89.6
296.447	30.21
296.662	79.36
296.877	95.74
297.091	110.08
297.306	11.78
297.52	32.26
297.735	91.65
297.949	22.02
298.164	-20.99
298.378	118.27
298.593	-64
298.807	38.4
299.022	144.89
299.236	189.95
299.451	22.02
299.665	5.63
299.88	-20.99
300.094	60.93
300.309	-33.28
300.523	126.46
300.737	101.89
300.952	56.83
301.166	130.56
301.381	-14.85
301.595	79.36
301.809	83.45
302.024	52.74
302.238	-2.56
302.452	134.65
302.667	69.12
302.881	56.83
303.095	136.7
303.309	93.69
303.524	-25.09
303.738	48.64
303.952	28.16
304.166	144.89
304.381	-135.68
304.595	187.9
304.809	56.83
305.023	46.59
305.237	-12.8
305.452	69.12
305.666	122.37
305.88	103.93
306.094	130.56
306.308	34.3
306.522	151.04
306.736	60.93
306.95	116.22
307.164	40.45
307.379	69.12
307.593	183.81
307.807	171.52
308.021	114.17
308.235	134.65
308.449	-20.99
308.663	93.69
308.877	165.37
309.091	38.4
309.305	165.37
309.519	-100.86
309.733	130.56
309.947	-31.23
310.161	83.45
310.374	116.22
310.588	206.33
310.802	50.69
311.016	7.68
311.23	128.51
311.444	11.78
311.658	60.93
311.872	103.93
312.085	148.99
312.299	110.08
312.513	177.66
312.727	83.45
312.941	26.11
313.154	56.83
313.368	73.21
313.582	151.04
313.796	56.83
314.009	69.12
314.223	153.09
314.437	85.5
314.651	148.99
314.864	-4.61
315.078	48.64
315.292	-47.62
315.505	-20.99
315.719	140.8
315.933	77.31
316.146	52.74
316.36	54.78
316.573	167.42
316.787	101.89
317.001	69.12
317.214	62.98
317.428	157.18
317.641	40.45
317.855	56.83
318.068	130.56
318.282	177.66
318.495	269.82
318.709	122.37
318.922	91.65
319.136	153.09
319.349	179.71
319.563	118.27
319.776	110.08
319.99	-6.66
320.203	148.99
320.417	67.07
320.63	103.93
320.843	208.38
321.057	105.98
321.27	40.45
321.483	128.51
321.697	214.52
321.91	101.89
322.124	93.69
322.337	30.21
322.55	-18.94
322.763	99.84
322.977	75.26
323.19	-18.94
323.403	19.97
323.617	73.21
323.83	192
324.043	110.08
324.256	40.45
324.469	15.87
324.683	148.99
324.896	48.64
325.109	105.98
325.322	40.45
325.535	124.41
325.748	46.59
325.962	58.88
326.175	44.54
326.388	103.93
326.601	140.8
326.814	50.69
327.027	26.11
327.24	153.09
327.453	-61.95
327.666	42.5
327.879	206.33
328.092	122.37
328.305	136.7
328.518	58.88
328.731	89.6
328.944	-14.85
329.157	136.7
329.37	44.54
329.583	239.1
329.796	105.98
330.009	-57.86
330.222	108.03
330.435	155.13
330.648	85.5
330.861	112.13
331.073	46.59
331.286	144.89
331.499	87.55
331.712	-51.71
331.925	52.74
332.138	69.12
332.35	159.23
332.563	-45.57
332.776	153.09
332.989	-23.04
333.202	77.31
333.414	95.74
333.627	140.8
333.84	69.12
334.053	153.09
334.265	46.59
334.478	73.21
334.691	40.45
334.903	65.02
335.116	24.06
335.329	40.45
335.541	108.03
335.754	194.05
335.966	52.74
336.179	93.69
336.392	11.78
336.604	75.26
336.817	124.41
337.029	179.71
337.242	120.32
337.454	142.85
337.667	114.17
337.88	261.63
338.092	105.98
338.305	101.89
338.517	97.79
338.729	171.52
338.942	161.28
339.154	-4.61
339.367	71.17
339.579	118.27
339.792	-6.66
340.004	138.75
340.217	32.26
340.429	99.84
340.641	-41.47
340.854	89.6
341.066	26.11
341.278	142.85
341.491	206.33
341.703	19.97
341.915	124.41
342.128	101.89
342.34	52.74
342.552	65.02
342.764	142.85
342.977	122.37
343.189	181.76
343.401	103.93
343.613	22.02
343.826	108.03
344.038	-16.9
344.25	126.46
344.462	-53.76
344.674	83.45
344.886	13.82
345.099	71.17
345.311	118.27
345.523	50.69
345.735	9.73
345.947	32.26
346.159	146.94
346.371	126.46
346.583	136.7
346.795	142.85
347.007	71.17
347.219	114.17
347.431	67.07
347.643	146.94
347.855	132.61
348.067	196.09
348.279	-6.66
348.491	153.09
348.703	40.45
348.915	56.83
349.127	-8.7
349.339	48.64
349.551	103.93
349.763	99.84
349.975	71.17
350.187	122.37
350.399	153.09
350.61	40.45
350.822	5.63
351.034	62.98
351.246	157.18
351.458	73.21
351.669	196.09
351.881	91.65
352.093	142.85
352.305	255.48
352.517	134.65
352.728	179.71
352.94	38.4
353.152	112.13
353.363	22.02
353.575	161.28
353.787	237.05
353.999	19.97
354.21	257.53
354.422	17.92
354.633	1.54
354.845	60.93
355.057	112.13
355.268	120.32
355.48	136.7
355.692	24.06
355.903	85.5
356.115	95.74
356.326	15.87
356.538	179.71
356.749	120.32
356.961	155.13
357.172	118.27
357.384	32.26
357.595	273.92
357.807	15.87
358.018	44.54
358.23	9.73
358.441	218.62
358.653	67.07
358.864	62.98
359.075	95.74
359.287	65.02
359.498	179.71
359.709	159.23
359.921	120.32
360.132	128.51
360.344	58.88
360.555	-6.66
360.766	99.84
360.977	22.02
361.189	101.89
361.4	11.78
361.611	93.69
361.823	216.57
362.034	22.02
362.245	-39.42
362.456	101.89
362.667	65.02
362.879	1.54
363.09	52.74
363.301	110.08
363.512	24.06
363.723	75.26
363.935	17.92
364.146	101.89
364.357	46.59
364.568	56.83
364.779	-45.57
364.99	208.38
365.201	-14.85
365.412	157.18
365.623	-12.8
365.834	116.22
366.045	54.78
366.256	144.89
366.467	62.98
366.678	44.54
366.889	112.13
367.1	32.26
367.311	108.03
367.522	26.11
367.733	177.66
367.944	126.46
368.155	5.63
368.366	85.5
368.577	120.32
368.788	105.98
368.999	28.16
369.209	62.98
369.42	192
369.631	288.25
369.842	99.84
370.053	-6.66
370.264	91.65
370.474	-61.95
370.685	93.69
370.896	183.81
371.107	126.46
371.317	103.93
371.528	73.21
371.739	163.33
371.95	128.51
372.16	89.6
372.371	-49.66
372.582	77.31
372.792	50.69
373.003	85.5
373.214	148.99
373.424	65.02
373.635	-29.18
373.846	155.13
374.056	52.74
374.267	134.65
374.477	103.93
374.688	38.4
374.898	130.56
375.109	173.57
375.319	22.02
375.53	89.6
375.74	163.33
375.951	5.63
376.161	67.07
376.372	148.99
376.582	26.11
376.793	73.21
377.003	48.64
377.214	48.64
377.424	67.07
377.635	75.26
377.845	-14.85
378.055	97.79
378.266	-0.51
378.476	134.65
378.686	79.36
378.897	79.36
379.107	126.46
379.317	151.04
379.528	15.87
379.738	60.93
379.948	24.06
380.158	136.7
380.369	120.32
380.579	67.07
380.789	15.87
380.999	134.65
381.21	183.81
381.42	214.52
381.63	108.03
381.84	118.27
382.05	71.17
382.261	110.08
382.471	151.04
382.681	-39.42
382.891	95.74
383.101	95.74
383.311	69.12
383.521	-10.75
383.731	56.83
383.941	138.75
384.151	118.27
384.361	52.74
384.571	112.13
384.781	130.56
384.991	185.85
385.201	181.76
385.411	44.54
385.621	142.85
385.831	81.41
386.041	128.51
386.251	62.98
386.461	165.37
386.671	71.17
386.881	48.64
387.091	95.74
387.301	136.7
387.511	48.64
387.72	77.31
387.93	132.61
388.14	13.82
388.35	112.13
388.56	155.13
388.769	91.65
388.979	-27.14
389.189	48.64
389.399	77.31
389.609	157.18
389.818	132.61
390.028	73.21
390.238	122.37
390.447	85.5
390.657	136.7
390.867	19.97
391.076	-8.7
391.286	75.26
391.496	-18.94
391.705	67.07
391.915	175.61
392.125	155.13
392.334	1.54
392.544	253.44
392.753	32.26
392.963	28.16
393.172	69.12
393.382	-49.66
393.591	222.72
393.801	28.16
394.01	183.81
394.22	132.61
394.429	54.78
394.639	87.55
394.848	177.66
395.058	142.85
395.267	7.68
395.477	159.23
395.686	48.64
395.895	239.1
396.105	245.24
396.314	134.65
396.524	171.52
396.733	62.98
396.942	132.61
397.152	93.69
397.361	126.46
397.57	91.65
397.78	54.78
397.989	177.66
398.198	259.58
398.407	73.21
398.617	130.56
398.826	67.07
399.035	44.54
399.244	169.47
399.453	142.85
399.663	122.37
399.872	91.65
400.081	50.69
400.29	167.42
400.499	50.69
400.708	167.42
400.917	65.02
401.127	65.02
401.336	46.59
401.545	214.52
401.754	146.94
401.963	198.14
402.172	75.26
402.381	-14.85
402.59	124.41
402.799	3.58
403.008	157.18
403.217	122.37
403.426	161.28
403.635	-14.85
403.844	69.12
404.053	69.12
404.262	142.85
404.471	220.67
404.68	87.55
404.888	-35.33
405.097	46.59
405.306	130.56
405.515	192
405.724	48.64
405.933	69.12
406.142	142.85
406.35	60.93
406.559	122.37
406.768	50.69
406.977	196.09
407.185	153.09
407.394	161.28
407.603	54.78
407.812	87.55
408.02	220.67
408.229	103.93
408.438	46.59
408.646	-37.38
408.855	62.98
409.064	153.09
409.272	118.27
409.481	185.85
409.69	101.89
409.898	-6.66
410.107	75.26
410.315	44.54
410.524	42.5
410.733	114.17
410.941	56.83
411.15	69.12
411.358	130.56
411.567	185.85
411.775	114.17
411.984	148.99
412.192	153.09
412.401	77.31
412.609	222.72
412.818	151.04
413.026	144.89
413.234	60.93
413.443	62.98
413.651	60.93
413.86	122.37
414.068	140.8
414.276	206.33
414.485	83.45
414.693	243.2
414.901	208.38
415.11	120.32
415.318	108.03
415.526	19.97
415.734	196.09
415.943	105.98
416.151	151.04
416.359	87.55
416.567	101.89
416.776	108.03
416.984	130.56
417.192	192
417.4	85.5
417.608	3.58
417.817	19.97
418.025	153.09
418.233	235
418.441	62.98
418.649	-8.7
418.857	130.56
419.065	161.28
419.273	144.89
419.481	11.78
419.689	112.13
419.897	79.36
420.105	-109.05
420.313	148.99
420.521	247.29
420.729	157.18
420.937	17.92
421.145	95.74
421.353	108.03
421.561	146.94
421.769	101.89
421.977	-16.9
422.185	210.43
422.393	112.13
422.601	253.44
422.809	153.09
423.017	142.85
423.224	130.56
423.432	187.9
423.64	112.13
423.848	196.09
424.056	38.4
424.263	81.41
424.471	65.02
424.679	189.95
424.887	83.45
425.094	185.85
425.302	132.61
425.51	56.83
425.718	140.8
425.925	159.23
426.133	5.63
426.341	269.82
426.548	-4.61
426.756	81.41
426.964	122.37
427.171	77.31
427.379	157.18
427.586	67.07
427.794	161.28
428.001	220.67
428.209	128.51
428.417	189.95
428.624	151.04
428.832	118.27
429.039	148.99
429.247	163.33
429.454	228.86
429.662	200.19
429.869	206.33
430.076	142.85
430.284	235
430.491	251.39
430.699	159.23
430.906	253.44
431.114	157.18
431.321	81.41
431.528	171.52
431.736	232.96
431.943	185.85
432.15	239.1
432.358	159.23
432.565	374.27
432.772	48.64
432.979	232.96
433.187	153.09
433.394	314.88
433.601	153.09
433.808	259.58
434.016	353.79
434.223	292.35
434.43	253.44
434.637	331.26
434.844	239.1
435.052	230.91
435.259	310.78
435.466	357.88
435.673	257.53
435.88	366.07
436.087	308.73
436.294	447.99
436.501	364.03
436.708	335.35
436.915	421.37
437.122	441.85
437.329	237.05
437.537	327.16
437.743	402.94
437.95	507.38
438.157	398.84
438.364	486.9
438.571	366.07
438.778	558.58
438.985	599.54
439.192	529.91
439.399	441.85
439.606	589.3
439.813	611.83
440.02	673.27
440.227	773.62
440.433	663.03
440.64	531.96
440.847	675.32
441.054	652.79
441.261	757.24
441.467	673.27
441.674	691.7
441.881	867.83
442.088	703.99
442.294	835.06
442.501	890.35
442.708	792.05
442.914	796.15
443.121	949.75
443.328	968.18
443.534	1093.1
443.741	935.41
443.948	949.75
444.154	1068.53
444.361	1193.45
444.568	1132.01
444.774	1111.54
444.981	1101.3
445.187	1312.24
445.394	1271.28
445.6	1228.27
445.807	1455.59
446.013	1381.87
446.22	1402.35
446.426	1398.25
446.633	1601
446.839	1791.46
447.046	1517.03
447.252	1850.85
447.459	1801.7
447.665	1740.26
447.871	1977.83
448.078	2168.29
448.284	1996.26
448.491	2180.57
448.697	2260.45
448.903	2330.08
449.11	2356.7
449.316	2293.21
449.522	2422.24
449.728	2555.35
449.935	2794.97
450.141	2692.57
450.347	2997.71
450.553	2903.51
450.76	3083.73
450.966	3124.69
451.172	3225.04
451.378	3476.94
451.584	3648.97
451.791	3892.68
451.997	3802.57
452.203	3853.77
452.409	4228.54
452.615	4165.06
452.821	4228.54
453.027	4150.72
453.233	4670.9
453.44	4502.97
453.646	4799.93
453.852	4994.48
454.058	5168.56
454.264	5346.73
454.47	5569.96
454.676	5676.46
454.882	6292.9
455.088	5793.19
455.294	6198.69
455.5	6700.44
455.705	6993.3
455.911	6985.11
456.117	7079.32
456.323	7507.34
456.529	7486.86
456.735	8312.19
456.941	8420.74
457.147	8664.44
457.352	8953.21
457.558	9266.55
457.764	9655.66
457.97	10098.02
458.176	10362.21
458.381	10968.41
458.587	11064.66
458.793	11511.12
458.999	11771.21
459.204	12842.3
459.41	13616.43
459.616	13231.41
459.821	14069.03
460.027	14775.58
460.233	15371.54
460.438	15779.09
460.644	16291.08
460.85	16659.71
461.055	16975.1
461.261	18218.22
461.466	17644.79
461.672	17960.17
461.878	20098.25
462.083	19997.9
462.289	20227.28
462.494	21099.71
462.7	21128.38
462.905	21589.17
463.111	23282.84
463.316	24231.05
463.522	24816.77
463.727	25480.32
463.932	26559.59
464.138	27554.91
464.343	28453.97
464.549	28806.22
464.754	30692.4
464.959	31380.51
465.165	32111.64
465.37	31894.55
465.575	31472.67
465.781	33881.08
465.986	35204.07
466.191	34290.68
466.397	34350.07
466.602	33764.35
466.807	35738.59
467.012	36344.79
467.218	36983.76
