Data from USB4F104151__5__10-41-15-491.txt Node

Date: Wed Feb 26 10:41:15 EST 2025
User: louis
Spectrometer: USB4F10415
Trigger mode: 4
Integration Time (sec): 1.000000E-1
Scans to average: 1
Electric dark correction enabled: true
Nonlinearity correction enabled: false
Boxcar width: 0
XAxis mode: Wavelengths
Number of Pixels in Spectrum: 3648
>>>>>Begin Spectral Data<<<<<
178.204	-411.13
178.424	-411.13
178.644	-411.13
178.864	-318.97
179.084	-335.35
179.304	-44.54
179.524	-7.68
179.744	-28.16
179.964	33.28
180.184	59.9
180.404	35.33
180.624	-48.64
180.844	2.56
181.064	-13.82
181.283	-9.73
181.503	-65.02
181.723	86.53
181.943	-65.02
182.163	100.86
182.383	-36.35
182.602	80.38
182.822	162.3
183.042	41.47
183.262	0.51
183.482	0.51
183.701	12.8
183.921	10.75
184.141	-50.69
184.361	35.33
184.58	55.81
184.8	96.77
185.02	61.95
185.239	172.54
185.459	59.9
185.679	104.96
185.898	-118.27
186.118	35.33
186.338	-3.58
186.557	164.35
186.777	-1.54
186.997	-28.16
187.216	88.57
187.436	221.69
187.655	125.44
187.875	86.53
188.095	4.61
188.314	147.97
188.534	174.59
188.753	-15.87
188.973	53.76
189.192	143.87
189.412	23.04
189.631	27.14
189.851	-3.58
190.07	164.35
190.29	-79.36
190.509	-58.88
190.729	49.66
190.948	125.44
191.168	213.5
191.387	82.43
191.607	55.81
191.826	-11.78
192.045	-26.11
192.265	-44.54
192.484	92.67
192.704	-46.59
192.923	-67.07
193.142	121.34
193.362	59.9
193.581	66.05
193.8	45.57
194.02	92.67
194.239	6.66
194.458	152.06
194.678	45.57
194.897	-34.3
195.116	47.62
195.335	51.71
195.555	31.23
195.774	61.95
195.993	86.53
196.212	-7.68
196.432	-15.87
196.651	-36.35
196.87	53.76
197.089	164.35
197.308	82.43
197.528	41.47
197.747	-9.73
197.966	43.52
198.185	104.96
198.404	8.7
198.623	94.72
198.842	131.58
199.062	104.96
199.281	135.68
199.5	43.52
199.719	137.73
199.938	86.53
200.157	76.29
200.376	41.47
200.595	102.91
200.814	-1.54
201.033	-22.02
201.252	215.55
201.471	49.66
201.69	80.38
201.909	23.04
202.128	115.2
202.347	162.3
202.566	25.09
202.785	-101.89
203.004	-3.58
203.223	195.07
203.442	37.38
203.661	-17.92
203.879	18.94
204.098	70.14
204.317	-65.02
204.536	55.81
204.755	12.8
204.974	20.99
205.193	-22.02
205.411	166.4
205.63	141.82
205.849	53.76
206.068	-13.82
206.287	-32.26
206.505	96.77
206.724	-32.26
206.943	-36.35
207.162	2.56
207.381	61.95
207.599	4.61
207.818	59.9
208.037	-22.02
208.255	4.61
208.474	66.05
208.693	12.8
208.911	23.04
209.13	61.95
209.349	92.67
209.567	35.33
209.786	135.68
210.005	119.29
210.223	66.05
210.442	-95.74
210.661	25.09
210.879	49.66
211.098	16.9
211.316	2.56
211.535	70.14
211.753	74.24
211.972	84.48
212.191	27.14
212.409	35.33
212.628	190.97
212.846	33.28
213.065	53.76
213.283	119.29
213.502	55.81
213.72	0.51
213.938	25.09
214.157	43.52
214.375	139.77
214.594	31.23
214.812	86.53
215.031	104.96
215.249	27.14
215.467	47.62
215.686	55.81
215.904	90.62
216.122	72.19
216.341	115.2
216.559	96.77
216.778	94.72
216.996	107.01
217.214	23.04
217.432	-24.06
217.651	-9.73
217.869	18.94
218.087	-9.73
218.306	-36.35
218.524	12.8
218.742	4.61
218.96	2.56
219.179	33.28
219.397	33.28
219.615	186.88
219.833	88.57
220.051	-5.63
220.27	94.72
220.488	82.43
220.706	55.81
220.924	14.85
221.142	2.56
221.36	37.38
221.578	57.86
221.796	-7.68
222.015	25.09
222.233	49.66
222.451	225.79
222.669	-3.58
222.887	100.86
223.105	-46.59
223.323	-7.68
223.541	-83.45
223.759	8.7
223.977	51.71
224.195	221.69
224.413	109.05
224.631	23.04
224.849	76.29
225.067	127.49
225.285	39.42
225.503	-9.73
225.721	-155.13
225.939	33.28
226.157	25.09
226.375	158.21
226.592	27.14
226.81	-11.78
227.028	121.34
227.246	133.63
227.464	92.67
227.682	43.52
227.9	59.9
228.117	66.05
228.335	33.28
228.553	31.23
228.771	37.38
228.989	68.09
229.206	82.43
229.424	29.18
229.642	61.95
229.86	-52.74
230.077	154.11
230.295	102.91
230.513	53.76
230.731	-9.73
230.948	178.69
231.166	152.06
231.384	68.09
231.601	6.66
231.819	248.32
232.037	-60.93
232.254	-58.88
232.472	45.57
232.689	-3.58
232.907	43.52
233.125	10.75
233.342	6.66
233.56	4.61
233.777	-50.69
233.995	-9.73
234.213	51.71
234.43	98.81
234.648	12.8
234.865	-7.68
235.083	37.38
235.3	45.57
235.518	66.05
235.735	162.3
235.953	49.66
236.17	53.76
236.388	72.19
236.605	29.18
236.822	129.53
237.04	100.86
237.257	23.04
237.475	-26.11
237.692	-3.58
237.909	121.34
238.127	23.04
238.344	57.86
238.562	41.47
238.779	10.75
238.996	-34.3
239.214	80.38
239.431	141.82
239.648	51.71
239.865	70.14
240.083	82.43
240.3	-83.45
240.517	-15.87
240.735	51.71
240.952	102.91
241.169	57.86
241.386	55.81
241.603	-42.5
241.821	-54.78
242.038	78.33
242.255	147.97
242.472	-46.59
242.689	55.81
242.907	33.28
243.124	88.57
243.341	-30.21
243.558	51.71
243.775	35.33
243.992	-85.5
244.209	16.9
244.426	115.2
244.643	125.44
244.86	64
245.078	4.61
245.295	39.42
245.512	0.51
245.729	12.8
245.946	57.86
246.163	43.52
246.38	-38.4
246.597	43.52
246.814	10.75
247.031	61.95
247.248	55.81
247.464	37.38
247.681	115.2
247.898	92.67
248.115	78.33
248.332	12.8
248.549	129.53
248.766	166.4
248.983	20.99
249.2	55.81
249.417	188.93
249.633	-22.02
249.85	135.68
250.067	4.61
250.284	64
250.501	16.9
250.717	39.42
250.934	-67.07
251.151	53.76
251.368	43.52
251.585	49.66
251.801	88.57
252.018	-1.54
252.235	90.62
252.451	-3.58
252.668	-34.3
252.885	111.1
253.102	78.33
253.318	43.52
253.535	-19.97
253.752	8.7
253.968	-65.02
254.185	-32.26
254.401	-11.78
254.618	-5.63
254.835	59.9
255.051	139.77
255.268	25.09
255.484	35.33
255.701	14.85
255.917	43.52
256.134	-32.26
256.351	55.81
256.567	-28.16
256.784	51.71
257	-7.68
257.217	129.53
257.433	51.71
257.65	59.9
257.866	193.02
258.082	-44.54
258.299	29.18
258.515	23.04
258.732	39.42
258.948	-40.45
259.165	49.66
259.381	-54.78
259.597	64
259.814	53.76
260.03	-3.58
260.246	-15.87
260.463	160.25
260.679	68.09
260.895	53.76
261.112	53.76
261.328	0.51
261.544	-56.83
261.761	152.06
261.977	-108.03
262.193	-52.74
262.409	16.9
262.626	33.28
262.842	78.33
263.058	-38.4
263.274	6.66
263.49	37.38
263.707	96.77
263.923	53.76
264.139	-52.74
264.355	16.9
264.571	184.83
264.787	88.57
265.004	135.68
265.22	2.56
265.436	8.7
265.652	72.19
265.868	66.05
266.084	-3.58
266.3	107.01
266.516	-95.74
266.732	123.39
266.948	78.33
267.164	-38.4
267.38	172.54
267.596	80.38
267.812	166.4
268.028	90.62
268.244	29.18
268.46	86.53
268.676	-36.35
268.892	84.48
269.108	-19.97
269.324	-5.63
269.54	-42.5
269.756	66.05
269.972	-30.21
270.188	-32.26
270.403	-40.45
270.619	-11.78
270.835	102.91
271.051	98.81
271.267	12.8
271.483	-22.02
271.698	107.01
271.914	41.47
272.13	33.28
272.346	14.85
272.562	33.28
272.777	170.49
272.993	18.94
273.209	-30.21
273.425	55.81
273.64	-48.64
273.856	115.2
274.072	0.51
274.287	-5.63
274.503	96.77
274.719	84.48
274.934	-17.92
275.15	-54.78
275.366	31.23
275.581	-46.59
275.797	94.72
276.012	68.09
276.228	-19.97
276.444	68.09
276.659	178.69
276.875	-26.11
277.09	2.56
277.306	-19.97
277.521	92.67
277.737	-3.58
277.952	111.1
278.168	-1.54
278.383	70.14
278.599	57.86
278.814	102.91
279.03	102.91
279.245	150.01
279.461	61.95
279.676	182.78
279.892	-75.26
280.107	-62.98
280.322	41.47
280.538	51.71
280.753	10.75
280.969	66.05
281.184	80.38
281.399	186.88
281.615	-42.5
281.83	31.23
282.045	-75.26
282.26	27.14
282.476	33.28
282.691	80.38
282.906	-32.26
283.122	27.14
283.337	-13.82
283.552	55.81
283.767	-65.02
283.983	41.47
284.198	-32.26
284.413	121.34
284.628	-9.73
284.843	49.66
285.058	107.01
285.274	57.86
285.489	-30.21
285.704	72.19
285.919	41.47
286.134	-9.73
286.349	98.81
286.564	-1.54
286.779	117.25
286.995	-58.88
287.21	-75.26
287.425	94.72
287.64	39.42
287.855	45.57
288.07	-32.26
288.285	39.42
288.5	86.53
288.715	23.04
288.93	-13.82
289.145	35.33
289.36	16.9
289.575	20.99
289.79	94.72
290.004	-52.74
290.219	72.19
290.434	29.18
290.649	-28.16
290.864	-38.4
291.079	37.38
291.294	29.18
291.509	59.9
291.724	-69.12
291.938	47.62
292.153	57.86
292.368	-56.83
292.583	158.21
292.798	117.25
293.012	90.62
293.227	39.42
293.442	-13.82
293.657	96.77
293.871	102.91
294.086	94.72
294.301	107.01
294.516	180.73
294.73	33.28
294.945	-50.69
295.16	23.04
295.374	125.44
295.589	88.57
295.804	-50.69
296.018	57.86
296.233	43.52
296.447	2.56
296.662	14.85
296.877	152.06
297.091	90.62
297.306	92.67
297.52	31.23
297.735	29.18
297.949	64
298.164	98.81
298.378	47.62
298.593	59.9
298.807	-22.02
299.022	43.52
299.236	104.96
299.451	-32.26
299.665	-3.58
299.88	29.18
300.094	49.66
300.309	-38.4
300.523	61.95
300.737	47.62
300.952	88.57
301.166	45.57
301.381	-65.02
301.595	-1.54
301.809	43.52
302.024	74.24
302.238	-22.02
302.452	176.64
302.667	12.8
302.881	172.54
303.095	86.53
303.309	61.95
303.524	-60.93
303.738	0.51
303.952	20.99
304.166	82.43
304.381	-103.93
304.595	115.2
304.809	31.23
305.023	82.43
305.237	39.42
305.452	-28.16
305.666	127.49
305.88	121.34
306.094	201.21
306.308	119.29
306.522	125.44
306.736	86.53
306.95	88.57
307.164	4.61
307.379	29.18
307.593	164.35
307.807	111.1
308.021	104.96
308.235	143.87
308.449	-112.13
308.663	-3.58
308.877	221.69
309.091	92.67
309.305	59.9
309.519	-52.74
309.733	92.67
309.947	12.8
310.161	131.58
310.374	64
310.588	76.29
310.802	-34.3
311.016	6.66
311.23	78.33
311.444	-56.83
311.658	127.49
311.872	111.1
312.085	45.57
312.299	166.4
312.513	162.3
312.727	102.91
312.941	66.05
313.154	57.86
313.368	-1.54
313.582	139.77
313.796	41.47
314.009	61.95
314.223	119.29
314.437	66.05
314.651	92.67
314.864	-32.26
315.078	16.9
315.292	-48.64
315.505	-65.02
315.719	45.57
315.933	16.9
316.146	-5.63
316.36	25.09
316.573	88.57
316.787	88.57
317.001	61.95
317.214	-36.35
317.428	43.52
317.641	12.8
317.855	-54.78
318.068	133.63
318.282	123.39
318.495	180.73
318.709	78.33
318.922	74.24
319.136	121.34
319.349	47.62
319.563	39.42
319.776	98.81
319.99	-81.41
320.203	98.81
320.417	86.53
320.63	64
320.843	164.35
321.057	33.28
321.27	10.75
321.483	100.86
321.697	172.54
321.91	55.81
322.124	96.77
322.337	160.25
322.55	6.66
322.763	39.42
322.977	8.7
323.19	0.51
323.403	47.62
323.617	-7.68
323.83	131.58
324.043	10.75
324.256	78.33
324.469	-77.31
324.683	88.57
324.896	92.67
325.109	2.56
325.322	53.76
325.535	64
325.748	66.05
325.962	-19.97
326.175	47.62
326.388	92.67
326.601	90.62
326.814	49.66
327.027	45.57
327.24	160.25
327.453	-87.55
327.666	33.28
327.879	145.92
328.092	72.19
328.305	72.19
328.518	18.94
328.731	-1.54
328.944	55.81
329.157	59.9
329.37	53.76
329.583	170.49
329.796	64
330.009	-60.93
330.222	119.29
330.435	109.05
330.648	6.66
330.861	4.61
331.073	64
331.286	31.23
331.499	10.75
331.712	35.33
331.925	68.09
332.138	6.66
332.35	57.86
332.563	0.51
332.776	141.82
332.989	-69.12
333.202	-77.31
333.414	109.05
333.627	109.05
333.84	51.71
334.053	61.95
334.265	53.76
334.478	-67.07
334.691	43.52
334.903	90.62
335.116	6.66
335.329	29.18
335.541	47.62
335.754	182.78
335.966	8.7
336.179	33.28
336.392	8.7
336.604	29.18
336.817	90.62
337.029	35.33
337.242	123.39
337.454	53.76
337.667	53.76
337.88	170.49
338.092	61.95
338.305	98.81
338.517	0.51
338.729	74.24
338.942	152.06
339.154	-7.68
339.367	-62.98
339.579	49.66
339.792	-36.35
340.004	92.67
340.217	12.8
340.429	100.86
340.641	-17.92
340.854	33.28
341.066	78.33
341.278	115.2
341.491	190.97
341.703	92.67
341.915	35.33
342.128	84.48
342.34	117.25
342.552	29.18
342.764	70.14
342.977	49.66
343.189	98.81
343.401	107.01
343.613	-19.97
343.826	-3.58
344.038	-9.73
344.25	76.29
344.462	-5.63
344.674	20.99
344.886	-1.54
345.099	53.76
345.311	37.38
345.523	-5.63
345.735	-40.45
345.947	-5.63
346.159	107.01
346.371	2.56
346.583	84.48
346.795	182.78
347.007	39.42
347.219	84.48
347.431	64
347.643	109.05
347.855	-5.63
348.067	100.86
348.279	-69.12
348.491	16.9
348.703	72.19
348.915	-34.3
349.127	-19.97
349.339	8.7
349.551	-56.83
349.763	12.8
349.975	6.66
350.187	27.14
350.399	244.22
350.61	4.61
350.822	14.85
351.034	111.1
351.246	-17.92
351.458	12.8
351.669	143.87
351.881	123.39
352.093	125.44
352.305	119.29
352.517	8.7
352.728	143.87
352.94	-3.58
353.152	82.43
353.363	-32.26
353.575	31.23
353.787	184.83
353.999	64
354.21	150.01
354.422	-105.98
354.633	0.51
354.845	18.94
355.057	43.52
355.268	80.38
355.48	53.76
355.692	-38.4
355.903	-26.11
356.115	-9.73
356.326	-81.41
356.538	74.24
356.749	82.43
356.961	125.44
357.172	10.75
357.384	-67.07
357.595	150.01
357.807	25.09
358.018	-1.54
358.23	113.15
358.441	139.77
358.653	88.57
358.864	2.56
359.075	-11.78
359.287	82.43
359.498	176.64
359.709	8.7
359.921	80.38
360.132	68.09
360.344	43.52
360.555	-22.02
360.766	72.19
360.977	-44.54
361.189	137.73
361.4	-5.63
361.611	115.2
361.823	145.92
362.034	25.09
362.245	-73.21
362.456	57.86
362.667	143.87
362.879	-60.93
363.09	115.2
363.301	16.9
363.512	84.48
363.723	-52.74
363.935	23.04
364.146	104.96
364.357	74.24
364.568	100.86
364.779	-28.16
364.99	131.58
365.201	59.9
365.412	119.29
365.623	-97.79
365.834	68.09
366.045	-52.74
366.256	72.19
366.467	51.71
366.678	10.75
366.889	31.23
367.1	-44.54
367.311	82.43
367.522	74.24
367.733	41.47
367.944	125.44
368.155	14.85
368.366	80.38
368.577	131.58
368.788	160.25
368.999	-19.97
369.209	55.81
369.42	186.88
369.631	246.27
369.842	29.18
370.053	-9.73
370.264	131.58
370.474	-62.98
370.685	43.52
370.896	2.56
371.107	96.77
371.317	18.94
371.528	-9.73
371.739	145.92
371.95	125.44
372.16	49.66
372.371	-71.17
372.582	25.09
372.792	150.01
373.003	72.19
373.214	-1.54
373.424	119.29
373.635	-73.21
373.846	139.77
374.056	29.18
374.267	82.43
374.477	72.19
374.688	-7.68
374.898	64
375.109	14.85
375.319	55.81
375.53	117.25
375.74	55.81
375.951	10.75
376.161	90.62
376.372	150.01
376.582	14.85
376.793	53.76
377.003	-44.54
377.214	-42.5
377.424	68.09
377.635	-3.58
377.845	-46.59
378.055	176.64
378.266	-5.63
378.476	121.34
378.686	59.9
378.897	66.05
379.107	111.1
379.317	86.53
379.528	25.09
379.738	84.48
379.948	27.14
380.158	70.14
380.369	41.47
380.579	102.91
380.789	-26.11
380.999	121.34
381.21	96.77
381.42	195.07
381.63	29.18
381.84	41.47
382.05	41.47
382.261	70.14
382.471	137.73
382.681	-40.45
382.891	113.15
383.101	43.52
383.311	-44.54
383.521	72.19
383.731	61.95
383.941	104.96
384.151	20.99
384.361	-3.58
384.571	84.48
384.781	-38.4
384.991	94.72
385.201	221.69
385.411	27.14
385.621	109.05
385.831	51.71
386.041	43.52
386.251	96.77
386.461	47.62
386.671	31.23
386.881	100.86
387.091	49.66
387.301	94.72
387.511	49.66
387.72	84.48
387.93	92.67
388.14	-116.22
388.35	47.62
388.56	96.77
388.769	59.9
388.979	6.66
389.189	-30.21
389.399	35.33
389.609	45.57
389.818	68.09
390.028	141.82
390.238	35.33
390.447	16.9
390.657	8.7
390.867	92.67
391.076	-56.83
391.286	76.29
391.496	25.09
391.705	27.14
391.915	152.06
392.125	119.29
392.334	102.91
392.544	115.2
392.753	16.9
392.963	-7.68
393.172	41.47
393.382	-38.4
393.591	111.1
393.801	-19.97
394.01	178.69
394.22	45.57
394.429	-5.63
394.639	59.9
394.848	41.47
395.058	88.57
395.267	64
395.477	143.87
395.686	20.99
395.895	205.31
396.105	252.41
396.314	84.48
396.524	49.66
396.733	78.33
396.942	123.39
397.152	107.01
397.361	111.1
397.57	111.1
397.78	-17.92
397.989	127.49
398.198	168.45
398.407	45.57
398.617	4.61
398.826	94.72
399.035	-15.87
399.244	78.33
399.453	31.23
399.663	-13.82
399.872	113.15
400.081	-13.82
400.29	150.01
400.499	-54.78
400.708	74.24
400.917	10.75
401.127	33.28
401.336	53.76
401.545	152.06
401.754	119.29
401.963	70.14
402.172	35.33
402.381	-69.12
402.59	23.04
402.799	-24.06
403.008	125.44
403.217	76.29
403.426	68.09
403.635	-54.78
403.844	29.18
404.053	2.56
404.262	31.23
404.471	131.58
404.68	115.2
404.888	-40.45
405.097	-5.63
405.306	74.24
405.515	94.72
405.724	-5.63
405.933	35.33
406.142	145.92
406.35	10.75
406.559	-40.45
406.768	68.09
406.977	176.64
407.185	-50.69
407.394	76.29
407.603	68.09
407.812	147.97
408.02	113.15
408.229	51.71
408.438	43.52
408.646	-42.5
408.855	16.9
409.064	16.9
409.272	23.04
409.481	115.2
409.69	43.52
409.898	-15.87
410.107	-3.58
410.315	182.78
410.524	59.9
410.733	25.09
410.941	16.9
411.15	109.05
411.358	88.57
411.567	139.77
411.775	39.42
411.984	53.76
412.192	45.57
412.401	-71.17
412.609	164.35
412.818	160.25
413.026	33.28
413.234	76.29
413.443	33.28
413.651	-11.78
413.86	49.66
414.068	80.38
414.276	211.45
414.485	49.66
414.693	100.86
414.901	227.84
415.11	72.19
415.318	68.09
415.526	27.14
415.734	168.45
415.943	55.81
416.151	74.24
416.359	64
416.567	119.29
416.776	145.92
416.984	176.64
417.192	188.93
417.4	41.47
417.608	74.24
417.817	-36.35
418.025	92.67
418.233	160.25
418.441	18.94
418.649	-9.73
418.857	-9.73
419.065	74.24
419.273	74.24
419.481	117.25
419.689	123.39
419.897	66.05
420.105	-50.69
420.313	68.09
420.521	158.21
420.729	139.77
420.937	6.66
421.145	-7.68
421.353	96.77
421.561	137.73
421.769	127.49
421.977	-65.02
422.185	139.77
422.393	4.61
422.601	104.96
422.809	96.77
423.017	57.86
423.224	96.77
423.432	180.73
423.64	-54.78
423.848	178.69
424.056	-26.11
424.263	131.58
424.471	43.52
424.679	211.45
424.887	88.57
425.094	164.35
425.302	102.91
425.51	-9.73
425.718	217.6
425.925	35.33
426.133	-56.83
426.341	156.16
426.548	43.52
426.756	-34.3
426.964	96.77
427.171	-75.26
427.379	104.96
427.586	4.61
427.794	78.33
428.001	172.54
428.209	100.86
428.417	150.01
428.624	154.11
428.832	133.63
429.039	111.1
429.247	123.39
429.454	72.19
429.662	213.5
429.869	92.67
430.076	61.95
430.284	180.73
430.491	229.88
430.699	225.79
430.906	117.25
431.114	195.07
431.321	129.53
431.528	90.62
431.736	137.73
431.943	225.79
432.15	176.64
432.358	225.79
432.565	213.5
432.772	-40.45
432.979	227.84
433.187	98.81
433.394	258.56
433.601	45.57
433.808	197.12
434.016	258.56
434.223	213.5
434.43	250.36
434.637	176.64
434.844	156.16
435.052	182.78
435.259	303.61
435.466	227.84
435.673	201.21
435.88	244.22
436.087	299.52
436.294	354.81
436.501	375.29
436.708	270.84
436.915	375.29
437.122	293.37
437.329	233.98
437.537	281.08
437.743	315.9
437.95	422.39
438.157	365.05
438.364	317.95
438.571	354.81
438.778	358.91
438.985	397.82
439.192	483.83
439.399	416.25
439.606	453.11
439.813	553.46
440.02	465.4
440.227	649.72
440.433	518.65
440.64	469.5
440.847	455.16
441.054	545.27
441.261	719.35
441.467	561.66
441.674	498.17
441.881	651.77
442.088	621.05
442.294	657.91
442.501	760.31
442.708	762.36
442.914	766.45
443.121	772.6
443.328	786.93
443.534	874.99
443.741	891.38
443.948	754.16
444.154	928.24
444.361	1030.64
444.568	961.01
444.774	983.54
444.981	834.04
445.187	1223.15
445.394	1087.98
445.6	1073.65
445.807	1186.29
446.013	1188.33
446.22	1208.81
446.426	1364.46
446.633	1294.83
446.839	1634.79
447.046	1270.25
447.252	1563.11
447.459	1513.96
447.665	1546.73
447.871	1681.89
448.078	1774.05
448.284	1741.29
448.491	1884.64
448.697	1868.26
448.903	1987.04
449.11	2103.78
449.316	2111.97
449.522	2210.27
449.728	2269.66
449.935	2392.54
450.141	2392.54
450.347	2544.09
450.553	2480.6
450.76	2537.95
450.966	2716.12
451.172	2890.2
451.378	2832.85
451.584	3013.07
451.791	3332.56
451.997	3367.37
452.203	3355.08
452.409	3516.87
452.615	3668.42
452.821	3578.31
453.027	3686.86
453.233	3981.76
453.44	3838.41
453.646	3961.28
453.852	4188.61
454.058	4428.22
454.264	4604.35
454.47	5013.94
454.676	5130.67
454.882	5466.54
455.088	5104.05
455.294	5353.9
455.5	5847.46
455.705	6128.03
455.911	6011.3
456.117	6181.28
456.323	6715.8
456.529	6384.03
456.735	7174.55
456.941	7336.34
457.147	7647.63
457.352	7674.25
457.558	8018.31
457.764	8454.53
457.97	8567.17
458.176	8952.18
458.381	9312.63
458.587	9802.09
458.793	10248.55
458.999	9933.16
459.204	11489.62
459.41	11911.5
459.616	11544.91
459.821	12486.98
460.027	13039.93
460.233	13435.19
460.438	13347.12
460.644	14248.23
460.85	14510.37
461.055	14909.72
461.261	15829.26
461.466	15522.07
461.672	15595.79
461.878	17533.17
462.083	17178.87
462.289	17672.43
462.494	18567.4
462.7	18385.13
462.905	18821.34
463.111	20730.05
463.316	20973.76
463.522	21594.29
463.727	22380.71
463.932	23492.76
464.138	23861.4
464.343	24998.02
464.549	25104.51
464.754	26800.23
464.959	27715.67
465.165	28262.48
465.37	28231.76
465.575	28074.07
465.781	29976.63
465.986	30834.73
466.191	30378.03
466.397	30789.67
466.602	29972.53
466.807	31416.35
467.012	32010.26
467.218	32522.26
467.423	32778.25
467.628	33660.93
467.833	34979.82
468.038	34781.17
468.244	34033.66
468.449	36315.09
468.654	34897.9
468.859	34740.21
469.064	35022.83
469.269	34150.39
