Data from USB4F104151__70__10-44-03-072.txt Node

Date: Wed Feb 26 10:44:03 EST 2025
User: louis
Spectrometer: USB4F10415
Trigger mode: 4
Integration Time (sec): 1.000000E-1
Scans to average: 1
Electric dark correction enabled: true
Nonlinearity correction enabled: false
Boxcar width: 0
XAxis mode: Wavelengths
Number of Pixels in Spectrum: 3648
>>>>>Begin Spectral Data<<<<<
178.204	-396.11
178.424	-396.11
178.644	-396.11
178.864	-412.5
179.084	-418.64
179.304	11.43
179.524	1.19
179.744	-39.76
179.964	70.83
180.184	11.43
180.404	1.19
180.624	-82.77
180.844	-21.33
181.064	44.2
181.283	7.34
181.503	-43.86
181.723	40.11
181.943	-117.59
182.163	169.13
182.383	-7
182.602	60.59
182.822	126.12
183.042	70.83
183.262	7.34
183.482	15.53
183.701	33.96
183.921	81.07
184.141	-64.34
184.361	142.5
184.58	89.26
184.8	42.15
185.02	11.43
185.239	103.59
185.459	25.77
185.679	181.42
185.898	-13.14
186.118	25.77
186.338	23.72
186.557	99.5
186.777	-0.85
186.997	-47.96
187.216	64.68
187.436	144.55
187.655	62.63
187.875	76.97
188.095	7.34
188.314	179.37
188.534	158.89
188.753	11.43
188.973	142.5
189.192	103.59
189.412	-15.19
189.631	44.2
189.851	117.93
190.07	205.99
190.29	-56.15
190.509	-17.24
190.729	-2.9
190.948	144.55
191.168	234.66
191.387	50.35
191.607	-0.85
191.826	109.74
192.045	15.53
192.265	-9.05
192.484	62.63
192.704	66.73
192.923	-74.58
193.142	210.09
193.362	105.64
193.581	169.13
193.8	91.31
194.02	132.26
194.239	1.19
194.458	66.73
194.678	25.77
194.897	-41.81
195.116	27.82
195.335	83.11
195.555	79.02
195.774	29.87
195.993	58.54
196.212	21.67
196.432	-29.52
196.651	-27.48
196.87	52.39
197.089	205.99
197.308	81.07
197.528	91.31
197.747	-84.82
197.966	-2.9
198.185	146.6
198.404	25.77
198.623	85.16
198.842	85.16
199.062	85.16
199.281	148.65
199.5	62.63
199.719	62.63
199.938	58.54
200.157	72.87
200.376	199.85
200.595	101.55
200.814	50.35
201.033	9.39
201.252	165.03
201.471	87.21
201.69	48.3
201.909	89.26
202.128	97.45
202.347	79.02
202.566	60.59
202.785	-35.67
203.004	-115.54
203.223	259.24
203.442	36.01
203.661	9.39
203.879	48.3
204.098	165.03
204.317	-11.09
204.536	162.98
204.755	103.59
204.974	136.36
205.193	5.29
205.411	177.32
205.63	183.46
205.849	3.24
206.068	17.58
206.287	-90.96
206.505	109.74
206.724	50.35
206.943	64.68
207.162	25.77
207.381	38.06
207.599	-64.34
207.818	-2.9
208.037	40.11
208.255	-4.95
208.474	85.16
208.693	122.02
208.911	-7
209.13	101.55
209.349	87.21
209.567	132.26
209.786	85.16
210.005	111.78
210.223	38.06
210.442	-111.44
210.661	52.39
210.879	19.63
211.098	-15.19
211.316	-19.29
211.535	81.07
211.753	-78.68
211.972	93.35
212.191	-23.38
212.409	38.06
212.628	93.35
212.846	-43.86
213.065	101.55
213.283	156.84
213.502	44.2
213.72	62.63
213.938	42.15
214.157	85.16
214.375	126.12
214.594	46.25
214.812	76.97
215.031	-56.15
215.249	38.06
215.467	42.15
215.686	36.01
215.904	85.16
216.122	58.54
216.341	169.13
216.559	83.11
216.778	154.79
216.996	101.55
217.214	52.39
217.432	42.15
217.651	-9.05
217.869	79.02
218.087	25.77
218.306	23.72
218.524	64.68
218.742	3.24
218.96	103.59
219.179	19.63
219.397	58.54
219.615	195.75
219.833	148.65
220.051	-90.96
220.27	76.97
220.488	132.26
220.706	119.98
220.924	-56.15
221.142	-7
221.36	74.92
221.578	160.94
221.796	31.91
222.015	23.72
222.233	95.4
222.451	177.32
222.669	-60.24
222.887	103.59
223.105	-9.05
223.323	-15.19
223.541	-33.62
223.759	11.43
223.977	38.06
224.195	113.83
224.413	101.55
224.631	-15.19
224.849	95.4
225.067	183.46
225.285	-19.29
225.503	36.01
225.721	-72.53
225.939	17.58
226.157	64.68
226.375	238.76
226.592	21.67
226.81	-37.72
227.028	140.46
227.246	115.88
227.464	50.35
227.682	85.16
227.9	33.96
228.117	-4.95
228.335	50.35
228.553	81.07
228.771	-19.29
228.989	144.55
229.206	105.64
229.424	56.49
229.642	29.87
229.86	-45.91
230.077	136.36
230.295	81.07
230.513	115.88
230.731	91.31
230.948	195.75
231.166	189.61
231.384	33.96
231.601	17.58
231.819	179.37
232.037	-27.48
232.254	-66.39
232.472	58.54
232.689	33.96
232.907	185.51
233.125	11.43
233.342	-0.85
233.56	9.39
233.777	58.54
233.995	-9.05
234.213	148.65
234.43	64.68
234.648	83.11
234.865	-9.05
235.083	126.12
235.3	54.44
235.518	140.46
235.735	146.6
235.953	74.92
236.17	-39.76
236.388	3.24
236.605	3.24
236.822	124.07
237.04	101.55
237.257	105.64
237.475	-41.81
237.692	33.96
237.909	119.98
238.127	109.74
238.344	40.11
238.562	117.93
238.779	-54.1
238.996	-43.86
239.214	31.91
239.431	105.64
239.648	-33.62
239.865	144.55
240.083	105.64
240.3	27.82
240.517	91.31
240.735	44.2
240.952	150.7
241.169	146.6
241.386	91.31
241.603	29.87
241.821	17.58
242.038	83.11
242.255	136.36
242.472	29.87
242.689	119.98
242.907	46.25
243.124	76.97
243.341	31.91
243.558	-29.52
243.775	-37.72
243.992	-2.9
244.209	191.66
244.426	281.77
244.643	9.39
244.86	64.68
245.078	119.98
245.295	79.02
245.512	29.87
245.729	-2.9
245.946	13.48
246.163	42.15
246.38	-21.33
246.597	23.72
246.814	81.07
247.031	-37.72
247.248	66.73
247.464	-2.9
247.681	87.21
247.898	122.02
248.115	76.97
248.332	3.24
248.549	109.74
248.766	146.6
248.983	105.64
249.2	60.59
249.417	115.88
249.633	21.67
249.85	1.19
250.067	62.63
250.284	111.78
250.501	52.39
250.717	48.3
250.934	-33.62
251.151	140.46
251.368	50.35
251.585	48.3
251.801	21.67
252.018	-45.91
252.235	152.74
252.451	-50
252.668	-45.91
252.885	173.22
253.102	46.25
253.318	103.59
253.535	9.39
253.752	11.43
253.968	42.15
254.185	-17.24
254.401	66.73
254.618	124.07
254.835	17.58
255.051	81.07
255.268	79.02
255.484	89.26
255.701	36.01
255.917	60.59
256.134	76.97
256.351	-23.38
256.567	11.43
256.784	68.78
257	-47.96
257.217	150.7
257.433	87.21
257.65	15.53
257.866	132.26
258.082	-80.72
258.299	-45.91
258.515	-4.95
258.732	-90.96
258.948	-31.57
259.165	-9.05
259.381	29.87
259.597	128.17
259.814	15.53
260.03	87.21
260.246	23.72
260.463	95.4
260.679	148.65
260.895	50.35
261.112	107.69
261.328	33.96
261.544	-56.15
261.761	79.02
261.977	27.82
262.193	-15.19
262.409	17.58
262.626	107.69
262.842	62.63
263.058	5.29
263.274	62.63
263.49	62.63
263.707	33.96
263.923	33.96
264.139	-19.29
264.355	36.01
264.571	113.83
264.787	-0.85
265.004	142.5
265.22	15.53
265.436	-15.19
265.652	27.82
265.868	66.73
266.084	-43.86
266.3	50.35
266.516	-21.33
266.732	62.63
266.948	42.15
267.164	50.35
267.38	128.17
267.596	62.63
267.812	117.93
268.028	74.92
268.244	13.48
268.46	25.77
268.676	23.72
268.892	95.4
269.108	-66.39
269.324	-78.68
269.54	9.39
269.756	107.69
269.972	-27.48
270.188	50.35
270.403	-7
270.619	-21.33
270.835	165.03
271.051	7.34
271.267	46.25
271.483	-47.96
271.698	58.54
271.914	158.89
272.13	113.83
272.346	17.58
272.562	83.11
272.777	177.32
272.993	52.39
273.209	-45.91
273.425	89.26
273.64	-70.48
273.856	103.59
274.072	13.48
274.287	36.01
274.503	111.78
274.719	93.35
274.934	-17.24
275.15	-29.52
275.366	74.92
275.581	52.39
275.797	3.24
276.012	-19.29
276.228	15.53
276.444	-43.86
276.659	128.17
276.875	-25.43
277.09	46.25
277.306	36.01
277.521	68.78
277.737	52.39
277.952	79.02
278.168	36.01
278.383	3.24
278.599	66.73
278.814	46.25
279.03	-7
279.245	128.17
279.461	33.96
279.676	195.75
279.892	-0.85
280.107	42.15
280.322	-39.76
280.538	107.69
280.753	42.15
280.969	31.91
281.184	25.77
281.399	54.44
281.615	56.49
281.83	29.87
282.045	15.53
282.26	50.35
282.476	58.54
282.691	119.98
282.906	72.87
283.122	89.26
283.337	-62.29
283.552	81.07
283.767	3.24
283.983	107.69
284.198	29.87
284.413	54.44
284.628	-23.38
284.843	40.11
285.058	105.64
285.274	93.35
285.489	-4.95
285.704	97.45
285.919	36.01
286.134	17.58
286.349	-27.48
286.564	-50
286.779	255.14
286.995	-66.39
287.21	-62.29
287.425	91.31
287.64	27.82
287.855	-54.1
288.07	-70.48
288.285	42.15
288.5	142.5
288.715	25.77
288.93	85.16
289.145	-0.85
289.36	109.74
289.575	9.39
289.79	162.98
290.004	31.91
290.219	165.03
290.434	-47.96
290.649	9.39
290.864	-23.38
291.079	23.72
291.294	40.11
291.509	97.45
291.724	40.11
291.938	-13.14
292.153	29.87
292.368	44.2
292.583	-7
292.798	54.44
293.012	91.31
293.227	56.49
293.442	68.78
293.657	79.02
293.871	93.35
294.086	64.68
294.301	222.38
294.516	119.98
294.73	36.01
294.945	-25.43
295.16	3.24
295.374	54.44
295.589	99.5
295.804	-13.14
296.018	95.4
296.233	107.69
296.447	89.26
296.662	68.78
296.877	140.46
297.091	70.83
297.306	93.35
297.52	87.21
297.735	31.91
297.949	38.06
298.164	138.41
298.378	66.73
298.593	17.58
298.807	-9.05
299.022	23.72
299.236	162.98
299.451	15.53
299.665	5.29
299.88	52.39
300.094	25.77
300.309	27.82
300.523	56.49
300.737	7.34
300.952	72.87
301.166	124.07
301.381	42.15
301.595	17.58
301.809	76.97
302.024	-50
302.238	3.24
302.452	119.98
302.667	-2.9
302.881	132.26
303.095	93.35
303.309	74.92
303.524	36.01
303.738	-43.86
303.952	-2.9
304.166	74.92
304.381	-115.54
304.595	152.74
304.809	72.87
305.023	-11.09
305.237	-80.72
305.452	25.77
305.666	95.4
305.88	107.69
306.094	226.47
306.308	19.63
306.522	119.98
306.736	58.54
306.95	95.4
307.164	-21.33
307.379	38.06
307.593	179.37
307.807	134.31
308.021	66.73
308.235	29.87
308.449	-111.44
308.663	134.31
308.877	224.42
309.091	33.96
309.305	52.39
309.519	-68.44
309.733	72.87
309.947	-82.77
310.161	72.87
310.374	122.02
310.588	189.61
310.802	21.67
311.016	-7
311.23	83.11
311.444	-45.91
311.658	142.5
311.872	103.59
312.085	83.11
312.299	99.5
312.513	156.84
312.727	-0.85
312.941	-39.76
313.154	11.43
313.368	105.64
313.582	1.19
313.796	27.82
314.009	42.15
314.223	242.85
314.437	31.91
314.651	138.41
314.864	162.98
315.078	48.3
315.292	-25.43
315.505	-50
315.719	40.11
315.933	72.87
316.146	-15.19
316.36	-35.67
316.573	126.12
316.787	95.4
317.001	91.31
317.214	40.11
317.428	81.07
317.641	-33.62
317.855	42.15
318.068	38.06
318.282	64.68
318.495	130.22
318.709	66.73
318.922	54.44
319.136	224.42
319.349	160.94
319.563	95.4
319.776	3.24
319.99	-95.06
320.203	85.16
320.417	-21.33
320.63	130.22
320.843	218.28
321.057	36.01
321.27	107.69
321.483	93.35
321.697	185.51
321.91	46.25
322.124	44.2
322.337	117.93
322.55	19.63
322.763	76.97
322.977	68.78
323.19	-21.33
323.403	85.16
323.617	111.78
323.83	138.41
324.043	-33.62
324.256	70.83
324.469	-17.24
324.683	38.06
324.896	5.29
325.109	62.63
325.322	-19.29
325.535	113.83
325.748	87.21
325.962	17.58
326.175	91.31
326.388	87.21
326.601	97.45
326.814	-19.29
327.027	89.26
327.24	158.89
327.453	-121.68
327.666	42.15
327.879	74.92
328.092	76.97
328.305	13.48
328.518	48.3
328.731	-31.57
328.944	-39.76
329.157	74.92
329.37	-17.24
329.583	226.47
329.796	208.04
330.009	-43.86
330.222	107.69
330.435	83.11
330.648	-27.48
330.861	31.91
331.073	36.01
331.286	150.7
331.499	-7
331.712	-29.52
331.925	60.59
332.138	15.53
332.35	50.35
332.563	-27.48
332.776	97.45
332.989	66.73
333.202	-15.19
333.414	52.39
333.627	9.39
333.84	-13.14
334.053	54.44
334.265	7.34
334.478	-33.62
334.691	-15.19
334.903	91.31
335.116	9.39
335.329	25.77
335.541	83.11
335.754	122.02
335.966	-35.67
336.179	97.45
336.392	-31.57
336.604	48.3
336.817	72.87
337.029	54.44
337.242	48.3
337.454	68.78
337.667	11.43
337.88	167.08
338.092	-17.24
338.305	126.12
338.517	-0.85
338.729	103.59
338.942	62.63
339.154	5.29
339.367	-62.29
339.579	150.7
339.792	3.24
340.004	42.15
340.217	-23.38
340.429	95.4
340.641	-25.43
340.854	-58.2
341.066	19.63
341.278	138.41
341.491	222.38
341.703	70.83
341.915	-56.15
342.128	23.72
342.34	60.59
342.552	-56.15
342.764	33.96
342.977	-29.52
343.189	117.93
343.401	23.72
343.613	-84.82
343.826	122.02
344.038	-15.19
344.25	31.91
344.462	-2.9
344.674	72.87
344.886	42.15
345.099	74.92
345.311	134.31
345.523	56.49
345.735	-33.62
345.947	44.2
346.159	38.06
346.371	-25.43
346.583	-56.15
346.795	208.04
347.007	68.78
347.219	64.68
347.431	17.58
347.643	156.84
347.855	9.39
348.067	171.18
348.279	46.25
348.491	48.3
348.703	140.46
348.915	-39.76
349.127	-7
349.339	15.53
349.551	-58.2
349.763	113.83
349.975	105.64
350.187	183.46
350.399	146.6
350.61	9.39
350.822	56.49
351.034	25.77
351.246	-13.14
351.458	154.79
351.669	95.4
351.881	42.15
352.093	140.46
352.305	119.98
352.517	79.02
352.728	109.74
352.94	-11.09
353.152	36.01
353.363	-70.48
353.575	107.69
353.787	140.46
353.999	109.74
354.21	109.74
354.422	33.96
354.633	11.43
354.845	-62.29
355.057	38.06
355.268	58.54
355.48	97.45
355.692	-52.05
355.903	36.01
356.115	7.34
356.326	-21.33
356.538	97.45
356.749	46.25
356.961	136.36
357.172	101.55
357.384	23.72
357.595	257.19
357.807	-76.63
358.018	58.54
358.23	-47.96
358.441	287.91
358.653	54.44
358.864	-13.14
359.075	-17.24
359.287	31.91
359.498	74.92
359.709	70.83
359.921	19.63
360.132	83.11
360.344	87.21
360.555	19.63
360.766	93.35
360.977	46.25
361.189	99.5
361.4	54.44
361.611	101.55
361.823	130.22
362.034	-2.9
362.245	-43.86
362.456	-27.48
362.667	62.63
362.879	-88.92
363.09	76.97
363.301	19.63
363.512	50.35
363.723	-74.58
363.935	-11.09
364.146	95.4
364.357	29.87
364.568	56.49
364.779	-11.09
364.99	162.98
365.201	-23.38
365.412	160.94
365.623	-88.92
365.834	148.65
366.045	148.65
366.256	58.54
366.467	101.55
366.678	-27.48
366.889	62.63
367.1	-0.85
367.311	167.08
367.522	15.53
367.733	142.5
367.944	48.3
368.155	-19.29
368.366	60.59
368.577	154.79
368.788	81.07
368.999	-4.95
369.209	46.25
369.42	165.03
369.631	205.99
369.842	81.07
370.053	1.19
370.264	44.2
370.474	-25.43
370.685	48.3
370.896	68.78
371.107	74.92
371.317	103.59
371.528	50.35
371.739	66.73
371.95	171.18
372.16	64.68
372.371	-2.9
372.582	-13.14
372.792	89.26
373.003	79.02
373.214	50.35
373.424	124.07
373.635	-43.86
373.846	134.31
374.056	68.78
374.267	36.01
374.477	66.73
374.688	-15.19
374.898	79.02
375.109	109.74
375.319	105.64
375.53	91.31
375.74	54.44
375.951	-86.87
376.161	132.26
376.372	85.16
376.582	60.59
376.793	33.96
377.003	50.35
377.214	-33.62
377.424	111.78
377.635	76.97
377.845	7.34
378.055	46.25
378.266	-50
378.476	-31.57
378.686	50.35
378.897	29.87
379.107	48.3
379.317	56.49
379.528	-2.9
379.738	111.78
379.948	-56.15
380.158	109.74
380.369	17.58
380.579	68.78
380.789	99.5
380.999	87.21
381.21	113.83
381.42	201.9
381.63	29.87
381.84	95.4
382.05	-13.14
382.261	160.94
382.471	113.83
382.681	-29.52
382.891	115.88
383.101	76.97
383.311	19.63
383.521	-15.19
383.731	66.73
383.941	40.11
384.151	-9.05
384.361	-7
384.571	56.49
384.781	23.72
384.991	134.31
385.201	150.7
385.411	66.73
385.621	46.25
385.831	111.78
386.041	66.73
386.251	38.06
386.461	117.93
386.671	17.58
386.881	66.73
387.091	95.4
387.301	31.91
387.511	74.92
387.72	19.63
387.93	87.21
388.14	-43.86
388.35	58.54
388.56	66.73
388.769	103.59
388.979	36.01
389.189	58.54
389.399	60.59
389.609	146.6
389.818	162.98
390.028	5.29
390.238	33.96
390.447	-35.67
390.657	85.16
390.867	9.39
391.076	-80.72
391.286	79.02
391.496	95.4
391.705	52.39
391.915	91.31
392.125	158.89
392.334	3.24
392.544	115.88
392.753	-0.85
392.963	3.24
393.172	89.26
393.382	36.01
393.591	228.52
393.801	48.3
394.01	152.74
394.22	15.53
394.429	15.53
394.639	44.2
394.848	74.92
395.058	54.44
395.267	79.02
395.477	160.94
395.686	72.87
395.895	306.34
396.105	201.9
396.314	13.48
396.524	66.73
396.733	52.39
396.942	70.83
397.152	103.59
397.361	89.26
397.57	38.06
397.78	9.39
397.989	46.25
398.198	224.42
398.407	-13.14
398.617	68.78
398.826	83.11
399.035	3.24
399.244	156.84
399.453	87.21
399.663	60.59
399.872	60.59
400.081	-52.05
400.29	167.08
400.499	23.72
400.708	146.6
400.917	-13.14
401.127	91.31
401.336	33.96
401.545	197.8
401.754	130.22
401.963	111.78
402.172	5.29
402.381	56.49
402.59	62.63
402.799	60.59
403.008	142.5
403.217	58.54
403.426	101.55
403.635	-64.34
403.844	74.92
404.053	62.63
404.262	-19.29
404.471	189.61
404.68	58.54
404.888	38.06
405.097	-50
405.306	97.45
405.515	50.35
405.724	40.11
405.933	130.22
406.142	64.68
406.35	97.45
406.559	85.16
406.768	83.11
406.977	93.35
407.185	136.36
407.394	107.69
407.603	36.01
407.812	97.45
408.02	144.55
408.229	48.3
408.438	66.73
408.646	21.67
408.855	62.63
409.064	97.45
409.272	58.54
409.481	109.74
409.69	-19.29
409.898	3.24
410.107	85.16
410.315	89.26
410.524	36.01
410.733	19.63
410.941	21.67
411.15	156.84
411.358	146.6
411.567	148.65
411.775	70.83
411.984	87.21
412.192	60.59
412.401	93.35
412.609	205.99
412.818	140.46
413.026	79.02
413.234	70.83
413.443	-2.9
413.651	-25.43
413.86	-13.14
414.068	119.98
414.276	220.33
414.485	38.06
414.693	242.85
414.901	203.94
415.11	81.07
415.318	115.88
415.526	42.15
415.734	162.98
415.943	74.92
416.151	179.37
416.359	58.54
416.567	72.87
416.776	93.35
416.984	136.36
417.192	214.18
417.4	38.06
417.608	-9.05
417.817	-15.19
418.025	99.5
418.233	208.04
418.441	-31.57
418.649	-25.43
418.857	85.16
419.065	142.5
419.273	-47.96
419.481	31.91
419.689	19.63
419.897	70.83
420.105	-37.72
420.313	154.79
420.521	165.03
420.729	134.31
420.937	21.67
421.145	-39.76
421.353	95.4
421.561	126.12
421.769	11.43
421.977	-19.29
422.185	42.15
422.393	-0.85
422.601	140.46
422.809	85.16
423.017	-0.85
423.224	81.07
423.432	101.55
423.64	89.26
423.848	154.79
424.056	54.44
424.263	134.31
424.471	50.35
424.679	175.27
424.887	-19.29
425.094	203.94
425.302	36.01
425.51	64.68
425.718	138.41
425.925	52.39
426.133	-9.05
426.341	173.22
426.548	91.31
426.756	60.59
426.964	54.44
427.171	58.54
427.379	134.31
427.586	74.92
427.794	89.26
428.001	83.11
428.209	95.4
428.417	136.36
428.624	87.21
428.832	107.69
429.039	33.96
429.247	62.63
429.454	119.98
429.662	220.33
429.869	142.5
430.076	162.98
430.284	216.23
430.491	167.08
430.699	126.12
430.906	138.41
431.114	154.79
431.321	244.9
431.528	138.41
431.736	132.26
431.943	148.65
432.15	201.9
432.358	136.36
432.565	197.8
432.772	-60.24
432.979	177.32
433.187	136.36
433.394	189.61
433.601	91.31
433.808	298.15
434.016	314.53
434.223	271.53
434.43	173.22
434.637	287.91
434.844	154.79
435.052	244.9
435.259	328.87
435.466	205.99
435.673	220.33
435.88	289.96
436.087	304.29
436.294	287.91
436.501	314.53
436.708	216.23
436.915	212.14
437.122	308.39
437.329	232.62
437.537	357.54
437.743	257.19
437.95	418.98
438.157	316.58
438.364	332.97
438.571	292.01
438.778	371.88
438.985	414.88
439.192	343.21
439.399	347.3
439.606	443.56
439.813	498.85
440.02	601.25
440.227	625.83
440.433	562.34
440.64	482.47
440.847	396.45
441.054	453.8
441.261	687.26
441.467	580.77
441.674	515.23
441.881	697.5
442.088	588.96
442.294	670.88
442.501	728.22
442.708	818.33
442.914	660.64
443.121	812.19
443.328	760.99
443.534	791.71
443.741	814.24
443.948	730.27
444.154	855.2
444.361	1070.23
444.568	892.06
444.774	877.73
444.981	865.44
445.187	1133.72
445.394	1062.04
445.6	1090.71
445.807	1240.22
446.013	1115.29
446.22	1150.11
446.426	1297.56
446.633	1332.37
446.839	1596.56
447.046	1344.66
447.252	1531.03
447.459	1516.69
447.665	1612.95
447.871	1754.26
448.078	1848.46
448.284	1733.78
448.491	1870.99
448.697	1954.96
448.903	2061.45
449.11	2167.95
449.316	1946.76
449.522	2294.92
449.728	2188.43
449.935	2401.41
450.141	2399.37
450.347	2575.49
450.553	2561.16
450.76	2425.99
450.966	2704.51
451.172	2724.99
451.378	2874.49
451.584	2915.45
451.791	3187.83
451.997	3226.75
452.203	3263.61
452.409	3501.17
452.615	3603.57
452.821	3515.51
453.027	3597.43
453.233	4025.45
453.44	3892.34
453.646	3984.49
453.852	4314.22
454.058	4355.18
454.264	4547.69
454.47	4957.28
454.676	4953.18
454.882	5315.67
455.088	5000.29
455.294	5317.72
455.5	5702.74
455.705	6020.17
455.911	5919.82
456.117	6315.08
456.323	6319.18
456.529	6458.44
456.735	7113.79
456.941	7308.35
457.147	7470.14
457.352	7463.99
457.558	7879.73
457.764	8561.7
457.97	8666.15
458.176	8815.65
458.381	9384.99
458.587	9856.02
458.793	9997.33
458.999	9903.12
459.204	11250.69
459.41	11510.78
459.616	11502.59
459.821	12012.53
460.027	12735.46
460.233	13292.51
460.438	13351.9
460.644	14175.19
460.85	14128.08
461.055	14601.16
461.261	15518.65
461.466	15358.91
461.672	15215.55
461.878	17435.55
462.083	17220.52
462.289	17478.56
462.494	18133.91
462.7	18445.2
462.905	18447.25
463.111	19897.21
463.316	20951.91
463.522	21412.71
463.727	22039.39
463.932	23038.8
464.138	23587.65
464.343	24707.89
464.549	25105.2
464.754	26551.06
464.959	27280.14
465.165	27611.91
465.37	27407.11
465.575	27740.93
465.781	29469.42
465.986	30044.9
466.191	29686.5
466.397	30126.81
466.602	29371.11
466.807	30819.03
467.012	31541.96
467.218	32402.11
467.423	32502.46
467.628	33065.65
467.833	35003.03
468.038	34286.24
468.244	33579.69
468.449	35281.55
468.654	34480.8
