Data from USB4F104151__212__11-05-49-714.txt Node

Date: Wed Feb 26 11:05:49 EST 2025
User: louis
Spectrometer: USB4F10415
Trigger mode: 4
Integration Time (sec): 1.000000E-1
Scans to average: 1
Electric dark correction enabled: true
Nonlinearity correction enabled: false
Boxcar width: 0
XAxis mode: Wavelengths
Number of Pixels in Spectrum: 3648
>>>>>Begin Spectral Data<<<<<
178.204	-388.94
178.424	-388.94
178.644	-388.94
178.864	-462.67
179.084	-417.61
179.304	8.36
179.524	-46.93
179.744	53.42
179.964	-1.88
180.184	10.41
180.404	65.71
180.624	-34.64
180.844	6.31
181.064	-71.51
181.283	20.65
181.503	-42.84
181.723	32.94
181.943	-118.61
182.163	190.63
182.383	-51.03
182.602	-5.97
182.822	204.97
183.042	34.99
183.262	-55.12
183.482	-53.08
183.701	34.99
183.921	6.31
184.141	-79.7
184.361	63.66
184.58	90.28
184.8	32.94
185.02	-38.74
185.239	96.43
185.459	-32.6
185.679	131.24
185.898	-87.89
186.118	-26.45
186.338	20.65
186.557	-12.12
186.777	-69.46
186.997	34.99
187.216	43.18
187.436	125.1
187.655	34.99
187.875	0.17
188.095	-1.88
188.314	129.19
188.534	61.61
188.753	-75.6
188.973	41.13
189.192	63.66
189.412	14.51
189.631	-32.6
189.851	41.13
190.07	188.58
190.29	-75.6
190.509	-57.17
190.729	-28.5
190.948	82.09
191.168	247.97
191.387	71.85
191.607	-77.65
191.826	-44.88
192.045	12.46
192.265	-83.8
192.484	55.47
192.704	0.17
192.923	-81.75
193.142	104.62
193.362	-3.93
193.581	90.28
193.8	53.42
194.02	90.28
194.239	98.47
194.458	102.57
194.678	-1.88
194.897	22.7
195.116	63.66
195.335	6.31
195.555	24.75
195.774	-20.31
195.993	57.51
196.212	32.94
196.432	-75.6
196.651	49.32
196.87	51.37
197.089	145.58
197.308	49.32
197.528	34.99
197.747	-30.55
197.966	28.84
198.185	168.1
198.404	-87.89
198.623	112.81
198.842	16.55
199.062	37.03
199.281	65.71
199.5	-85.84
199.719	118.95
199.938	110.76
200.157	88.23
200.376	-22.36
200.595	63.66
200.814	63.66
201.033	-20.31
201.252	225.45
201.471	-20.31
201.69	55.47
201.909	-89.94
202.128	133.29
202.347	-77.65
202.566	94.38
202.785	-65.36
203.004	-34.64
203.223	288.93
203.442	30.89
203.661	-36.69
203.879	39.08
204.098	84.14
204.317	-48.98
204.536	37.03
204.755	102.57
204.974	77.99
205.193	-24.4
205.411	116.9
205.63	153.77
205.849	49.32
206.068	24.75
206.287	-77.65
206.505	143.53
206.724	34.99
206.943	-108.37
207.162	-16.21
207.381	112.81
207.599	-5.97
207.818	-22.36
208.037	2.22
208.255	-34.64
208.474	34.99
208.693	98.47
208.911	-32.6
209.13	118.95
209.349	22.7
209.567	0.17
209.786	80.04
210.005	96.43
210.223	26.79
210.442	-130.9
210.661	-26.45
210.879	41.13
211.098	-69.46
211.316	53.42
211.535	82.09
211.753	32.94
211.972	37.03
212.191	-18.26
212.409	-59.22
212.628	77.99
212.846	-10.07
213.065	24.75
213.283	84.14
213.502	-63.32
213.72	-1.88
213.938	18.6
214.157	16.55
214.375	104.62
214.594	0.17
214.812	12.46
215.031	-42.84
215.249	-57.17
215.467	61.61
215.686	24.75
215.904	22.7
216.122	37.03
216.341	88.23
216.559	22.7
216.778	45.23
216.996	141.48
217.214	-53.08
217.432	-5.97
217.651	-110.42
217.869	61.61
218.087	-8.02
218.306	32.94
218.524	6.31
218.742	-61.27
218.96	69.8
219.179	24.75
219.397	-46.93
219.615	143.53
219.833	112.81
220.051	-71.51
220.27	22.7
220.488	53.42
220.706	55.47
220.924	-63.32
221.142	-26.45
221.36	-16.21
221.578	75.95
221.796	2.22
222.015	37.03
222.233	0.17
222.451	96.43
222.669	12.46
222.887	104.62
223.105	-8.02
223.323	-69.46
223.541	-89.94
223.759	0.17
223.977	-46.93
224.195	200.87
224.413	73.9
224.631	47.27
224.849	98.47
225.067	207.02
225.285	-135
225.503	-53.08
225.721	-98.13
225.939	-85.84
226.157	30.89
226.375	194.73
226.592	24.75
226.81	-28.5
227.028	84.14
227.246	86.19
227.464	102.57
227.682	71.85
227.9	-20.31
228.117	82.09
228.335	57.51
228.553	-32.6
228.771	-12.12
228.989	57.51
229.206	39.08
229.424	10.41
229.642	30.89
229.86	-65.36
230.077	22.7
230.295	-32.6
230.513	32.94
230.731	0.17
230.948	215.21
231.166	100.52
231.384	14.51
231.601	-32.6
231.819	157.86
232.037	-32.6
232.254	-171.86
232.472	-1.88
232.689	20.65
232.907	77.99
233.125	-42.84
233.342	12.46
233.56	6.31
233.777	4.27
233.995	-77.65
234.213	47.27
234.43	135.34
234.648	-20.31
234.865	-5.97
235.083	65.71
235.3	24.75
235.518	51.37
235.735	82.09
235.953	37.03
236.17	28.84
236.388	2.22
236.605	4.27
236.822	61.61
237.04	37.03
237.257	-63.32
237.475	-96.08
237.692	47.27
237.909	108.71
238.127	-24.4
238.344	86.19
238.562	47.27
238.779	-57.17
238.996	-28.5
239.214	82.09
239.431	55.47
239.648	-53.08
239.865	57.51
240.083	16.55
240.3	-34.64
240.517	-26.45
240.735	-8.02
240.952	80.04
241.169	22.7
241.386	30.89
241.603	61.61
241.821	-18.26
242.038	-20.31
242.255	102.57
242.472	-18.26
242.689	82.09
242.907	16.55
243.124	-5.97
243.341	18.6
243.558	-61.27
243.775	-16.21
243.992	-46.93
244.209	108.71
244.426	172.2
244.643	127.14
244.86	71.85
245.078	49.32
245.295	80.04
245.512	2.22
245.729	-102.23
245.946	149.67
246.163	84.14
246.38	41.13
246.597	69.8
246.814	-26.45
247.031	43.18
247.248	24.75
247.464	116.9
247.681	45.23
247.898	106.67
248.115	67.75
248.332	-28.5
248.549	209.06
248.766	153.77
248.983	77.99
249.2	77.99
249.417	28.84
249.633	-34.64
249.85	94.38
250.067	0.17
250.284	90.28
250.501	110.76
250.717	96.43
250.934	-69.46
251.151	-14.17
251.368	26.79
251.585	37.03
251.801	18.6
252.018	-79.7
252.235	49.32
252.451	-132.95
252.668	41.13
252.885	30.89
253.102	12.46
253.318	-53.08
253.535	-91.99
253.752	-38.74
253.968	-59.22
254.185	-104.28
254.401	20.65
254.618	-3.93
254.835	2.22
255.051	61.61
255.268	84.14
255.484	47.27
255.701	6.31
255.917	63.66
256.134	-46.93
256.351	61.61
256.567	-10.07
256.784	43.18
257	-145.24
257.217	123.05
257.433	32.94
257.65	26.79
257.866	102.57
258.082	-32.6
258.299	-14.17
258.515	12.46
258.732	-48.98
258.948	-69.46
259.165	-1.88
259.381	-24.4
259.597	100.52
259.814	6.31
260.03	-32.6
260.246	-5.97
260.463	59.56
260.679	100.52
260.895	-55.12
261.112	-42.84
261.328	0.17
261.544	-65.36
261.761	131.24
261.977	-22.36
262.193	-42.84
262.409	45.23
262.626	73.9
262.842	20.65
263.058	-61.27
263.274	8.36
263.49	-1.88
263.707	145.58
263.923	90.28
264.139	-106.32
264.355	43.18
264.571	55.47
264.787	73.9
265.004	34.99
265.22	18.6
265.436	-51.03
265.652	55.47
265.868	67.75
266.084	-3.93
266.3	39.08
266.516	-126.8
266.732	14.51
266.948	2.22
267.164	-10.07
267.38	63.66
267.596	22.7
267.812	182.44
268.028	-53.08
268.244	4.27
268.46	-30.55
268.676	22.7
268.892	59.56
269.108	-36.69
269.324	-24.4
269.54	-3.93
269.756	2.22
269.972	-98.13
270.188	47.27
270.403	-73.56
270.619	53.42
270.835	80.04
271.051	37.03
271.267	-20.31
271.483	-40.79
271.698	80.04
271.914	100.52
272.13	28.84
272.346	30.89
272.562	71.85
272.777	125.1
272.993	12.46
273.209	-14.17
273.425	16.55
273.64	-36.69
273.856	61.61
274.072	-63.32
274.287	-51.03
274.503	14.51
274.719	67.75
274.934	-61.27
275.15	4.27
275.366	43.18
275.581	-118.61
275.797	-48.98
276.012	18.6
276.228	32.94
276.444	-5.97
276.659	110.76
276.875	-32.6
277.09	-55.12
277.306	-28.5
277.521	-1.88
277.737	-1.88
277.952	53.42
278.168	14.51
278.383	-34.64
278.599	-57.17
278.814	82.09
279.03	-22.36
279.245	59.56
279.461	-22.36
279.676	55.47
279.892	-69.46
280.107	-48.98
280.322	-3.93
280.538	28.84
280.753	-71.51
280.969	-3.93
281.184	39.08
281.399	114.86
281.615	-34.64
281.83	30.89
282.045	-118.61
282.26	-53.08
282.476	45.23
282.691	26.79
282.906	-14.17
283.122	86.19
283.337	41.13
283.552	10.41
283.767	-53.08
283.983	41.13
284.198	-8.02
284.413	41.13
284.628	-67.41
284.843	30.89
285.058	168.1
285.274	24.75
285.489	-5.97
285.704	43.18
285.919	-67.41
286.134	30.89
286.349	22.7
286.564	4.27
286.779	149.67
286.995	2.22
287.21	-46.93
287.425	45.23
287.64	6.31
287.855	55.47
288.07	-100.18
288.285	39.08
288.5	32.94
288.715	-16.21
288.93	4.27
289.145	-48.98
289.36	133.29
289.575	20.65
289.79	104.62
290.004	-42.84
290.219	24.75
290.434	-3.93
290.649	-5.97
290.864	8.36
291.079	-16.21
291.294	28.84
291.509	-5.97
291.724	43.18
291.938	-12.12
292.153	51.37
292.368	-5.97
292.583	28.84
292.798	34.99
293.012	30.89
293.227	80.04
293.442	63.66
293.657	55.47
293.871	41.13
294.086	92.33
294.301	84.14
294.516	96.43
294.73	10.41
294.945	32.94
295.16	-34.64
295.374	106.67
295.589	26.79
295.804	10.41
296.018	39.08
296.233	145.58
296.447	-48.98
296.662	-26.45
296.877	90.28
297.091	86.19
297.306	-28.5
297.52	-18.26
297.735	18.6
297.949	106.67
298.164	22.7
298.378	51.37
298.593	10.41
298.807	-38.74
299.022	55.47
299.236	172.2
299.451	-44.88
299.665	45.23
299.88	37.03
300.094	0.17
300.309	22.7
300.523	-1.88
300.737	14.51
300.952	82.09
301.166	57.51
301.381	-26.45
301.595	-51.03
301.809	-42.84
302.024	-30.55
302.238	-32.6
302.452	141.48
302.667	-10.07
302.881	202.92
303.095	55.47
303.309	-51.03
303.524	2.22
303.738	-26.45
303.952	-83.8
304.166	8.36
304.381	-71.51
304.595	96.43
304.809	2.22
305.023	20.65
305.237	-5.97
305.452	-16.21
305.666	-1.88
305.88	127.14
306.094	69.8
306.308	80.04
306.522	77.99
306.736	49.32
306.95	75.95
307.164	80.04
307.379	26.79
307.593	133.29
307.807	123.05
308.021	22.7
308.235	86.19
308.449	-157.52
308.663	-1.88
308.877	137.38
309.091	45.23
309.305	59.56
309.519	-59.22
309.733	92.33
309.947	-94.04
310.161	18.6
310.374	116.9
310.588	135.34
310.802	-22.36
311.016	8.36
311.23	55.47
311.444	-75.6
311.658	10.41
311.872	121
312.085	41.13
312.299	125.1
312.513	69.8
312.727	73.9
312.941	-32.6
313.154	-1.88
313.368	84.14
313.582	14.51
313.796	32.94
314.009	8.36
314.223	102.57
314.437	39.08
314.651	86.19
314.864	-38.74
315.078	-42.84
315.292	-12.12
315.505	43.18
315.719	22.7
315.933	55.47
316.146	-32.6
316.36	-40.79
316.573	147.62
316.787	28.84
317.001	73.9
317.214	-18.26
317.428	86.19
317.641	-69.46
317.855	28.84
318.068	-36.69
318.282	75.95
318.495	143.53
318.709	108.71
318.922	20.65
319.136	139.43
319.349	127.14
319.563	-65.36
319.776	32.94
319.99	-34.64
320.203	37.03
320.417	51.37
320.63	98.47
320.843	106.67
321.057	80.04
321.27	45.23
321.483	96.43
321.697	137.38
321.91	-10.07
322.124	16.55
322.337	-34.64
322.55	-36.69
322.763	96.43
322.977	133.29
323.19	-55.12
323.403	-38.74
323.617	116.9
323.83	67.75
324.043	-30.55
324.256	32.94
324.469	-26.45
324.683	114.86
324.896	4.27
325.109	-1.88
325.322	-91.99
325.535	39.08
325.748	77.99
325.962	-73.56
326.175	12.46
326.388	-12.12
326.601	94.38
326.814	-81.75
327.027	30.89
327.24	82.09
327.453	-55.12
327.666	30.89
327.879	28.84
328.092	135.34
328.305	30.89
328.518	10.41
328.731	-48.98
328.944	2.22
329.157	41.13
329.37	-94.04
329.583	116.9
329.796	161.96
330.009	-75.6
330.222	-69.46
330.435	67.75
330.648	43.18
330.861	37.03
331.073	61.61
331.286	73.9
331.499	24.75
331.712	-77.65
331.925	-22.36
332.138	28.84
332.35	123.05
332.563	-30.55
332.776	59.56
332.989	-104.28
333.202	-18.26
333.414	59.56
333.627	10.41
333.84	69.8
334.053	59.56
334.265	26.79
334.478	-28.5
334.691	-20.31
334.903	39.08
335.116	98.47
335.329	-48.98
335.541	49.32
335.754	73.9
335.966	-16.21
336.179	30.89
336.392	8.36
336.604	-32.6
336.817	37.03
337.029	80.04
337.242	65.71
337.454	22.7
337.667	41.13
337.88	153.77
338.092	112.81
338.305	16.55
338.517	16.55
338.729	94.38
338.942	80.04
339.154	-61.27
339.367	-104.28
339.579	34.99
339.792	-40.79
340.004	16.55
340.217	-12.12
340.429	-73.56
340.641	-40.79
340.854	-28.5
341.066	-1.88
341.278	96.43
341.491	143.53
341.703	-46.93
341.915	-61.27
342.128	6.31
342.34	6.31
342.552	16.55
342.764	88.23
342.977	-46.93
343.189	-67.41
343.401	131.24
343.613	-65.36
343.826	92.33
344.038	-106.32
344.25	77.99
344.462	26.79
344.674	84.14
344.886	10.41
345.099	2.22
345.311	2.22
345.523	-63.32
345.735	-139.09
345.947	22.7
346.159	37.03
346.371	-18.26
346.583	-30.55
346.795	125.1
347.007	-24.4
347.219	104.62
347.431	-73.56
347.643	153.77
347.855	-24.4
348.067	102.57
348.279	-71.51
348.491	102.57
348.703	88.23
348.915	30.89
349.127	-10.07
349.339	53.42
349.551	-71.51
349.763	71.85
349.975	63.66
350.187	59.56
350.399	116.9
350.61	110.76
350.822	41.13
351.034	-1.88
351.246	57.51
351.458	12.46
351.669	55.47
351.881	73.9
352.093	6.31
352.305	67.75
352.517	129.19
352.728	112.81
352.94	53.42
353.152	-12.12
353.363	-108.37
353.575	-3.93
353.787	145.58
353.999	24.75
354.21	164.01
354.422	-26.45
354.633	2.22
354.845	6.31
355.057	-5.97
355.268	47.27
355.48	73.9
355.692	-130.9
355.903	18.6
356.115	-38.74
356.326	-118.61
356.538	88.23
356.749	100.52
356.961	94.38
357.172	43.18
357.384	-48.98
357.595	157.86
357.807	-24.4
358.018	-32.6
358.23	-46.93
358.441	133.29
358.653	-3.93
358.864	-20.31
359.075	0.17
359.287	32.94
359.498	112.81
359.709	71.85
359.921	39.08
360.132	41.13
360.344	12.46
360.555	-8.02
360.766	20.65
360.977	-65.36
361.189	61.61
361.4	0.17
361.611	77.99
361.823	51.37
362.034	-3.93
362.245	-96.08
362.456	-57.17
362.667	112.81
362.879	-81.75
363.09	116.9
363.301	116.9
363.512	-48.98
363.723	-28.5
363.935	-1.88
364.146	69.8
364.357	6.31
364.568	55.47
364.779	-98.13
364.99	28.84
365.201	-32.6
365.412	69.8
365.623	-48.98
365.834	174.25
366.045	-16.21
366.256	118.95
366.467	51.37
366.678	4.27
366.889	59.56
367.1	-1.88
367.311	186.54
367.522	0.17
367.733	43.18
367.944	86.19
368.155	55.47
368.366	55.47
368.577	112.81
368.788	34.99
368.999	12.46
369.209	45.23
369.42	194.73
369.631	188.58
369.842	12.46
370.053	51.37
370.264	61.61
370.474	-20.31
370.685	41.13
370.896	22.7
371.107	96.43
371.317	55.47
371.528	-22.36
371.739	153.77
371.95	41.13
372.16	-40.79
372.371	-61.27
372.582	12.46
372.792	106.67
373.003	-16.21
373.214	16.55
373.424	102.57
373.635	-63.32
373.846	112.81
374.056	37.03
374.267	-26.45
374.477	14.51
374.688	-24.4
374.898	18.6
375.109	49.32
375.319	14.51
375.53	118.95
375.74	86.19
375.951	-18.26
376.161	43.18
376.372	45.23
376.582	-14.17
376.793	28.84
377.003	18.6
377.214	-30.55
377.424	-12.12
377.635	86.19
377.845	8.36
378.055	77.99
378.266	-89.94
378.476	-36.69
378.686	39.08
378.897	90.28
379.107	92.33
379.317	71.85
379.528	8.36
379.738	100.52
379.948	-59.22
380.158	114.86
380.369	59.56
380.579	43.18
380.789	8.36
380.999	10.41
381.21	129.19
381.42	161.96
381.63	-5.97
381.84	32.94
382.05	24.75
382.261	106.67
382.471	4.27
382.681	-1.88
382.891	106.67
383.101	-30.55
383.311	-98.13
383.521	37.03
383.731	43.18
383.941	121
384.151	6.31
384.361	22.7
384.571	65.71
384.781	47.27
384.991	186.54
385.201	88.23
385.411	47.27
385.621	125.1
385.831	6.31
386.041	47.27
386.251	90.28
386.461	131.24
386.671	16.55
386.881	28.84
387.091	73.9
387.301	49.32
387.511	53.42
387.72	123.05
387.93	96.43
388.14	-104.28
388.35	55.47
388.56	34.99
388.769	151.72
388.979	39.08
389.189	-137.04
389.399	47.27
389.609	61.61
389.818	77.99
390.028	47.27
390.238	-20.31
390.447	-77.65
390.657	39.08
390.867	10.41
391.076	-128.85
391.286	37.03
391.496	-10.07
391.705	121
391.915	104.62
392.125	67.75
392.334	-61.27
392.544	108.71
392.753	-59.22
392.963	-28.5
393.172	-20.31
393.382	30.89
393.591	196.78
393.801	-24.4
394.01	118.95
394.22	71.85
394.429	67.75
394.639	-59.22
394.848	-32.6
395.058	-40.79
395.267	26.79
395.477	41.13
395.686	129.19
395.895	170.15
396.105	204.97
396.314	114.86
396.524	39.08
396.733	-67.41
396.942	53.42
397.152	100.52
397.361	121
397.57	51.37
397.78	10.41
397.989	49.32
398.198	170.15
398.407	26.79
398.617	-18.26
398.826	10.41
399.035	20.65
399.244	121
399.453	0.17
399.663	116.9
399.872	16.55
400.081	-69.46
400.29	168.1
400.499	47.27
400.708	69.8
400.917	53.42
401.127	-12.12
401.336	-26.45
401.545	131.24
401.754	145.58
401.963	55.47
402.172	20.65
402.381	32.94
402.59	-8.02
402.799	16.55
403.008	123.05
403.217	34.99
403.426	90.28
403.635	-145.24
403.844	18.6
404.053	69.8
404.262	12.46
404.471	139.43
404.68	0.17
404.888	-61.27
405.097	32.94
405.306	121
405.515	90.28
405.724	26.79
405.933	161.96
406.142	20.65
406.35	143.53
406.559	-30.55
406.768	32.94
406.977	65.71
407.185	55.47
407.394	57.51
407.603	-40.79
407.812	-3.93
408.02	53.42
408.229	-46.93
408.438	32.94
408.646	-69.46
408.855	45.23
409.064	104.62
409.272	-22.36
409.481	69.8
409.69	-12.12
409.898	-69.46
410.107	63.66
410.315	88.23
410.524	-61.27
410.733	8.36
410.941	39.08
411.15	131.24
411.358	32.94
411.567	121
411.775	84.14
411.984	41.13
412.192	84.14
412.401	-26.45
412.609	65.71
412.818	153.77
413.026	43.18
413.234	-28.5
413.443	94.38
413.651	-28.5
413.86	49.32
414.068	90.28
414.276	151.72
414.485	-10.07
414.693	127.14
414.901	153.77
415.11	57.51
415.318	12.46
415.526	32.94
415.734	82.09
415.943	75.95
416.151	131.24
416.359	-18.26
416.567	61.61
416.776	59.56
416.984	170.15
417.192	155.82
417.4	37.03
417.608	-22.36
417.817	-20.31
418.025	61.61
418.233	118.95
418.441	-22.36
418.649	-65.36
418.857	45.23
419.065	94.38
419.273	-63.32
419.481	-28.5
419.689	-8.02
419.897	2.22
420.105	-10.07
420.313	88.23
420.521	75.95
420.729	129.19
420.937	131.24
421.145	-26.45
421.353	96.43
421.561	86.19
421.769	84.14
421.977	37.03
422.185	112.81
422.393	71.85
422.601	30.89
422.809	98.47
423.017	4.27
423.224	69.8
423.432	59.56
423.64	61.61
423.848	137.38
424.056	45.23
424.263	139.43
424.471	73.9
424.679	174.25
424.887	-22.36
425.094	172.2
425.302	94.38
425.51	-10.07
425.718	80.04
425.925	75.95
426.133	-51.03
426.341	192.68
426.548	108.71
426.756	22.7
426.964	77.99
427.171	-28.5
427.379	108.71
427.586	77.99
427.794	55.47
428.001	59.56
428.209	98.47
428.417	227.5
428.624	94.38
428.832	61.61
429.039	121
429.247	77.99
429.454	112.81
429.662	239.78
429.869	63.66
430.076	125.1
430.284	139.43
430.491	198.82
430.699	98.47
430.906	135.34
431.114	121
431.321	194.73
431.528	75.95
431.736	151.72
431.943	118.95
432.15	77.99
432.358	196.78
432.565	268.45
432.772	18.6
432.979	186.54
433.187	184.49
433.394	254.12
433.601	121
433.808	233.64
434.016	311.46
434.223	88.23
434.43	272.55
434.637	317.61
434.844	278.69
435.052	266.41
435.259	272.55
435.466	311.46
435.673	231.59
435.88	350.37
436.087	333.99
436.294	379.04
436.501	333.99
436.708	262.31
436.915	278.69
437.122	364.71
437.329	243.88
437.537	297.13
437.743	344.23
437.95	426.15
438.157	405.67
438.364	467.11
438.571	415.91
438.778	442.53
438.985	528.55
439.192	485.54
439.399	432.29
439.606	528.55
439.813	587.94
440.02	592.03
440.227	739.49
440.433	559.27
440.64	530.59
440.847	452.77
441.054	626.85
441.261	694.43
441.467	653.47
441.674	553.12
441.881	854.17
442.088	655.52
442.294	805.02
442.501	831.65
442.708	927.9
442.914	850.08
443.121	917.66
443.328	985.24
443.534	993.44
443.741	964.76
443.948	878.75
444.154	1032.35
444.361	1306.77
444.568	1112.22
444.774	1116.31
444.981	1097.88
445.187	1317.01
445.394	1362.07
445.6	1239.19
445.807	1622.16
446.013	1478.8
446.22	1474.71
446.426	1577.11
446.633	1605.78
446.839	1835.15
447.046	1597.59
447.252	1775.76
447.459	1853.58
447.665	1742.99
447.871	2023.56
448.078	2128.01
448.284	2062.48
448.491	2177.16
448.697	2345.09
448.903	2488.45
449.11	2406.53
449.316	2447.49
449.522	2644.1
449.728	2783.36
449.935	2914.43
450.141	2916.48
450.347	3113.08
450.553	3215.48
450.76	3240.06
450.966	3303.54
451.172	3489.91
451.378	3555.44
451.584	3520.63
451.791	3897.46
451.997	3962.99
452.203	4008.05
452.409	4280.43
452.615	4491.37
452.821	4399.21
453.027	4423.78
453.233	5023.84
453.44	4792.42
453.646	5044.32
453.852	5202.01
454.058	5533.78
454.264	5621.84
454.47	6043.73
454.676	5961.81
454.882	6580.29
455.088	6428.74
455.294	6709.32
455.5	6953.02
455.705	7401.53
455.911	7573.56
456.117	7809.08
456.323	8052.78
456.529	7934
456.735	8544.3
456.941	8968.23
457.147	9119.78
457.352	9635.86
457.558	9951.25
457.764	10414.09
457.97	10715.14
458.176	10973.19
458.381	11675.64
458.587	11649.02
458.793	12427.25
458.999	12333.04
459.204	13993.94
459.41	14245.84
459.616	14188.5
459.821	15089.6
460.027	15638.46
460.233	16234.42
460.438	16359.35
460.644	17440.67
460.85	17532.83
461.055	18309.01
461.261	19300.23
461.466	18687.89
461.672	19203.97
461.878	21180.26
462.083	21079.91
462.289	21565.28
462.494	22323.03
462.7	22370.13
462.905	22816.59
463.111	24772.4
463.316	25818.91
463.522	26468.12
463.727	27289.35
463.932	28245.76
464.138	29177.58
464.343	30220
464.549	30514.91
464.754	32747.19
464.959	33756.84
465.165	34092.71
465.37	33959.59
465.575	33885.86
465.781	36552.32
465.986	37129.84
466.191	36714.11
466.397	37095.03
466.602	36105.86
466.807	38233.7
467.012	38659.68
467.218	39306.83
467.423	39595.6
467.628	40877.63
467.833	42837.53
468.038	42184.23
468.244	41451.06
468.449	43355.67
