Data from USB4F104151__105__10-45-30-563.txt Node

Date: Wed Feb 26 10:45:30 EST 2025
User: louis
Spectrometer: USB4F10415
Trigger mode: 4
Integration Time (sec): 1.000000E-1
Scans to average: 1
Electric dark correction enabled: true
Nonlinearity correction enabled: false
Boxcar width: 0
XAxis mode: Wavelengths
Number of Pixels in Spectrum: 3648
>>>>>Begin Spectral Data<<<<<
178.204	-388.26
178.424	-388.26
178.644	-388.26
178.864	-337.06
179.084	-384.16
179.304	-33.96
179.524	23.38
179.744	0.85
179.964	15.19
180.184	54.1
180.404	4.95
180.624	11.09
180.844	-48.3
181.064	-68.78
181.283	93.01
181.503	-68.78
181.723	17.24
181.943	-101.55
182.163	176.98
182.383	19.29
182.602	-38.06
182.822	90.96
183.042	187.22
183.262	-25.77
183.482	-3.24
183.701	23.38
183.921	60.24
184.141	-72.87
184.361	39.76
184.58	50
184.8	39.76
185.02	-25.77
185.239	148.31
185.459	62.29
185.679	152.4
185.898	-46.25
186.118	35.67
186.338	29.52
186.557	185.17
186.777	7
186.997	29.52
187.216	107.35
187.436	234.32
187.655	117.59
187.875	56.15
188.095	70.48
188.314	123.73
188.534	232.27
188.753	27.48
188.973	129.88
189.192	195.41
189.412	-31.91
189.631	164.69
189.851	2.9
190.07	144.21
190.29	-25.77
190.509	-87.21
190.729	68.44
190.948	99.16
191.168	224.08
191.387	52.05
191.607	-11.43
191.826	103.25
192.045	19.29
192.265	64.34
192.484	52.05
192.704	64.34
192.923	-19.63
193.142	115.54
193.362	152.4
193.581	146.26
193.8	68.44
194.02	215.89
194.239	64.34
194.458	93.01
194.678	37.72
194.897	-1.19
195.116	50
195.335	68.44
195.555	84.82
195.774	25.43
195.993	56.15
196.212	43.86
196.432	54.1
196.651	29.52
196.87	105.3
197.089	189.27
197.308	56.15
197.528	76.63
197.747	-62.63
197.966	82.77
198.185	21.33
198.404	-58.54
198.623	82.77
198.842	113.49
199.062	93.01
199.281	60.24
199.5	66.39
199.719	93.01
199.938	72.53
200.157	152.4
200.376	105.3
200.595	80.72
200.814	2.9
201.033	-23.72
201.252	127.83
201.471	54.1
201.69	117.59
201.909	-19.63
202.128	125.78
202.347	54.1
202.566	64.34
202.785	-50.35
203.004	64.34
203.223	314.19
203.442	62.29
203.661	-83.11
203.879	33.62
204.098	129.88
204.317	15.19
204.536	86.87
204.755	29.52
204.974	187.22
205.193	60.24
205.411	142.16
205.63	93.01
205.849	54.1
206.068	23.38
206.287	-31.91
206.505	160.59
206.724	29.52
206.943	-1.19
207.162	-66.73
207.381	187.22
207.599	-17.58
207.818	27.48
208.037	-68.78
208.255	54.1
208.474	146.26
208.693	-29.87
208.911	-15.53
209.13	93.01
209.349	109.4
209.567	23.38
209.786	54.1
210.005	140.12
210.223	41.81
210.442	-15.53
210.661	27.48
210.879	90.96
211.098	13.14
211.316	37.72
211.535	154.45
211.753	-11.43
211.972	82.77
212.191	7
212.409	107.35
212.628	58.2
212.846	-3.24
213.065	-5.29
213.283	78.68
213.502	25.43
213.72	-5.29
213.938	-7.34
214.157	23.38
214.375	99.16
214.594	2.9
214.812	99.16
215.031	66.39
215.249	58.2
215.467	35.67
215.686	37.72
215.904	142.16
216.122	125.78
216.341	191.31
216.559	152.4
216.778	93.01
216.996	97.11
217.214	15.19
217.432	121.68
217.651	35.67
217.869	43.86
218.087	66.39
218.306	54.1
218.524	76.63
218.742	45.91
218.96	74.58
219.179	56.15
219.397	58.2
219.615	187.22
219.833	138.07
220.051	45.91
220.27	152.4
220.488	160.59
220.706	66.39
220.924	52.05
221.142	21.33
221.36	95.06
221.578	82.77
221.796	-7.34
222.015	37.72
222.233	-5.29
222.451	189.27
222.669	-13.48
222.887	93.01
223.105	74.58
223.323	39.76
223.541	31.57
223.759	27.48
223.977	7
224.195	240.47
224.413	80.72
224.631	62.29
224.849	70.48
225.067	213.84
225.285	93.01
225.503	-29.87
225.721	-19.63
225.939	78.68
226.157	121.68
226.375	265.04
226.592	11.09
226.81	33.62
227.028	168.79
227.246	95.06
227.464	80.72
227.682	70.48
227.9	70.48
228.117	58.2
228.335	64.34
228.553	29.52
228.771	13.14
228.989	64.34
229.206	107.35
229.424	29.52
229.642	11.09
229.86	19.29
230.077	133.97
230.295	107.35
230.513	121.68
230.731	56.15
230.948	160.59
231.166	176.98
231.384	54.1
231.601	25.43
231.819	269.14
232.037	-19.63
232.254	-21.67
232.472	45.91
232.689	74.58
232.907	154.45
233.125	21.33
233.342	17.24
233.56	56.15
233.777	41.81
233.995	-21.67
234.213	88.92
234.43	43.86
234.648	27.48
234.865	80.72
235.083	101.2
235.3	62.29
235.518	103.25
235.735	222.03
235.953	99.16
236.17	-13.48
236.388	11.09
236.605	74.58
236.822	95.06
237.04	209.75
237.257	62.29
237.475	-9.39
237.692	23.38
237.909	56.15
238.127	2.9
238.344	72.53
238.562	31.57
238.779	-27.82
238.996	-9.39
239.214	80.72
239.431	35.67
239.648	31.57
239.865	78.68
240.083	84.82
240.3	45.91
240.517	15.19
240.735	43.86
240.952	164.69
241.169	86.87
241.386	103.25
241.603	45.91
241.821	-38.06
242.038	88.92
242.255	95.06
242.472	-33.96
242.689	111.44
242.907	138.07
243.124	52.05
243.341	60.24
243.558	62.29
243.775	37.72
243.992	-48.3
244.209	146.26
244.426	166.74
244.643	52.05
244.86	33.62
245.078	140.12
245.295	158.55
245.512	50
245.729	25.43
245.946	97.11
246.163	47.96
246.38	19.29
246.597	33.62
246.814	80.72
247.031	68.44
247.248	41.81
247.464	156.5
247.681	140.12
247.898	27.48
248.115	95.06
248.332	-9.39
248.549	150.36
248.766	228.18
248.983	17.24
249.2	88.92
249.417	72.53
249.633	-72.87
249.85	88.92
250.067	70.48
250.284	37.72
250.501	117.59
250.717	45.91
250.934	-15.53
251.151	37.72
251.368	-29.87
251.585	45.91
251.801	95.06
252.018	11.09
252.235	172.88
252.451	-11.43
252.668	70.48
252.885	72.53
253.102	136.02
253.318	-17.58
253.535	-40.11
253.752	-95.4
253.968	-25.77
254.185	2.9
254.401	9.05
254.618	95.06
254.835	-21.67
255.051	101.2
255.268	50
255.484	70.48
255.701	84.82
255.917	-25.77
256.134	11.09
256.351	78.68
256.567	0.85
256.784	29.52
257	-13.48
257.217	43.86
257.433	107.35
257.65	37.72
257.866	158.55
258.082	27.48
258.299	23.38
258.515	60.24
258.732	-31.91
258.948	-40.11
259.165	-42.15
259.381	43.86
259.597	86.87
259.814	76.63
260.03	27.48
260.246	56.15
260.463	156.5
260.679	131.92
260.895	123.73
261.112	121.68
261.328	56.15
261.544	37.72
261.761	144.21
261.977	52.05
262.193	-29.87
262.409	60.24
262.626	68.44
262.842	29.52
263.058	-60.59
263.274	105.3
263.49	60.24
263.707	144.21
263.923	58.2
264.139	-70.83
264.355	88.92
264.571	86.87
264.787	95.06
265.004	168.79
265.22	60.24
265.436	-52.39
265.652	37.72
265.868	88.92
266.084	-17.58
266.3	27.48
266.516	-1.19
266.732	47.96
266.948	21.33
267.164	74.58
267.38	113.49
267.596	86.87
267.812	156.5
268.028	78.68
268.244	13.14
268.46	43.86
268.676	29.52
268.892	86.87
269.108	2.9
269.324	-56.49
269.54	-31.91
269.756	160.59
269.972	-19.63
270.188	-7.34
270.403	-36.01
270.619	9.05
270.835	119.64
271.051	62.29
271.267	-19.63
271.483	23.38
271.698	150.36
271.914	74.58
272.13	70.48
272.346	82.77
272.562	41.81
272.777	105.3
272.993	41.81
273.209	15.19
273.425	115.54
273.64	-21.67
273.856	119.64
274.072	-62.63
274.287	-33.96
274.503	64.34
274.719	179.03
274.934	7
275.15	-142.5
275.366	62.29
275.581	54.1
275.797	109.4
276.012	-7.34
276.228	9.05
276.444	7
276.659	109.4
276.875	-25.77
277.09	25.43
277.306	-9.39
277.521	11.09
277.737	93.01
277.952	93.01
278.168	-3.24
278.383	60.24
278.599	125.78
278.814	58.2
279.03	66.39
279.245	121.68
279.461	-11.43
279.676	103.25
279.892	-19.63
280.107	54.1
280.322	4.95
280.538	109.4
280.753	-29.87
280.969	52.05
281.184	17.24
281.399	191.31
281.615	41.81
281.83	93.01
282.045	15.19
282.26	52.05
282.476	-7.34
282.691	107.35
282.906	101.2
283.122	76.63
283.337	19.29
283.552	86.87
283.767	-1.19
283.983	119.64
284.198	27.48
284.413	54.1
284.628	-17.58
284.843	54.1
285.058	37.72
285.274	78.68
285.489	11.09
285.704	93.01
285.919	-3.24
286.134	119.64
286.349	68.44
286.564	-9.39
286.779	148.31
286.995	60.24
287.21	-76.97
287.425	97.11
287.64	21.33
287.855	-38.06
288.07	0.85
288.285	107.35
288.5	66.39
288.715	97.11
288.93	-52.39
289.145	35.67
289.36	88.92
289.575	25.43
289.79	136.02
290.004	35.67
290.219	64.34
290.434	35.67
290.649	-19.63
290.864	-13.48
291.079	68.44
291.294	93.01
291.509	140.12
291.724	64.34
291.938	-33.96
292.153	66.39
292.368	68.44
292.583	52.05
292.798	133.97
293.012	37.72
293.227	90.96
293.442	-19.63
293.657	142.16
293.871	78.68
294.086	37.72
294.301	174.93
294.516	121.68
294.73	52.05
294.945	2.9
295.16	-5.29
295.374	109.4
295.589	95.06
295.804	-60.59
296.018	27.48
296.233	115.54
296.447	31.57
296.662	43.86
296.877	144.21
297.091	117.59
297.306	-64.68
297.52	47.96
297.735	17.24
297.949	158.55
298.164	109.4
298.378	88.92
298.593	19.29
298.807	64.34
299.022	72.53
299.236	154.45
299.451	-50.35
299.665	0.85
299.88	72.53
300.094	66.39
300.309	54.1
300.523	84.82
300.737	-21.67
300.952	58.2
301.166	90.96
301.381	43.86
301.595	31.57
301.809	27.48
302.024	-11.43
302.238	-19.63
302.452	148.31
302.667	54.1
302.881	140.12
303.095	39.76
303.309	84.82
303.524	-11.43
303.738	88.92
303.952	35.67
304.166	105.3
304.381	-154.79
304.595	172.88
304.809	-21.67
305.023	115.54
305.237	50
305.452	103.25
305.666	43.86
305.88	95.06
306.094	50
306.308	66.39
306.522	13.14
306.736	78.68
306.95	150.36
307.164	-44.2
307.379	37.72
307.593	174.93
307.807	148.31
308.021	74.58
308.235	140.12
308.449	-11.43
308.663	41.81
308.877	207.7
309.091	119.64
309.305	56.15
309.519	-52.39
309.733	103.25
309.947	-122.02
310.161	39.76
310.374	150.36
310.588	142.16
310.802	-31.91
311.016	37.72
311.23	88.92
311.444	-42.15
311.658	-23.72
311.872	86.87
312.085	123.73
312.299	105.3
312.513	148.31
312.727	39.76
312.941	41.81
313.154	99.16
313.368	54.1
313.582	70.48
313.796	-21.67
314.009	-3.24
314.223	138.07
314.437	64.34
314.651	117.59
314.864	-19.63
315.078	70.48
315.292	-38.06
315.505	113.49
315.719	99.16
315.933	64.34
316.146	13.14
316.36	-72.87
316.573	109.4
316.787	88.92
317.001	76.63
317.214	-1.19
317.428	60.24
317.641	-62.63
317.855	-9.39
318.068	109.4
318.282	56.15
318.495	160.59
318.709	107.35
318.922	43.86
319.136	172.88
319.349	103.25
319.563	41.81
319.776	95.06
319.99	-25.77
320.203	93.01
320.417	62.29
320.63	166.74
320.843	166.74
321.057	64.34
321.27	93.01
321.483	117.59
321.697	228.18
321.91	168.79
322.124	76.63
322.337	154.45
322.55	17.24
322.763	93.01
322.977	9.05
323.19	33.62
323.403	97.11
323.617	123.73
323.83	99.16
324.043	105.3
324.256	103.25
324.469	-60.59
324.683	80.72
324.896	-3.24
325.109	0.85
325.322	-19.63
325.535	72.53
325.748	158.55
325.962	45.91
326.175	107.35
326.388	103.25
326.601	105.3
326.814	56.15
327.027	78.68
327.24	187.22
327.453	-46.25
327.666	101.2
327.879	183.12
328.092	70.48
328.305	138.07
328.518	-25.77
328.731	-15.53
328.944	97.11
329.157	84.82
329.37	76.63
329.583	156.5
329.796	121.68
330.009	-23.72
330.222	115.54
330.435	129.88
330.648	84.82
330.861	43.86
331.073	64.34
331.286	93.01
331.499	60.24
331.712	0.85
331.925	33.62
332.138	4.95
332.35	66.39
332.563	23.38
332.776	185.17
332.989	-3.24
333.202	-9.39
333.414	150.36
333.627	60.24
333.84	72.53
334.053	-3.24
334.265	72.53
334.478	70.48
334.691	4.95
334.903	33.62
335.116	-44.2
335.329	115.54
335.541	179.03
335.754	131.92
335.966	56.15
336.179	68.44
336.392	99.16
336.604	64.34
336.817	166.74
337.029	195.41
337.242	103.25
337.454	191.31
337.667	58.2
337.88	203.6
338.092	78.68
338.305	39.76
338.517	-9.39
338.729	107.35
338.942	150.36
339.154	4.95
339.367	29.52
339.579	17.24
339.792	-19.63
340.004	121.68
340.217	11.09
340.429	39.76
340.641	-48.3
340.854	-21.67
341.066	23.38
341.278	58.2
341.491	199.51
341.703	60.24
341.915	-23.72
342.128	47.96
342.34	119.64
342.552	27.48
342.764	111.44
342.977	-1.19
343.189	101.2
343.401	13.14
343.613	-15.53
343.826	15.19
344.038	-17.58
344.25	25.43
344.462	-1.19
344.674	33.62
344.886	-52.39
345.099	72.53
345.311	176.98
345.523	27.48
345.735	-60.59
345.947	-5.29
346.159	56.15
346.371	62.29
346.583	33.62
346.795	136.02
347.007	-46.25
347.219	23.38
347.431	58.2
347.643	37.72
347.855	62.29
348.067	109.4
348.279	-40.11
348.491	19.29
348.703	131.92
348.915	15.19
349.127	25.43
349.339	131.92
349.551	129.88
349.763	160.59
349.975	76.63
350.187	97.11
350.399	84.82
350.61	113.49
350.822	-17.58
351.034	103.25
351.246	133.97
351.458	-27.82
351.669	70.48
351.881	76.63
352.093	58.2
352.305	88.92
352.517	152.4
352.728	136.02
352.94	58.2
353.152	174.93
353.363	17.24
353.575	-1.19
353.787	107.35
353.999	68.44
354.21	168.79
354.422	7
354.633	70.48
354.845	107.35
355.057	43.86
355.268	-7.34
355.48	113.49
355.692	9.05
355.903	23.38
356.115	39.76
356.326	-124.07
356.538	142.16
356.749	62.29
356.961	158.55
357.172	56.15
357.384	-7.34
357.595	244.56
357.807	-17.58
358.018	-15.53
358.23	43.86
358.441	144.21
358.653	56.15
358.864	23.38
359.075	-7.34
359.287	56.15
359.498	111.44
359.709	97.11
359.921	111.44
360.132	113.49
360.344	62.29
360.555	19.29
360.766	25.43
360.977	2.9
361.189	121.68
361.4	9.05
361.611	121.68
361.823	119.64
362.034	15.19
362.245	-42.15
362.456	54.1
362.667	129.88
362.879	-79.02
363.09	138.07
363.301	84.82
363.512	52.05
363.723	25.43
363.935	45.91
364.146	72.53
364.357	52.05
364.568	29.52
364.779	-46.25
364.99	68.44
365.201	7
365.412	101.2
365.623	-3.24
365.834	64.34
366.045	56.15
366.256	115.54
366.467	47.96
366.678	54.1
366.889	50
367.1	-36.01
367.311	195.41
367.522	29.52
367.733	64.34
367.944	93.01
368.155	72.53
368.366	90.96
368.577	240.47
368.788	140.12
368.999	29.52
369.209	97.11
369.42	195.41
369.631	185.17
369.842	-13.48
370.053	2.9
370.264	111.44
370.474	-1.19
370.685	41.81
370.896	64.34
371.107	129.88
371.317	68.44
371.528	62.29
371.739	205.65
371.95	105.3
372.16	129.88
372.371	-54.44
372.582	43.86
372.792	39.76
373.003	117.59
373.214	4.95
373.424	111.44
373.635	-29.87
373.846	138.07
374.056	66.39
374.267	50
374.477	156.5
374.688	-9.39
374.898	86.87
375.109	90.96
375.319	80.72
375.53	123.73
375.74	88.92
375.951	-13.48
376.161	70.48
376.372	56.15
376.582	80.72
376.793	99.16
377.003	68.44
377.214	11.09
377.424	84.82
377.635	82.77
377.845	25.43
378.055	142.16
378.266	-85.16
378.476	50
378.686	121.68
378.897	39.76
379.107	97.11
379.317	150.36
379.528	54.1
379.738	78.68
379.948	19.29
380.158	119.64
380.369	72.53
380.579	39.76
380.789	76.63
380.999	119.64
381.21	123.73
381.42	160.59
381.63	56.15
381.84	66.39
382.05	105.3
382.261	107.35
382.471	82.77
382.681	-23.72
382.891	224.08
383.101	80.72
383.311	-52.39
383.521	-48.3
383.731	74.58
383.941	115.54
384.151	7
384.361	74.58
384.571	82.77
384.781	47.96
384.991	250.71
385.201	246.61
385.411	54.1
385.621	54.1
385.831	41.81
386.041	97.11
386.251	95.06
386.461	82.77
386.671	-29.87
386.881	133.97
387.091	43.86
387.301	115.54
387.511	84.82
387.72	-21.67
387.93	187.22
388.14	-13.48
388.35	95.06
388.56	133.97
388.769	162.64
388.979	123.73
389.189	37.72
389.399	43.86
389.609	88.92
389.818	25.43
390.028	58.2
390.238	156.5
390.447	19.29
390.657	138.07
390.867	84.82
391.076	-25.77
391.286	64.34
391.496	86.87
391.705	9.05
391.915	105.3
392.125	93.01
392.334	58.2
392.544	170.83
392.753	41.81
392.963	-42.15
393.172	19.29
393.382	23.38
393.591	262.99
393.801	66.39
394.01	187.22
394.22	107.35
394.429	11.09
394.639	154.45
394.848	27.48
395.058	119.64
395.267	86.87
395.477	107.35
395.686	97.11
395.895	265.04
396.105	228.18
396.314	125.78
396.524	93.01
396.733	45.91
396.942	207.7
397.152	136.02
397.361	123.73
397.57	33.62
397.78	-9.39
397.989	45.91
398.198	230.23
398.407	19.29
398.617	43.86
398.826	62.29
399.035	113.49
399.244	185.17
399.453	115.54
399.663	68.44
399.872	39.76
400.081	0.85
400.29	144.21
400.499	50
400.708	142.16
400.917	19.29
401.127	37.72
401.336	-46.25
401.545	162.64
401.754	78.68
401.963	136.02
402.172	45.91
402.381	11.09
402.59	56.15
402.799	41.81
403.008	133.97
403.217	119.64
403.426	11.09
403.635	-7.34
403.844	72.53
404.053	68.44
404.262	-33.96
404.471	133.97
404.68	103.25
404.888	68.44
405.097	15.19
405.306	115.54
405.515	17.24
405.724	64.34
405.933	95.06
406.142	80.72
406.35	111.44
406.559	86.87
406.768	62.29
406.977	195.41
407.185	64.34
407.394	41.81
407.603	-54.44
407.812	111.44
408.02	78.68
408.229	97.11
408.438	113.49
408.646	0.85
408.855	78.68
409.064	138.07
409.272	66.39
409.481	133.97
409.69	35.67
409.898	-40.11
410.107	66.39
410.315	181.07
410.524	45.91
410.733	37.72
410.941	99.16
411.15	127.83
411.358	119.64
411.567	199.51
411.775	43.86
411.984	80.72
412.192	101.2
412.401	37.72
412.609	279.38
412.818	148.31
413.026	68.44
413.234	-1.19
413.443	52.05
413.651	-7.34
413.86	80.72
414.068	127.83
414.276	162.64
414.485	15.19
414.693	154.45
414.901	240.47
415.11	90.96
415.318	41.81
415.526	11.09
415.734	142.16
415.943	84.82
416.151	154.45
416.359	105.3
416.567	35.67
416.776	152.4
416.984	99.16
417.192	185.17
417.4	33.62
417.608	39.76
417.817	-15.53
418.025	201.55
418.233	246.61
418.441	39.76
418.649	23.38
418.857	93.01
419.065	142.16
419.273	-27.82
419.481	93.01
419.689	43.86
419.897	29.52
420.105	-7.34
420.313	197.46
420.521	187.22
420.729	244.56
420.937	7
421.145	31.57
421.353	107.35
421.561	144.21
421.769	64.34
421.977	74.58
422.185	125.78
422.393	97.11
422.601	197.46
422.809	107.35
423.017	129.88
423.224	45.91
423.432	125.78
423.64	76.63
423.848	150.36
424.056	11.09
424.263	166.74
424.471	95.06
424.679	252.75
424.887	52.05
425.094	181.07
425.302	101.2
425.51	97.11
425.718	115.54
425.925	129.88
426.133	9.05
426.341	168.79
426.548	43.86
426.756	109.4
426.964	50
427.171	29.52
427.379	105.3
427.586	97.11
427.794	211.79
428.001	217.94
428.209	138.07
428.417	242.51
428.624	232.27
428.832	170.83
429.039	168.79
429.247	88.92
429.454	136.02
429.662	228.18
429.869	187.22
430.076	189.27
430.284	230.23
430.491	217.94
430.699	107.35
430.906	185.17
431.114	193.36
431.321	213.84
431.528	183.12
431.736	156.5
431.943	293.71
432.15	236.37
432.358	185.17
432.565	310.1
432.772	43.86
432.979	240.47
433.187	185.17
433.394	365.39
433.601	240.47
433.808	308.05
434.016	299.86
434.223	252.75
434.43	314.19
434.637	209.75
434.844	349.01
435.052	281.43
435.259	306
435.466	396.11
435.673	320.34
435.88	432.97
436.087	424.78
436.294	383.82
436.501	451.41
436.708	418.64
436.915	488.27
437.122	490.32
437.329	308.05
437.537	473.93
437.743	453.45
437.95	555.85
438.157	465.74
438.364	469.84
438.571	578.38
438.778	535.37
438.985	656.2
439.192	645.96
439.399	592.72
439.606	699.21
439.813	643.92
440.02	852.81
440.227	813.9
440.433	817.99
440.64	807.75
440.847	715.59
441.054	811.85
441.261	869.19
441.467	742.22
441.674	836.42
441.881	1018.69
442.088	990.02
442.294	979.78
442.501	1037.13
442.708	1164.1
442.914	1112.9
443.121	1219.39
443.328	1188.68
443.534	1272.64
443.741	1268.55
443.948	1131.33
444.154	1260.35
444.361	1452.86
444.568	1405.76
444.774	1456.96
444.981	1323.84
445.187	1596.22
445.394	1518.4
445.6	1551.17
445.807	1925.94
446.013	1698.62
446.22	1727.29
446.426	1925.94
446.633	1985.34
446.839	2220.85
447.046	1964.86
447.252	2310.96
447.459	2304.82
447.665	2149.17
447.871	2521.9
448.078	2665.26
448.284	2560.81
448.491	2792.23
448.697	2835.24
448.903	3009.32
449.11	3199.78
449.316	2949.93
449.522	3353.38
449.728	3345.19
449.935	3336.99
450.141	3511.07
450.347	3754.78
450.553	3605.28
450.76	3902.23
450.966	4170.52
451.172	4033.3
451.378	4301.59
451.584	4446.99
451.791	4875.02
451.997	4864.78
452.203	4946.7
452.409	5276.42
452.615	5405.44
452.821	5206.79
453.027	5255.94
453.233	5870.33
453.44	5798.65
453.646	6279.93
453.852	6417.14
454.058	6572.79
454.264	6757.1
454.47	7377.64
454.676	7430.88
454.882	8024.79
455.088	7725.79
455.294	8026.84
455.5	8471.25
455.705	8917.71
455.911	9081.55
456.117	9456.33
456.323	9650.88
456.529	9743.04
456.735	10427.06
456.941	10855.09
457.147	11248.3
457.352	11498.15
457.558	11831.97
457.764	12602.01
457.97	12765.84
458.176	13310.6
458.381	14101.12
458.587	14082.69
458.793	15157.87
458.999	14865.01
459.204	16872.02
459.41	17199.69
459.616	17138.26
459.821	18377.28
460.027	18948.66
460.233	19915.3
460.438	19829.29
460.644	21070.36
460.85	21172.75
461.055	21914.12
461.261	23366.13
461.466	22725.11
461.672	23159.28
461.878	26124.74
462.083	25698.77
462.289	26048.97
462.494	26898.87
462.7	27546.03
462.905	27898.28
463.111	30175.62
463.316	31375.73
463.522	32282.98
463.727	33030.49
463.932	34394.44
464.138	35330.36
464.343	36608.29
464.549	37138.72
464.754	39670.01
464.959	40485.1
465.165	40857.83
465.37	40724.71
465.575	41029.86
465.781	43880.63
465.986	45205.67
466.191	44042.42
466.397	44755.11
466.602	43399.36
466.807	45844.63
467.012	46874.76
467.218	47947.9
467.423	47720.57
467.628	49246.31
467.833	51183.69
468.038	50808.91
468.244	49807.45
468.449	52209.72
468.654	51003.47
