Data from USB4F104151__135__10-46-49-653.txt Node

Date: Wed Feb 26 10:46:49 EST 2025
User: louis
Spectrometer: USB4F10415
Trigger mode: 4
Integration Time (sec): 1.000000E-1
Scans to average: 1
Electric dark correction enabled: true
Nonlinearity correction enabled: false
Boxcar width: 0
XAxis mode: Wavelengths
Number of Pixels in Spectrum: 3648
>>>>>Begin Spectral Data<<<<<
178.204	-377.17
178.424	-377.17
178.644	-377.17
178.864	-375.12
179.084	-428.37
179.304	3.75
179.524	-4.44
179.744	-72.02
179.964	-4.44
180.184	77.48
180.404	38.57
180.624	1.71
180.844	-129.36
181.064	-18.77
181.283	59.05
181.503	-29.01
181.723	77.48
181.943	-104.79
182.163	128.68
182.383	59.05
182.602	3.75
182.822	140.97
183.042	44.71
183.262	-20.82
183.482	-47.44
183.701	22.19
183.921	52.91
184.141	-33.11
184.361	59.05
184.58	52.91
184.8	71.34
185.02	-33.11
185.239	100.01
185.459	97.96
185.679	112.3
185.898	-82.26
186.118	16.04
186.338	42.67
186.557	110.25
186.777	-53.59
186.997	-43.35
187.216	-37.2
187.436	183.98
187.655	81.58
187.875	120.49
188.095	59.05
188.314	202.41
188.534	128.68
188.753	-49.49
188.973	134.82
189.192	212.65
189.412	26.28
189.631	46.76
189.851	91.82
190.07	183.98
190.29	46.76
190.509	5.8
190.729	20.14
190.948	143.02
191.168	124.58
191.387	104.11
191.607	26.28
191.826	1.71
192.045	20.14
192.265	1.71
192.484	161.45
192.704	-10.58
192.923	-119.12
193.142	134.82
193.362	100.01
193.581	91.82
193.8	104.11
194.02	54.95
194.239	5.8
194.458	116.39
194.678	38.57
194.897	22.19
195.116	38.57
195.335	116.39
195.555	52.91
195.774	-0.34
195.993	104.11
196.212	79.53
196.432	18.09
196.651	28.33
196.87	59.05
197.089	296.61
197.308	65.19
197.528	11.95
197.747	-43.35
197.966	85.67
198.185	126.63
198.404	1.71
198.623	175.78
198.842	181.93
199.062	143.02
199.281	-0.34
199.5	67.24
199.719	73.39
199.938	77.48
200.157	108.2
200.376	67.24
200.595	126.63
200.814	71.34
201.033	40.62
201.252	175.78
201.471	24.23
201.69	57
201.909	22.19
202.128	85.67
202.347	112.3
202.566	-16.73
202.785	-65.88
203.004	-31.06
203.223	233.13
203.442	-4.44
203.661	-24.92
203.879	71.34
204.098	130.73
204.317	-39.25
204.536	128.68
204.755	46.76
204.974	169.64
205.193	59.05
205.411	110.25
205.63	147.11
205.849	130.73
206.068	-22.87
206.287	-33.11
206.505	67.24
206.724	97.96
206.943	-35.16
207.162	-29.01
207.381	50.86
207.599	46.76
207.818	-2.39
208.037	-59.73
208.255	89.77
208.474	24.23
208.693	102.06
208.911	18.09
209.13	110.25
209.349	83.63
209.567	69.29
209.786	5.8
210.005	46.76
210.223	52.91
210.442	-172.37
210.661	59.05
210.879	73.39
211.098	-24.92
211.316	71.34
211.535	18.09
211.753	65.19
211.972	16.04
212.191	-57.68
212.409	18.09
212.628	102.06
212.846	-39.25
213.065	83.63
213.283	73.39
213.502	30.38
213.72	97.96
213.938	18.09
214.157	-29.01
214.375	114.34
214.594	-8.53
214.812	36.52
215.031	-90.45
215.249	69.29
215.467	13.99
215.686	30.38
215.904	61.1
216.122	28.33
216.341	188.07
216.559	-8.53
216.778	63.15
216.996	89.77
217.214	46.76
217.432	-0.34
217.651	-61.78
217.869	63.15
218.087	-10.58
218.306	-31.06
218.524	9.9
218.742	-10.58
218.96	106.15
219.179	61.1
219.397	38.57
219.615	169.64
219.833	128.68
220.051	-106.84
220.27	83.63
220.488	93.87
220.706	73.39
220.924	-12.63
221.142	-43.35
221.36	122.54
221.578	20.14
221.796	-26.96
222.015	9.9
222.233	36.52
222.451	122.54
222.669	32.43
222.887	30.38
223.105	24.23
223.323	24.23
223.541	-74.07
223.759	7.85
223.977	59.05
224.195	97.96
224.413	59.05
224.631	3.75
224.849	-12.63
225.067	251.56
225.285	7.85
225.503	26.28
225.721	-88.4
225.939	50.86
226.157	57
226.375	179.88
226.592	-55.64
226.81	20.14
227.028	128.68
227.246	106.15
227.464	104.11
227.682	136.87
227.9	87.72
228.117	38.57
228.335	7.85
228.553	36.52
228.771	-18.77
228.989	67.24
229.206	95.91
229.424	-10.58
229.642	28.33
229.86	-22.87
230.077	106.15
230.295	75.43
230.513	50.86
230.731	22.19
230.948	118.44
231.166	128.68
231.384	-12.63
231.601	-43.35
231.819	118.44
232.037	30.38
232.254	-14.68
232.472	26.28
232.689	32.43
232.907	140.97
233.125	16.04
233.342	-53.59
233.56	-31.06
233.777	18.09
233.995	36.52
234.213	155.3
234.43	100.01
234.648	40.62
234.865	40.62
235.083	110.25
235.3	28.33
235.518	112.3
235.735	24.23
235.953	177.83
236.17	48.81
236.388	16.04
236.605	106.15
236.822	50.86
237.04	79.53
237.257	-18.77
237.475	-39.25
237.692	75.43
237.909	97.96
238.127	40.62
238.344	50.86
238.562	30.38
238.779	-80.21
238.996	-49.49
239.214	38.57
239.431	93.87
239.648	-2.39
239.865	52.91
240.083	85.67
240.3	38.57
240.517	5.8
240.735	87.72
240.952	220.84
241.169	-0.34
241.386	132.78
241.603	32.43
241.821	-88.4
242.038	87.72
242.255	173.74
242.472	-2.39
242.689	40.62
242.907	97.96
243.124	32.43
243.341	30.38
243.558	7.85
243.775	-61.78
243.992	-119.12
244.209	120.49
244.426	165.54
244.643	93.87
244.86	-39.25
245.078	145.06
245.295	147.11
245.512	9.9
245.729	-22.87
245.946	81.58
246.163	50.86
246.38	22.19
246.597	50.86
246.814	59.05
247.031	-12.63
247.248	36.52
247.464	91.82
247.681	110.25
247.898	52.91
248.115	-0.34
248.332	-104.79
248.549	67.24
248.766	224.94
248.983	13.99
249.2	100.01
249.417	1.71
249.633	-4.44
249.85	138.92
250.067	9.9
250.284	81.58
250.501	81.58
250.717	71.34
250.934	-12.63
251.151	46.76
251.368	52.91
251.585	67.24
251.801	81.58
252.018	11.95
252.235	140.97
252.451	-57.68
252.668	-78.16
252.885	145.06
253.102	69.29
253.318	3.75
253.535	16.04
253.752	16.04
253.968	52.91
254.185	-76.12
254.401	75.43
254.618	116.39
254.835	-35.16
255.051	116.39
255.268	69.29
255.484	57
255.701	18.09
255.917	95.91
256.134	48.81
256.351	-8.53
256.567	-10.58
256.784	-24.92
257	-80.21
257.217	110.25
257.433	138.92
257.65	54.95
257.866	179.88
258.082	-65.88
258.299	18.09
258.515	106.15
258.732	83.63
258.948	-4.44
259.165	52.91
259.381	-61.78
259.597	63.15
259.814	-69.97
260.03	38.57
260.246	77.48
260.463	75.43
260.679	140.97
260.895	89.77
261.112	91.82
261.328	1.71
261.544	-33.11
261.761	147.11
261.977	13.99
262.193	-86.36
262.409	67.24
262.626	100.01
262.842	-26.96
263.058	-61.78
263.274	20.14
263.49	40.62
263.707	63.15
263.923	81.58
264.139	-82.26
264.355	11.95
264.571	106.15
264.787	126.63
265.004	106.15
265.22	75.43
265.436	-41.3
265.652	-33.11
265.868	120.49
266.084	-37.2
266.3	26.28
266.516	40.62
266.732	46.76
266.948	40.62
267.164	-2.39
267.38	118.44
267.596	97.96
267.812	196.26
268.028	91.82
268.244	5.8
268.46	97.96
268.676	-78.16
268.892	18.09
269.108	5.8
269.324	-24.92
269.54	-96.6
269.756	91.82
269.972	-84.31
270.188	13.99
270.403	24.23
270.619	75.43
270.835	63.15
271.051	42.67
271.267	24.23
271.483	-16.73
271.698	36.52
271.914	20.14
272.13	59.05
272.346	28.33
272.562	97.96
272.777	26.28
272.993	57
273.209	-37.2
273.425	52.91
273.64	-92.5
273.856	63.15
274.072	1.71
274.287	-41.3
274.503	77.48
274.719	75.43
274.934	24.23
275.15	-39.25
275.366	93.87
275.581	-33.11
275.797	38.57
276.012	36.52
276.228	81.58
276.444	61.1
276.659	75.43
276.875	-20.82
277.09	22.19
277.306	9.9
277.521	67.24
277.737	130.73
277.952	106.15
278.168	20.14
278.383	42.67
278.599	85.67
278.814	36.52
279.03	112.3
279.245	147.11
279.461	61.1
279.676	108.2
279.892	13.99
280.107	-72.02
280.322	-16.73
280.538	95.91
280.753	-57.68
280.969	73.39
281.184	16.04
281.399	108.2
281.615	1.71
281.83	77.48
282.045	-102.74
282.26	-2.39
282.476	28.33
282.691	87.72
282.906	73.39
283.122	79.53
283.337	-2.39
283.552	16.04
283.767	7.85
283.983	77.48
284.198	18.09
284.413	122.54
284.628	-53.59
284.843	57
285.058	38.57
285.274	52.91
285.489	-20.82
285.704	118.44
285.919	-10.58
286.134	104.11
286.349	95.91
286.564	32.43
286.779	171.69
286.995	-16.73
287.21	-14.68
287.425	59.05
287.64	48.81
287.855	50.86
288.07	-35.16
288.285	75.43
288.5	132.78
288.715	83.63
288.93	-16.73
289.145	28.33
289.36	104.11
289.575	34.47
289.79	67.24
290.004	-16.73
290.219	48.81
290.434	54.95
290.649	-33.11
290.864	-45.4
291.079	-16.73
291.294	42.67
291.509	124.58
291.724	-31.06
291.938	-35.16
292.153	95.91
292.368	-22.87
292.583	32.43
292.798	77.48
293.012	-4.44
293.227	67.24
293.442	36.52
293.657	138.92
293.871	161.45
294.086	69.29
294.301	167.59
294.516	130.73
294.73	69.29
294.945	-20.82
295.16	54.95
295.374	118.44
295.589	65.19
295.804	24.23
296.018	38.57
296.233	50.86
296.447	38.57
296.662	67.24
296.877	75.43
297.091	69.29
297.306	48.81
297.52	-6.49
297.735	52.91
297.949	79.53
298.164	138.92
298.378	61.1
298.593	1.71
298.807	-2.39
299.022	-61.78
299.236	97.96
299.451	9.9
299.665	9.9
299.88	48.81
300.094	108.2
300.309	32.43
300.523	81.58
300.737	30.38
300.952	46.76
301.166	38.57
301.381	3.75
301.595	-94.55
301.809	26.28
302.024	-16.73
302.238	24.23
302.452	100.01
302.667	48.81
302.881	106.15
303.095	106.15
303.309	134.82
303.524	-14.68
303.738	7.85
303.952	-69.97
304.166	38.57
304.381	-69.97
304.595	85.67
304.809	9.9
305.023	61.1
305.237	-33.11
305.452	87.72
305.666	77.48
305.88	-8.53
306.094	145.06
306.308	57
306.522	83.63
306.736	69.29
306.95	126.63
307.164	65.19
307.379	-10.58
307.593	136.87
307.807	63.15
308.021	46.76
308.235	95.91
308.449	-59.73
308.663	91.82
308.877	249.51
309.091	93.87
309.305	100.01
309.519	-49.49
309.733	200.36
309.947	-47.44
310.161	122.54
310.374	181.93
310.588	104.11
310.802	-14.68
311.016	-16.73
311.23	28.33
311.444	-106.84
311.658	-37.2
311.872	85.67
312.085	175.78
312.299	100.01
312.513	171.69
312.727	7.85
312.941	7.85
313.154	147.11
313.368	81.58
313.582	44.71
313.796	102.06
314.009	-0.34
314.223	112.3
314.437	54.95
314.651	124.58
314.864	71.34
315.078	52.91
315.292	-67.92
315.505	5.8
315.719	59.05
315.933	63.15
316.146	-8.53
316.36	-33.11
316.573	175.78
316.787	97.96
317.001	61.1
317.214	-49.49
317.428	79.53
317.641	-53.59
317.855	44.71
318.068	93.87
318.282	-2.39
318.495	179.88
318.709	114.34
318.922	-53.59
319.136	143.02
319.349	85.67
319.563	30.38
319.776	118.44
319.99	-49.49
320.203	24.23
320.417	79.53
320.63	112.3
320.843	222.89
321.057	59.05
321.27	13.99
321.483	18.09
321.697	143.02
321.91	100.01
322.124	65.19
322.337	24.23
322.55	-26.96
322.763	13.99
322.977	30.38
323.19	3.75
323.403	44.71
323.617	67.24
323.83	59.05
324.043	48.81
324.256	52.91
324.469	-33.11
324.683	85.67
324.896	-51.54
325.109	79.53
325.322	-24.92
325.535	120.49
325.748	122.54
325.962	61.1
326.175	-16.73
326.388	140.97
326.601	95.91
326.814	63.15
327.027	36.52
327.24	87.72
327.453	-41.3
327.666	48.81
327.879	65.19
328.092	104.11
328.305	-4.44
328.518	38.57
328.731	38.57
328.944	-0.34
329.157	81.58
329.37	9.9
329.583	136.87
329.796	106.15
330.009	-129.36
330.222	116.39
330.435	100.01
330.648	-4.44
330.861	91.82
331.073	-4.44
331.286	165.54
331.499	75.43
331.712	-37.2
331.925	-33.11
332.138	1.71
332.35	54.95
332.563	63.15
332.776	91.82
332.989	-96.6
333.202	3.75
333.414	79.53
333.627	93.87
333.84	46.76
334.053	-0.34
334.265	-37.2
334.478	34.47
334.691	77.48
334.903	9.9
335.116	46.76
335.329	-20.82
335.541	50.86
335.754	124.58
335.966	-20.82
336.179	18.09
336.392	-41.3
336.604	-2.39
336.817	73.39
337.029	75.43
337.242	63.15
337.454	118.44
337.667	9.9
337.88	95.91
338.092	-8.53
338.305	97.96
338.517	-2.39
338.729	57
338.942	112.3
339.154	3.75
339.367	-74.07
339.579	136.87
339.792	22.19
340.004	63.15
340.217	1.71
340.429	71.34
340.641	-20.82
340.854	-22.87
341.066	13.99
341.278	157.35
341.491	132.78
341.703	-16.73
341.915	-6.49
342.128	132.78
342.34	44.71
342.552	-67.92
342.764	-37.2
342.977	3.75
343.189	132.78
343.401	40.62
343.613	11.95
343.826	32.43
344.038	40.62
344.25	38.57
344.462	-8.53
344.674	40.62
344.886	50.86
345.099	30.38
345.311	73.39
345.523	52.91
345.735	-4.44
345.947	61.1
346.159	136.87
346.371	28.33
346.583	-10.58
346.795	155.3
347.007	32.43
347.219	24.23
347.431	50.86
347.643	134.82
347.855	36.52
348.067	81.58
348.279	-90.45
348.491	-41.3
348.703	116.39
348.915	-24.92
349.127	59.05
349.339	-29.01
349.551	50.86
349.763	147.11
349.975	5.8
350.187	114.34
350.399	118.44
350.61	69.29
350.822	18.09
351.034	13.99
351.246	102.06
351.458	54.95
351.669	73.39
351.881	52.91
352.093	61.1
352.305	59.05
352.517	124.58
352.728	106.15
352.94	100.01
353.152	91.82
353.363	65.19
353.575	54.95
353.787	147.11
353.999	48.81
354.21	214.7
354.422	-31.06
354.633	32.43
354.845	46.76
355.057	40.62
355.268	138.92
355.48	89.77
355.692	30.38
355.903	-14.68
356.115	-24.92
356.326	-61.78
356.538	104.11
356.749	89.77
356.961	145.06
357.172	7.85
357.384	11.95
357.595	257.7
357.807	-59.73
358.018	7.85
358.23	48.81
358.441	140.97
358.653	87.72
358.864	52.91
359.075	-26.96
359.287	97.96
359.498	169.64
359.709	108.2
359.921	-24.92
360.132	-26.96
360.344	18.09
360.555	28.33
360.766	40.62
360.977	7.85
361.189	61.1
361.4	-63.83
361.611	75.43
361.823	108.2
362.034	-33.11
362.245	-69.97
362.456	40.62
362.667	26.28
362.879	-112.98
363.09	26.28
363.301	1.71
363.512	36.52
363.723	-16.73
363.935	1.71
364.146	69.29
364.357	-26.96
364.568	9.9
364.779	-76.12
364.99	210.6
365.201	26.28
365.412	87.72
365.623	-45.4
365.834	112.3
366.045	-4.44
366.256	91.82
366.467	67.24
366.678	-61.78
366.889	7.85
367.1	-65.88
367.311	149.16
367.522	18.09
367.733	52.91
367.944	73.39
368.155	11.95
368.366	77.48
368.577	46.76
368.788	57
368.999	-69.97
369.209	57
369.42	192.17
369.631	208.55
369.842	18.09
370.053	-59.73
370.264	181.93
370.474	11.95
370.685	102.06
370.896	7.85
371.107	138.92
371.317	59.05
371.528	71.34
371.739	143.02
371.95	48.81
372.16	20.14
372.371	-49.49
372.582	-16.73
372.792	110.25
373.003	81.58
373.214	95.91
373.424	71.34
373.635	-8.53
373.846	118.44
374.056	63.15
374.267	57
374.477	91.82
374.688	-22.87
374.898	100.01
375.109	46.76
375.319	48.81
375.53	89.77
375.74	183.98
375.951	42.67
376.161	71.34
376.372	159.4
376.582	-6.49
376.793	79.53
377.003	-10.58
377.214	32.43
377.424	36.52
377.635	52.91
377.845	13.99
378.055	104.11
378.266	-100.69
378.476	-16.73
378.686	110.25
378.897	-12.63
379.107	89.77
379.317	32.43
379.528	61.1
379.738	116.39
379.948	-76.12
380.158	42.67
380.369	-22.87
380.579	108.2
380.789	24.23
380.999	106.15
381.21	59.05
381.42	194.22
381.63	50.86
381.84	120.49
382.05	46.76
382.261	32.43
382.471	122.54
382.681	11.95
382.891	77.48
383.101	85.67
383.311	-78.16
383.521	7.85
383.731	50.86
383.941	104.11
384.151	40.62
384.361	13.99
384.571	20.14
384.781	155.3
384.991	128.68
385.201	159.4
385.411	151.21
385.621	85.67
385.831	67.24
386.041	-12.63
386.251	16.04
386.461	87.72
386.671	-45.4
386.881	102.06
387.091	-2.39
387.301	163.5
387.511	24.23
387.72	13.99
387.93	106.15
388.14	11.95
388.35	89.77
388.56	181.93
388.769	87.72
388.979	32.43
389.189	-16.73
389.399	67.24
389.609	57
389.818	32.43
390.028	83.63
390.238	163.5
390.447	-43.35
390.657	46.76
390.867	26.28
391.076	-6.49
391.286	13.99
391.496	28.33
391.705	52.91
391.915	40.62
392.125	128.68
392.334	36.52
392.544	128.68
392.753	24.23
392.963	-16.73
393.172	24.23
393.382	9.9
393.591	136.87
393.801	-51.54
394.01	120.49
394.22	83.63
394.429	79.53
394.639	81.58
394.848	11.95
395.058	48.81
395.267	7.85
395.477	136.87
395.686	54.95
395.895	226.98
396.105	173.74
396.314	26.28
396.524	-45.4
396.733	-0.34
396.942	153.26
397.152	87.72
397.361	104.11
397.57	114.34
397.78	95.91
397.989	75.43
398.198	198.31
398.407	32.43
398.617	75.43
398.826	57
399.035	71.34
399.244	89.77
399.453	34.47
399.663	28.33
399.872	-0.34
400.081	-12.63
400.29	102.06
400.499	-2.39
400.708	85.67
400.917	-2.39
401.127	-4.44
401.336	-39.25
401.545	114.34
401.754	-0.34
401.963	85.67
402.172	24.23
402.381	-14.68
402.59	-16.73
402.799	-18.77
403.008	18.09
403.217	97.96
403.426	69.29
403.635	-41.3
403.844	73.39
404.053	9.9
404.262	87.72
404.471	167.59
404.68	73.39
404.888	1.71
405.097	71.34
405.306	28.33
405.515	54.95
405.724	-0.34
405.933	124.58
406.142	69.29
406.35	75.43
406.559	36.52
406.768	83.63
406.977	163.5
407.185	89.77
407.394	97.96
407.603	-0.34
407.812	7.85
408.02	52.91
408.229	5.8
408.438	1.71
408.646	-63.83
408.855	108.2
409.064	36.52
409.272	40.62
409.481	91.82
409.69	-43.35
409.898	-12.63
410.107	26.28
410.315	130.73
410.524	-14.68
410.733	26.28
410.941	48.81
411.15	83.63
411.358	147.11
411.567	104.11
411.775	89.77
411.984	50.86
412.192	93.87
412.401	-43.35
412.609	130.73
412.818	220.84
413.026	20.14
413.234	16.04
413.443	85.67
413.651	-2.39
413.86	48.81
414.068	61.1
414.276	192.17
414.485	-12.63
414.693	153.26
414.901	69.29
415.11	22.19
415.318	67.24
415.526	7.85
415.734	147.11
415.943	54.95
416.151	140.97
416.359	57
416.567	61.1
416.776	59.05
416.984	93.87
417.192	124.58
417.4	26.28
417.608	-43.35
417.817	28.33
418.025	169.64
418.233	102.06
418.441	9.9
418.649	36.52
418.857	65.19
419.065	91.82
419.273	24.23
419.481	-4.44
419.689	50.86
419.897	61.1
420.105	26.28
420.313	67.24
420.521	173.74
420.729	114.34
420.937	34.47
421.145	-78.16
421.353	75.43
421.561	163.5
421.769	75.43
421.977	3.75
422.185	147.11
422.393	30.38
422.601	122.54
422.809	108.2
423.017	108.2
423.224	5.8
423.432	128.68
423.64	42.67
423.848	97.96
424.056	-20.82
424.263	106.15
424.471	28.33
424.679	138.92
424.887	-26.96
425.094	192.17
425.302	104.11
425.51	81.58
425.718	54.95
425.925	38.57
426.133	-24.92
426.341	167.59
426.548	-43.35
426.756	-0.34
426.964	118.44
427.171	59.05
427.379	149.16
427.586	83.63
427.794	75.43
428.001	214.7
428.209	85.67
428.417	202.41
428.624	93.87
428.832	175.78
429.039	97.96
429.247	71.34
429.454	122.54
429.662	206.5
429.869	50.86
430.076	192.17
430.284	186.02
430.491	143.02
430.699	157.35
430.906	140.97
431.114	145.06
431.321	153.26
431.528	136.87
431.736	179.88
431.943	155.3
432.15	63.15
432.358	202.41
432.565	247.46
432.772	52.91
432.979	175.78
433.187	106.15
433.394	259.75
433.601	32.43
433.808	247.46
434.016	233.13
434.223	202.41
434.43	222.89
434.637	267.94
434.844	140.97
435.052	214.7
435.259	315.05
435.466	278.18
435.673	194.22
435.88	251.56
436.087	292.52
436.294	278.18
436.501	278.18
436.708	214.7
436.915	351.91
437.122	403.11
437.329	288.42
437.537	339.62
437.743	267.94
437.95	411.3
438.157	366.25
438.364	345.77
438.571	339.62
438.778	396.96
438.985	421.54
439.192	577.19
439.399	415.4
439.606	429.73
439.813	513.7
440.02	626.34
440.227	657.06
440.433	585.38
440.64	552.61
440.847	474.79
441.054	511.65
441.261	687.78
441.467	581.28
441.674	542.37
441.881	673.44
442.088	601.76
442.294	806.56
442.501	681.63
442.708	808.61
442.914	800.41
443.121	911
443.328	806.56
443.534	933.53
443.741	861.85
443.948	800.41
444.154	921.24
444.361	1173.14
444.568	1007.26
444.774	1056.41
444.981	917.15
445.187	1185.43
445.394	1248.92
445.6	1162.9
445.807	1259.16
446.013	1183.38
446.22	1164.95
446.426	1345.17
446.633	1394.33
446.839	1650.32
447.046	1396.37
447.252	1552.02
447.459	1611.41
447.665	1666.71
447.871	1783.44
448.078	1928.85
448.284	1846.93
448.491	1975.95
448.697	2023.05
448.903	2135.69
449.11	2055.82
449.316	2258.57
449.522	2360.97
449.728	2440.84
449.935	2451.08
450.141	2545.28
450.347	2680.45
450.553	2682.5
450.76	2780.8
450.966	2975.36
451.172	2975.36
451.378	3106.43
451.584	3063.42
451.791	3440.25
451.997	3499.64
452.203	3458.68
452.409	3585.65
452.615	4009.58
452.821	3737.2
453.027	3808.88
453.233	4269.67
453.44	4316.78
453.646	4365.93
453.852	4540.01
454.058	4761.19
454.264	4787.81
454.47	5185.12
454.676	5418.58
454.882	5764.69
455.088	5598.81
455.294	5537.37
455.5	6067.79
455.705	6413.9
455.911	6356.55
456.117	6628.93
456.323	6897.22
456.529	6934.08
456.735	7431.74
456.941	7769.65
457.147	8023.6
457.352	8189.49
457.558	8341.04
457.764	8953.38
457.97	9131.55
458.176	9498.14
458.381	10159.63
458.587	10026.51
458.793	10731.01
458.999	10794.5
459.204	12113.39
459.41	12420.59
459.616	12232.18
459.821	12815.85
460.027	13497.82
460.233	14185.94
460.438	14167.51
460.644	14951.88
460.85	14970.31
461.055	15486.4
461.261	16682.41
461.466	16289.2
461.672	16252.34
461.878	18511.25
462.083	18105.75
462.289	18240.92
462.494	19357.06
462.7	19402.11
462.905	19836.28
463.111	21001.58
463.316	22465.88
463.522	22760.78
463.727	23551.3
463.932	24491.32
464.138	24948.01
464.343	26135.84
464.549	26137.88
464.754	28392.7
464.959	28931.31
465.165	29863.14
465.37	29172.97
465.575	29093.1
465.781	31059.15
465.986	32017.6
466.191	31222.99
466.397	31950.02
466.602	31229.13
466.807	33055.92
467.012	33625.26
467.218	33944.74
467.423	34358.43
467.628	34886.81
467.833	36750.46
468.038	35925.13
468.244	35873.93
468.449	37422.19
468.654	36662.4
468.859	36881.53
469.064	36770.94
