Data from USB4F104151__50__10-43-23-077.txt Node

Date: Wed Feb 26 10:43:23 EST 2025
User: louis
Spectrometer: USB4F10415
Trigger mode: 4
Integration Time (sec): 1.000000E-1
Scans to average: 1
Electric dark correction enabled: true
Nonlinearity correction enabled: false
Boxcar width: 0
XAxis mode: Wavelengths
Number of Pixels in Spectrum: 3648
>>>>>Begin Spectral Data<<<<<
178.204	-404.64
178.424	-404.64
178.644	-404.64
178.864	-369.83
179.084	-365.73
179.304	-1.19
179.524	-54.44
179.744	-17.58
179.964	105.3
180.184	74.58
180.404	41.81
180.624	-44.2
180.844	-42.15
181.064	-33.96
181.283	9.05
181.503	-103.59
181.723	66.39
181.943	-29.87
182.163	187.22
182.383	29.52
182.602	101.2
182.822	133.97
183.042	162.64
183.262	-105.64
183.482	33.62
183.701	4.95
183.921	76.63
184.141	-27.82
184.361	109.4
184.58	86.87
184.8	-33.96
185.02	-23.72
185.239	142.16
185.459	160.59
185.679	127.83
185.898	-97.45
186.118	66.39
186.338	86.87
186.557	176.98
186.777	-27.82
186.997	31.57
187.216	131.92
187.436	183.12
187.655	107.35
187.875	47.96
188.095	17.24
188.314	199.51
188.534	129.88
188.753	-33.96
188.973	176.98
189.192	101.2
189.412	29.52
189.631	7
189.851	39.76
190.07	240.47
190.29	-13.48
190.509	-1.19
190.729	78.68
190.948	166.74
191.168	277.33
191.387	111.44
191.607	31.57
191.826	35.67
192.045	47.96
192.265	-3.24
192.484	99.16
192.704	27.48
192.923	-5.29
193.142	203.6
193.362	131.92
193.581	156.5
193.8	25.43
194.02	31.57
194.239	21.33
194.458	138.07
194.678	93.01
194.897	27.48
195.116	80.72
195.335	41.81
195.555	52.05
195.774	2.9
195.993	123.73
196.212	90.96
196.432	27.48
196.651	13.14
196.87	66.39
197.089	262.99
197.308	0.85
197.528	66.39
197.747	11.09
197.966	64.34
198.185	201.55
198.404	43.86
198.623	146.26
198.842	68.44
199.062	41.81
199.281	125.78
199.5	70.48
199.719	37.72
199.938	43.86
200.157	7
200.376	105.3
200.595	168.79
200.814	93.01
201.033	56.15
201.252	162.64
201.471	93.01
201.69	131.92
201.909	78.68
202.128	50
202.347	133.97
202.566	54.1
202.785	-31.91
203.004	13.14
203.223	234.32
203.442	25.43
203.661	39.76
203.879	103.25
204.098	109.4
204.317	-19.63
204.536	125.78
204.755	93.01
204.974	70.48
205.193	21.33
205.411	115.54
205.63	105.3
205.849	103.25
206.068	47.96
206.287	-5.29
206.505	146.26
206.724	52.05
206.943	7
207.162	-3.24
207.381	103.25
207.599	70.48
207.818	105.3
208.037	29.52
208.255	-3.24
208.474	29.52
208.693	107.35
208.911	-13.48
209.13	160.59
209.349	80.72
209.567	93.01
209.786	160.59
210.005	80.72
210.223	66.39
210.442	-74.92
210.661	70.48
210.879	97.11
211.098	52.05
211.316	-19.63
211.535	78.68
211.753	136.02
211.972	127.83
212.191	-11.43
212.409	23.38
212.628	31.57
212.846	45.91
213.065	95.06
213.283	136.02
213.502	60.24
213.72	13.14
213.938	74.58
214.157	-19.63
214.375	131.92
214.594	-1.19
214.812	150.36
215.031	-17.58
215.249	27.48
215.467	68.44
215.686	99.16
215.904	113.49
216.122	127.83
216.341	131.92
216.559	86.87
216.778	68.44
216.996	158.55
217.214	86.87
217.432	56.15
217.651	-56.49
217.869	70.48
218.087	37.72
218.306	-5.29
218.524	17.24
218.742	-9.39
218.96	97.11
219.179	25.43
219.397	-7.34
219.615	244.56
219.833	70.48
220.051	-7.34
220.27	99.16
220.488	74.58
220.706	136.02
220.924	21.33
221.142	17.24
221.36	95.06
221.578	86.87
221.796	111.44
222.015	19.29
222.233	82.77
222.451	230.23
222.669	-42.15
222.887	82.77
223.105	-103.59
223.323	68.44
223.541	11.09
223.759	68.44
223.977	45.91
224.195	164.69
224.413	95.06
224.631	17.24
224.849	88.92
225.067	215.89
225.285	127.83
225.503	-64.68
225.721	-58.54
225.939	23.38
226.157	56.15
226.375	224.08
226.592	25.43
226.81	-9.39
227.028	119.64
227.246	179.03
227.464	142.16
227.682	142.16
227.9	78.68
228.117	64.34
228.335	62.29
228.553	45.91
228.771	45.91
228.989	39.76
229.206	76.63
229.424	39.76
229.642	11.09
229.86	-7.34
230.077	133.97
230.295	72.53
230.513	164.69
230.731	62.29
230.948	295.76
231.166	156.5
231.384	107.35
231.601	-62.63
231.819	258.9
232.037	27.48
232.254	-60.59
232.472	45.91
232.689	45.91
232.907	80.72
233.125	33.62
233.342	-5.29
233.56	58.2
233.777	11.09
233.995	60.24
234.213	172.88
234.43	123.73
234.648	76.63
234.865	27.48
235.083	113.49
235.3	13.14
235.518	150.36
235.735	156.5
235.953	158.55
236.17	80.72
236.388	52.05
236.605	54.1
236.822	105.3
237.04	119.64
237.257	101.2
237.475	-36.01
237.692	62.29
237.909	125.78
238.127	-27.82
238.344	62.29
238.562	138.07
238.779	-31.91
238.996	-42.15
239.214	39.76
239.431	181.07
239.648	-31.91
239.865	97.11
240.083	62.29
240.3	-40.11
240.517	50
240.735	78.68
240.952	107.35
241.169	105.3
241.386	176.98
241.603	-5.29
241.821	-62.63
242.038	72.53
242.255	154.45
242.472	-7.34
242.689	113.49
242.907	136.02
243.124	62.29
243.341	113.49
243.558	33.62
243.775	-33.96
243.992	11.09
244.209	70.48
244.426	197.46
244.643	64.34
244.86	-36.01
245.078	131.92
245.295	80.72
245.512	70.48
245.729	-9.39
245.946	86.87
246.163	58.2
246.38	-21.67
246.597	90.96
246.814	-1.19
247.031	82.77
247.248	103.25
247.464	127.83
247.681	50
247.898	82.77
248.115	127.83
248.332	84.82
248.549	205.65
248.766	158.55
248.983	142.16
249.2	148.31
249.417	82.77
249.633	35.67
249.85	101.2
250.067	13.14
250.284	103.25
250.501	76.63
250.717	62.29
250.934	-50.35
251.151	-15.53
251.368	66.39
251.585	99.16
251.801	72.53
252.018	-79.02
252.235	78.68
252.451	-27.82
252.668	-13.48
252.885	70.48
253.102	93.01
253.318	13.14
253.535	37.72
253.752	-27.82
253.968	-36.01
254.185	-36.01
254.401	37.72
254.618	72.53
254.835	15.19
255.051	207.7
255.268	84.82
255.484	62.29
255.701	103.25
255.917	39.76
256.134	-13.48
256.351	-15.53
256.567	-33.96
256.784	88.92
257	-62.63
257.217	95.06
257.433	74.58
257.65	-17.58
257.866	179.03
258.082	21.33
258.299	4.95
258.515	88.92
258.732	-25.77
258.948	52.05
259.165	80.72
259.381	-11.43
259.597	56.15
259.814	78.68
260.03	68.44
260.246	84.82
260.463	172.88
260.679	162.64
260.895	33.62
261.112	82.77
261.328	47.96
261.544	-56.49
261.761	166.74
261.977	21.33
262.193	-111.78
262.409	62.29
262.626	43.86
262.842	99.16
263.058	15.19
263.274	43.86
263.49	82.77
263.707	60.24
263.923	115.54
264.139	-9.39
264.355	70.48
264.571	119.64
264.787	88.92
265.004	90.96
265.22	45.91
265.436	66.39
265.652	47.96
265.868	9.05
266.084	0.85
266.3	84.82
266.516	-13.48
266.732	41.81
266.948	78.68
267.164	-5.29
267.38	103.25
267.596	101.2
267.812	232.27
268.028	19.29
268.244	86.87
268.46	191.31
268.676	-13.48
268.892	90.96
269.108	54.1
269.324	-48.3
269.54	78.68
269.756	97.11
269.972	-17.58
270.188	29.52
270.403	9.05
270.619	13.14
270.835	121.68
271.051	129.88
271.267	23.38
271.483	58.2
271.698	86.87
271.914	115.54
272.13	41.81
272.346	11.09
272.562	-3.24
272.777	136.02
272.993	0.85
273.209	33.62
273.425	86.87
273.64	-38.06
273.856	136.02
274.072	23.38
274.287	-48.3
274.503	101.2
274.719	123.73
274.934	27.48
275.15	-74.92
275.366	37.72
275.581	11.09
275.797	-3.24
276.012	52.05
276.228	82.77
276.444	82.77
276.659	119.64
276.875	-15.53
277.09	54.1
277.306	45.91
277.521	41.81
277.737	7
277.952	142.16
278.168	33.62
278.383	37.72
278.599	84.82
278.814	78.68
279.03	90.96
279.245	201.55
279.461	35.67
279.676	140.12
279.892	-50.35
280.107	31.57
280.322	31.57
280.538	74.58
280.753	-85.16
280.969	127.83
281.184	117.59
281.399	203.6
281.615	31.57
281.83	25.43
282.045	19.29
282.26	70.48
282.476	103.25
282.691	123.73
282.906	80.72
283.122	66.39
283.337	-36.01
283.552	131.92
283.767	33.62
283.983	187.22
284.198	76.63
284.413	144.21
284.628	-25.77
284.843	166.74
285.058	107.35
285.274	37.72
285.489	41.81
285.704	125.78
285.919	-25.77
286.134	52.05
286.349	78.68
286.564	-27.82
286.779	162.64
286.995	54.1
287.21	4.95
287.425	68.44
287.64	7
287.855	133.97
288.07	-13.48
288.285	97.11
288.5	47.96
288.715	99.16
288.93	43.86
289.145	-15.53
289.36	62.29
289.575	-7.34
289.79	54.1
290.004	43.86
290.219	93.01
290.434	2.9
290.649	-25.77
290.864	0.85
291.079	31.57
291.294	64.34
291.509	166.74
291.724	-40.11
291.938	25.43
292.153	54.1
292.368	11.09
292.583	43.86
292.798	86.87
293.012	82.77
293.227	66.39
293.442	0.85
293.657	45.91
293.871	99.16
294.086	78.68
294.301	160.59
294.516	82.77
294.73	41.81
294.945	-40.11
295.16	21.33
295.374	78.68
295.589	240.47
295.804	-13.48
296.018	29.52
296.233	142.16
296.447	43.86
296.662	-23.72
296.877	179.03
297.091	66.39
297.306	7
297.52	56.15
297.735	95.06
297.949	150.36
298.164	50
298.378	54.1
298.593	-3.24
298.807	47.96
299.022	103.25
299.236	125.78
299.451	17.24
299.665	9.05
299.88	60.24
300.094	66.39
300.309	68.44
300.523	54.1
300.737	66.39
300.952	9.05
301.166	56.15
301.381	-1.19
301.595	17.24
301.809	-5.29
302.024	31.57
302.238	-31.91
302.452	148.31
302.667	33.62
302.881	131.92
303.095	31.57
303.309	43.86
303.524	39.76
303.738	86.87
303.952	33.62
304.166	142.16
304.381	-76.97
304.595	195.41
304.809	4.95
305.023	7
305.237	4.95
305.452	78.68
305.666	156.5
305.88	133.97
306.094	123.73
306.308	93.01
306.522	119.64
306.736	109.4
306.95	195.41
307.164	43.86
307.379	95.06
307.593	144.21
307.807	172.88
308.021	123.73
308.235	119.64
308.449	-38.06
308.663	86.87
308.877	150.36
309.091	123.73
309.305	72.53
309.519	-48.3
309.733	176.98
309.947	-56.49
310.161	25.43
310.374	154.45
310.588	148.31
310.802	-29.87
311.016	31.57
311.23	78.68
311.444	-29.87
311.658	7
311.872	170.83
312.085	181.07
312.299	103.25
312.513	148.31
312.727	43.86
312.941	-31.91
313.154	64.34
313.368	70.48
313.582	56.15
313.796	50
314.009	82.77
314.223	152.4
314.437	88.92
314.651	111.44
314.864	-44.2
315.078	7
315.292	-79.02
315.505	35.67
315.719	33.62
315.933	54.1
316.146	27.48
316.36	-25.77
316.573	56.15
316.787	109.4
317.001	56.15
317.214	-7.34
317.428	-17.58
317.641	-23.72
317.855	68.44
318.068	17.24
318.282	43.86
318.495	181.07
318.709	113.49
318.922	11.09
319.136	183.12
319.349	93.01
319.563	-42.15
319.776	111.44
319.99	43.86
320.203	84.82
320.417	66.39
320.63	62.29
320.843	232.27
321.057	56.15
321.27	25.43
321.483	160.59
321.697	197.46
321.91	2.9
322.124	160.59
322.337	41.81
322.55	-3.24
322.763	80.72
322.977	11.09
323.19	-1.19
323.403	107.35
323.617	164.69
323.83	181.07
324.043	60.24
324.256	74.58
324.469	15.19
324.683	156.5
324.896	127.83
325.109	17.24
325.322	-29.87
325.535	101.2
325.748	142.16
325.962	101.2
326.175	123.73
326.388	129.88
326.601	172.88
326.814	-5.29
327.027	105.3
327.24	101.2
327.453	-15.53
327.666	39.76
327.879	101.2
328.092	86.87
328.305	95.06
328.518	15.19
328.731	2.9
328.944	-5.29
329.157	86.87
329.37	0.85
329.583	185.17
329.796	148.31
330.009	-81.07
330.222	140.12
330.435	168.79
330.648	109.4
330.861	52.05
331.073	-3.24
331.286	99.16
331.499	33.62
331.712	60.24
331.925	74.58
332.138	17.24
332.35	107.35
332.563	29.52
332.776	115.54
332.989	2.9
333.202	37.72
333.414	82.77
333.627	138.07
333.84	95.06
334.053	88.92
334.265	66.39
334.478	58.2
334.691	140.12
334.903	107.35
335.116	21.33
335.329	13.14
335.541	144.21
335.754	162.64
335.966	54.1
336.179	-52.39
336.392	-7.34
336.604	43.86
336.817	93.01
337.029	148.31
337.242	70.48
337.454	80.72
337.667	47.96
337.88	176.98
338.092	66.39
338.305	164.69
338.517	-19.63
338.729	103.25
338.942	195.41
339.154	-44.2
339.367	-68.78
339.579	35.67
339.792	-7.34
340.004	45.91
340.217	-1.19
340.429	72.53
340.641	43.86
340.854	-46.25
341.066	88.92
341.278	219.99
341.491	201.55
341.703	70.48
341.915	29.52
342.128	119.64
342.34	105.3
342.552	4.95
342.764	80.72
342.977	76.63
343.189	115.54
343.401	125.78
343.613	-42.15
343.826	74.58
344.038	-13.48
344.25	68.44
344.462	-15.53
344.674	90.96
344.886	-7.34
345.099	21.33
345.311	103.25
345.523	107.35
345.735	-36.01
345.947	113.49
346.159	127.83
346.371	15.19
346.583	-56.49
346.795	209.75
347.007	21.33
347.219	41.81
347.431	74.58
347.643	93.01
347.855	54.1
348.067	131.92
348.279	-60.59
348.491	64.34
348.703	88.92
348.915	70.48
349.127	7
349.339	64.34
349.551	43.86
349.763	101.2
349.975	9.05
350.187	113.49
350.399	125.78
350.61	156.5
350.822	39.76
351.034	99.16
351.246	25.43
351.458	11.09
351.669	97.11
351.881	68.44
352.093	181.07
352.305	72.53
352.517	119.64
352.728	150.36
352.94	115.54
353.152	95.06
353.363	88.92
353.575	97.11
353.787	254.8
353.999	27.48
354.21	195.41
354.422	-36.01
354.633	93.01
354.845	31.57
355.057	76.63
355.268	82.77
355.48	125.78
355.692	7
355.903	82.77
356.115	35.67
356.326	-95.4
356.538	127.83
356.749	119.64
356.961	146.26
357.172	4.95
357.384	-83.11
357.595	158.55
357.807	15.19
358.018	64.34
358.23	68.44
358.441	168.79
358.653	131.92
358.864	17.24
359.075	29.52
359.287	25.43
359.498	121.68
359.709	82.77
359.921	58.2
360.132	115.54
360.344	23.38
360.555	33.62
360.766	-40.11
360.977	62.29
361.189	115.54
361.4	62.29
361.611	121.68
361.823	219.99
362.034	52.05
362.245	74.58
362.456	-9.39
362.667	170.83
362.879	-31.91
363.09	66.39
363.301	68.44
363.512	90.96
363.723	0.85
363.935	19.29
364.146	97.11
364.357	105.3
364.568	9.05
364.779	68.44
364.99	111.44
365.201	21.33
365.412	103.25
365.623	-42.15
365.834	152.4
366.045	4.95
366.256	58.2
366.467	88.92
366.678	37.72
366.889	60.24
367.1	37.72
367.311	99.16
367.522	68.44
367.733	193.36
367.944	142.16
368.155	125.78
368.366	127.83
368.577	82.77
368.788	160.59
368.999	39.76
369.209	62.29
369.42	168.79
369.631	258.9
369.842	119.64
370.053	-13.48
370.264	138.07
370.474	23.38
370.685	95.06
370.896	47.96
371.107	164.69
371.317	60.24
371.528	70.48
371.739	168.79
371.95	64.34
372.16	140.12
372.371	-13.48
372.582	21.33
372.792	107.35
373.003	62.29
373.214	97.11
373.424	95.06
373.635	-11.43
373.846	115.54
374.056	62.29
374.267	101.2
374.477	74.58
374.688	39.76
374.898	95.06
375.109	17.24
375.319	70.48
375.53	154.45
375.74	47.96
375.951	-3.24
376.161	66.39
376.372	90.96
376.582	-23.72
376.793	60.24
377.003	-9.39
377.214	-5.29
377.424	80.72
377.635	74.58
377.845	11.09
378.055	154.45
378.266	-70.83
378.476	-25.77
378.686	93.01
378.897	103.25
379.107	193.36
379.317	43.86
379.528	56.15
379.738	160.59
379.948	-29.87
380.158	131.92
380.369	64.34
380.579	9.05
380.789	97.11
380.999	144.21
381.21	86.87
381.42	179.03
381.63	35.67
381.84	156.5
382.05	64.34
382.261	123.73
382.471	97.11
382.681	-50.35
382.891	117.59
383.101	-1.19
383.311	-7.34
383.521	9.05
383.731	115.54
383.941	140.12
384.151	-36.01
384.361	103.25
384.571	117.59
384.781	4.95
384.991	275.28
385.201	230.23
385.411	82.77
385.621	176.98
385.831	19.29
386.041	123.73
386.251	47.96
386.461	97.11
386.671	99.16
386.881	80.72
387.091	29.52
387.301	78.68
387.511	43.86
387.72	213.84
387.93	127.83
388.14	56.15
388.35	93.01
388.56	138.07
388.769	123.73
388.979	76.63
389.189	-50.35
389.399	131.92
389.609	105.3
389.818	54.1
390.028	115.54
390.238	66.39
390.447	-44.2
390.657	125.78
390.867	115.54
391.076	35.67
391.286	93.01
391.496	64.34
391.705	33.62
391.915	111.44
392.125	150.36
392.334	70.48
392.544	199.51
392.753	50
392.963	-19.63
393.172	88.92
393.382	-21.67
393.591	193.36
393.801	15.19
394.01	248.66
394.22	191.31
394.429	103.25
394.639	-13.48
394.848	50
395.058	72.53
395.267	54.1
395.477	127.83
395.686	152.4
395.895	144.21
396.105	244.56
396.314	70.48
396.524	45.91
396.733	101.2
396.942	109.4
397.152	78.68
397.361	136.02
397.57	146.26
397.78	43.86
397.989	80.72
398.198	207.7
398.407	31.57
398.617	31.57
398.826	13.14
399.035	97.11
399.244	115.54
399.453	-15.53
399.663	64.34
399.872	11.09
400.081	-19.63
400.29	115.54
400.499	-48.3
400.708	115.54
400.917	47.96
401.127	37.72
401.336	72.53
401.545	207.7
401.754	174.93
401.963	103.25
402.172	78.68
402.381	-42.15
402.59	74.58
402.799	66.39
403.008	140.12
403.217	35.67
403.426	154.45
403.635	-44.2
403.844	54.1
404.053	7
404.262	17.24
404.471	269.14
404.68	131.92
404.888	29.52
405.097	72.53
405.306	72.53
405.515	244.56
405.724	52.05
405.933	133.97
406.142	50
406.35	72.53
406.559	64.34
406.768	33.62
406.977	166.74
407.185	88.92
407.394	121.68
407.603	-60.59
407.812	39.76
408.02	201.55
408.229	113.49
408.438	103.25
408.646	-89.26
408.855	45.91
409.064	133.97
409.272	56.15
409.481	31.57
409.69	-3.24
409.898	-36.01
410.107	148.31
410.315	140.12
410.524	47.96
410.733	-36.01
410.941	45.91
411.15	138.07
411.358	168.79
411.567	179.03
411.775	25.43
411.984	60.24
412.192	138.07
412.401	43.86
412.609	129.88
412.818	191.31
413.026	93.01
413.234	19.29
413.443	45.91
413.651	33.62
413.86	23.38
414.068	160.59
414.276	187.22
414.485	70.48
414.693	183.12
414.901	183.12
415.11	52.05
415.318	52.05
415.526	70.48
415.734	107.35
415.943	84.82
416.151	150.36
416.359	47.96
416.567	0.85
416.776	176.98
416.984	76.63
417.192	197.46
417.4	-5.29
417.608	62.29
417.817	41.81
418.025	103.25
418.233	193.36
418.441	-42.15
418.649	-38.06
418.857	99.16
419.065	217.94
419.273	17.24
419.481	131.92
419.689	54.1
419.897	-23.72
420.105	-9.39
420.313	162.64
420.521	97.11
420.729	146.26
420.937	37.72
421.145	58.2
421.353	123.73
421.561	164.69
421.769	119.64
421.977	50
422.185	103.25
422.393	50
422.601	140.12
422.809	60.24
423.017	105.3
423.224	97.11
423.432	144.21
423.64	68.44
423.848	158.55
424.056	72.53
424.263	84.82
424.471	2.9
424.679	277.33
424.887	15.19
425.094	205.65
425.302	123.73
425.51	76.63
425.718	95.06
425.925	78.68
426.133	97.11
426.341	191.31
426.548	150.36
426.756	113.49
426.964	131.92
427.171	76.63
427.379	113.49
427.586	146.26
427.794	138.07
428.001	158.55
428.209	142.16
428.417	119.64
428.624	127.83
428.832	156.5
429.039	70.48
429.247	76.63
429.454	156.5
429.662	236.37
429.869	162.64
430.076	181.07
430.284	142.16
430.491	265.04
430.699	207.7
430.906	228.18
431.114	88.92
431.321	154.45
431.528	121.68
431.736	88.92
431.943	148.31
432.15	162.64
432.358	215.89
432.565	299.86
432.772	105.3
432.979	275.28
433.187	133.97
433.394	265.04
433.601	172.88
433.808	213.84
434.016	267.09
434.223	217.94
434.43	195.41
434.637	273.23
434.844	248.66
435.052	289.62
435.259	340.82
435.466	316.24
435.673	336.72
435.88	316.24
436.087	320.34
436.294	455.5
436.501	346.96
436.708	361.3
436.915	324.43
437.122	404.3
437.329	281.43
437.537	338.77
437.743	402.26
437.95	570.19
438.157	443.21
438.364	449.36
438.571	467.79
438.778	549.71
438.985	574.28
439.192	607.05
439.399	469.84
439.606	471.89
439.813	600.91
440.02	742.22
440.227	738.12
440.433	695.11
440.64	674.64
440.847	668.49
441.054	744.27
441.261	744.27
441.467	705.35
441.674	621.39
441.881	770.89
442.088	740.17
442.294	838.47
442.501	936.78
442.708	865.1
442.914	983.88
443.121	967.49
443.328	944.97
443.534	1098.56
443.741	1004.36
443.948	930.63
444.154	1168.2
444.361	1303.36
444.568	1141.57
444.774	1258.31
444.981	1203.01
445.187	1362.75
445.394	1366.85
445.6	1338.18
445.807	1553.21
446.013	1512.25
446.22	1403.71
446.426	1678.14
446.633	1702.72
446.839	1794.87
447.046	1514.3
447.252	1946.42
447.459	1891.13
447.665	1831.74
447.871	2134.84
448.078	2192.18
448.284	2181.94
448.491	2323.25
448.697	2487.09
448.903	2468.66
449.11	2503.47
449.316	2573.1
449.522	2632.49
449.728	2712.36
449.935	3009.32
450.141	2956.07
450.347	3246.88
450.553	3236.64
450.76	3244.84
450.966	3361.57
451.172	3371.81
451.378	3654.43
451.584	3662.62
451.791	3990.3
451.997	4117.27
452.203	4117.27
452.409	4211.48
452.615	4438.8
452.821	4408.08
453.027	4416.27
453.233	5096.2
453.44	4936.46
453.646	5028.62
453.852	5292.8
454.058	5550.85
454.264	5659.39
454.47	6136.57
454.676	6140.66
454.882	6589.17
455.088	6394.61
455.294	6841.07
455.5	7125.74
455.705	7520.99
455.911	7520.99
456.117	7836.38
456.323	8116.95
456.529	7985.88
456.735	9005.77
456.941	8919.76
457.147	9470.66
457.352	9405.13
457.558	9925.31
457.764	10595
457.97	10787.5
458.176	11264.68
458.381	11999.9
458.587	11881.12
458.793	12341.91
458.999	12702.36
459.204	14289.53
459.41	14588.53
459.616	14410.36
459.821	15198.83
460.027	15719.01
460.233	16484.95
460.438	16728.66
460.644	17805.89
460.85	17941.06
461.055	18305.6
461.261	19403.31
461.466	19173.94
461.672	19300.91
461.878	21697.03
462.083	21518.86
462.289	21735.95
462.494	22624.76
462.7	23024.12
462.905	23466.48
463.111	25354.71
463.316	26350.02
463.522	26945.98
463.727	27630
463.932	28903.84
464.138	29516.18
464.343	30753.15
464.549	30886.27
464.754	33106.27
464.959	34015.57
465.165	34650.44
465.37	34554.18
465.575	34369.86
465.781	36825.38
465.986	38148.37
466.191	37318.94
466.397	37695.77
466.602	36694.31
466.807	38961.41
467.012	39526.65
467.218	40339.69
467.423	40024.31
467.628	41367.77
467.833	43329.73
468.038	42598.6
468.244	42006.74
468.449	43686.07
