Data from USB4F104151__250__11-20-00-036.txt Node

Date: Wed Feb 26 11:20:00 EST 2025
User: louis
Spectrometer: USB4F10415
Trigger mode: 4
Integration Time (sec): 1.000000E-1
Scans to average: 1
Electric dark correction enabled: true
Nonlinearity correction enabled: false
Boxcar width: 0
XAxis mode: Wavelengths
Number of Pixels in Spectrum: 3648
>>>>>Begin Spectral Data<<<<<
178.204	-356.52
178.424	-356.52
178.644	-356.52
178.864	-368.81
179.084	-446.63
179.304	-18.6
179.524	-20.65
179.744	-18.6
179.964	3.93
180.184	18.26
180.404	87.89
180.624	-30.89
180.844	-32.94
181.064	-12.46
181.283	57.17
181.503	-8.36
181.723	-24.75
181.943	-96.43
182.163	171.86
182.383	-6.31
182.602	73.56
182.822	118.61
183.042	75.6
183.262	10.07
183.482	-73.9
183.701	59.22
183.921	-4.27
184.141	-26.79
184.361	118.61
184.58	85.84
184.8	51.03
185.02	-37.03
185.239	106.32
185.459	71.51
185.679	120.66
185.898	-98.47
186.118	38.74
186.338	-12.46
186.557	149.33
186.777	-55.47
186.997	-4.27
187.216	40.79
187.436	204.63
187.655	114.52
187.875	59.22
188.095	40.79
188.314	147.28
188.534	81.75
188.753	-14.51
188.973	77.65
189.192	130.9
189.412	73.56
189.631	67.41
189.851	40.79
190.07	132.95
190.29	-49.32
190.509	30.55
190.729	61.27
190.948	210.77
191.168	239.44
191.387	69.46
191.607	-45.23
191.826	102.23
192.045	108.37
192.265	3.93
192.484	118.61
192.704	40.79
192.923	-6.31
193.142	175.95
193.362	128.85
193.581	206.67
193.8	139.09
194.02	83.8
194.239	53.08
194.458	173.91
194.678	-2.22
194.897	-41.13
195.116	112.47
195.335	100.18
195.555	141.14
195.774	57.17
195.993	186.19
196.212	104.28
196.432	32.6
196.651	30.55
196.87	34.64
197.089	247.63
197.308	46.93
197.528	155.47
197.747	14.17
197.966	75.6
198.185	212.82
198.404	-34.99
198.623	169.81
198.842	130.9
199.062	182.1
199.281	118.61
199.5	132.95
199.719	81.75
199.938	141.14
200.157	53.08
200.376	114.52
200.595	163.67
200.814	118.61
201.033	8.02
201.252	200.53
201.471	59.22
201.69	48.98
201.909	14.17
202.128	46.93
202.347	51.03
202.566	46.93
202.785	18.26
203.004	124.76
203.223	255.83
203.442	51.03
203.661	-26.79
203.879	38.74
204.098	77.65
204.317	-22.7
204.536	145.24
204.755	26.45
204.974	128.85
205.193	51.03
205.411	190.29
205.63	71.51
205.849	14.17
206.068	-28.84
206.287	38.74
206.505	128.85
206.724	18.26
206.943	-39.08
207.162	40.79
207.381	104.28
207.599	8.02
207.818	55.12
208.037	40.79
208.255	132.95
208.474	98.13
208.693	67.41
208.911	-2.22
209.13	126.8
209.349	114.52
209.567	147.28
209.786	94.04
210.005	32.6
210.223	46.93
210.442	-43.18
210.661	-4.27
210.879	26.45
211.098	-22.7
211.316	-37.03
211.535	112.47
211.753	83.8
211.972	73.56
212.191	116.56
212.409	-20.65
212.628	122.71
212.846	22.36
213.065	118.61
213.283	77.65
213.502	94.04
213.72	-2.22
213.938	57.17
214.157	14.17
214.375	139.09
214.594	42.84
214.812	61.27
215.031	83.8
215.249	44.88
215.467	126.8
215.686	16.21
215.904	65.36
216.122	-4.27
216.341	163.67
216.559	106.32
216.778	59.22
216.996	200.53
217.214	22.36
217.432	48.98
217.651	-6.31
217.869	81.75
218.087	18.26
218.306	-16.55
218.524	40.79
218.742	71.51
218.96	100.18
219.179	24.4
219.397	24.4
219.615	237.39
219.833	42.84
220.051	-22.7
220.27	81.75
220.488	227.15
220.706	102.23
220.924	32.6
221.142	69.46
221.36	55.12
221.578	120.66
221.796	75.6
222.015	89.94
222.233	100.18
222.451	157.52
222.669	-26.79
222.887	122.71
223.105	-88.23
223.323	-39.08
223.541	36.69
223.759	77.65
223.977	40.79
224.195	145.24
224.413	63.32
224.631	69.46
224.849	130.9
225.067	231.25
225.285	10.07
225.503	71.51
225.721	-96.43
225.939	32.6
226.157	8.02
226.375	261.97
226.592	114.52
226.81	53.08
227.028	110.42
227.246	132.95
227.464	147.28
227.682	153.43
227.9	124.76
228.117	65.36
228.335	65.36
228.553	94.04
228.771	-4.27
228.989	42.84
229.206	85.84
229.424	40.79
229.642	30.55
229.86	-57.51
230.077	175.95
230.295	42.84
230.513	116.56
230.731	75.6
230.948	216.91
231.166	210.77
231.384	46.93
231.601	42.84
231.819	132.95
232.037	40.79
232.254	10.07
232.472	173.91
232.689	46.93
232.907	126.8
233.125	-16.55
233.342	14.17
233.56	34.64
233.777	38.74
233.995	96.08
234.213	71.51
234.43	1.88
234.648	55.12
234.865	22.36
235.083	104.28
235.3	81.75
235.518	108.37
235.735	108.37
235.953	94.04
236.17	18.26
236.388	28.5
236.605	10.07
236.822	116.56
237.04	198.48
237.257	106.32
237.475	-30.89
237.692	46.93
237.909	36.69
238.127	24.4
238.344	83.8
238.562	132.95
238.779	-22.7
238.996	-39.08
239.214	-4.27
239.431	63.32
239.648	34.64
239.865	143.19
240.083	81.75
240.3	-12.46
240.517	102.23
240.735	77.65
240.952	79.7
241.169	81.75
241.386	69.46
241.603	34.64
241.821	53.08
242.038	151.38
242.255	96.08
242.472	-88.23
242.689	122.71
242.907	40.79
243.124	67.41
243.341	40.79
243.558	24.4
243.775	-28.84
243.992	-32.94
244.209	40.79
244.426	180.05
244.643	120.66
244.86	94.04
245.078	104.28
245.295	61.27
245.512	-16.55
245.729	48.98
245.946	5.97
246.163	8.02
246.38	77.65
246.597	16.21
246.814	59.22
247.031	159.57
247.248	1.88
247.464	157.52
247.681	73.56
247.898	57.17
248.115	135
248.332	-6.31
248.549	98.13
248.766	221.01
248.983	159.57
249.2	28.5
249.417	116.56
249.633	20.31
249.85	91.99
250.067	14.17
250.284	87.89
250.501	22.36
250.717	63.32
250.934	-59.56
251.151	91.99
251.368	1.88
251.585	157.52
251.801	83.8
252.018	38.74
252.235	137.04
252.451	18.26
252.668	46.93
252.885	108.37
253.102	89.94
253.318	53.08
253.535	61.27
253.752	8.02
253.968	44.88
254.185	-112.81
254.401	69.46
254.618	8.02
254.835	53.08
255.051	128.85
255.268	61.27
255.484	102.23
255.701	40.79
255.917	120.66
256.134	-24.75
256.351	89.94
256.567	-57.51
256.784	-67.75
257	-32.94
257.217	75.6
257.433	167.76
257.65	51.03
257.866	63.32
258.082	10.07
258.299	-2.22
258.515	120.66
258.732	34.64
258.948	10.07
259.165	57.17
259.381	-32.94
259.597	116.56
259.814	14.17
260.03	63.32
260.246	-24.75
260.463	108.37
260.679	151.38
260.895	79.7
261.112	30.55
261.328	118.61
261.544	14.17
261.761	182.1
261.977	61.27
262.193	-18.6
262.409	153.43
262.626	137.04
262.842	124.76
263.058	18.26
263.274	135
263.49	57.17
263.707	143.19
263.923	87.89
264.139	-77.99
264.355	30.55
264.571	87.89
264.787	59.22
265.004	85.84
265.22	57.17
265.436	-30.89
265.652	12.12
265.868	16.21
266.084	48.98
266.3	36.69
266.516	-84.14
266.732	-14.51
266.948	124.76
267.164	12.12
267.38	40.79
267.596	28.5
267.812	163.67
268.028	71.51
268.244	22.36
268.46	-18.6
268.676	67.41
268.892	55.12
269.108	71.51
269.324	24.4
269.54	-0.17
269.756	85.84
269.972	-6.31
270.188	28.5
270.403	-39.08
270.619	71.51
270.835	51.03
271.051	48.98
271.267	44.88
271.483	104.28
271.698	108.37
271.914	98.13
272.13	44.88
272.346	28.5
272.562	106.32
272.777	94.04
272.993	104.28
273.209	46.93
273.425	61.27
273.64	14.17
273.856	106.32
274.072	36.69
274.287	5.97
274.503	106.32
274.719	141.14
274.934	24.4
275.15	-82.09
275.366	-2.22
275.581	46.93
275.797	75.6
276.012	46.93
276.228	14.17
276.444	67.41
276.659	149.33
276.875	-0.17
277.09	-2.22
277.306	61.27
277.521	126.8
277.737	-8.36
277.952	79.7
278.168	14.17
278.383	44.88
278.599	5.97
278.814	57.17
279.03	-12.46
279.245	206.67
279.461	36.69
279.676	112.47
279.892	-55.47
280.107	-67.75
280.322	112.47
280.538	112.47
280.753	-37.03
280.969	18.26
281.184	-8.36
281.399	182.1
281.615	81.75
281.83	126.8
282.045	59.22
282.26	-24.75
282.476	-30.89
282.691	89.94
282.906	118.61
283.122	36.69
283.337	-22.7
283.552	55.12
283.767	-20.65
283.983	69.46
284.198	73.56
284.413	124.76
284.628	32.6
284.843	102.23
285.058	91.99
285.274	124.76
285.489	-4.27
285.704	57.17
285.919	57.17
286.134	-24.75
286.349	44.88
286.564	44.88
286.779	161.62
286.995	18.26
287.21	-26.79
287.425	120.66
287.64	24.4
287.855	65.36
288.07	-45.23
288.285	102.23
288.5	79.7
288.715	128.85
288.93	-59.56
289.145	46.93
289.36	87.89
289.575	18.26
289.79	69.46
290.004	-57.51
290.219	102.23
290.434	67.41
290.649	8.02
290.864	-4.27
291.079	-6.31
291.294	65.36
291.509	-12.46
291.724	81.75
291.938	32.6
292.153	91.99
292.368	28.5
292.583	48.98
292.798	102.23
293.012	14.17
293.227	100.18
293.442	-47.27
293.657	38.74
293.871	118.61
294.086	147.28
294.301	159.57
294.516	98.13
294.73	71.51
294.945	-65.71
295.16	5.97
295.374	151.38
295.589	128.85
295.804	-4.27
296.018	89.94
296.233	124.76
296.447	28.5
296.662	-55.47
296.877	108.37
297.091	102.23
297.306	75.6
297.52	53.08
297.735	-12.46
297.949	-0.17
298.164	85.84
298.378	61.27
298.593	20.31
298.807	36.69
299.022	5.97
299.236	137.04
299.451	18.26
299.665	1.88
299.88	48.98
300.094	-77.99
300.309	65.36
300.523	61.27
300.737	-24.75
300.952	28.5
301.166	139.09
301.381	-34.99
301.595	-16.55
301.809	-2.22
302.024	12.12
302.238	-22.7
302.452	120.66
302.667	36.69
302.881	110.42
303.095	91.99
303.309	126.8
303.524	5.97
303.738	34.64
303.952	20.31
304.166	149.33
304.381	-63.66
304.595	69.46
304.809	-45.23
305.023	-57.51
305.237	46.93
305.452	34.64
305.666	26.45
305.88	53.08
306.094	73.56
306.308	132.95
306.522	118.61
306.736	-4.27
306.95	22.36
307.164	16.21
307.379	26.45
307.593	165.71
307.807	100.18
308.021	143.19
308.235	57.17
308.449	-69.8
308.663	-6.31
308.877	261.97
309.091	-22.7
309.305	112.47
309.519	-73.9
309.733	198.48
309.947	-20.65
310.161	175.95
310.374	159.57
310.588	87.89
310.802	-47.27
311.016	28.5
311.23	171.86
311.444	-37.03
311.658	65.36
311.872	163.67
312.085	-2.22
312.299	151.38
312.513	167.76
312.727	120.66
312.941	-39.08
313.154	24.4
313.368	32.6
313.582	110.42
313.796	91.99
314.009	-16.55
314.223	112.47
314.437	73.56
314.651	91.99
314.864	-32.94
315.078	110.42
315.292	-55.47
315.505	3.93
315.719	104.28
315.933	75.6
316.146	26.45
316.36	-49.32
316.573	167.76
316.787	116.56
317.001	63.32
317.214	-80.04
317.428	85.84
317.641	-16.55
317.855	-12.46
318.068	40.79
318.282	69.46
318.495	243.54
318.709	87.89
318.922	10.07
319.136	171.86
319.349	161.62
319.563	44.88
319.776	110.42
319.99	-43.18
320.203	85.84
320.417	-37.03
320.63	106.32
320.843	108.37
321.057	67.41
321.27	53.08
321.483	122.71
321.697	116.56
321.91	20.31
322.124	124.76
322.337	79.7
322.55	18.26
322.763	85.84
322.977	71.51
323.19	16.21
323.403	26.45
323.617	69.46
323.83	128.85
324.043	91.99
324.256	69.46
324.469	-96.43
324.683	83.8
324.896	20.31
325.109	-10.41
325.322	-12.46
325.535	38.74
325.748	61.27
325.962	34.64
326.175	89.94
326.388	178
326.601	196.43
326.814	48.98
327.027	69.46
327.24	159.57
327.453	-51.37
327.666	100.18
327.879	169.81
328.092	28.5
328.305	116.56
328.518	-63.66
328.731	-24.75
328.944	132.95
329.157	118.61
329.37	20.31
329.583	180.05
329.796	94.04
330.009	-41.13
330.222	178
330.435	120.66
330.648	139.09
330.861	38.74
331.073	44.88
331.286	106.32
331.499	57.17
331.712	-30.89
331.925	24.4
332.138	32.6
332.35	89.94
332.563	-32.94
332.776	118.61
332.989	-20.65
333.202	-10.41
333.414	40.79
333.627	116.56
333.84	36.69
334.053	94.04
334.265	-10.41
334.478	98.13
334.691	77.65
334.903	98.13
335.116	38.74
335.329	32.6
335.541	32.6
335.754	159.57
335.966	57.17
336.179	42.84
336.392	65.36
336.604	18.26
336.817	132.95
337.029	48.98
337.242	32.6
337.454	112.47
337.667	69.46
337.88	120.66
338.092	59.22
338.305	157.52
338.517	-18.6
338.729	63.32
338.942	126.8
339.154	14.17
339.367	20.31
339.579	46.93
339.792	-45.23
340.004	118.61
340.217	102.23
340.429	24.4
340.641	46.93
340.854	55.12
341.066	36.69
341.278	128.85
341.491	192.34
341.703	-8.36
341.915	24.4
342.128	63.32
342.34	106.32
342.552	-16.55
342.764	53.08
342.977	57.17
343.189	65.36
343.401	51.03
343.613	-102.57
343.826	-6.31
344.038	-8.36
344.25	28.5
344.462	-47.27
344.674	30.55
344.886	1.88
345.099	57.17
345.311	61.27
345.523	-112.81
345.735	-20.65
345.947	55.12
346.159	40.79
346.371	3.93
346.583	-28.84
346.795	153.43
347.007	63.32
347.219	118.61
347.431	1.88
347.643	137.04
347.855	-16.55
348.067	188.24
348.279	-12.46
348.491	5.97
348.703	96.08
348.915	59.22
349.127	38.74
349.339	73.56
349.551	-8.36
349.763	110.42
349.975	85.84
350.187	38.74
350.399	182.1
350.61	204.63
350.822	98.13
351.034	55.12
351.246	44.88
351.458	98.13
351.669	114.52
351.881	132.95
352.093	157.52
352.305	104.28
352.517	114.52
352.728	137.04
352.94	87.89
353.152	73.56
353.363	-12.46
353.575	51.03
353.787	169.81
353.999	130.9
354.21	231.25
354.422	44.88
354.633	57.17
354.845	40.79
355.057	114.52
355.268	28.5
355.48	57.17
355.692	-37.03
355.903	83.8
356.115	18.26
356.326	-90.28
356.538	182.1
356.749	81.75
356.961	186.19
357.172	57.17
357.384	3.93
357.595	274.26
357.807	20.31
358.018	-26.79
358.23	36.69
358.441	153.43
358.653	116.56
358.864	73.56
359.075	12.12
359.287	112.47
359.498	53.08
359.709	128.85
359.921	79.7
360.132	20.31
360.344	20.31
360.555	8.02
360.766	69.46
360.977	51.03
361.189	190.29
361.4	53.08
361.611	147.28
361.823	182.1
362.034	24.4
362.245	-22.7
362.456	73.56
362.667	91.99
362.879	-41.13
363.09	57.17
363.301	-61.61
363.512	-26.79
363.723	-20.65
363.935	30.55
364.146	112.47
364.357	44.88
364.568	161.62
364.779	-34.99
364.99	184.15
365.201	69.46
365.412	128.85
365.623	-135.34
365.834	63.32
366.045	83.8
366.256	198.48
366.467	114.52
366.678	69.46
366.889	71.51
367.1	38.74
367.311	212.82
367.522	34.64
367.733	118.61
367.944	77.65
368.155	57.17
368.366	145.24
368.577	186.19
368.788	139.09
368.999	5.97
369.209	67.41
369.42	245.59
369.631	194.39
369.842	126.8
370.053	-0.17
370.264	48.98
370.474	73.56
370.685	59.22
370.896	-30.89
371.107	81.75
371.317	73.56
371.528	10.07
371.739	157.52
371.95	163.67
372.16	153.43
372.371	-80.04
372.582	-55.47
372.792	122.71
373.003	46.93
373.214	8.02
373.424	98.13
373.635	16.21
373.846	143.19
374.056	118.61
374.267	40.79
374.477	18.26
374.688	48.98
374.898	8.02
375.109	108.37
375.319	102.23
375.53	130.9
375.74	135
375.951	-51.37
376.161	132.95
376.372	124.76
376.582	100.18
376.793	63.32
377.003	-20.65
377.214	57.17
377.424	87.89
377.635	75.6
377.845	34.64
378.055	106.32
378.266	-94.38
378.476	71.51
378.686	67.41
378.897	59.22
379.107	48.98
379.317	71.51
379.528	26.45
379.738	73.56
379.948	53.08
380.158	106.32
380.369	65.36
380.579	110.42
380.789	-20.65
380.999	53.08
381.21	130.9
381.42	157.52
381.63	-2.22
381.84	63.32
382.05	40.79
382.261	196.43
382.471	137.04
382.681	-24.75
382.891	173.91
383.101	89.94
383.311	5.97
383.521	16.21
383.731	120.66
383.941	124.76
384.151	143.19
384.361	-47.27
384.571	120.66
384.781	91.99
384.991	227.15
385.201	208.72
385.411	61.27
385.621	98.13
385.831	98.13
386.041	53.08
386.251	-0.17
386.461	96.08
386.671	-45.23
386.881	81.75
387.091	79.7
387.301	106.32
387.511	94.04
387.72	110.42
387.93	75.6
388.14	20.31
388.35	73.56
388.56	98.13
388.769	130.9
388.979	34.64
389.189	8.02
389.399	-16.55
389.609	116.56
389.818	81.75
390.028	126.8
390.238	71.51
390.447	-2.22
390.657	61.27
390.867	46.93
391.076	-24.75
391.286	44.88
391.496	73.56
391.705	104.28
391.915	139.09
392.125	112.47
392.334	14.17
392.544	147.28
392.753	85.84
392.963	30.55
393.172	28.5
393.382	44.88
393.591	139.09
393.801	42.84
394.01	261.97
394.22	36.69
394.429	36.69
394.639	-0.17
394.848	51.03
395.058	32.6
395.267	89.94
395.477	98.13
395.686	65.36
395.895	194.39
396.105	169.81
396.314	46.93
396.524	26.45
396.733	53.08
396.942	104.28
397.152	77.65
397.361	128.85
397.57	91.99
397.78	83.8
397.989	108.37
398.198	163.67
398.407	73.56
398.617	83.8
398.826	-12.46
399.035	18.26
399.244	139.09
399.453	59.22
399.663	48.98
399.872	61.27
400.081	-75.95
400.29	151.38
400.499	3.93
400.708	100.18
400.917	61.27
401.127	61.27
401.336	73.56
401.545	216.91
401.754	94.04
401.963	100.18
402.172	98.13
402.381	-24.75
402.59	1.88
402.799	18.26
403.008	165.71
403.217	100.18
403.426	108.37
403.635	3.93
403.844	83.8
404.053	5.97
404.262	14.17
404.471	216.91
404.68	16.21
404.888	12.12
405.097	-0.17
405.306	153.43
405.515	81.75
405.724	57.17
405.933	77.65
406.142	40.79
406.35	161.62
406.559	34.64
406.768	102.23
406.977	91.99
407.185	46.93
407.394	44.88
407.603	24.4
407.812	38.74
408.02	171.86
408.229	141.14
408.438	57.17
408.646	-84.14
408.855	102.23
409.064	38.74
409.272	55.12
409.481	42.84
409.69	3.93
409.898	24.4
410.107	18.26
410.315	116.56
410.524	-30.89
410.733	51.03
410.941	32.6
411.15	161.62
411.358	180.05
411.567	180.05
411.775	69.46
411.984	77.65
412.192	124.76
412.401	59.22
412.609	192.34
412.818	145.24
413.026	118.61
413.234	-6.31
413.443	-34.99
413.651	-2.22
413.86	61.27
414.068	149.33
414.276	304.98
414.485	14.17
414.693	120.66
414.901	218.96
415.11	135
415.318	5.97
415.526	73.56
415.734	169.81
415.943	51.03
416.151	198.48
416.359	-0.17
416.567	108.37
416.776	100.18
416.984	100.18
417.192	132.95
417.4	-6.31
417.608	77.65
417.817	26.45
418.025	145.24
418.233	198.48
418.441	96.08
418.649	1.88
418.857	73.56
419.065	173.91
419.273	-10.41
419.481	77.65
419.689	32.6
419.897	44.88
420.105	24.4
420.313	44.88
420.521	149.33
420.729	135
420.937	57.17
421.145	-34.99
421.353	85.84
421.561	163.67
421.769	114.52
421.977	-10.41
422.185	102.23
422.393	3.93
422.601	153.43
422.809	96.08
423.017	73.56
423.224	118.61
423.432	157.52
423.64	57.17
423.848	116.56
424.056	-2.22
424.263	63.32
424.471	102.23
424.679	180.05
424.887	63.32
425.094	182.1
425.302	122.71
425.51	36.69
425.718	77.65
425.925	46.93
426.133	-20.65
426.341	206.67
426.548	53.08
426.756	73.56
426.964	186.19
427.171	14.17
427.379	122.71
427.586	132.95
427.794	104.28
428.001	161.62
428.209	149.33
428.417	128.85
428.624	171.86
428.832	85.84
429.039	87.89
429.247	194.39
429.454	106.32
429.662	124.76
429.869	126.8
430.076	98.13
430.284	173.91
430.491	229.2
430.699	186.19
430.906	257.87
431.114	161.62
431.321	192.34
431.528	120.66
431.736	91.99
431.943	192.34
432.15	135
432.358	190.29
432.565	280.4
432.772	-39.08
432.979	264.02
433.187	194.39
433.394	245.59
433.601	167.76
433.808	225.11
434.016	280.4
434.223	245.59
434.43	229.2
434.637	261.97
434.844	343.89
435.052	266.07
435.259	247.63
435.466	241.49
435.673	288.59
435.88	286.54
436.087	440.14
436.294	311.12
436.501	329.55
436.708	274.26
436.915	245.59
437.122	339.79
437.329	255.83
437.537	444.24
437.743	362.32
437.95	409.42
438.157	386.9
438.364	341.84
438.571	442.19
438.778	556.88
438.985	470.86
439.192	450.38
439.399	542.54
439.606	505.68
439.813	644.94
440.02	544.59
440.227	667.47
440.433	671.56
440.64	507.73
440.847	501.58
441.054	610.12
441.261	710.47
441.467	663.37
441.674	612.17
441.881	780.11
442.088	683.85
442.294	802.63
442.501	886.6
442.708	792.39
442.914	782.15
443.121	814.92
443.328	907.08
443.534	1120.07
443.741	1036.1
443.948	907.08
444.154	1025.86
444.361	1197.89
444.568	1175.36
444.774	1099.59
444.981	1097.54
445.187	1279.81
445.394	1242.95
445.6	1208.13
445.807	1408.83
446.013	1302.34
446.22	1302.34
446.426	1531.71
446.633	1523.52
446.839	1736.51
447.046	1406.78
447.252	1824.57
447.459	1572.67
447.665	1736.51
447.871	1994.55
448.078	1939.26
448.284	1933.11
448.491	2189.11
448.697	2185.01
448.903	2256.69
449.11	2318.13
449.316	2207.54
449.522	2623.28
449.728	2500.4
449.935	2664.24
450.141	2662.19
450.347	2971.43
450.553	2823.98
450.76	2944.81
450.966	3047.21
451.172	3159.85
451.378	3393.31
451.584	3272.48
451.791	3626.78
451.997	3694.36
452.203	3729.18
452.409	3790.62
452.615	4282.13
452.821	4026.14
453.027	4060.95
453.233	4579.09
453.44	4362
453.646	4878.09
453.852	4763.4
454.058	5129.99
454.264	5138.18
454.47	5721.85
454.676	5553.92
454.882	6084.34
455.088	5875.45
455.294	6235.89
455.5	6608.62
455.705	7073.51
455.911	6835.95
456.117	7128.81
456.323	7343.85
456.529	7460.58
456.735	7915.23
456.941	8277.72
457.147	8568.53
457.352	8738.51
457.558	8820.43
457.764	9602.75
457.97	9819.84
458.176	10170.04
458.381	10585.78
458.587	10944.17
458.793	11431.59
458.999	11445.93
459.204	12899.98
459.41	13336.2
459.616	13151.88
459.821	14026.37
460.027	14579.32
460.233	15062.64
460.438	15255.15
460.644	15937.12
460.85	16182.88
461.055	16768.6
461.261	17436.24
461.466	17094.22
461.672	17708.62
461.878	19861.03
462.083	19504.68
462.289	19738.15
462.494	20774.42
462.7	20989.46
462.905	21110.29
463.111	22937.08
463.316	23977.45
463.522	24550.88
463.727	25021.91
463.932	25949.64
464.138	27006.39
464.343	28437.92
464.549	28100.01
464.754	30139.79
464.959	30762.37
465.165	31618.42
465.37	31294.84
465.575	31354.23
465.781	33375.58
465.986	34104.65
466.191	34071.89
466.397	34303.31
466.602	33428.82
466.807	35413.3
467.012	36381.99
467.218	37010.72
467.423	36500.78
467.628	37567.77
467.833	39697.66
468.038	38724.87
