Data from USB4F104151__231__11-06-22-925.txt Node

Date: Wed Feb 26 11:06:22 EST 2025
User: louis
Spectrometer: USB4F10415
Trigger mode: 4
Integration Time (sec): 1.000000E-1
Scans to average: 1
Electric dark correction enabled: true
Nonlinearity correction enabled: false
Boxcar width: 0
XAxis mode: Wavelengths
Number of Pixels in Spectrum: 3648
>>>>>Begin Spectral Data<<<<<
178.204	-368.29
178.424	-368.29
178.644	-368.29
178.864	-392.87
179.084	-353.96
179.304	-50.86
179.524	26.96
179.744	2.39
179.964	55.64
180.184	-13.99
180.404	57.68
180.624	-59.05
180.844	74.07
181.064	-57
181.283	-67.24
181.503	-16.04
181.723	47.44
181.943	-52.91
182.163	178.51
182.383	-5.8
182.602	41.3
182.822	100.69
183.042	51.54
183.262	41.3
183.482	94.55
183.701	2.39
183.921	55.64
184.141	10.58
184.361	104.79
184.58	8.53
184.8	127.32
185.02	-46.76
185.239	98.64
185.459	90.45
185.679	123.22
185.898	-118.44
186.118	22.87
186.338	67.92
186.557	141.65
186.777	-16.04
186.997	12.63
187.216	-63.15
187.436	160.08
187.655	131.41
187.875	155.99
188.095	26.96
188.314	139.6
188.534	170.32
188.753	6.49
188.973	186.71
189.192	170.32
189.412	-28.33
189.631	16.73
189.851	108.88
190.07	127.32
190.29	24.92
190.509	-48.81
190.729	98.64
190.948	98.64
191.168	244.05
191.387	26.96
191.607	80.21
191.826	119.12
192.045	14.68
192.265	22.87
192.484	80.21
192.704	57.68
192.923	-34.47
193.142	119.12
193.362	117.08
193.581	137.56
193.8	96.6
194.02	59.73
194.239	72.02
194.458	110.93
194.678	2.39
194.897	61.78
195.116	35.16
195.335	104.79
195.555	74.07
195.774	-9.9
195.993	158.03
196.212	76.12
196.432	47.44
196.651	-11.95
196.87	121.17
197.089	198.99
197.308	45.4
197.528	131.41
197.747	-7.85
197.966	149.84
198.185	106.84
198.404	-83.63
198.623	160.08
198.842	98.64
199.062	170.32
199.281	86.36
199.5	78.16
199.719	149.84
199.938	22.87
200.157	110.93
200.376	198.99
200.595	139.6
200.814	39.25
201.033	6.49
201.252	268.63
201.471	33.11
201.69	86.36
201.909	43.35
202.128	121.17
202.347	24.92
202.566	51.54
202.785	-48.81
203.004	6.49
203.223	289.1
203.442	16.73
203.661	-26.28
203.879	96.6
204.098	127.32
204.317	-100.01
204.536	90.45
204.755	67.92
204.974	133.46
205.193	6.49
205.411	115.03
205.63	80.21
205.849	61.78
206.068	-5.8
206.287	10.58
206.505	145.75
206.724	43.35
206.943	33.11
207.162	10.58
207.381	59.73
207.599	22.87
207.818	43.35
208.037	16.73
208.255	14.68
208.474	123.22
208.693	18.77
208.911	-22.19
209.13	129.36
209.349	20.82
209.567	72.02
209.786	108.88
210.005	82.26
210.223	53.59
210.442	-81.58
210.661	45.4
210.879	63.83
211.098	41.3
211.316	112.98
211.535	106.84
211.753	131.41
211.972	63.83
212.191	-59.05
212.409	49.49
212.628	184.66
212.846	-36.52
213.065	-44.71
213.283	117.08
213.502	72.02
213.72	-38.57
213.938	115.03
214.157	39.25
214.375	98.64
214.594	0.34
214.812	65.88
215.031	24.92
215.249	22.87
215.467	74.07
215.686	55.64
215.904	158.03
216.122	92.5
216.341	127.32
216.559	82.26
216.778	106.84
216.996	141.65
217.214	-52.91
217.432	74.07
217.651	24.92
217.869	92.5
218.087	43.35
218.306	78.16
218.524	43.35
218.742	45.4
218.96	153.94
219.179	35.16
219.397	33.11
219.615	184.66
219.833	72.02
220.051	63.83
220.27	18.77
220.488	84.31
220.706	88.4
220.924	20.82
221.142	35.16
221.36	119.12
221.578	166.23
221.796	16.73
222.015	69.97
222.233	47.44
222.451	129.36
222.669	39.25
222.887	24.92
223.105	45.4
223.323	6.49
223.541	-28.33
223.759	51.54
223.977	84.31
224.195	143.7
224.413	86.36
224.631	102.74
224.849	45.4
225.067	155.99
225.285	24.92
225.503	41.3
225.721	-26.28
225.939	98.64
226.157	57.68
226.375	209.23
226.592	-18.09
226.81	31.06
227.028	98.64
227.246	135.51
227.464	33.11
227.682	112.98
227.9	43.35
228.117	51.54
228.335	104.79
228.553	53.59
228.771	16.73
228.989	84.31
229.206	139.6
229.424	18.77
229.642	26.96
229.86	-40.62
230.077	166.23
230.295	110.93
230.513	59.73
230.731	100.69
230.948	198.99
231.166	184.66
231.384	-3.75
231.601	39.25
231.819	172.37
232.037	22.87
232.254	22.87
232.472	57.68
232.689	67.92
232.907	166.23
233.125	-5.8
233.342	-34.47
233.56	-1.71
233.777	-1.71
233.995	20.82
234.213	108.88
234.43	92.5
234.648	8.53
234.865	22.87
235.083	49.49
235.3	-13.99
235.518	76.12
235.735	155.99
235.953	135.51
236.17	55.64
236.388	123.22
236.605	76.12
236.822	110.93
237.04	147.8
237.257	192.85
237.475	-42.67
237.692	110.93
237.909	121.17
238.127	-65.19
238.344	63.83
238.562	35.16
238.779	57.68
238.996	-59.05
239.214	22.87
239.431	100.69
239.648	35.16
239.865	131.41
240.083	137.56
240.3	-63.15
240.517	-16.04
240.735	6.49
240.952	184.66
241.169	61.78
241.386	102.74
241.603	98.64
241.821	117.08
242.038	76.12
242.255	59.73
242.472	-22.19
242.689	108.88
242.907	149.84
243.124	35.16
243.341	119.12
243.558	18.77
243.775	18.77
243.992	-61.1
244.209	92.5
244.426	198.99
244.643	61.78
244.86	-13.99
245.078	121.17
245.295	63.83
245.512	20.82
245.729	10.58
245.946	135.51
246.163	121.17
246.38	47.44
246.597	115.03
246.814	72.02
247.031	24.92
247.248	18.77
247.464	117.08
247.681	80.21
247.898	82.26
248.115	133.46
248.332	-38.57
248.549	131.41
248.766	164.18
248.983	121.17
249.2	135.51
249.417	139.6
249.633	18.77
249.85	131.41
250.067	119.12
250.284	84.31
250.501	119.12
250.717	67.92
250.934	-13.99
251.151	49.49
251.368	-20.14
251.585	63.83
251.801	86.36
252.018	-5.8
252.235	131.41
252.451	-32.43
252.668	22.87
252.885	145.75
253.102	110.93
253.318	-63.15
253.535	-9.9
253.752	-24.23
253.968	-1.71
254.185	-42.67
254.401	26.96
254.618	78.16
254.835	-5.8
255.051	164.18
255.268	123.22
255.484	76.12
255.701	35.16
255.917	119.12
256.134	-32.43
256.351	65.88
256.567	-28.33
256.784	137.56
257	-26.28
257.217	76.12
257.433	96.6
257.65	59.73
257.866	201.04
258.082	-169.64
258.299	-44.71
258.515	100.69
258.732	-75.43
258.948	-77.48
259.165	55.64
259.381	12.63
259.597	67.92
259.814	39.25
260.03	26.96
260.246	65.88
260.463	133.46
260.679	166.23
260.895	84.31
261.112	51.54
261.328	24.92
261.544	74.07
261.761	203.09
261.977	-3.75
262.193	26.96
262.409	133.46
262.626	74.07
262.842	18.77
263.058	29.01
263.274	63.83
263.49	41.3
263.707	10.58
263.923	90.45
264.139	-13.99
264.355	67.92
264.571	158.03
264.787	90.45
265.004	135.51
265.22	65.88
265.436	47.44
265.652	24.92
265.868	135.51
266.084	-46.76
266.3	35.16
266.516	-13.99
266.732	74.07
266.948	22.87
267.164	69.97
267.38	192.85
267.596	80.21
267.812	123.22
268.028	104.79
268.244	72.02
268.46	14.68
268.676	-52.91
268.892	35.16
269.108	-54.95
269.324	35.16
269.54	31.06
269.756	166.23
269.972	-61.1
270.188	6.49
270.403	-18.09
270.619	26.96
270.835	106.84
271.051	33.11
271.267	65.88
271.483	4.44
271.698	137.56
271.914	84.31
272.13	39.25
272.346	59.73
272.562	26.96
272.777	184.66
272.993	74.07
273.209	-22.19
273.425	125.27
273.64	-52.91
273.856	108.88
274.072	35.16
274.287	39.25
274.503	82.26
274.719	33.11
274.934	-13.99
275.15	18.77
275.366	61.78
275.581	-38.57
275.797	43.35
276.012	65.88
276.228	-18.09
276.444	96.6
276.659	69.97
276.875	-11.95
277.09	35.16
277.306	90.45
277.521	229.71
277.737	94.55
277.952	125.27
278.168	4.44
278.383	43.35
278.599	41.3
278.814	59.73
279.03	39.25
279.245	43.35
279.461	20.82
279.676	57.68
279.892	-36.52
280.107	-13.99
280.322	-5.8
280.538	108.88
280.753	31.06
280.969	59.73
281.184	63.83
281.399	121.17
281.615	41.3
281.83	108.88
282.045	26.96
282.26	39.25
282.476	29.01
282.691	115.03
282.906	90.45
283.122	33.11
283.337	-3.75
283.552	133.46
283.767	-5.8
283.983	76.12
284.198	-3.75
284.413	16.73
284.628	-77.48
284.843	31.06
285.058	98.64
285.274	35.16
285.489	43.35
285.704	184.66
285.919	-22.19
286.134	53.59
286.349	31.06
286.564	78.16
286.779	39.25
286.995	-11.95
287.21	-95.91
287.425	90.45
287.64	8.53
287.855	53.59
288.07	-42.67
288.285	82.26
288.5	182.61
288.715	176.47
288.93	76.12
289.145	-48.81
289.36	57.68
289.575	-20.14
289.79	131.41
290.004	-7.85
290.219	100.69
290.434	16.73
290.649	4.44
290.864	49.49
291.079	-132.78
291.294	-13.99
291.509	129.36
291.724	-54.95
291.938	4.44
292.153	72.02
292.368	82.26
292.583	94.55
292.798	63.83
293.012	47.44
293.227	29.01
293.442	2.39
293.657	149.84
293.871	155.99
294.086	168.27
294.301	147.8
294.516	149.84
294.73	102.74
294.945	-79.53
295.16	24.92
295.374	147.8
295.589	174.42
295.804	2.39
296.018	63.83
296.233	178.51
296.447	35.16
296.662	-3.75
296.877	80.21
297.091	168.27
297.306	43.35
297.52	18.77
297.735	49.49
297.949	92.5
298.164	102.74
298.378	69.97
298.593	8.53
298.807	-34.47
299.022	115.03
299.236	145.75
299.451	-7.85
299.665	20.82
299.88	-38.57
300.094	94.55
300.309	133.46
300.523	55.64
300.737	-28.33
300.952	145.75
301.166	90.45
301.381	12.63
301.595	49.49
301.809	88.4
302.024	67.92
302.238	59.73
302.452	205.14
302.667	24.92
302.881	117.08
303.095	205.14
303.309	96.6
303.524	12.63
303.738	18.77
303.952	14.68
304.166	119.12
304.381	-112.3
304.595	174.42
304.809	39.25
305.023	24.92
305.237	80.21
305.452	41.3
305.666	141.65
305.88	4.44
306.094	133.46
306.308	98.64
306.522	69.97
306.736	86.36
306.95	174.42
307.164	94.55
307.379	-11.95
307.593	151.89
307.807	252.24
308.021	49.49
308.235	178.51
308.449	16.73
308.663	90.45
308.877	225.62
309.091	55.64
309.305	76.12
309.519	-38.57
309.733	196.95
309.947	16.73
310.161	141.65
310.374	168.27
310.588	82.26
310.802	-40.62
311.016	-1.71
311.23	69.97
311.444	26.96
311.658	78.16
311.872	184.66
312.085	207.19
312.299	98.64
312.513	119.12
312.727	0.34
312.941	-5.8
313.154	41.3
313.368	-59.05
313.582	92.5
313.796	37.2
314.009	45.4
314.223	180.56
314.437	29.01
314.651	153.94
314.864	53.59
315.078	53.59
315.292	49.49
315.505	-63.15
315.719	162.13
315.933	164.18
316.146	0.34
316.36	16.73
316.573	192.85
316.787	61.78
317.001	108.88
317.214	-34.47
317.428	74.07
317.641	-44.71
317.855	-30.38
318.068	78.16
318.282	84.31
318.495	143.7
318.709	39.25
318.922	182.61
319.136	174.42
319.349	24.92
319.563	-3.75
319.776	31.06
319.99	18.77
320.203	121.17
320.417	80.21
320.63	121.17
320.843	127.32
321.057	51.54
321.27	92.5
321.483	168.27
321.697	96.6
321.91	86.36
322.124	98.64
322.337	55.64
322.55	65.88
322.763	78.16
322.977	141.65
323.19	29.01
323.403	-7.85
323.617	92.5
323.83	137.56
324.043	-3.75
324.256	4.44
324.469	-54.95
324.683	104.79
324.896	-1.71
325.109	78.16
325.322	-61.1
325.535	74.07
325.748	117.08
325.962	63.83
326.175	26.96
326.388	149.84
326.601	90.45
326.814	112.98
327.027	69.97
327.24	207.19
327.453	-61.1
327.666	168.27
327.879	125.27
328.092	65.88
328.305	61.78
328.518	-44.71
328.731	96.6
328.944	-20.14
329.157	112.98
329.37	16.73
329.583	188.75
329.796	176.47
330.009	-13.99
330.222	147.8
330.435	94.55
330.648	82.26
330.861	98.64
331.073	72.02
331.286	117.08
331.499	125.27
331.712	39.25
331.925	14.68
332.138	57.68
332.35	100.69
332.563	-9.9
332.776	131.41
332.989	41.3
333.202	8.53
333.414	82.26
333.627	10.58
333.84	137.56
334.053	10.58
334.265	4.44
334.478	-67.24
334.691	55.64
334.903	92.5
335.116	6.49
335.329	29.01
335.541	153.94
335.754	186.71
335.966	41.3
336.179	49.49
336.392	22.87
336.604	33.11
336.817	135.51
337.029	98.64
337.242	24.92
337.454	98.64
337.667	29.01
337.88	186.71
338.092	53.59
338.305	125.27
338.517	6.49
338.729	137.56
338.942	137.56
339.154	8.53
339.367	-16.04
339.579	98.64
339.792	-44.71
340.004	155.99
340.217	74.07
340.429	67.92
340.641	-20.14
340.854	2.39
341.066	74.07
341.278	182.61
341.491	231.76
341.703	63.83
341.915	12.63
342.128	174.42
342.34	24.92
342.552	10.58
342.764	125.27
342.977	35.16
343.189	39.25
343.401	108.88
343.613	-83.63
343.826	18.77
344.038	-13.99
344.25	106.84
344.462	10.58
344.674	86.36
344.886	24.92
345.099	80.21
345.311	108.88
345.523	29.01
345.735	-22.19
345.947	35.16
346.159	10.58
346.371	43.35
346.583	72.02
346.795	143.7
347.007	18.77
347.219	102.74
347.431	-34.47
347.643	149.84
347.855	39.25
348.067	141.65
348.279	-91.82
348.491	65.88
348.703	123.22
348.915	-16.04
349.127	-18.09
349.339	117.08
349.551	-9.9
349.763	149.84
349.975	59.73
350.187	72.02
350.399	90.45
350.61	76.12
350.822	67.92
351.034	117.08
351.246	100.69
351.458	31.06
351.669	69.97
351.881	94.55
352.093	82.26
352.305	102.74
352.517	49.49
352.728	139.6
352.94	176.47
353.152	65.88
353.363	45.4
353.575	41.3
353.787	129.36
353.999	84.31
354.21	194.9
354.422	-9.9
354.633	33.11
354.845	115.03
355.057	98.64
355.268	88.4
355.48	59.73
355.692	-81.58
355.903	45.4
356.115	-5.8
356.326	-83.63
356.538	108.88
356.749	94.55
356.961	182.61
357.172	-9.9
357.384	-9.9
357.595	172.37
357.807	-3.75
358.018	26.96
358.23	41.3
358.441	131.41
358.653	57.68
358.864	88.4
359.075	18.77
359.287	65.88
359.498	139.6
359.709	76.12
359.921	78.16
360.132	49.49
360.344	10.58
360.555	51.54
360.766	78.16
360.977	10.58
361.189	141.65
361.4	145.75
361.611	115.03
361.823	145.75
362.034	67.92
362.245	-1.71
362.456	137.56
362.667	102.74
362.879	-22.19
363.09	153.94
363.301	84.31
363.512	72.02
363.723	65.88
363.935	45.4
364.146	131.41
364.357	12.63
364.568	4.44
364.779	-100.01
364.99	155.99
365.201	-5.8
365.412	98.64
365.623	-30.38
365.834	82.26
366.045	-16.04
366.256	84.31
366.467	151.89
366.678	0.34
366.889	102.74
367.1	12.63
367.311	86.36
367.522	24.92
367.733	84.31
367.944	61.78
368.155	22.87
368.366	129.36
368.577	26.96
368.788	131.41
368.999	-16.04
369.209	57.68
369.42	215.38
369.631	270.67
369.842	82.26
370.053	45.4
370.264	100.69
370.474	26.96
370.685	65.88
370.896	125.27
371.107	151.89
371.317	108.88
371.528	33.11
371.739	172.37
371.95	145.75
372.16	123.22
372.371	-3.75
372.582	49.49
372.792	86.36
373.003	123.22
373.214	133.46
373.424	61.78
373.635	-71.34
373.846	135.51
374.056	39.25
374.267	82.26
374.477	96.6
374.688	-5.8
374.898	115.03
375.109	76.12
375.319	65.88
375.53	133.46
375.74	129.36
375.951	10.58
376.161	-16.04
376.372	149.84
376.582	-46.76
376.793	65.88
377.003	39.25
377.214	47.44
377.424	145.75
377.635	117.08
377.845	-52.91
378.055	147.8
378.266	24.92
378.476	63.83
378.686	155.99
378.897	2.39
379.107	158.03
379.317	82.26
379.528	0.34
379.738	53.59
379.948	-16.04
380.158	123.22
380.369	117.08
380.579	188.75
380.789	2.39
380.999	41.3
381.21	131.41
381.42	190.8
381.63	72.02
381.84	147.8
382.05	80.21
382.261	129.36
382.471	110.93
382.681	-11.95
382.891	145.75
383.101	117.08
383.311	-85.67
383.521	18.77
383.731	141.65
383.941	98.64
384.151	41.3
384.361	2.39
384.571	96.6
384.781	65.88
384.991	196.95
385.201	168.27
385.411	98.64
385.621	117.08
385.831	69.97
386.041	39.25
386.251	-1.71
386.461	37.2
386.671	-46.76
386.881	86.36
387.091	51.54
387.301	153.94
387.511	76.12
387.72	147.8
387.93	127.32
388.14	-145.06
388.35	106.84
388.56	172.37
388.769	131.41
388.979	4.44
389.189	-3.75
389.399	20.82
389.609	78.16
389.818	55.64
390.028	88.4
390.238	201.04
390.447	-48.81
390.657	108.88
390.867	49.49
391.076	-36.52
391.286	129.36
391.496	-24.23
391.705	84.31
391.915	139.6
392.125	153.94
392.334	-13.99
392.544	108.88
392.753	26.96
392.963	-46.76
393.172	94.55
393.382	33.11
393.591	149.84
393.801	22.87
394.01	108.88
394.22	49.49
394.429	31.06
394.639	139.6
394.848	47.44
395.058	121.17
395.267	6.49
395.477	119.12
395.686	129.36
395.895	229.71
396.105	186.71
396.314	119.12
396.524	35.16
396.733	84.31
396.942	180.56
397.152	149.84
397.361	115.03
397.57	45.4
397.78	59.73
397.989	59.73
398.198	153.94
398.407	31.06
398.617	137.56
398.826	67.92
399.035	-28.33
399.244	127.32
399.453	72.02
399.663	12.63
399.872	12.63
400.081	-13.99
400.29	180.56
400.499	22.87
400.708	172.37
400.917	98.64
401.127	80.21
401.336	8.53
401.545	188.75
401.754	141.65
401.963	153.94
402.172	35.16
402.381	-1.71
402.59	41.3
402.799	92.5
403.008	82.26
403.217	78.16
403.426	106.84
403.635	-7.85
403.844	-11.95
404.053	55.64
404.262	16.73
404.471	170.32
404.68	98.64
404.888	35.16
405.097	39.25
405.306	147.8
405.515	153.94
405.724	98.64
405.933	137.56
406.142	106.84
406.35	112.98
406.559	86.36
406.768	35.16
406.977	168.27
407.185	160.08
407.394	131.41
407.603	78.16
407.812	43.35
408.02	125.27
408.229	43.35
408.438	131.41
408.646	-44.71
408.855	88.4
409.064	92.5
409.272	84.31
409.481	115.03
409.69	82.26
409.898	-32.43
410.107	69.97
410.315	121.17
410.524	45.4
410.733	100.69
410.941	90.45
411.15	141.65
411.358	108.88
411.567	139.6
411.775	86.36
411.984	74.07
412.192	168.27
412.401	29.01
412.609	207.19
412.818	274.77
413.026	100.69
413.234	45.4
413.443	92.5
413.651	20.82
413.86	-34.47
414.068	102.74
414.276	231.76
414.485	35.16
414.693	176.47
414.901	143.7
415.11	112.98
415.318	102.74
415.526	31.06
415.734	176.47
415.943	55.64
416.151	102.74
416.359	-7.85
416.567	24.92
416.776	90.45
416.984	55.64
417.192	209.23
417.4	117.08
417.608	18.77
417.817	45.4
418.025	160.08
418.233	184.66
418.441	43.35
418.649	-48.81
418.857	76.12
419.065	131.41
419.273	10.58
419.481	47.44
419.689	129.36
419.897	57.68
420.105	-46.76
420.313	158.03
420.521	301.39
420.729	170.32
420.937	20.82
421.145	67.92
421.353	55.64
421.561	237.91
421.769	112.98
421.977	-48.81
422.185	102.74
422.393	90.45
422.601	108.88
422.809	51.54
423.017	115.03
423.224	72.02
423.432	207.19
423.64	69.97
423.848	153.94
424.056	80.21
424.263	198.99
424.471	26.96
424.679	158.03
424.887	92.5
425.094	250.19
425.302	133.46
425.51	59.73
425.718	92.5
425.925	110.93
426.133	43.35
426.341	268.63
426.548	88.4
426.756	37.2
426.964	102.74
427.171	8.53
427.379	143.7
427.586	94.55
427.794	186.71
428.001	166.23
428.209	166.23
428.417	184.66
428.624	135.51
428.832	102.74
429.039	141.65
429.247	49.49
429.454	153.94
429.662	276.82
429.869	198.99
430.076	192.85
430.284	172.37
430.491	205.14
430.699	213.33
430.906	186.71
431.114	188.75
431.321	194.9
431.528	188.75
431.736	155.99
431.943	231.76
432.15	219.47
432.358	235.86
432.565	330.06
432.772	8.53
432.979	282.96
433.187	164.18
433.394	293.2
433.601	176.47
433.808	301.39
434.016	330.06
434.223	301.39
434.43	211.28
434.637	323.92
434.844	309.58
435.052	301.39
435.259	297.3
435.466	287.06
435.673	297.3
435.88	375.12
436.087	385.36
436.294	342.35
436.501	328.02
436.708	274.77
436.915	383.31
437.122	422.22
437.329	291.15
437.537	391.5
437.743	301.39
437.95	567.63
438.157	414.03
438.364	438.61
438.571	534.86
438.778	477.52
438.985	375.12
439.192	498
439.399	534.86
439.606	491.85
439.813	547.15
440.02	631.12
440.227	721.23
440.433	667.98
440.64	598.35
440.847	534.86
441.054	717.13
441.261	764.23
441.467	739.66
441.674	727.37
441.881	737.61
442.088	649.55
442.294	864.58
442.501	923.98
442.708	938.31
442.914	854.34
443.121	950.6
443.328	1001.8
443.534	1018.18
443.741	1028.42
443.948	899.4
444.154	1126.72
444.361	1368.38
444.568	1227.07
444.774	1218.88
444.981	1315.14
445.187	1513.79
445.394	1319.23
445.6	1352
445.807	1605.95
446.013	1560.89
446.22	1438.02
446.426	1616.19
446.633	1628.48
446.839	1806.65
447.046	1704.25
447.252	1935.67
447.459	1849.66
447.665	1841.47
447.871	2060.6
448.078	2292.02
448.284	2158.9
448.491	2236.72
448.697	2371.89
448.903	2439.47
449.11	2545.97
449.316	2529.58
449.522	2787.63
449.728	2832.68
449.935	2996.52
450.141	2849.07
450.347	3119.4
450.553	3127.59
450.76	3256.61
450.966	3404.07
451.172	3479.84
451.378	3741.98
451.584	3676.45
451.791	3965.21
451.997	3977.5
452.203	4192.53
452.409	4409.62
452.615	4557.07
452.821	4481.3
453.027	4464.91
453.233	5085.45
453.44	4743.44
453.646	4981
453.852	5427.46
454.058	5507.33
454.264	5599.49
454.47	6086.9
454.676	6191.35
454.882	6498.55
455.088	6359.28
455.294	6832.37
455.5	7164.14
455.705	7563.49
455.911	7514.34
456.117	7784.67
456.323	8186.07
456.529	8149.21
456.735	8634.58
456.941	8933.58
457.147	9443.53
457.352	9584.84
457.558	9734.34
457.764	10582.2
457.97	10842.29
458.176	11073.71
458.381	11712.67
458.587	12191.9
458.793	12386.46
458.999	12394.65
459.204	13920.38
459.41	14659.7
459.616	14391.42
459.821	15196.27
460.027	15863.91
460.233	16705.62
460.438	16521.31
460.644	17475.66
460.85	18016.32
461.055	18532.41
461.261	19359.79
461.466	18880.57
461.672	19163.18
461.878	21880.84
462.083	21418
462.289	21780.49
462.494	22906.87
462.7	22820.86
462.905	23148.53
463.111	25034.71
463.316	26259.4
463.522	26857.4
463.727	27563.95
463.932	28888.99
464.138	29540.24
464.343	31035.26
464.549	30957.44
464.754	33398.62
464.959	34357.07
465.165	34799.43
465.37	34418.5
465.575	34447.18
465.781	36808.48
465.986	37830.42
466.191	37238.56
466.397	37551.9
466.602	36947.75
466.807	38911.75
467.012	39669.5
467.218	40242.93
467.423	40337.13
467.628	41739.99
467.833	43220.67
