Data from USB4F104151__106__10-45-31-363.txt Node

Date: Wed Feb 26 10:45:31 EST 2025
User: louis
Spectrometer: USB4F10415
Trigger mode: 4
Integration Time (sec): 1.000000E-1
Scans to average: 1
Electric dark correction enabled: true
Nonlinearity correction enabled: false
Boxcar width: 0
XAxis mode: Wavelengths
Number of Pixels in Spectrum: 3648
>>>>>Begin Spectral Data<<<<<
178.204	-365.39
178.424	-365.39
178.644	-365.39
178.864	-449.36
179.084	-379.73
179.304	-43.86
179.524	13.48
179.744	31.91
179.964	54.44
180.184	52.39
180.404	5.29
180.624	13.48
180.844	-27.48
181.064	-43.86
181.283	-0.85
181.503	-17.24
181.723	-37.72
181.943	-97.11
182.163	181.42
182.383	-33.62
182.602	130.22
182.822	66.73
183.042	128.17
183.262	-99.16
183.482	52.39
183.701	29.87
183.921	31.91
184.141	-4.95
184.361	128.17
184.58	101.55
184.8	17.58
185.02	-43.86
185.239	107.69
185.459	68.78
185.679	138.41
185.898	-93.01
186.118	89.26
186.338	-15.19
186.557	214.18
186.777	-66.39
186.997	5.29
187.216	-0.85
187.436	162.98
187.655	128.17
187.875	97.45
188.095	36.01
188.314	64.68
188.534	130.22
188.753	-43.86
188.973	76.97
189.192	175.27
189.412	3.24
189.631	29.87
189.851	23.72
190.07	158.89
190.29	17.58
190.509	48.3
190.729	76.97
190.948	128.17
191.168	267.43
191.387	27.82
191.607	31.91
191.826	40.11
192.045	-0.85
192.265	-35.67
192.484	99.5
192.704	105.64
192.923	-7
193.142	222.38
193.362	146.6
193.581	156.84
193.8	101.55
194.02	58.54
194.239	50.35
194.458	91.31
194.678	38.06
194.897	-29.52
195.116	17.58
195.335	113.83
195.555	-2.9
195.774	13.48
195.993	154.79
196.212	13.48
196.432	9.39
196.651	21.67
196.87	-7
197.089	212.14
197.308	87.21
197.528	140.46
197.747	-23.38
197.966	-27.48
198.185	181.42
198.404	3.24
198.623	156.84
198.842	146.6
199.062	111.78
199.281	105.64
199.5	11.43
199.719	105.64
199.938	25.77
200.157	54.44
200.376	40.11
200.595	56.49
200.814	79.02
201.033	-64.34
201.252	199.85
201.471	-19.29
201.69	36.01
201.909	109.74
202.128	130.22
202.347	126.12
202.566	42.15
202.785	-80.72
203.004	-88.92
203.223	201.9
203.442	46.25
203.661	-41.81
203.879	46.25
204.098	46.25
204.317	15.53
204.536	103.59
204.755	79.02
204.974	95.4
205.193	66.73
205.411	119.98
205.63	97.45
205.849	38.06
206.068	5.29
206.287	11.43
206.505	60.59
206.724	21.67
206.943	-27.48
207.162	-4.95
207.381	-9.05
207.599	38.06
207.818	105.64
208.037	-15.19
208.255	38.06
208.474	95.4
208.693	85.16
208.911	85.16
209.13	44.2
209.349	79.02
209.567	15.53
209.786	68.78
210.005	76.97
210.223	46.25
210.442	-170.83
210.661	-2.9
210.879	91.31
211.098	-45.91
211.316	50.35
211.535	136.36
211.753	40.11
211.972	23.72
212.191	42.15
212.409	19.63
212.628	107.69
212.846	-41.81
213.065	87.21
213.283	62.63
213.502	50.35
213.72	50.35
213.938	23.72
214.157	23.72
214.375	130.22
214.594	33.96
214.812	115.88
215.031	-21.33
215.249	-7
215.467	48.3
215.686	9.39
215.904	36.01
216.122	89.26
216.341	64.68
216.559	58.54
216.778	138.41
216.996	46.25
217.214	36.01
217.432	-13.14
217.651	-17.24
217.869	113.83
218.087	66.73
218.306	33.96
218.524	72.87
218.742	13.48
218.96	103.59
219.179	1.19
219.397	-2.9
219.615	214.18
219.833	132.26
220.051	31.91
220.27	126.12
220.488	58.54
220.706	122.02
220.924	15.53
221.142	19.63
221.36	9.39
221.578	70.83
221.796	46.25
222.015	58.54
222.233	17.58
222.451	146.6
222.669	-35.67
222.887	89.26
223.105	21.67
223.323	23.72
223.541	-7
223.759	25.77
223.977	40.11
224.195	165.03
224.413	89.26
224.631	66.73
224.849	-19.29
225.067	257.19
225.285	-52.05
225.503	-37.72
225.721	-76.63
225.939	7.34
226.157	81.07
226.375	160.94
226.592	-7
226.81	105.64
227.028	93.35
227.246	87.21
227.464	46.25
227.682	52.39
227.9	38.06
228.117	56.49
228.335	15.53
228.553	74.92
228.771	38.06
228.989	128.17
229.206	83.11
229.424	50.35
229.642	-84.82
229.86	-70.48
230.077	160.94
230.295	44.2
230.513	148.65
230.731	46.25
230.948	165.03
231.166	154.79
231.384	17.58
231.601	5.29
231.819	177.32
232.037	-2.9
232.254	-84.82
232.472	46.25
232.689	29.87
232.907	197.8
233.125	29.87
233.342	-23.38
233.56	-31.57
233.777	50.35
233.995	-21.33
234.213	146.6
234.43	66.73
234.648	5.29
234.865	33.96
235.083	29.87
235.3	33.96
235.518	115.88
235.735	115.88
235.953	95.4
236.17	66.73
236.388	81.07
236.605	-11.09
236.822	115.88
237.04	93.35
237.257	62.63
237.475	-9.05
237.692	93.35
237.909	91.31
238.127	-29.52
238.344	-17.24
238.562	64.68
238.779	29.87
238.996	17.58
239.214	87.21
239.431	81.07
239.648	-23.38
239.865	173.22
240.083	95.4
240.3	-11.09
240.517	60.59
240.735	44.2
240.952	115.88
241.169	19.63
241.386	54.44
241.603	-11.09
241.821	11.43
242.038	70.83
242.255	109.74
242.472	-27.48
242.689	76.97
242.907	144.55
243.124	25.77
243.341	-13.14
243.558	33.96
243.775	-52.05
243.992	-41.81
244.209	107.69
244.426	152.74
244.643	66.73
244.86	7.34
245.078	83.11
245.295	42.15
245.512	-17.24
245.729	17.58
245.946	87.21
246.163	21.67
246.38	13.48
246.597	119.98
246.814	50.35
247.031	74.92
247.248	-21.33
247.464	58.54
247.681	7.34
247.898	52.39
248.115	-19.29
248.332	3.24
248.549	158.89
248.766	167.08
248.983	103.59
249.2	31.91
249.417	62.63
249.633	-33.62
249.85	146.6
250.067	46.25
250.284	70.83
250.501	68.78
250.717	144.55
250.934	-7
251.151	36.01
251.368	-29.52
251.585	52.39
251.801	105.64
252.018	-27.48
252.235	97.45
252.451	-33.62
252.668	-52.05
252.885	130.22
253.102	66.73
253.318	-4.95
253.535	-25.43
253.752	27.82
253.968	-45.91
254.185	-25.43
254.401	62.63
254.618	68.78
254.835	-62.29
255.051	138.41
255.268	93.35
255.484	38.06
255.701	9.39
255.917	36.01
256.134	-31.57
256.351	21.67
256.567	-0.85
256.784	62.63
257	-4.95
257.217	44.2
257.433	167.08
257.65	50.35
257.866	199.85
258.082	-70.48
258.299	19.63
258.515	105.64
258.732	9.39
258.948	-11.09
259.165	64.68
259.381	-47.96
259.597	70.83
259.814	81.07
260.03	50.35
260.246	23.72
260.463	140.46
260.679	146.6
260.895	42.15
261.112	52.39
261.328	52.39
261.544	-17.24
261.761	185.51
261.977	-35.67
262.193	-9.05
262.409	119.98
262.626	3.24
262.842	-4.95
263.058	-23.38
263.274	158.89
263.49	40.11
263.707	38.06
263.923	50.35
264.139	-127.83
264.355	50.35
264.571	109.74
264.787	169.13
265.004	154.79
265.22	15.53
265.436	-62.29
265.652	42.15
265.868	66.73
266.084	72.87
266.3	87.21
266.516	-9.05
266.732	199.85
266.948	15.53
267.164	-17.24
267.38	134.31
267.596	87.21
267.812	154.79
268.028	68.78
268.244	132.26
268.46	42.15
268.676	62.63
268.892	-9.05
269.108	17.58
269.324	1.19
269.54	72.87
269.756	130.22
269.972	-9.05
270.188	27.82
270.403	-17.24
270.619	-25.43
270.835	60.59
271.051	-7
271.267	27.82
271.483	-25.43
271.698	76.97
271.914	64.68
272.13	46.25
272.346	85.16
272.562	83.11
272.777	144.55
272.993	-15.19
273.209	-2.9
273.425	105.64
273.64	29.87
273.856	136.36
274.072	60.59
274.287	31.91
274.503	119.98
274.719	48.3
274.934	68.78
275.15	-99.16
275.366	87.21
275.581	-50
275.797	31.91
276.012	44.2
276.228	9.39
276.444	21.67
276.659	58.54
276.875	11.43
277.09	44.2
277.306	-35.67
277.521	115.88
277.737	38.06
277.952	162.98
278.168	124.07
278.383	119.98
278.599	130.22
278.814	105.64
279.03	-17.24
279.245	81.07
279.461	52.39
279.676	130.22
279.892	13.48
280.107	-58.2
280.322	-29.52
280.538	91.31
280.753	-33.62
280.969	85.16
281.184	79.02
281.399	128.17
281.615	68.78
281.83	62.63
282.045	-56.15
282.26	-2.9
282.476	101.55
282.691	138.41
282.906	11.43
283.122	79.02
283.337	42.15
283.552	74.92
283.767	-21.33
283.983	58.54
284.198	56.49
284.413	52.39
284.628	-58.2
284.843	-2.9
285.058	87.21
285.274	-82.77
285.489	13.48
285.704	40.11
285.919	1.19
286.134	15.53
286.349	58.54
286.564	33.96
286.779	101.55
286.995	17.58
287.21	-13.14
287.425	113.83
287.64	-17.24
287.855	91.31
288.07	25.77
288.285	46.25
288.5	122.02
288.715	99.5
288.93	-9.05
289.145	48.3
289.36	158.89
289.575	-50
289.79	46.25
290.004	5.29
290.219	48.3
290.434	-47.96
290.649	-7
290.864	-52.05
291.079	-9.05
291.294	54.44
291.509	38.06
291.724	-13.14
291.938	-39.76
292.153	58.54
292.368	-33.62
292.583	25.77
292.798	60.59
293.012	46.25
293.227	138.41
293.442	38.06
293.657	122.02
293.871	146.6
294.086	81.07
294.301	214.18
294.516	136.36
294.73	-4.95
294.945	13.48
295.16	62.63
295.374	99.5
295.589	148.65
295.804	3.24
296.018	44.2
296.233	117.93
296.447	89.26
296.662	-13.14
296.877	165.03
297.091	85.16
297.306	-2.9
297.52	-33.62
297.735	52.39
297.949	13.48
298.164	36.01
298.378	54.44
298.593	9.39
298.807	-70.48
299.022	81.07
299.236	205.99
299.451	36.01
299.665	40.11
299.88	89.26
300.094	117.93
300.309	-37.72
300.523	76.97
300.737	17.58
300.952	56.49
301.166	52.39
301.381	-4.95
301.595	48.3
301.809	56.49
302.024	-52.05
302.238	54.44
302.452	181.42
302.667	48.3
302.881	169.13
303.095	136.36
303.309	21.67
303.524	36.01
303.738	40.11
303.952	40.11
304.166	25.77
304.381	-146.26
304.595	130.22
304.809	38.06
305.023	64.68
305.237	33.96
305.452	5.29
305.666	122.02
305.88	93.35
306.094	138.41
306.308	54.44
306.522	70.83
306.736	48.3
306.95	64.68
307.164	5.29
307.379	50.35
307.593	142.5
307.807	119.98
308.021	109.74
308.235	76.97
308.449	-93.01
308.663	21.67
308.877	160.94
309.091	50.35
309.305	89.26
309.519	-82.77
309.733	97.45
309.947	-76.63
310.161	-2.9
310.374	64.68
310.588	162.98
310.802	-4.95
311.016	25.77
311.23	142.5
311.444	-39.76
311.658	31.91
311.872	111.78
312.085	93.35
312.299	152.74
312.513	105.64
312.727	60.59
312.941	13.48
313.154	91.31
313.368	21.67
313.582	122.02
313.796	60.59
314.009	60.59
314.223	101.55
314.437	29.87
314.651	70.83
314.864	-31.57
315.078	11.43
315.292	-78.68
315.505	58.54
315.719	99.5
315.933	124.07
316.146	5.29
316.36	-78.68
316.573	79.02
316.787	115.88
317.001	58.54
317.214	-25.43
317.428	23.72
317.641	99.5
317.855	-9.05
318.068	83.11
318.282	64.68
318.495	154.79
318.709	66.73
318.922	74.92
319.136	89.26
319.349	72.87
319.563	40.11
319.776	74.92
319.99	-50
320.203	136.36
320.417	89.26
320.63	97.45
320.843	138.41
321.057	44.2
321.27	81.07
321.483	66.73
321.697	150.7
321.91	52.39
322.124	48.3
322.337	42.15
322.55	-47.96
322.763	109.74
322.977	66.73
323.19	-37.72
323.403	101.55
323.617	87.21
323.83	58.54
324.043	27.82
324.256	62.63
324.469	-47.96
324.683	113.83
324.896	27.82
325.109	85.16
325.322	-37.72
325.535	50.35
325.748	58.54
325.962	5.29
326.175	3.24
326.388	68.78
326.601	38.06
326.814	99.5
327.027	68.78
327.24	142.5
327.453	5.29
327.666	29.87
327.879	119.98
328.092	52.39
328.305	81.07
328.518	36.01
328.731	13.48
328.944	46.25
329.157	107.69
329.37	33.96
329.583	214.18
329.796	76.97
330.009	-74.58
330.222	150.7
330.435	115.88
330.648	38.06
330.861	87.21
331.073	66.73
331.286	165.03
331.499	113.83
331.712	-19.29
331.925	44.2
332.138	15.53
332.35	117.93
332.563	1.19
332.776	179.37
332.989	-23.38
333.202	15.53
333.414	83.11
333.627	42.15
333.84	42.15
334.053	54.44
334.265	-13.14
334.478	29.87
334.691	-19.29
334.903	95.4
335.116	-29.52
335.329	31.91
335.541	150.7
335.754	165.03
335.966	-33.62
336.179	44.2
336.392	99.5
336.604	48.3
336.817	115.88
337.029	66.73
337.242	99.5
337.454	74.92
337.667	68.78
337.88	152.74
338.092	132.26
338.305	60.59
338.517	15.53
338.729	103.59
338.942	103.59
339.154	-76.63
339.367	1.19
339.579	103.59
339.792	-15.19
340.004	79.02
340.217	21.67
340.429	1.19
340.641	-4.95
340.854	-37.72
341.066	-0.85
341.278	70.83
341.491	199.85
341.703	64.68
341.915	-72.53
342.128	175.27
342.34	-11.09
342.552	11.43
342.764	52.39
342.977	-29.52
343.189	87.21
343.401	64.68
343.613	-15.19
343.826	1.19
344.038	-11.09
344.25	56.49
344.462	15.53
344.674	111.78
344.886	58.54
345.099	144.55
345.311	99.5
345.523	42.15
345.735	-90.96
345.947	87.21
346.159	5.29
346.371	126.12
346.583	76.97
346.795	251.05
347.007	85.16
347.219	76.97
347.431	13.48
347.643	50.35
347.855	-35.67
348.067	144.55
348.279	13.48
348.491	-27.48
348.703	130.22
348.915	-25.43
349.127	-0.85
349.339	119.98
349.551	50.35
349.763	136.36
349.975	79.02
350.187	138.41
350.399	130.22
350.61	40.11
350.822	115.88
351.034	33.96
351.246	58.54
351.458	83.11
351.669	103.59
351.881	74.92
352.093	189.61
352.305	105.64
352.517	70.83
352.728	119.98
352.94	42.15
353.152	29.87
353.363	-9.05
353.575	76.97
353.787	154.79
353.999	126.12
354.21	222.38
354.422	15.53
354.633	27.82
354.845	107.69
355.057	70.83
355.268	-0.85
355.48	72.87
355.692	-68.44
355.903	70.83
356.115	-50
356.326	-19.29
356.538	191.66
356.749	87.21
356.961	214.18
357.172	-0.85
357.384	-2.9
357.595	234.66
357.807	21.67
358.018	-35.67
358.23	-7
358.441	119.98
358.653	3.24
358.864	1.19
359.075	19.63
359.287	179.37
359.498	122.02
359.709	-19.29
359.921	148.65
360.132	60.59
360.344	60.59
360.555	38.06
360.766	81.07
360.977	109.74
361.189	93.35
361.4	5.29
361.611	126.12
361.823	91.31
362.034	62.63
362.245	-17.24
362.456	56.49
362.667	-29.52
362.879	13.48
363.09	76.97
363.301	33.96
363.512	7.34
363.723	-23.38
363.935	-15.19
364.146	167.08
364.357	-2.9
364.568	107.69
364.779	-64.34
364.99	154.79
365.201	-37.72
365.412	173.22
365.623	7.34
365.834	91.31
366.045	44.2
366.256	33.96
366.467	99.5
366.678	46.25
366.889	101.55
367.1	25.77
367.311	66.73
367.522	52.39
367.733	62.63
367.944	142.5
368.155	119.98
368.366	85.16
368.577	134.31
368.788	115.88
368.999	99.5
369.209	79.02
369.42	236.71
369.631	226.47
369.842	150.7
370.053	-56.15
370.264	124.07
370.474	3.24
370.685	62.63
370.896	60.59
371.107	101.55
371.317	105.64
371.528	58.54
371.739	134.31
371.95	79.02
372.16	74.92
372.371	11.43
372.582	27.82
372.792	113.83
373.003	144.55
373.214	64.68
373.424	156.84
373.635	-45.91
373.846	126.12
374.056	89.26
374.267	17.58
374.477	42.15
374.688	46.25
374.898	60.59
375.109	56.49
375.319	66.73
375.53	23.72
375.74	64.68
375.951	-29.52
376.161	115.88
376.372	113.83
376.582	9.39
376.793	44.2
377.003	54.44
377.214	-39.76
377.424	33.96
377.635	101.55
377.845	25.77
378.055	132.26
378.266	-66.39
378.476	91.31
378.686	124.07
378.897	79.02
379.107	122.02
379.317	95.4
379.528	-15.19
379.738	44.2
379.948	-27.48
380.158	144.55
380.369	64.68
380.579	36.01
380.789	46.25
380.999	56.49
381.21	56.49
381.42	259.24
381.63	29.87
381.84	93.35
382.05	87.21
382.261	93.35
382.471	136.36
382.681	38.06
382.891	171.18
383.101	93.35
383.311	-23.38
383.521	-27.48
383.731	117.93
383.941	97.45
384.151	29.87
384.361	46.25
384.571	21.67
384.781	29.87
384.991	158.89
385.201	160.94
385.411	146.6
385.621	-15.19
385.831	87.21
386.041	60.59
386.251	36.01
386.461	132.26
386.671	40.11
386.881	27.82
387.091	64.68
387.301	66.73
387.511	74.92
387.72	36.01
387.93	113.83
388.14	-52.05
388.35	17.58
388.56	152.74
388.769	83.11
388.979	79.02
389.189	29.87
389.399	46.25
389.609	85.16
389.818	72.87
390.028	38.06
390.238	44.2
390.447	19.63
390.657	111.78
390.867	117.93
391.076	-13.14
391.286	17.58
391.496	54.44
391.705	89.26
391.915	242.85
392.125	97.45
392.334	101.55
392.544	124.07
392.753	134.31
392.963	1.19
393.172	-4.95
393.382	9.39
393.591	148.65
393.801	-2.9
394.01	115.88
394.22	124.07
394.429	9.39
394.639	72.87
394.848	76.97
395.058	115.88
395.267	-4.95
395.477	52.39
395.686	83.11
395.895	181.42
396.105	218.28
396.314	-13.14
396.524	70.83
396.733	52.39
396.942	93.35
397.152	79.02
397.361	136.36
397.57	66.73
397.78	91.31
397.989	95.4
398.198	212.14
398.407	-19.29
398.617	62.63
398.826	25.77
399.035	117.93
399.244	105.64
399.453	105.64
399.663	23.72
399.872	109.74
400.081	-2.9
400.29	74.92
400.499	11.43
400.708	130.22
400.917	27.82
401.127	40.11
401.336	-4.95
401.545	154.79
401.754	169.13
401.963	122.02
402.172	5.29
402.381	-13.14
402.59	44.2
402.799	87.21
403.008	101.55
403.217	95.4
403.426	89.26
403.635	-7
403.844	101.55
404.053	-11.09
404.262	58.54
404.471	257.19
404.68	167.08
404.888	7.34
405.097	17.58
405.306	91.31
405.515	128.17
405.724	54.44
405.933	162.98
406.142	70.83
406.35	126.12
406.559	62.63
406.768	11.43
406.977	195.75
407.185	115.88
407.394	72.87
407.603	-19.29
407.812	154.79
408.02	144.55
408.229	66.73
408.438	40.11
408.646	13.48
408.855	27.82
409.064	46.25
409.272	42.15
409.481	70.83
409.69	-41.81
409.898	-84.82
410.107	97.45
410.315	160.94
410.524	-2.9
410.733	11.43
410.941	74.92
411.15	126.12
411.358	128.17
411.567	197.8
411.775	74.92
411.984	42.15
412.192	150.7
412.401	40.11
412.609	236.71
412.818	136.36
413.026	93.35
413.234	72.87
413.443	117.93
413.651	-64.34
413.86	38.06
414.068	242.85
414.276	189.61
414.485	33.96
414.693	148.65
414.901	228.52
415.11	36.01
415.318	74.92
415.526	58.54
415.734	150.7
415.943	60.59
416.151	101.55
416.359	66.73
416.567	89.26
416.776	62.63
416.984	95.4
417.192	218.28
417.4	83.11
417.608	23.72
417.817	93.35
418.025	148.65
418.233	203.94
418.441	-4.95
418.649	-41.81
418.857	60.59
419.065	89.26
419.273	52.39
419.481	99.5
419.689	44.2
419.897	54.44
420.105	54.44
420.313	136.36
420.521	150.7
420.729	160.94
420.937	85.16
421.145	-45.91
421.353	117.93
421.561	113.83
421.769	105.64
421.977	64.68
422.185	115.88
422.393	19.63
422.601	138.41
422.809	105.64
423.017	124.07
423.224	134.31
423.432	173.22
423.64	87.21
423.848	107.69
424.056	54.44
424.263	91.31
424.471	74.92
424.679	203.94
424.887	-0.85
425.094	242.85
425.302	175.27
425.51	46.25
425.718	208.04
425.925	68.78
426.133	40.11
426.341	224.42
426.548	99.5
426.756	140.46
426.964	136.36
427.171	60.59
427.379	93.35
427.586	177.32
427.794	160.94
428.001	126.12
428.209	72.87
428.417	181.42
428.624	122.02
428.832	150.7
429.039	91.31
429.247	138.41
429.454	101.55
429.662	242.85
429.869	187.56
430.076	181.42
430.284	218.28
430.491	146.6
430.699	179.37
430.906	244.9
431.114	113.83
431.321	212.14
431.528	134.31
431.736	218.28
431.943	242.85
432.15	230.57
432.358	287.91
432.565	294.05
432.772	130.22
432.979	261.29
433.187	212.14
433.394	316.58
433.601	117.93
433.808	267.43
434.016	332.97
434.223	330.92
434.43	312.49
434.637	357.54
434.844	408.74
435.052	263.33
435.259	347.3
435.466	332.97
435.673	343.21
435.88	312.49
436.087	425.12
436.294	373.92
436.501	496.8
436.708	328.87
436.915	408.74
437.122	427.17
437.329	384.16
437.537	439.46
437.743	425.12
437.95	519.33
438.157	488.61
438.364	523.43
438.571	601.25
438.778	474.28
438.985	656.54
439.192	625.83
439.399	548
439.606	556.19
439.813	752.8
440.02	758.94
440.227	881.82
440.433	777.37
440.64	756.9
440.847	670.88
441.054	924.83
441.261	890.01
441.467	871.58
441.674	875.68
441.881	982.17
442.088	996.51
442.294	1010.84
442.501	1076.38
442.708	1092.76
442.914	1047.71
443.121	1191.06
443.328	1213.59
443.534	1326.23
443.741	1162.39
443.948	1121.43
444.154	1244.31
444.361	1547.41
444.568	1379.48
444.774	1363.09
444.981	1313.94
445.187	1571.99
445.394	1641.62
445.6	1635.47
445.807	1825.93
446.013	1776.78
446.22	1750.16
446.426	1901.71
446.633	2126.99
446.839	2245.77
447.046	1944.72
447.252	2069.64
447.459	2256.01
447.665	2321.54
447.871	2514.05
448.078	2581.64
448.284	2747.52
448.491	2653.31
448.697	2884.73
448.903	3083.39
449.11	3019.9
449.316	2958.46
449.522	3308.66
449.728	3341.43
449.935	3378.3
450.141	3386.49
450.347	3810.42
450.553	3673.2
450.76	3705.97
450.966	4047.98
451.172	4113.52
451.378	4240.49
451.584	4392.04
451.791	4580.45
451.997	4611.17
452.203	4906.08
452.409	5266.52
452.615	5448.79
452.821	5248.09
453.027	5237.85
453.233	5987.41
453.44	5721.17
453.646	6116.43
453.852	6282.31
454.058	6724.68
454.264	6712.39
454.47	7337.02
454.676	7425.08
454.882	7863.35
455.088	7627.83
455.294	8238.12
455.5	8447.02
455.705	8946.72
455.911	9116.7
456.117	9325.6
456.323	9696.28
456.529	9849.88
456.735	10578.95
456.941	10644.49
457.147	11045.89
457.352	11502.59
457.558	11928.56
457.764	12536.81
457.97	12948.45
458.176	13394.91
458.381	14037.97
458.587	14334.93
458.793	14943.17
458.999	14951.37
459.204	16862.12
459.41	17679.26
459.616	17265.57
459.821	18250.64
460.027	19176.33
460.233	19673.98
460.438	19805.05
460.644	21021.55
460.85	21209.96
461.055	21994.33
461.261	23188.3
461.466	22838.09
461.672	23116.62
461.878	25844.51
462.083	25664.29
462.289	26409.75
462.494	26919.7
462.7	27333.39
462.905	27947.78
463.111	29752.04
463.316	31445.71
463.522	31873.73
463.727	33186.48
463.932	34355.87
464.138	35412.62
464.343	36680.31
464.549	36954.74
464.754	39391.83
464.959	40573.5
465.165	41257.53
465.37	40669.76
465.575	40585.79
465.781	43559.44
465.986	44659.2
466.191	44247.56
466.397	44773.89
466.602	43811.34
466.807	46338.54
467.012	47098.33
467.218	47270.36
467.423	47471.06
467.628	49236.41
467.833	51896.72
468.038	50581.93
468.244	49879.47
468.449	52332.94
