Data from USB4F104151__62__10-43-50-574.txt Node

Date: Wed Feb 26 10:43:50 EST 2025
User: louis
Spectrometer: USB4F10415
Trigger mode: 4
Integration Time (sec): 1.000000E-1
Scans to average: 1
Electric dark correction enabled: true
Nonlinearity correction enabled: false
Boxcar width: 0
XAxis mode: Wavelengths
Number of Pixels in Spectrum: 3648
>>>>>Begin Spectral Data<<<<<
178.204	-336.55
178.424	-336.55
178.644	-336.55
178.864	-375.46
179.084	-432.8
179.304	1.37
179.524	-53.93
179.744	-53.93
179.964	-6.83
180.184	3.41
180.404	56.66
180.624	-49.83
180.844	3.41
181.064	-21.16
181.283	50.52
181.503	-31.4
181.723	101.72
181.943	-88.75
182.163	265.55
182.383	-35.5
182.602	-23.21
182.822	75.09
183.042	50.52
183.262	21.85
183.482	-8.87
183.701	52.56
183.921	40.28
184.141	-105.13
184.361	77.14
184.58	107.86
184.8	54.61
185.02	40.28
185.239	101.72
185.459	21.85
185.679	161.11
185.898	-39.59
186.118	50.52
186.338	124.24
186.557	116.05
186.777	-19.11
186.997	-4.78
187.216	19.8
187.436	202.07
187.655	52.56
187.875	161.11
188.095	13.65
188.314	159.06
188.534	116.05
188.753	-39.59
188.973	95.57
189.192	109.91
189.412	-27.31
189.631	21.85
189.851	62.8
190.07	101.72
190.29	56.66
190.509	-15.02
190.729	56.66
190.948	83.28
191.168	286.03
191.387	87.38
191.607	87.38
191.826	132.44
192.045	34.13
192.265	3.41
192.484	40.28
192.704	-15.02
192.923	-105.13
193.142	200.02
193.362	146.77
193.581	206.16
193.8	83.28
194.02	93.52
194.239	91.48
194.458	87.38
194.678	-49.83
194.897	-37.55
195.116	23.89
195.335	142.68
195.555	44.37
195.774	62.8
195.993	95.57
196.212	32.08
196.432	1.37
196.651	64.85
196.87	23.89
197.089	251.22
197.308	54.61
197.528	87.38
197.747	15.7
197.966	105.81
198.185	179.54
198.404	-66.22
198.623	79.19
198.842	116.05
199.062	109.91
199.281	157.01
199.5	52.56
199.719	25.94
199.938	-12.97
200.157	114
200.376	142.68
200.595	142.68
200.814	38.23
201.033	-27.31
201.252	243.03
201.471	46.42
201.69	54.61
201.909	81.24
202.128	114
202.347	83.28
202.566	60.76
202.785	-6.83
203.004	40.28
203.223	173.39
203.442	87.38
203.661	-31.4
203.879	48.47
204.098	195.92
204.317	-0.68
204.536	68.95
204.755	52.56
204.974	173.39
205.193	-4.78
205.411	116.05
205.63	83.28
205.849	73.04
206.068	-45.74
206.287	-8.87
206.505	183.63
206.724	-10.92
206.943	44.37
207.162	-25.26
207.381	109.91
207.599	17.75
207.818	17.75
208.037	-33.45
208.255	48.47
208.474	81.24
208.693	36.18
208.911	62.8
209.13	103.76
209.349	66.9
209.567	81.24
209.786	42.32
210.005	109.91
210.223	66.9
210.442	-162.47
210.661	17.75
210.879	7.51
211.098	105.81
211.316	32.08
211.535	111.96
211.753	111.96
211.972	111.96
212.191	87.38
212.409	-19.11
212.628	144.72
212.846	36.18
213.065	40.28
213.283	150.87
213.502	1.37
213.72	38.23
213.938	25.94
214.157	58.71
214.375	120.15
214.594	46.42
214.812	75.09
215.031	89.43
215.249	32.08
215.467	85.33
215.686	32.08
215.904	11.61
216.122	44.37
216.341	181.59
216.559	157.01
216.778	109.91
216.996	56.66
217.214	167.25
217.432	140.63
217.651	-33.45
217.869	48.47
218.087	73.04
218.306	89.43
218.524	27.99
218.742	17.75
218.96	159.06
219.179	56.66
219.397	-12.97
219.615	206.16
219.833	83.28
220.051	-0.68
220.27	68.95
220.488	208.21
220.706	83.28
220.924	27.99
221.142	-21.16
221.36	66.9
221.578	62.8
221.796	-51.88
222.015	32.08
222.233	44.37
222.451	95.57
222.669	-4.78
222.887	122.2
223.105	1.37
223.323	9.56
223.541	-35.5
223.759	5.46
223.977	87.38
224.195	200.02
224.413	58.71
224.631	40.28
224.849	68.95
225.067	109.91
225.285	79.19
225.503	-35.5
225.721	-92.84
225.939	-21.16
226.157	56.66
226.375	222.55
226.592	-2.73
226.81	48.47
227.028	105.81
227.246	109.91
227.464	95.57
227.682	138.58
227.9	122.2
228.117	50.52
228.335	89.43
228.553	105.81
228.771	9.56
228.989	40.28
229.206	56.66
229.424	44.37
229.642	-19.11
229.86	23.89
230.077	83.28
230.295	27.99
230.513	71
230.731	87.38
230.948	185.68
231.166	144.72
231.384	73.04
231.601	-27.31
231.819	247.12
232.037	-33.45
232.254	1.37
232.472	-62.12
232.689	-10.92
232.907	93.52
233.125	-21.16
233.342	23.89
233.56	21.85
233.777	52.56
233.995	83.28
234.213	118.1
234.43	124.24
234.648	13.65
234.865	-43.69
235.083	107.86
235.3	48.47
235.518	144.72
235.735	109.91
235.953	124.24
236.17	3.41
236.388	46.42
236.605	46.42
236.822	46.42
237.04	167.25
237.257	105.81
237.475	77.14
237.692	52.56
237.909	85.33
238.127	-19.11
238.344	128.34
238.562	48.47
238.779	-70.31
238.996	11.61
239.214	73.04
239.431	126.29
239.648	-23.21
239.865	120.15
240.083	85.33
240.3	1.37
240.517	126.29
240.735	107.86
240.952	136.53
241.169	64.85
241.386	120.15
241.603	13.65
241.821	-51.88
242.038	91.48
242.255	148.82
242.472	11.61
242.689	81.24
242.907	5.46
243.124	54.61
243.341	40.28
243.558	-62.12
243.775	-60.07
243.992	-84.65
244.209	105.81
244.426	148.82
244.643	27.99
244.86	142.68
245.078	75.09
245.295	91.48
245.512	79.19
245.729	95.57
245.946	105.81
246.163	116.05
246.38	-80.55
246.597	105.81
246.814	95.57
247.031	17.75
247.248	42.32
247.464	97.62
247.681	79.19
247.898	107.86
248.115	1.37
248.332	-25.26
248.549	50.52
248.766	208.21
248.983	85.33
249.2	159.06
249.417	144.72
249.633	21.85
249.85	64.85
250.067	107.86
250.284	97.62
250.501	44.37
250.717	95.57
250.934	32.08
251.151	58.71
251.368	116.05
251.585	36.18
251.801	17.75
252.018	-23.21
252.235	95.57
252.451	-19.11
252.668	66.9
252.885	157.01
253.102	34.13
253.318	19.8
253.535	-39.59
253.752	-27.31
253.968	36.18
254.185	-37.55
254.401	38.23
254.618	87.38
254.835	-19.11
255.051	120.15
255.268	95.57
255.484	126.29
255.701	42.32
255.917	46.42
256.134	-74.41
256.351	44.37
256.567	91.48
256.784	46.42
257	-33.45
257.217	150.87
257.433	99.67
257.65	34.13
257.866	50.52
258.082	-4.78
258.299	-31.4
258.515	46.42
258.732	1.37
258.948	7.51
259.165	42.32
259.381	-29.35
259.597	91.48
259.814	34.13
260.03	44.37
260.246	42.32
260.463	101.72
260.679	152.92
260.895	38.23
261.112	79.19
261.328	111.96
261.544	-41.64
261.761	148.82
261.977	52.56
262.193	-8.87
262.409	79.19
262.626	66.9
262.842	5.46
263.058	-15.02
263.274	109.91
263.49	71
263.707	107.86
263.923	140.63
264.139	13.65
264.355	48.47
264.571	148.82
264.787	-19.11
265.004	120.15
265.22	93.52
265.436	44.37
265.652	150.87
265.868	42.32
266.084	-23.21
266.3	5.46
266.516	-19.11
266.732	5.46
266.948	62.8
267.164	118.1
267.38	107.86
267.596	73.04
267.812	175.44
268.028	38.23
268.244	1.37
268.46	19.8
268.676	7.51
268.892	36.18
269.108	-4.78
269.324	-4.78
269.54	-4.78
269.756	93.52
269.972	-23.21
270.188	34.13
270.403	-90.79
270.619	21.85
270.835	122.2
271.051	11.61
271.267	19.8
271.483	1.37
271.698	120.15
271.914	91.48
272.13	48.47
272.346	66.9
272.562	54.61
272.777	136.53
272.993	7.51
273.209	19.8
273.425	91.48
273.64	-10.92
273.856	146.77
274.072	34.13
274.287	7.51
274.503	122.2
274.719	187.73
274.934	-12.97
275.15	-58.03
275.366	54.61
275.581	56.66
275.797	48.47
276.012	52.56
276.228	-31.4
276.444	23.89
276.659	73.04
276.875	25.94
277.09	64.85
277.306	-17.07
277.521	81.24
277.737	118.1
277.952	138.58
278.168	77.14
278.383	85.33
278.599	85.33
278.814	34.13
279.03	-21.16
279.245	185.68
279.461	7.51
279.676	134.48
279.892	-76.46
280.107	-4.78
280.322	-15.02
280.538	27.99
280.753	-27.31
280.969	130.39
281.184	40.28
281.399	75.09
281.615	62.8
281.83	99.67
282.045	-39.59
282.26	21.85
282.476	99.67
282.691	85.33
282.906	17.75
283.122	128.34
283.337	32.08
283.552	34.13
283.767	-2.73
283.983	118.1
284.198	40.28
284.413	64.85
284.628	-8.87
284.843	120.15
285.058	91.48
285.274	91.48
285.489	54.61
285.704	30.04
285.919	-43.69
286.134	-8.87
286.349	93.52
286.564	36.18
286.779	167.25
286.995	-43.69
287.21	-88.75
287.425	109.91
287.64	-39.59
287.855	60.76
288.07	-66.22
288.285	128.34
288.5	128.34
288.715	91.48
288.93	11.61
289.145	-0.68
289.36	81.24
289.575	15.7
289.79	114
290.004	-2.73
290.219	107.86
290.434	1.37
290.649	-27.31
290.864	-37.55
291.079	-23.21
291.294	46.42
291.509	23.89
291.724	58.71
291.938	56.66
292.153	68.95
292.368	21.85
292.583	52.56
292.798	134.48
293.012	109.91
293.227	15.7
293.442	62.8
293.657	142.68
293.871	122.2
294.086	27.99
294.301	226.64
294.516	132.44
294.73	9.56
294.945	-6.83
295.16	30.04
295.374	128.34
295.589	93.52
295.804	91.48
296.018	60.76
296.233	150.87
296.447	11.61
296.662	-8.87
296.877	97.62
297.091	126.29
297.306	87.38
297.52	52.56
297.735	34.13
297.949	77.14
298.164	62.8
298.378	111.96
298.593	-2.73
298.807	-60.07
299.022	58.71
299.236	77.14
299.451	85.33
299.665	46.42
299.88	7.51
300.094	75.09
300.309	15.7
300.523	50.52
300.737	38.23
300.952	85.33
301.166	38.23
301.381	9.56
301.595	44.37
301.809	64.85
302.024	5.46
302.238	-29.35
302.452	122.2
302.667	93.52
302.881	62.8
303.095	132.44
303.309	50.52
303.524	-27.31
303.738	21.85
303.952	71
304.166	116.05
304.381	-144.04
304.595	134.48
304.809	17.75
305.023	-6.83
305.237	9.56
305.452	11.61
305.666	23.89
305.88	124.24
306.094	150.87
306.308	50.52
306.522	99.67
306.736	54.61
306.95	68.95
307.164	-37.55
307.379	56.66
307.593	161.11
307.807	122.2
308.021	120.15
308.235	120.15
308.449	-62.12
308.663	25.94
308.877	240.98
309.091	56.66
309.305	85.33
309.519	-41.64
309.733	193.87
309.947	-55.98
310.161	46.42
310.374	132.44
310.588	157.01
310.802	9.56
311.016	-47.79
311.23	79.19
311.444	36.18
311.658	99.67
311.872	56.66
312.085	120.15
312.299	124.24
312.513	105.81
312.727	36.18
312.941	-2.73
313.154	77.14
313.368	46.42
313.582	-25.26
313.796	103.76
314.009	-35.5
314.223	128.34
314.437	50.52
314.651	79.19
314.864	23.89
315.078	38.23
315.292	-92.84
315.505	-6.83
315.719	75.09
315.933	89.43
316.146	42.32
316.36	25.94
316.573	167.25
316.787	95.57
317.001	111.96
317.214	-37.55
317.428	60.76
317.641	-66.22
317.855	89.43
318.068	71
318.282	19.8
318.495	177.49
318.709	34.13
318.922	169.3
319.136	177.49
319.349	124.24
319.563	-31.4
319.776	101.72
319.99	-19.11
320.203	165.2
320.417	36.18
320.63	17.75
320.843	150.87
321.057	81.24
321.27	-23.21
321.483	91.48
321.697	167.25
321.91	-2.73
322.124	77.14
322.337	66.9
322.55	-6.83
322.763	73.04
322.977	42.32
323.19	-37.55
323.403	54.61
323.617	62.8
323.83	114
324.043	48.47
324.256	68.95
324.469	13.65
324.683	202.07
324.896	66.9
325.109	54.61
325.322	-55.98
325.535	89.43
325.748	171.35
325.962	27.99
326.175	23.89
326.388	56.66
326.601	114
326.814	87.38
327.027	25.94
327.24	163.15
327.453	-125.61
327.666	183.63
327.879	118.1
328.092	71
328.305	54.61
328.518	32.08
328.731	19.8
328.944	71
329.157	138.58
329.37	17.75
329.583	228.69
329.796	142.68
330.009	38.23
330.222	107.86
330.435	107.86
330.648	71
330.861	109.91
331.073	62.8
331.286	99.67
331.499	-6.83
331.712	56.66
331.925	30.04
332.138	56.66
332.35	130.39
332.563	128.34
332.776	142.68
332.989	-15.02
333.202	-31.4
333.414	109.91
333.627	21.85
333.84	89.43
334.053	30.04
334.265	-43.69
334.478	13.65
334.691	3.41
334.903	140.63
335.116	34.13
335.329	13.65
335.541	44.37
335.754	154.96
335.966	-12.97
336.179	60.76
336.392	21.85
336.604	79.19
336.817	58.71
337.029	73.04
337.242	27.99
337.454	132.44
337.667	38.23
337.88	181.59
338.092	21.85
338.305	105.81
338.517	-49.83
338.729	191.83
338.942	163.15
339.154	-4.78
339.367	-66.22
339.579	75.09
339.792	13.65
340.004	154.96
340.217	83.28
340.429	52.56
340.641	19.8
340.854	-29.35
341.066	62.8
341.278	111.96
341.491	171.35
341.703	44.37
341.915	-35.5
342.128	99.67
342.34	52.56
342.552	-23.21
342.764	23.89
342.977	30.04
343.189	99.67
343.401	79.19
343.613	-2.73
343.826	73.04
344.038	30.04
344.25	87.38
344.462	-25.26
344.674	79.19
344.886	30.04
345.099	-12.97
345.311	103.76
345.523	68.95
345.735	-12.97
345.947	107.86
346.159	50.52
346.371	150.87
346.583	7.51
346.795	150.87
347.007	71
347.219	97.62
347.431	44.37
347.643	128.34
347.855	-17.07
348.067	116.05
348.279	-62.12
348.491	15.7
348.703	99.67
348.915	44.37
349.127	32.08
349.339	124.24
349.551	-55.98
349.763	165.2
349.975	44.37
350.187	60.76
350.399	179.54
350.61	179.54
350.822	30.04
351.034	109.91
351.246	54.61
351.458	126.29
351.669	97.62
351.881	111.96
352.093	150.87
352.305	118.1
352.517	73.04
352.728	169.3
352.94	97.62
353.152	111.96
353.363	-2.73
353.575	97.62
353.787	206.16
353.999	109.91
354.21	185.68
354.422	-35.5
354.633	118.1
354.845	111.96
355.057	15.7
355.268	7.51
355.48	44.37
355.692	13.65
355.903	11.61
356.115	-17.07
356.326	-10.92
356.538	193.87
356.749	25.94
356.961	230.74
357.172	62.8
357.384	-84.65
357.595	232.79
357.807	71
358.018	52.56
358.23	62.8
358.441	138.58
358.653	87.38
358.864	66.9
359.075	-0.68
359.287	85.33
359.498	118.1
359.709	83.28
359.921	-29.35
360.132	38.23
360.344	54.61
360.555	89.43
360.766	15.7
360.977	64.85
361.189	111.96
361.4	9.56
361.611	99.67
361.823	126.29
362.034	81.24
362.245	-43.69
362.456	93.52
362.667	159.06
362.879	75.09
363.09	105.81
363.301	56.66
363.512	23.89
363.723	36.18
363.935	132.44
364.146	75.09
364.357	83.28
364.568	46.42
364.779	-51.88
364.99	81.24
365.201	71
365.412	91.48
365.623	-47.79
365.834	159.06
366.045	27.99
366.256	68.95
366.467	52.56
366.678	23.89
366.889	56.66
367.1	56.66
367.311	109.91
367.522	25.94
367.733	101.72
367.944	17.75
368.155	83.28
368.366	116.05
368.577	52.56
368.788	91.48
368.999	19.8
369.209	73.04
369.42	224.59
369.631	232.79
369.842	27.99
370.053	32.08
370.264	179.54
370.474	87.38
370.685	-21.16
370.896	66.9
371.107	99.67
371.317	191.83
371.528	13.65
371.739	75.09
371.95	44.37
372.16	71
372.371	-2.73
372.582	50.52
372.792	130.39
373.003	87.38
373.214	83.28
373.424	171.35
373.635	-25.26
373.846	138.58
374.056	75.09
374.267	75.09
374.477	3.41
374.688	-19.11
374.898	32.08
375.109	122.2
375.319	40.28
375.53	103.76
375.74	25.94
375.951	-33.45
376.161	103.76
376.372	103.76
376.582	83.28
376.793	118.1
377.003	-21.16
377.214	21.85
377.424	185.68
377.635	42.32
377.845	11.61
378.055	146.77
378.266	-29.35
378.476	17.75
378.686	73.04
378.897	58.71
379.107	132.44
379.317	83.28
379.528	30.04
379.738	136.53
379.948	11.61
380.158	114
380.369	-8.87
380.579	126.29
380.789	32.08
380.999	73.04
381.21	134.48
381.42	169.3
381.63	-25.26
381.84	163.15
382.05	122.2
382.261	107.86
382.471	77.14
382.681	-19.11
382.891	214.35
383.101	56.66
383.311	-35.5
383.521	23.89
383.731	32.08
383.941	77.14
384.151	54.61
384.361	21.85
384.571	66.9
384.781	42.32
384.991	220.5
385.201	183.63
385.411	60.76
385.621	107.86
385.831	79.19
386.041	111.96
386.251	9.56
386.461	140.63
386.671	-66.22
386.881	111.96
387.091	-43.69
387.301	93.52
387.511	68.95
387.72	77.14
387.93	132.44
388.14	-29.35
388.35	85.33
388.56	140.63
388.769	189.78
388.979	60.76
389.189	-51.88
389.399	83.28
389.609	97.62
389.818	152.92
390.028	79.19
390.238	109.91
390.447	17.75
390.657	150.87
390.867	-17.07
391.076	-68.27
391.286	93.52
391.496	-35.5
391.705	87.38
391.915	159.06
392.125	71
392.334	58.71
392.544	111.96
392.753	38.23
392.963	-25.26
393.172	68.95
393.382	38.23
393.591	140.63
393.801	25.94
394.01	159.06
394.22	136.53
394.429	3.41
394.639	111.96
394.848	50.52
395.058	68.95
395.267	42.32
395.477	124.24
395.686	1.37
395.895	202.07
396.105	193.87
396.314	120.15
396.524	34.13
396.733	-60.07
396.942	191.83
397.152	122.2
397.361	27.99
397.57	68.95
397.78	13.65
397.989	148.82
398.198	191.83
398.407	19.8
398.617	17.75
398.826	66.9
399.035	101.72
399.244	116.05
399.453	-10.92
399.663	81.24
399.872	89.43
400.081	21.85
400.29	134.48
400.499	23.89
400.708	114
400.917	75.09
401.127	23.89
401.336	13.65
401.545	136.53
401.754	124.24
401.963	101.72
402.172	21.85
402.381	-47.79
402.59	87.38
402.799	122.2
403.008	120.15
403.217	79.19
403.426	89.43
403.635	-17.07
403.844	27.99
404.053	89.43
404.262	42.32
404.471	169.3
404.68	128.34
404.888	62.8
405.097	17.75
405.306	3.41
405.515	179.54
405.724	50.52
405.933	36.18
406.142	85.33
406.35	152.92
406.559	23.89
406.768	140.63
406.977	150.87
407.185	103.76
407.394	109.91
407.603	15.7
407.812	30.04
408.02	136.53
408.229	81.24
408.438	13.65
408.646	-21.16
408.855	-19.11
409.064	81.24
409.272	21.85
409.481	64.85
409.69	52.56
409.898	7.51
410.107	56.66
410.315	126.29
410.524	-27.31
410.733	109.91
410.941	21.85
411.15	202.07
411.358	187.73
411.567	189.78
411.775	19.8
411.984	46.42
412.192	128.34
412.401	71
412.609	193.87
412.818	191.83
413.026	58.71
413.234	71
413.443	-4.78
413.651	15.7
413.86	50.52
414.068	159.06
414.276	163.15
414.485	15.7
414.693	181.59
414.901	267.6
415.11	56.66
415.318	56.66
415.526	23.89
415.734	161.11
415.943	9.56
416.151	187.73
416.359	19.8
416.567	91.48
416.776	97.62
416.984	161.11
417.192	130.39
417.4	-17.07
417.608	91.48
417.817	-35.5
418.025	118.1
418.233	212.31
418.441	58.71
418.649	68.95
418.857	107.86
419.065	159.06
419.273	3.41
419.481	95.57
419.689	44.37
419.897	58.71
420.105	-53.93
420.313	136.53
420.521	230.74
420.729	202.07
420.937	5.46
421.145	-31.4
421.353	66.9
421.561	200.02
421.769	89.43
421.977	44.37
422.185	144.72
422.393	58.71
422.601	144.72
422.809	132.44
423.017	77.14
423.224	152.92
423.432	183.63
423.64	44.37
423.848	144.72
424.056	56.66
424.263	167.25
424.471	62.8
424.679	165.2
424.887	3.41
425.094	136.53
425.302	87.38
425.51	38.23
425.718	150.87
425.925	120.15
426.133	103.76
426.341	230.74
426.548	122.2
426.756	32.08
426.964	150.87
427.171	114
427.379	142.68
427.586	109.91
427.794	169.3
428.001	126.29
428.209	66.9
428.417	243.03
428.624	114
428.832	183.63
429.039	66.9
429.247	75.09
429.454	101.72
429.662	269.65
429.869	185.68
430.076	187.73
430.284	185.68
430.491	197.97
430.699	161.11
430.906	320.85
431.114	185.68
431.321	163.15
431.528	142.68
431.736	249.17
431.943	206.16
432.15	157.01
432.358	189.78
432.565	302.42
432.772	25.94
432.979	300.37
433.187	111.96
433.394	294.22
433.601	159.06
433.808	304.46
434.016	324.94
434.223	308.56
434.43	187.73
434.637	300.37
434.844	292.18
435.052	245.07
435.259	345.42
435.466	312.66
435.673	386.38
435.88	349.52
436.087	478.54
436.294	496.97
436.501	357.71
436.708	304.46
436.915	445.77
437.122	456.01
437.329	322.9
437.537	441.68
437.743	423.25
437.95	539.98
438.157	453.97
438.364	470.35
438.571	382.29
438.778	560.46
438.985	638.28
439.192	482.64
439.399	464.21
439.606	531.79
439.813	662.86
440.02	628.04
440.227	695.63
440.433	654.67
440.64	585.04
440.847	648.52
441.054	658.76
441.261	890.18
441.467	742.73
441.674	707.91
441.881	884.04
442.088	755.02
442.294	849.22
442.501	832.84
442.708	957.77
442.914	775.5
443.121	1013.06
443.328	1080.64
443.534	1160.52
443.741	1111.36
443.948	925
444.154	1230.15
444.361	1371.46
444.568	1262.91
444.774	1127.75
444.981	1191.24
445.187	1389.89
445.394	1422.66
445.6	1377.6
445.807	1611.07
446.013	1500.48
446.22	1475.9
446.426	1647.93
446.633	1797.43
446.839	1967.42
447.046	1703.23
447.252	1840.44
447.459	2000.18
447.665	1895.74
447.871	2159.92
448.078	2354.48
448.284	2280.75
448.491	2350.39
448.697	2555.18
448.903	2614.57
449.11	2639.15
449.316	2630.96
449.522	2878.76
449.728	2880.81
449.935	3044.65
450.141	2981.16
450.347	3181.86
450.553	3128.61
450.76	3294.5
450.966	3558.69
451.172	3517.73
451.378	3704.09
451.584	3890.46
451.791	4056.34
451.997	4154.65
452.203	4289.81
452.409	4443.41
452.615	4644.11
452.821	4515.09
453.027	4752.65
453.233	5094.66
453.44	5076.23
453.646	5387.52
453.852	5602.56
454.058	5747.97
454.264	5803.26
454.47	6282.49
454.676	6407.41
454.882	7023.85
455.088	6665.46
455.294	7007.47
455.5	7474.4
455.705	7935.2
455.911	7744.74
456.117	8025.31
456.323	8473.81
456.529	8457.43
456.735	9131.21
456.941	9387.21
457.147	9845.95
457.352	10013.88
457.558	10165.43
457.764	10847.41
457.97	11101.36
458.176	11478.18
458.381	12307.61
458.587	12293.27
458.793	13094.03
458.999	13030.54
459.204	14556.28
459.41	15316.08
459.616	14931.06
459.821	15772.77
460.027	16315.48
460.233	17400.91
460.438	17114.19
460.644	18474.04
460.85	18336.83
461.055	19334.19
461.261	20173.86
461.466	19733.54
461.672	20257.82
461.878	22477.82
462.083	22135.81
462.289	23043.06
462.494	23393.26
462.7	23903.21
462.905	24075.24
463.111	26145.73
463.316	27618.22
463.522	27624.37
463.727	28771.23
463.932	29715.34
464.138	30528.39
464.343	31955.82
464.549	31857.52
464.754	34577.22
464.959	35177.28
465.165	35924.79
465.37	35474.23
465.575	35570.49
465.781	38292.24
465.986	39078.66
466.191	38533.9
466.397	38830.85
466.602	38259.47
466.807	40241.9
467.012	40569.58
467.218	41413.34
467.423	41876.18
467.628	42719.95
467.833	45044.39
468.038	44102.32
468.244	43121.35
468.449	45441.7
468.654	44489.39
