Data from USB4F104151__27__10-42-10-271.txt Node

Date: Wed Feb 26 10:42:10 EST 2025
User: louis
Spectrometer: USB4F10415
Trigger mode: 4
Integration Time (sec): 1.000000E-1
Scans to average: 1
Electric dark correction enabled: true
Nonlinearity correction enabled: false
Boxcar width: 0
XAxis mode: Wavelengths
Number of Pixels in Spectrum: 3648
>>>>>Begin Spectral Data<<<<<
178.204	-456.7
178.424	-456.7
178.644	-456.7
178.864	-462.84
179.084	-389.11
179.304	10.24
179.524	-49.15
179.744	14.34
179.964	32.77
180.184	20.48
180.404	36.86
180.624	-34.82
180.844	-2.05
181.064	-69.63
181.283	2.05
181.503	12.29
181.723	26.62
181.943	-90.11
182.163	126.97
182.383	-43.01
182.602	79.87
182.822	141.31
183.042	65.53
183.262	14.34
183.482	30.72
183.701	122.88
183.921	90.11
184.141	-8.19
184.361	69.63
184.58	36.86
184.8	22.53
185.02	-6.14
185.239	126.97
185.459	51.2
185.679	145.41
185.898	-110.59
186.118	43.01
186.338	43.01
186.557	149.5
186.777	-98.3
186.997	55.3
187.216	83.97
187.436	133.12
187.655	149.5
187.875	4.1
188.095	81.92
188.314	163.84
188.534	94.21
188.753	-75.77
188.973	75.77
189.192	165.89
189.412	65.53
189.631	20.48
189.851	30.72
190.07	139.26
190.29	-135.17
190.509	36.86
190.729	36.86
190.948	149.5
191.168	286.72
191.387	143.36
191.607	61.44
191.826	-2.05
192.045	88.06
192.265	43.01
192.484	108.54
192.704	73.73
192.923	12.29
193.142	233.47
193.362	131.07
193.581	192.51
193.8	94.21
194.02	96.25
194.239	57.34
194.458	36.86
194.678	77.82
194.897	8.19
195.116	-6.14
195.335	92.16
195.555	65.53
195.774	-20.48
195.993	153.6
196.212	49.15
196.432	49.15
196.651	20.48
196.87	61.44
197.089	155.65
197.308	122.88
197.528	133.12
197.747	10.24
197.966	63.49
198.185	202.75
198.404	57.34
198.623	163.84
198.842	122.88
199.062	94.21
199.281	135.17
199.5	36.86
199.719	100.35
199.938	118.78
200.157	184.32
200.376	145.41
200.595	172.03
200.814	47.1
201.033	-65.54
201.252	192.51
201.471	34.82
201.69	112.64
201.909	126.97
202.128	180.22
202.347	77.82
202.566	106.49
202.785	-61.44
203.004	-12.29
203.223	303.1
203.442	102.4
203.661	-32.77
203.879	102.4
204.098	98.3
204.317	2.05
204.536	65.53
204.755	96.25
204.974	182.27
205.193	-6.14
205.411	288.76
205.63	151.55
205.849	81.92
206.068	-14.34
206.287	-40.96
206.505	102.4
206.724	-32.77
206.943	10.24
207.162	26.62
207.381	157.69
207.599	51.2
207.818	2.05
208.037	4.1
208.255	18.43
208.474	104.45
208.693	26.62
208.911	61.44
209.13	120.83
209.349	88.06
209.567	106.49
209.786	133.12
210.005	57.34
210.223	75.77
210.442	-10.24
210.661	118.78
210.879	59.39
211.098	88.06
211.316	69.63
211.535	94.21
211.753	106.49
211.972	-8.19
212.191	71.68
212.409	165.89
212.628	165.89
212.846	47.1
213.065	149.5
213.283	98.3
213.502	122.88
213.72	61.44
213.938	32.77
214.157	77.82
214.375	145.41
214.594	49.15
214.812	172.03
215.031	20.48
215.249	55.3
215.467	124.93
215.686	90.11
215.904	53.25
216.122	86.01
216.341	151.55
216.559	124.93
216.778	190.46
216.996	59.39
217.214	106.49
217.432	34.82
217.651	-24.58
217.869	22.53
218.087	22.53
218.306	61.44
218.524	77.82
218.742	92.16
218.96	94.21
219.179	22.53
219.397	112.64
219.615	237.56
219.833	126.97
220.051	26.62
220.27	100.35
220.488	135.17
220.706	102.4
220.924	-22.53
221.142	26.62
221.36	124.93
221.578	77.82
221.796	-63.49
222.015	110.59
222.233	36.86
222.451	81.92
222.669	51.2
222.887	100.35
223.105	20.48
223.323	67.58
223.541	26.62
223.759	55.3
223.977	75.77
224.195	120.83
224.413	79.87
224.631	57.34
224.849	61.44
225.067	192.51
225.285	4.1
225.503	38.91
225.721	-47.1
225.939	86.01
226.157	69.63
226.375	352.25
226.592	10.24
226.81	100.35
227.028	88.06
227.246	94.21
227.464	98.3
227.682	149.5
227.9	79.87
228.117	98.3
228.335	151.55
228.553	59.39
228.771	79.87
228.989	49.15
229.206	65.53
229.424	47.1
229.642	2.05
229.86	14.34
230.077	200.7
230.295	-14.34
230.513	120.83
230.731	-0
230.948	204.8
231.166	176.13
231.384	24.58
231.601	-6.14
231.819	163.84
232.037	-22.53
232.254	61.44
232.472	61.44
232.689	73.73
232.907	102.4
233.125	32.77
233.342	34.82
233.56	-22.53
233.777	-10.24
233.995	100.35
234.213	102.4
234.43	116.73
234.648	18.43
234.865	67.58
235.083	110.59
235.3	-8.19
235.518	45.06
235.735	102.4
235.953	110.59
236.17	86.01
236.388	71.68
236.605	10.24
236.822	114.69
237.04	163.84
237.257	100.35
237.475	75.77
237.692	79.87
237.909	57.34
238.127	22.53
238.344	59.39
238.562	36.86
238.779	-8.19
238.996	24.58
239.214	38.91
239.431	139.26
239.648	-14.34
239.865	122.88
240.083	94.21
240.3	-65.54
240.517	43.01
240.735	47.1
240.952	143.36
241.169	104.45
241.386	151.55
241.603	98.3
241.821	2.05
242.038	145.41
242.255	110.59
242.472	-18.43
242.689	38.91
242.907	122.88
243.124	94.21
243.341	86.01
243.558	38.91
243.775	-81.92
243.992	38.91
244.209	45.06
244.426	137.21
244.643	133.12
244.86	77.82
245.078	133.12
245.295	75.77
245.512	6.14
245.729	16.38
245.946	88.06
246.163	61.44
246.38	-32.77
246.597	83.97
246.814	90.11
247.031	4.1
247.248	67.58
247.464	122.88
247.681	43.01
247.898	102.4
248.115	151.55
248.332	-108.54
248.549	108.54
248.766	182.27
248.983	151.55
249.2	141.31
249.417	153.6
249.633	16.38
249.85	65.53
250.067	14.34
250.284	104.45
250.501	77.82
250.717	124.93
250.934	43.01
251.151	59.39
251.368	-22.53
251.585	112.64
251.801	12.29
252.018	-38.91
252.235	145.41
252.451	-34.82
252.668	43.01
252.885	81.92
253.102	-36.86
253.318	6.14
253.535	45.06
253.752	40.96
253.968	2.05
254.185	18.43
254.401	126.97
254.618	120.83
254.835	36.86
255.051	108.54
255.268	188.41
255.484	51.2
255.701	55.3
255.917	59.39
256.134	22.53
256.351	112.64
256.567	-14.34
256.784	75.77
257	-75.77
257.217	94.21
257.433	180.22
257.65	88.06
257.866	184.32
258.082	32.77
258.299	-45.06
258.515	61.44
258.732	24.58
258.948	-28.67
259.165	102.4
259.381	-45.06
259.597	135.17
259.814	77.82
260.03	77.82
260.246	53.25
260.463	159.74
260.679	32.77
260.895	-12.29
261.112	71.68
261.328	49.15
261.544	-73.73
261.761	155.65
261.977	30.72
262.193	-63.49
262.409	112.64
262.626	104.45
262.842	-38.91
263.058	8.19
263.274	65.53
263.49	79.87
263.707	155.65
263.923	79.87
264.139	-69.63
264.355	124.93
264.571	126.97
264.787	157.69
265.004	75.77
265.22	94.21
265.436	30.72
265.652	-14.34
265.868	22.53
266.084	-0
266.3	65.53
266.516	-10.24
266.732	118.78
266.948	86.01
267.164	24.58
267.38	204.8
267.596	135.17
267.812	206.84
268.028	71.68
268.244	55.3
268.46	26.62
268.676	24.58
268.892	79.87
269.108	32.77
269.324	-18.43
269.54	-12.29
269.756	88.06
269.972	-57.34
270.188	34.82
270.403	36.86
270.619	51.2
270.835	79.87
271.051	-26.62
271.267	59.39
271.483	-73.73
271.698	137.21
271.914	75.77
272.13	83.97
272.346	61.44
272.562	110.59
272.777	176.13
272.993	6.14
273.209	106.49
273.425	102.4
273.64	-73.73
273.856	116.73
274.072	10.24
274.287	-40.96
274.503	159.74
274.719	34.82
274.934	-8.19
275.15	-86.01
275.366	147.45
275.581	-2.05
275.797	28.67
276.012	67.58
276.228	-63.49
276.444	-16.38
276.659	239.61
276.875	-100.35
277.09	18.43
277.306	104.45
277.521	67.58
277.737	75.77
277.952	149.5
278.168	77.82
278.383	51.2
278.599	108.54
278.814	159.74
279.03	77.82
279.245	131.07
279.461	51.2
279.676	131.07
279.892	-28.67
280.107	-36.86
280.322	-0
280.538	131.07
280.753	8.19
280.969	65.53
281.184	45.06
281.399	149.5
281.615	102.4
281.83	40.96
282.045	4.1
282.26	49.15
282.476	126.97
282.691	108.54
282.906	92.16
283.122	86.01
283.337	32.77
283.552	116.73
283.767	-40.96
283.983	147.45
284.198	100.35
284.413	8.19
284.628	-77.82
284.843	79.87
285.058	131.07
285.274	34.82
285.489	-32.77
285.704	153.6
285.919	24.58
286.134	61.44
286.349	53.25
286.564	-10.24
286.779	196.6
286.995	63.49
287.21	6.14
287.425	137.21
287.64	-32.77
287.855	14.34
288.07	-45.06
288.285	114.69
288.5	151.55
288.715	75.77
288.93	59.39
289.145	-4.1
289.36	108.54
289.575	47.1
289.79	102.4
290.004	-0
290.219	45.06
290.434	86.01
290.649	51.2
290.864	47.1
291.079	-10.24
291.294	67.58
291.509	96.25
291.724	8.19
291.938	86.01
292.153	77.82
292.368	18.43
292.583	86.01
292.798	141.31
293.012	108.54
293.227	43.01
293.442	-40.96
293.657	94.21
293.871	120.83
294.086	18.43
294.301	241.66
294.516	163.84
294.73	71.68
294.945	-28.67
295.16	-4.1
295.374	153.6
295.589	151.55
295.804	98.3
296.018	110.59
296.233	116.73
296.447	38.91
296.662	94.21
296.877	129.02
297.091	159.74
297.306	43.01
297.52	49.15
297.735	139.26
297.949	47.1
298.164	53.25
298.378	139.26
298.593	59.39
298.807	-30.72
299.022	69.63
299.236	149.5
299.451	149.5
299.665	-8.19
299.88	12.29
300.094	157.69
300.309	55.3
300.523	88.06
300.737	63.49
300.952	55.3
301.166	106.49
301.381	22.53
301.595	12.29
301.809	92.16
302.024	49.15
302.238	-61.44
302.452	180.22
302.667	65.53
302.881	200.7
303.095	88.06
303.309	65.53
303.524	43.01
303.738	26.62
303.952	38.91
304.166	126.97
304.381	-135.17
304.595	233.47
304.809	45.06
305.023	100.35
305.237	94.21
305.452	102.4
305.666	165.89
305.88	126.97
306.094	98.3
306.308	45.06
306.522	79.87
306.736	49.15
306.95	57.34
307.164	20.48
307.379	47.1
307.593	169.98
307.807	147.45
308.021	86.01
308.235	112.64
308.449	-38.91
308.663	22.53
308.877	161.79
309.091	40.96
309.305	153.6
309.519	-28.67
309.733	88.06
309.947	-16.38
310.161	120.83
310.374	149.5
310.588	124.93
310.802	4.1
311.016	106.49
311.23	57.34
311.444	-38.91
311.658	-0
311.872	90.11
312.085	94.21
312.299	165.89
312.513	10.24
312.727	108.54
312.941	-77.82
313.154	169.98
313.368	40.96
313.582	8.19
313.796	96.25
314.009	98.3
314.223	137.21
314.437	104.45
314.651	139.26
314.864	51.2
315.078	14.34
315.292	-4.1
315.505	86.01
315.719	106.49
315.933	143.36
316.146	36.86
316.36	43.01
316.573	120.83
316.787	176.13
317.001	38.91
317.214	-0
317.428	126.97
317.641	12.29
317.855	-8.19
318.068	104.45
318.282	57.34
318.495	126.97
318.709	55.3
318.922	26.62
319.136	141.31
319.349	124.93
319.563	-4.1
319.776	137.21
319.99	-8.19
320.203	94.21
320.417	-8.19
320.63	172.03
320.843	172.03
321.057	139.26
321.27	122.88
321.483	141.31
321.697	147.45
321.91	47.1
322.124	55.3
322.337	118.78
322.55	14.34
322.763	16.38
322.977	126.97
323.19	43.01
323.403	32.77
323.617	157.69
323.83	223.23
324.043	-12.29
324.256	139.26
324.469	32.77
324.683	73.73
324.896	77.82
325.109	180.22
325.322	53.25
325.535	155.65
325.748	133.12
325.962	83.97
326.175	102.4
326.388	73.73
326.601	96.25
326.814	12.29
327.027	133.12
327.24	186.37
327.453	-55.3
327.666	79.87
327.879	149.5
328.092	90.11
328.305	12.29
328.518	4.1
328.731	51.2
328.944	63.49
329.157	96.25
329.37	102.4
329.583	153.6
329.796	225.28
330.009	6.14
330.222	139.26
330.435	157.69
330.648	116.73
330.861	124.93
331.073	114.69
331.286	122.88
331.499	59.39
331.712	30.72
331.925	75.77
332.138	153.6
332.35	57.34
332.563	40.96
332.776	147.45
332.989	34.82
333.202	-0
333.414	59.39
333.627	73.73
333.84	-40.96
334.053	110.59
334.265	6.14
334.478	4.1
334.691	94.21
334.903	8.19
335.116	71.68
335.329	67.58
335.541	106.49
335.754	186.37
335.966	61.44
336.179	38.91
336.392	36.86
336.604	51.2
336.817	165.89
337.029	67.58
337.242	67.58
337.454	122.88
337.667	75.77
337.88	131.07
338.092	79.87
338.305	77.82
338.517	47.1
338.729	75.77
338.942	96.25
339.154	-32.77
339.367	-30.72
339.579	124.93
339.792	-55.3
340.004	90.11
340.217	86.01
340.429	45.06
340.641	-14.34
340.854	2.05
341.066	90.11
341.278	122.88
341.491	188.41
341.703	61.44
341.915	-26.62
342.128	163.84
342.34	71.68
342.552	-22.53
342.764	45.06
342.977	81.92
343.189	129.02
343.401	112.64
343.613	47.1
343.826	63.49
344.038	-12.29
344.25	81.92
344.462	133.12
344.674	51.2
344.886	69.63
345.099	139.26
345.311	133.12
345.523	43.01
345.735	-20.48
345.947	135.17
346.159	73.73
346.371	45.06
346.583	104.45
346.795	172.03
347.007	-8.19
347.219	65.53
347.431	16.38
347.643	139.26
347.855	81.92
348.067	153.6
348.279	65.53
348.491	16.38
348.703	133.12
348.915	57.34
349.127	-59.39
349.339	100.35
349.551	55.3
349.763	137.21
349.975	88.06
350.187	112.64
350.399	129.02
350.61	100.35
350.822	32.77
351.034	8.19
351.246	-18.43
351.458	34.82
351.669	118.78
351.881	157.69
352.093	100.35
352.305	161.79
352.517	108.54
352.728	149.5
352.94	104.45
353.152	155.65
353.363	-12.29
353.575	143.36
353.787	241.66
353.999	49.15
354.21	159.74
354.422	79.87
354.633	49.15
354.845	90.11
355.057	-8.19
355.268	149.5
355.48	167.93
355.692	2.05
355.903	49.15
356.115	4.1
356.326	-47.1
356.538	217.08
356.749	124.93
356.961	114.69
357.172	67.58
357.384	38.91
357.595	198.65
357.807	2.05
358.018	51.2
358.23	65.53
358.441	227.32
358.653	110.59
358.864	53.25
359.075	57.34
359.287	81.92
359.498	75.77
359.709	108.54
359.921	55.3
360.132	163.84
360.344	-20.48
360.555	12.29
360.766	133.12
360.977	114.69
361.189	153.6
361.4	-18.43
361.611	135.17
361.823	194.56
362.034	81.92
362.245	-73.73
362.456	61.44
362.667	112.64
362.879	22.53
363.09	88.06
363.301	51.2
363.512	51.2
363.723	22.53
363.935	-8.19
364.146	151.55
364.357	47.1
364.568	40.96
364.779	-73.73
364.99	180.22
365.201	83.97
365.412	120.83
365.623	-40.96
365.834	81.92
366.045	63.49
366.256	57.34
366.467	79.87
366.678	40.96
366.889	24.58
367.1	51.2
367.311	129.02
367.522	14.34
367.733	49.15
367.944	73.73
368.155	63.49
368.366	122.88
368.577	137.21
368.788	104.45
368.999	-49.15
369.209	63.49
369.42	174.08
369.631	251.9
369.842	122.88
370.053	-28.67
370.264	126.97
370.474	-51.2
370.685	24.58
370.896	169.98
371.107	88.06
371.317	79.87
371.528	45.06
371.739	145.41
371.95	135.17
372.16	12.29
372.371	-67.58
372.582	86.01
372.792	6.14
373.003	104.45
373.214	83.97
373.424	71.68
373.635	-34.82
373.846	196.6
374.056	81.92
374.267	51.2
374.477	69.63
374.688	94.21
374.898	118.78
375.109	116.73
375.319	116.73
375.53	83.97
375.74	198.65
375.951	51.2
376.161	106.49
376.372	96.25
376.582	-10.24
376.793	71.68
377.003	32.77
377.214	59.39
377.424	88.06
377.635	69.63
377.845	-43.01
378.055	133.12
378.266	-26.62
378.476	55.3
378.686	43.01
378.897	49.15
379.107	4.1
379.317	153.6
379.528	81.92
379.738	57.34
379.948	-83.97
380.158	163.84
380.369	102.4
380.579	94.21
380.789	104.45
380.999	151.55
381.21	120.83
381.42	217.08
381.63	153.6
381.84	167.93
382.05	114.69
382.261	174.08
382.471	147.45
382.681	-12.29
382.891	206.84
383.101	131.07
383.311	-20.48
383.521	75.77
383.731	112.64
383.941	114.69
384.151	6.14
384.361	96.25
384.571	110.59
384.781	86.01
384.991	192.51
385.201	198.65
385.411	108.54
385.621	108.54
385.831	186.37
386.041	36.86
386.251	28.67
386.461	126.97
386.671	92.16
386.881	61.44
387.091	100.35
387.301	98.3
387.511	129.02
387.72	116.73
387.93	104.45
388.14	-40.96
388.35	102.4
388.56	161.79
388.769	200.7
388.979	38.91
389.189	73.73
389.399	94.21
389.609	96.25
389.818	28.67
390.028	53.25
390.238	40.96
390.447	-0
390.657	75.77
390.867	81.92
391.076	-4.1
391.286	102.4
391.496	-28.67
391.705	83.97
391.915	258.04
392.125	79.87
392.334	34.82
392.544	180.22
392.753	71.68
392.963	8.19
393.172	71.68
393.382	-26.62
393.591	237.56
393.801	-16.38
394.01	286.72
394.22	151.55
394.429	71.68
394.639	106.49
394.848	63.49
395.058	120.83
395.267	71.68
395.477	61.44
395.686	49.15
395.895	190.46
396.105	247.8
396.314	73.73
396.524	26.62
396.733	38.91
396.942	86.01
397.152	106.49
397.361	139.26
397.57	77.82
397.78	102.4
397.989	163.84
398.198	243.71
398.407	20.48
398.617	-40.96
398.826	49.15
399.035	34.82
399.244	172.03
399.453	141.31
399.663	86.01
399.872	129.02
400.081	28.67
400.29	180.22
400.499	24.58
400.708	147.45
400.917	55.3
401.127	10.24
401.336	-4.1
401.545	229.37
401.754	161.79
401.963	14.34
402.172	53.25
402.381	4.1
402.59	-24.58
402.799	6.14
403.008	176.13
403.217	67.58
403.426	96.25
403.635	-61.44
403.844	118.78
404.053	71.68
404.262	94.21
404.471	139.26
404.68	96.25
404.888	86.01
405.097	-22.53
405.306	55.3
405.515	92.16
405.724	34.82
405.933	225.28
406.142	96.25
406.35	196.6
406.559	49.15
406.768	26.62
406.977	260.09
407.185	83.97
407.394	114.69
407.603	-38.91
407.812	143.36
408.02	137.21
408.229	57.34
408.438	104.45
408.646	8.19
408.855	86.01
409.064	106.49
409.272	40.96
409.481	63.49
409.69	40.96
409.898	-59.39
410.107	49.15
410.315	59.39
410.524	57.34
410.733	61.44
410.941	96.25
411.15	210.94
411.358	108.54
411.567	184.32
411.775	67.58
411.984	59.39
412.192	94.21
412.401	-6.14
412.609	188.41
412.818	165.89
413.026	90.11
413.234	86.01
413.443	102.4
413.651	-18.43
413.86	104.45
414.068	186.37
414.276	202.75
414.485	36.86
414.693	241.66
414.901	266.24
415.11	104.45
415.318	153.6
415.526	73.73
415.734	133.12
415.943	106.49
416.151	235.52
416.359	126.97
416.567	114.69
416.776	61.44
416.984	112.64
417.192	151.55
417.4	-30.72
417.608	51.2
417.817	14.34
418.025	196.6
418.233	190.46
418.441	-43.01
418.649	30.72
418.857	104.45
419.065	202.75
419.273	8.19
419.481	55.3
419.689	133.12
419.897	40.96
420.105	30.72
420.313	169.98
420.521	133.12
420.729	208.89
420.937	24.58
421.145	20.48
421.353	143.36
421.561	180.22
421.769	120.83
421.977	20.48
422.185	145.41
422.393	81.92
422.601	135.17
422.809	92.16
423.017	92.16
423.224	149.5
423.432	98.3
423.64	69.63
423.848	223.23
424.056	32.77
424.263	182.27
424.471	73.73
424.679	126.97
424.887	-28.67
425.094	169.98
425.302	88.06
425.51	86.01
425.718	178.17
425.925	124.93
426.133	77.82
426.341	217.08
426.548	75.77
426.756	-2.05
426.964	247.8
427.171	92.16
427.379	118.78
427.586	118.78
427.794	151.55
428.001	182.27
428.209	174.08
428.417	217.08
428.624	186.37
428.832	153.6
429.039	131.07
429.247	135.17
429.454	139.26
429.662	221.18
429.869	147.45
430.076	120.83
430.284	249.85
430.491	264.19
430.699	245.76
430.906	325.63
431.114	151.55
431.321	208.89
431.528	233.47
431.736	313.34
431.943	221.18
432.15	233.47
432.358	245.76
432.565	315.39
432.772	131.07
432.979	192.51
433.187	247.8
433.394	309.24
433.601	174.08
433.808	323.58
434.016	247.8
434.223	317.44
434.43	266.24
434.637	268.28
434.844	311.29
435.052	315.39
435.259	333.82
435.466	348.15
435.673	317.44
435.88	323.58
436.087	423.93
436.294	411.64
436.501	403.45
436.708	346.11
436.915	413.69
437.122	354.3
437.329	378.87
437.537	401.4
437.743	466.94
437.95	514.04
438.157	503.8
438.364	423.93
438.571	452.6
438.778	585.72
438.985	563.19
439.192	587.77
439.399	571.38
439.606	616.44
439.813	573.43
440.02	780.28
440.227	757.75
440.433	790.52
440.64	690.17
440.847	620.53
441.054	657.4
441.261	872.43
441.467	860.15
441.674	739.32
441.881	888.82
442.088	800.76
442.294	925.68
442.501	989.17
442.708	1089.52
442.914	983.02
443.121	1060.85
443.328	1116.14
443.534	1079.28
443.741	1169.39
443.948	1087.47
444.154	1277.93
444.361	1355.76
444.568	1411.05
444.774	1224.69
444.981	1269.74
445.187	1630.18
445.394	1441.77
445.6	1452.01
445.807	1679.33
446.013	1597.42
446.22	1617.9
446.426	1791.97
446.633	1855.46
446.839	2111.46
447.046	1853.41
447.252	2007.01
447.459	2035.68
447.665	2007.01
447.871	2330.59
448.078	2502.62
448.284	2287.58
448.491	2549.72
448.697	2578.39
448.903	2729.94
449.11	2666.46
449.316	2668.5
449.522	3033.04
449.728	3020.75
449.935	3176.4
450.141	3194.83
450.347	3528.65
450.553	3252.17
450.76	3452.88
450.966	3768.26
451.172	3616.71
451.378	3915.72
451.584	3991.49
451.791	4276.16
451.997	4372.41
452.203	4458.43
452.409	4595.64
452.615	4874.17
452.821	4652.98
453.027	4837.3
453.233	5517.23
453.44	5285.81
453.646	5521.32
453.852	5726.12
454.058	5955.49
454.264	6193.06
454.47	6659.99
454.676	6782.87
454.882	7352.21
455.088	7038.87
455.294	7268.24
455.5	7882.63
455.705	8202.11
455.911	8312.71
456.117	8449.92
456.323	8820.6
456.529	8656.76
456.735	9412.46
456.941	9688.94
457.147	10112.87
457.352	10280.8
457.558	10577.76
457.764	11425.62
457.97	11663.18
458.176	12066.63
458.381	12721.98
458.587	12781.37
458.793	13379.38
458.999	13606.7
459.204	15320.85
459.41	15970.06
459.616	15435.54
459.821	16531.2
460.027	17180.41
460.233	18087.66
460.438	18165.48
460.644	19201.75
460.85	19158.75
461.055	20166.35
461.261	21264.06
461.466	20737.73
461.672	21118.65
461.878	23668.37
462.083	23221.92
462.289	23658.14
462.494	24465.03
462.7	25015.94
462.905	25079.43
463.111	27242.08
463.316	28659.27
463.522	29232.71
463.727	30008.89
463.932	31346.21
464.138	32134.68
464.343	33482.24
464.549	33322.5
464.754	36050.39
464.959	37254.6
465.165	37639.62
465.37	37445.06
465.575	37576.13
465.781	39724.45
465.986	41250.19
466.191	40549.78
466.397	40754.58
466.602	39597.48
466.807	42081.66
467.012	42640.76
467.218	43210.09
467.423	43765.09
467.628	45135.18
467.833	47084.85
