Data from USB4F104151__296__11-21-17-027.txt Node

Date: Wed Feb 26 11:21:17 EST 2025
User: louis
Spectrometer: USB4F10415
Trigger mode: 4
Integration Time (sec): 1.000000E-1
Scans to average: 1
Electric dark correction enabled: true
Nonlinearity correction enabled: false
Boxcar width: 0
XAxis mode: Wavelengths
Number of Pixels in Spectrum: 3648
>>>>>Begin Spectral Data<<<<<
178.204	-342.52
178.424	-342.52
178.644	-342.52
178.864	-352.76
179.084	-444.92
179.304	60.93
179.524	11.78
179.744	-43.52
179.964	-10.75
180.184	50.69
180.404	19.97
180.624	-27.14
180.844	-18.94
181.064	-92.67
181.283	-12.8
181.503	28.16
181.723	34.3
181.943	-51.71
182.163	239.1
182.383	-57.86
182.602	85.5
182.822	140.8
183.042	26.11
183.262	-8.7
183.482	1.54
183.701	-4.61
183.921	-6.66
184.141	69.12
184.361	124.41
184.58	3.58
184.8	122.37
185.02	9.73
185.239	-0.51
185.459	105.98
185.679	89.6
185.898	-98.81
186.118	-0.51
186.338	5.63
186.557	79.36
186.777	-70.14
186.997	3.58
187.216	-12.8
187.436	130.56
187.655	50.69
187.875	112.13
188.095	-16.9
188.314	101.89
188.534	142.85
188.753	-31.23
188.973	132.61
189.192	200.19
189.412	-20.99
189.631	65.02
189.851	89.6
190.07	210.43
190.29	-16.9
190.509	19.97
190.729	65.02
190.948	153.09
191.168	220.67
191.387	40.45
191.607	1.54
191.826	108.03
192.045	7.68
192.265	22.02
192.484	103.93
192.704	36.35
192.923	22.02
193.142	212.48
193.362	101.89
193.581	91.65
193.8	124.41
194.02	169.47
194.239	79.36
194.458	75.26
194.678	30.21
194.897	95.74
195.116	65.02
195.335	110.08
195.555	7.68
195.774	26.11
195.993	120.32
196.212	101.89
196.432	9.73
196.651	7.68
196.87	77.31
197.089	249.34
197.308	38.4
197.528	58.88
197.747	-33.28
197.966	71.17
198.185	126.46
198.404	-61.95
198.623	212.48
198.842	34.3
199.062	142.85
199.281	52.74
199.5	114.17
199.719	101.89
199.938	89.6
200.157	71.17
200.376	155.13
200.595	65.02
200.814	108.03
201.033	-31.23
201.252	132.61
201.471	32.26
201.69	50.69
201.909	-12.8
202.128	148.99
202.347	144.89
202.566	83.45
202.785	-115.2
203.004	5.63
203.223	243.2
203.442	60.93
203.661	32.26
203.879	65.02
204.098	171.52
204.317	3.58
204.536	44.54
204.755	58.88
204.974	105.98
205.193	26.11
205.411	198.14
205.63	136.7
205.849	-14.85
206.068	7.68
206.287	-14.85
206.505	87.55
206.724	75.26
206.943	1.54
207.162	-49.66
207.381	108.03
207.599	67.07
207.818	73.21
208.037	-82.43
208.255	75.26
208.474	95.74
208.693	118.27
208.911	40.45
209.13	99.84
209.349	85.5
209.567	56.83
209.786	83.45
210.005	142.85
210.223	91.65
210.442	-107.01
210.661	52.74
210.879	85.5
211.098	128.51
211.316	46.59
211.535	116.22
211.753	73.21
211.972	101.89
212.191	67.07
212.409	75.26
212.628	54.78
212.846	44.54
213.065	142.85
213.283	112.13
213.502	58.88
213.72	44.54
213.938	73.21
214.157	46.59
214.375	179.71
214.594	9.73
214.812	142.85
215.031	34.3
215.249	46.59
215.467	52.74
215.686	9.73
215.904	89.6
216.122	11.78
216.341	126.46
216.559	85.5
216.778	73.21
216.996	32.26
217.214	-45.57
217.432	26.11
217.651	-57.86
217.869	34.3
218.087	32.26
218.306	13.82
218.524	24.06
218.742	34.3
218.96	128.51
219.179	3.58
219.397	83.45
219.615	245.24
219.833	46.59
220.051	7.68
220.27	103.93
220.488	122.37
220.706	60.93
220.924	-10.75
221.142	3.58
221.36	77.31
221.578	-14.85
221.796	19.97
222.015	-2.56
222.233	48.64
222.451	138.75
222.669	9.73
222.887	62.98
223.105	13.82
223.323	32.26
223.541	-78.33
223.759	163.33
223.977	81.41
224.195	196.09
224.413	122.37
224.631	34.3
224.849	75.26
225.067	194.05
225.285	71.17
225.503	60.93
225.721	-86.53
225.939	75.26
226.157	75.26
226.375	157.18
226.592	34.3
226.81	-6.66
227.028	99.84
227.246	159.23
227.464	60.93
227.682	79.36
227.9	95.74
228.117	11.78
228.335	108.03
228.553	120.32
228.771	50.69
228.989	34.3
229.206	112.13
229.424	42.5
229.642	58.88
229.86	-39.42
230.077	81.41
230.295	40.45
230.513	79.36
230.731	44.54
230.948	198.14
231.166	97.79
231.384	58.88
231.601	-41.47
231.819	116.22
232.037	11.78
232.254	-82.43
232.472	77.31
232.689	26.11
232.907	136.7
233.125	-31.23
233.342	5.63
233.56	56.83
233.777	62.98
233.995	32.26
234.213	112.13
234.43	99.84
234.648	73.21
234.865	65.02
235.083	77.31
235.3	54.78
235.518	77.31
235.735	151.04
235.953	101.89
236.17	52.74
236.388	-8.7
236.605	38.4
236.822	126.46
237.04	95.74
237.257	42.5
237.475	-14.85
237.692	50.69
237.909	42.5
238.127	-4.61
238.344	89.6
238.562	28.16
238.779	-57.86
238.996	-20.99
239.214	67.07
239.431	77.31
239.648	91.65
239.865	65.02
240.083	110.08
240.3	58.88
240.517	-10.75
240.735	17.92
240.952	120.32
241.169	101.89
241.386	17.92
241.603	30.21
241.821	-12.8
242.038	112.13
242.255	124.41
242.472	-55.81
242.689	75.26
242.907	77.31
243.124	34.3
243.341	3.58
243.558	34.3
243.775	-59.9
243.992	-23.04
244.209	50.69
244.426	245.24
244.643	58.88
244.86	54.78
245.078	136.7
245.295	73.21
245.512	67.07
245.729	-41.47
245.946	124.41
246.163	122.37
246.38	3.58
246.597	11.78
246.814	91.65
247.031	118.27
247.248	24.06
247.464	171.52
247.681	11.78
247.898	28.16
248.115	32.26
248.332	-61.95
248.549	208.38
248.766	144.89
248.983	97.79
249.2	112.13
249.417	101.89
249.633	40.45
249.85	85.5
250.067	58.88
250.284	19.97
250.501	108.03
250.717	134.65
250.934	-16.9
251.151	26.11
251.368	58.88
251.585	67.07
251.801	157.18
252.018	-25.09
252.235	187.9
252.451	-78.33
252.668	-31.23
252.885	136.7
253.102	97.79
253.318	-10.75
253.535	-25.09
253.752	17.92
253.968	-0.51
254.185	-121.34
254.401	46.59
254.618	77.31
254.835	-33.28
255.051	142.85
255.268	120.32
255.484	36.35
255.701	54.78
255.917	120.32
256.134	62.98
256.351	7.68
256.567	-37.38
256.784	50.69
257	-90.62
257.217	93.69
257.433	171.52
257.65	46.59
257.866	171.52
258.082	-23.04
258.299	52.74
258.515	81.41
258.732	-37.38
258.948	-31.23
259.165	157.18
259.381	54.78
259.597	60.93
259.814	44.54
260.03	44.54
260.246	26.11
260.463	138.75
260.679	181.76
260.895	26.11
261.112	87.55
261.328	62.98
261.544	5.63
261.761	165.37
261.977	-0.51
262.193	5.63
262.409	69.12
262.626	73.21
262.842	44.54
263.058	36.35
263.274	85.5
263.49	85.5
263.707	99.84
263.923	134.65
264.139	-18.94
264.355	60.93
264.571	163.33
264.787	89.6
265.004	52.74
265.22	69.12
265.436	30.21
265.652	87.55
265.868	148.99
266.084	38.4
266.3	69.12
266.516	3.58
266.732	77.31
266.948	54.78
267.164	75.26
267.38	122.37
267.596	116.22
267.812	114.17
268.028	36.35
268.244	-39.42
268.46	11.78
268.676	36.35
268.892	58.88
269.108	9.73
269.324	36.35
269.54	-41.47
269.756	151.04
269.972	-6.66
270.188	9.73
270.403	5.63
270.619	15.87
270.835	99.84
271.051	87.55
271.267	73.21
271.483	26.11
271.698	146.94
271.914	103.93
272.13	60.93
272.346	24.06
272.562	83.45
272.777	101.89
272.993	105.98
273.209	-16.9
273.425	120.32
273.64	-29.18
273.856	89.6
274.072	-61.95
274.287	34.3
274.503	101.89
274.719	173.57
274.934	-6.66
275.15	-10.75
275.366	38.4
275.581	83.45
275.797	114.17
276.012	81.41
276.228	1.54
276.444	85.5
276.659	73.21
276.875	7.68
277.09	42.5
277.306	9.73
277.521	165.37
277.737	46.59
277.952	120.32
278.168	87.55
278.383	11.78
278.599	36.35
278.814	71.17
279.03	19.97
279.245	126.46
279.461	-43.52
279.676	83.45
279.892	-82.43
280.107	-80.38
280.322	-6.66
280.538	101.89
280.753	11.78
280.969	67.07
281.184	-18.94
281.399	142.85
281.615	-29.18
281.83	13.82
282.045	-68.09
282.26	-49.66
282.476	60.93
282.691	124.41
282.906	-4.61
283.122	26.11
283.337	-23.04
283.552	99.84
283.767	93.69
283.983	159.23
284.198	19.97
284.413	151.04
284.628	-10.75
284.843	67.07
285.058	134.65
285.274	46.59
285.489	-20.99
285.704	122.37
285.919	62.98
286.134	46.59
286.349	36.35
286.564	3.58
286.779	212.48
286.995	38.4
287.21	-57.86
287.425	124.41
287.64	5.63
287.855	36.35
288.07	-12.8
288.285	110.08
288.5	71.17
288.715	124.41
288.93	17.92
289.145	34.3
289.36	108.03
289.575	30.21
289.79	151.04
290.004	-10.75
290.219	132.61
290.434	-66.05
290.649	24.06
290.864	-55.81
291.079	28.16
291.294	28.16
291.509	15.87
291.724	34.3
291.938	-20.99
292.153	42.5
292.368	75.26
292.583	91.65
292.798	38.4
293.012	77.31
293.227	32.26
293.442	-39.42
293.657	42.5
293.871	144.89
294.086	101.89
294.301	255.48
294.516	192
294.73	83.45
294.945	-35.33
295.16	-33.28
295.374	177.66
295.589	153.09
295.804	-16.9
296.018	71.17
296.233	157.18
296.447	15.87
296.662	22.02
296.877	146.94
297.091	108.03
297.306	65.02
297.52	15.87
297.735	-23.04
297.949	-23.04
298.164	93.69
298.378	-12.8
298.593	-61.95
298.807	32.26
299.022	24.06
299.236	110.08
299.451	17.92
299.665	50.69
299.88	83.45
300.094	110.08
300.309	124.41
300.523	50.69
300.737	22.02
300.952	81.41
301.166	99.84
301.381	-43.52
301.595	-31.23
301.809	105.98
302.024	99.84
302.238	-4.61
302.452	142.85
302.667	38.4
302.881	108.03
303.095	124.41
303.309	105.98
303.524	-4.61
303.738	-18.94
303.952	-86.53
304.166	60.93
304.381	-64
304.595	187.9
304.809	-74.24
305.023	89.6
305.237	-31.23
305.452	60.93
305.666	38.4
305.88	81.41
306.094	128.51
306.308	122.37
306.522	46.59
306.736	101.89
306.95	132.61
307.164	62.98
307.379	50.69
307.593	130.56
307.807	99.84
308.021	124.41
308.235	103.93
308.449	-23.04
308.663	19.97
308.877	165.37
309.091	114.17
309.305	128.51
309.519	-14.85
309.733	144.89
309.947	-8.7
310.161	69.12
310.374	126.46
310.588	185.85
310.802	75.26
311.016	-0.51
311.23	13.82
311.444	7.68
311.658	62.98
311.872	118.27
312.085	157.18
312.299	130.56
312.513	144.89
312.727	58.88
312.941	5.63
313.154	85.5
313.368	-31.23
313.582	85.5
313.796	-18.94
314.009	54.78
314.223	110.08
314.437	26.11
314.651	91.65
314.864	-14.85
315.078	32.26
315.292	-78.33
315.505	-29.18
315.719	28.16
315.933	56.83
316.146	-0.51
316.36	-64
316.573	101.89
316.787	38.4
317.001	50.69
317.214	-51.71
317.428	65.02
317.641	-2.56
317.855	-33.28
318.068	11.78
318.282	28.16
318.495	192
318.709	167.42
318.922	-33.28
319.136	157.18
319.349	200.19
319.563	69.12
319.776	58.88
319.99	-78.33
320.203	136.7
320.417	77.31
320.63	155.13
320.843	222.72
321.057	71.17
321.27	73.21
321.483	118.27
321.697	157.18
321.91	85.5
322.124	-82.43
322.337	101.89
322.55	48.64
322.763	93.69
322.977	-29.18
323.19	62.98
323.403	28.16
323.617	42.5
323.83	167.42
324.043	-18.94
324.256	36.35
324.469	-0.51
324.683	108.03
324.896	42.5
325.109	26.11
325.322	-66.05
325.535	140.8
325.748	163.33
325.962	26.11
326.175	28.16
326.388	108.03
326.601	144.89
326.814	7.68
327.027	36.35
327.24	157.18
327.453	-39.42
327.666	159.23
327.879	192
328.092	75.26
328.305	194.05
328.518	-14.85
328.731	58.88
328.944	34.3
329.157	24.06
329.37	46.59
329.583	161.28
329.796	183.81
330.009	17.92
330.222	85.5
330.435	87.55
330.648	60.93
330.861	56.83
331.073	134.65
331.286	89.6
331.499	3.58
331.712	58.88
331.925	58.88
332.138	67.07
332.35	157.18
332.563	-37.38
332.776	128.51
332.989	-20.99
333.202	32.26
333.414	40.45
333.627	54.78
333.84	1.54
334.053	22.02
334.265	-6.66
334.478	-18.94
334.691	-16.9
334.903	122.37
335.116	-53.76
335.329	71.17
335.541	54.78
335.754	161.28
335.966	36.35
336.179	17.92
336.392	32.26
336.604	38.4
336.817	38.4
337.029	30.21
337.242	85.5
337.454	46.59
337.667	13.82
337.88	126.46
338.092	110.08
338.305	95.74
338.517	-23.04
338.729	118.27
338.942	208.38
339.154	7.68
339.367	17.92
339.579	87.55
339.792	-23.04
340.004	101.89
340.217	-45.57
340.429	40.45
340.641	-49.66
340.854	22.02
341.066	85.5
341.278	69.12
341.491	169.47
341.703	62.98
341.915	52.74
342.128	110.08
342.34	83.45
342.552	-16.9
342.764	81.41
342.977	91.65
343.189	91.65
343.401	134.65
343.613	-45.57
343.826	85.5
344.038	3.58
344.25	73.21
344.462	-6.66
344.674	73.21
344.886	46.59
345.099	69.12
345.311	142.85
345.523	3.58
345.735	-74.24
345.947	42.5
346.159	67.07
346.371	77.31
346.583	30.21
346.795	247.29
347.007	-20.99
347.219	93.69
347.431	-0.51
347.643	95.74
347.855	3.58
348.067	87.55
348.279	105.98
348.491	48.64
348.703	56.83
348.915	58.88
349.127	11.78
349.339	91.65
349.551	-14.85
349.763	120.32
349.975	52.74
350.187	130.56
350.399	105.98
350.61	161.28
350.822	17.92
351.034	40.45
351.246	81.41
351.458	73.21
351.669	71.17
351.881	120.32
352.093	181.76
352.305	159.23
352.517	81.41
352.728	105.98
352.94	17.92
353.152	136.7
353.363	3.58
353.575	-4.61
353.787	185.85
353.999	60.93
354.21	159.23
354.422	15.87
354.633	157.18
354.845	99.84
355.057	44.54
355.268	-35.33
355.48	124.41
355.692	-6.66
355.903	91.65
356.115	-10.75
356.326	-59.9
356.538	155.13
356.749	89.6
356.961	187.9
357.172	30.21
357.384	-2.56
357.595	212.48
357.807	77.31
358.018	30.21
358.23	114.17
358.441	138.75
358.653	101.89
358.864	28.16
359.075	-16.9
359.287	42.5
359.498	142.85
359.709	81.41
359.921	77.31
360.132	97.79
360.344	60.93
360.555	5.63
360.766	19.97
360.977	30.21
361.189	101.89
361.4	32.26
361.611	75.26
361.823	171.52
362.034	54.78
362.245	-33.28
362.456	69.12
362.667	83.45
362.879	-12.8
363.09	85.5
363.301	71.17
363.512	13.82
363.723	19.97
363.935	24.06
364.146	151.04
364.357	-4.61
364.568	97.79
364.779	-16.9
364.99	97.79
365.201	1.54
365.412	122.37
365.623	-70.14
365.834	153.09
366.045	58.88
366.256	120.32
366.467	114.17
366.678	46.59
366.889	32.26
367.1	36.35
367.311	128.51
367.522	-76.29
367.733	87.55
367.944	110.08
368.155	42.5
368.366	159.23
368.577	167.42
368.788	140.8
368.999	-16.9
369.209	52.74
369.42	210.43
369.631	241.15
369.842	79.36
370.053	67.07
370.264	177.66
370.474	7.68
370.685	62.98
370.896	30.21
371.107	194.05
371.317	69.12
371.528	83.45
371.739	171.52
371.95	75.26
372.16	175.61
372.371	-25.09
372.582	58.88
372.792	95.74
373.003	-0.51
373.214	110.08
373.424	58.88
373.635	13.82
373.846	163.33
374.056	7.68
374.267	28.16
374.477	48.64
374.688	5.63
374.898	105.98
375.109	73.21
375.319	148.99
375.53	105.98
375.74	81.41
375.951	1.54
376.161	87.55
376.372	114.17
376.582	38.4
376.793	5.63
377.003	-0.51
377.214	-23.04
377.424	114.17
377.635	67.07
377.845	44.54
378.055	89.6
378.266	-20.99
378.476	3.58
378.686	77.31
378.897	97.79
379.107	239.1
379.317	142.85
379.528	-76.29
379.738	179.71
379.948	-23.04
380.158	134.65
380.369	73.21
380.579	85.5
380.789	83.45
380.999	30.21
381.21	69.12
381.42	138.75
381.63	65.02
381.84	48.64
382.05	169.47
382.261	110.08
382.471	108.03
382.681	48.64
382.891	161.28
383.101	85.5
383.311	32.26
383.521	28.16
383.731	114.17
383.941	71.17
384.151	130.56
384.361	-4.61
384.571	52.74
384.781	89.6
384.991	171.52
385.201	206.33
385.411	85.5
385.621	89.6
385.831	108.03
386.041	62.98
386.251	-47.62
386.461	112.13
386.671	15.87
386.881	26.11
387.091	52.74
387.301	146.94
387.511	36.35
387.72	132.61
387.93	161.28
388.14	-27.14
388.35	40.45
388.56	192
388.769	60.93
388.979	52.74
389.189	-14.85
389.399	19.97
389.609	95.74
389.818	58.88
390.028	71.17
390.238	62.98
390.447	-51.71
390.657	81.41
390.867	85.5
391.076	-61.95
391.286	140.8
391.496	30.21
391.705	48.64
391.915	155.13
392.125	169.47
392.334	-43.52
392.544	220.67
392.753	97.79
392.963	32.26
393.172	114.17
393.382	-29.18
393.591	165.37
393.801	28.16
394.01	134.65
394.22	110.08
394.429	50.69
394.639	83.45
394.848	44.54
395.058	73.21
395.267	73.21
395.477	130.56
395.686	24.06
395.895	175.61
396.105	208.38
396.314	155.13
396.524	38.4
396.733	30.21
396.942	62.98
397.152	56.83
397.361	185.85
397.57	171.52
397.78	85.5
397.989	153.09
398.198	214.52
398.407	71.17
398.617	32.26
398.826	91.65
399.035	112.13
399.244	132.61
399.453	46.59
399.663	44.54
399.872	112.13
400.081	15.87
400.29	206.33
400.499	9.73
400.708	101.89
400.917	60.93
401.127	-49.66
401.336	36.35
401.545	196.09
401.754	110.08
401.963	144.89
402.172	-18.94
402.381	28.16
402.59	77.31
402.799	91.65
403.008	112.13
403.217	54.78
403.426	73.21
403.635	-0.51
403.844	97.79
404.053	54.78
404.262	-20.99
404.471	163.33
404.68	171.52
404.888	95.74
405.097	73.21
405.306	75.26
405.515	58.88
405.724	48.64
405.933	155.13
406.142	85.5
406.35	89.6
406.559	87.55
406.768	-18.94
406.977	136.7
407.185	77.31
407.394	116.22
407.603	-49.66
407.812	58.88
408.02	151.04
408.229	40.45
408.438	179.71
408.646	-51.71
408.855	75.26
409.064	85.5
409.272	44.54
409.481	17.92
409.69	7.68
409.898	-2.56
410.107	112.13
410.315	134.65
410.524	-29.18
410.733	32.26
410.941	54.78
411.15	122.37
411.358	214.52
411.567	124.41
411.775	26.11
411.984	105.98
412.192	91.65
412.401	22.02
412.609	163.33
412.818	87.55
413.026	130.56
413.234	54.78
413.443	79.36
413.651	1.54
413.86	-2.56
414.068	167.42
414.276	189.95
414.485	73.21
414.693	216.57
414.901	243.2
415.11	54.78
415.318	48.64
415.526	112.13
415.734	161.28
415.943	52.74
416.151	212.48
416.359	91.65
416.567	101.89
416.776	93.69
416.984	103.93
417.192	228.86
417.4	-2.56
417.608	114.17
417.817	54.78
418.025	159.23
418.233	235
418.441	19.97
418.649	46.59
418.857	198.14
419.065	128.51
419.273	75.26
419.481	77.31
419.689	142.85
419.897	75.26
420.105	-10.75
420.313	120.32
420.521	202.24
420.729	167.42
420.937	48.64
421.145	81.41
421.353	36.35
421.561	167.42
421.769	175.61
421.977	24.06
422.185	99.84
422.393	-4.61
422.601	114.17
422.809	116.22
423.017	46.59
423.224	126.46
423.432	112.13
423.64	85.5
423.848	134.65
424.056	42.5
424.263	200.19
424.471	17.92
424.679	120.32
424.887	3.58
425.094	192
425.302	93.69
425.51	58.88
425.718	144.89
425.925	62.98
426.133	75.26
426.341	157.18
426.548	54.78
426.756	171.52
426.964	130.56
427.171	15.87
427.379	187.9
427.586	122.37
427.794	151.04
428.001	171.52
428.209	124.41
428.417	249.34
428.624	140.8
428.832	169.47
429.039	144.89
429.247	114.17
429.454	151.04
429.662	196.09
429.869	138.75
430.076	146.94
430.284	167.42
430.491	202.24
430.699	116.22
430.906	165.37
431.114	210.43
431.321	151.04
431.528	165.37
431.736	159.23
431.943	146.94
432.15	196.09
432.358	155.13
432.565	267.77
432.772	38.4
432.979	249.34
433.187	183.81
433.394	282.11
433.601	189.95
433.808	284.16
434.016	275.96
434.223	329.21
434.43	247.29
434.637	333.31
434.844	312.83
435.052	278.01
435.259	390.65
435.466	357.88
435.673	357.88
435.88	325.12
436.087	380.41
436.294	472.57
436.501	306.68
436.708	331.26
436.915	327.16
437.122	466.42
437.329	400.89
437.537	476.66
437.743	464.38
437.95	574.97
438.157	540.15
438.364	458.23
438.571	396.79
438.778	529.91
438.985	534.01
439.192	667.13
439.399	562.68
439.606	693.75
439.813	732.66
440.02	755.19
440.227	798.2
440.433	718.33
440.64	650.74
440.847	708.09
441.054	720.37
441.261	945.65
441.467	837.11
441.674	730.61
441.881	929.27
442.088	730.61
442.294	781.81
442.501	900.59
442.708	1005.04
442.914	1031.66
443.121	1162.73
443.328	1107.44
443.534	1234.41
443.741	1230.32
443.948	1074.67
444.154	1250.8
444.361	1457.64
444.568	1390.06
444.774	1310.19
444.981	1289.71
445.187	1621.48
445.394	1492.46
445.6	1486.31
445.807	1793.51
446.013	1551.85
446.22	1625.58
446.426	1859.04
446.633	1893.86
446.839	2108.9
447.046	1799.65
447.252	2012.64
447.459	1986.02
447.665	2069.98
447.871	2242.01
448.078	2561.5
448.284	2463.19
448.491	2471.39
448.697	2727.38
448.903	2805.21
449.11	2915.8
449.316	2780.63
449.522	3128.78
449.728	3020.24
449.935	3329.49
450.141	3366.35
450.347	3472.84
450.553	3499.47
450.76	3483.08
450.966	3837.38
451.172	3931.59
451.378	4066.75
451.584	4142.53
451.791	4482.49
451.997	4462.01
452.203	4664.76
452.409	4939.19
452.615	5035.44
452.821	4883.89
453.027	4928.95
453.233	5606.83
453.44	5463.47
453.646	5866.92
453.852	6129.06
454.058	6225.31
454.264	6581.66
454.47	6567.32
454.676	6739.35
454.882	7486.86
455.088	7267.73
455.294	7490.96
455.5	8019.33
455.705	8570.24
455.911	8596.86
456.117	8744.31
456.323	8977.78
456.529	9141.62
456.735	10028.39
456.941	10071.4
457.147	10409.31
457.352	10585.44
457.558	11162.97
457.764	11953.48
457.97	12178.76
458.176	12578.11
458.381	13215.03
458.587	13634.86
458.793	14140.71
458.999	14056.75
459.204	15938.83
459.41	16387.33
459.616	16098.57
459.821	17171.71
460.027	17591.54
460.233	18531.56
460.438	18547.94
460.644	19889.36
460.85	19746
461.055	20757.7
461.261	21533.88
461.466	21355.71
461.672	21789.88
461.878	23977.11
462.083	24245.39
462.289	24646.79
462.494	25361.53
462.7	25603.19
462.905	26090.61
463.111	27659.35
463.316	29543.49
463.522	30143.54
463.727	30970.92
463.932	32402.45
464.138	33096.71
464.343	34716.65
464.549	34595.82
464.754	36973.52
464.959	38458.29
465.165	39179.18
465.37	38710.19
465.575	38376.37
465.781	41065.36
465.986	42333.05
466.191	41483.14
466.397	41978.75
466.602	41288.59
466.807	43504.49
467.012	44428.12
467.218	44868.44
467.423	44909.39
467.628	46261.05
467.833	48778.01
468.038	47469.36
468.244	46582.59
