Data from USB4F104151__163__11-04-46-635.txt Node

Date: Wed Feb 26 11:04:46 EST 2025
User: louis
Spectrometer: USB4F10415
Trigger mode: 4
Integration Time (sec): 1.000000E-1
Scans to average: 1
Electric dark correction enabled: true
Nonlinearity correction enabled: false
Boxcar width: 0
XAxis mode: Wavelengths
Number of Pixels in Spectrum: 3648
>>>>>Begin Spectral Data<<<<<
178.204	-349.35
178.424	-349.35
178.644	-349.35
178.864	-414.88
179.084	-386.21
179.304	29.52
179.524	29.52
179.744	-54.44
179.964	-31.91
180.184	39.76
180.404	-21.67
180.624	0.85
180.844	-15.53
181.064	-109.74
181.283	105.3
181.503	-40.11
181.723	68.44
181.943	-70.83
182.163	176.98
182.383	-9.39
182.602	105.3
182.822	166.74
183.042	47.96
183.262	-1.19
183.482	29.52
183.701	39.76
183.921	-44.2
184.141	-9.39
184.361	88.92
184.58	80.72
184.8	33.62
185.02	-9.39
185.239	150.36
185.459	72.53
185.679	119.64
185.898	-105.64
186.118	-15.53
186.338	113.49
186.557	166.74
186.777	-33.96
186.997	-1.19
187.216	21.33
187.436	236.37
187.655	70.48
187.875	127.83
188.095	50
188.314	209.75
188.534	140.12
188.753	-99.5
188.973	164.69
189.192	76.63
189.412	84.82
189.631	-7.34
189.851	7
190.07	164.69
190.29	-70.83
190.509	-38.06
190.729	47.96
190.948	117.59
191.168	193.36
191.387	103.25
191.607	-25.77
191.826	70.48
192.045	95.06
192.265	-44.2
192.484	43.86
192.704	21.33
192.923	-21.67
193.142	285.52
193.362	144.21
193.581	123.73
193.8	47.96
194.02	45.91
194.239	97.11
194.458	133.97
194.678	37.72
194.897	70.48
195.116	68.44
195.335	56.15
195.555	41.81
195.774	17.24
195.993	82.77
196.212	35.67
196.432	-27.82
196.651	-68.78
196.87	17.24
197.089	271.19
197.308	4.95
197.528	93.01
197.747	19.29
197.966	-36.01
198.185	125.78
198.404	60.24
198.623	119.64
198.842	174.93
199.062	127.83
199.281	60.24
199.5	23.38
199.719	47.96
199.938	136.02
200.157	60.24
200.376	101.2
200.595	84.82
200.814	11.09
201.033	35.67
201.252	127.83
201.471	54.1
201.69	119.64
201.909	56.15
202.128	140.12
202.347	37.72
202.566	72.53
202.785	-40.11
203.004	-5.29
203.223	312.14
203.442	-11.43
203.661	13.14
203.879	105.3
204.098	154.45
204.317	-21.67
204.536	113.49
204.755	111.44
204.974	115.54
205.193	15.19
205.411	195.41
205.63	172.88
205.849	37.72
206.068	45.91
206.287	-1.19
206.505	90.96
206.724	-31.91
206.943	-27.82
207.162	15.19
207.381	103.25
207.599	7
207.818	78.68
208.037	-21.67
208.255	56.15
208.474	52.05
208.693	7
208.911	60.24
209.13	152.4
209.349	82.77
209.567	60.24
209.786	162.64
210.005	115.54
210.223	25.43
210.442	-83.11
210.661	37.72
210.879	93.01
211.098	21.33
211.316	84.82
211.535	131.92
211.753	64.34
211.972	144.21
212.191	-64.68
212.409	115.54
212.628	56.15
212.846	37.72
213.065	84.82
213.283	187.22
213.502	-31.91
213.72	31.57
213.938	21.33
214.157	64.34
214.375	133.97
214.594	60.24
214.812	127.83
215.031	31.57
215.249	117.59
215.467	97.11
215.686	15.19
215.904	111.44
216.122	129.88
216.341	224.08
216.559	64.34
216.778	84.82
216.996	158.55
217.214	25.43
217.432	-23.72
217.651	-33.96
217.869	68.44
218.087	88.92
218.306	84.82
218.524	17.24
218.742	-23.72
218.96	74.58
219.179	131.92
219.397	19.29
219.615	219.99
219.833	164.69
220.051	4.95
220.27	168.79
220.488	99.16
220.706	113.49
220.924	-1.19
221.142	45.91
221.36	103.25
221.578	56.15
221.796	7
222.015	68.44
222.233	47.96
222.451	189.27
222.669	21.33
222.887	88.92
223.105	25.43
223.323	45.91
223.541	15.19
223.759	86.87
223.977	4.95
224.195	133.97
224.413	84.82
224.631	35.67
224.849	113.49
225.067	205.65
225.285	-9.39
225.503	11.09
225.721	-85.16
225.939	82.77
226.157	39.76
226.375	185.17
226.592	-31.91
226.81	-1.19
227.028	162.64
227.246	166.74
227.464	47.96
227.682	64.34
227.9	23.38
228.117	39.76
228.335	142.16
228.553	2.9
228.771	43.86
228.989	56.15
229.206	117.59
229.424	97.11
229.642	37.72
229.86	-58.54
230.077	174.93
230.295	-15.53
230.513	68.44
230.731	43.86
230.948	209.75
231.166	195.41
231.384	19.29
231.601	-3.24
231.819	181.07
232.037	29.52
232.254	41.81
232.472	43.86
232.689	86.87
232.907	47.96
233.125	13.14
233.342	-54.44
233.56	11.09
233.777	27.48
233.995	58.2
234.213	131.92
234.43	64.34
234.648	39.76
234.865	29.52
235.083	99.16
235.3	41.81
235.518	70.48
235.735	181.07
235.953	60.24
236.17	105.3
236.388	43.86
236.605	76.63
236.822	84.82
237.04	111.44
237.257	50
237.475	-33.96
237.692	80.72
237.909	95.06
238.127	-21.67
238.344	50
238.562	95.06
238.779	-52.39
238.996	-81.07
239.214	29.52
239.431	21.33
239.648	-25.77
239.865	136.02
240.083	88.92
240.3	11.09
240.517	64.34
240.735	72.53
240.952	166.74
241.169	39.76
241.386	54.1
241.603	9.05
241.821	7
242.038	88.92
242.255	129.88
242.472	25.43
242.689	80.72
242.907	109.4
243.124	82.77
243.341	41.81
243.558	-50.35
243.775	43.86
243.992	0.85
244.209	76.63
244.426	150.36
244.643	97.11
244.86	64.34
245.078	160.59
245.295	78.68
245.512	21.33
245.729	-60.59
245.946	142.16
246.163	35.67
246.38	52.05
246.597	33.62
246.814	52.05
247.031	109.4
247.248	54.1
247.464	131.92
247.681	31.57
247.898	66.39
248.115	105.3
248.332	-44.2
248.549	150.36
248.766	199.51
248.983	117.59
249.2	88.92
249.417	101.2
249.633	-21.67
249.85	54.1
250.067	15.19
250.284	21.33
250.501	136.02
250.717	64.34
250.934	-42.15
251.151	23.38
251.368	-9.39
251.585	97.11
251.801	111.44
252.018	-56.49
252.235	109.4
252.451	-42.15
252.668	11.09
252.885	70.48
253.102	52.05
253.318	70.48
253.535	4.95
253.752	62.29
253.968	-5.29
254.185	-23.72
254.401	41.81
254.618	93.01
254.835	17.24
255.051	152.4
255.268	119.64
255.484	99.16
255.701	80.72
255.917	86.87
256.134	29.52
256.351	27.48
256.567	-91.31
256.784	39.76
257	-58.54
257.217	50
257.433	142.16
257.65	23.38
257.866	95.06
258.082	-91.31
258.299	-42.15
258.515	88.92
258.732	13.14
258.948	-58.54
259.165	86.87
259.381	-13.48
259.597	107.35
259.814	56.15
260.03	68.44
260.246	-19.63
260.463	133.97
260.679	121.68
260.895	11.09
261.112	54.1
261.328	13.14
261.544	99.16
261.761	201.55
261.977	-17.58
262.193	-54.44
262.409	88.92
262.626	4.95
262.842	70.48
263.058	7
263.274	105.3
263.49	4.95
263.707	133.97
263.923	76.63
264.139	-60.59
264.355	27.48
264.571	115.54
264.787	62.29
265.004	113.49
265.22	-3.24
265.436	-3.24
265.652	19.29
265.868	140.12
266.084	-21.67
266.3	29.52
266.516	-17.58
266.732	11.09
266.948	33.62
267.164	-21.67
267.38	33.62
267.596	164.69
267.812	129.88
268.028	58.2
268.244	9.05
268.46	105.3
268.676	52.05
268.892	47.96
269.108	9.05
269.324	-44.2
269.54	50
269.756	43.86
269.972	7
270.188	17.24
270.403	31.57
270.619	43.86
270.835	131.92
271.051	78.68
271.267	13.14
271.483	-19.63
271.698	95.06
271.914	37.72
272.13	82.77
272.346	88.92
272.562	37.72
272.777	142.16
272.993	54.1
273.209	15.19
273.425	101.2
273.64	-42.15
273.856	70.48
274.072	41.81
274.287	-56.49
274.503	68.44
274.719	166.74
274.934	-38.06
275.15	-38.06
275.366	-33.96
275.581	39.76
275.797	9.05
276.012	41.81
276.228	64.34
276.444	56.15
276.659	156.5
276.875	-1.19
277.09	64.34
277.306	25.43
277.521	43.86
277.737	76.63
277.952	39.76
278.168	72.53
278.383	88.92
278.599	29.52
278.814	84.82
279.03	-46.25
279.245	86.87
279.461	-15.53
279.676	123.73
279.892	-40.11
280.107	-27.82
280.322	-46.25
280.538	37.72
280.753	-5.29
280.969	78.68
281.184	33.62
281.399	101.2
281.615	60.24
281.83	101.2
282.045	-89.26
282.26	37.72
282.476	74.58
282.691	140.12
282.906	78.68
283.122	50
283.337	-93.35
283.552	76.63
283.767	23.38
283.983	58.2
284.198	-5.29
284.413	119.64
284.628	-19.63
284.843	97.11
285.058	7
285.274	-17.58
285.489	-46.25
285.704	82.77
285.919	84.82
286.134	45.91
286.349	-31.91
286.564	35.67
286.779	131.92
286.995	4.95
287.21	4.95
287.425	95.06
287.64	-17.58
287.855	115.54
288.07	-99.5
288.285	168.79
288.5	162.64
288.715	113.49
288.93	33.62
289.145	-21.67
289.36	121.68
289.575	7
289.79	160.59
290.004	0.85
290.219	95.06
290.434	-31.91
290.649	23.38
290.864	-62.63
291.079	0.85
291.294	11.09
291.509	39.76
291.724	9.05
291.938	105.3
292.153	82.77
292.368	2.9
292.583	99.16
292.798	84.82
293.012	54.1
293.227	107.35
293.442	80.72
293.657	52.05
293.871	142.16
294.086	107.35
294.301	131.92
294.516	140.12
294.73	54.1
294.945	-64.68
295.16	25.43
295.374	170.83
295.589	109.4
295.804	7
296.018	74.58
296.233	133.97
296.447	60.24
296.662	39.76
296.877	148.31
297.091	86.87
297.306	31.57
297.52	70.48
297.735	93.01
297.949	17.24
298.164	72.53
298.378	58.2
298.593	-7.34
298.807	43.86
299.022	78.68
299.236	217.94
299.451	68.44
299.665	72.53
299.88	-38.06
300.094	109.4
300.309	-7.34
300.523	-9.39
300.737	56.15
300.952	52.05
301.166	56.15
301.381	-29.87
301.595	31.57
301.809	47.96
302.024	-21.67
302.238	-3.24
302.452	119.64
302.667	4.95
302.881	125.78
303.095	119.64
303.309	136.02
303.524	-31.91
303.738	4.95
303.952	-79.02
304.166	136.02
304.381	-58.54
304.595	158.55
304.809	-7.34
305.023	97.11
305.237	50
305.452	-48.3
305.666	93.01
305.88	93.01
306.094	127.83
306.308	148.31
306.522	111.44
306.736	101.2
306.95	50
307.164	99.16
307.379	60.24
307.593	203.6
307.807	164.69
308.021	160.59
308.235	127.83
308.449	-97.45
308.663	13.14
308.877	230.23
309.091	121.68
309.305	47.96
309.519	-56.49
309.733	90.96
309.947	-25.77
310.161	39.76
310.374	78.68
310.588	95.06
310.802	-93.35
311.016	15.19
311.23	125.78
311.444	84.82
311.658	64.34
311.872	125.78
312.085	90.96
312.299	189.27
312.513	138.07
312.727	72.53
312.941	-1.19
313.154	25.43
313.368	43.86
313.582	7
313.796	74.58
314.009	58.2
314.223	183.12
314.437	52.05
314.651	125.78
314.864	-46.25
315.078	45.91
315.292	-89.26
315.505	15.19
315.719	86.87
315.933	86.87
316.146	21.33
316.36	70.48
316.573	154.45
316.787	33.62
317.001	29.52
317.214	50
317.428	78.68
317.641	9.05
317.855	-46.25
318.068	127.83
318.282	37.72
318.495	172.88
318.709	97.11
318.922	27.48
319.136	95.06
319.349	86.87
319.563	-7.34
319.776	70.48
319.99	-44.2
320.203	88.92
320.417	29.52
320.63	66.39
320.843	193.36
321.057	64.34
321.27	62.29
321.483	115.54
321.697	158.55
321.91	-29.87
322.124	29.52
322.337	64.34
322.55	-9.39
322.763	70.48
322.977	-11.43
323.19	4.95
323.403	31.57
323.617	43.86
323.83	158.55
324.043	60.24
324.256	58.2
324.469	-66.73
324.683	158.55
324.896	84.82
325.109	2.9
325.322	-42.15
325.535	142.16
325.748	72.53
325.962	29.52
326.175	43.86
326.388	72.53
326.601	187.22
326.814	90.96
327.027	111.44
327.24	191.31
327.453	-33.96
327.666	136.02
327.879	70.48
328.092	64.34
328.305	31.57
328.518	54.1
328.731	-50.35
328.944	33.62
329.157	52.05
329.37	56.15
329.583	146.26
329.796	119.64
330.009	-97.45
330.222	93.01
330.435	35.67
330.648	117.59
330.861	66.39
331.073	27.48
331.286	158.55
331.499	86.87
331.712	-40.11
331.925	111.44
332.138	27.48
332.35	78.68
332.563	35.67
332.776	74.58
332.989	11.09
333.202	35.67
333.414	41.81
333.627	-13.48
333.84	31.57
334.053	115.54
334.265	-31.91
334.478	27.48
334.691	-1.19
334.903	-5.29
335.116	-36.01
335.329	72.53
335.541	66.39
335.754	144.21
335.966	31.57
336.179	62.29
336.392	-15.53
336.604	4.95
336.817	129.88
337.029	76.63
337.242	37.72
337.454	113.49
337.667	41.81
337.88	164.69
338.092	97.11
338.305	82.77
338.517	-27.82
338.729	109.4
338.942	113.49
339.154	-9.39
339.367	19.29
339.579	86.87
339.792	-66.73
340.004	66.39
340.217	31.57
340.429	133.97
340.641	-56.49
340.854	4.95
341.066	-5.29
341.278	113.49
341.491	172.88
341.703	23.38
341.915	-29.87
342.128	138.07
342.34	97.11
342.552	-13.48
342.764	88.92
342.977	13.14
343.189	68.44
343.401	121.68
343.613	-38.06
343.826	52.05
344.038	-93.35
344.25	125.78
344.462	-44.2
344.674	86.87
344.886	74.58
345.099	74.58
345.311	90.96
345.523	23.38
345.735	50
345.947	-1.19
346.159	90.96
346.371	56.15
346.583	-3.24
346.795	174.93
347.007	19.29
347.219	93.01
347.431	80.72
347.643	88.92
347.855	-9.39
348.067	84.82
348.279	-33.96
348.491	27.48
348.703	142.16
348.915	19.29
349.127	-1.19
349.339	80.72
349.551	88.92
349.763	115.54
349.975	27.48
350.187	70.48
350.399	125.78
350.61	93.01
350.822	43.86
351.034	117.59
351.246	60.24
351.458	80.72
351.669	70.48
351.881	70.48
352.093	90.96
352.305	78.68
352.517	29.52
352.728	172.88
352.94	45.91
353.152	113.49
353.363	4.95
353.575	80.72
353.787	144.21
353.999	4.95
354.21	191.31
354.422	58.2
354.633	0.85
354.845	15.19
355.057	52.05
355.268	39.76
355.48	33.62
355.692	-87.21
355.903	78.68
356.115	-60.59
356.326	-122.02
356.538	193.36
356.749	76.63
356.961	148.31
357.172	62.29
357.384	-17.58
357.595	226.13
357.807	27.48
358.018	66.39
358.23	17.24
358.441	199.51
358.653	56.15
358.864	9.05
359.075	4.95
359.287	56.15
359.498	205.65
359.709	172.88
359.921	50
360.132	103.25
360.344	-27.82
360.555	-23.72
360.766	45.91
360.977	-11.43
361.189	162.64
361.4	-27.82
361.611	101.2
361.823	111.44
362.034	52.05
362.245	-42.15
362.456	4.95
362.667	170.83
362.879	-38.06
363.09	74.58
363.301	70.48
363.512	88.92
363.723	-50.35
363.935	29.52
364.146	131.92
364.357	68.44
364.568	21.33
364.779	-54.44
364.99	138.07
365.201	-40.11
365.412	154.45
365.623	-25.77
365.834	101.2
366.045	45.91
366.256	74.58
366.467	50
366.678	2.9
366.889	19.29
367.1	80.72
367.311	84.82
367.522	17.24
367.733	138.07
367.944	72.53
368.155	86.87
368.366	129.88
368.577	56.15
368.788	109.4
368.999	7
369.209	82.77
369.42	199.51
369.631	162.64
369.842	123.73
370.053	72.53
370.264	78.68
370.474	17.24
370.685	119.64
370.896	80.72
371.107	131.92
371.317	93.01
371.528	103.25
371.739	140.12
371.95	174.93
372.16	142.16
372.371	-60.59
372.582	-1.19
372.792	68.44
373.003	31.57
373.214	115.54
373.424	115.54
373.635	-15.53
373.846	250.71
374.056	45.91
374.267	13.14
374.477	168.79
374.688	45.91
374.898	70.48
375.109	105.3
375.319	62.29
375.53	125.78
375.74	148.31
375.951	17.24
376.161	52.05
376.372	54.1
376.582	25.43
376.793	74.58
377.003	-33.96
377.214	19.29
377.424	109.4
377.635	19.29
377.845	17.24
378.055	183.12
378.266	-19.63
378.476	19.29
378.686	95.06
378.897	86.87
379.107	136.02
379.317	58.2
379.528	4.95
379.738	101.2
379.948	-83.11
380.158	160.59
380.369	47.96
380.579	140.12
380.789	21.33
380.999	68.44
381.21	68.44
381.42	279.38
381.63	70.48
381.84	33.62
382.05	76.63
382.261	93.01
382.471	158.55
382.681	39.76
382.891	170.83
383.101	43.86
383.311	-38.06
383.521	-42.15
383.731	131.92
383.941	121.68
384.151	78.68
384.361	66.39
384.571	111.44
384.781	54.1
384.991	262.99
385.201	123.73
385.411	72.53
385.621	109.4
385.831	25.43
386.041	13.14
386.251	129.88
386.461	179.03
386.671	-33.96
386.881	54.1
387.091	7
387.301	168.79
387.511	72.53
387.72	95.06
387.93	144.21
388.14	-15.53
388.35	115.54
388.56	138.07
388.769	95.06
388.979	80.72
389.189	66.39
389.399	33.62
389.609	0.85
389.818	109.4
390.028	86.87
390.238	136.02
390.447	37.72
390.657	39.76
390.867	62.29
391.076	17.24
391.286	50
391.496	39.76
391.705	162.64
391.915	148.31
392.125	123.73
392.334	-1.19
392.544	99.16
392.753	31.57
392.963	60.24
393.172	80.72
393.382	-42.15
393.591	236.37
393.801	11.09
394.01	148.31
394.22	121.68
394.429	-50.35
394.639	70.48
394.848	-9.39
395.058	66.39
395.267	131.92
395.477	131.92
395.686	64.34
395.895	138.07
396.105	170.83
396.314	70.48
396.524	-3.24
396.733	-29.87
396.942	193.36
397.152	74.58
397.361	105.3
397.57	43.86
397.78	117.59
397.989	133.97
398.198	234.32
398.407	56.15
398.617	93.01
398.826	25.43
399.035	-27.82
399.244	82.77
399.453	90.96
399.663	88.92
399.872	129.88
400.081	27.48
400.29	189.27
400.499	-27.82
400.708	107.35
400.917	43.86
401.127	31.57
401.336	58.2
401.545	209.75
401.754	144.21
401.963	64.34
402.172	11.09
402.381	23.38
402.59	29.52
402.799	88.92
403.008	127.83
403.217	23.38
403.426	50
403.635	-25.77
403.844	47.96
404.053	31.57
404.262	41.81
404.471	166.74
404.68	68.44
404.888	58.2
405.097	62.29
405.306	47.96
405.515	140.12
405.724	27.48
405.933	97.11
406.142	111.44
406.35	226.13
406.559	4.95
406.768	88.92
406.977	121.68
407.185	66.39
407.394	95.06
407.603	25.43
407.812	4.95
408.02	131.92
408.229	52.05
408.438	60.24
408.646	11.09
408.855	-9.39
409.064	136.02
409.272	58.2
409.481	119.64
409.69	-36.01
409.898	0.85
410.107	56.15
410.315	133.97
410.524	-7.34
410.733	60.24
410.941	35.67
411.15	99.16
411.358	84.82
411.567	234.32
411.775	15.19
411.984	23.38
412.192	13.14
412.401	21.33
412.609	154.45
412.818	136.02
413.026	64.34
413.234	27.48
413.443	133.97
413.651	13.14
413.86	17.24
414.068	209.75
414.276	185.17
414.485	-64.68
414.693	93.01
414.901	129.88
415.11	119.64
415.318	25.43
415.526	62.29
415.734	58.2
415.943	-11.43
416.151	187.22
416.359	86.87
416.567	52.05
416.776	84.82
416.984	127.83
417.192	127.83
417.4	-44.2
417.608	37.72
417.817	97.11
418.025	58.2
418.233	154.45
418.441	39.76
418.649	-36.01
418.857	95.06
419.065	60.24
419.273	86.87
419.481	115.54
419.689	-11.43
419.897	39.76
420.105	-11.43
420.313	131.92
420.521	189.27
420.729	93.01
420.937	43.86
421.145	37.72
421.353	115.54
421.561	144.21
421.769	107.35
421.977	-13.48
422.185	158.55
422.393	2.9
422.601	88.92
422.809	101.2
423.017	64.34
423.224	146.26
423.432	191.31
423.64	2.9
423.848	64.34
424.056	-25.77
424.263	90.96
424.471	35.67
424.679	168.79
424.887	-23.72
425.094	158.55
425.302	76.63
425.51	33.62
425.718	103.25
425.925	82.77
426.133	-46.25
426.341	183.12
426.548	56.15
426.756	84.82
426.964	97.11
427.171	17.24
427.379	56.15
427.586	164.69
427.794	136.02
428.001	136.02
428.209	129.88
428.417	164.69
428.624	150.36
428.832	70.48
429.039	68.44
429.247	152.4
429.454	80.72
429.662	174.93
429.869	99.16
430.076	113.49
430.284	174.93
430.491	201.55
430.699	115.54
430.906	191.31
431.114	97.11
431.321	158.55
431.528	90.96
431.736	162.64
431.943	123.73
432.15	238.42
432.358	150.36
432.565	318.29
432.772	-9.39
432.979	242.51
433.187	76.63
433.394	262.99
433.601	133.97
433.808	238.42
434.016	207.7
434.223	269.14
434.43	254.8
434.637	211.79
434.844	295.76
435.052	228.18
435.259	254.8
435.466	246.61
435.673	226.13
435.88	344.91
436.087	277.33
436.294	396.11
436.501	250.71
436.708	269.14
436.915	340.82
437.122	336.72
437.329	224.08
437.537	316.24
437.743	371.54
437.95	480.08
438.157	342.86
438.364	357.2
438.571	404.3
438.778	394.06
438.985	439.12
439.192	506.7
439.399	381.78
439.606	430.93
439.813	531.28
440.02	611.15
440.227	641.87
440.433	566.09
440.64	449.36
440.847	568.14
441.054	539.47
441.261	660.3
441.467	562
441.674	549.71
441.881	643.92
442.088	576.33
442.294	770.89
442.501	717.64
442.708	758.6
442.914	846.66
443.121	828.23
443.328	881.48
443.534	887.62
443.741	881.48
443.948	815.94
444.154	981.83
444.361	1186.63
444.568	942.92
444.774	850.76
444.981	932.68
445.187	1153.86
445.394	1071.94
445.6	1117
445.807	1325.89
446.013	1291.07
446.22	1055.56
446.426	1286.98
446.633	1344.32
446.839	1592.13
447.046	1391.42
447.252	1555.26
447.459	1633.08
447.665	1657.66
447.871	1878.84
448.078	1868.6
448.284	1907.51
448.491	2063.16
448.697	2036.53
448.903	2210.61
449.11	2214.71
449.316	2036.53
449.522	2478.9
449.728	2388.78
449.935	2372.4
450.141	2468.66
450.347	2583.34
450.553	2632.49
450.76	2710.32
450.966	2933.54
451.172	3031.85
451.378	3048.23
451.584	3160.87
451.791	3431.2
451.997	3447.58
452.203	3304.23
452.409	3738.4
452.615	3908.38
452.821	3699.48
453.027	3939.1
453.233	4408.08
453.44	4240.15
453.646	4569.87
453.852	4616.97
454.058	4696.85
454.264	4870.92
454.47	5331.72
454.676	5366.53
454.882	5663.49
455.088	5384.96
455.294	5747.45
455.5	6222.58
455.705	6447.86
455.911	6568.69
456.117	6636.27
456.323	7088.87
456.529	7047.91
456.735	7770.85
456.941	7820
457.147	8182.49
457.352	8260.31
457.558	8579.79
457.764	9263.82
457.97	9321.16
458.176	9722.56
458.381	10119.87
458.587	10228.41
458.793	10789.55
458.999	10947.25
459.204	12087.96
459.41	12468.89
459.616	12386.97
459.821	13257.36
460.027	13736.58
460.233	14533.24
460.438	14389.88
460.644	15417.96
460.85	15170.16
461.055	16245.34
461.261	16855.64
461.466	16527.96
461.672	16489.05
461.878	18461.24
462.083	18541.11
462.289	18965.04
462.494	19733.03
462.7	19581.48
462.905	20056.61
463.111	21936.65
463.316	23079.41
463.522	22940.15
463.727	24041.96
463.932	24705.5
464.138	25709.01
464.343	26448.32
464.549	26878.4
464.754	28918.17
464.959	29366.68
465.165	29780.37
465.37	29671.82
465.575	29712.78
465.781	31922.54
465.986	32608.61
466.191	31963.5
466.397	32538.98
466.602	31781.23
466.807	33792.34
467.012	33892.69
467.218	34609.48
467.423	34654.53
467.628	35832.11
467.833	37486.87
468.038	36673.83
468.244	36557.1
468.449	38361.36
468.654	37431.58
468.859	37390.62
469.064	37081.38
469.269	36567.34
