Data from USB4F104151__274__11-20-46-531.txt Node

Date: Wed Feb 26 11:20:46 EST 2025
User: louis
Spectrometer: USB4F10415
Trigger mode: 4
Integration Time (sec): 1.000000E-1
Scans to average: 1
Electric dark correction enabled: true
Nonlinearity correction enabled: false
Boxcar width: 0
XAxis mode: Wavelengths
Number of Pixels in Spectrum: 3648
>>>>>Begin Spectral Data<<<<<
178.204	-428.88
178.424	-428.88
178.644	-428.88
178.864	-461.65
179.084	-338.77
179.304	-7
179.524	-56.15
179.744	3.24
179.964	79.02
180.184	46.25
180.404	-29.52
180.624	-31.57
180.844	-45.91
181.064	-35.67
181.283	44.2
181.503	-27.48
181.723	60.59
181.943	-162.64
182.163	199.85
182.383	-33.62
182.602	52.39
182.822	56.49
183.042	91.31
183.262	-21.33
183.482	17.58
183.701	3.24
183.921	171.18
184.141	-39.76
184.361	95.4
184.58	79.02
184.8	25.77
185.02	-64.34
185.239	46.25
185.459	-29.52
185.679	23.72
185.898	-133.97
186.118	-2.9
186.338	42.15
186.557	64.68
186.777	-56.15
186.997	-27.48
187.216	87.21
187.436	144.55
187.655	13.48
187.875	76.97
188.095	-7
188.314	136.36
188.534	113.83
188.753	-29.52
188.973	91.31
189.192	152.74
189.412	5.29
189.631	-37.72
189.851	83.11
190.07	105.64
190.29	-29.52
190.509	38.06
190.729	29.87
190.948	33.96
191.168	208.04
191.387	64.68
191.607	36.01
191.826	9.39
192.045	-4.95
192.265	-50
192.484	50.35
192.704	-2.9
192.923	-58.2
193.142	142.5
193.362	126.12
193.581	160.94
193.8	31.91
194.02	-11.09
194.239	33.96
194.458	36.01
194.678	-19.29
194.897	-72.53
195.116	-23.38
195.335	68.78
195.555	25.77
195.774	-37.72
195.993	70.83
196.212	44.2
196.432	7.34
196.651	48.3
196.87	74.92
197.089	205.99
197.308	-25.43
197.528	15.53
197.747	-35.67
197.966	50.35
198.185	50.35
198.404	-64.34
198.623	5.29
198.842	107.69
199.062	29.87
199.281	136.36
199.5	-9.05
199.719	56.49
199.938	62.63
200.157	64.68
200.376	103.59
200.595	85.16
200.814	21.67
201.033	-25.43
201.252	122.02
201.471	19.63
201.69	58.54
201.909	-0.85
202.128	146.6
202.347	97.45
202.566	31.91
202.785	-4.95
203.004	-50
203.223	191.66
203.442	-47.96
203.661	-52.05
203.879	9.39
204.098	181.42
204.317	-43.86
204.536	89.26
204.755	56.49
204.974	162.98
205.193	-119.64
205.411	117.93
205.63	25.77
205.849	87.21
206.068	-43.86
206.287	-66.39
206.505	193.7
206.724	-17.24
206.943	-43.86
207.162	-37.72
207.381	11.43
207.599	11.43
207.818	17.58
208.037	-54.1
208.255	9.39
208.474	48.3
208.693	58.54
208.911	85.16
209.13	1.19
209.349	99.5
209.567	58.54
209.786	95.4
210.005	103.59
210.223	7.34
210.442	-121.68
210.661	33.96
210.879	99.5
211.098	-19.29
211.316	31.91
211.535	40.11
211.753	-52.05
211.972	146.6
212.191	-29.52
212.409	-15.19
212.628	79.02
212.846	-125.78
213.065	23.72
213.283	128.17
213.502	-23.38
213.72	-21.33
213.938	13.48
214.157	-21.33
214.375	197.8
214.594	46.25
214.812	68.78
215.031	11.43
215.249	-33.62
215.467	56.49
215.686	5.29
215.904	54.44
216.122	25.77
216.341	99.5
216.559	-58.2
216.778	44.2
216.996	113.83
217.214	-11.09
217.432	-4.95
217.651	-15.19
217.869	-4.95
218.087	13.48
218.306	40.11
218.524	-97.11
218.742	13.48
218.96	173.22
219.179	-2.9
219.397	7.34
219.615	173.22
219.833	58.54
220.051	-70.48
220.27	48.3
220.488	60.59
220.706	-23.38
220.924	-33.62
221.142	64.68
221.36	56.49
221.578	79.02
221.796	-39.76
222.015	42.15
222.233	5.29
222.451	134.31
222.669	-78.68
222.887	62.63
223.105	-37.72
223.323	-19.29
223.541	-15.19
223.759	70.83
223.977	-72.53
224.195	158.89
224.413	48.3
224.631	23.72
224.849	46.25
225.067	167.08
225.285	-86.87
225.503	-2.9
225.721	-58.2
225.939	81.07
226.157	-17.24
226.375	208.04
226.592	-76.63
226.81	25.77
227.028	-47.96
227.246	87.21
227.464	46.25
227.682	175.27
227.9	66.73
228.117	54.44
228.335	54.44
228.553	-29.52
228.771	1.19
228.989	15.53
229.206	56.49
229.424	40.11
229.642	-54.1
229.86	7.34
230.077	156.84
230.295	72.87
230.513	95.4
230.731	40.11
230.948	156.84
231.166	150.7
231.384	-15.19
231.601	-33.62
231.819	167.08
232.037	-0.85
232.254	-25.43
232.472	-2.9
232.689	-37.72
232.907	70.83
233.125	-29.52
233.342	15.53
233.56	-37.72
233.777	-25.43
233.995	15.53
234.213	134.31
234.43	46.25
234.648	81.07
234.865	-72.53
235.083	99.5
235.3	-9.05
235.518	42.15
235.735	156.84
235.953	76.97
236.17	9.39
236.388	5.29
236.605	-17.24
236.822	5.29
237.04	115.88
237.257	64.68
237.475	-4.95
237.692	5.29
237.909	17.58
238.127	-35.67
238.344	17.58
238.562	48.3
238.779	-17.24
238.996	-39.76
239.214	-25.43
239.431	19.63
239.648	-17.24
239.865	60.59
240.083	54.44
240.3	-25.43
240.517	5.29
240.735	27.82
240.952	105.64
241.169	66.73
241.386	17.58
241.603	-19.29
241.821	-88.92
242.038	117.93
242.255	79.02
242.472	-90.96
242.689	9.39
242.907	29.87
243.124	-15.19
243.341	-50
243.558	-58.2
243.775	-43.86
243.992	-35.67
244.209	56.49
244.426	195.75
244.643	46.25
244.86	66.73
245.078	62.63
245.295	29.87
245.512	44.2
245.729	-70.48
245.946	81.07
246.163	-27.48
246.38	-15.19
246.597	-56.15
246.814	81.07
247.031	-11.09
247.248	13.48
247.464	44.2
247.681	-72.53
247.898	52.39
248.115	15.53
248.332	-21.33
248.549	132.26
248.766	132.26
248.983	19.63
249.2	-31.57
249.417	64.68
249.633	-17.24
249.85	81.07
250.067	-11.09
250.284	36.01
250.501	79.02
250.717	99.5
250.934	-64.34
251.151	23.72
251.368	27.82
251.585	54.44
251.801	-15.19
252.018	-54.1
252.235	44.2
252.451	-37.72
252.668	-66.39
252.885	150.7
253.102	-15.19
253.318	-62.29
253.535	11.43
253.752	11.43
253.968	19.63
254.185	-93.01
254.401	97.45
254.618	54.44
254.835	-17.24
255.051	103.59
255.268	48.3
255.484	81.07
255.701	-35.67
255.917	62.63
256.134	-31.57
256.351	21.67
256.567	-29.52
256.784	11.43
257	-93.01
257.217	109.74
257.433	93.35
257.65	-7
257.866	103.59
258.082	-37.72
258.299	-58.2
258.515	21.67
258.732	-33.62
258.948	-88.92
259.165	-2.9
259.381	-72.53
259.597	29.87
259.814	62.63
260.03	-25.43
260.246	1.19
260.463	93.35
260.679	124.07
260.895	-37.72
261.112	60.59
261.328	-2.9
261.544	-45.91
261.761	103.59
261.977	-74.58
262.193	17.58
262.409	122.02
262.626	173.22
262.842	-25.43
263.058	15.53
263.274	99.5
263.49	70.83
263.707	36.01
263.923	76.97
264.139	-72.53
264.355	21.67
264.571	95.4
264.787	17.58
265.004	95.4
265.22	-86.87
265.436	5.29
265.652	-17.24
265.868	-21.33
266.084	-45.91
266.3	17.58
266.516	-56.15
266.732	76.97
266.948	64.68
267.164	-37.72
267.38	76.97
267.596	-13.14
267.812	115.88
268.028	1.19
268.244	1.19
268.46	3.24
268.676	-0.85
268.892	38.06
269.108	-95.06
269.324	-35.67
269.54	-60.24
269.756	62.63
269.972	-47.96
270.188	-68.44
270.403	-93.01
270.619	-60.24
270.835	72.87
271.051	56.49
271.267	-23.38
271.483	-62.29
271.698	126.12
271.914	-64.34
272.13	95.4
272.346	25.77
272.562	15.53
272.777	109.74
272.993	-9.05
273.209	-19.29
273.425	-2.9
273.64	-21.33
273.856	103.59
274.072	-11.09
274.287	40.11
274.503	50.35
274.719	60.59
274.934	-23.38
275.15	-76.63
275.366	-29.52
275.581	-19.29
275.797	19.63
276.012	-13.14
276.228	-15.19
276.444	-54.1
276.659	74.92
276.875	-45.91
277.09	-66.39
277.306	19.63
277.521	-2.9
277.737	-11.09
277.952	97.45
278.168	101.55
278.383	29.87
278.599	-45.91
278.814	60.59
279.03	-39.76
279.245	91.31
279.461	-13.14
279.676	89.26
279.892	-27.48
280.107	-131.92
280.322	5.29
280.538	60.59
280.753	-121.68
280.969	87.21
281.184	23.72
281.399	148.65
281.615	44.2
281.83	56.49
282.045	-115.54
282.26	-107.35
282.476	48.3
282.691	42.15
282.906	40.11
283.122	33.96
283.337	-29.52
283.552	87.21
283.767	15.53
283.983	13.48
284.198	1.19
284.413	36.01
284.628	-88.92
284.843	5.29
285.058	115.88
285.274	-31.57
285.489	-17.24
285.704	115.88
285.919	-23.38
286.134	44.2
286.349	15.53
286.564	58.54
286.779	201.9
286.995	-0.85
287.21	-86.87
287.425	87.21
287.64	-33.62
287.855	-2.9
288.07	-117.59
288.285	142.5
288.5	132.26
288.715	38.06
288.93	48.3
289.145	-84.82
289.36	210.09
289.575	-50
289.79	154.79
290.004	-27.48
290.219	85.16
290.434	-19.29
290.649	-88.92
290.864	-0.85
291.079	48.3
291.294	72.87
291.509	60.59
291.724	-19.29
291.938	19.63
292.153	89.26
292.368	52.39
292.583	40.11
292.798	68.78
293.012	-27.48
293.227	-45.91
293.442	40.11
293.657	83.11
293.871	52.39
294.086	40.11
294.301	154.79
294.516	60.59
294.73	42.15
294.945	-72.53
295.16	7.34
295.374	124.07
295.589	85.16
295.804	15.53
296.018	19.63
296.233	74.92
296.447	58.54
296.662	-60.24
296.877	115.88
297.091	52.39
297.306	-76.63
297.52	42.15
297.735	1.19
297.949	3.24
298.164	-0.85
298.378	-27.48
298.593	-21.33
298.807	15.53
299.022	-7
299.236	117.93
299.451	-13.14
299.665	3.24
299.88	-31.57
300.094	-4.95
300.309	-9.05
300.523	-9.05
300.737	3.24
300.952	44.2
301.166	66.73
301.381	-37.72
301.595	-33.62
301.809	103.59
302.024	50.35
302.238	-21.33
302.452	68.78
302.667	-4.95
302.881	95.4
303.095	15.53
303.309	-27.48
303.524	-60.24
303.738	-9.05
303.952	33.96
304.166	11.43
304.381	-179.03
304.595	113.83
304.809	-15.19
305.023	54.44
305.237	17.58
305.452	-74.58
305.666	19.63
305.88	7.34
306.094	99.5
306.308	19.63
306.522	56.49
306.736	74.92
306.95	50.35
307.164	17.58
307.379	81.07
307.593	99.5
307.807	103.59
308.021	-7
308.235	7.34
308.449	-125.78
308.663	15.53
308.877	173.22
309.091	1.19
309.305	9.39
309.519	-95.06
309.733	25.77
309.947	-86.87
310.161	130.22
310.374	64.68
310.588	79.02
310.802	-7
311.016	3.24
311.23	36.01
311.444	-54.1
311.658	-45.91
311.872	103.59
312.085	130.22
312.299	150.7
312.513	107.69
312.727	81.07
312.941	-56.15
313.154	1.19
313.368	68.78
313.582	-19.29
313.796	11.43
314.009	-68.44
314.223	83.11
314.437	-9.05
314.651	56.49
314.864	-37.72
315.078	54.44
315.292	-21.33
315.505	36.01
315.719	54.44
315.933	9.39
316.146	-9.05
316.36	-90.96
316.573	150.7
316.787	33.96
317.001	109.74
317.214	31.91
317.428	27.82
317.641	-19.29
317.855	-13.14
318.068	-27.48
318.282	-11.09
318.495	117.93
318.709	117.93
318.922	17.58
319.136	87.21
319.349	189.61
319.563	7.34
319.776	15.53
319.99	-64.34
320.203	152.74
320.417	64.68
320.63	97.45
320.843	97.45
321.057	15.53
321.27	38.06
321.483	72.87
321.697	95.4
321.91	52.39
322.124	-37.72
322.337	-2.9
322.55	-82.77
322.763	-11.09
322.977	-2.9
323.19	-11.09
323.403	15.53
323.617	-15.19
323.83	132.26
324.043	27.82
324.256	-23.38
324.469	-2.9
324.683	72.87
324.896	-43.86
325.109	79.02
325.322	-62.29
325.535	72.87
325.748	95.4
325.962	-17.24
326.175	-13.14
326.388	46.25
326.601	85.16
326.814	-47.96
327.027	21.67
327.24	81.07
327.453	-84.82
327.666	13.48
327.879	105.64
328.092	38.06
328.305	-15.19
328.518	-15.19
328.731	-19.29
328.944	-45.91
329.157	23.72
329.37	-60.24
329.583	138.41
329.796	169.13
330.009	-43.86
330.222	74.92
330.435	33.96
330.648	-60.24
330.861	-0.85
331.073	44.2
331.286	38.06
331.499	11.43
331.712	-68.44
331.925	33.96
332.138	-23.38
332.35	109.74
332.563	-35.67
332.776	-7
332.989	-27.48
333.202	1.19
333.414	76.97
333.627	62.63
333.84	33.96
334.053	9.39
334.265	-0.85
334.478	-50
334.691	-13.14
334.903	31.91
335.116	-54.1
335.329	-11.09
335.541	122.02
335.754	105.64
335.966	-62.29
336.179	60.59
336.392	-25.43
336.604	-35.67
336.817	97.45
337.029	-52.05
337.242	-56.15
337.454	128.17
337.667	1.19
337.88	95.4
338.092	76.97
338.305	27.82
338.517	-97.11
338.729	13.48
338.942	58.54
339.154	-45.91
339.367	-39.76
339.579	117.93
339.792	-43.86
340.004	60.59
340.217	-21.33
340.429	31.91
340.641	-7
340.854	-80.72
341.066	29.87
341.278	50.35
341.491	115.88
341.703	-45.91
341.915	-39.76
342.128	115.88
342.34	-7
342.552	-58.2
342.764	-11.09
342.977	-25.43
343.189	83.11
343.401	46.25
343.613	-54.1
343.826	-82.77
344.038	-43.86
344.25	48.3
344.462	-88.92
344.674	52.39
344.886	-9.05
345.099	-11.09
345.311	19.63
345.523	-29.52
345.735	-62.29
345.947	5.29
346.159	3.24
346.371	-13.14
346.583	42.15
346.795	216.23
347.007	-4.95
347.219	-4.95
347.431	-68.44
347.643	130.22
347.855	-29.52
348.067	113.83
348.279	-27.48
348.491	-11.09
348.703	50.35
348.915	40.11
349.127	-54.1
349.339	3.24
349.551	-33.62
349.763	154.79
349.975	89.26
350.187	87.21
350.399	76.97
350.61	142.5
350.822	-25.43
351.034	-37.72
351.246	50.35
351.458	-27.48
351.669	44.2
351.881	-17.24
352.093	93.35
352.305	46.25
352.517	46.25
352.728	109.74
352.94	25.77
353.152	17.58
353.363	-41.81
353.575	54.44
353.787	128.17
353.999	31.91
354.21	54.44
354.422	-64.34
354.633	9.39
354.845	-13.14
355.057	54.44
355.268	27.82
355.48	95.4
355.692	-43.86
355.903	-13.14
356.115	-127.83
356.326	-115.54
356.538	91.31
356.749	66.73
356.961	156.84
357.172	-2.9
357.384	-78.68
357.595	175.27
357.807	-11.09
358.018	27.82
358.23	21.67
358.441	115.88
358.653	66.73
358.864	15.53
359.075	-56.15
359.287	33.96
359.498	48.3
359.709	74.92
359.921	-27.48
360.132	72.87
360.344	31.91
360.555	25.77
360.766	64.68
360.977	-11.09
361.189	146.6
361.4	5.29
361.611	17.58
361.823	42.15
362.034	11.43
362.245	-101.2
362.456	29.87
362.667	103.59
362.879	-9.05
363.09	36.01
363.301	-11.09
363.512	38.06
363.723	19.63
363.935	33.96
364.146	38.06
364.357	38.06
364.568	29.87
364.779	-9.05
364.99	126.12
365.201	58.54
365.412	111.78
365.623	-95.06
365.834	-9.05
366.045	-7
366.256	38.06
366.467	50.35
366.678	-29.52
366.889	19.63
367.1	-50
367.311	87.21
367.522	-37.72
367.733	58.54
367.944	3.24
368.155	66.73
368.366	46.25
368.577	70.83
368.788	85.16
368.999	-66.39
369.209	105.64
369.42	144.55
369.631	249
369.842	54.44
370.053	-41.81
370.264	93.35
370.474	-99.16
370.685	56.49
370.896	-0.85
371.107	109.74
371.317	-0.85
371.528	-0.85
371.739	175.27
371.95	81.07
372.16	11.43
372.371	-39.76
372.582	-29.52
372.792	79.02
373.003	56.49
373.214	56.49
373.424	17.58
373.635	-101.2
373.846	52.39
374.056	58.54
374.267	21.67
374.477	-0.85
374.688	36.01
374.898	122.02
375.109	83.11
375.319	-15.19
375.53	70.83
375.74	97.45
375.951	-43.86
376.161	68.78
376.372	197.8
376.582	-39.76
376.793	42.15
377.003	-4.95
377.214	-4.95
377.424	38.06
377.635	-39.76
377.845	-43.86
378.055	109.74
378.266	-74.58
378.476	-4.95
378.686	23.72
378.897	1.19
379.107	91.31
379.317	113.83
379.528	5.29
379.738	46.25
379.948	-88.92
380.158	87.21
380.369	27.82
380.579	23.72
380.789	-19.29
380.999	72.87
381.21	27.82
381.42	160.94
381.63	1.19
381.84	62.63
382.05	36.01
382.261	138.41
382.471	9.39
382.681	-64.34
382.891	128.17
383.101	122.02
383.311	-72.53
383.521	-52.05
383.731	-15.19
383.941	79.02
384.151	38.06
384.361	-21.33
384.571	50.35
384.781	74.92
384.991	140.46
385.201	150.7
385.411	111.78
385.621	74.92
385.831	87.21
386.041	54.44
386.251	72.87
386.461	56.49
386.671	-37.72
386.881	74.92
387.091	-4.95
387.301	138.41
387.511	89.26
387.72	42.15
387.93	21.67
388.14	-58.2
388.35	66.73
388.56	95.4
388.769	111.78
388.979	-2.9
389.189	-15.19
389.399	-4.95
389.609	76.97
389.818	3.24
390.028	54.44
390.238	25.77
390.447	-54.1
390.657	60.59
390.867	-7
391.076	-66.39
391.286	83.11
391.496	58.54
391.705	1.19
391.915	101.55
392.125	83.11
392.334	-4.95
392.544	70.83
392.753	48.3
392.963	-47.96
393.172	144.55
393.382	5.29
393.591	148.65
393.801	-86.87
394.01	150.7
394.22	3.24
394.429	21.67
394.639	-9.05
394.848	9.39
395.058	72.87
395.267	52.39
395.477	-2.9
395.686	70.83
395.895	117.93
396.105	169.13
396.314	62.63
396.524	-4.95
396.733	-0.85
396.942	83.11
397.152	111.78
397.361	138.41
397.57	54.44
397.78	38.06
397.989	27.82
398.198	191.66
398.407	42.15
398.617	-11.09
398.826	81.07
399.035	19.63
399.244	83.11
399.453	87.21
399.663	42.15
399.872	81.07
400.081	-54.1
400.29	187.56
400.499	-27.48
400.708	171.18
400.917	-13.14
401.127	9.39
401.336	19.63
401.545	177.32
401.754	246.95
401.963	101.55
402.172	-103.25
402.381	-88.92
402.59	74.92
402.799	9.39
403.008	87.21
403.217	11.43
403.426	38.06
403.635	-140.12
403.844	-52.05
404.053	36.01
404.262	81.07
404.471	136.36
404.68	103.59
404.888	-9.05
405.097	-21.33
405.306	3.24
405.515	124.07
405.724	79.02
405.933	58.54
406.142	15.53
406.35	76.97
406.559	15.53
406.768	42.15
406.977	103.59
407.185	60.59
407.394	40.11
407.603	-60.24
407.812	9.39
408.02	111.78
408.229	38.06
408.438	54.44
408.646	-52.05
408.855	-45.91
409.064	68.78
409.272	3.24
409.481	27.82
409.69	9.39
409.898	-7
410.107	91.31
410.315	126.12
410.524	25.77
410.733	-13.14
410.941	66.73
411.15	-4.95
411.358	5.29
411.567	124.07
411.775	-29.52
411.984	52.39
412.192	46.25
412.401	-21.33
412.609	144.55
412.818	148.65
413.026	29.87
413.234	42.15
413.443	25.77
413.651	-35.67
413.86	-33.62
414.068	109.74
414.276	124.07
414.485	13.48
414.693	201.9
414.901	128.17
415.11	7.34
415.318	38.06
415.526	-13.14
415.734	91.31
415.943	19.63
416.151	167.08
416.359	31.91
416.567	74.92
416.776	144.55
416.984	107.69
417.192	191.66
417.4	-27.48
417.608	-72.53
417.817	-86.87
418.025	21.67
418.233	150.7
418.441	-97.11
418.649	-33.62
418.857	58.54
419.065	103.59
419.273	-13.14
419.481	70.83
419.689	15.53
419.897	29.87
420.105	-50
420.313	95.4
420.521	115.88
420.729	72.87
420.937	-15.19
421.145	-33.62
421.353	31.91
421.561	124.07
421.769	-4.95
421.977	-9.05
422.185	148.65
422.393	50.35
422.601	130.22
422.809	81.07
423.017	31.91
423.224	-13.14
423.432	111.78
423.64	23.72
423.848	79.02
424.056	1.19
424.263	107.69
424.471	-78.68
424.679	122.02
424.887	36.01
425.094	144.55
425.302	87.21
425.51	-43.86
425.718	21.67
425.925	109.74
426.133	46.25
426.341	140.46
426.548	64.68
426.756	-2.9
426.964	48.3
427.171	-41.81
427.379	64.68
427.586	79.02
427.794	95.4
428.001	105.64
428.209	46.25
428.417	181.42
428.624	177.32
428.832	72.87
429.039	31.91
429.247	91.31
429.454	117.93
429.662	228.52
429.869	46.25
430.076	97.45
430.284	36.01
430.491	134.31
430.699	142.5
430.906	140.46
431.114	117.93
431.321	122.02
431.528	70.83
431.736	193.7
431.943	52.39
432.15	138.41
432.358	113.83
432.565	244.9
432.772	27.82
432.979	195.75
433.187	134.31
433.394	138.41
433.601	25.77
433.808	218.28
434.016	197.8
434.223	201.9
434.43	230.57
434.637	150.7
434.844	179.37
435.052	179.37
435.259	189.61
435.466	242.85
435.673	205.99
435.88	218.28
436.087	246.95
436.294	279.72
436.501	298.15
436.708	236.71
436.915	195.75
437.122	332.97
437.329	181.42
437.537	230.57
437.743	273.57
437.95	400.55
438.157	320.68
438.364	318.63
438.571	367.78
438.778	306.34
438.985	361.64
439.192	390.31
439.399	345.25
439.606	349.35
439.813	464.04
440.02	511.14
440.227	498.85
440.433	418.98
440.64	476.32
440.847	418.98
441.054	453.8
441.261	582.82
441.467	543.91
441.674	412.84
441.881	656.54
442.088	525.47
442.294	627.87
442.501	670.88
442.708	699.55
442.914	672.93
443.121	660.64
443.328	627.87
443.534	818.33
443.741	697.5
443.948	679.07
444.154	885.92
444.361	992.41
444.568	795.81
444.774	910.49
444.981	816.29
445.187	971.93
445.394	906.4
445.6	961.69
445.807	1053.85
446.013	1027.23
446.22	1023.13
446.426	1180.82
446.633	1150.11
446.839	1383.57
447.046	1172.63
447.252	1311.89
447.459	1359
447.665	1338.52
447.871	1524.88
448.078	1565.84
448.284	1502.36
448.491	1772.69
448.697	1860.75
448.903	1797.26
449.11	1791.12
449.316	1856.65
449.522	2092.17
449.728	2077.83
449.935	2225.29
450.141	2163.85
450.347	2356.36
450.553	2256.01
450.76	2348.17
450.966	2438.28
451.172	2575.49
451.378	2665.6
451.584	2632.83
451.791	2905.21
451.997	3005.56
452.203	3097.72
452.409	3193.98
452.615	3427.45
452.821	3247.23
453.027	3236.99
453.233	3783.79
453.44	3574.9
453.646	3654.77
453.852	3853.42
454.058	4002.93
454.264	4019.31
454.47	4465.77
454.676	4486.25
454.882	4838.5
455.088	4680.8
455.294	4988
455.5	5342.3
455.705	5647.44
455.911	5506.13
456.117	5719.12
456.323	5952.59
456.529	5921.87
456.735	6450.25
456.941	6708.29
457.147	6884.42
457.352	7187.52
457.558	7339.07
457.764	7652.41
457.97	7951.41
458.176	8168.49
458.381	8739.88
458.587	8827.94
458.793	9258.01
458.999	9251.87
459.204	10222.61
459.41	10871.81
459.616	10564.62
459.821	11054.08
460.027	11727.86
460.233	12377.07
460.438	12213.23
460.644	12762.09
460.85	12981.22
461.055	13585.37
461.261	14349.26
461.466	13974.49
461.672	14138.32
461.878	16034.74
462.083	15700.92
462.289	15948.73
462.494	16774.06
462.7	16939.94
462.905	17177.51
463.111	18688.91
463.316	19368.84
463.522	19786.62
463.727	20527.99
463.932	21414.76
464.138	22033.24
464.343	22661.97
464.549	22879.05
464.754	24578.87
464.959	25430.82
465.165	25645.86
465.37	25164.59
465.575	25373.48
465.781	27007.76
465.986	27663.11
466.191	27851.52
466.397	27652.87
466.602	27106.06
466.807	28975.86
467.012	29143.79
467.218	29795.04
467.423	29899.49
467.628	30937.81
467.833	32185.02
468.038	31810.25
468.244	30794.45
468.449	32832.18
468.654	32195.26
468.859	32297.66
