Data from USB4F104151__102__10-45-25-863.txt Node

Date: Wed Feb 26 10:45:25 EST 2025
User: louis
Spectrometer: USB4F10415
Trigger mode: 4
Integration Time (sec): 1.000000E-1
Scans to average: 1
Electric dark correction enabled: true
Nonlinearity correction enabled: false
Boxcar width: 0
XAxis mode: Wavelengths
Number of Pixels in Spectrum: 3648
>>>>>Begin Spectral Data<<<<<
178.204	-364.54
178.424	-364.54
178.644	-364.54
178.864	-409.59
179.084	-399.35
179.304	-22.53
179.524	-65.53
179.744	57.34
179.964	75.77
180.184	-12.29
180.404	55.3
180.624	-26.62
180.844	-51.2
181.064	-45.06
181.283	38.91
181.503	-55.3
181.723	51.2
181.943	-81.92
182.163	223.23
182.383	-12.29
182.602	67.58
182.822	192.51
183.042	108.54
183.262	-53.25
183.482	0
183.701	53.25
183.921	-16.38
184.141	-36.86
184.361	106.49
184.58	55.3
184.8	40.96
185.02	-43.01
185.239	28.67
185.459	47.1
185.679	106.49
185.898	-98.3
186.118	-40.96
186.338	34.82
186.557	86.01
186.777	-24.58
186.997	-2.05
187.216	73.73
187.436	262.14
187.655	151.55
187.875	67.58
188.095	34.82
188.314	176.13
188.534	96.25
188.753	18.43
188.973	83.97
189.192	178.17
189.412	114.69
189.631	118.78
189.851	75.77
190.07	217.08
190.29	-88.06
190.509	24.58
190.729	32.77
190.948	174.08
191.168	247.8
191.387	61.44
191.607	-24.58
191.826	88.06
192.045	-71.68
192.265	-4.1
192.484	79.87
192.704	2.05
192.923	-20.48
193.142	200.7
193.362	112.64
193.581	116.73
193.8	147.45
194.02	57.34
194.239	51.2
194.458	53.25
194.678	-8.19
194.897	32.77
195.116	-51.2
195.335	63.49
195.555	45.06
195.774	-4.1
195.993	139.26
196.212	10.24
196.432	94.21
196.651	47.1
196.87	47.1
197.089	331.77
197.308	51.2
197.528	108.54
197.747	10.24
197.966	65.54
198.185	143.36
198.404	40.96
198.623	61.44
198.842	63.49
199.062	124.93
199.281	153.6
199.5	24.58
199.719	49.15
199.938	79.87
200.157	135.17
200.376	57.34
200.595	116.73
200.814	63.49
201.033	24.58
201.252	178.17
201.471	65.54
201.69	88.06
201.909	75.77
202.128	45.06
202.347	36.86
202.566	34.82
202.785	-45.06
203.004	12.29
203.223	258.04
203.442	86.01
203.661	10.24
203.879	79.87
204.098	143.36
204.317	-20.48
204.536	126.97
204.755	135.17
204.974	77.82
205.193	77.82
205.411	172.03
205.63	131.07
205.849	86.01
206.068	69.63
206.287	20.48
206.505	172.03
206.724	-73.73
206.943	12.29
207.162	24.58
207.381	61.44
207.599	8.19
207.818	30.72
208.037	-32.77
208.255	90.11
208.474	108.54
208.693	75.77
208.911	51.2
209.13	120.83
209.349	92.16
209.567	90.11
209.786	194.56
210.005	124.93
210.223	47.1
210.442	-100.35
210.661	-22.53
210.879	26.62
211.098	90.11
211.316	81.92
211.535	65.54
211.753	-12.29
211.972	51.2
212.191	83.97
212.409	34.82
212.628	215.04
212.846	14.34
213.065	51.2
213.283	137.21
213.502	34.82
213.72	36.86
213.938	96.25
214.157	4.1
214.375	34.82
214.594	57.34
214.812	120.83
215.031	47.1
215.249	36.86
215.467	4.1
215.686	-10.24
215.904	118.78
216.122	49.15
216.341	112.64
216.559	47.1
216.778	114.69
216.996	141.31
217.214	28.67
217.432	57.34
217.651	-57.34
217.869	102.4
218.087	59.39
218.306	75.77
218.524	49.15
218.742	36.86
218.96	79.87
219.179	-28.67
219.397	43.01
219.615	317.44
219.833	16.38
220.051	-67.58
220.27	114.69
220.488	139.26
220.706	51.2
220.924	34.82
221.142	-45.06
221.36	135.17
221.578	69.63
221.796	-36.86
222.015	55.3
222.233	108.54
222.451	145.41
222.669	16.38
222.887	47.1
223.105	14.34
223.323	2.05
223.541	-90.11
223.759	38.91
223.977	102.4
224.195	81.92
224.413	114.69
224.631	71.68
224.849	40.96
225.067	165.89
225.285	-22.53
225.503	34.82
225.721	-30.72
225.939	83.97
226.157	47.1
226.375	194.56
226.592	45.06
226.81	12.29
227.028	104.45
227.246	180.22
227.464	2.05
227.682	98.3
227.9	45.06
228.117	69.63
228.335	120.83
228.553	71.68
228.771	-49.15
228.989	73.73
229.206	208.89
229.424	47.1
229.642	4.1
229.86	32.77
230.077	184.32
230.295	90.11
230.513	153.6
230.731	139.26
230.948	55.3
231.166	126.97
231.384	18.43
231.601	-24.58
231.819	157.69
232.037	2.05
232.254	-26.62
232.472	10.24
232.689	-26.62
232.907	106.49
233.125	-4.1
233.342	-10.24
233.56	-12.29
233.777	90.11
233.995	18.43
234.213	124.93
234.43	65.54
234.648	28.67
234.865	-51.2
235.083	32.77
235.3	10.24
235.518	28.67
235.735	131.07
235.953	34.82
236.17	90.11
236.388	45.06
236.605	86.01
236.822	92.16
237.04	147.45
237.257	-14.34
237.475	6.14
237.692	129.02
237.909	67.58
238.127	36.86
238.344	100.35
238.562	145.41
238.779	-45.06
238.996	10.24
239.214	129.02
239.431	79.87
239.648	63.49
239.865	157.69
240.083	112.64
240.3	-12.29
240.517	16.38
240.735	51.2
240.952	147.45
241.169	36.86
241.386	116.73
241.603	98.3
241.821	-24.58
242.038	110.59
242.255	79.87
242.472	20.48
242.689	67.58
242.907	4.1
243.124	57.34
243.341	2.05
243.558	-61.44
243.775	-45.06
243.992	-16.38
244.209	126.97
244.426	235.52
244.643	114.69
244.86	36.86
245.078	88.06
245.295	106.49
245.512	16.38
245.729	6.14
245.946	51.2
246.163	114.69
246.38	6.14
246.597	71.68
246.814	36.86
247.031	51.2
247.248	67.58
247.464	88.06
247.681	96.25
247.898	65.54
248.115	77.82
248.332	-18.43
248.549	200.7
248.766	110.59
248.983	69.63
249.2	67.58
249.417	102.4
249.633	-10.24
249.85	133.12
250.067	-6.14
250.284	-28.67
250.501	0
250.717	79.87
250.934	-16.38
251.151	20.48
251.368	-45.06
251.585	45.06
251.801	77.82
252.018	-61.44
252.235	90.11
252.451	-8.19
252.668	10.24
252.885	90.11
253.102	83.97
253.318	34.82
253.535	135.17
253.752	26.62
253.968	14.34
254.185	-47.1
254.401	61.44
254.618	90.11
254.835	36.86
255.051	147.45
255.268	159.74
255.484	67.58
255.701	79.87
255.917	40.96
256.134	-4.1
256.351	47.1
256.567	-16.38
256.784	71.68
257	-36.86
257.217	161.79
257.433	169.98
257.65	96.25
257.866	139.26
258.082	-53.25
258.299	28.67
258.515	8.19
258.732	79.87
258.948	-32.77
259.165	90.11
259.381	-10.24
259.597	104.45
259.814	79.87
260.03	57.34
260.246	77.82
260.463	139.26
260.679	71.68
260.895	4.1
261.112	86.01
261.328	81.92
261.544	-6.14
261.761	192.51
261.977	40.96
262.193	-43.01
262.409	153.6
262.626	59.39
262.842	61.44
263.058	-6.14
263.274	102.4
263.49	94.21
263.707	81.92
263.923	86.01
264.139	-79.87
264.355	73.73
264.571	174.08
264.787	75.77
265.004	116.73
265.22	61.44
265.436	40.96
265.652	38.91
265.868	108.54
266.084	38.91
266.3	81.92
266.516	40.96
266.732	45.06
266.948	61.44
267.164	28.67
267.38	90.11
267.596	102.4
267.812	202.75
268.028	28.67
268.244	-24.58
268.46	81.92
268.676	77.82
268.892	2.05
269.108	-32.77
269.324	-55.3
269.54	-81.92
269.756	92.16
269.972	-16.38
270.188	94.21
270.403	0
270.619	-63.49
270.835	114.69
271.051	100.35
271.267	163.84
271.483	-40.96
271.698	149.5
271.914	71.68
272.13	2.05
272.346	-22.53
272.562	110.59
272.777	79.87
272.993	-14.34
273.209	34.82
273.425	73.73
273.64	-38.91
273.856	104.45
274.072	8.19
274.287	22.53
274.503	40.96
274.719	18.43
274.934	-14.34
275.15	-49.15
275.366	28.67
275.581	-2.05
275.797	45.06
276.012	73.73
276.228	40.96
276.444	100.35
276.659	43.01
276.875	24.58
277.09	79.87
277.306	28.67
277.521	112.64
277.737	-18.43
277.952	116.73
278.168	28.67
278.383	67.58
278.599	-6.14
278.814	63.49
279.03	-6.14
279.245	184.32
279.461	30.72
279.676	137.21
279.892	22.53
280.107	-55.3
280.322	-6.14
280.538	79.87
280.753	-65.53
280.969	114.69
281.184	26.62
281.399	118.78
281.615	110.59
281.83	129.02
282.045	-73.73
282.26	-20.48
282.476	81.92
282.691	176.13
282.906	114.69
283.122	65.54
283.337	-22.53
283.552	90.11
283.767	34.82
283.983	102.4
284.198	51.2
284.413	98.3
284.628	-51.2
284.843	34.82
285.058	104.45
285.274	40.96
285.489	18.43
285.704	51.2
285.919	28.67
286.134	-8.19
286.349	38.91
286.564	71.68
286.779	157.69
286.995	-22.53
287.21	20.48
287.425	55.3
287.64	-10.24
287.855	65.54
288.07	-10.24
288.285	126.97
288.5	131.07
288.715	57.34
288.93	32.77
289.145	6.14
289.36	180.22
289.575	98.3
289.79	57.34
290.004	26.62
290.219	116.73
290.434	-22.53
290.649	49.15
290.864	14.34
291.079	65.54
291.294	67.58
291.509	51.2
291.724	133.12
291.938	59.39
292.153	114.69
292.368	61.44
292.583	90.11
292.798	129.02
293.012	38.91
293.227	110.59
293.442	4.1
293.657	92.16
293.871	182.27
294.086	43.01
294.301	194.56
294.516	118.78
294.73	124.93
294.945	-30.72
295.16	28.67
295.374	155.65
295.589	28.67
295.804	8.19
296.018	69.63
296.233	120.83
296.447	12.29
296.662	-43.01
296.877	139.26
297.091	94.21
297.306	8.19
297.52	55.3
297.735	139.26
297.949	88.06
298.164	92.16
298.378	73.73
298.593	6.14
298.807	-22.53
299.022	96.25
299.236	120.83
299.451	-86.01
299.665	30.72
299.88	47.1
300.094	71.68
300.309	61.44
300.523	0
300.737	-24.58
300.952	65.54
301.166	36.86
301.381	-14.34
301.595	16.38
301.809	10.24
302.024	10.24
302.238	-73.73
302.452	112.64
302.667	16.38
302.881	141.31
303.095	79.87
303.309	118.78
303.524	20.48
303.738	34.82
303.952	40.96
304.166	77.82
304.381	-61.44
304.595	182.27
304.809	65.54
305.023	69.63
305.237	49.15
305.452	-4.1
305.666	69.63
305.88	28.67
306.094	94.21
306.308	147.45
306.522	137.21
306.736	6.14
306.95	112.64
307.164	77.82
307.379	67.58
307.593	75.77
307.807	182.27
308.021	71.68
308.235	67.58
308.449	-63.49
308.663	30.72
308.877	239.61
309.091	79.87
309.305	65.54
309.519	-106.49
309.733	102.4
309.947	28.67
310.161	75.77
310.374	145.41
310.588	96.25
310.802	10.24
311.016	10.24
311.23	77.82
311.444	-55.3
311.658	86.01
311.872	55.3
312.085	151.55
312.299	137.21
312.513	194.56
312.727	71.68
312.941	-14.34
313.154	8.19
313.368	40.96
313.582	77.82
313.796	73.73
314.009	71.68
314.223	202.75
314.437	131.07
314.651	77.82
314.864	53.25
315.078	34.82
315.292	28.67
315.505	4.1
315.719	51.2
315.933	116.73
316.146	108.54
316.36	-10.24
316.573	118.78
316.787	69.63
317.001	-4.1
317.214	-24.58
317.428	4.1
317.641	-57.34
317.855	-4.1
318.068	71.68
318.282	30.72
318.495	194.56
318.709	36.86
318.922	59.39
319.136	143.36
319.349	192.51
319.563	4.1
319.776	77.82
319.99	-120.83
320.203	118.78
320.417	24.58
320.63	100.35
320.843	223.23
321.057	20.48
321.27	96.25
321.483	79.87
321.697	114.69
321.91	65.54
322.124	2.05
322.337	92.16
322.55	75.77
322.763	12.29
322.977	-4.1
323.19	16.38
323.403	55.3
323.617	102.4
323.83	147.45
324.043	26.62
324.256	36.86
324.469	-61.44
324.683	137.21
324.896	49.15
325.109	67.58
325.322	-26.62
325.535	129.02
325.748	147.45
325.962	51.2
326.175	94.21
326.388	43.01
326.601	122.88
326.814	-22.53
327.027	118.78
327.24	167.93
327.453	-65.53
327.666	51.2
327.879	122.88
328.092	88.06
328.305	110.59
328.518	51.2
328.731	94.21
328.944	2.05
329.157	67.58
329.37	34.82
329.583	133.12
329.796	88.06
330.009	-8.19
330.222	120.83
330.435	124.93
330.648	36.86
330.861	100.35
331.073	51.2
331.286	112.64
331.499	-36.86
331.712	-2.05
331.925	40.96
332.138	61.44
332.35	79.87
332.563	55.3
332.776	176.13
332.989	-12.29
333.202	30.72
333.414	22.53
333.627	18.43
333.84	-40.96
334.053	86.01
334.265	4.1
334.478	34.82
334.691	26.62
334.903	-18.43
335.116	71.68
335.329	16.38
335.541	79.87
335.754	200.7
335.966	43.01
336.179	63.49
336.392	36.86
336.604	12.29
336.817	116.73
337.029	133.12
337.242	104.45
337.454	88.06
337.667	86.01
337.88	174.08
338.092	65.54
338.305	96.25
338.517	22.53
338.729	133.12
338.942	135.17
339.154	2.05
339.367	-18.43
339.579	118.78
339.792	-40.96
340.004	73.73
340.217	53.25
340.429	139.26
340.641	20.48
340.854	43.01
341.066	-69.63
341.278	30.72
341.491	149.5
341.703	16.38
341.915	-61.44
342.128	102.4
342.34	88.06
342.552	-28.67
342.764	14.34
342.977	59.39
343.189	106.49
343.401	79.87
343.613	-36.86
343.826	28.67
344.038	-36.86
344.25	43.01
344.462	0
344.674	75.77
344.886	51.2
345.099	83.97
345.311	81.92
345.523	0
345.735	-51.2
345.947	-16.38
346.159	77.82
346.371	69.63
346.583	96.25
346.795	243.71
347.007	-10.24
347.219	69.63
347.431	-4.1
347.643	96.25
347.855	12.29
348.067	81.92
348.279	-51.2
348.491	81.92
348.703	96.25
348.915	34.82
349.127	-40.96
349.339	40.96
349.551	47.1
349.763	98.3
349.975	38.91
350.187	57.34
350.399	63.49
350.61	55.3
350.822	32.77
351.034	55.3
351.246	126.97
351.458	51.2
351.669	94.21
351.881	186.37
352.093	114.69
352.305	120.83
352.517	145.41
352.728	120.83
352.94	83.97
353.152	133.12
353.363	-14.34
353.575	92.16
353.787	253.95
353.999	61.44
354.21	149.5
354.422	-32.77
354.633	104.45
354.845	61.44
355.057	100.35
355.268	45.06
355.48	180.22
355.692	-30.72
355.903	38.91
356.115	24.58
356.326	-16.38
356.538	102.4
356.749	47.1
356.961	153.6
357.172	10.24
357.384	-30.72
357.595	241.66
357.807	14.34
358.018	38.91
358.23	38.91
358.441	120.83
358.653	-2.05
358.864	86.01
359.075	-71.68
359.287	51.2
359.498	53.25
359.709	98.3
359.921	69.63
360.132	143.36
360.344	45.06
360.555	45.06
360.766	59.39
360.977	24.58
361.189	198.65
361.4	51.2
361.611	137.21
361.823	71.68
362.034	36.86
362.245	-16.38
362.456	14.34
362.667	92.16
362.879	16.38
363.09	75.77
363.301	88.06
363.512	96.25
363.723	-32.77
363.935	43.01
364.146	116.73
364.357	20.48
364.568	-10.24
364.779	-112.64
364.99	159.74
365.201	-12.29
365.412	174.08
365.623	-28.67
365.834	86.01
366.045	30.72
366.256	18.43
366.467	129.02
366.678	-14.34
366.889	81.92
367.1	-24.58
367.311	100.35
367.522	24.58
367.733	94.21
367.944	108.54
368.155	-18.43
368.366	143.36
368.577	104.45
368.788	69.63
368.999	20.48
369.209	96.25
369.42	135.17
369.631	262.14
369.842	118.78
370.053	12.29
370.264	2.05
370.474	-10.24
370.685	94.21
370.896	16.38
371.107	77.82
371.317	83.97
371.528	-36.86
371.739	161.79
371.95	167.93
372.16	77.82
372.371	65.54
372.582	36.86
372.792	28.67
373.003	36.86
373.214	43.01
373.424	6.14
373.635	69.63
373.846	112.64
374.056	75.77
374.267	94.21
374.477	61.44
374.688	65.54
374.898	83.97
375.109	43.01
375.319	30.72
375.53	159.74
375.74	71.68
375.951	108.54
376.161	110.59
376.372	219.13
376.582	8.19
376.793	12.29
377.003	55.3
377.214	-14.34
377.424	135.17
377.635	90.11
377.845	34.82
378.055	249.85
378.266	0
378.476	-12.29
378.686	124.93
378.897	36.86
379.107	110.59
379.317	161.79
379.528	12.29
379.738	114.69
379.948	-10.24
380.158	57.34
380.369	38.91
380.579	90.11
380.789	28.67
380.999	192.51
381.21	163.84
381.42	153.6
381.63	51.2
381.84	102.4
382.05	114.69
382.261	49.15
382.471	159.74
382.681	30.72
382.891	153.6
383.101	83.97
383.311	-36.86
383.521	16.38
383.731	75.77
383.941	124.93
384.151	-14.34
384.361	18.43
384.571	139.26
384.781	149.5
384.991	126.97
385.201	88.06
385.411	71.68
385.621	75.77
385.831	65.54
386.041	79.87
386.251	57.34
386.461	94.21
386.671	63.49
386.881	108.54
387.091	-63.49
387.301	94.21
387.511	88.06
387.72	61.44
387.93	133.12
388.14	-53.25
388.35	108.54
388.56	124.93
388.769	137.21
388.979	22.53
389.189	-8.19
389.399	34.82
389.609	163.84
389.818	96.25
390.028	116.73
390.238	98.3
390.447	10.24
390.657	153.6
390.867	51.2
391.076	-8.19
391.286	36.86
391.496	30.72
391.705	38.91
391.915	116.73
392.125	155.65
392.334	36.86
392.544	190.46
392.753	51.2
392.963	26.62
393.172	32.77
393.382	22.53
393.591	202.75
393.801	53.25
394.01	112.64
394.22	104.45
394.429	67.58
394.639	131.07
394.848	40.96
395.058	96.25
395.267	63.49
395.477	124.93
395.686	90.11
395.895	227.32
396.105	151.55
396.314	100.35
396.524	12.29
396.733	-30.72
396.942	120.83
397.152	120.83
397.361	126.97
397.57	14.34
397.78	88.06
397.989	69.63
398.198	192.51
398.407	-22.53
398.617	88.06
398.826	-6.14
399.035	43.01
399.244	88.06
399.453	153.6
399.663	104.45
399.872	118.78
400.081	-20.48
400.29	180.22
400.499	-40.96
400.708	94.21
400.917	90.11
401.127	-18.43
401.336	22.53
401.545	253.95
401.754	94.21
401.963	159.74
402.172	2.05
402.381	-43.01
402.59	57.34
402.799	63.49
403.008	137.21
403.217	137.21
403.426	100.35
403.635	-98.3
403.844	100.35
404.053	40.96
404.262	83.97
404.471	204.8
404.68	16.38
404.888	94.21
405.097	18.43
405.306	51.2
405.515	59.39
405.724	61.44
405.933	102.4
406.142	167.93
406.35	122.88
406.559	10.24
406.768	90.11
406.977	129.02
407.185	40.96
407.394	163.84
407.603	-28.67
407.812	102.4
408.02	215.04
408.229	83.97
408.438	63.49
408.646	-16.38
408.855	26.62
409.064	59.39
409.272	47.1
409.481	88.06
409.69	57.34
409.898	-28.67
410.107	104.45
410.315	118.78
410.524	14.34
410.733	106.49
410.941	34.82
411.15	86.01
411.358	131.07
411.567	186.37
411.775	24.58
411.984	73.73
412.192	47.1
412.401	83.97
412.609	194.56
412.818	163.84
413.026	59.39
413.234	75.77
413.443	83.97
413.651	6.14
413.86	53.25
414.068	139.26
414.276	169.98
414.485	53.25
414.693	174.08
414.901	118.78
415.11	73.73
415.318	69.63
415.526	81.92
415.734	106.49
415.943	90.11
416.151	86.01
416.359	-2.05
416.567	79.87
416.776	149.5
416.984	172.03
417.192	208.89
417.4	49.15
417.608	36.86
417.817	8.19
418.025	112.64
418.233	174.08
418.441	-14.34
418.649	-12.29
418.857	57.34
419.065	110.59
419.273	57.34
419.481	92.16
419.689	104.45
419.897	61.44
420.105	-110.59
420.313	139.26
420.521	176.13
420.729	102.4
420.937	-6.14
421.145	2.05
421.353	106.49
421.561	231.42
421.769	100.35
421.977	16.38
422.185	71.68
422.393	53.25
422.601	120.83
422.809	98.3
423.017	110.59
423.224	71.68
423.432	67.58
423.64	102.4
423.848	157.69
424.056	122.88
424.263	120.83
424.471	18.43
424.679	143.36
424.887	-104.45
425.094	77.82
425.302	135.17
425.51	12.29
425.718	120.83
425.925	75.77
426.133	36.86
426.341	231.42
426.548	63.49
426.756	53.25
426.964	116.73
427.171	18.43
427.379	63.49
427.586	139.26
427.794	124.93
428.001	163.84
428.209	75.77
428.417	172.03
428.624	196.61
428.832	163.84
429.039	49.15
429.247	137.21
429.454	122.88
429.662	196.61
429.869	126.97
430.076	94.21
430.284	174.08
430.491	190.46
430.699	182.27
430.906	225.28
431.114	118.78
431.321	227.32
431.528	131.07
431.736	182.27
431.943	167.93
432.15	192.51
432.358	309.24
432.565	243.71
432.772	18.43
432.979	235.52
433.187	178.17
433.394	182.27
433.601	198.65
433.808	358.39
434.016	309.24
434.223	208.89
434.43	178.17
434.637	206.84
434.844	296.96
435.052	194.56
435.259	262.14
435.466	360.44
435.673	186.37
435.88	333.82
436.087	307.2
436.294	430.07
436.501	331.77
436.708	309.24
436.915	317.44
437.122	346.11
437.329	385.02
437.537	352.25
437.743	378.87
437.95	485.37
438.157	401.4
438.364	370.68
438.571	421.88
438.778	421.88
438.985	526.33
439.192	571.38
439.399	526.33
439.606	559.1
439.813	544.76
440.02	653.3
440.227	692.21
440.433	643.06
440.64	540.66
440.847	600.05
441.054	655.35
441.261	718.84
441.467	745.46
441.674	641.01
441.881	847.86
442.088	702.45
442.294	784.37
442.501	897.01
442.708	860.15
442.914	872.43
443.121	919.54
443.328	962.55
443.534	1030.13
443.741	999.41
443.948	897.01
444.154	1126.38
444.361	1273.84
444.568	1058.8
444.774	1118.19
444.981	1026.03
445.187	1355.76
445.394	1251.31
445.6	1226.73
445.807	1480.68
446.013	1466.35
446.22	1251.31
446.426	1589.22
446.633	1552.36
446.839	1789.92
447.046	1417.19
447.252	1671.14
447.459	1724.39
447.665	1796.07
447.871	1941.47
448.078	2152.42
448.284	2021.35
448.491	2228.19
448.697	2160.61
448.903	2328.54
449.11	2357.21
449.316	2246.62
449.522	2519
449.728	2633.69
449.935	2707.41
450.141	2746.33
450.347	2904.02
450.553	2832.34
450.76	2877.4
450.966	3123.15
451.172	3170.26
451.378	3422.16
451.584	3377.1
451.791	3643.34
451.997	3850.18
452.203	3790.79
452.409	4075.46
452.615	4317.12
452.821	4157.38
453.027	4091.84
453.233	4712.38
453.44	4462.52
453.646	4724.66
453.852	5117.87
454.058	5232.56
454.264	5308.34
454.47	5683.11
454.676	5785.51
454.882	6209.44
455.088	5937.06
455.294	6260.64
455.5	6547.36
455.705	7012.24
455.911	7063.44
456.117	7214.99
456.323	7516.05
456.529	7311.25
456.735	8177.54
456.941	8277.89
457.147	8601.47
457.352	8949.62
457.558	9193.33
457.764	9707.37
457.97	9953.13
458.176	10280.8
458.381	10846.04
458.587	11245.4
458.793	11661.13
458.999	11654.99
459.204	13055.8
459.41	13651.76
459.616	13240.12
459.821	14149.42
460.027	14636.83
460.233	15445.78
460.438	15265.56
460.644	16224.01
460.85	16326.41
461.055	16918.27
461.261	17950.45
461.466	17514.23
461.672	17946.35
461.878	19922.64
462.083	19588.82
462.289	20078.29
462.494	20995.78
462.7	21262.01
462.905	21454.52
463.111	23152.29
463.316	24311.44
463.522	24827.53
463.727	25558.65
463.932	26863.21
464.138	27258.46
464.343	28368.46
464.549	28667.47
464.754	30572.08
464.959	31624.73
465.165	32007.7
465.37	31774.24
465.575	31720.99
465.781	34033.14
465.986	35208.68
466.191	34272.76
466.397	34680.3
466.602	33990.14
466.807	35888.6
467.012	36302.29
467.218	37062.09
467.423	36883.92
467.628	38061.5
467.833	40113.56
468.038	39355.82
468.244	38880.69
468.449	40441.24
