Data from USB4F104151__278__11-20-52-330.txt Node

Date: Wed Feb 26 11:20:52 EST 2025
User: louis
Spectrometer: USB4F10415
Trigger mode: 4
Integration Time (sec): 1.000000E-1
Scans to average: 1
Electric dark correction enabled: true
Nonlinearity correction enabled: false
Boxcar width: 0
XAxis mode: Wavelengths
Number of Pixels in Spectrum: 3648
>>>>>Begin Spectral Data<<<<<
178.204	-448.85
178.424	-448.85
178.644	-448.85
178.864	-434.51
179.084	-381.26
179.304	-78.16
179.524	9.9
179.744	22.19
179.964	69.29
180.184	7.85
180.404	26.28
180.624	-43.35
180.844	69.29
181.064	-49.49
181.283	-10.58
181.503	-45.4
181.723	22.19
181.943	-90.45
182.163	202.41
182.383	-33.11
182.602	83.63
182.822	100.01
183.042	100.01
183.262	-78.16
183.482	-2.39
183.701	-0.34
183.921	26.28
184.141	-43.35
184.361	36.52
184.58	71.34
184.8	106.15
185.02	-6.49
185.239	73.39
185.459	75.43
185.679	89.77
185.898	-69.97
186.118	75.43
186.338	102.06
186.557	153.26
186.777	-102.74
186.997	-45.4
187.216	-12.63
187.436	134.82
187.655	40.62
187.875	106.15
188.095	22.19
188.314	165.54
188.534	69.29
188.753	-26.96
188.973	122.54
189.192	241.32
189.412	34.47
189.631	83.63
189.851	-31.06
190.07	147.11
190.29	-45.4
190.509	-14.68
190.729	91.82
190.948	194.22
191.168	247.46
191.387	75.43
191.607	9.9
191.826	83.63
192.045	34.47
192.265	-8.53
192.484	50.86
192.704	26.28
192.923	-65.88
193.142	143.02
193.362	59.05
193.581	138.92
193.8	-6.49
194.02	61.1
194.239	13.99
194.458	67.24
194.678	-8.53
194.897	-14.68
195.116	50.86
195.335	108.2
195.555	40.62
195.774	-57.68
195.993	22.19
196.212	26.28
196.432	40.62
196.651	24.23
196.87	-33.11
197.089	224.94
197.308	75.43
197.528	20.14
197.747	-26.96
197.966	77.48
198.185	153.26
198.404	-26.96
198.623	124.58
198.842	132.78
199.062	67.24
199.281	57
199.5	93.87
199.719	71.34
199.938	57
200.157	89.77
200.376	114.34
200.595	149.16
200.814	18.09
201.033	-55.64
201.252	220.84
201.471	7.85
201.69	52.91
201.909	38.57
202.128	192.17
202.347	85.67
202.566	54.95
202.785	-78.16
203.004	-63.83
203.223	229.03
203.442	7.85
203.661	-31.06
203.879	118.44
204.098	153.26
204.317	-24.92
204.536	93.87
204.755	95.91
204.974	140.97
205.193	1.71
205.411	151.21
205.63	151.21
205.849	-0.34
206.068	69.29
206.287	-16.73
206.505	181.93
206.724	38.57
206.943	22.19
207.162	69.29
207.381	52.91
207.599	11.95
207.818	-31.06
208.037	-69.97
208.255	52.91
208.474	7.85
208.693	46.76
208.911	9.9
209.13	52.91
209.349	110.25
209.567	95.91
209.786	38.57
210.005	65.19
210.223	63.15
210.442	-92.5
210.661	11.95
210.879	87.72
211.098	69.29
211.316	24.23
211.535	120.49
211.753	-12.63
211.972	54.95
212.191	38.57
212.409	-29.01
212.628	165.54
212.846	-26.96
213.065	-8.53
213.283	120.49
213.502	-14.68
213.72	93.87
213.938	40.62
214.157	-67.92
214.375	110.25
214.594	65.19
214.812	22.19
215.031	1.71
215.249	34.47
215.467	104.11
215.686	65.19
215.904	134.82
216.122	57
216.341	171.69
216.559	30.38
216.778	198.31
216.996	161.45
217.214	-8.53
217.432	1.71
217.651	-61.78
217.869	18.09
218.087	75.43
218.306	61.1
218.524	138.92
218.742	-0.34
218.96	91.82
219.179	59.05
219.397	11.95
219.615	263.85
219.833	196.26
220.051	-14.68
220.27	104.11
220.488	65.19
220.706	81.58
220.924	32.43
221.142	-6.49
221.36	134.82
221.578	110.25
221.796	26.28
222.015	28.33
222.233	97.96
222.451	128.68
222.669	-57.68
222.887	73.39
223.105	34.47
223.323	75.43
223.541	-53.59
223.759	54.95
223.977	1.71
224.195	122.54
224.413	116.39
224.631	116.39
224.849	40.62
225.067	140.97
225.285	36.52
225.503	24.23
225.721	-123.22
225.939	71.34
226.157	77.48
226.375	116.39
226.592	-29.01
226.81	40.62
227.028	177.83
227.246	104.11
227.464	118.44
227.682	102.06
227.9	34.47
228.117	81.58
228.335	97.96
228.553	24.23
228.771	16.04
228.989	77.48
229.206	95.91
229.424	-26.96
229.642	46.76
229.86	-61.78
230.077	214.7
230.295	52.91
230.513	147.11
230.731	34.47
230.948	212.65
231.166	181.93
231.384	-6.49
231.601	-80.21
231.819	265.89
232.037	-69.97
232.254	-72.02
232.472	54.95
232.689	-33.11
232.907	85.67
233.125	-39.25
233.342	11.95
233.56	-4.44
233.777	-10.58
233.995	42.67
234.213	100.01
234.43	42.67
234.648	54.95
234.865	-8.53
235.083	83.63
235.3	46.76
235.518	59.05
235.735	112.3
235.953	106.15
236.17	81.58
236.388	91.82
236.605	83.63
236.822	108.2
237.04	151.21
237.257	-29.01
237.475	-22.87
237.692	28.33
237.909	69.29
238.127	-0.34
238.344	145.06
238.562	5.8
238.779	13.99
238.996	-69.97
239.214	1.71
239.431	89.77
239.648	-8.53
239.865	93.87
240.083	95.91
240.3	-47.44
240.517	3.75
240.735	32.43
240.952	85.67
241.169	46.76
241.386	79.53
241.603	59.05
241.821	-72.02
242.038	89.77
242.255	112.3
242.472	16.04
242.689	130.73
242.907	91.82
243.124	102.06
243.341	71.34
243.558	-14.68
243.775	-76.12
243.992	-57.68
244.209	79.53
244.426	132.78
244.643	5.8
244.86	-0.34
245.078	134.82
245.295	85.67
245.512	85.67
245.729	-33.11
245.946	143.02
246.163	-14.68
246.38	11.95
246.597	134.82
246.814	57
247.031	83.63
247.248	65.19
247.464	18.09
247.681	11.95
247.898	52.91
248.115	79.53
248.332	-80.21
248.549	151.21
248.766	118.44
248.983	59.05
249.2	48.81
249.417	71.34
249.633	36.52
249.85	69.29
250.067	20.14
250.284	87.72
250.501	22.19
250.717	48.81
250.934	42.67
251.151	85.67
251.368	-16.73
251.585	38.57
251.801	44.71
252.018	-133.46
252.235	157.35
252.451	-37.2
252.668	-8.53
252.885	77.48
253.102	124.58
253.318	-12.63
253.535	5.8
253.752	52.91
253.968	-14.68
254.185	16.04
254.401	26.28
254.618	46.76
254.835	-31.06
255.051	85.67
255.268	114.34
255.484	93.87
255.701	11.95
255.917	24.23
256.134	-24.92
256.351	40.62
256.567	-18.77
256.784	59.05
257	-88.4
257.217	57
257.433	118.44
257.65	57
257.866	157.35
258.082	-69.97
258.299	11.95
258.515	106.15
258.732	9.9
258.948	48.81
259.165	28.33
259.381	-24.92
259.597	48.81
259.814	24.23
260.03	16.04
260.246	42.67
260.463	140.97
260.679	102.06
260.895	3.75
261.112	106.15
261.328	-29.01
261.544	38.57
261.761	200.36
261.977	-92.5
262.193	-106.84
262.409	104.11
262.626	75.43
262.842	52.91
263.058	7.85
263.274	85.67
263.49	89.77
263.707	71.34
263.923	122.54
264.139	-53.59
264.355	-2.39
264.571	77.48
264.787	20.14
265.004	186.02
265.22	46.76
265.436	28.33
265.652	16.04
265.868	38.57
266.084	-53.59
266.3	63.15
266.516	-41.3
266.732	44.71
266.948	40.62
267.164	65.19
267.38	63.15
267.596	143.02
267.812	188.07
268.028	-33.11
268.244	7.85
268.46	79.53
268.676	1.71
268.892	38.57
269.108	-35.16
269.324	-45.4
269.54	-67.92
269.756	95.91
269.972	48.81
270.188	79.53
270.403	-6.49
270.619	40.62
270.835	151.21
271.051	13.99
271.267	32.43
271.483	-67.92
271.698	-0.34
271.914	42.67
272.13	-6.49
272.346	50.86
272.562	87.72
272.777	104.11
272.993	3.75
273.209	11.95
273.425	85.67
273.64	-63.83
273.856	102.06
274.072	-24.92
274.287	-8.53
274.503	89.77
274.719	124.58
274.934	38.57
275.15	-39.25
275.366	-6.49
275.581	-45.4
275.797	73.39
276.012	54.95
276.228	-37.2
276.444	-8.53
276.659	81.58
276.875	-39.25
277.09	46.76
277.306	7.85
277.521	16.04
277.737	-12.63
277.952	79.53
278.168	106.15
278.383	40.62
278.599	40.62
278.814	63.15
279.03	18.09
279.245	93.87
279.461	-63.83
279.676	108.2
279.892	-57.68
280.107	-76.12
280.322	-53.59
280.538	91.82
280.753	26.28
280.969	16.04
281.184	85.67
281.399	151.21
281.615	46.76
281.83	3.75
282.045	-47.44
282.26	-12.63
282.476	50.86
282.691	40.62
282.906	73.39
283.122	-12.63
283.337	16.04
283.552	95.91
283.767	32.43
283.983	151.21
284.198	-37.2
284.413	91.82
284.628	-43.35
284.843	28.33
285.058	120.49
285.274	-26.96
285.489	46.76
285.704	153.26
285.919	-41.3
286.134	5.8
286.349	18.09
286.564	3.75
286.779	112.3
286.995	61.1
287.21	-84.31
287.425	59.05
287.64	-61.78
287.855	106.15
288.07	-59.73
288.285	136.87
288.5	81.58
288.715	24.23
288.93	87.72
289.145	-47.44
289.36	118.44
289.575	28.33
289.79	57
290.004	-6.49
290.219	120.49
290.434	-61.78
290.649	-4.44
290.864	59.05
291.079	13.99
291.294	32.43
291.509	3.75
291.724	34.47
291.938	-22.87
292.153	85.67
292.368	26.28
292.583	61.1
292.798	124.58
293.012	128.68
293.227	136.87
293.442	-47.44
293.657	106.15
293.871	163.5
294.086	77.48
294.301	181.93
294.516	54.95
294.73	13.99
294.945	-33.11
295.16	73.39
295.374	100.01
295.589	71.34
295.804	-18.77
296.018	69.29
296.233	59.05
296.447	122.54
296.662	13.99
296.877	171.69
297.091	91.82
297.306	22.19
297.52	59.05
297.735	46.76
297.949	75.43
298.164	110.25
298.378	85.67
298.593	-53.59
298.807	7.85
299.022	63.15
299.236	128.68
299.451	-16.73
299.665	-24.92
299.88	20.14
300.094	7.85
300.309	77.48
300.523	97.96
300.737	75.43
300.952	30.38
301.166	143.02
301.381	-26.96
301.595	-35.16
301.809	108.2
302.024	-41.3
302.238	-8.53
302.452	140.97
302.667	46.76
302.881	120.49
303.095	79.53
303.309	-2.39
303.524	73.39
303.738	-26.96
303.952	-67.92
304.166	-6.49
304.381	-108.88
304.595	110.25
304.809	11.95
305.023	-53.59
305.237	9.9
305.452	5.8
305.666	11.95
305.88	134.82
306.094	124.58
306.308	-6.49
306.522	93.87
306.736	77.48
306.95	81.58
307.164	52.91
307.379	69.29
307.593	91.82
307.807	155.3
308.021	3.75
308.235	106.15
308.449	-65.88
308.663	-0.34
308.877	212.65
309.091	-41.3
309.305	3.75
309.519	-98.64
309.733	145.06
309.947	-135.51
310.161	30.38
310.374	75.43
310.588	89.77
310.802	-18.77
311.016	-12.63
311.23	73.39
311.444	9.9
311.658	106.15
311.872	59.05
312.085	104.11
312.299	161.45
312.513	126.63
312.727	126.63
312.941	-90.45
313.154	61.1
313.368	67.24
313.582	67.24
313.796	16.04
314.009	69.29
314.223	161.45
314.437	179.88
314.651	32.43
314.864	-39.25
315.078	-74.07
315.292	-147.8
315.505	16.04
315.719	42.67
315.933	91.82
316.146	18.09
316.36	-29.01
316.573	183.98
316.787	138.92
317.001	110.25
317.214	-104.79
317.428	61.1
317.641	-4.44
317.855	30.38
318.068	1.71
318.282	95.91
318.495	163.5
318.709	120.49
318.922	26.28
319.136	79.53
319.349	130.73
319.563	36.52
319.776	110.25
319.99	-78.16
320.203	120.49
320.417	1.71
320.63	171.69
320.843	224.94
321.057	77.48
321.27	18.09
321.483	61.1
321.697	143.02
321.91	83.63
322.124	83.63
322.337	52.91
322.55	-8.53
322.763	28.33
322.977	87.72
323.19	52.91
323.403	-49.49
323.617	-0.34
323.83	42.67
324.043	-57.68
324.256	97.96
324.469	3.75
324.683	67.24
324.896	1.71
325.109	28.33
325.322	-41.3
325.535	67.24
325.748	110.25
325.962	32.43
326.175	69.29
326.388	77.48
326.601	83.63
326.814	-33.11
327.027	40.62
327.24	175.78
327.453	-63.83
327.666	48.81
327.879	5.8
328.092	95.91
328.305	87.72
328.518	-16.73
328.731	-33.11
328.944	-4.44
329.157	67.24
329.37	-0.34
329.583	163.5
329.796	93.87
330.009	-104.79
330.222	52.91
330.435	110.25
330.648	79.53
330.861	-51.54
331.073	13.99
331.286	100.01
331.499	59.05
331.712	-39.25
331.925	-4.44
332.138	54.95
332.35	65.19
332.563	-31.06
332.776	61.1
332.989	-20.82
333.202	-55.64
333.414	30.38
333.627	85.67
333.84	-45.4
334.053	77.48
334.265	11.95
334.478	-18.77
334.691	-0.34
334.903	69.29
335.116	28.33
335.329	-26.96
335.541	57
335.754	102.06
335.966	48.81
336.179	52.91
336.392	65.19
336.604	7.85
336.817	128.68
337.029	104.11
337.242	-14.68
337.454	30.38
337.667	95.91
337.88	247.46
338.092	44.71
338.305	118.44
338.517	-69.97
338.729	44.71
338.942	120.49
339.154	-35.16
339.367	-63.83
339.579	110.25
339.792	-35.16
340.004	50.86
340.217	-8.53
340.429	13.99
340.641	-20.82
340.854	79.53
341.066	63.15
341.278	132.78
341.491	200.36
341.703	89.77
341.915	-69.97
342.128	122.54
342.34	59.05
342.552	-2.39
342.764	89.77
342.977	44.71
343.189	57
343.401	57
343.613	-115.03
343.826	36.52
344.038	3.75
344.25	100.01
344.462	-39.25
344.674	114.34
344.886	34.47
345.099	106.15
345.311	48.81
345.523	13.99
345.735	-90.45
345.947	57
346.159	104.11
346.371	81.58
346.583	36.52
346.795	177.83
347.007	28.33
347.219	24.23
347.431	52.91
347.643	63.15
347.855	-0.34
348.067	143.02
348.279	-45.4
348.491	28.33
348.703	95.91
348.915	22.19
349.127	16.04
349.339	-14.68
349.551	18.09
349.763	122.54
349.975	97.96
350.187	120.49
350.399	77.48
350.61	52.91
350.822	13.99
351.034	-29.01
351.246	77.48
351.458	75.43
351.669	44.71
351.881	126.63
352.093	110.25
352.305	163.5
352.517	77.48
352.728	159.4
352.94	30.38
353.152	93.87
353.363	-29.01
353.575	-22.87
353.787	153.26
353.999	24.23
354.21	171.69
354.422	61.1
354.633	48.81
354.845	42.67
355.057	-18.77
355.268	61.1
355.48	108.2
355.692	32.43
355.903	11.95
356.115	22.19
356.326	-47.44
356.538	122.54
356.749	100.01
356.961	118.44
357.172	67.24
357.384	-57.68
357.595	263.85
357.807	-24.92
358.018	-4.44
358.23	44.71
358.441	85.67
358.653	157.35
358.864	3.75
359.075	18.09
359.287	77.48
359.498	116.39
359.709	54.95
359.921	11.95
360.132	54.95
360.344	79.53
360.555	52.91
360.766	42.67
360.977	32.43
361.189	63.15
361.4	-82.26
361.611	71.34
361.823	143.02
362.034	5.8
362.245	-29.01
362.456	95.91
362.667	100.01
362.879	-125.27
363.09	16.04
363.301	89.77
363.512	93.87
363.723	61.1
363.935	69.29
364.146	40.62
364.357	5.8
364.568	97.96
364.779	-47.44
364.99	159.4
365.201	5.8
365.412	48.81
365.623	-43.35
365.834	77.48
366.045	91.82
366.256	132.78
366.467	28.33
366.678	-37.2
366.889	22.19
367.1	20.14
367.311	149.16
367.522	-24.92
367.733	48.81
367.944	81.58
368.155	1.71
368.366	-6.49
368.577	106.15
368.788	161.45
368.999	-82.26
369.209	116.39
369.42	204.46
369.631	239.27
369.842	61.1
370.053	24.23
370.264	143.02
370.474	-51.54
370.685	40.62
370.896	77.48
371.107	93.87
371.317	63.15
371.528	7.85
371.739	69.29
371.95	61.1
372.16	61.1
372.371	-35.16
372.582	30.38
372.792	36.52
373.003	26.28
373.214	26.28
373.424	9.9
373.635	-18.77
373.846	67.24
374.056	69.29
374.267	63.15
374.477	54.95
374.688	-6.49
374.898	95.91
375.109	93.87
375.319	89.77
375.53	73.39
375.74	50.86
375.951	-12.63
376.161	44.71
376.372	122.54
376.582	36.52
376.793	75.43
377.003	-69.97
377.214	61.1
377.424	75.43
377.635	20.14
377.845	-0.34
378.055	122.54
378.266	-51.54
378.476	-14.68
378.686	140.97
378.897	89.77
379.107	136.87
379.317	81.58
379.528	63.15
379.738	110.25
379.948	18.09
380.158	149.16
380.369	-0.34
380.579	104.11
380.789	93.87
380.999	110.25
381.21	132.78
381.42	169.64
381.63	42.67
381.84	87.72
382.05	179.88
382.261	100.01
382.471	81.58
382.681	-2.39
382.891	173.74
383.101	83.63
383.311	-61.78
383.521	16.04
383.731	114.34
383.941	46.76
384.151	52.91
384.361	136.87
384.571	22.19
384.781	100.01
384.991	163.5
385.201	140.97
385.411	67.24
385.621	44.71
385.831	87.72
386.041	73.39
386.251	18.09
386.461	122.54
386.671	1.71
386.881	143.02
387.091	13.99
387.301	89.77
387.511	28.33
387.72	30.38
387.93	59.05
388.14	-26.96
388.35	73.39
388.56	136.87
388.769	151.21
388.979	54.95
389.189	7.85
389.399	61.1
389.609	42.67
389.818	61.1
390.028	42.67
390.238	102.06
390.447	7.85
390.657	57
390.867	30.38
391.076	-90.45
391.286	28.33
391.496	5.8
391.705	-24.92
391.915	179.88
392.125	77.48
392.334	20.14
392.544	138.92
392.753	75.43
392.963	1.71
393.172	7.85
393.382	7.85
393.591	143.02
393.801	54.95
394.01	190.12
394.22	50.86
394.429	169.64
394.639	97.96
394.848	30.38
395.058	42.67
395.267	22.19
395.477	22.19
395.686	40.62
395.895	280.23
396.105	216.74
396.314	85.67
396.524	52.91
396.733	-16.73
396.942	192.17
397.152	126.63
397.361	85.67
397.57	81.58
397.78	22.19
397.989	97.96
398.198	171.69
398.407	71.34
398.617	-8.53
398.826	75.43
399.035	16.04
399.244	97.96
399.453	38.57
399.663	83.63
399.872	85.67
400.081	7.85
400.29	100.01
400.499	-18.77
400.708	69.29
400.917	36.52
401.127	7.85
401.336	-47.44
401.545	261.8
401.754	100.01
401.963	110.25
402.172	30.38
402.381	-16.73
402.59	9.9
402.799	-0.34
403.008	44.71
403.217	124.58
403.426	69.29
403.635	-129.36
403.844	44.71
404.053	-31.06
404.262	-24.92
404.471	194.22
404.68	59.05
404.888	-2.39
405.097	77.48
405.306	46.76
405.515	75.43
405.724	59.05
405.933	122.54
406.142	9.9
406.35	63.15
406.559	32.43
406.768	124.58
406.977	210.6
407.185	57
407.394	114.34
407.603	-41.3
407.812	91.82
408.02	161.45
408.229	32.43
408.438	83.63
408.646	-49.49
408.855	-45.4
409.064	83.63
409.272	67.24
409.481	93.87
409.69	-51.54
409.898	-18.77
410.107	118.44
410.315	196.26
410.524	48.81
410.733	46.76
410.941	69.29
411.15	138.92
411.358	181.93
411.567	151.21
411.775	36.52
411.984	118.44
412.192	134.82
412.401	1.71
412.609	118.44
412.818	89.77
413.026	153.26
413.234	3.75
413.443	128.68
413.651	13.99
413.86	77.48
414.068	181.93
414.276	200.36
414.485	18.09
414.693	267.94
414.901	173.74
415.11	85.67
415.318	32.43
415.526	44.71
415.734	102.06
415.943	102.06
416.151	130.73
416.359	93.87
416.567	79.53
416.776	95.91
416.984	28.33
417.192	122.54
417.4	40.62
417.608	71.34
417.817	-20.82
418.025	59.05
418.233	208.55
418.441	-100.69
418.649	48.81
418.857	83.63
419.065	95.91
419.273	22.19
419.481	57
419.689	13.99
419.897	-53.59
420.105	-22.87
420.313	106.15
420.521	165.54
420.729	50.86
420.937	5.8
421.145	-45.4
421.353	48.81
421.561	171.69
421.769	120.49
421.977	-6.49
422.185	116.39
422.393	69.29
422.601	91.82
422.809	79.53
423.017	91.82
423.224	59.05
423.432	48.81
423.64	30.38
423.848	118.44
424.056	40.62
424.263	159.4
424.471	67.24
424.679	210.6
424.887	1.71
425.094	159.4
425.302	63.15
425.51	5.8
425.718	104.11
425.925	93.87
426.133	28.33
426.341	167.59
426.548	122.54
426.756	50.86
426.964	120.49
427.171	59.05
427.379	91.82
427.586	65.19
427.794	188.07
428.001	16.04
428.209	106.15
428.417	175.78
428.624	169.64
428.832	63.15
429.039	130.73
429.247	188.07
429.454	52.91
429.662	169.64
429.869	145.06
430.076	134.82
430.284	222.89
430.491	118.44
430.699	161.45
430.906	251.56
431.114	65.19
431.321	167.59
431.528	73.39
431.736	204.46
431.943	167.59
432.15	183.98
432.358	245.41
432.565	286.37
432.772	50.86
432.979	216.74
433.187	126.63
433.394	159.4
433.601	65.19
433.808	245.41
434.016	286.37
434.223	243.37
434.43	155.3
434.637	224.94
434.844	188.07
435.052	212.65
435.259	245.41
435.466	247.46
435.673	132.78
435.88	272.04
436.087	274.09
436.294	190.12
436.501	222.89
436.708	255.65
436.915	396.96
437.122	292.52
437.329	282.28
437.537	220.84
437.743	257.7
437.95	415.4
438.157	347.81
438.364	380.58
438.571	380.58
438.778	386.72
438.985	419.49
439.192	454.31
439.399	411.3
439.606	442.02
439.813	509.6
440.02	493.22
440.227	620.19
440.433	513.7
440.64	470.69
440.847	452.26
441.054	603.81
441.261	695.97
441.467	562.85
441.674	536.23
441.881	747.17
442.088	583.33
442.294	644.77
442.501	689.82
442.708	669.34
442.914	720.54
443.121	777.89
443.328	824.99
443.534	841.37
443.741	767.65
443.948	792.22
444.154	1040.03
444.361	1111.71
444.568	949.92
444.774	925.34
444.981	980.64
445.187	1148.57
445.394	1080.99
445.6	1060.51
445.807	1193.62
446.013	1160.86
446.22	1205.91
446.426	1253.02
446.633	1341.08
446.839	1568.4
447.046	1359.51
447.252	1484.44
447.459	1423
447.665	1519.25
447.871	1625.75
448.078	1760.91
448.284	1621.65
448.491	1883.79
448.697	1990.28
448.903	2049.68
449.11	2096.78
449.316	1914.51
449.522	2199.18
449.728	2285.19
449.935	2268.81
450.141	2393.73
450.347	2592.39
450.553	2338.44
450.76	2541.19
450.966	2725.51
451.172	2774.66
451.378	2780.8
451.584	2956.93
451.791	3171.96
451.997	3286.65
452.203	3235.45
452.409	3556.98
452.615	3528.31
452.821	3387
453.027	3606.13
453.233	3970.67
453.44	3759.73
453.646	4079.21
453.852	4310.63
454.058	4263.53
454.264	4597.35
454.47	4771.43
454.676	4871.78
454.882	5240.41
455.088	5080.67
455.294	5414.49
455.5	5838.42
455.705	5891.66
455.911	5983.82
456.117	6123.09
456.323	6344.27
456.529	6295.11
456.735	6923.84
456.941	7298.62
457.147	7370.3
457.352	7638.58
457.558	7820.85
457.764	8537.64
457.97	8744.49
458.176	8793.64
458.381	9260.57
458.587	9518.62
458.793	10028.56
458.999	9903.64
459.204	11062.79
459.41	11755
459.616	11517.43
459.821	12162.55
460.027	12355.05
460.233	13110.75
460.438	13229.54
460.644	13970.9
460.85	14253.52
461.055	14507.47
461.261	15463.87
461.466	14966.21
461.672	15236.55
461.878	17233.32
462.083	17147.3
462.289	17264.04
462.494	18079.13
462.7	18167.19
462.905	18382.23
463.111	19981.69
463.316	20882.8
463.522	20950.38
463.727	21734.75
463.932	22377.81
464.138	23639.36
464.343	24495.41
464.549	25206.06
464.754	26338.58
464.959	27102.48
465.165	27761.92
465.37	27372.81
465.575	27305.23
465.781	29125.87
465.986	29834.47
466.191	29652.2
466.397	30102.75
466.602	29451.5
466.807	30645.46
467.012	31540.43
467.218	32015.55
467.423	32107.71
467.628	32728.25
467.833	34391.2
468.038	33975.46
468.244	33328.3
468.449	35296.4
468.654	34499.74
468.859	34499.74
