Data from USB4F104151__179__11-05-05-935.txt Node

Date: Wed Feb 26 11:05:05 EST 2025
User: louis
Spectrometer: USB4F10415
Trigger mode: 4
Integration Time (sec): 1.000000E-1
Scans to average: 1
Electric dark correction enabled: true
Nonlinearity correction enabled: false
Boxcar width: 0
XAxis mode: Wavelengths
Number of Pixels in Spectrum: 3648
>>>>>Begin Spectral Data<<<<<
178.204	-320.51
178.424	-320.51
178.644	-320.51
178.864	-443.39
179.084	-365.56
179.304	-29.7
179.524	41.98
179.744	39.94
179.964	7.17
180.184	-5.12
180.404	9.22
180.624	-39.94
180.844	56.32
181.064	-15.36
181.283	17.41
181.503	-46.08
181.723	-35.84
181.943	-123.9
182.163	209.92
182.383	-27.65
182.602	39.94
182.822	144.38
183.042	95.23
183.262	-46.08
183.482	-19.46
183.701	1.02
183.921	109.57
184.141	-44.03
184.361	60.42
184.58	54.27
184.8	74.75
185.02	-33.79
185.239	115.71
185.459	46.08
185.679	140.29
185.898	-41.98
186.118	84.99
186.338	68.61
186.557	48.13
186.777	-11.26
186.997	-31.74
187.216	80.89
187.436	211.96
187.655	52.22
187.875	105.47
188.095	23.55
188.314	171.01
188.534	113.66
188.753	-62.46
188.973	115.71
189.192	97.28
189.412	25.6
189.631	-5.12
189.851	13.31
190.07	156.67
190.29	-48.13
190.509	58.37
190.729	97.28
190.948	84.99
191.168	242.68
191.387	132.09
191.607	23.55
191.826	41.98
192.045	-48.13
192.265	-3.07
192.484	7.17
192.704	17.41
192.923	-37.89
193.142	214.01
193.362	64.51
193.581	132.09
193.8	119.81
194.02	21.5
194.239	74.75
194.458	66.56
194.678	13.31
194.897	-19.46
195.116	62.46
195.335	146.43
195.555	50.18
195.774	-13.31
195.993	60.42
196.212	41.98
196.432	21.5
196.651	-41.98
196.87	44.03
197.089	216.06
197.308	66.56
197.528	7.17
197.747	-9.22
197.966	72.7
198.185	132.09
198.404	-52.22
198.623	68.61
198.842	125.95
199.062	54.27
199.281	60.42
199.5	72.7
199.719	44.03
199.938	44.03
200.157	54.27
200.376	136.19
200.595	140.29
200.814	89.09
201.033	-31.74
201.252	128
201.471	66.56
201.69	109.57
201.909	5.12
202.128	101.37
202.347	115.71
202.566	21.5
202.785	-87.04
203.004	-13.31
203.223	257.02
203.442	60.42
203.661	19.46
203.879	58.37
204.098	95.23
204.317	-5.12
204.536	140.29
204.755	148.48
204.974	107.52
205.193	5.12
205.411	117.76
205.63	125.95
205.849	56.32
206.068	17.41
206.287	52.22
206.505	162.81
206.724	-7.17
206.943	-5.12
207.162	33.79
207.381	19.46
207.599	27.65
207.818	35.84
208.037	-117.76
208.255	39.94
208.474	37.89
208.693	7.17
208.911	87.04
209.13	80.89
209.349	84.99
209.567	70.65
209.786	76.8
210.005	156.67
210.223	72.7
210.442	-74.75
210.661	82.94
210.879	19.46
211.098	-50.18
211.316	25.6
211.535	107.52
211.753	1.02
211.972	168.96
212.191	-52.22
212.409	-50.18
212.628	39.94
212.846	74.75
213.065	66.56
213.283	130.05
213.502	44.03
213.72	35.84
213.938	-44.03
214.157	17.41
214.375	171.01
214.594	13.31
214.812	33.79
215.031	58.37
215.249	33.79
215.467	64.51
215.686	68.61
215.904	60.42
216.122	74.75
216.341	140.29
216.559	60.42
216.778	121.85
216.996	105.47
217.214	9.22
217.432	-19.46
217.651	-74.75
217.869	-50.18
218.087	48.13
218.306	9.22
218.524	23.55
218.742	5.12
218.96	48.13
219.179	-1.02
219.397	39.94
219.615	216.06
219.833	136.19
220.051	-48.13
220.27	144.38
220.488	97.28
220.706	25.6
220.924	74.75
221.142	44.03
221.36	93.18
221.578	89.09
221.796	58.37
222.015	89.09
222.233	48.13
222.451	123.9
222.669	-48.13
222.887	82.94
223.105	-1.02
223.323	1.02
223.541	-15.36
223.759	48.13
223.977	-19.46
224.195	171.01
224.413	62.46
224.631	-3.07
224.849	-29.7
225.067	220.16
225.285	13.31
225.503	21.5
225.721	-152.57
225.939	-7.17
226.157	76.8
226.375	234.49
226.592	1.02
226.81	-5.12
227.028	109.57
227.246	121.85
227.464	62.46
227.682	23.55
227.9	93.18
228.117	21.5
228.335	35.84
228.553	-23.55
228.771	44.03
228.989	37.89
229.206	21.5
229.424	15.36
229.642	54.27
229.86	-29.7
230.077	140.29
230.295	-52.22
230.513	82.94
230.731	19.46
230.948	156.67
231.166	130.05
231.384	41.98
231.601	31.74
231.819	146.43
232.037	-76.8
232.254	-128
232.472	7.17
232.689	64.51
232.907	128
233.125	54.27
233.342	-21.5
233.56	-11.26
233.777	-9.22
233.995	11.26
234.213	140.29
234.43	115.71
234.648	-5.12
234.865	5.12
235.083	101.37
235.3	-15.36
235.518	109.57
235.735	91.13
235.953	60.42
236.17	62.46
236.388	93.18
236.605	97.28
236.822	181.25
237.04	193.53
237.257	68.61
237.475	-27.65
237.692	123.9
237.909	101.37
238.127	23.55
238.344	95.23
238.562	-27.65
238.779	-44.03
238.996	-48.13
239.214	175.1
239.431	107.52
239.648	-9.22
239.865	146.43
240.083	41.98
240.3	-7.17
240.517	33.79
240.735	23.55
240.952	195.58
241.169	56.32
241.386	5.12
241.603	52.22
241.821	-37.89
242.038	-29.7
242.255	140.29
242.472	-15.36
242.689	27.65
242.907	89.09
243.124	46.08
243.341	64.51
243.558	-48.13
243.775	-15.36
243.992	-33.79
244.209	37.89
244.426	207.87
244.643	66.56
244.86	35.84
245.078	74.75
245.295	64.51
245.512	95.23
245.729	-13.31
245.946	70.65
246.163	41.98
246.38	9.22
246.597	66.56
246.814	44.03
247.031	23.55
247.248	84.99
247.464	35.84
247.681	130.05
247.898	136.19
248.115	58.37
248.332	-111.61
248.549	207.87
248.766	146.43
248.983	189.44
249.2	97.28
249.417	91.13
249.633	29.7
249.85	87.04
250.067	62.46
250.284	27.65
250.501	74.75
250.717	66.56
250.934	-21.5
251.151	-15.36
251.368	25.6
251.585	41.98
251.801	27.65
252.018	-5.12
252.235	123.9
252.451	-82.94
252.668	91.13
252.885	130.05
253.102	56.32
253.318	25.6
253.535	-3.07
253.752	-11.26
253.968	1.02
254.185	-39.94
254.401	-11.26
254.618	62.46
254.835	-11.26
255.051	54.27
255.268	89.09
255.484	64.51
255.701	-19.46
255.917	101.37
256.134	-7.17
256.351	1.02
256.567	-56.32
256.784	-5.12
257	-93.18
257.217	97.28
257.433	113.66
257.65	109.57
257.866	171.01
258.082	-130.05
258.299	-31.74
258.515	91.13
258.732	13.31
258.948	3.07
259.165	29.7
259.381	3.07
259.597	74.75
259.814	72.7
260.03	-54.27
260.246	-25.6
260.463	52.22
260.679	103.42
260.895	44.03
261.112	33.79
261.328	19.46
261.544	-41.98
261.761	144.38
261.977	-78.85
262.193	-25.6
262.409	144.38
262.626	-19.46
262.842	44.03
263.058	-21.5
263.274	50.18
263.49	70.65
263.707	31.74
263.923	27.65
264.139	-103.42
264.355	-1.02
264.571	37.89
264.787	50.18
265.004	191.49
265.22	60.42
265.436	58.37
265.652	27.65
265.868	-21.5
266.084	-70.65
266.3	-11.26
266.516	48.13
266.732	7.17
266.948	91.13
267.164	44.03
267.38	41.98
267.596	68.61
267.812	150.53
268.028	41.98
268.244	15.36
268.46	58.37
268.676	54.27
268.892	37.89
269.108	21.5
269.324	-23.55
269.54	58.37
269.756	89.09
269.972	-44.03
270.188	15.36
270.403	-101.37
270.619	41.98
270.835	66.56
271.051	91.13
271.267	48.13
271.483	-1.02
271.698	74.75
271.914	48.13
272.13	140.29
272.346	-7.17
272.562	37.89
272.777	119.81
272.993	27.65
273.209	-5.12
273.425	68.61
273.64	-9.22
273.856	138.24
274.072	-64.51
274.287	58.37
274.503	107.52
274.719	115.71
274.934	-7.17
275.15	-33.79
275.366	27.65
275.581	7.17
275.797	58.37
276.012	56.32
276.228	-113.66
276.444	-3.07
276.659	19.46
276.875	-101.37
277.09	-11.26
277.306	23.55
277.521	103.42
277.737	74.75
277.952	46.08
278.168	95.23
278.383	84.99
278.599	76.8
278.814	84.99
279.03	25.6
279.245	107.52
279.461	39.94
279.676	70.65
279.892	-23.55
280.107	21.5
280.322	-7.17
280.538	91.13
280.753	17.41
280.969	29.7
281.184	68.61
281.399	103.42
281.615	-7.17
281.83	31.74
282.045	-50.18
282.26	-1.02
282.476	21.5
282.691	84.99
282.906	76.8
283.122	23.55
283.337	-21.5
283.552	41.98
283.767	29.7
283.983	76.8
284.198	138.24
284.413	89.09
284.628	-82.94
284.843	66.56
285.058	31.74
285.274	35.84
285.489	-91.13
285.704	48.13
285.919	-13.31
286.134	-9.22
286.349	-7.17
286.564	-27.65
286.779	146.43
286.995	9.22
287.21	-87.04
287.425	66.56
287.64	-23.55
287.855	140.29
288.07	-113.66
288.285	164.86
288.5	99.33
288.715	93.18
288.93	119.81
289.145	-15.36
289.36	103.42
289.575	-99.33
289.79	117.76
290.004	-21.5
290.219	144.38
290.434	-15.36
290.649	-3.07
290.864	-41.98
291.079	-5.12
291.294	37.89
291.509	11.26
291.724	-7.17
291.938	27.65
292.153	189.44
292.368	29.7
292.583	46.08
292.798	197.63
293.012	44.03
293.227	58.37
293.442	-89.09
293.657	117.76
293.871	140.29
294.086	125.95
294.301	199.68
294.516	193.53
294.73	50.18
294.945	7.17
295.16	-35.84
295.374	72.7
295.589	130.05
295.804	-25.6
296.018	33.79
296.233	89.09
296.447	27.65
296.662	-15.36
296.877	148.48
297.091	27.65
297.306	41.98
297.52	-23.55
297.735	15.36
297.949	87.04
298.164	1.02
298.378	56.32
298.593	-15.36
298.807	-72.7
299.022	64.51
299.236	134.14
299.451	-13.31
299.665	-31.74
299.88	70.65
300.094	134.14
300.309	29.7
300.523	80.89
300.737	37.89
300.952	41.98
301.166	64.51
301.381	7.17
301.595	-48.13
301.809	37.89
302.024	-80.89
302.238	-76.8
302.452	97.28
302.667	-27.65
302.881	123.9
303.095	156.67
303.309	41.98
303.524	-9.22
303.738	-21.5
303.952	-13.31
304.166	64.51
304.381	-103.42
304.595	136.19
304.809	-3.07
305.023	121.85
305.237	1.02
305.452	60.42
305.666	103.42
305.88	58.37
306.094	93.18
306.308	66.56
306.522	156.67
306.736	29.7
306.95	142.33
307.164	121.85
307.379	-3.07
307.593	140.29
307.807	138.24
308.021	58.37
308.235	125.95
308.449	-72.7
308.663	72.7
308.877	164.86
309.091	84.99
309.305	91.13
309.519	-37.89
309.733	123.9
309.947	-50.18
310.161	113.66
310.374	89.09
310.588	138.24
310.802	-76.8
311.016	-31.74
311.23	11.26
311.444	-50.18
311.658	29.7
311.872	132.09
312.085	115.71
312.299	117.76
312.513	144.38
312.727	76.8
312.941	-91.13
313.154	25.6
313.368	41.98
313.582	80.89
313.796	74.75
314.009	17.41
314.223	209.92
314.437	76.8
314.651	109.57
314.864	-48.13
315.078	-19.46
315.292	17.41
315.505	23.55
315.719	113.66
315.933	23.55
316.146	1.02
316.36	-44.03
316.573	93.18
316.787	97.28
317.001	25.6
317.214	13.31
317.428	158.72
317.641	-62.46
317.855	48.13
318.068	74.75
318.282	-35.84
318.495	142.33
318.709	115.71
318.922	23.55
319.136	138.24
319.349	119.81
319.563	52.22
319.776	52.22
319.99	-74.75
320.203	82.94
320.417	60.42
320.63	91.13
320.843	211.96
321.057	76.8
321.27	-21.5
321.483	111.61
321.697	134.14
321.91	29.7
322.124	-21.5
322.337	82.94
322.55	17.41
322.763	-15.36
322.977	5.12
323.19	-33.79
323.403	-1.02
323.617	80.89
323.83	136.19
324.043	-46.08
324.256	93.18
324.469	1.02
324.683	138.24
324.896	-3.07
325.109	72.7
325.322	-76.8
325.535	156.67
325.748	107.52
325.962	72.7
326.175	54.27
326.388	27.65
326.601	115.71
326.814	-21.5
327.027	62.46
327.24	119.81
327.453	-48.13
327.666	64.51
327.879	166.91
328.092	89.09
328.305	54.27
328.518	-60.42
328.731	-46.08
328.944	-31.74
329.157	-23.55
329.37	29.7
329.583	162.81
329.796	76.8
330.009	11.26
330.222	142.33
330.435	109.57
330.648	76.8
330.861	31.74
331.073	80.89
331.286	66.56
331.499	3.07
331.712	23.55
331.925	78.85
332.138	76.8
332.35	134.14
332.563	-56.32
332.776	168.96
332.989	7.17
333.202	60.42
333.414	33.79
333.627	97.28
333.84	13.31
334.053	82.94
334.265	-48.13
334.478	-62.46
334.691	37.89
334.903	82.94
335.116	19.46
335.329	39.94
335.541	52.22
335.754	183.29
335.966	21.5
336.179	74.75
336.392	29.7
336.604	-62.46
336.817	109.57
337.029	72.7
337.242	39.94
337.454	130.05
337.667	70.65
337.88	168.96
338.092	50.18
338.305	25.6
338.517	-52.22
338.729	101.37
338.942	144.38
339.154	-3.07
339.367	-41.98
339.579	107.52
339.792	13.31
340.004	87.04
340.217	68.61
340.429	50.18
340.641	-52.22
340.854	27.65
341.066	37.89
341.278	113.66
341.491	238.59
341.703	31.74
341.915	-13.31
342.128	44.03
342.34	68.61
342.552	-41.98
342.764	140.29
342.977	35.84
343.189	130.05
343.401	48.13
343.613	15.36
343.826	31.74
344.038	-23.55
344.25	66.56
344.462	-39.94
344.674	99.33
344.886	-21.5
345.099	35.84
345.311	111.61
345.523	-15.36
345.735	-109.57
345.947	54.27
346.159	-7.17
346.371	33.79
346.583	111.61
346.795	175.1
347.007	-41.98
347.219	68.61
347.431	19.46
347.643	140.29
347.855	-31.74
348.067	123.9
348.279	-27.65
348.491	-46.08
348.703	97.28
348.915	-39.94
349.127	-23.55
349.339	56.32
349.551	46.08
349.763	142.33
349.975	54.27
350.187	105.47
350.399	93.18
350.61	87.04
350.822	-23.55
351.034	21.5
351.246	46.08
351.458	35.84
351.669	37.89
351.881	99.33
352.093	136.19
352.305	152.57
352.517	82.94
352.728	117.76
352.94	52.22
353.152	105.47
353.363	-23.55
353.575	93.18
353.787	80.89
353.999	78.85
354.21	123.9
354.422	1.02
354.633	109.57
354.845	89.09
355.057	29.7
355.268	29.7
355.48	66.56
355.692	-64.51
355.903	89.09
356.115	9.22
356.326	-37.89
356.538	121.85
356.749	84.99
356.961	103.42
357.172	9.22
357.384	-17.41
357.595	246.78
357.807	78.85
358.018	76.8
358.23	-5.12
358.441	201.72
358.653	58.37
358.864	29.7
359.075	-15.36
359.287	3.07
359.498	41.98
359.709	62.46
359.921	74.75
360.132	33.79
360.344	-15.36
360.555	1.02
360.766	84.99
360.977	17.41
361.189	183.29
361.4	-80.89
361.611	99.33
361.823	99.33
362.034	76.8
362.245	-95.23
362.456	13.31
362.667	46.08
362.879	46.08
363.09	15.36
363.301	25.6
363.512	60.42
363.723	7.17
363.935	50.18
364.146	76.8
364.357	-41.98
364.568	50.18
364.779	-54.27
364.99	87.04
365.201	-46.08
365.412	123.9
365.623	-89.09
365.834	37.89
366.045	68.61
366.256	91.13
366.467	117.76
366.678	68.61
366.889	29.7
367.1	41.98
367.311	74.75
367.522	31.74
367.733	17.41
367.944	74.75
368.155	50.18
368.366	123.9
368.577	117.76
368.788	78.85
368.999	-82.94
369.209	109.57
369.42	248.83
369.631	211.96
369.842	68.61
370.053	-44.03
370.264	148.48
370.474	-31.74
370.685	74.75
370.896	25.6
371.107	148.48
371.317	58.37
371.528	27.65
371.739	162.81
371.95	56.32
372.16	107.52
372.371	-31.74
372.582	41.98
372.792	95.23
373.003	72.7
373.214	95.23
373.424	58.37
373.635	-5.12
373.846	115.71
374.056	72.7
374.267	101.37
374.477	140.29
374.688	-5.12
374.898	76.8
375.109	60.42
375.319	52.22
375.53	84.99
375.74	95.23
375.951	-1.02
376.161	54.27
376.372	37.89
376.582	-68.61
376.793	58.37
377.003	21.5
377.214	-31.74
377.424	72.7
377.635	-9.22
377.845	-15.36
378.055	179.2
378.266	-37.89
378.476	3.07
378.686	46.08
378.897	72.7
379.107	144.38
379.317	56.32
379.528	41.98
379.738	128
379.948	-19.46
380.158	56.32
380.369	-13.31
380.579	64.51
380.789	21.5
380.999	46.08
381.21	87.04
381.42	240.64
381.63	-7.17
381.84	84.99
382.05	60.42
382.261	136.19
382.471	103.42
382.681	58.37
382.891	136.19
383.101	41.98
383.311	9.22
383.521	-41.98
383.731	93.18
383.941	130.05
384.151	74.75
384.361	-7.17
384.571	54.27
384.781	113.66
384.991	146.43
385.201	195.58
385.411	140.29
385.621	93.18
385.831	78.85
386.041	119.81
386.251	111.61
386.461	162.81
386.671	68.61
386.881	76.8
387.091	23.55
387.301	168.96
387.511	41.98
387.72	17.41
387.93	132.09
388.14	-46.08
388.35	-29.7
388.56	109.57
388.769	115.71
388.979	44.03
389.189	-37.89
389.399	50.18
389.609	93.18
389.818	31.74
390.028	113.66
390.238	107.52
390.447	-25.6
390.657	103.42
390.867	56.32
391.076	-29.7
391.286	-3.07
391.496	54.27
391.705	-54.27
391.915	80.89
392.125	25.6
392.334	23.55
392.544	152.57
392.753	3.07
392.963	-37.89
393.172	97.28
393.382	19.46
393.591	207.87
393.801	91.13
394.01	177.15
394.22	84.99
394.429	-11.26
394.639	48.13
394.848	25.6
395.058	60.42
395.267	-19.46
395.477	128
395.686	74.75
395.895	224.25
396.105	228.35
396.314	113.66
396.524	72.7
396.733	-17.41
396.942	134.14
397.152	82.94
397.361	111.61
397.57	37.89
397.78	46.08
397.989	31.74
398.198	209.92
398.407	66.56
398.617	9.22
398.826	33.79
399.035	48.13
399.244	105.47
399.453	60.42
399.663	1.02
399.872	68.61
400.081	-7.17
400.29	138.24
400.499	-62.46
400.708	154.62
400.917	27.65
401.127	-7.17
401.336	21.5
401.545	230.4
401.754	164.86
401.963	74.75
402.172	19.46
402.381	19.46
402.59	62.46
402.799	17.41
403.008	99.33
403.217	82.94
403.426	78.85
403.635	1.02
403.844	84.99
404.053	60.42
404.262	54.27
404.471	205.82
404.68	31.74
404.888	-5.12
405.097	87.04
405.306	29.7
405.515	76.8
405.724	-13.31
405.933	74.75
406.142	13.31
406.35	181.25
406.559	27.65
406.768	130.05
406.977	134.14
407.185	115.71
407.394	66.56
407.603	27.65
407.812	74.75
408.02	119.81
408.229	-13.31
408.438	115.71
408.646	-37.89
408.855	66.56
409.064	70.65
409.272	17.41
409.481	74.75
409.69	-74.75
409.898	-21.5
410.107	74.75
410.315	160.77
410.524	37.89
410.733	68.61
410.941	21.5
411.15	37.89
411.358	5.12
411.567	173.05
411.775	80.89
411.984	58.37
412.192	142.33
412.401	-74.75
412.609	189.44
412.818	113.66
413.026	48.13
413.234	111.61
413.443	41.98
413.651	87.04
413.86	23.55
414.068	144.38
414.276	154.62
414.485	3.07
414.693	148.48
414.901	158.72
415.11	125.95
415.318	39.94
415.526	48.13
415.734	218.11
415.943	111.61
416.151	148.48
416.359	31.74
416.567	91.13
416.776	123.9
416.984	80.89
417.192	144.38
417.4	-27.65
417.608	66.56
417.817	-46.08
418.025	121.85
418.233	128
418.441	-50.18
418.649	39.94
418.857	76.8
419.065	146.43
419.273	15.36
419.481	-7.17
419.689	72.7
419.897	74.75
420.105	25.6
420.313	156.67
420.521	115.71
420.729	158.72
420.937	1.02
421.145	3.07
421.353	128
421.561	207.87
421.769	56.32
421.977	46.08
422.185	132.09
422.393	107.52
422.601	97.28
422.809	97.28
423.017	136.19
423.224	84.99
423.432	78.85
423.64	23.55
423.848	171.01
424.056	80.89
424.263	128
424.471	1.02
424.679	119.81
424.887	13.31
425.094	248.83
425.302	33.79
425.51	68.61
425.718	177.15
425.925	109.57
426.133	7.17
426.341	189.44
426.548	13.31
426.756	-1.02
426.964	105.47
427.171	111.61
427.379	91.13
427.586	123.9
427.794	158.72
428.001	175.1
428.209	150.53
428.417	168.96
428.624	166.91
428.832	95.23
429.039	3.07
429.247	48.13
429.454	66.56
429.662	222.2
429.869	97.28
430.076	82.94
430.284	87.04
430.491	203.77
430.699	220.16
430.906	248.83
431.114	189.44
431.321	166.91
431.528	207.87
431.736	54.27
431.943	160.77
432.15	187.39
432.358	250.88
432.565	285.69
432.772	-5.12
432.979	181.25
433.187	181.25
433.394	271.36
433.601	162.81
433.808	214.01
434.016	248.83
434.223	242.68
434.43	187.39
434.637	300.03
434.844	261.12
435.052	285.69
435.259	293.88
435.466	285.69
435.673	218.11
435.88	214.01
436.087	445.43
436.294	328.7
436.501	406.52
436.708	291.84
436.915	277.5
437.122	383.99
437.329	230.4
437.537	289.79
437.743	320.51
437.95	508.92
438.157	410.62
438.364	322.56
438.571	373.75
438.778	474.1
438.985	463.86
439.192	508.92
439.399	431.1
439.606	498.68
439.813	476.15
440.02	551.93
440.227	687.09
440.433	533.5
440.64	492.54
440.847	506.87
441.054	601.08
441.261	791.54
441.467	687.09
441.674	535.54
441.881	769.01
442.088	594.93
442.294	787.44
442.501	775.16
442.708	881.65
442.914	799.73
443.121	783.35
443.328	898.03
443.534	1016.82
443.741	979.95
443.948	824.31
444.154	1043.44
444.361	1119.21
444.568	1068.02
444.774	1031.15
444.981	959.47
445.187	1151.98
445.394	1231.85
445.6	1125.36
445.807	1371.12
446.013	1315.82
446.22	1299.44
446.426	1514.47
446.633	1569.77
446.839	1684.45
447.046	1424.36
447.252	1762.28
447.459	1752.04
447.665	1700.84
447.871	1850.34
448.078	2059.23
448.284	1944.55
448.491	2094.05
448.697	2178.01
448.903	2268.13
449.11	2249.69
449.316	2296.8
449.522	2466.78
449.728	2669.53
449.935	2644.95
450.141	2784.21
450.347	2857.94
450.553	2933.72
450.76	2798.55
450.966	3089.36
451.172	3122.13
451.378	3308.49
451.584	3345.36
451.791	3509.19
451.997	3740.61
452.203	3668.94
452.409	4125.63
452.615	4258.75
452.821	3849.16
453.027	4176.83
453.233	4557.75
453.44	4432.83
453.646	4602.81
453.852	4916.15
454.058	5196.72
454.264	5092.27
454.47	5493.68
454.676	5618.6
454.882	6120.35
455.088	5856.17
455.294	6185.89
455.5	6652.83
455.705	6931.35
455.911	6861.72
456.117	7238.55
456.323	7289.74
456.529	7330.7
456.735	8133.51
456.941	8074.12
457.147	8694.65
457.352	8815.48
457.558	8940.41
457.764	9608.05
457.97	9788.27
458.176	10273.64
458.381	10902.36
458.587	11115.35
458.793	11563.86
458.999	11508.56
459.204	12950.33
459.41	13316.92
459.616	13230.9
459.821	14019.37
460.027	14691.1
460.233	15160.09
460.438	15248.15
460.644	16255.75
460.85	16134.92
461.055	17089.28
461.261	18062.06
461.466	17455.86
461.672	18060.01
461.878	19954.38
462.083	19702.48
462.289	20189.9
462.494	21172.92
462.7	21111.49
462.905	21445.3
463.111	23141.02
463.316	24384.14
463.522	24963.72
463.727	25737.85
463.932	26288.75
464.138	27282.02
464.343	28277.33
464.549	28252.75
464.754	30585.39
464.959	31670.81
465.165	31799.83
465.37	31707.68
465.575	31783.45
465.781	33853.95
465.986	34974.19
466.191	34060.79
466.397	34474.48
466.602	33440.26
466.807	35885.53
467.012	36557.27
467.218	36981.2
467.423	36954.57
467.628	38058.43
467.833	40010.14
468.038	39496.1
468.244	38644.15
468.449	40442.26
468.654	39539.11
