Data from USB4F104151__124__10-46-19-058.txt Node

Date: Wed Feb 26 10:46:19 EST 2025
User: louis
Spectrometer: USB4F10415
Trigger mode: 4
Integration Time (sec): 1.000000E-1
Scans to average: 1
Electric dark correction enabled: true
Nonlinearity correction enabled: false
Boxcar width: 0
XAxis mode: Wavelengths
Number of Pixels in Spectrum: 3648
>>>>>Begin Spectral Data<<<<<
178.204	-312.83
178.424	-312.83
178.644	-312.83
178.864	-411.13
179.084	-364.03
179.304	-11.78
179.524	-22.02
179.744	12.8
179.964	41.47
180.184	70.14
180.404	37.38
180.624	-69.12
180.844	29.18
181.064	-173.57
181.283	70.14
181.503	-7.68
181.723	23.04
181.943	-60.93
182.163	197.12
182.383	-15.87
182.602	35.33
182.822	190.97
183.042	57.86
183.262	-15.87
183.482	16.9
183.701	92.67
183.921	35.33
184.141	-5.63
184.361	111.1
184.58	119.29
184.8	78.33
185.02	-17.92
185.239	100.86
185.459	104.96
185.679	88.57
185.898	-3.58
186.118	123.39
186.338	158.21
186.557	156.16
186.777	-22.02
186.997	2.56
187.216	100.86
187.436	168.45
187.655	66.05
187.875	102.91
188.095	84.48
188.314	92.67
188.534	115.2
188.753	-38.4
188.973	127.49
189.192	219.64
189.412	94.72
189.631	29.18
189.851	127.49
190.07	172.54
190.29	-38.4
190.509	33.28
190.729	57.86
190.948	127.49
191.168	258.56
191.387	178.69
191.607	59.9
191.826	96.77
192.045	10.75
192.265	20.99
192.484	90.62
192.704	72.19
192.923	-54.78
193.142	240.12
193.362	121.34
193.581	152.06
193.8	70.14
194.02	86.53
194.239	49.66
194.458	51.71
194.678	100.86
194.897	33.28
195.116	145.92
195.335	107.01
195.555	98.81
195.774	-58.88
195.993	76.29
196.212	53.76
196.432	27.14
196.651	-48.64
196.87	37.38
197.089	205.31
197.308	37.38
197.528	82.43
197.747	-50.69
197.966	133.63
198.185	150.01
198.404	-77.31
198.623	127.49
198.842	166.4
199.062	96.77
199.281	111.1
199.5	125.44
199.719	78.33
199.938	29.18
200.157	6.66
200.376	168.45
200.595	121.34
200.814	84.48
201.033	55.81
201.252	141.82
201.471	64
201.69	64
201.909	49.66
202.128	78.33
202.347	57.86
202.566	55.81
202.785	-26.11
203.004	39.42
203.223	303.61
203.442	-30.21
203.661	-7.68
203.879	66.05
204.098	170.49
204.317	-19.97
204.536	152.06
204.755	98.81
204.974	94.72
205.193	90.62
205.411	176.64
205.63	197.12
205.849	86.53
206.068	80.38
206.287	-15.87
206.505	147.97
206.724	49.66
206.943	-44.54
207.162	-22.02
207.381	64
207.599	53.76
207.818	33.28
208.037	-17.92
208.255	84.48
208.474	115.2
208.693	23.04
208.911	37.38
209.13	113.15
209.349	143.87
209.567	59.9
209.786	137.73
210.005	178.69
210.223	102.91
210.442	6.66
210.661	59.9
210.879	145.92
211.098	61.95
211.316	20.99
211.535	135.68
211.753	70.14
211.972	131.58
212.191	-24.06
212.409	23.04
212.628	152.06
212.846	16.9
213.065	47.62
213.283	94.72
213.502	88.57
213.72	37.38
213.938	37.38
214.157	-15.87
214.375	98.81
214.594	12.8
214.812	70.14
215.031	94.72
215.249	20.99
215.467	68.09
215.686	78.33
215.904	74.24
216.122	86.53
216.341	215.55
216.559	74.24
216.778	113.15
216.996	59.9
217.214	82.43
217.432	-3.58
217.651	12.8
217.869	31.23
218.087	4.61
218.306	51.71
218.524	20.99
218.742	123.39
218.96	109.05
219.179	47.62
219.397	117.25
219.615	236.03
219.833	154.11
220.051	29.18
220.27	74.24
220.488	139.77
220.706	166.4
220.924	-19.97
221.142	10.75
221.36	43.52
221.578	76.29
221.796	74.24
222.015	72.19
222.233	74.24
222.451	164.35
222.669	-44.54
222.887	78.33
223.105	31.23
223.323	90.62
223.541	16.9
223.759	111.1
223.977	45.57
224.195	152.06
224.413	174.59
224.631	10.75
224.849	57.86
225.067	199.16
225.285	33.28
225.503	8.7
225.721	-99.84
225.939	51.71
226.157	82.43
226.375	305.66
226.592	51.71
226.81	72.19
227.028	164.35
227.246	129.53
227.464	86.53
227.682	76.29
227.9	145.92
228.117	78.33
228.335	37.38
228.553	16.9
228.771	109.05
228.989	55.81
229.206	145.92
229.424	61.95
229.642	12.8
229.86	-1.54
230.077	121.34
230.295	96.77
230.513	152.06
230.731	53.76
230.948	207.36
231.166	143.87
231.384	29.18
231.601	35.33
231.819	154.11
232.037	47.62
232.254	6.66
232.472	41.47
232.689	29.18
232.907	127.49
233.125	-5.63
233.342	-17.92
233.56	33.28
233.777	47.62
233.995	152.06
234.213	61.95
234.43	76.29
234.648	80.38
234.865	33.28
235.083	74.24
235.3	109.05
235.518	86.53
235.735	117.25
235.953	98.81
236.17	90.62
236.388	53.76
236.605	92.67
236.822	180.73
237.04	190.97
237.257	107.01
237.475	-1.54
237.692	84.48
237.909	104.96
238.127	37.38
238.344	127.49
238.562	-17.92
238.779	-11.78
238.996	-87.55
239.214	49.66
239.431	66.05
239.648	68.09
239.865	150.01
240.083	100.86
240.3	4.61
240.517	37.38
240.735	20.99
240.952	117.25
241.169	84.48
241.386	98.81
241.603	86.53
241.821	-7.68
242.038	123.39
242.255	127.49
242.472	-44.54
242.689	82.43
242.907	156.16
243.124	98.81
243.341	82.43
243.558	45.57
243.775	-1.54
243.992	12.8
244.209	76.29
244.426	205.31
244.643	49.66
244.86	29.18
245.078	150.01
245.295	31.23
245.512	100.86
245.729	-17.92
245.946	111.1
246.163	152.06
246.38	23.04
246.597	37.38
246.814	-71.17
247.031	53.76
247.248	72.19
247.464	76.29
247.681	8.7
247.898	43.52
248.115	119.29
248.332	-19.97
248.549	121.34
248.766	233.98
248.983	98.81
249.2	88.57
249.417	113.15
249.633	41.47
249.85	145.92
250.067	20.99
250.284	98.81
250.501	68.09
250.717	94.72
250.934	-54.78
251.151	0.51
251.368	23.04
251.585	115.2
251.801	100.86
252.018	-17.92
252.235	176.64
252.451	29.18
252.668	45.57
252.885	111.1
253.102	88.57
253.318	72.19
253.535	143.87
253.752	74.24
253.968	-7.68
254.185	-60.93
254.401	133.63
254.618	49.66
254.835	51.71
255.051	121.34
255.268	82.43
255.484	64
255.701	53.76
255.917	57.86
256.134	-19.97
256.351	-11.78
256.567	12.8
256.784	33.28
257	-5.63
257.217	94.72
257.433	123.39
257.65	53.76
257.866	92.67
258.082	12.8
258.299	-26.11
258.515	78.33
258.732	2.56
258.948	27.14
259.165	4.61
259.381	14.85
259.597	156.16
259.814	49.66
260.03	-9.73
260.246	57.86
260.463	221.69
260.679	107.01
260.895	64
261.112	53.76
261.328	59.9
261.544	-32.26
261.761	141.82
261.977	-15.87
262.193	18.94
262.409	166.4
262.626	53.76
262.842	66.05
263.058	16.9
263.274	119.29
263.49	125.44
263.707	113.15
263.923	127.49
264.139	-42.5
264.355	139.77
264.571	94.72
264.787	96.77
265.004	156.16
265.22	109.05
265.436	-17.92
265.652	10.75
265.868	78.33
266.084	35.33
266.3	31.23
266.516	66.05
266.732	88.57
266.948	20.99
267.164	18.94
267.38	129.53
267.596	84.48
267.812	172.54
268.028	45.57
268.244	59.9
268.46	43.52
268.676	23.04
268.892	94.72
269.108	-120.32
269.324	31.23
269.54	27.14
269.756	125.44
269.972	8.7
270.188	66.05
270.403	-30.21
270.619	47.62
270.835	84.48
271.051	80.38
271.267	18.94
271.483	-40.45
271.698	139.77
271.914	47.62
272.13	104.96
272.346	-1.54
272.562	109.05
272.777	113.15
272.993	29.18
273.209	18.94
273.425	119.29
273.64	-26.11
273.856	121.34
274.072	66.05
274.287	-40.45
274.503	23.04
274.719	55.81
274.934	41.47
275.15	-11.78
275.366	23.04
275.581	-69.12
275.797	37.38
276.012	64
276.228	94.72
276.444	12.8
276.659	176.64
276.875	27.14
277.09	51.71
277.306	25.09
277.521	18.94
277.737	78.33
277.952	174.59
278.168	123.39
278.383	92.67
278.599	143.87
278.814	98.81
279.03	41.47
279.245	186.88
279.461	10.75
279.676	84.48
279.892	-30.21
280.107	-54.78
280.322	-65.02
280.538	43.52
280.753	33.28
280.969	92.67
281.184	41.47
281.399	133.63
281.615	35.33
281.83	74.24
282.045	37.38
282.26	-36.35
282.476	104.96
282.691	49.66
282.906	123.39
283.122	61.95
283.337	47.62
283.552	88.57
283.767	10.75
283.983	90.62
284.198	8.7
284.413	72.19
284.628	-17.92
284.843	-7.68
285.058	109.05
285.274	18.94
285.489	-1.54
285.704	131.58
285.919	27.14
286.134	139.77
286.349	4.61
286.564	6.66
286.779	129.53
286.995	-19.97
287.21	-67.07
287.425	92.67
287.64	-7.68
287.855	94.72
288.07	-24.06
288.285	205.31
288.5	113.15
288.715	109.05
288.93	6.66
289.145	-24.06
289.36	107.01
289.575	59.9
289.79	129.53
290.004	64
290.219	139.77
290.434	49.66
290.649	70.14
290.864	35.33
291.079	78.33
291.294	64
291.509	70.14
291.724	45.57
291.938	68.09
292.153	47.62
292.368	47.62
292.583	45.57
292.798	113.15
293.012	-19.97
293.227	104.96
293.442	-7.68
293.657	127.49
293.871	172.54
294.086	162.3
294.301	61.95
294.516	168.45
294.73	125.44
294.945	-34.3
295.16	53.76
295.374	174.59
295.589	219.64
295.804	-1.54
296.018	100.86
296.233	43.52
296.447	115.2
296.662	53.76
296.877	129.53
297.091	92.67
297.306	-30.21
297.52	61.95
297.735	78.33
297.949	78.33
298.164	25.09
298.378	45.57
298.593	8.7
298.807	41.47
299.022	135.68
299.236	211.45
299.451	6.66
299.665	33.28
299.88	27.14
300.094	94.72
300.309	37.38
300.523	137.73
300.737	88.57
300.952	88.57
301.166	80.38
301.381	-46.59
301.595	14.85
301.809	27.14
302.024	25.09
302.238	18.94
302.452	139.77
302.667	57.86
302.881	129.53
303.095	59.9
303.309	-3.58
303.524	-11.78
303.738	84.48
303.952	137.73
304.166	88.57
304.381	-148.99
304.595	168.45
304.809	12.8
305.023	82.43
305.237	4.61
305.452	35.33
305.666	109.05
305.88	115.2
306.094	147.97
306.308	172.54
306.522	113.15
306.736	121.34
306.95	158.21
307.164	16.9
307.379	49.66
307.593	139.77
307.807	113.15
308.021	121.34
308.235	141.82
308.449	29.18
308.663	113.15
308.877	227.84
309.091	12.8
309.305	51.71
309.519	-42.5
309.733	115.2
309.947	-79.36
310.161	84.48
310.374	78.33
310.588	131.58
310.802	-36.35
311.016	80.38
311.23	61.95
311.444	2.56
311.658	53.76
311.872	141.82
312.085	41.47
312.299	45.57
312.513	125.44
312.727	102.91
312.941	23.04
313.154	41.47
313.368	41.47
313.582	16.9
313.796	78.33
314.009	14.85
314.223	92.67
314.437	102.91
314.651	143.87
314.864	20.99
315.078	-1.54
315.292	-9.73
315.505	53.76
315.719	20.99
315.933	72.19
316.146	-32.26
316.36	-13.82
316.573	150.01
316.787	92.67
317.001	61.95
317.214	-17.92
317.428	129.53
317.641	0.51
317.855	-22.02
318.068	76.29
318.282	61.95
318.495	162.3
318.709	66.05
318.922	-1.54
319.136	143.87
319.349	107.01
319.563	-22.02
319.776	135.68
319.99	-81.41
320.203	86.53
320.417	49.66
320.63	141.82
320.843	107.01
321.057	76.29
321.27	55.81
321.483	113.15
321.697	182.78
321.91	29.18
322.124	111.1
322.337	80.38
322.55	-1.54
322.763	66.05
322.977	12.8
323.19	4.61
323.403	96.77
323.617	0.51
323.83	123.39
324.043	57.86
324.256	107.01
324.469	-65.02
324.683	199.16
324.896	41.47
325.109	152.06
325.322	25.09
325.535	64
325.748	98.81
325.962	51.71
326.175	92.67
326.388	92.67
326.601	162.3
326.814	27.14
327.027	41.47
327.24	172.54
327.453	-99.84
327.666	96.77
327.879	135.68
328.092	115.2
328.305	47.62
328.518	8.7
328.731	10.75
328.944	35.33
329.157	82.43
329.37	94.72
329.583	150.01
329.796	162.3
330.009	20.99
330.222	82.43
330.435	150.01
330.648	64
330.861	43.52
331.073	76.29
331.286	74.24
331.499	70.14
331.712	4.61
331.925	-44.54
332.138	55.81
332.35	174.59
332.563	49.66
332.776	137.73
332.989	39.42
333.202	-9.73
333.414	43.52
333.627	74.24
333.84	33.28
334.053	72.19
334.265	113.15
334.478	76.29
334.691	-34.3
334.903	88.57
335.116	20.99
335.329	-24.06
335.541	70.14
335.754	182.78
335.966	92.67
336.179	-1.54
336.392	8.7
336.604	39.42
336.817	145.92
337.029	43.52
337.242	45.57
337.454	129.53
337.667	68.09
337.88	215.55
338.092	80.38
338.305	29.18
338.517	12.8
338.729	86.53
338.942	96.77
339.154	-34.3
339.367	-5.63
339.579	70.14
339.792	-19.97
340.004	109.05
340.217	-48.64
340.429	88.57
340.641	4.61
340.854	0.51
341.066	53.76
341.278	135.68
341.491	199.16
341.703	53.76
341.915	82.43
342.128	96.77
342.34	117.25
342.552	55.81
342.764	90.62
342.977	90.62
343.189	147.97
343.401	100.86
343.613	4.61
343.826	-11.78
344.038	-26.11
344.25	43.52
344.462	-101.89
344.674	80.38
344.886	86.53
345.099	72.19
345.311	47.62
345.523	102.91
345.735	-54.78
345.947	0.51
346.159	107.01
346.371	53.76
346.583	33.28
346.795	225.79
347.007	53.76
347.219	115.2
347.431	31.23
347.643	92.67
347.855	68.09
348.067	113.15
348.279	-48.64
348.491	86.53
348.703	141.82
348.915	47.62
349.127	20.99
349.339	2.56
349.551	-3.58
349.763	100.86
349.975	64
350.187	125.44
350.399	141.82
350.61	104.96
350.822	-15.87
351.034	-5.63
351.246	72.19
351.458	74.24
351.669	137.73
351.881	127.49
352.093	74.24
352.305	119.29
352.517	76.29
352.728	166.4
352.94	115.2
353.152	117.25
353.363	-46.59
353.575	160.25
353.787	137.73
353.999	68.09
354.21	152.06
354.422	37.38
354.633	29.18
354.845	12.8
355.057	84.48
355.268	25.09
355.48	57.86
355.692	-36.35
355.903	37.38
356.115	-67.07
356.326	-89.6
356.538	184.83
356.749	94.72
356.961	211.45
357.172	-30.21
357.384	47.62
357.595	205.31
357.807	35.33
358.018	66.05
358.23	10.75
358.441	137.73
358.653	143.87
358.864	70.14
359.075	-7.68
359.287	98.81
359.498	119.29
359.709	59.9
359.921	152.06
360.132	125.44
360.344	-34.3
360.555	2.56
360.766	51.71
360.977	47.62
361.189	64
361.4	86.53
361.611	123.39
361.823	53.76
362.034	82.43
362.245	-30.21
362.456	78.33
362.667	135.68
362.879	-5.63
363.09	47.62
363.301	115.2
363.512	78.33
363.723	27.14
363.935	25.09
364.146	195.07
364.357	100.86
364.568	100.86
364.779	-36.35
364.99	156.16
365.201	-15.87
365.412	199.16
365.623	-52.74
365.834	137.73
366.045	16.9
366.256	96.77
366.467	176.64
366.678	-15.87
366.889	37.38
367.1	27.14
367.311	131.58
367.522	-22.02
367.733	111.1
367.944	90.62
368.155	70.14
368.366	78.33
368.577	154.11
368.788	100.86
368.999	-54.78
369.209	37.38
369.42	289.28
369.631	322.04
369.842	94.72
370.053	74.24
370.264	127.49
370.474	-13.82
370.685	131.58
370.896	96.77
371.107	166.4
371.317	78.33
371.528	4.61
371.739	176.64
371.95	86.53
372.16	102.91
372.371	-11.78
372.582	43.52
372.792	135.68
373.003	84.48
373.214	102.91
373.424	121.34
373.635	27.14
373.846	205.31
374.056	86.53
374.267	82.43
374.477	78.33
374.688	43.52
374.898	100.86
375.109	-9.73
375.319	66.05
375.53	152.06
375.74	64
375.951	47.62
376.161	76.29
376.372	199.16
376.582	35.33
376.793	100.86
377.003	14.85
377.214	59.9
377.424	102.91
377.635	72.19
377.845	29.18
378.055	119.29
378.266	-62.98
378.476	-22.02
378.686	111.1
378.897	70.14
379.107	174.59
379.317	135.68
379.528	23.04
379.738	207.36
379.948	-46.59
380.158	86.53
380.369	64
380.579	219.64
380.789	119.29
380.999	123.39
381.21	121.34
381.42	186.88
381.63	4.61
381.84	156.16
382.05	84.48
382.261	131.58
382.471	123.39
382.681	12.8
382.891	156.16
383.101	135.68
383.311	16.9
383.521	-87.55
383.731	145.92
383.941	123.39
384.151	102.91
384.361	80.38
384.571	143.87
384.781	113.15
384.991	180.73
385.201	178.69
385.411	76.29
385.621	35.33
385.831	80.38
386.041	8.7
386.251	29.18
386.461	135.68
386.671	78.33
386.881	20.99
387.091	14.85
387.301	72.19
387.511	111.1
387.72	111.1
387.93	119.29
388.14	-95.74
388.35	47.62
388.56	90.62
388.769	143.87
388.979	51.71
389.189	66.05
389.399	100.86
389.609	14.85
389.818	135.68
390.028	76.29
390.238	104.96
390.447	-28.16
390.657	100.86
390.867	78.33
391.076	-36.35
391.286	57.86
391.496	29.18
391.705	76.29
391.915	225.79
392.125	172.54
392.334	-5.63
392.544	147.97
392.753	25.09
392.963	-44.54
393.172	-9.73
393.382	-7.68
393.591	213.5
393.801	43.52
394.01	193.02
394.22	66.05
394.429	-15.87
394.639	2.56
394.848	121.34
395.058	96.77
395.267	98.81
395.477	84.48
395.686	78.33
395.895	195.07
396.105	221.69
396.314	145.92
396.524	37.38
396.733	45.57
396.942	117.25
397.152	182.78
397.361	82.43
397.57	-1.54
397.78	35.33
397.989	-17.92
398.198	283.13
398.407	2.56
398.617	31.23
398.826	49.66
399.035	16.9
399.244	178.69
399.453	129.53
399.663	27.14
399.872	4.61
400.081	45.57
400.29	119.29
400.499	-54.78
400.708	35.33
400.917	39.42
401.127	127.49
401.336	59.9
401.545	170.49
401.754	96.77
401.963	88.57
402.172	41.47
402.381	12.8
402.59	43.52
402.799	86.53
403.008	115.2
403.217	100.86
403.426	31.23
403.635	-17.92
403.844	147.97
404.053	70.14
404.262	45.57
404.471	127.49
404.68	88.57
404.888	23.04
405.097	29.18
405.306	47.62
405.515	213.5
405.724	64
405.933	98.81
406.142	160.25
406.35	164.35
406.559	43.52
406.768	29.18
406.977	137.73
407.185	14.85
407.394	82.43
407.603	6.66
407.812	127.49
408.02	156.16
408.229	100.86
408.438	66.05
408.646	-75.26
408.855	74.24
409.064	86.53
409.272	109.05
409.481	135.68
409.69	-19.97
409.898	47.62
410.107	184.83
410.315	137.73
410.524	66.05
410.733	49.66
410.941	80.38
411.15	152.06
411.358	102.91
411.567	180.73
411.775	66.05
411.984	41.47
412.192	109.05
412.401	111.1
412.609	223.74
412.818	150.01
413.026	129.53
413.234	37.38
413.443	6.66
413.651	35.33
413.86	51.71
414.068	96.77
414.276	281.08
414.485	66.05
414.693	152.06
414.901	213.5
415.11	137.73
415.318	92.67
415.526	164.35
415.734	16.9
415.943	143.87
416.151	121.34
416.359	160.25
416.567	100.86
416.776	168.45
416.984	137.73
417.192	131.58
417.4	84.48
417.608	45.57
417.817	31.23
418.025	139.77
418.233	223.74
418.441	51.71
418.649	-7.68
418.857	107.01
419.065	193.02
419.273	68.09
419.481	47.62
419.689	47.62
419.897	6.66
420.105	43.52
420.313	123.39
420.521	135.68
420.729	209.4
420.937	113.15
421.145	8.7
421.353	113.15
421.561	213.5
421.769	94.72
421.977	39.42
422.185	94.72
422.393	78.33
422.601	164.35
422.809	160.25
423.017	90.62
423.224	57.86
423.432	141.82
423.64	131.58
423.848	147.97
424.056	25.09
424.263	84.48
424.471	125.44
424.679	227.84
424.887	-62.98
425.094	211.45
425.302	131.58
425.51	123.39
425.718	197.12
425.925	98.81
426.133	74.24
426.341	242.17
426.548	76.29
426.756	102.91
426.964	113.15
427.171	14.85
427.379	92.67
427.586	156.16
427.794	152.06
428.001	102.91
428.209	102.91
428.417	254.46
428.624	164.35
428.832	100.86
429.039	113.15
429.247	127.49
429.454	205.31
429.662	262.65
429.869	152.06
430.076	150.01
430.284	186.88
430.491	285.18
430.699	195.07
430.906	274.94
431.114	131.58
431.321	211.45
431.528	164.35
431.736	102.91
431.943	217.6
432.15	258.56
432.358	233.98
432.565	317.95
432.772	31.23
432.979	285.18
433.187	242.17
433.394	317.95
433.601	184.83
433.808	285.18
434.016	246.27
434.223	276.99
434.43	256.51
434.637	287.23
434.844	303.61
435.052	352.76
435.259	268.8
435.466	322.04
435.673	272.89
435.88	283.13
436.087	406.01
436.294	399.87
436.501	356.86
436.708	340.47
436.915	422.39
437.122	406.01
437.329	412.15
437.537	442.87
437.743	428.54
437.95	551.42
438.157	483.83
438.364	485.88
438.571	446.97
438.778	555.51
438.985	494.07
439.192	541.18
439.399	557.56
439.606	504.31
439.813	637.43
440.02	649.72
440.227	766.45
440.433	616.95
440.64	662.01
440.847	561.66
441.054	598.52
441.261	733.68
441.467	735.73
441.674	741.88
441.881	903.67
442.088	772.6
442.294	750.07
442.501	920.05
442.708	928.24
442.914	838.13
443.121	1153.52
443.328	948.72
443.534	1098.22
443.741	1055.22
443.948	936.43
444.154	1186.29
444.361	1313.26
444.568	1159.66
444.774	1149.42
444.981	1163.76
445.187	1352.17
445.394	1419.75
445.6	1329.64
445.807	1622.5
446.013	1524.2
446.22	1530.34
446.426	1696.23
446.633	1679.85
446.839	1858.02
447.046	1755.62
447.252	1968.61
447.459	1812.96
447.665	1978.85
447.871	2058.72
448.078	2304.48
448.284	2152.93
448.491	2308.57
448.697	2357.72
448.903	2513.37
449.11	2718.17
449.316	2482.65
449.522	2728.41
449.728	2871.76
449.935	3031.51
450.141	2857.43
450.347	3224.01
450.553	3002.83
450.76	3234.25
450.966	3459.53
451.172	3424.72
451.378	3731.91
451.584	3596.75
451.791	3985.86
451.997	4059.59
452.203	4080.07
452.409	4549.05
452.615	4524.47
452.821	4475.32
453.027	4559.29
453.233	5274.03
453.44	4983.22
453.646	5130.67
453.852	5351.85
454.058	5693.87
454.264	5761.45
454.47	6138.27
454.676	6150.56
454.882	6699.42
455.088	6504.86
455.294	6812.06
455.5	7235.99
455.705	7608.72
455.911	7833.99
456.117	8022.41
456.323	8311.17
456.529	8188.29
456.735	8814.97
456.941	9130.36
457.147	9537.9
457.352	9636.2
457.558	9851.24
457.764	10574.17
457.97	10684.76
458.176	11278.68
458.381	11927.88
458.587	12112.2
458.793	12689.73
458.999	12761.41
459.204	14391.59
459.41	14749.98
459.616	14424.36
459.821	15440.15
460.027	16070.92
460.233	16707.84
460.438	16828.67
460.644	17740.02
460.85	17967.34
461.055	18723.04
461.261	19308.76
461.466	19144.92
461.672	19499.22
461.878	21688.5
462.083	21645.49
462.289	22134.96
462.494	22991.01
462.7	23163.04
462.905	23408.79
463.111	25221.25
463.316	26542.19
463.522	26753.13
463.727	27930.71
463.932	29048.9
464.138	29655.1
464.343	31070.25
464.549	31168.55
464.754	33220.61
464.959	34455.54
465.165	34926.57
465.37	34340.85
465.575	34576.37
465.781	36841.42
465.986	38064.06
466.191	37513.16
466.397	37758.91
466.602	36814.8
466.807	39055.28
467.012	39878.56
467.218	40253.34
467.423	40521.62
467.628	41428.87
467.833	43505.51
468.038	42887.03
