Data from USB4F104151__148__11-04-23-139.txt Node

Date: Wed Feb 26 11:04:23 EST 2025
User: louis
Spectrometer: USB4F10415
Trigger mode: 4
Integration Time (sec): 1.000000E-1
Scans to average: 1
Electric dark correction enabled: true
Nonlinearity correction enabled: false
Boxcar width: 0
XAxis mode: Wavelengths
Number of Pixels in Spectrum: 3648
>>>>>Begin Spectral Data<<<<<
178.204	-418.81
178.424	-418.81
178.644	-418.81
178.864	-373.75
179.084	-420.86
179.304	58.37
179.524	-23.55
179.744	5.12
179.964	7.17
180.184	17.41
180.404	87.04
180.624	-76.8
180.844	-3.07
181.064	-80.89
181.283	1.02
181.503	-33.79
181.723	41.98
181.943	-60.42
182.163	199.68
182.383	-37.89
182.602	-25.6
182.822	87.04
183.042	-17.41
183.262	-35.84
183.482	33.79
183.701	29.7
183.921	134.14
184.141	17.41
184.361	66.56
184.58	101.37
184.8	35.84
185.02	-23.55
185.239	109.57
185.459	89.09
185.679	138.24
185.898	-173.05
186.118	5.12
186.338	29.7
186.557	84.99
186.777	-5.12
186.997	13.31
187.216	76.8
187.436	230.4
187.655	74.75
187.875	68.61
188.095	21.5
188.314	166.91
188.534	62.46
188.753	-25.6
188.973	76.8
189.192	144.38
189.412	62.46
189.631	11.26
189.851	31.74
190.07	197.63
190.29	-130.05
190.509	33.79
190.729	-46.08
190.948	197.63
191.168	216.06
191.387	82.94
191.607	132.09
191.826	72.7
192.045	95.23
192.265	-39.94
192.484	105.47
192.704	103.42
192.923	-46.08
193.142	181.25
193.362	105.47
193.581	162.81
193.8	56.32
194.02	-3.07
194.239	66.56
194.458	58.37
194.678	23.55
194.897	50.18
195.116	48.13
195.335	3.07
195.555	95.23
195.774	31.74
195.993	60.42
196.212	-7.17
196.432	-5.12
196.651	19.46
196.87	58.37
197.089	252.92
197.308	27.65
197.528	142.33
197.747	1.02
197.966	142.33
198.185	181.25
198.404	-52.22
198.623	166.91
198.842	134.14
199.062	97.28
199.281	132.09
199.5	50.18
199.719	82.94
199.938	125.95
200.157	48.13
200.376	132.09
200.595	115.71
200.814	37.89
201.033	-56.32
201.252	156.67
201.471	35.84
201.69	87.04
201.909	64.51
202.128	84.99
202.347	99.33
202.566	11.26
202.785	-168.96
203.004	-3.07
203.223	271.36
203.442	27.65
203.661	1.02
203.879	91.13
204.098	136.19
204.317	-35.84
204.536	128
204.755	50.18
204.974	125.95
205.193	-27.65
205.411	203.77
205.63	130.05
205.849	132.09
206.068	74.75
206.287	-9.22
206.505	89.09
206.724	17.41
206.943	25.6
207.162	-76.8
207.381	54.27
207.599	78.85
207.818	84.99
208.037	27.65
208.255	48.13
208.474	54.27
208.693	93.18
208.911	27.65
209.13	29.7
209.349	70.65
209.567	117.76
209.786	27.65
210.005	103.42
210.223	52.22
210.442	-111.61
210.661	95.23
210.879	64.51
211.098	56.32
211.316	35.84
211.535	74.75
211.753	113.66
211.972	89.09
212.191	52.22
212.409	76.8
212.628	160.77
212.846	-62.46
213.065	76.8
213.283	91.13
213.502	29.7
213.72	62.46
213.938	-5.12
214.157	3.07
214.375	87.04
214.594	109.57
214.812	56.32
215.031	3.07
215.249	109.57
215.467	37.89
215.686	58.37
215.904	29.7
216.122	33.79
216.341	136.19
216.559	-5.12
216.778	150.53
216.996	179.2
217.214	48.13
217.432	27.65
217.651	-70.65
217.869	23.55
218.087	121.85
218.306	76.8
218.524	27.65
218.742	125.95
218.96	95.23
219.179	48.13
219.397	13.31
219.615	263.16
219.833	138.24
220.051	-44.03
220.27	154.62
220.488	146.43
220.706	91.13
220.924	11.26
221.142	-44.03
221.36	68.61
221.578	31.74
221.796	70.65
222.015	17.41
222.233	80.89
222.451	146.43
222.669	-91.13
222.887	41.98
223.105	1.02
223.323	-7.17
223.541	-39.94
223.759	33.79
223.977	74.75
224.195	41.98
224.413	173.05
224.631	-13.31
224.849	166.91
225.067	134.14
225.285	5.12
225.503	15.36
225.721	-117.76
225.939	58.37
226.157	93.18
226.375	234.49
226.592	-1.02
226.81	-15.36
227.028	44.03
227.246	123.9
227.464	44.03
227.682	70.65
227.9	46.08
228.117	99.33
228.335	173.05
228.553	-29.7
228.771	21.5
228.989	60.42
229.206	121.85
229.424	56.32
229.642	13.31
229.86	23.55
230.077	109.57
230.295	15.36
230.513	138.24
230.731	87.04
230.948	121.85
231.166	181.25
231.384	-3.07
231.601	-82.94
231.819	197.63
232.037	-21.5
232.254	17.41
232.472	76.8
232.689	58.37
232.907	95.23
233.125	17.41
233.342	5.12
233.56	-64.51
233.777	-56.32
233.995	27.65
234.213	99.33
234.43	222.2
234.648	68.61
234.865	41.98
235.083	9.22
235.3	56.32
235.518	76.8
235.735	132.09
235.953	76.8
236.17	74.75
236.388	31.74
236.605	35.84
236.822	5.12
237.04	191.49
237.257	60.42
237.475	113.66
237.692	87.04
237.909	99.33
238.127	37.89
238.344	39.94
238.562	25.6
238.779	-46.08
238.996	-74.75
239.214	27.65
239.431	27.65
239.648	21.5
239.865	146.43
240.083	62.46
240.3	-5.12
240.517	29.7
240.735	-13.31
240.952	89.09
241.169	50.18
241.386	99.33
241.603	72.7
241.821	-52.22
242.038	89.09
242.255	121.85
242.472	-44.03
242.689	56.32
242.907	37.89
243.124	41.98
243.341	9.22
243.558	33.79
243.775	-111.61
243.992	-87.04
244.209	111.61
244.426	171.01
244.643	64.51
244.86	35.84
245.078	25.6
245.295	62.46
245.512	25.6
245.729	39.94
245.946	58.37
246.163	113.66
246.38	76.8
246.597	5.12
246.814	58.37
247.031	27.65
247.248	-9.22
247.464	156.67
247.681	39.94
247.898	82.94
248.115	107.52
248.332	-33.79
248.549	156.67
248.766	154.62
248.983	99.33
249.2	54.27
249.417	72.7
249.633	-111.61
249.85	117.76
250.067	41.98
250.284	72.7
250.501	97.28
250.717	76.8
250.934	-21.5
251.151	-1.02
251.368	-17.41
251.585	111.61
251.801	66.56
252.018	-9.22
252.235	21.5
252.451	-9.22
252.668	5.12
252.885	185.34
253.102	29.7
253.318	11.26
253.535	56.32
253.752	-64.51
253.968	13.31
254.185	-66.56
254.401	50.18
254.618	-23.55
254.835	91.13
255.051	181.25
255.268	1.02
255.484	72.7
255.701	50.18
255.917	84.99
256.134	-1.02
256.351	60.42
256.567	-5.12
256.784	50.18
257	13.31
257.217	62.46
257.433	99.33
257.65	93.18
257.866	154.62
258.082	-17.41
258.299	-33.79
258.515	54.27
258.732	-33.79
258.948	58.37
259.165	152.57
259.381	-60.42
259.597	23.55
259.814	115.71
260.03	-21.5
260.246	-52.22
260.463	121.85
260.679	89.09
260.895	70.65
261.112	74.75
261.328	13.31
261.544	-48.13
261.761	168.96
261.977	-72.7
262.193	5.12
262.409	125.95
262.626	46.08
262.842	52.22
263.058	17.41
263.274	101.37
263.49	111.61
263.707	144.38
263.923	115.71
264.139	-33.79
264.355	33.79
264.571	132.09
264.787	50.18
265.004	146.43
265.22	3.07
265.436	19.46
265.652	1.02
265.868	130.05
266.084	-103.42
266.3	48.13
266.516	31.74
266.732	125.95
266.948	27.65
267.164	48.13
267.38	117.76
267.596	72.7
267.812	113.66
268.028	46.08
268.244	-84.99
268.46	25.6
268.676	39.94
268.892	52.22
269.108	-19.46
269.324	1.02
269.54	-9.22
269.756	56.32
269.972	-82.94
270.188	46.08
270.403	-11.26
270.619	19.46
270.835	27.65
271.051	113.66
271.267	27.65
271.483	23.55
271.698	95.23
271.914	119.81
272.13	-48.13
272.346	33.79
272.562	107.52
272.777	107.52
272.993	-56.32
273.209	7.17
273.425	103.42
273.64	-44.03
273.856	101.37
274.072	23.55
274.287	-1.02
274.503	107.52
274.719	52.22
274.934	-15.36
275.15	-95.23
275.366	46.08
275.581	-29.7
275.797	48.13
276.012	119.81
276.228	-46.08
276.444	9.22
276.659	93.18
276.875	13.31
277.09	-37.89
277.306	97.28
277.521	54.27
277.737	72.7
277.952	111.61
278.168	46.08
278.383	93.18
278.599	111.61
278.814	64.51
279.03	37.89
279.245	99.33
279.461	1.02
279.676	23.55
279.892	-70.65
280.107	-1.02
280.322	17.41
280.538	21.5
280.753	13.31
280.969	68.61
281.184	3.07
281.399	146.43
281.615	-64.51
281.83	52.22
282.045	-62.46
282.26	-7.17
282.476	35.84
282.691	3.07
282.906	44.03
283.122	121.85
283.337	25.6
283.552	31.74
283.767	-7.17
283.983	125.95
284.198	-5.12
284.413	156.67
284.628	25.6
284.843	64.51
285.058	140.29
285.274	52.22
285.489	50.18
285.704	195.58
285.919	-101.37
286.134	-11.26
286.349	17.41
286.564	44.03
286.779	134.14
286.995	84.99
287.21	-35.84
287.425	74.75
287.64	58.37
287.855	74.75
288.07	19.46
288.285	144.38
288.5	74.75
288.715	27.65
288.93	19.46
289.145	41.98
289.36	109.57
289.575	-17.41
289.79	84.99
290.004	15.36
290.219	154.62
290.434	-64.51
290.649	31.74
290.864	35.84
291.079	-29.7
291.294	33.79
291.509	117.76
291.724	64.51
291.938	-29.7
292.153	82.94
292.368	19.46
292.583	37.89
292.798	48.13
293.012	1.02
293.227	46.08
293.442	80.89
293.657	60.42
293.871	91.13
294.086	101.37
294.301	209.92
294.516	150.53
294.73	109.57
294.945	21.5
295.16	60.42
295.374	105.47
295.589	64.51
295.804	60.42
296.018	64.51
296.233	97.28
296.447	89.09
296.662	41.98
296.877	91.13
297.091	29.7
297.306	107.52
297.52	64.51
297.735	99.33
297.949	68.61
298.164	80.89
298.378	66.56
298.593	-1.02
298.807	13.31
299.022	19.46
299.236	171.01
299.451	64.51
299.665	-7.17
299.88	58.37
300.094	72.7
300.309	3.07
300.523	15.36
300.737	-41.98
300.952	144.38
301.166	68.61
301.381	27.65
301.595	5.12
301.809	70.65
302.024	17.41
302.238	-17.41
302.452	160.77
302.667	50.18
302.881	128
303.095	115.71
303.309	125.95
303.524	105.47
303.738	91.13
303.952	-46.08
304.166	66.56
304.381	-87.04
304.595	168.96
304.809	-33.79
305.023	41.98
305.237	-11.26
305.452	54.27
305.666	64.51
305.88	50.18
306.094	93.18
306.308	107.52
306.522	52.22
306.736	123.9
306.95	162.81
307.164	37.89
307.379	11.26
307.593	115.71
307.807	72.7
308.021	123.9
308.235	152.57
308.449	-93.18
308.663	25.6
308.877	277.5
309.091	95.23
309.305	9.22
309.519	-107.52
309.733	76.8
309.947	-72.7
310.161	37.89
310.374	74.75
310.588	101.37
310.802	-56.32
311.016	-60.42
311.23	27.65
311.444	-109.57
311.658	48.13
311.872	109.57
312.085	33.79
312.299	148.48
312.513	195.58
312.727	121.85
312.941	-62.46
313.154	-31.74
313.368	23.55
313.582	50.18
313.796	113.66
314.009	72.7
314.223	111.61
314.437	132.09
314.651	101.37
314.864	-13.31
315.078	52.22
315.292	-48.13
315.505	-5.12
315.719	76.8
315.933	142.33
316.146	1.02
316.36	-5.12
316.573	80.89
316.787	115.71
317.001	130.05
317.214	-80.89
317.428	50.18
317.641	-101.37
317.855	39.94
318.068	31.74
318.282	29.7
318.495	164.86
318.709	164.86
318.922	31.74
319.136	132.09
319.349	117.76
319.563	11.26
319.776	76.8
319.99	-46.08
320.203	89.09
320.417	50.18
320.63	87.04
320.843	183.29
321.057	52.22
321.27	89.09
321.483	150.53
321.697	91.13
321.91	25.6
322.124	87.04
322.337	27.65
322.55	9.22
322.763	48.13
322.977	46.08
323.19	-64.51
323.403	52.22
323.617	113.66
323.83	130.05
324.043	52.22
324.256	84.99
324.469	-13.31
324.683	128
324.896	93.18
325.109	-62.46
325.322	-5.12
325.535	109.57
325.748	91.13
325.962	35.84
326.175	50.18
326.388	76.8
326.601	173.05
326.814	-15.36
327.027	97.28
327.24	203.77
327.453	1.02
327.666	97.28
327.879	140.29
328.092	84.99
328.305	39.94
328.518	33.79
328.731	19.46
328.944	37.89
329.157	117.76
329.37	-15.36
329.583	123.9
329.796	158.72
330.009	-29.7
330.222	117.76
330.435	142.33
330.648	89.09
330.861	60.42
331.073	21.5
331.286	105.47
331.499	76.8
331.712	-41.98
331.925	46.08
332.138	107.52
332.35	123.9
332.563	21.5
332.776	78.85
332.989	-29.7
333.202	9.22
333.414	52.22
333.627	39.94
333.84	-23.55
334.053	115.71
334.265	-33.79
334.478	3.07
334.691	23.55
334.903	-3.07
335.116	31.74
335.329	-15.36
335.541	64.51
335.754	97.28
335.966	-62.46
336.179	37.89
336.392	-35.84
336.604	-3.07
336.817	105.47
337.029	76.8
337.242	37.89
337.454	125.95
337.667	1.02
337.88	140.29
338.092	9.22
338.305	136.19
338.517	-39.94
338.729	84.99
338.942	166.91
339.154	-13.31
339.367	-140.29
339.579	93.18
339.792	-3.07
340.004	41.98
340.217	35.84
340.429	78.85
340.641	-58.37
340.854	-1.02
341.066	-15.36
341.278	156.67
341.491	166.91
341.703	27.65
341.915	9.22
342.128	142.33
342.34	142.33
342.552	21.5
342.764	74.75
342.977	82.94
343.189	50.18
343.401	91.13
343.613	-27.65
343.826	23.55
344.038	-58.37
344.25	48.13
344.462	31.74
344.674	84.99
344.886	3.07
345.099	58.37
345.311	76.8
345.523	-27.65
345.735	-15.36
345.947	115.71
346.159	113.66
346.371	99.33
346.583	50.18
346.795	203.77
347.007	7.17
347.219	64.51
347.431	84.99
347.643	93.18
347.855	-23.55
348.067	177.15
348.279	62.46
348.491	-5.12
348.703	162.81
348.915	3.07
349.127	-25.6
349.339	11.26
349.551	72.7
349.763	117.76
349.975	111.61
350.187	39.94
350.399	152.57
350.61	72.7
350.822	62.46
351.034	105.47
351.246	58.37
351.458	84.99
351.669	39.94
351.881	123.9
352.093	132.09
352.305	44.03
352.517	99.33
352.728	128
352.94	82.94
353.152	7.17
353.363	80.89
353.575	99.33
353.787	37.89
353.999	37.89
354.21	142.33
354.422	-89.09
354.633	58.37
354.845	31.74
355.057	15.36
355.268	-19.46
355.48	76.8
355.692	-3.07
355.903	87.04
356.115	25.6
356.326	-41.98
356.538	154.62
356.749	70.65
356.961	146.43
357.172	72.7
357.384	27.65
357.595	209.92
357.807	17.41
358.018	37.89
358.23	27.65
358.441	105.47
358.653	1.02
358.864	11.26
359.075	-56.32
359.287	50.18
359.498	140.29
359.709	103.42
359.921	62.46
360.132	68.61
360.344	128
360.555	-66.56
360.766	19.46
360.977	-7.17
361.189	142.33
361.4	23.55
361.611	128
361.823	132.09
362.034	15.36
362.245	-44.03
362.456	-35.84
362.667	72.7
362.879	-60.42
363.09	91.13
363.301	99.33
363.512	80.89
363.723	17.41
363.935	-52.22
364.146	70.65
364.357	41.98
364.568	35.84
364.779	-7.17
364.99	189.44
365.201	-21.5
365.412	152.57
365.623	-35.84
365.834	56.32
366.045	19.46
366.256	146.43
366.467	91.13
366.678	68.61
366.889	64.51
367.1	66.56
367.311	111.61
367.522	-3.07
367.733	107.52
367.944	115.71
368.155	19.46
368.366	154.62
368.577	152.57
368.788	132.09
368.999	3.07
369.209	29.7
369.42	244.73
369.631	207.87
369.842	82.94
370.053	11.26
370.264	132.09
370.474	-21.5
370.685	76.8
370.896	128
371.107	166.91
371.317	70.65
371.528	31.74
371.739	187.39
371.95	68.61
372.16	44.03
372.371	-1.02
372.582	-52.22
372.792	68.61
373.003	115.71
373.214	103.42
373.424	72.7
373.635	68.61
373.846	230.4
374.056	68.61
374.267	41.98
374.477	105.47
374.688	-64.51
374.898	134.14
375.109	78.85
375.319	93.18
375.53	107.52
375.74	103.42
375.951	52.22
376.161	46.08
376.372	119.81
376.582	39.94
376.793	44.03
377.003	-50.18
377.214	35.84
377.424	68.61
377.635	72.7
377.845	-29.7
378.055	148.48
378.266	15.36
378.476	25.6
378.686	93.18
378.897	99.33
379.107	183.29
379.317	99.33
379.528	52.22
379.738	115.71
379.948	25.6
380.158	148.48
380.369	115.71
380.579	19.46
380.789	-33.79
380.999	80.89
381.21	56.32
381.42	209.92
381.63	21.5
381.84	119.81
382.05	54.27
382.261	76.8
382.471	125.95
382.681	11.26
382.891	228.35
383.101	-3.07
383.311	-74.75
383.521	37.89
383.731	154.62
383.941	91.13
384.151	113.66
384.361	3.07
384.571	41.98
384.781	37.89
384.991	179.2
385.201	158.72
385.411	80.89
385.621	144.38
385.831	87.04
386.041	66.56
386.251	58.37
386.461	201.72
386.671	66.56
386.881	68.61
387.091	-23.55
387.301	117.76
387.511	35.84
387.72	29.7
387.93	140.29
388.14	5.12
388.35	82.94
388.56	160.77
388.769	70.65
388.979	31.74
389.189	7.17
389.399	21.5
389.609	95.23
389.818	74.75
390.028	23.55
390.238	66.56
390.447	-64.51
390.657	33.79
390.867	-29.7
391.076	-54.27
391.286	56.32
391.496	84.99
391.705	-25.6
391.915	191.49
392.125	119.81
392.334	-13.31
392.544	160.77
392.753	76.8
392.963	1.02
393.172	87.04
393.382	41.98
393.591	134.14
393.801	46.08
394.01	173.05
394.22	130.05
394.429	84.99
394.639	-1.02
394.848	52.22
395.058	39.94
395.267	93.18
395.477	146.43
395.686	-9.22
395.895	72.7
396.105	218.11
396.314	31.74
396.524	123.9
396.733	66.56
396.942	39.94
397.152	101.37
397.361	97.28
397.57	54.27
397.78	39.94
397.989	64.51
398.198	214.01
398.407	52.22
398.617	-1.02
398.826	89.09
399.035	52.22
399.244	160.77
399.453	60.42
399.663	130.05
399.872	48.13
400.081	41.98
400.29	164.86
400.499	-17.41
400.708	121.85
400.917	33.79
401.127	33.79
401.336	41.98
401.545	117.76
401.754	132.09
401.963	74.75
402.172	3.07
402.381	-44.03
402.59	58.37
402.799	-19.46
403.008	119.81
403.217	9.22
403.426	35.84
403.635	-66.56
403.844	46.08
404.053	17.41
404.262	13.31
404.471	171.01
404.68	68.61
404.888	72.7
405.097	-9.22
405.306	48.13
405.515	125.95
405.724	-5.12
405.933	101.37
406.142	60.42
406.35	175.1
406.559	-23.55
406.768	66.56
406.977	191.49
407.185	140.29
407.394	146.43
407.603	5.12
407.812	33.79
408.02	105.47
408.229	56.32
408.438	121.85
408.646	-11.26
408.855	58.37
409.064	58.37
409.272	-13.31
409.481	119.81
409.69	-15.36
409.898	5.12
410.107	111.61
410.315	128
410.524	-3.07
410.733	21.5
410.941	46.08
411.15	82.94
411.358	74.75
411.567	168.96
411.775	31.74
411.984	91.13
412.192	115.71
412.401	-3.07
412.609	160.77
412.818	144.38
413.026	113.66
413.234	-19.46
413.443	109.57
413.651	-5.12
413.86	39.94
414.068	132.09
414.276	162.81
414.485	-21.5
414.693	140.29
414.901	175.1
415.11	136.19
415.318	101.37
415.526	60.42
415.734	160.77
415.943	58.37
416.151	101.37
416.359	111.61
416.567	52.22
416.776	152.57
416.984	166.91
417.192	267.26
417.4	33.79
417.608	17.41
417.817	15.36
418.025	152.57
418.233	228.35
418.441	37.89
418.649	44.03
418.857	44.03
419.065	211.96
419.273	-3.07
419.481	68.61
419.689	31.74
419.897	44.03
420.105	37.89
420.313	121.85
420.521	146.43
420.729	115.71
420.937	15.36
421.145	-17.41
421.353	144.38
421.561	171.01
421.769	78.85
421.977	39.94
422.185	179.2
422.393	31.74
422.601	146.43
422.809	132.09
423.017	52.22
423.224	46.08
423.432	72.7
423.64	27.65
423.848	205.82
424.056	50.18
424.263	138.24
424.471	72.7
424.679	84.99
424.887	-13.31
425.094	134.14
425.302	50.18
425.51	56.32
425.718	113.66
425.925	74.75
426.133	97.28
426.341	252.92
426.548	119.81
426.756	60.42
426.964	109.57
427.171	44.03
427.379	168.96
427.586	140.29
427.794	136.19
428.001	66.56
428.209	39.94
428.417	218.11
428.624	164.86
428.832	64.51
429.039	72.7
429.247	72.7
429.454	103.42
429.662	279.55
429.869	150.53
430.076	89.09
430.284	142.33
430.491	281.6
430.699	197.63
430.906	244.73
431.114	115.71
431.321	166.91
431.528	23.55
431.736	148.48
431.943	232.44
432.15	220.16
432.358	209.92
432.565	261.12
432.772	48.13
432.979	162.81
433.187	168.96
433.394	265.21
433.601	99.33
433.808	248.83
434.016	269.31
434.223	230.4
434.43	216.06
434.637	318.46
434.844	328.7
435.052	300.03
435.259	302.08
435.466	267.26
435.673	297.98
435.88	283.64
436.087	324.6
436.294	379.9
436.501	420.86
436.708	338.94
436.915	322.56
437.122	394.23
437.329	300.03
437.537	367.61
437.743	281.6
437.95	441.34
438.157	377.85
438.364	375.8
438.571	369.66
438.778	478.2
438.985	506.87
439.192	539.64
439.399	420.86
439.606	523.26
439.813	572.41
440.02	613.37
440.227	699.38
440.433	633.85
440.64	584.7
440.847	553.98
441.054	648.18
441.261	742.39
441.467	707.57
441.674	709.62
441.881	777.2
442.088	723.96
442.294	818.16
442.501	869.36
442.708	840.69
442.914	848.88
443.121	965.62
443.328	895.99
443.534	1018.86
443.741	938.99
443.948	885.75
444.154	1049.58
444.361	1352.68
444.568	1045.49
444.774	1080.3
444.981	1065.97
445.187	1203.18
445.394	1174.51
445.6	1252.33
445.807	1467.37
446.013	1424.36
446.22	1281
446.426	1655.78
446.633	1537
446.839	1833.96
447.046	1596.39
447.252	1850.34
447.459	1754.09
447.665	1799.14
447.871	1860.58
448.078	2139.1
448.284	2114.53
448.491	2116.58
448.697	2208.73
448.903	2311.13
449.11	2386.91
449.316	2419.68
449.522	2573.27
449.728	2687.96
449.935	2784.21
450.141	2782.17
450.347	2933.72
450.553	2943.96
450.76	3025.87
450.966	3154.9
451.172	3238.86
451.378	3417.04
451.584	3423.18
451.791	3800.01
451.997	3908.55
452.203	3926.98
452.409	4256.7
452.615	4309.95
452.821	4154.3
453.027	4211.65
453.233	4856.76
453.44	4479.93
453.646	4996.02
453.852	5059.51
454.058	5149.62
454.264	5309.36
454.47	5856.17
454.676	5860.26
454.882	6220.71
455.088	5888.93
455.294	6292.38
455.5	6861.72
455.705	7375.76
455.911	7109.52
456.117	7330.7
456.323	7678.86
456.529	7515.02
456.735	8348.54
456.941	8512.38
457.147	9040.76
457.352	9173.88
457.558	9255.79
457.764	9991.02
457.97	10156.9
458.176	10738.52
458.381	11414.35
458.587	11496.27
458.793	11930.44
458.999	11709.26
459.204	13269.81
459.41	13904.68
459.616	13550.39
459.821	14525.22
460.027	15328.02
460.233	15799.05
460.438	15799.05
460.644	16816.9
460.85	16812.8
461.055	17742.58
461.261	18485.99
461.466	18146.03
461.672	18453.22
461.878	20581.06
462.083	20564.68
462.289	20826.82
462.494	21646.01
462.7	21682.87
462.905	22178.48
463.111	23964.31
463.316	24994.43
463.522	25545.34
463.727	26358.38
463.932	27361.89
464.138	28439.12
464.343	29393.47
464.549	29491.77
464.754	31578.65
464.959	32487.95
465.165	33243.65
465.37	33047.05
465.575	32616.97
465.781	34755.05
465.986	35736.03
466.191	35742.17
466.397	35389.92
466.602	34589.17
466.807	36774.35
467.012	37093.83
467.218	37882.3
467.423	37730.75
467.628	38820.27
467.833	41087.37
468.038	40241.56
468.244	39481.77
468.449	41537.93
468.654	40833.42
468.859	40950.16
