Data from USB4F104151__24__10-42-06-885.txt Node

Date: Wed Feb 26 10:42:06 EST 2025
User: louis
Spectrometer: USB4F10415
Trigger mode: 4
Integration Time (sec): 1.000000E-1
Scans to average: 1
Electric dark correction enabled: true
Nonlinearity correction enabled: false
Boxcar width: 0
XAxis mode: Wavelengths
Number of Pixels in Spectrum: 3648
>>>>>Begin Spectral Data<<<<<
178.204	-401.74
178.424	-401.74
178.644	-401.74
178.864	-405.84
179.084	-379.22
179.304	-0.34
179.524	-47.44
179.744	1.71
179.964	34.47
180.184	26.28
180.404	-22.87
180.624	-16.73
180.844	-53.59
181.064	22.19
181.283	87.72
181.503	-104.79
181.723	73.39
181.943	-69.97
182.163	190.12
182.383	-41.3
182.602	-22.87
182.822	177.83
183.042	124.58
183.262	48.81
183.482	-6.49
183.701	52.91
183.921	85.67
184.141	-10.58
184.361	87.72
184.58	77.48
184.8	32.43
185.02	38.57
185.239	75.43
185.459	112.3
185.679	71.34
185.898	-149.84
186.118	28.33
186.338	97.96
186.557	136.87
186.777	20.14
186.997	28.33
187.216	9.9
187.436	198.31
187.655	5.8
187.875	100.01
188.095	54.95
188.314	186.02
188.534	167.59
188.753	-96.6
188.973	136.87
189.192	179.88
189.412	48.81
189.631	-2.39
189.851	38.57
190.07	124.58
190.29	-0.34
190.509	3.75
190.729	48.81
190.948	173.74
191.168	212.65
191.387	122.54
191.607	-41.3
191.826	77.48
192.045	63.15
192.265	67.24
192.484	155.3
192.704	63.15
192.923	-22.87
193.142	153.26
193.362	169.64
193.581	153.26
193.8	11.95
194.02	173.74
194.239	93.87
194.458	83.63
194.678	7.85
194.897	54.95
195.116	130.73
195.335	50.86
195.555	79.53
195.774	9.9
195.993	63.15
196.212	-41.3
196.432	36.52
196.651	-26.96
196.87	89.77
197.089	161.45
197.308	44.71
197.528	81.58
197.747	26.28
197.966	81.58
198.185	163.5
198.404	16.04
198.623	145.06
198.842	91.82
199.062	147.11
199.281	67.24
199.5	77.48
199.719	63.15
199.938	77.48
200.157	63.15
200.376	134.82
200.595	40.62
200.814	20.14
201.033	-31.06
201.252	188.07
201.471	100.01
201.69	69.29
201.909	-20.82
202.128	140.97
202.347	52.91
202.566	59.05
202.785	9.9
203.004	11.95
203.223	292.52
203.442	91.82
203.661	-31.06
203.879	77.48
204.098	143.02
204.317	-49.49
204.536	44.71
204.755	140.97
204.974	75.43
205.193	42.67
205.411	183.98
205.63	108.2
205.849	77.48
206.068	89.77
206.287	-31.06
206.505	75.43
206.724	32.43
206.943	-61.78
207.162	52.91
207.381	46.76
207.599	46.76
207.818	38.57
208.037	-8.53
208.255	81.58
208.474	161.45
208.693	95.91
208.911	30.38
209.13	89.77
209.349	32.43
209.567	112.3
209.786	97.96
210.005	112.3
210.223	22.19
210.442	-108.88
210.661	67.24
210.879	-24.92
211.098	-18.77
211.316	163.5
211.535	128.68
211.753	57
211.972	122.54
212.191	52.91
212.409	102.06
212.628	116.39
212.846	16.04
213.065	52.91
213.283	124.58
213.502	83.63
213.72	69.29
213.938	106.15
214.157	50.86
214.375	69.29
214.594	-4.44
214.812	16.04
215.031	69.29
215.249	1.71
215.467	110.25
215.686	11.95
215.904	44.71
216.122	48.81
216.341	196.26
216.559	71.34
216.778	132.78
216.996	186.02
217.214	104.11
217.432	48.81
217.651	-10.58
217.869	22.19
218.087	46.76
218.306	54.95
218.524	89.77
218.742	97.96
218.96	77.48
219.179	83.63
219.397	177.83
219.615	200.36
219.833	118.44
220.051	-61.78
220.27	165.54
220.488	124.58
220.706	79.53
220.924	-26.96
221.142	20.14
221.36	130.73
221.578	22.19
221.796	81.58
222.015	-10.58
222.233	204.46
222.451	140.97
222.669	-6.49
222.887	48.81
223.105	-10.58
223.323	77.48
223.541	11.95
223.759	104.11
223.977	87.72
224.195	165.54
224.413	218.79
224.631	93.87
224.849	40.62
225.067	165.54
225.285	7.85
225.503	61.1
225.721	-33.11
225.939	67.24
226.157	73.39
226.375	224.94
226.592	40.62
226.81	-39.25
227.028	145.06
227.246	151.21
227.464	44.71
227.682	54.95
227.9	46.76
228.117	59.05
228.335	46.76
228.553	22.19
228.771	5.8
228.989	93.87
229.206	136.87
229.424	1.71
229.642	79.53
229.86	-37.2
230.077	130.73
230.295	91.82
230.513	167.59
230.731	140.97
230.948	118.44
231.166	157.35
231.384	42.67
231.601	75.43
231.819	229.03
232.037	-35.16
232.254	-47.44
232.472	48.81
232.689	-63.83
232.907	93.87
233.125	1.71
233.342	22.19
233.56	54.95
233.777	22.19
233.995	20.14
234.213	77.48
234.43	59.05
234.648	-8.53
234.865	36.52
235.083	38.57
235.3	81.58
235.518	110.25
235.735	77.48
235.953	73.39
236.17	13.99
236.388	13.99
236.605	-14.68
236.822	155.3
237.04	124.58
237.257	79.53
237.475	9.9
237.692	79.53
237.909	124.58
238.127	38.57
238.344	67.24
238.562	59.05
238.779	-0.34
238.996	-33.11
239.214	22.19
239.431	114.34
239.648	71.34
239.865	100.01
240.083	52.91
240.3	-31.06
240.517	75.43
240.735	75.43
240.952	155.3
241.169	36.52
241.386	106.15
241.603	40.62
241.821	67.24
242.038	83.63
242.255	102.06
242.472	-59.73
242.689	130.73
242.907	42.67
243.124	59.05
243.341	3.75
243.558	-8.53
243.775	-26.96
243.992	7.85
244.209	89.77
244.426	145.06
244.643	63.15
244.86	-0.34
245.078	116.39
245.295	104.11
245.512	65.19
245.729	-10.58
245.946	57
246.163	71.34
246.38	11.95
246.597	13.99
246.814	93.87
247.031	110.25
247.248	136.87
247.464	50.86
247.681	5.8
247.898	46.76
248.115	143.02
248.332	-65.88
248.549	165.54
248.766	155.3
248.983	122.54
249.2	32.43
249.417	48.81
249.633	20.14
249.85	34.47
250.067	32.43
250.284	52.91
250.501	57
250.717	95.91
250.934	-49.49
251.151	38.57
251.368	71.34
251.585	34.47
251.801	52.91
252.018	5.8
252.235	132.78
252.451	-63.83
252.668	42.67
252.885	102.06
253.102	65.19
253.318	67.24
253.535	-2.39
253.752	-55.64
253.968	18.09
254.185	-63.83
254.401	79.53
254.618	32.43
254.835	34.47
255.051	138.92
255.268	110.25
255.484	116.39
255.701	-8.53
255.917	143.02
256.134	-10.58
256.351	26.28
256.567	-55.64
256.784	108.2
257	-2.39
257.217	91.82
257.433	50.86
257.65	-35.16
257.866	132.78
258.082	9.9
258.299	1.71
258.515	79.53
258.732	30.38
258.948	-41.3
259.165	28.33
259.381	-39.25
259.597	124.58
259.814	140.97
260.03	-8.53
260.246	79.53
260.463	106.15
260.679	112.3
260.895	22.19
261.112	50.86
261.328	34.47
261.544	-16.73
261.761	239.27
261.977	-31.06
262.193	-86.36
262.409	114.34
262.626	24.23
262.842	36.52
263.058	50.86
263.274	110.25
263.49	77.48
263.707	83.63
263.923	75.43
264.139	-16.73
264.355	110.25
264.571	120.49
264.787	42.67
265.004	126.63
265.22	40.62
265.436	-0.34
265.652	30.38
265.868	91.82
266.084	-63.83
266.3	63.15
266.516	-74.07
266.732	93.87
266.948	-12.63
267.164	22.19
267.38	165.54
267.596	83.63
267.812	190.12
268.028	36.52
268.244	26.28
268.46	69.29
268.676	9.9
268.892	81.58
269.108	7.85
269.324	-45.4
269.54	3.75
269.756	48.81
269.972	-33.11
270.188	50.86
270.403	46.76
270.619	-16.73
270.835	18.09
271.051	32.43
271.267	67.24
271.483	7.85
271.698	71.34
271.914	44.71
272.13	79.53
272.346	44.71
272.562	13.99
272.777	38.57
272.993	73.39
273.209	-29.01
273.425	89.77
273.64	-51.54
273.856	128.68
274.072	-14.68
274.287	20.14
274.503	97.96
274.719	44.71
274.934	-82.26
275.15	-80.21
275.366	104.11
275.581	-12.63
275.797	3.75
276.012	52.91
276.228	30.38
276.444	136.87
276.659	194.22
276.875	-24.92
277.09	-10.58
277.306	75.43
277.521	36.52
277.737	16.04
277.952	114.34
278.168	40.62
278.383	87.72
278.599	7.85
278.814	138.92
279.03	11.95
279.245	132.78
279.461	79.53
279.676	100.01
279.892	-20.82
280.107	-0.34
280.322	-0.34
280.538	75.43
280.753	91.82
280.969	140.97
281.184	30.38
281.399	153.26
281.615	20.14
281.83	-14.68
282.045	-45.4
282.26	-35.16
282.476	48.81
282.691	50.86
282.906	44.71
283.122	69.29
283.337	-12.63
283.552	93.87
283.767	-41.3
283.983	93.87
284.198	-6.49
284.413	71.34
284.628	54.95
284.843	57
285.058	-6.49
285.274	-12.63
285.489	44.71
285.704	149.16
285.919	48.81
286.134	89.77
286.349	67.24
286.564	9.9
286.779	149.16
286.995	22.19
287.21	13.99
287.425	52.91
287.64	42.67
287.855	120.49
288.07	-4.44
288.285	104.11
288.5	153.26
288.715	128.68
288.93	52.91
289.145	-53.59
289.36	149.16
289.575	30.38
289.79	151.21
290.004	30.38
290.219	71.34
290.434	91.82
290.649	22.19
290.864	77.48
291.079	77.48
291.294	26.28
291.509	24.23
291.724	16.04
291.938	26.28
292.153	26.28
292.368	48.81
292.583	116.39
292.798	177.83
293.012	16.04
293.227	63.15
293.442	5.8
293.657	143.02
293.871	95.91
294.086	190.12
294.301	149.16
294.516	120.49
294.73	71.34
294.945	-20.82
295.16	46.76
295.374	159.4
295.589	132.78
295.804	67.24
296.018	65.19
296.233	140.97
296.447	20.14
296.662	-31.06
296.877	173.74
297.091	136.87
297.306	-43.35
297.52	-51.54
297.735	100.01
297.949	85.67
298.164	20.14
298.378	75.43
298.593	-4.44
298.807	-18.77
299.022	26.28
299.236	155.3
299.451	13.99
299.665	34.47
299.88	7.85
300.094	120.49
300.309	9.9
300.523	75.43
300.737	65.19
300.952	59.05
301.166	75.43
301.381	-37.2
301.595	-20.82
301.809	50.86
302.024	13.99
302.238	-31.06
302.452	140.97
302.667	104.11
302.881	73.39
303.095	147.11
303.309	5.8
303.524	59.05
303.738	59.05
303.952	-22.87
304.166	112.3
304.381	-18.77
304.595	157.35
304.809	67.24
305.023	-20.82
305.237	73.39
305.452	-16.73
305.666	108.2
305.88	54.95
306.094	83.63
306.308	42.67
306.522	157.35
306.736	79.53
306.95	59.05
307.164	61.1
307.379	85.67
307.593	159.4
307.807	89.77
308.021	63.15
308.235	159.4
308.449	-96.6
308.663	61.1
308.877	218.79
309.091	59.05
309.305	-0.34
309.519	-78.16
309.733	177.83
309.947	-61.78
310.161	42.67
310.374	65.19
310.588	153.26
310.802	-12.63
311.016	28.33
311.23	130.73
311.444	-20.82
311.658	-12.63
311.872	81.58
312.085	183.98
312.299	235.18
312.513	61.1
312.727	100.01
312.941	13.99
313.154	26.28
313.368	48.81
313.582	7.85
313.796	50.86
314.009	3.75
314.223	71.34
314.437	20.14
314.651	67.24
314.864	-18.77
315.078	20.14
315.292	-67.92
315.505	9.9
315.719	65.19
315.933	-24.92
316.146	38.57
316.36	-35.16
316.573	157.35
316.787	-4.44
317.001	40.62
317.214	-43.35
317.428	-0.34
317.641	-74.07
317.855	108.2
318.068	61.1
318.282	50.86
318.495	159.4
318.709	44.71
318.922	50.86
319.136	83.63
319.349	130.73
319.563	79.53
319.776	52.91
319.99	9.9
320.203	112.3
320.417	83.63
320.63	116.39
320.843	177.83
321.057	130.73
321.27	46.76
321.483	130.73
321.697	147.11
321.91	67.24
322.124	-18.77
322.337	-37.2
322.55	3.75
322.763	22.19
322.977	77.48
323.19	-43.35
323.403	20.14
323.617	143.02
323.83	161.45
324.043	30.38
324.256	59.05
324.469	-67.92
324.683	145.06
324.896	36.52
325.109	26.28
325.322	-49.49
325.535	114.34
325.748	122.54
325.962	1.71
326.175	73.39
326.388	67.24
326.601	190.12
326.814	63.15
327.027	-0.34
327.24	284.33
327.453	-49.49
327.666	71.34
327.879	54.95
328.092	95.91
328.305	59.05
328.518	67.24
328.731	91.82
328.944	-10.58
329.157	120.49
329.37	50.86
329.583	194.22
329.796	145.06
330.009	-86.36
330.222	65.19
330.435	85.67
330.648	143.02
330.861	3.75
331.073	73.39
331.286	112.3
331.499	22.19
331.712	28.33
331.925	42.67
332.138	-22.87
332.35	83.63
332.563	20.14
332.776	200.36
332.989	-4.44
333.202	-49.49
333.414	-10.58
333.627	16.04
333.84	63.15
334.053	63.15
334.265	-35.16
334.478	-63.83
334.691	77.48
334.903	77.48
335.116	18.09
335.329	-0.34
335.541	42.67
335.754	143.02
335.966	63.15
336.179	26.28
336.392	102.06
336.604	38.57
336.817	110.25
337.029	63.15
337.242	108.2
337.454	118.44
337.667	71.34
337.88	165.54
338.092	20.14
338.305	116.39
338.517	-47.44
338.729	134.82
338.942	161.45
339.154	3.75
339.367	40.62
339.579	-6.49
339.792	-29.01
340.004	73.39
340.217	16.04
340.429	89.77
340.641	-20.82
340.854	-51.54
341.066	-6.49
341.278	147.11
341.491	177.83
341.703	42.67
341.915	30.38
342.128	30.38
342.34	48.81
342.552	-16.73
342.764	7.85
342.977	75.43
343.189	71.34
343.401	59.05
343.613	-14.68
343.826	3.75
344.038	-29.01
344.25	75.43
344.462	-8.53
344.674	24.23
344.886	30.38
345.099	34.47
345.311	48.81
345.523	11.95
345.735	-55.64
345.947	65.19
346.159	89.77
346.371	100.01
346.583	16.04
346.795	241.32
347.007	3.75
347.219	157.35
347.431	-31.06
347.643	79.53
347.855	13.99
348.067	91.82
348.279	-4.44
348.491	7.85
348.703	124.58
348.915	59.05
349.127	-43.35
349.339	77.48
349.551	-10.58
349.763	3.75
349.975	32.43
350.187	104.11
350.399	138.92
350.61	79.53
350.822	-16.73
351.034	24.23
351.246	36.52
351.458	79.53
351.669	5.8
351.881	83.63
352.093	132.78
352.305	108.2
352.517	9.9
352.728	145.06
352.94	22.19
353.152	61.1
353.363	-14.68
353.575	89.77
353.787	243.37
353.999	75.43
354.21	79.53
354.422	-10.58
354.633	24.23
354.845	132.78
355.057	-2.39
355.268	46.76
355.48	75.43
355.692	40.62
355.903	100.01
356.115	-63.83
356.326	-94.55
356.538	163.5
356.749	54.95
356.961	120.49
357.172	149.16
357.384	34.47
357.595	274.09
357.807	57
358.018	7.85
358.23	28.33
358.441	286.37
358.653	46.76
358.864	87.72
359.075	67.24
359.287	63.15
359.498	118.44
359.709	136.87
359.921	44.71
360.132	97.96
360.344	5.8
360.555	42.67
360.766	-22.87
360.977	-35.16
361.189	118.44
361.4	93.87
361.611	102.06
361.823	112.3
362.034	100.01
362.245	-59.73
362.456	73.39
362.667	128.68
362.879	-4.44
363.09	87.72
363.301	16.04
363.512	120.49
363.723	-92.5
363.935	71.34
364.146	116.39
364.357	42.67
364.568	61.1
364.779	-59.73
364.99	77.48
365.201	16.04
365.412	104.11
365.623	36.52
365.834	85.67
366.045	28.33
366.256	81.58
366.467	54.95
366.678	22.19
366.889	-24.92
367.1	30.38
367.311	229.03
367.522	38.57
367.733	91.82
367.944	165.54
368.155	11.95
368.366	108.2
368.577	140.97
368.788	167.59
368.999	-6.49
369.209	71.34
369.42	194.22
369.631	257.7
369.842	140.97
370.053	40.62
370.264	104.11
370.474	30.38
370.685	77.48
370.896	59.05
371.107	136.87
371.317	71.34
371.528	89.77
371.739	128.68
371.95	126.63
372.16	169.64
372.371	-33.11
372.582	57
372.792	124.58
373.003	93.87
373.214	44.71
373.424	106.15
373.635	-0.34
373.846	106.15
374.056	83.63
374.267	42.67
374.477	112.3
374.688	-20.82
374.898	112.3
375.109	75.43
375.319	71.34
375.53	173.74
375.74	91.82
375.951	-20.82
376.161	50.86
376.372	134.82
376.582	1.71
376.793	30.38
377.003	42.67
377.214	95.91
377.424	54.95
377.635	42.67
377.845	-39.25
378.055	206.5
378.266	-35.16
378.476	63.15
378.686	110.25
378.897	143.02
379.107	136.87
379.317	69.29
379.528	-24.92
379.738	126.63
379.948	-14.68
380.158	112.3
380.369	59.05
380.579	102.06
380.789	-102.74
380.999	89.77
381.21	57
381.42	188.07
381.63	18.09
381.84	52.91
382.05	34.47
382.261	124.58
382.471	194.22
382.681	79.53
382.891	83.63
383.101	81.58
383.311	52.91
383.521	75.43
383.731	116.39
383.941	79.53
384.151	112.3
384.361	22.19
384.571	83.63
384.781	100.01
384.991	247.46
385.201	210.6
385.411	140.97
385.621	67.24
385.831	85.67
386.041	24.23
386.251	5.8
386.461	81.58
386.671	54.95
386.881	63.15
387.091	22.19
387.301	112.3
387.511	40.62
387.72	163.5
387.93	130.73
388.14	-67.92
388.35	145.06
388.56	136.87
388.769	239.27
388.979	57
389.189	-16.73
389.399	79.53
389.609	81.58
389.818	34.47
390.028	95.91
390.238	83.63
390.447	83.63
390.657	173.74
390.867	28.33
391.076	1.71
391.286	54.95
391.496	50.86
391.705	22.19
391.915	120.49
392.125	124.58
392.334	61.1
392.544	128.68
392.753	81.58
392.963	1.71
393.172	83.63
393.382	-24.92
393.591	183.98
393.801	-41.3
394.01	126.63
394.22	91.82
394.429	77.48
394.639	67.24
394.848	85.67
395.058	9.9
395.267	67.24
395.477	143.02
395.686	161.45
395.895	239.27
396.105	226.98
396.314	3.75
396.524	1.71
396.733	136.87
396.942	114.34
397.152	112.3
397.361	196.26
397.57	106.15
397.78	9.9
397.989	157.35
398.198	253.61
398.407	75.43
398.617	50.86
398.826	24.23
399.035	81.58
399.244	153.26
399.453	126.63
399.663	24.23
399.872	-18.77
400.081	-31.06
400.29	134.82
400.499	-47.44
400.708	134.82
400.917	73.39
401.127	-37.2
401.336	71.34
401.545	198.31
401.754	120.49
401.963	100.01
402.172	28.33
402.381	-61.78
402.59	87.72
402.799	116.39
403.008	159.4
403.217	75.43
403.426	79.53
403.635	-45.4
403.844	83.63
404.053	34.47
404.262	54.95
404.471	171.69
404.68	38.57
404.888	95.91
405.097	34.47
405.306	40.62
405.515	138.92
405.724	69.29
405.933	128.68
406.142	54.95
406.35	36.52
406.559	34.47
406.768	69.29
406.977	140.97
407.185	116.39
407.394	91.82
407.603	18.09
407.812	120.49
408.02	87.72
408.229	134.82
408.438	5.8
408.646	-63.83
408.855	-8.53
409.064	93.87
409.272	87.72
409.481	120.49
409.69	16.04
409.898	36.52
410.107	52.91
410.315	95.91
410.524	32.43
410.733	61.1
410.941	75.43
411.15	155.3
411.358	85.67
411.567	155.3
411.775	83.63
411.984	100.01
412.192	100.01
412.401	18.09
412.609	161.45
412.818	138.92
413.026	48.81
413.234	104.11
413.443	61.1
413.651	46.76
413.86	-41.3
414.068	188.07
414.276	218.79
414.485	-18.77
414.693	186.02
414.901	181.93
415.11	126.63
415.318	52.91
415.526	71.34
415.734	85.67
415.943	77.48
416.151	67.24
416.359	-18.77
416.567	126.63
416.776	128.68
416.984	106.15
417.192	183.98
417.4	36.52
417.608	34.47
417.817	-51.54
418.025	79.53
418.233	159.4
418.441	-37.2
418.649	-0.34
418.857	161.45
419.065	165.54
419.273	11.95
419.481	112.3
419.689	63.15
419.897	67.24
420.105	18.09
420.313	128.68
420.521	134.82
420.729	112.3
420.937	40.62
421.145	50.86
421.353	175.78
421.561	132.78
421.769	50.86
421.977	114.34
422.185	138.92
422.393	93.87
422.601	126.63
422.809	126.63
423.017	42.67
423.224	130.73
423.432	183.98
423.64	69.29
423.848	243.37
424.056	34.47
424.263	145.06
424.471	34.47
424.679	116.39
424.887	48.81
425.094	108.2
425.302	75.43
425.51	112.3
425.718	112.3
425.925	138.92
426.133	7.85
426.341	263.85
426.548	97.96
426.756	143.02
426.964	124.58
427.171	-14.68
427.379	120.49
427.586	95.91
427.794	112.3
428.001	171.69
428.209	147.11
428.417	226.98
428.624	93.87
428.832	136.87
429.039	145.06
429.247	190.12
429.454	171.69
429.662	190.12
429.869	126.63
430.076	181.93
430.284	202.41
430.491	239.27
430.699	206.5
430.906	224.94
431.114	233.13
431.321	151.21
431.528	130.73
431.736	192.17
431.943	208.55
432.15	188.07
432.358	245.41
432.565	313
432.772	46.76
432.979	302.76
433.187	212.65
433.394	173.74
433.601	161.45
433.808	188.07
434.016	247.46
434.223	206.5
434.43	267.94
434.637	345.77
434.844	313
435.052	288.42
435.259	286.37
435.466	286.37
435.673	341.67
435.88	325.29
436.087	442.02
436.294	433.83
436.501	403.11
436.708	370.34
436.915	392.87
437.122	386.72
437.329	325.29
437.537	370.34
437.743	403.11
437.95	528.03
438.157	491.17
438.364	403.11
438.571	458.4
438.778	542.37
438.985	618.15
439.192	523.94
439.399	552.61
439.606	538.27
439.813	616.1
440.02	761.5
440.227	806.56
440.433	667.3
440.64	667.3
440.847	673.44
441.054	679.58
441.261	798.37
441.467	655.01
441.674	700.06
441.881	835.23
442.088	781.98
442.294	999.07
442.501	925.34
442.708	1044.12
442.914	949.92
443.121	997.02
443.328	1085.08
443.534	1148.57
443.741	1068.7
443.948	1042.07
444.154	1230.49
444.361	1318.55
444.568	1195.67
444.774	1330.84
444.981	1320.6
445.187	1461.91
445.394	1386.13
445.6	1386.13
445.807	1519.25
446.013	1617.55
446.22	1517.2
446.426	1658.51
446.633	1812.11
446.839	2029.2
447.046	1697.42
447.252	1937.04
447.459	1998.48
447.665	2092.68
447.871	2244.23
448.078	2408.07
448.284	2244.23
448.491	2498.18
448.697	2533
448.903	2567.81
449.11	2666.11
449.316	2662.02
449.522	2924.16
449.728	3055.23
449.935	3159.67
450.141	3141.24
450.347	3366.52
450.553	3292.79
450.76	3518.07
450.966	3675.76
451.172	3784.3
451.378	3980.91
451.584	3923.57
451.791	4300.39
451.997	4224.62
452.203	4449.89
452.409	4615.78
452.615	4904.54
452.821	4781.67
453.027	4828.77
453.233	5314.14
453.44	5164.64
453.646	5496.41
453.852	5885.52
454.058	6065.74
454.264	6219.34
454.47	6635.08
454.676	6526.54
454.882	7140.93
455.088	6772.29
455.294	7253.56
455.5	7736.88
455.705	8275.5
455.911	8093.23
456.117	8500.78
456.323	8775.2
456.529	8812.07
456.735	9518.62
456.941	9575.96
457.147	10184.21
457.352	10411.53
457.558	10755.59
457.764	11380.22
457.97	11394.56
458.176	12045.81
458.381	12559.85
458.587	13012.45
458.793	13585.88
458.999	13295.07
459.204	15326.66
459.41	15586.75
459.616	15584.7
459.821	16420.27
460.027	17243.56
460.233	17882.52
460.438	18046.36
460.644	19074.44
460.85	19283.33
461.055	20112.76
461.261	21101.93
461.466	20456.82
461.672	20878.7
461.878	23522.63
462.083	23074.12
462.289	23620.93
462.494	24479.03
462.7	24837.42
462.905	25285.93
463.111	27176.2
463.316	28456.18
463.522	28851.44
463.727	30088.42
463.932	31077.58
464.138	32144.58
464.343	33074.35
464.549	33340.59
464.754	36052.1
464.959	36738.17
465.165	37590.13
465.37	36945.01
465.575	37387.38
465.781	39816.27
465.986	40965.18
466.191	40295.49
466.397	40598.59
466.602	39621.71
466.807	41745.45
467.012	42705.95
467.218	43346.97
467.423	43330.58
467.628	44633.09
467.833	46904.29
468.038	46023.66
468.244	45206.52
