Data from USB4F104151__217__11-05-56-628.txt Node

Date: Wed Feb 26 11:05:56 EST 2025
User: louis
Spectrometer: USB4F10415
Trigger mode: 4
Integration Time (sec): 1.000000E-1
Scans to average: 1
Electric dark correction enabled: true
Nonlinearity correction enabled: false
Boxcar width: 0
XAxis mode: Wavelengths
Number of Pixels in Spectrum: 3648
>>>>>Begin Spectral Data<<<<<
178.204	-400.38
178.424	-400.38
178.644	-400.38
178.864	-449.53
179.084	-373.75
179.304	11.26
179.524	-9.22
179.744	29.7
179.964	37.89
180.184	-11.26
180.404	-11.26
180.624	74.75
180.844	-66.56
181.064	-93.18
181.283	-25.6
181.503	1.02
181.723	62.46
181.943	-150.53
182.163	289.79
182.383	23.55
182.602	113.66
182.822	168.96
183.042	52.22
183.262	-15.36
183.482	82.94
183.701	82.94
183.921	113.66
184.141	31.74
184.361	50.18
184.58	60.42
184.8	52.22
185.02	33.79
185.239	148.48
185.459	84.99
185.679	80.89
185.898	-76.8
186.118	101.37
186.338	25.6
186.557	148.48
186.777	52.22
186.997	68.61
187.216	-60.42
187.436	193.53
187.655	27.65
187.875	72.7
188.095	66.56
188.314	105.47
188.534	105.47
188.753	-95.23
188.973	150.53
189.192	207.87
189.412	48.13
189.631	101.37
189.851	66.56
190.07	232.44
190.29	-15.36
190.509	37.89
190.729	119.81
190.948	93.18
191.168	216.06
191.387	25.6
191.607	23.55
191.826	29.7
192.045	15.36
192.265	7.17
192.484	74.75
192.704	29.7
192.923	-113.66
193.142	183.29
193.362	121.85
193.581	185.34
193.8	80.89
194.02	37.89
194.239	84.99
194.458	115.71
194.678	31.74
194.897	17.41
195.116	68.61
195.335	78.85
195.555	121.85
195.774	-3.07
195.993	103.42
196.212	15.36
196.432	-17.41
196.651	46.08
196.87	39.94
197.089	316.41
197.308	15.36
197.528	95.23
197.747	-64.51
197.966	3.07
198.185	115.71
198.404	-48.13
198.623	113.66
198.842	132.09
199.062	66.56
199.281	175.1
199.5	-37.89
199.719	99.33
199.938	144.38
200.157	37.89
200.376	56.32
200.595	142.33
200.814	134.14
201.033	27.65
201.252	158.72
201.471	48.13
201.69	162.81
201.909	21.5
202.128	99.33
202.347	130.05
202.566	62.46
202.785	-76.8
203.004	-76.8
203.223	316.41
203.442	37.89
203.661	35.84
203.879	76.8
204.098	175.1
204.317	-74.75
204.536	60.42
204.755	78.85
204.974	68.61
205.193	-7.17
205.411	111.61
205.63	111.61
205.849	101.37
206.068	1.02
206.287	-11.26
206.505	64.51
206.724	23.55
206.943	-33.79
207.162	13.31
207.381	87.04
207.599	54.27
207.818	-13.31
208.037	7.17
208.255	62.46
208.474	130.05
208.693	97.28
208.911	31.74
209.13	46.08
209.349	91.13
209.567	91.13
209.786	103.42
210.005	11.26
210.223	82.94
210.442	-91.13
210.661	29.7
210.879	93.18
211.098	46.08
211.316	123.9
211.535	177.15
211.753	48.13
211.972	7.17
212.191	23.55
212.409	56.32
212.628	164.86
212.846	46.08
213.065	35.84
213.283	76.8
213.502	48.13
213.72	3.07
213.938	78.85
214.157	13.31
214.375	177.15
214.594	13.31
214.812	56.32
215.031	93.18
215.249	-5.12
215.467	117.76
215.686	-11.26
215.904	11.26
216.122	35.84
216.341	160.77
216.559	130.05
216.778	121.85
216.996	166.91
217.214	5.12
217.432	35.84
217.651	-25.6
217.869	66.56
218.087	21.5
218.306	7.17
218.524	64.51
218.742	15.36
218.96	123.9
219.179	66.56
219.397	29.7
219.615	189.44
219.833	82.94
220.051	23.55
220.27	168.96
220.488	173.05
220.706	84.99
220.924	27.65
221.142	58.37
221.36	76.8
221.578	117.76
221.796	-31.74
222.015	17.41
222.233	97.28
222.451	195.58
222.669	-31.74
222.887	60.42
223.105	54.27
223.323	17.41
223.541	60.42
223.759	35.84
223.977	70.65
224.195	211.96
224.413	66.56
224.631	11.26
224.849	64.51
225.067	220.16
225.285	-64.51
225.503	21.5
225.721	-80.89
225.939	68.61
226.157	39.94
226.375	259.07
226.592	-13.31
226.81	-9.22
227.028	134.14
227.246	91.13
227.464	68.61
227.682	117.76
227.9	95.23
228.117	168.96
228.335	101.37
228.553	31.74
228.771	31.74
228.989	97.28
229.206	121.85
229.424	72.7
229.642	17.41
229.86	3.07
230.077	171.01
230.295	48.13
230.513	89.09
230.731	48.13
230.948	162.81
231.166	150.53
231.384	91.13
231.601	23.55
231.819	166.91
232.037	-1.02
232.254	11.26
232.472	-17.41
232.689	-48.13
232.907	74.75
233.125	9.22
233.342	-9.22
233.56	-27.65
233.777	44.03
233.995	41.98
234.213	93.18
234.43	58.37
234.648	-11.26
234.865	44.03
235.083	68.61
235.3	138.24
235.518	95.23
235.735	148.48
235.953	134.14
236.17	39.94
236.388	54.27
236.605	52.22
236.822	105.47
237.04	132.09
237.257	37.89
237.475	-33.79
237.692	54.27
237.909	160.77
238.127	27.65
238.344	46.08
238.562	119.81
238.779	17.41
238.996	-46.08
239.214	13.31
239.431	62.46
239.648	-1.02
239.865	136.19
240.083	72.7
240.3	29.7
240.517	23.55
240.735	109.57
240.952	195.58
241.169	50.18
241.386	54.27
241.603	54.27
241.821	9.22
242.038	-3.07
242.255	109.57
242.472	1.02
242.689	128
242.907	56.32
243.124	35.84
243.341	101.37
243.558	44.03
243.775	-60.42
243.992	-58.37
244.209	91.13
244.426	144.38
244.643	89.09
244.86	1.02
245.078	187.39
245.295	177.15
245.512	-7.17
245.729	5.12
245.946	168.96
246.163	-17.41
246.38	21.5
246.597	46.08
246.814	17.41
247.031	1.02
247.248	50.18
247.464	128
247.681	66.56
247.898	46.08
248.115	19.46
248.332	25.6
248.549	97.28
248.766	117.76
248.983	99.33
249.2	70.65
249.417	173.05
249.633	-19.46
249.85	125.95
250.067	-9.22
250.284	50.18
250.501	107.52
250.717	-1.02
250.934	7.17
251.151	33.79
251.368	-5.12
251.585	50.18
251.801	-21.5
252.018	1.02
252.235	68.61
252.451	-31.74
252.668	-48.13
252.885	41.98
253.102	35.84
253.318	91.13
253.535	66.56
253.752	33.79
253.968	60.42
254.185	-78.85
254.401	80.89
254.618	3.07
254.835	-27.65
255.051	87.04
255.268	136.19
255.484	58.37
255.701	44.03
255.917	52.22
256.134	-39.94
256.351	25.6
256.567	27.65
256.784	56.32
257	9.22
257.217	115.71
257.433	183.29
257.65	168.96
257.866	146.43
258.082	-60.42
258.299	-23.55
258.515	113.66
258.732	56.32
258.948	-56.32
259.165	62.46
259.381	-68.61
259.597	82.94
259.814	107.52
260.03	1.02
260.246	-3.07
260.463	173.05
260.679	136.19
260.895	25.6
261.112	58.37
261.328	19.46
261.544	64.51
261.761	226.3
261.977	-1.02
262.193	-17.41
262.409	95.23
262.626	58.37
262.842	-58.37
263.058	-11.26
263.274	125.95
263.49	89.09
263.707	82.94
263.923	123.9
264.139	-23.55
264.355	-48.13
264.571	154.62
264.787	130.05
265.004	140.29
265.22	39.94
265.436	-27.65
265.652	-15.36
265.868	31.74
266.084	29.7
266.3	60.42
266.516	-48.13
266.732	35.84
266.948	54.27
267.164	54.27
267.38	179.2
267.596	46.08
267.812	37.89
268.028	7.17
268.244	64.51
268.46	58.37
268.676	-11.26
268.892	25.6
269.108	41.98
269.324	-41.98
269.54	27.65
269.756	148.48
269.972	-7.17
270.188	-9.22
270.403	-11.26
270.619	23.55
270.835	58.37
271.051	82.94
271.267	15.36
271.483	-58.37
271.698	144.38
271.914	84.99
272.13	68.61
272.346	27.65
272.562	52.22
272.777	89.09
272.993	50.18
273.209	80.89
273.425	78.85
273.64	-41.98
273.856	84.99
274.072	19.46
274.287	91.13
274.503	111.61
274.719	48.13
274.934	50.18
275.15	-37.89
275.366	76.8
275.581	-9.22
275.797	35.84
276.012	50.18
276.228	-11.26
276.444	56.32
276.659	70.65
276.875	33.79
277.09	48.13
277.306	29.7
277.521	37.89
277.737	82.94
277.952	105.47
278.168	52.22
278.383	68.61
278.599	11.26
278.814	27.65
279.03	119.81
279.245	168.96
279.461	87.04
279.676	44.03
279.892	-3.07
280.107	-31.74
280.322	35.84
280.538	70.65
280.753	31.74
280.969	29.7
281.184	-17.41
281.399	224.25
281.615	13.31
281.83	99.33
282.045	-5.12
282.26	19.46
282.476	-23.55
282.691	132.09
282.906	31.74
283.122	33.79
283.337	39.94
283.552	50.18
283.767	1.02
283.983	115.71
284.198	115.71
284.413	82.94
284.628	-27.65
284.843	33.79
285.058	91.13
285.274	7.17
285.489	7.17
285.704	82.94
285.919	41.98
286.134	107.52
286.349	78.85
286.564	50.18
286.779	132.09
286.995	-11.26
287.21	-44.03
287.425	60.42
287.64	23.55
287.855	136.19
288.07	-70.65
288.285	138.24
288.5	60.42
288.715	93.18
288.93	27.65
289.145	-1.02
289.36	97.28
289.575	72.7
289.79	113.66
290.004	-48.13
290.219	136.19
290.434	-48.13
290.649	17.41
290.864	11.26
291.079	56.32
291.294	74.75
291.509	33.79
291.724	-41.98
291.938	-9.22
292.153	84.99
292.368	50.18
292.583	97.28
292.798	119.81
293.012	54.27
293.227	64.51
293.442	15.36
293.657	128
293.871	93.18
294.086	68.61
294.301	121.85
294.516	144.38
294.73	70.65
294.945	-21.5
295.16	-1.02
295.374	150.53
295.589	181.25
295.804	-11.26
296.018	66.56
296.233	115.71
296.447	130.05
296.662	99.33
296.877	128
297.091	48.13
297.306	25.6
297.52	35.84
297.735	148.48
297.949	15.36
298.164	31.74
298.378	-37.89
298.593	-115.71
298.807	-66.56
299.022	27.65
299.236	148.48
299.451	60.42
299.665	-1.02
299.88	-5.12
300.094	111.61
300.309	25.6
300.523	-29.7
300.737	58.37
300.952	125.95
301.166	13.31
301.381	97.28
301.595	-31.74
301.809	78.85
302.024	-25.6
302.238	-58.37
302.452	111.61
302.667	140.29
302.881	177.15
303.095	58.37
303.309	87.04
303.524	82.94
303.738	-25.6
303.952	-11.26
304.166	91.13
304.381	-95.23
304.595	197.63
304.809	-74.75
305.023	82.94
305.237	23.55
305.452	-70.65
305.666	50.18
305.88	160.77
306.094	82.94
306.308	44.03
306.522	93.18
306.736	48.13
306.95	119.81
307.164	52.22
307.379	11.26
307.593	166.91
307.807	160.77
308.021	115.71
308.235	138.24
308.449	-136.19
308.663	76.8
308.877	193.53
309.091	76.8
309.305	5.12
309.519	15.36
309.733	132.09
309.947	-62.46
310.161	52.22
310.374	146.43
310.588	125.95
310.802	48.13
311.016	29.7
311.23	29.7
311.444	19.46
311.658	-7.17
311.872	189.44
312.085	171.01
312.299	168.96
312.513	121.85
312.727	60.42
312.941	-25.6
313.154	44.03
313.368	58.37
313.582	41.98
313.796	132.09
314.009	46.08
314.223	93.18
314.437	50.18
314.651	66.56
314.864	-3.07
315.078	27.65
315.292	-52.22
315.505	44.03
315.719	52.22
315.933	72.7
316.146	5.12
316.36	-23.55
316.573	119.81
316.787	89.09
317.001	82.94
317.214	-74.75
317.428	152.57
317.641	-97.28
317.855	48.13
318.068	117.76
318.282	64.51
318.495	236.54
318.709	175.1
318.922	25.6
319.136	109.57
319.349	119.81
319.563	21.5
319.776	134.14
319.99	-50.18
320.203	93.18
320.417	48.13
320.63	25.6
320.843	150.53
321.057	91.13
321.27	-5.12
321.483	121.85
321.697	168.96
321.91	87.04
322.124	103.42
322.337	66.56
322.55	-56.32
322.763	37.89
322.977	41.98
323.19	74.75
323.403	33.79
323.617	125.95
323.83	89.09
324.043	17.41
324.256	140.29
324.469	-17.41
324.683	162.81
324.896	109.57
325.109	101.37
325.322	-64.51
325.535	82.94
325.748	31.74
325.962	60.42
326.175	70.65
326.388	99.33
326.601	171.01
326.814	1.02
327.027	78.85
327.24	168.96
327.453	-136.19
327.666	87.04
327.879	109.57
328.092	41.98
328.305	123.9
328.518	21.5
328.731	74.75
328.944	-21.5
329.157	171.01
329.37	-76.8
329.583	162.81
329.796	128
330.009	-52.22
330.222	70.65
330.435	89.09
330.648	70.65
330.861	52.22
331.073	46.08
331.286	115.71
331.499	78.85
331.712	1.02
331.925	72.7
332.138	37.89
332.35	185.34
332.563	37.89
332.776	181.25
332.989	-46.08
333.202	-13.31
333.414	105.47
333.627	84.99
333.84	-9.22
334.053	74.75
334.265	5.12
334.478	82.94
334.691	95.23
334.903	95.23
335.116	64.51
335.329	7.17
335.541	109.57
335.754	193.53
335.966	44.03
336.179	50.18
336.392	56.32
336.604	33.79
336.817	76.8
337.029	37.89
337.242	64.51
337.454	113.66
337.667	60.42
337.88	154.62
338.092	109.57
338.305	33.79
338.517	27.65
338.729	113.66
338.942	250.88
339.154	1.02
339.367	-19.46
339.579	93.18
339.792	41.98
340.004	52.22
340.217	93.18
340.429	97.28
340.641	3.07
340.854	3.07
341.066	64.51
341.278	125.95
341.491	130.05
341.703	84.99
341.915	-17.41
342.128	1.02
342.34	48.13
342.552	-1.02
342.764	3.07
342.977	-1.02
343.189	33.79
343.401	48.13
343.613	-58.37
343.826	89.09
344.038	-31.74
344.25	99.33
344.462	37.89
344.674	66.56
344.886	-1.02
345.099	41.98
345.311	150.53
345.523	5.12
345.735	-27.65
345.947	31.74
346.159	95.23
346.371	72.7
346.583	27.65
346.795	197.63
347.007	-1.02
347.219	56.32
347.431	29.7
347.643	119.81
347.855	50.18
348.067	166.91
348.279	-13.31
348.491	80.89
348.703	76.8
348.915	101.37
349.127	-58.37
349.339	58.37
349.551	78.85
349.763	60.42
349.975	74.75
350.187	123.9
350.399	218.11
350.61	84.99
350.822	44.03
351.034	54.27
351.246	3.07
351.458	84.99
351.669	115.71
351.881	99.33
352.093	134.14
352.305	115.71
352.517	37.89
352.728	187.39
352.94	50.18
353.152	132.09
353.363	23.55
353.575	37.89
353.787	228.35
353.999	44.03
354.21	164.86
354.422	76.8
354.633	-11.26
354.845	-9.22
355.057	27.65
355.268	13.31
355.48	107.52
355.692	-7.17
355.903	44.03
356.115	-44.03
356.326	-39.94
356.538	144.38
356.749	132.09
356.961	97.28
357.172	128
357.384	33.79
357.595	134.14
357.807	56.32
358.018	9.22
358.23	46.08
358.441	162.81
358.653	113.66
358.864	37.89
359.075	54.27
359.287	62.46
359.498	154.62
359.709	111.61
359.921	105.47
360.132	78.85
360.344	54.27
360.555	39.94
360.766	15.36
360.977	-3.07
361.189	166.91
361.4	11.26
361.611	119.81
361.823	168.96
362.034	130.05
362.245	-23.55
362.456	62.46
362.667	31.74
362.879	13.31
363.09	21.5
363.301	103.42
363.512	60.42
363.723	3.07
363.935	46.08
364.146	-3.07
364.357	15.36
364.568	152.57
364.779	-50.18
364.99	216.06
365.201	13.31
365.412	158.72
365.623	-97.28
365.834	132.09
366.045	44.03
366.256	64.51
366.467	117.76
366.678	-27.65
366.889	-9.22
367.1	-35.84
367.311	136.19
367.522	35.84
367.733	156.67
367.944	103.42
368.155	33.79
368.366	162.81
368.577	117.76
368.788	138.24
368.999	97.28
369.209	-9.22
369.42	203.77
369.631	281.6
369.842	99.33
370.053	121.85
370.264	136.19
370.474	-29.7
370.685	13.31
370.896	25.6
371.107	93.18
371.317	76.8
371.528	115.71
371.739	70.65
371.95	152.57
372.16	41.98
372.371	-3.07
372.582	-21.5
372.792	50.18
373.003	119.81
373.214	97.28
373.424	154.62
373.635	-1.02
373.846	70.65
374.056	70.65
374.267	97.28
374.477	78.85
374.688	-15.36
374.898	78.85
375.109	70.65
375.319	-31.74
375.53	68.61
375.74	132.09
375.951	-9.22
376.161	76.8
376.372	119.81
376.582	37.89
376.793	39.94
377.003	27.65
377.214	31.74
377.424	58.37
377.635	48.13
377.845	-5.12
378.055	58.37
378.266	-62.46
378.476	64.51
378.686	91.13
378.897	76.8
379.107	119.81
379.317	158.72
379.528	35.84
379.738	101.37
379.948	72.7
380.158	66.56
380.369	89.09
380.579	113.66
380.789	33.79
380.999	62.46
381.21	82.94
381.42	183.29
381.63	62.46
381.84	130.05
382.05	70.65
382.261	130.05
382.471	156.67
382.681	25.6
382.891	166.91
383.101	87.04
383.311	39.94
383.521	-46.08
383.731	74.75
383.941	74.75
384.151	27.65
384.361	56.32
384.571	93.18
384.781	99.33
384.991	173.05
385.201	214.01
385.411	117.76
385.621	175.1
385.831	119.81
386.041	39.94
386.251	23.55
386.461	181.25
386.671	21.5
386.881	97.28
387.091	58.37
387.301	84.99
387.511	-7.17
387.72	136.19
387.93	111.61
388.14	-56.32
388.35	115.71
388.56	107.52
388.769	138.24
388.979	140.29
389.189	-23.55
389.399	46.08
389.609	119.81
389.818	70.65
390.028	35.84
390.238	76.8
390.447	3.07
390.657	60.42
390.867	44.03
391.076	-19.46
391.286	107.52
391.496	19.46
391.705	91.13
391.915	105.47
392.125	91.13
392.334	29.7
392.544	148.48
392.753	68.61
392.963	-23.55
393.172	54.27
393.382	87.04
393.591	199.68
393.801	-3.07
394.01	181.25
394.22	125.95
394.429	52.22
394.639	-76.8
394.848	5.12
395.058	72.7
395.267	3.07
395.477	72.7
395.686	91.13
395.895	238.59
396.105	191.49
396.314	60.42
396.524	74.75
396.733	48.13
396.942	128
397.152	54.27
397.361	132.09
397.57	111.61
397.78	9.22
397.989	130.05
398.198	267.26
398.407	87.04
398.617	-13.31
398.826	93.18
399.035	44.03
399.244	132.09
399.453	78.85
399.663	39.94
399.872	93.18
400.081	33.79
400.29	158.72
400.499	23.55
400.708	119.81
400.917	41.98
401.127	-11.26
401.336	11.26
401.545	175.1
401.754	119.81
401.963	123.9
402.172	23.55
402.381	-13.31
402.59	95.23
402.799	-33.79
403.008	128
403.217	115.71
403.426	62.46
403.635	-23.55
403.844	97.28
404.053	23.55
404.262	80.89
404.471	185.34
404.68	56.32
404.888	46.08
405.097	31.74
405.306	21.5
405.515	82.94
405.724	107.52
405.933	82.94
406.142	156.67
406.35	103.42
406.559	128
406.768	41.98
406.977	91.13
407.185	74.75
407.394	15.36
407.603	3.07
407.812	31.74
408.02	99.33
408.229	62.46
408.438	117.76
408.646	21.5
408.855	72.7
409.064	111.61
409.272	82.94
409.481	109.57
409.69	-11.26
409.898	54.27
410.107	1.02
410.315	111.61
410.524	15.36
410.733	50.18
410.941	89.09
411.15	109.57
411.358	173.05
411.567	175.1
411.775	19.46
411.984	-3.07
412.192	164.86
412.401	-27.65
412.609	123.9
412.818	158.72
413.026	154.62
413.234	66.56
413.443	117.76
413.651	-72.7
413.86	136.19
414.068	179.2
414.276	205.82
414.485	-13.31
414.693	119.81
414.901	232.44
415.11	33.79
415.318	44.03
415.526	70.65
415.734	123.9
415.943	95.23
416.151	150.53
416.359	48.13
416.567	27.65
416.776	46.08
416.984	152.57
417.192	211.96
417.4	115.71
417.608	58.37
417.817	13.31
418.025	115.71
418.233	214.01
418.441	-68.61
418.649	60.42
418.857	23.55
419.065	128
419.273	41.98
419.481	31.74
419.689	11.26
419.897	60.42
420.105	-56.32
420.313	99.33
420.521	236.54
420.729	64.51
420.937	31.74
421.145	-39.94
421.353	154.62
421.561	199.68
421.769	115.71
421.977	50.18
422.185	128
422.393	111.61
422.601	121.85
422.809	70.65
423.017	25.6
423.224	66.56
423.432	84.99
423.64	64.51
423.848	138.24
424.056	48.13
424.263	146.43
424.471	99.33
424.679	183.29
424.887	-48.13
425.094	115.71
425.302	87.04
425.51	78.85
425.718	171.01
425.925	56.32
426.133	37.89
426.341	246.78
426.548	115.71
426.756	58.37
426.964	130.05
427.171	5.12
427.379	136.19
427.586	70.65
427.794	91.13
428.001	136.19
428.209	138.24
428.417	142.33
428.624	132.09
428.832	111.61
429.039	74.75
429.247	152.57
429.454	144.38
429.662	224.25
429.869	226.3
430.076	183.29
430.284	171.01
430.491	214.01
430.699	261.12
430.906	205.82
431.114	80.89
431.321	185.34
431.528	105.47
431.736	107.52
431.943	132.09
432.15	117.76
432.358	183.29
432.565	222.2
432.772	66.56
432.979	261.12
433.187	148.48
433.394	185.34
433.601	187.39
433.808	285.69
434.016	197.63
434.223	275.45
434.43	220.16
434.637	254.97
434.844	347.13
435.052	263.16
435.259	252.92
435.466	377.85
435.673	340.99
435.88	338.94
436.087	302.08
436.294	351.23
436.501	478.2
436.708	314.36
436.915	365.56
437.122	369.66
437.329	304.12
437.537	406.52
437.743	322.56
437.95	463.86
438.157	513.02
438.364	515.06
438.571	486.39
438.778	510.97
438.985	521.21
439.192	584.7
439.399	607.22
439.606	502.78
439.813	594.93
440.02	748.53
440.227	754.68
440.433	623.61
440.64	562.17
440.847	513.02
441.054	635.89
441.261	814.07
441.467	750.58
441.674	699.38
441.881	769.01
442.088	664.57
442.294	846.84
442.501	887.79
442.708	1061.87
442.914	791.54
443.121	1029.1
443.328	934.9
443.534	1125.36
443.741	967.67
443.948	996.34
444.154	1133.55
444.361	1313.77
444.568	1221.61
444.774	1227.76
444.981	1164.27
445.187	1440.75
445.394	1432.55
445.6	1352.68
445.807	1522.66
446.013	1547.24
446.22	1444.84
446.426	1704.93
446.633	1727.46
446.839	1883.11
447.046	1631.21
447.252	1928.16
447.459	1870.82
447.665	1793
447.871	2085.86
448.078	2159.58
448.284	2268.13
448.491	2272.22
448.697	2444.25
448.903	2558.94
449.11	2698.2
449.316	2491.35
449.522	2704.34
449.728	2853.84
449.935	2894.8
450.141	2960.34
450.347	3161.04
450.553	3091.41
450.76	3277.77
450.966	3357.64
451.172	3427.28
451.378	3679.18
451.584	3724.23
451.791	4004.8
451.997	4010.95
452.203	4113.35
452.409	4240.32
452.615	4524.99
452.821	4373.44
453.027	4473.79
453.233	5088.18
453.44	4760.5
453.646	5127.09
453.852	5430.19
454.058	5553.07
454.264	5669.8
454.47	5987.24
454.676	6157.22
454.882	6785.94
455.088	6388.64
455.294	6669.21
455.5	7195.54
455.705	7664.52
455.911	7644.04
456.117	7906.18
456.323	8006.53
456.529	7947.14
456.735	8874.87
456.941	9175.92
457.147	9323.38
457.352	9653.1
457.558	9800.55
457.764	10804.06
457.97	10658.65
458.176	11174.74
458.381	11803.47
458.587	11858.76
458.793	12581.7
458.999	12573.5
459.204	14023.47
459.41	14424.87
459.616	14314.28
459.821	15174.42
460.027	15993.61
460.233	16438.02
460.438	16694.02
460.644	17560.31
460.85	17957.61
461.055	18617.06
461.261	19671.76
461.466	18893.54
461.672	19456.73
461.878	21766.84
462.083	21430.97
462.289	21789.36
462.494	22721.19
462.7	22917.79
462.905	23257.76
463.111	25170.56
463.316	26286.7
463.522	26759.78
463.727	27726.42
463.932	28588.62
464.138	29962.81
464.343	30911.02
464.549	30921.26
464.754	33057.29
464.959	34013.69
465.165	34417.14
465.37	33966.59
465.575	34175.48
465.781	36710.86
465.986	37726.66
466.191	37081.55
466.397	37525.96
466.602	36987.34
466.807	38764.98
467.012	39098.8
467.218	39840.16
467.423	40161.69
467.628	41245.07
467.833	42973.55
468.038	42533.24
468.244	41410.95
468.449	43874.66
