Data from USB4F104151__260__11-20-22-834.txt Node

Date: Wed Feb 26 11:20:22 EST 2025
User: louis
Spectrometer: USB4F10415
Trigger mode: 4
Integration Time (sec): 1.000000E-1
Scans to average: 1
Electric dark correction enabled: true
Nonlinearity correction enabled: false
Boxcar width: 0
XAxis mode: Wavelengths
Number of Pixels in Spectrum: 3648
>>>>>Begin Spectral Data<<<<<
178.204	-410.45
178.424	-410.45
178.644	-410.45
178.864	-424.78
179.084	-373.58
179.304	-131.92
179.524	-56.15
179.744	-9.05
179.964	105.64
180.184	42.15
180.404	115.88
180.624	-15.19
180.844	-41.81
181.064	-29.52
181.283	87.21
181.503	-84.82
181.723	17.58
181.943	-72.53
182.163	70.83
182.383	7.34
182.602	60.59
182.822	158.89
183.042	3.24
183.262	-37.72
183.482	54.44
183.701	130.22
183.921	142.5
184.141	-78.68
184.361	113.83
184.58	97.45
184.8	42.15
185.02	-43.86
185.239	126.12
185.459	134.31
185.679	109.74
185.898	-103.25
186.118	95.4
186.338	48.3
186.557	128.17
186.777	-101.2
186.997	13.48
187.216	27.82
187.436	185.51
187.655	76.97
187.875	122.02
188.095	50.35
188.314	76.97
188.534	119.98
188.753	27.82
188.973	193.7
189.192	179.37
189.412	-0.85
189.631	23.72
189.851	23.72
190.07	150.7
190.29	48.3
190.509	-27.48
190.729	105.64
190.948	109.74
191.168	228.52
191.387	115.88
191.607	-15.19
191.826	109.74
192.045	-31.57
192.265	-62.29
192.484	-11.09
192.704	-11.09
192.923	-29.52
193.142	208.04
193.362	138.41
193.581	150.7
193.8	154.79
194.02	124.07
194.239	85.16
194.458	25.77
194.678	-0.85
194.897	52.39
195.116	81.07
195.335	7.34
195.555	31.91
195.774	-2.9
195.993	111.78
196.212	21.67
196.432	15.53
196.651	21.67
196.87	81.07
197.089	199.85
197.308	66.73
197.528	54.44
197.747	-58.2
197.966	58.54
198.185	154.79
198.404	-88.92
198.623	81.07
198.842	79.02
199.062	212.14
199.281	107.69
199.5	72.87
199.719	119.98
199.938	72.87
200.157	111.78
200.376	138.41
200.595	148.65
200.814	109.74
201.033	54.44
201.252	208.04
201.471	111.78
201.69	146.6
201.909	62.63
202.128	40.11
202.347	101.55
202.566	-29.52
202.785	5.29
203.004	27.82
203.223	230.57
203.442	93.35
203.661	-70.48
203.879	122.02
204.098	193.7
204.317	15.53
204.536	72.87
204.755	99.5
204.974	46.25
205.193	3.24
205.411	210.09
205.63	142.5
205.849	93.35
206.068	31.91
206.287	-60.24
206.505	148.65
206.724	72.87
206.943	46.25
207.162	-0.85
207.381	87.21
207.599	99.5
207.818	126.12
208.037	-25.43
208.255	179.37
208.474	54.44
208.693	76.97
208.911	-19.29
209.13	154.79
209.349	130.22
209.567	87.21
209.786	113.83
210.005	232.62
210.223	23.72
210.442	-107.35
210.661	62.63
210.879	83.11
211.098	76.97
211.316	58.54
211.535	115.88
211.753	40.11
211.972	89.26
212.191	-15.19
212.409	17.58
212.628	42.15
212.846	21.67
213.065	70.83
213.283	111.78
213.502	42.15
213.72	23.72
213.938	23.72
214.157	5.29
214.375	185.51
214.594	46.25
214.812	89.26
215.031	-23.38
215.249	1.19
215.467	70.83
215.686	64.68
215.904	64.68
216.122	58.54
216.341	95.4
216.559	122.02
216.778	150.7
216.996	210.09
217.214	29.87
217.432	62.63
217.651	-29.52
217.869	87.21
218.087	21.67
218.306	42.15
218.524	38.06
218.742	3.24
218.96	136.36
219.179	31.91
219.397	38.06
219.615	277.67
219.833	5.29
220.051	-64.34
220.27	111.78
220.488	154.79
220.706	140.46
220.924	7.34
221.142	33.96
221.36	54.44
221.578	38.06
221.796	21.67
222.015	48.3
222.233	17.58
222.451	171.18
222.669	-31.57
222.887	79.02
223.105	74.92
223.323	60.59
223.541	-33.62
223.759	29.87
223.977	27.82
224.195	140.46
224.413	68.78
224.631	66.73
224.849	97.45
225.067	203.94
225.285	42.15
225.503	64.68
225.721	-146.26
225.939	48.3
226.157	-4.95
226.375	173.22
226.592	60.59
226.81	25.77
227.028	105.64
227.246	197.8
227.464	62.63
227.682	158.89
227.9	44.2
228.117	87.21
228.335	95.4
228.553	36.01
228.771	36.01
228.989	11.43
229.206	158.89
229.424	5.29
229.642	-33.62
229.86	-2.9
230.077	236.71
230.295	-2.9
230.513	156.84
230.731	66.73
230.948	230.57
231.166	138.41
231.384	150.7
231.601	-11.09
231.819	267.43
232.037	50.35
232.254	5.29
232.472	85.16
232.689	-37.72
232.907	212.14
233.125	1.19
233.342	7.34
233.56	-23.38
233.777	-9.05
233.995	50.35
234.213	130.22
234.43	117.93
234.648	13.48
234.865	31.91
235.083	38.06
235.3	52.39
235.518	152.74
235.735	201.9
235.953	111.78
236.17	13.48
236.388	11.43
236.605	87.21
236.822	56.49
237.04	142.5
237.257	68.78
237.475	15.53
237.692	76.97
237.909	70.83
238.127	15.53
238.344	134.31
238.562	29.87
238.779	46.25
238.996	23.72
239.214	46.25
239.431	89.26
239.648	58.54
239.865	-27.48
240.083	68.78
240.3	13.48
240.517	3.24
240.735	72.87
240.952	134.31
241.169	13.48
241.386	148.65
241.603	5.29
241.821	-47.96
242.038	23.72
242.255	189.61
242.472	21.67
242.689	122.02
242.907	99.5
243.124	93.35
243.341	-4.95
243.558	-7
243.775	-13.14
243.992	-35.67
244.209	72.87
244.426	179.37
244.643	105.64
244.86	-56.15
245.078	105.64
245.295	66.73
245.512	27.82
245.729	33.96
245.946	87.21
246.163	62.63
246.38	36.01
246.597	76.97
246.814	23.72
247.031	42.15
247.248	29.87
247.464	132.26
247.681	-11.09
247.898	101.55
248.115	99.5
248.332	15.53
248.549	138.41
248.766	193.7
248.983	140.46
249.2	81.07
249.417	171.18
249.633	62.63
249.85	58.54
250.067	-29.52
250.284	40.11
250.501	107.69
250.717	48.3
250.934	-39.76
251.151	17.58
251.368	17.58
251.585	83.11
251.801	83.11
252.018	-113.49
252.235	193.7
252.451	-119.64
252.668	-23.38
252.885	117.93
253.102	21.67
253.318	7.34
253.535	95.4
253.752	25.77
253.968	3.24
254.185	-19.29
254.401	58.54
254.618	185.51
254.835	68.78
255.051	52.39
255.268	113.83
255.484	64.68
255.701	52.39
255.917	128.17
256.134	-21.33
256.351	126.12
256.567	-43.86
256.784	87.21
257	-9.05
257.217	169.13
257.433	148.65
257.65	52.39
257.866	132.26
258.082	-33.62
258.299	33.96
258.515	58.54
258.732	25.77
258.948	17.58
259.165	25.77
259.381	-21.33
259.597	91.31
259.814	111.78
260.03	1.19
260.246	74.92
260.463	144.55
260.679	113.83
260.895	97.45
261.112	62.63
261.328	85.16
261.544	19.63
261.761	205.99
261.977	68.78
262.193	13.48
262.409	140.46
262.626	62.63
262.842	140.46
263.058	-54.1
263.274	128.17
263.49	97.45
263.707	99.5
263.923	128.17
264.139	-17.24
264.355	52.39
264.571	140.46
264.787	27.82
265.004	91.31
265.22	44.2
265.436	-2.9
265.652	46.25
265.868	130.22
266.084	-13.14
266.3	-41.81
266.516	-50
266.732	46.25
266.948	7.34
267.164	1.19
267.38	99.5
267.596	19.63
267.812	132.26
268.028	11.43
268.244	27.82
268.46	95.4
268.676	15.53
268.892	42.15
269.108	-41.81
269.324	-64.34
269.54	-103.25
269.756	95.4
269.972	-111.44
270.188	21.67
270.403	-80.72
270.619	23.72
270.835	132.26
271.051	56.49
271.267	48.3
271.483	48.3
271.698	109.74
271.914	76.97
272.13	-0.85
272.346	-19.29
272.562	48.3
272.777	97.45
272.993	-19.29
273.209	33.96
273.425	117.93
273.64	-15.19
273.856	62.63
274.072	-4.95
274.287	60.59
274.503	38.06
274.719	81.07
274.934	95.4
275.15	7.34
275.366	89.26
275.581	-13.14
275.797	11.43
276.012	60.59
276.228	23.72
276.444	5.29
276.659	146.6
276.875	83.11
277.09	-25.43
277.306	11.43
277.521	138.41
277.737	23.72
277.952	60.59
278.168	50.35
278.383	-13.14
278.599	46.25
278.814	89.26
279.03	109.74
279.245	89.26
279.461	113.83
279.676	87.21
279.892	19.63
280.107	36.01
280.322	-4.95
280.538	64.68
280.753	-50
280.969	31.91
281.184	-25.43
281.399	126.12
281.615	48.3
281.83	70.83
282.045	-86.87
282.26	38.06
282.476	38.06
282.691	95.4
282.906	50.35
283.122	56.49
283.337	11.43
283.552	62.63
283.767	-7
283.983	105.64
284.198	79.02
284.413	95.4
284.628	-31.57
284.843	58.54
285.058	150.7
285.274	38.06
285.489	-4.95
285.704	97.45
285.919	-64.34
286.134	124.07
286.349	36.01
286.564	56.49
286.779	154.79
286.995	72.87
287.21	-45.91
287.425	122.02
287.64	-15.19
287.855	107.69
288.07	-103.25
288.285	68.78
288.5	175.27
288.715	3.24
288.93	42.15
289.145	31.91
289.36	97.45
289.575	-17.24
289.79	146.6
290.004	36.01
290.219	144.55
290.434	-62.29
290.649	25.77
290.864	68.78
291.079	-35.67
291.294	138.41
291.509	109.74
291.724	38.06
291.938	-0.85
292.153	64.68
292.368	-4.95
292.583	42.15
292.798	-15.19
293.012	42.15
293.227	48.3
293.442	44.2
293.657	81.07
293.871	134.31
294.086	126.12
294.301	187.56
294.516	115.88
294.73	21.67
294.945	-25.43
295.16	3.24
295.374	87.21
295.589	152.74
295.804	52.39
296.018	76.97
296.233	105.64
296.447	68.78
296.662	-64.34
296.877	130.22
297.091	113.83
297.306	46.25
297.52	11.43
297.735	169.13
297.949	60.59
298.164	60.59
298.378	40.11
298.593	40.11
298.807	-43.86
299.022	42.15
299.236	130.22
299.451	29.87
299.665	11.43
299.88	38.06
300.094	27.82
300.309	-13.14
300.523	74.92
300.737	-13.14
300.952	1.19
301.166	64.68
301.381	50.35
301.595	46.25
301.809	62.63
302.024	5.29
302.238	-84.82
302.452	191.66
302.667	36.01
302.881	119.98
303.095	119.98
303.309	134.31
303.524	9.39
303.738	7.34
303.952	-29.52
304.166	101.55
304.381	-60.24
304.595	165.03
304.809	122.02
305.023	-4.95
305.237	-11.09
305.452	-0.85
305.666	154.79
305.88	109.74
306.094	140.46
306.308	7.34
306.522	38.06
306.736	56.49
306.95	91.31
307.164	101.55
307.379	21.67
307.593	152.74
307.807	181.42
308.021	117.93
308.235	33.96
308.449	-86.87
308.663	97.45
308.877	271.53
309.091	74.92
309.305	50.35
309.519	-52.05
309.733	50.35
309.947	-60.24
310.161	13.48
310.374	126.12
310.588	191.66
310.802	15.53
311.016	64.68
311.23	36.01
311.444	-25.43
311.658	3.24
311.872	228.52
312.085	113.83
312.299	122.02
312.513	138.41
312.727	21.67
312.941	-7
313.154	60.59
313.368	50.35
313.582	89.26
313.796	64.68
314.009	74.92
314.223	156.84
314.437	95.4
314.651	134.31
314.864	-9.05
315.078	50.35
315.292	-84.82
315.505	17.58
315.719	68.78
315.933	70.83
316.146	74.92
316.36	-52.05
316.573	122.02
316.787	109.74
317.001	70.83
317.214	-4.95
317.428	93.35
317.641	-2.9
317.855	15.53
318.068	128.17
318.282	52.39
318.495	197.8
318.709	64.68
318.922	93.35
319.136	101.55
319.349	105.64
319.563	-4.95
319.776	109.74
319.99	-47.96
320.203	87.21
320.417	-2.9
320.63	134.31
320.843	119.98
321.057	111.78
321.27	58.54
321.483	97.45
321.697	99.5
321.91	95.4
322.124	81.07
322.337	89.26
322.55	7.34
322.763	93.35
322.977	101.55
323.19	40.11
323.403	15.53
323.617	62.63
323.83	169.13
324.043	3.24
324.256	70.83
324.469	9.39
324.683	171.18
324.896	52.39
325.109	9.39
325.322	-97.11
325.535	130.22
325.748	99.5
325.962	128.17
326.175	42.15
326.388	66.73
326.601	109.74
326.814	15.53
327.027	-0.85
327.24	191.66
327.453	-31.57
327.666	119.98
327.879	109.74
328.092	-2.9
328.305	85.16
328.518	31.91
328.731	-25.43
328.944	15.53
329.157	93.35
329.37	3.24
329.583	132.26
329.796	105.64
330.009	11.43
330.222	60.59
330.435	101.55
330.648	87.21
330.861	3.24
331.073	58.54
331.286	132.26
331.499	15.53
331.712	5.29
331.925	19.63
332.138	46.25
332.35	105.64
332.563	-27.48
332.776	119.98
332.989	-50
333.202	33.96
333.414	38.06
333.627	27.82
333.84	-66.39
334.053	52.39
334.265	1.19
334.478	15.53
334.691	40.11
334.903	95.4
335.116	1.19
335.329	27.82
335.541	119.98
335.754	79.02
335.966	3.24
336.179	85.16
336.392	36.01
336.604	-47.96
336.817	148.65
337.029	29.87
337.242	42.15
337.454	119.98
337.667	62.63
337.88	132.26
338.092	89.26
338.305	109.74
338.517	25.77
338.729	62.63
338.942	128.17
339.154	-0.85
339.367	-0.85
339.579	122.02
339.792	-64.34
340.004	130.22
340.217	-21.33
340.429	-11.09
340.641	-21.33
340.854	-4.95
341.066	9.39
341.278	154.79
341.491	165.03
341.703	-43.86
341.915	-2.9
342.128	113.83
342.34	132.26
342.552	-15.19
342.764	-21.33
342.977	52.39
343.189	31.91
343.401	15.53
343.613	-72.53
343.826	56.49
344.038	36.01
344.25	91.31
344.462	83.11
344.674	44.2
344.886	85.16
345.099	93.35
345.311	81.07
345.523	-27.48
345.735	-43.86
345.947	83.11
346.159	29.87
346.371	19.63
346.583	64.68
346.795	183.46
347.007	66.73
347.219	117.93
347.431	95.4
347.643	156.84
347.855	42.15
348.067	160.94
348.279	27.82
348.491	99.5
348.703	89.26
348.915	11.43
349.127	23.72
349.339	-23.38
349.551	7.34
349.763	162.98
349.975	-4.95
350.187	122.02
350.399	152.74
350.61	99.5
350.822	52.39
351.034	79.02
351.246	50.35
351.458	105.64
351.669	126.12
351.881	74.92
352.093	117.93
352.305	113.83
352.517	68.78
352.728	66.73
352.94	44.2
353.152	105.64
353.363	-45.91
353.575	29.87
353.787	165.03
353.999	60.59
354.21	126.12
354.422	15.53
354.633	72.87
354.845	-4.95
355.057	165.03
355.268	33.96
355.48	101.55
355.692	23.72
355.903	50.35
356.115	-52.05
356.326	-78.68
356.538	111.78
356.749	113.83
356.961	169.13
357.172	50.35
357.384	-11.09
357.595	203.94
357.807	-33.62
358.018	-35.67
358.23	1.19
358.441	201.9
358.653	72.87
358.864	23.72
359.075	-15.19
359.287	109.74
359.498	101.55
359.709	85.16
359.921	95.4
360.132	-0.85
360.344	-17.24
360.555	-41.81
360.766	66.73
360.977	-21.33
361.189	95.4
361.4	31.91
361.611	122.02
361.823	181.42
362.034	103.59
362.245	13.48
362.456	-17.24
362.667	93.35
362.879	-72.53
363.09	101.55
363.301	40.11
363.512	52.39
363.723	40.11
363.935	-39.76
364.146	111.78
364.357	64.68
364.568	48.3
364.779	-115.54
364.99	101.55
365.201	13.48
365.412	87.21
365.623	-45.91
365.834	58.54
366.045	33.96
366.256	50.35
366.467	105.64
366.678	152.74
366.889	87.21
367.1	-31.57
367.311	81.07
367.522	-9.05
367.733	165.03
367.944	119.98
368.155	15.53
368.366	85.16
368.577	171.18
368.788	132.26
368.999	-43.86
369.209	74.92
369.42	261.29
369.631	181.42
369.842	83.11
370.053	95.4
370.264	85.16
370.474	-37.72
370.685	117.93
370.896	101.55
371.107	148.65
371.317	158.89
371.528	31.91
371.739	142.5
371.95	162.98
372.16	154.79
372.371	-2.9
372.582	15.53
372.792	79.02
373.003	107.69
373.214	19.63
373.424	95.4
373.635	5.29
373.846	167.08
374.056	83.11
374.267	79.02
374.477	66.73
374.688	50.35
374.898	56.49
375.109	21.67
375.319	11.43
375.53	109.74
375.74	72.87
375.951	60.59
376.161	101.55
376.372	97.45
376.582	-27.48
376.793	76.97
377.003	27.82
377.214	48.3
377.424	46.25
377.635	115.88
377.845	-0.85
378.055	144.55
378.266	-27.48
378.476	31.91
378.686	56.49
378.897	126.12
379.107	113.83
379.317	95.4
379.528	11.43
379.738	87.21
379.948	19.63
380.158	107.69
380.369	15.53
380.579	-2.9
380.789	56.49
380.999	46.25
381.21	122.02
381.42	150.7
381.63	60.59
381.84	175.27
382.05	72.87
382.261	140.46
382.471	171.18
382.681	15.53
382.891	152.74
383.101	72.87
383.311	13.48
383.521	87.21
383.731	42.15
383.941	56.49
384.151	83.11
384.361	70.83
384.571	44.2
384.781	54.44
384.991	187.56
385.201	179.37
385.411	70.83
385.621	56.49
385.831	89.26
386.041	152.74
386.251	62.63
386.461	138.41
386.671	1.19
386.881	19.63
387.091	7.34
387.301	138.41
387.511	19.63
387.72	52.39
387.93	40.11
388.14	-25.43
388.35	19.63
388.56	152.74
388.769	89.26
388.979	60.59
389.189	-31.57
389.399	23.72
389.609	132.26
389.818	146.6
390.028	1.19
390.238	81.07
390.447	83.11
390.657	109.74
390.867	31.91
391.076	-13.14
391.286	60.59
391.496	54.44
391.705	1.19
391.915	205.99
392.125	89.26
392.334	136.36
392.544	132.26
392.753	122.02
392.963	-39.76
393.172	54.44
393.382	1.19
393.591	150.7
393.801	95.4
394.01	203.94
394.22	97.45
394.429	142.5
394.639	134.31
394.848	101.55
395.058	48.3
395.267	68.78
395.477	136.36
395.686	38.06
395.895	201.9
396.105	203.94
396.314	136.36
396.524	23.72
396.733	29.87
396.942	48.3
397.152	124.07
397.361	152.74
397.57	27.82
397.78	-19.29
397.989	126.12
398.198	165.03
398.407	42.15
398.617	31.91
398.826	76.97
399.035	1.19
399.244	101.55
399.453	33.96
399.663	44.2
399.872	113.83
400.081	3.24
400.29	134.31
400.499	-47.96
400.708	105.64
400.917	11.43
401.127	68.78
401.336	-19.29
401.545	179.37
401.754	105.64
401.963	105.64
402.172	36.01
402.381	54.44
402.59	46.25
402.799	87.21
403.008	64.68
403.217	109.74
403.426	97.45
403.635	-45.91
403.844	62.63
404.053	70.83
404.262	40.11
404.471	150.7
404.68	52.39
404.888	46.25
405.097	-31.57
405.306	89.26
405.515	111.78
405.724	21.67
405.933	109.74
406.142	117.93
406.35	150.7
406.559	31.91
406.768	72.87
406.977	162.98
407.185	97.45
407.394	126.12
407.603	17.58
407.812	46.25
408.02	142.5
408.229	9.39
408.438	109.74
408.646	-25.43
408.855	15.53
409.064	76.97
409.272	117.93
409.481	101.55
409.69	-13.14
409.898	-0.85
410.107	29.87
410.315	136.36
410.524	40.11
410.733	50.35
410.941	105.64
411.15	44.2
411.358	81.07
411.567	97.45
411.775	87.21
411.984	85.16
412.192	136.36
412.401	38.06
412.609	173.22
412.818	148.65
413.026	70.83
413.234	58.54
413.443	154.79
413.651	5.29
413.86	27.82
414.068	154.79
414.276	183.46
414.485	-37.72
414.693	183.46
414.901	208.04
415.11	58.54
415.318	97.45
415.526	66.73
415.734	74.92
415.943	52.39
416.151	146.6
416.359	58.54
416.567	126.12
416.776	134.31
416.984	72.87
417.192	220.33
417.4	74.92
417.608	23.72
417.817	50.35
418.025	226.47
418.233	177.32
418.441	-11.09
418.649	-15.19
418.857	97.45
419.065	140.46
419.273	9.39
419.481	17.58
419.689	66.73
419.897	89.26
420.105	7.34
420.313	185.51
420.521	173.22
420.729	107.69
420.937	-2.9
421.145	31.91
421.353	122.02
421.561	109.74
421.769	81.07
421.977	17.58
422.185	38.06
422.393	95.4
422.601	136.36
422.809	89.26
423.017	91.31
423.224	42.15
423.432	132.26
423.64	109.74
423.848	140.46
424.056	40.11
424.263	126.12
424.471	33.96
424.679	197.8
424.887	40.11
425.094	50.35
425.302	122.02
425.51	13.48
425.718	146.6
425.925	89.26
426.133	-39.76
426.341	208.04
426.548	107.69
426.756	76.97
426.964	162.98
427.171	50.35
427.379	107.69
427.586	66.73
427.794	136.36
428.001	126.12
428.209	138.41
428.417	234.66
428.624	130.22
428.832	124.07
429.039	103.59
429.247	95.4
429.454	101.55
429.662	117.93
429.869	224.42
430.076	76.97
430.284	191.66
430.491	130.22
430.699	87.21
430.906	238.76
431.114	105.64
431.321	140.46
431.528	197.8
431.736	124.07
431.943	224.42
432.15	236.71
432.358	310.44
432.565	203.94
432.772	97.45
432.979	242.85
433.187	109.74
433.394	375.97
433.601	119.98
433.808	283.81
434.016	308.39
434.223	267.43
434.43	199.85
434.637	322.73
434.844	269.48
435.052	349.35
435.259	312.49
435.466	357.54
435.673	324.77
435.88	328.87
436.087	418.98
436.294	294.05
436.501	416.93
436.708	380.07
436.915	378.02
437.122	504.99
437.329	367.78
437.537	380.07
437.743	365.73
437.95	500.9
438.157	472.23
438.364	517.28
438.571	445.6
438.778	564.39
438.985	533.67
439.192	545.95
439.399	509.09
439.606	572.58
439.813	580.77
440.02	691.36
440.227	787.61
440.433	644.26
440.64	642.21
440.847	566.43
441.054	711.84
441.261	781.47
441.467	763.04
441.674	715.94
441.881	832.67
442.088	810.14
442.294	859.29
442.501	887.97
442.708	996.51
442.914	859.29
443.121	1064.09
443.328	976.03
443.534	1125.53
443.741	1031.32
443.948	976.03
444.154	1186.97
444.361	1326.23
444.568	1211.54
444.774	1213.59
444.981	1158.3
445.187	1436.82
445.394	1430.68
445.6	1361.05
445.807	1633.43
446.013	1569.94
446.22	1574.03
446.426	1703.06
446.633	1741.97
446.839	1930.38
447.046	1737.87
447.252	1901.71
447.459	1850.51
447.665	1922.19
447.871	2165.9
448.078	2423.94
448.284	2198.67
448.491	2423.94
448.697	2489.48
448.903	2538.63
449.11	2673.79
449.316	2694.27
449.522	2976.89
449.728	3007.61
449.935	2974.85
450.141	2972.8
450.347	3222.65
450.553	3099.77
450.76	3370.1
450.966	3423.35
451.172	3515.51
451.378	3646.58
451.584	3759.22
451.791	4070.51
451.997	4158.57
452.203	4134
452.409	4510.82
452.615	4576.36
452.821	4404.33
453.027	4578.4
453.233	5119.07
453.44	4992.09
453.646	5502.04
453.852	5483.61
454.058	5753.94
454.264	5885.01
454.47	6169.68
454.676	6372.43
454.882	6800.45
455.088	6452.3
455.294	6890.56
455.5	7394.36
455.705	7670.84
455.911	7771.19
456.117	8117.29
456.323	8197.17
456.529	8315.95
456.735	9155.61
456.941	9235.49
457.147	9632.79
457.352	9800.73
457.558	10238.99
457.764	10771.46
457.97	11246.59
458.176	11582.46
458.381	11863.03
458.587	12293.1
458.793	12977.12
458.999	12960.74
459.204	14488.53
459.41	14873.54
459.616	14717.9
459.821	15649.72
460.027	16266.16
460.233	17189.8
460.438	16896.94
460.644	18004.89
460.85	18015.13
461.055	18817.93
461.261	19966.84
461.466	19590.02
461.672	19645.31
461.878	22192.98
462.083	21803.87
462.289	22160.22
462.494	23325.51
462.7	23337.8
462.905	23649.09
463.111	25852.7
463.316	26815.25
463.522	27290.38
463.727	28238.59
463.932	29481.7
464.138	30128.86
464.343	31298.25
464.549	31566.54
464.754	33598.12
464.959	34673.31
465.165	34833.05
465.37	34804.38
465.575	35197.59
465.781	37436.02
465.986	38416.99
466.191	37796.46
466.397	38376.03
466.602	37192.31
466.807	39119.45
467.012	39696.97
467.218	40821.31
467.423	41003.58
467.628	41849.39
467.833	44159.5
468.038	43182.62
