Data from USB4F104151__206__11-05-40-430.txt Node

Date: Wed Feb 26 11:05:40 EST 2025
User: louis
Spectrometer: USB4F10415
Trigger mode: 4
Integration Time (sec): 1.000000E-1
Scans to average: 1
Electric dark correction enabled: true
Nonlinearity correction enabled: false
Boxcar width: 0
XAxis mode: Wavelengths
Number of Pixels in Spectrum: 3648
>>>>>Begin Spectral Data<<<<<
178.204	-446.29
178.424	-446.29
178.644	-446.29
178.864	-501.58
179.084	-470.86
179.304	-32.6
179.524	-10.07
179.744	12.46
179.964	86.19
180.184	57.51
180.404	10.41
180.624	-26.45
180.844	-5.97
181.064	-71.51
181.283	-16.21
181.503	-44.88
181.723	41.13
181.943	-73.56
182.163	233.64
182.383	-28.5
182.602	-34.64
182.822	110.76
183.042	20.65
183.262	14.51
183.482	34.99
183.701	24.75
183.921	106.67
184.141	-48.98
184.361	32.94
184.58	43.18
184.8	-26.45
185.02	-38.74
185.239	34.99
185.459	75.95
185.679	37.03
185.898	-40.79
186.118	49.32
186.338	34.99
186.557	118.95
186.777	-53.08
186.997	26.79
187.216	-5.97
187.436	186.54
187.655	69.8
187.875	151.72
188.095	47.27
188.314	127.14
188.534	110.76
188.753	-40.79
188.973	182.44
189.192	161.96
189.412	-8.02
189.631	-20.31
189.851	61.61
190.07	69.8
190.29	-69.46
190.509	0.17
190.729	-30.55
190.948	86.19
191.168	196.78
191.387	30.89
191.607	-16.21
191.826	166.06
192.045	-14.17
192.265	24.75
192.484	-18.26
192.704	84.14
192.923	-42.84
193.142	200.87
193.362	133.29
193.581	118.95
193.8	28.84
194.02	80.04
194.239	-8.02
194.458	118.95
194.678	39.08
194.897	2.22
195.116	47.27
195.335	73.9
195.555	69.8
195.774	-32.6
195.993	41.13
196.212	-20.31
196.432	-24.4
196.651	47.27
196.87	-32.6
197.089	151.72
197.308	-32.6
197.528	77.99
197.747	-65.36
197.966	8.36
198.185	106.67
198.404	-22.36
198.623	82.09
198.842	61.61
199.062	84.14
199.281	114.86
199.5	-24.4
199.719	41.13
199.938	8.36
200.157	98.47
200.376	123.05
200.595	100.52
200.814	8.36
201.033	-79.7
201.252	170.15
201.471	57.51
201.69	16.55
201.909	-28.5
202.128	82.09
202.347	96.43
202.566	12.46
202.785	-63.32
203.004	-51.03
203.223	178.34
203.442	73.9
203.661	-69.46
203.879	-18.26
204.098	184.49
204.317	-57.17
204.536	139.43
204.755	94.38
204.974	135.34
205.193	-18.26
205.411	67.75
205.63	110.76
205.849	8.36
206.068	14.51
206.287	-22.36
206.505	139.43
206.724	55.47
206.943	12.46
207.162	37.03
207.381	77.99
207.599	16.55
207.818	-12.12
208.037	-106.32
208.255	67.75
208.474	49.32
208.693	73.9
208.911	45.23
209.13	80.04
209.349	96.43
209.567	43.18
209.786	125.1
210.005	131.24
210.223	-32.6
210.442	-130.9
210.661	45.23
210.879	43.18
211.098	37.03
211.316	53.42
211.535	32.94
211.753	14.51
211.972	98.47
212.191	-98.13
212.409	-59.22
212.628	108.71
212.846	-12.12
213.065	24.75
213.283	96.43
213.502	-14.17
213.72	-44.88
213.938	53.42
214.157	39.08
214.375	84.14
214.594	-22.36
214.812	102.57
215.031	-57.17
215.249	-3.93
215.467	63.66
215.686	39.08
215.904	34.99
216.122	51.37
216.341	108.71
216.559	-28.5
216.778	135.34
216.996	51.37
217.214	53.42
217.432	6.31
217.651	-38.74
217.869	82.09
218.087	47.27
218.306	-67.41
218.524	-28.5
218.742	-32.6
218.96	88.23
219.179	24.75
219.397	22.7
219.615	159.91
219.833	86.19
220.051	-102.23
220.27	77.99
220.488	104.62
220.706	6.31
220.924	-16.21
221.142	-40.79
221.36	-28.5
221.578	155.82
221.796	55.47
222.015	47.27
222.233	51.37
222.451	159.91
222.669	16.55
222.887	55.47
223.105	123.05
223.323	-3.93
223.541	-12.12
223.759	65.71
223.977	-28.5
224.195	129.19
224.413	127.14
224.631	39.08
224.849	24.75
225.067	170.15
225.285	-112.47
225.503	-28.5
225.721	-91.99
225.939	41.13
226.157	-1.88
226.375	258.21
226.592	63.66
226.81	41.13
227.028	133.29
227.246	118.95
227.464	24.75
227.682	90.28
227.9	86.19
228.117	37.03
228.335	-5.97
228.553	18.6
228.771	41.13
228.989	14.51
229.206	73.9
229.424	22.7
229.642	-67.41
229.86	20.65
230.077	96.43
230.295	14.51
230.513	59.56
230.731	28.84
230.948	190.63
231.166	227.5
231.384	16.55
231.601	-61.27
231.819	213.16
232.037	18.6
232.254	-3.93
232.472	41.13
232.689	45.23
232.907	127.14
233.125	-26.45
233.342	-40.79
233.56	-26.45
233.777	-8.02
233.995	-48.98
234.213	10.41
234.43	67.75
234.648	16.55
234.865	-18.26
235.083	24.75
235.3	47.27
235.518	100.52
235.735	12.46
235.953	135.34
236.17	86.19
236.388	14.51
236.605	51.37
236.822	94.38
237.04	116.9
237.257	18.6
237.475	-18.26
237.692	49.32
237.909	32.94
238.127	88.23
238.344	43.18
238.562	114.86
238.779	-89.94
238.996	-42.84
239.214	125.1
239.431	133.29
239.648	-20.31
239.865	77.99
240.083	121
240.3	-69.46
240.517	67.75
240.735	-3.93
240.952	104.62
241.169	22.7
241.386	59.56
241.603	-55.12
241.821	55.47
242.038	71.85
242.255	32.94
242.472	-40.79
242.689	88.23
242.907	86.19
243.124	37.03
243.341	6.31
243.558	-42.84
243.775	-46.93
243.992	-46.93
244.209	32.94
244.426	121
244.643	43.18
244.86	-96.08
245.078	69.8
245.295	-8.02
245.512	-51.03
245.729	-28.5
245.946	114.86
246.163	73.9
246.38	10.41
246.597	102.57
246.814	34.99
247.031	67.75
247.248	-12.12
247.464	39.08
247.681	18.6
247.898	41.13
248.115	45.23
248.332	-55.12
248.549	39.08
248.766	221.35
248.983	51.37
249.2	75.95
249.417	182.44
249.633	0.17
249.85	43.18
250.067	26.79
250.284	20.65
250.501	86.19
250.717	73.9
250.934	-79.7
251.151	22.7
251.368	-26.45
251.585	41.13
251.801	82.09
252.018	-24.4
252.235	45.23
252.451	-12.12
252.668	-38.74
252.885	67.75
253.102	32.94
253.318	-57.17
253.535	37.03
253.752	-40.79
253.968	-3.93
254.185	-57.17
254.401	51.37
254.618	106.67
254.835	-8.02
255.051	112.81
255.268	63.66
255.484	59.56
255.701	34.99
255.917	73.9
256.134	-3.93
256.351	-1.88
256.567	-20.31
256.784	22.7
257	-63.32
257.217	106.67
257.433	77.99
257.65	6.31
257.866	108.71
258.082	-61.27
258.299	-98.13
258.515	75.95
258.732	0.17
258.948	-59.22
259.165	118.95
259.381	-26.45
259.597	39.08
259.814	-46.93
260.03	14.51
260.246	-40.79
260.463	77.99
260.679	145.58
260.895	26.79
261.112	86.19
261.328	-8.02
261.544	16.55
261.761	114.86
261.977	-16.21
262.193	-85.84
262.409	92.33
262.626	90.28
262.842	-36.69
263.058	-59.22
263.274	104.62
263.49	80.04
263.707	77.99
263.923	172.2
264.139	-8.02
264.355	-12.12
264.571	90.28
264.787	-12.12
265.004	112.81
265.22	41.13
265.436	-42.84
265.652	-14.17
265.868	80.04
266.084	-22.36
266.3	8.36
266.516	28.84
266.732	26.79
266.948	-38.74
267.164	-10.07
267.38	43.18
267.596	63.66
267.812	235.69
268.028	-26.45
268.244	-24.4
268.46	77.99
268.676	4.27
268.892	45.23
269.108	-67.41
269.324	-5.97
269.54	51.37
269.756	69.8
269.972	-34.64
270.188	0.17
270.403	-14.17
270.619	43.18
270.835	75.95
271.051	71.85
271.267	-12.12
271.483	-20.31
271.698	51.37
271.914	18.6
272.13	37.03
272.346	14.51
272.562	53.42
272.777	123.05
272.993	88.23
273.209	-51.03
273.425	67.75
273.64	-40.79
273.856	127.14
274.072	-12.12
274.287	-14.17
274.503	14.51
274.719	28.84
274.934	37.03
275.15	-16.21
275.366	43.18
275.581	22.7
275.797	24.75
276.012	14.51
276.228	-34.64
276.444	34.99
276.659	149.67
276.875	-34.64
277.09	47.27
277.306	37.03
277.521	30.89
277.737	-3.93
277.952	139.43
278.168	96.43
278.383	63.66
278.599	45.23
278.814	86.19
279.03	-3.93
279.245	143.53
279.461	-3.93
279.676	116.9
279.892	-75.6
280.107	34.99
280.322	2.22
280.538	8.36
280.753	10.41
280.969	61.61
281.184	24.75
281.399	92.33
281.615	34.99
281.83	88.23
282.045	41.13
282.26	-40.79
282.476	59.56
282.691	55.47
282.906	43.18
283.122	26.79
283.337	-26.45
283.552	65.71
283.767	0.17
283.983	153.77
284.198	-12.12
284.413	28.84
284.628	-65.36
284.843	-26.45
285.058	-22.36
285.274	71.85
285.489	-69.46
285.704	166.06
285.919	37.03
286.134	32.94
286.349	-8.02
286.564	20.65
286.779	137.38
286.995	4.27
287.21	-18.26
287.425	-20.31
287.64	-71.51
287.855	26.79
288.07	-14.17
288.285	96.43
288.5	118.95
288.715	90.28
288.93	-5.97
289.145	30.89
289.36	112.81
289.575	-1.88
289.79	178.34
290.004	14.51
290.219	65.71
290.434	-89.94
290.649	-3.93
290.864	-57.17
291.079	-94.04
291.294	-26.45
291.509	59.56
291.724	16.55
291.938	-30.55
292.153	69.8
292.368	-57.17
292.583	37.03
292.798	96.43
293.012	22.7
293.227	-10.07
293.442	28.84
293.657	94.38
293.871	61.61
294.086	16.55
294.301	243.88
294.516	92.33
294.73	34.99
294.945	6.31
295.16	10.41
295.374	180.39
295.589	49.32
295.804	8.36
296.018	82.09
296.233	75.95
296.447	100.52
296.662	22.7
296.877	114.86
297.091	63.66
297.306	51.37
297.52	-12.12
297.735	-12.12
297.949	30.89
298.164	2.22
298.378	67.75
298.593	-73.56
298.807	-53.08
299.022	110.76
299.236	147.62
299.451	14.51
299.665	65.71
299.88	-63.32
300.094	110.76
300.309	75.95
300.523	77.99
300.737	-46.93
300.952	121
301.166	86.19
301.381	-28.5
301.595	-63.32
301.809	26.79
302.024	4.27
302.238	-63.32
302.452	127.14
302.667	-28.5
302.881	73.9
303.095	22.7
303.309	-36.69
303.524	-14.17
303.738	0.17
303.952	14.51
304.166	67.75
304.381	-178
304.595	141.48
304.809	-65.36
305.023	6.31
305.237	24.75
305.452	-53.08
305.666	94.38
305.88	43.18
306.094	75.95
306.308	-28.5
306.522	118.95
306.736	106.67
306.95	141.48
307.164	16.55
307.379	26.79
307.593	133.29
307.807	149.67
308.021	65.71
308.235	53.42
308.449	-102.23
308.663	82.09
308.877	272.55
309.091	8.36
309.305	61.61
309.519	-73.56
309.733	180.39
309.947	-87.89
310.161	63.66
310.374	6.31
310.588	217.26
310.802	-32.6
311.016	-32.6
311.23	45.23
311.444	41.13
311.658	77.99
311.872	112.81
312.085	92.33
312.299	178.34
312.513	116.9
312.727	22.7
312.941	20.65
313.154	63.66
313.368	-12.12
313.582	67.75
313.796	129.19
314.009	-26.45
314.223	94.38
314.437	39.08
314.651	43.18
314.864	-20.31
315.078	45.23
315.292	-87.89
315.505	-30.55
315.719	20.65
315.933	118.95
316.146	65.71
316.36	-14.17
316.573	92.33
316.787	80.04
317.001	65.71
317.214	-98.13
317.428	55.47
317.641	-10.07
317.855	49.32
318.068	96.43
318.282	98.47
318.495	176.3
318.709	59.56
318.922	10.41
319.136	155.82
319.349	114.86
319.563	-10.07
319.776	118.95
319.99	-38.74
320.203	49.32
320.417	65.71
320.63	108.71
320.843	127.14
321.057	63.66
321.27	2.22
321.483	71.85
321.697	88.23
321.91	69.8
322.124	-20.31
322.337	22.7
322.55	-42.84
322.763	22.7
322.977	-42.84
323.19	14.51
323.403	-28.5
323.617	133.29
323.83	69.8
324.043	-1.88
324.256	43.18
324.469	-24.4
324.683	110.76
324.896	37.03
325.109	12.46
325.322	-73.56
325.535	100.52
325.748	155.82
325.962	-28.5
326.175	75.95
326.388	41.13
326.601	110.76
326.814	71.85
327.027	-14.17
327.24	121
327.453	-130.9
327.666	84.14
327.879	147.62
328.092	47.27
328.305	149.67
328.518	4.27
328.731	30.89
328.944	8.36
329.157	71.85
329.37	-1.88
329.583	139.43
329.796	161.96
330.009	-91.99
330.222	121
330.435	98.47
330.648	45.23
330.861	-5.97
331.073	49.32
331.286	118.95
331.499	45.23
331.712	-8.02
331.925	98.47
332.138	67.75
332.35	65.71
332.563	18.6
332.776	133.29
332.989	-61.27
333.202	-1.88
333.414	6.31
333.627	73.9
333.84	16.55
334.053	61.61
334.265	8.36
334.478	37.03
334.691	32.94
334.903	65.71
335.116	-12.12
335.329	77.99
335.541	104.62
335.754	106.67
335.966	-30.55
336.179	57.51
336.392	22.7
336.604	10.41
336.817	-53.08
337.029	32.94
337.242	-10.07
337.454	90.28
337.667	59.56
337.88	123.05
338.092	20.65
338.305	118.95
338.517	-3.93
338.729	71.85
338.942	118.95
339.154	-53.08
339.367	-1.88
339.579	45.23
339.792	-63.32
340.004	88.23
340.217	28.84
340.429	12.46
340.641	-20.31
340.854	-46.93
341.066	30.89
341.278	104.62
341.491	166.06
341.703	4.27
341.915	14.51
342.128	118.95
342.34	71.85
342.552	-8.02
342.764	49.32
342.977	-3.93
343.189	137.38
343.401	73.9
343.613	-67.41
343.826	-5.97
344.038	-61.27
344.25	59.56
344.462	-91.99
344.674	127.14
344.886	10.41
345.099	-36.69
345.311	94.38
345.523	0.17
345.735	-38.74
345.947	-3.93
346.159	73.9
346.371	69.8
346.583	-46.93
346.795	133.29
347.007	0.17
347.219	75.95
347.431	18.6
347.643	155.82
347.855	10.41
348.067	104.62
348.279	-53.08
348.491	37.03
348.703	102.57
348.915	-8.02
349.127	-98.13
349.339	-48.98
349.551	-3.93
349.763	172.2
349.975	51.37
350.187	114.86
350.399	184.49
350.61	20.65
350.822	-16.21
351.034	63.66
351.246	100.52
351.458	-59.22
351.669	106.67
351.881	45.23
352.093	102.57
352.305	204.97
352.517	65.71
352.728	139.43
352.94	20.65
353.152	108.71
353.363	-38.74
353.575	108.71
353.787	166.06
353.999	45.23
354.21	139.43
354.422	-8.02
354.633	39.08
354.845	116.9
355.057	-28.5
355.268	100.52
355.48	57.51
355.692	-61.27
355.903	32.94
356.115	30.89
356.326	-46.93
356.538	102.57
356.749	102.57
356.961	188.58
357.172	47.27
357.384	10.41
357.595	192.68
357.807	-36.69
358.018	18.6
358.23	106.67
358.441	137.38
358.653	80.04
358.864	-24.4
359.075	-75.6
359.287	37.03
359.498	147.62
359.709	102.57
359.921	41.13
360.132	121
360.344	4.27
360.555	4.27
360.766	75.95
360.977	-12.12
361.189	24.75
361.4	30.89
361.611	75.95
361.823	39.08
362.034	135.34
362.245	-40.79
362.456	88.23
362.667	153.77
362.879	-91.99
363.09	39.08
363.301	12.46
363.512	104.62
363.723	22.7
363.935	14.51
364.146	116.9
364.357	18.6
364.568	86.19
364.779	-85.84
364.99	143.53
365.201	14.51
365.412	59.56
365.623	-3.93
365.834	45.23
366.045	41.13
366.256	0.17
366.467	63.66
366.678	39.08
366.889	118.95
367.1	-34.64
367.311	100.52
367.522	-71.51
367.733	55.47
367.944	75.95
368.155	37.03
368.366	84.14
368.577	145.58
368.788	69.8
368.999	-1.88
369.209	69.8
369.42	155.82
369.631	225.45
369.842	57.51
370.053	20.65
370.264	106.67
370.474	-26.45
370.685	47.27
370.896	59.56
371.107	145.58
371.317	77.99
371.528	-14.17
371.739	164.01
371.95	149.67
372.16	100.52
372.371	-132.95
372.582	37.03
372.792	90.28
373.003	47.27
373.214	49.32
373.424	63.66
373.635	2.22
373.846	104.62
374.056	34.99
374.267	39.08
374.477	-8.02
374.688	59.56
374.898	-8.02
375.109	-51.03
375.319	26.79
375.53	55.47
375.74	168.1
375.951	18.6
376.161	47.27
376.372	149.67
376.582	-28.5
376.793	110.76
377.003	2.22
377.214	-51.03
377.424	51.37
377.635	94.38
377.845	-14.17
378.055	157.86
378.266	-98.13
378.476	65.71
378.686	112.81
378.897	-32.6
379.107	59.56
379.317	73.9
379.528	-34.64
379.738	155.82
379.948	20.65
380.158	53.42
380.369	75.95
380.579	59.56
380.789	-3.93
380.999	75.95
381.21	118.95
381.42	188.58
381.63	-36.69
381.84	131.24
382.05	84.14
382.261	84.14
382.471	69.8
382.681	88.23
382.891	116.9
383.101	80.04
383.311	20.65
383.521	-26.45
383.731	131.24
383.941	110.76
384.151	47.27
384.361	14.51
384.571	43.18
384.781	118.95
384.991	215.21
385.201	47.27
385.411	24.75
385.621	-14.17
385.831	53.42
386.041	67.75
386.251	90.28
386.461	86.19
386.671	67.75
386.881	34.99
387.091	18.6
387.301	82.09
387.511	22.7
387.72	69.8
387.93	133.29
388.14	-61.27
388.35	49.32
388.56	116.9
388.769	110.76
388.979	69.8
389.189	37.03
389.399	2.22
389.609	49.32
389.818	45.23
390.028	47.27
390.238	80.04
390.447	-3.93
390.657	63.66
390.867	24.75
391.076	2.22
391.286	127.14
391.496	24.75
391.705	24.75
391.915	139.43
392.125	88.23
392.334	4.27
392.544	139.43
392.753	24.75
392.963	28.84
393.172	86.19
393.382	8.36
393.591	141.48
393.801	-34.64
394.01	135.34
394.22	100.52
394.429	-12.12
394.639	2.22
394.848	30.89
395.058	57.51
395.267	59.56
395.477	65.71
395.686	28.84
395.895	164.01
396.105	180.39
396.314	96.43
396.524	-12.12
396.733	-3.93
396.942	100.52
397.152	90.28
397.361	147.62
397.57	90.28
397.78	32.94
397.989	116.9
398.198	178.34
398.407	-32.6
398.617	39.08
398.826	4.27
399.035	-16.21
399.244	102.57
399.453	43.18
399.663	61.61
399.872	86.19
400.081	-5.97
400.29	110.76
400.499	-22.36
400.708	135.34
400.917	-12.12
401.127	65.71
401.336	-44.88
401.545	155.82
401.754	100.52
401.963	77.99
402.172	0.17
402.381	-1.88
402.59	30.89
402.799	88.23
403.008	67.75
403.217	61.61
403.426	108.71
403.635	-89.94
403.844	110.76
404.053	47.27
404.262	6.31
404.471	194.73
404.68	145.58
404.888	49.32
405.097	73.9
405.306	45.23
405.515	139.43
405.724	67.75
405.933	34.99
406.142	100.52
406.35	127.14
406.559	20.65
406.768	112.81
406.977	176.3
407.185	100.52
407.394	53.42
407.603	-3.93
407.812	147.62
408.02	176.3
408.229	104.62
408.438	59.56
408.646	-132.95
408.855	-14.17
409.064	92.33
409.272	4.27
409.481	149.67
409.69	-16.21
409.898	-48.98
410.107	100.52
410.315	110.76
410.524	-16.21
410.733	110.76
410.941	41.13
411.15	123.05
411.358	82.09
411.567	106.67
411.775	84.14
411.984	108.71
412.192	75.95
412.401	22.7
412.609	190.63
412.818	127.14
413.026	20.65
413.234	39.08
413.443	-38.74
413.651	-1.88
413.86	57.51
414.068	188.58
414.276	121
414.485	67.75
414.693	188.58
414.901	219.3
415.11	84.14
415.318	26.79
415.526	18.6
415.734	143.53
415.943	77.99
416.151	96.43
416.359	16.55
416.567	112.81
416.776	104.62
416.984	94.38
417.192	180.39
417.4	20.65
417.608	32.94
417.817	28.84
418.025	139.43
418.233	164.01
418.441	-30.55
418.649	-26.45
418.857	-12.12
419.065	104.62
419.273	53.42
419.481	77.99
419.689	82.09
419.897	-30.55
420.105	0.17
420.313	49.32
420.521	137.38
420.729	143.53
420.937	30.89
421.145	-16.21
421.353	55.47
421.561	164.01
421.769	106.67
421.977	12.46
422.185	133.29
422.393	49.32
422.601	88.23
422.809	102.57
423.017	30.89
423.224	129.19
423.432	110.76
423.64	125.1
423.848	178.34
424.056	77.99
424.263	80.04
424.471	71.85
424.679	137.38
424.887	2.22
425.094	170.15
425.302	145.58
425.51	59.56
425.718	157.86
425.925	90.28
426.133	32.94
426.341	209.06
426.548	8.36
426.756	10.41
426.964	141.48
427.171	14.51
427.379	77.99
427.586	-14.17
427.794	88.23
428.001	161.96
428.209	127.14
428.417	166.06
428.624	245.93
428.832	88.23
429.039	129.19
429.247	100.52
429.454	98.47
429.662	155.82
429.869	118.95
430.076	104.62
430.284	180.39
430.491	172.2
430.699	151.72
430.906	184.49
431.114	211.11
431.321	198.82
431.528	194.73
431.736	170.15
431.943	188.58
432.15	268.45
432.358	157.86
432.565	290.98
432.772	20.65
432.979	272.55
433.187	143.53
433.394	311.46
433.601	135.34
433.808	239.78
434.016	311.46
434.223	276.65
434.43	284.84
434.637	303.27
434.844	252.07
435.052	266.41
435.259	272.55
435.466	295.08
435.673	229.54
435.88	352.42
436.087	385.19
436.294	391.33
436.501	333.99
436.708	286.89
436.915	372.9
437.122	450.72
437.329	321.7
437.537	362.66
437.743	452.77
437.95	395.43
438.157	344.23
438.364	415.91
438.571	428.2
438.778	602.27
438.985	506.02
439.192	602.27
439.399	487.59
439.606	450.72
439.813	497.83
440.02	690.34
440.227	702.62
440.433	610.47
440.64	575.65
440.847	571.55
441.054	678.05
441.261	823.45
441.467	782.49
441.674	671.9
441.881	780.45
442.088	809.12
442.294	817.31
442.501	895.13
442.708	905.37
442.914	901.28
443.121	975
443.328	962.72
443.534	1108.12
443.741	979.1
443.948	983.2
444.154	1147.03
444.361	1341.59
444.568	1196.18
444.774	1204.38
444.981	1140.89
445.187	1415.32
445.394	1386.65
445.6	1362.07
445.807	1450.13
446.013	1495.19
446.22	1482.9
446.426	1656.98
446.633	1767.57
446.839	1869.97
447.046	1734.8
447.252	1970.32
447.459	1990.8
447.665	1912.97
447.871	2066.57
448.078	2156.68
448.284	2185.35
448.491	2254.98
448.697	2408.58
448.903	2558.08
449.11	2558.08
449.316	2496.64
449.522	2773.12
449.728	2846.85
449.935	2936.96
450.141	3074.17
450.347	3184.76
450.553	3168.38
450.76	3250.3
450.966	3391.61
451.172	3485.81
451.378	3719.28
451.584	3747.95
451.791	4087.92
451.997	4147.31
452.203	4182.12
452.409	4431.98
452.615	4532.33
452.821	4431.98
453.027	4634.72
453.233	5079.13
453.44	4939.87
453.646	5212.25
453.852	5478.49
454.058	5681.24
454.264	5967.95
454.47	6301.77
454.676	5994.58
454.882	7018.56
455.088	6449.22
455.294	6953.02
455.5	7417.91
455.705	7657.53
455.911	7604.28
456.117	7786.55
456.323	8177.71
456.529	8210.48
456.735	8929.31
456.941	8986.66
457.147	9447.45
457.352	9869.33
457.558	10166.29
457.764	10717.19
457.97	10940.42
458.176	11282.43
458.381	12040.18
458.587	12097.52
458.793	12861.41
458.999	12638.19
459.204	14483.41
459.41	14763.98
459.616	14675.91
459.821	15513.53
460.027	16254.9
460.233	16906.15
460.438	16760.75
460.644	17854.36
460.85	17989.53
461.055	18947.98
461.261	19677.05
461.466	19478.4
461.672	19660.67
461.878	22222.68
462.083	21753.69
462.289	22224.73
462.494	23156.55
462.7	23234.38
462.905	23582.53
463.111	25376.55
463.316	26890
463.522	26797.84
463.727	28000
463.932	28925.68
464.138	30201.57
464.343	31309.52
464.549	31659.72
464.754	33613.48
464.959	34434.72
465.165	34991.76
465.37	34676.38
465.575	35026.58
465.781	37127.8
465.986	38680.16
466.191	37682.8
466.397	38033
466.602	37035.64
466.807	39077.46
467.012	40107.59
467.218	40511.04
467.423	40535.62
467.628	41975.34
467.833	43800.08
468.038	43013.66
468.244	42409.51
