Data from USB4F104151__72__10-44-06-672.txt Node

Date: Wed Feb 26 10:44:06 EST 2025
User: louis
Spectrometer: USB4F10415
Trigger mode: 4
Integration Time (sec): 1.000000E-1
Scans to average: 1
Electric dark correction enabled: true
Nonlinearity correction enabled: false
Boxcar width: 0
XAxis mode: Wavelengths
Number of Pixels in Spectrum: 3648
>>>>>Begin Spectral Data<<<<<
178.204	-411.13
178.424	-411.13
178.644	-411.13
178.864	-380.41
179.084	-370.17
179.304	59.9
179.524	4.61
179.744	-91.65
179.964	98.81
180.184	-15.87
180.404	41.47
180.624	-60.93
180.844	18.94
181.064	-36.35
181.283	-5.63
181.503	-62.98
181.723	49.66
181.943	-30.21
182.163	197.12
182.383	2.56
182.602	2.56
182.822	139.77
183.042	-11.78
183.262	-19.97
183.482	-81.41
183.701	20.99
183.921	80.38
184.141	-91.65
184.361	31.23
184.58	20.99
184.8	84.48
185.02	23.04
185.239	64
185.459	102.91
185.679	98.81
185.898	-126.46
186.118	51.71
186.338	31.23
186.557	88.57
186.777	-24.06
186.997	35.33
187.216	45.57
187.436	164.35
187.655	104.96
187.875	90.62
188.095	6.66
188.314	190.97
188.534	84.48
188.753	-1.54
188.973	115.2
189.192	113.15
189.412	-30.21
189.631	78.33
189.851	64
190.07	127.49
190.29	-56.83
190.509	-30.21
190.729	68.09
190.948	141.82
191.168	213.5
191.387	31.23
191.607	12.8
191.826	59.9
192.045	59.9
192.265	59.9
192.484	51.71
192.704	150.01
192.923	-56.83
193.142	262.65
193.362	139.77
193.581	39.42
193.8	102.91
194.02	31.23
194.239	31.23
194.458	76.29
194.678	-15.87
194.897	47.62
195.116	43.52
195.335	27.14
195.555	94.72
195.774	-50.69
195.993	88.57
196.212	64
196.432	25.09
196.651	-48.64
196.87	96.77
197.089	209.4
197.308	51.71
197.528	61.95
197.747	-7.68
197.966	76.29
198.185	64
198.404	2.56
198.623	74.24
198.842	131.58
199.062	92.67
199.281	113.15
199.5	4.61
199.719	133.63
199.938	100.86
200.157	74.24
200.376	61.95
200.595	207.36
200.814	37.38
201.033	-52.74
201.252	158.21
201.471	53.76
201.69	59.9
201.909	27.14
202.128	166.4
202.347	92.67
202.566	107.01
202.785	-112.13
203.004	-58.88
203.223	240.12
203.442	-9.73
203.661	-7.68
203.879	88.57
204.098	115.2
204.317	-54.78
204.536	80.38
204.755	121.34
204.974	-40.45
205.193	4.61
205.411	199.16
205.63	96.77
205.849	47.62
206.068	31.23
206.287	25.09
206.505	100.86
206.724	2.56
206.943	-62.98
207.162	-36.35
207.381	100.86
207.599	-5.63
207.818	90.62
208.037	-44.54
208.255	20.99
208.474	6.66
208.693	72.19
208.911	37.38
209.13	49.66
209.349	57.86
209.567	64
209.786	86.53
210.005	43.52
210.223	51.71
210.442	-171.52
210.661	-40.45
210.879	18.94
211.098	80.38
211.316	39.42
211.535	100.86
211.753	109.05
211.972	16.9
212.191	-5.63
212.409	37.38
212.628	115.2
212.846	-62.98
213.065	82.43
213.283	94.72
213.502	64
213.72	-11.78
213.938	-83.45
214.157	0.51
214.375	125.44
214.594	-13.82
214.812	29.18
215.031	88.57
215.249	10.75
215.467	80.38
215.686	27.14
215.904	-22.02
216.122	137.73
216.341	131.58
216.559	8.7
216.778	107.01
216.996	145.92
217.214	25.09
217.432	-48.64
217.651	-65.02
217.869	92.67
218.087	78.33
218.306	-11.78
218.524	64
218.742	-1.54
218.96	96.77
219.179	-13.82
219.397	64
219.615	203.26
219.833	74.24
220.051	55.81
220.27	86.53
220.488	115.2
220.706	70.14
220.924	-26.11
221.142	-22.02
221.36	6.66
221.578	41.47
221.796	66.05
222.015	59.9
222.233	102.91
222.451	174.59
222.669	-73.21
222.887	129.53
223.105	-52.74
223.323	-26.11
223.541	-126.46
223.759	39.42
223.977	51.71
224.195	94.72
224.413	74.24
224.631	18.94
224.849	74.24
225.067	121.34
225.285	23.04
225.503	-36.35
225.721	-79.36
225.939	14.85
226.157	94.72
226.375	248.32
226.592	-26.11
226.81	20.99
227.028	86.53
227.246	182.78
227.464	74.24
227.682	170.49
227.9	43.52
228.117	55.81
228.335	47.62
228.553	156.16
228.771	-40.45
228.989	64
229.206	90.62
229.424	6.66
229.642	35.33
229.86	-15.87
230.077	166.4
230.295	33.28
230.513	82.43
230.731	90.62
230.948	127.49
231.166	244.22
231.384	-3.58
231.601	-7.68
231.819	156.16
232.037	-7.68
232.254	-24.06
232.472	76.29
232.689	61.95
232.907	125.44
233.125	45.57
233.342	12.8
233.56	31.23
233.777	68.09
233.995	-40.45
234.213	84.48
234.43	90.62
234.648	57.86
234.865	6.66
235.083	64
235.3	27.14
235.518	59.9
235.735	141.82
235.953	72.19
236.17	4.61
236.388	33.28
236.605	102.91
236.822	141.82
237.04	57.86
237.257	104.96
237.475	-3.58
237.692	23.04
237.909	64
238.127	8.7
238.344	66.05
238.562	100.86
238.779	-26.11
238.996	-36.35
239.214	14.85
239.431	135.68
239.648	-3.58
239.865	92.67
240.083	45.57
240.3	55.81
240.517	59.9
240.735	64
240.952	141.82
241.169	25.09
241.386	39.42
241.603	18.94
241.821	49.66
242.038	100.86
242.255	49.66
242.472	-91.65
242.689	66.05
242.907	25.09
243.124	76.29
243.341	57.86
243.558	-42.5
243.775	-26.11
243.992	-1.54
244.209	45.57
244.426	170.49
244.643	45.57
244.86	64
245.078	96.77
245.295	31.23
245.512	33.28
245.729	-11.78
245.946	47.62
246.163	70.14
246.38	-60.93
246.597	98.81
246.814	43.52
247.031	4.61
247.248	37.38
247.464	90.62
247.681	39.42
247.898	82.43
248.115	119.29
248.332	-30.21
248.549	115.2
248.766	68.09
248.983	123.39
249.2	86.53
249.417	186.88
249.633	27.14
249.85	100.86
250.067	94.72
250.284	104.96
250.501	2.56
250.717	111.1
250.934	6.66
251.151	-17.92
251.368	-22.02
251.585	-19.97
251.801	53.76
252.018	-40.45
252.235	117.25
252.451	-91.65
252.668	74.24
252.885	59.9
253.102	104.96
253.318	47.62
253.535	-26.11
253.752	53.76
253.968	12.8
254.185	-73.21
254.401	33.28
254.618	27.14
254.835	39.42
255.051	133.63
255.268	90.62
255.484	94.72
255.701	86.53
255.917	74.24
256.134	27.14
256.351	20.99
256.567	-54.78
256.784	-5.63
257	-44.54
257.217	125.44
257.433	53.76
257.65	70.14
257.866	51.71
258.082	-79.36
258.299	-32.26
258.515	51.71
258.732	6.66
258.948	-22.02
259.165	47.62
259.381	-54.78
259.597	43.52
259.814	57.86
260.03	-19.97
260.246	2.56
260.463	141.82
260.679	123.39
260.895	0.51
261.112	39.42
261.328	20.99
261.544	-48.64
261.761	104.96
261.977	109.05
262.193	-85.5
262.409	102.91
262.626	78.33
262.842	4.61
263.058	-11.78
263.274	76.29
263.49	29.18
263.707	160.25
263.923	76.29
264.139	-157.18
264.355	51.71
264.571	100.86
264.787	4.61
265.004	133.63
265.22	57.86
265.436	-52.74
265.652	-65.02
265.868	107.01
266.084	-28.16
266.3	74.24
266.516	2.56
266.732	35.33
266.948	47.62
267.164	-48.64
267.38	111.1
267.596	51.71
267.812	213.5
268.028	51.71
268.244	41.47
268.46	16.9
268.676	72.19
268.892	20.99
269.108	-26.11
269.324	-9.73
269.54	-5.63
269.756	37.38
269.972	-17.92
270.188	96.77
270.403	-15.87
270.619	66.05
270.835	94.72
271.051	-32.26
271.267	-73.21
271.483	4.61
271.698	-26.11
271.914	94.72
272.13	16.9
272.346	6.66
272.562	10.75
272.777	117.25
272.993	25.09
273.209	33.28
273.425	98.81
273.64	-105.98
273.856	90.62
274.072	-22.02
274.287	-42.5
274.503	64
274.719	117.25
274.934	20.99
275.15	-36.35
275.366	74.24
275.581	-65.02
275.797	43.52
276.012	76.29
276.228	6.66
276.444	-38.4
276.659	84.48
276.875	14.85
277.09	25.09
277.306	-36.35
277.521	33.28
277.737	18.94
277.952	125.44
278.168	41.47
278.383	-1.54
278.599	61.95
278.814	59.9
279.03	23.04
279.245	174.59
279.461	29.18
279.676	10.75
279.892	-50.69
280.107	-85.5
280.322	-118.27
280.538	80.38
280.753	-56.83
280.969	64
281.184	31.23
281.399	141.82
281.615	4.61
281.83	92.67
282.045	8.7
282.26	33.28
282.476	51.71
282.691	154.11
282.906	53.76
283.122	33.28
283.337	-56.83
283.552	33.28
283.767	72.19
283.983	41.47
284.198	-32.26
284.413	121.34
284.628	-128.51
284.843	113.15
285.058	125.44
285.274	-42.5
285.489	-36.35
285.704	43.52
285.919	-67.07
286.134	-7.68
286.349	4.61
286.564	-17.92
286.779	170.49
286.995	-48.64
287.21	-1.54
287.425	88.57
287.64	4.61
287.855	47.62
288.07	-32.26
288.285	121.34
288.5	102.91
288.715	10.75
288.93	-44.54
289.145	-24.06
289.36	100.86
289.575	-13.82
289.79	55.81
290.004	27.14
290.219	51.71
290.434	-3.58
290.649	-42.5
290.864	29.18
291.079	64
291.294	121.34
291.509	59.9
291.724	90.62
291.938	27.14
292.153	64
292.368	8.7
292.583	88.57
292.798	137.73
293.012	39.42
293.227	29.18
293.442	90.62
293.657	78.33
293.871	96.77
294.086	129.53
294.301	203.26
294.516	139.77
294.73	92.67
294.945	6.66
295.16	27.14
295.374	104.96
295.589	197.12
295.804	-5.63
296.018	35.33
296.233	104.96
296.447	145.92
296.662	2.56
296.877	80.38
297.091	121.34
297.306	49.66
297.52	64
297.735	18.94
297.949	66.05
298.164	45.57
298.378	27.14
298.593	-40.45
298.807	23.04
299.022	39.42
299.236	131.58
299.451	33.28
299.665	-28.16
299.88	76.29
300.094	131.58
300.309	0.51
300.523	53.76
300.737	16.9
300.952	29.18
301.166	61.95
301.381	-65.02
301.595	-1.54
301.809	53.76
302.024	-69.12
302.238	45.57
302.452	109.05
302.667	35.33
302.881	100.86
303.095	129.53
303.309	53.76
303.524	-46.59
303.738	-40.45
303.952	-71.17
304.166	125.44
304.381	-157.18
304.595	119.29
304.809	6.66
305.023	45.57
305.237	20.99
305.452	35.33
305.666	51.71
305.88	123.39
306.094	45.57
306.308	61.95
306.522	113.15
306.736	41.47
306.95	129.53
307.164	0.51
307.379	72.19
307.593	176.64
307.807	156.16
308.021	90.62
308.235	12.8
308.449	-73.21
308.663	53.76
308.877	174.59
309.091	100.86
309.305	55.81
309.519	-46.59
309.733	98.81
309.947	-52.74
310.161	94.72
310.374	160.25
310.588	109.05
310.802	-15.87
311.016	14.85
311.23	94.72
311.444	25.09
311.658	31.23
311.872	135.68
312.085	76.29
312.299	104.96
312.513	86.53
312.727	84.48
312.941	-9.73
313.154	64
313.368	37.38
313.582	20.99
313.796	94.72
314.009	33.28
314.223	115.2
314.437	61.95
314.651	35.33
314.864	-11.78
315.078	18.94
315.292	-42.5
315.505	-19.97
315.719	12.8
315.933	-5.63
316.146	-17.92
316.36	-13.82
316.573	137.73
316.787	96.77
317.001	66.05
317.214	-11.78
317.428	66.05
317.641	-44.54
317.855	-9.73
318.068	64
318.282	107.01
318.495	111.1
318.709	113.15
318.922	8.7
319.136	141.82
319.349	158.21
319.563	-9.73
319.776	133.63
319.99	-7.68
320.203	199.16
320.417	25.09
320.63	84.48
320.843	197.12
321.057	14.85
321.27	41.47
321.483	76.29
321.697	115.2
321.91	33.28
322.124	14.85
322.337	35.33
322.55	25.09
322.763	10.75
322.977	66.05
323.19	39.42
323.403	-19.97
323.617	47.62
323.83	141.82
324.043	47.62
324.256	86.53
324.469	-36.35
324.683	98.81
324.896	90.62
325.109	72.19
325.322	-112.13
325.535	66.05
325.748	104.96
325.962	-52.74
326.175	27.14
326.388	158.21
326.601	119.29
326.814	-46.59
327.027	45.57
327.24	113.15
327.453	-62.98
327.666	92.67
327.879	127.49
328.092	47.62
328.305	121.34
328.518	4.61
328.731	-34.3
328.944	31.23
329.157	111.1
329.37	45.57
329.583	164.35
329.796	102.91
330.009	-7.68
330.222	61.95
330.435	78.33
330.648	31.23
330.861	16.9
331.073	31.23
331.286	109.05
331.499	55.81
331.712	-1.54
331.925	104.96
332.138	64
332.35	70.14
332.563	-40.45
332.776	109.05
332.989	-93.69
333.202	18.94
333.414	31.23
333.627	-13.82
333.84	-38.4
334.053	35.33
334.265	-36.35
334.478	20.99
334.691	6.66
334.903	39.42
335.116	64
335.329	33.28
335.541	84.48
335.754	150.01
335.966	-17.92
336.179	8.7
336.392	23.04
336.604	-28.16
336.817	100.86
337.029	59.9
337.242	41.47
337.454	102.91
337.667	-15.87
337.88	119.29
338.092	25.09
338.305	84.48
338.517	84.48
338.729	109.05
338.942	190.97
339.154	-3.58
339.367	-56.83
339.579	59.9
339.792	-40.45
340.004	123.39
340.217	80.38
340.429	57.86
340.641	-11.78
340.854	39.42
341.066	59.9
341.278	156.16
341.491	201.21
341.703	68.09
341.915	-67.07
342.128	70.14
342.34	-40.45
342.552	-60.93
342.764	20.99
342.977	43.52
343.189	45.57
343.401	66.05
343.613	-38.4
343.826	2.56
344.038	-73.21
344.25	84.48
344.462	-34.3
344.674	10.75
344.886	-34.3
345.099	68.09
345.311	125.44
345.523	20.99
345.735	-79.36
345.947	-1.54
346.159	92.67
346.371	66.05
346.583	-36.35
346.795	174.59
347.007	39.42
347.219	141.82
347.431	16.9
347.643	123.39
347.855	47.62
348.067	182.78
348.279	-52.74
348.491	49.66
348.703	12.8
348.915	104.96
349.127	-13.82
349.339	35.33
349.551	27.14
349.763	129.53
349.975	-24.06
350.187	158.21
350.399	74.24
350.61	96.77
350.822	41.47
351.034	115.2
351.246	123.39
351.458	80.38
351.669	96.77
351.881	90.62
352.093	178.69
352.305	94.72
352.517	90.62
352.728	127.49
352.94	49.66
353.152	20.99
353.363	-26.11
353.575	45.57
353.787	109.05
353.999	78.33
354.21	64
354.422	-22.02
354.633	49.66
354.845	35.33
355.057	78.33
355.268	125.44
355.48	109.05
355.692	-44.54
355.903	23.04
356.115	33.28
356.326	-175.61
356.538	88.57
356.749	82.43
356.961	201.21
357.172	23.04
357.384	2.56
357.595	184.83
357.807	80.38
358.018	25.09
358.23	72.19
358.441	135.68
358.653	-7.68
358.864	98.81
359.075	-13.82
359.287	51.71
359.498	107.01
359.709	135.68
359.921	74.24
360.132	64
360.344	72.19
360.555	-83.45
360.766	82.43
360.977	-17.92
361.189	102.91
361.4	-22.02
361.611	147.97
361.823	92.67
362.034	64
362.245	-42.5
362.456	37.38
362.667	0.51
362.879	-40.45
363.09	23.04
363.301	49.66
363.512	78.33
363.723	2.56
363.935	-24.06
364.146	139.77
364.357	23.04
364.568	-38.4
364.779	-67.07
364.99	113.15
365.201	-130.56
365.412	141.82
365.623	-38.4
365.834	51.71
366.045	29.18
366.256	94.72
366.467	129.53
366.678	-9.73
366.889	-17.92
367.1	61.95
367.311	102.91
367.522	-9.73
367.733	109.05
367.944	113.15
368.155	-60.93
368.366	143.87
368.577	74.24
368.788	96.77
368.999	0.51
369.209	20.99
369.42	154.11
369.631	188.93
369.842	90.62
370.053	35.33
370.264	70.14
370.474	-19.97
370.685	82.43
370.896	20.99
371.107	119.29
371.317	47.62
371.528	12.8
371.739	150.01
371.95	135.68
372.16	127.49
372.371	-28.16
372.582	-26.11
372.792	84.48
373.003	59.9
373.214	55.81
373.424	88.57
373.635	25.09
373.846	115.2
374.056	66.05
374.267	104.96
374.477	115.2
374.688	-11.78
374.898	66.05
375.109	18.94
375.319	-9.73
375.53	109.05
375.74	86.53
375.951	35.33
376.161	10.75
376.372	27.14
376.582	86.53
376.793	45.57
377.003	27.14
377.214	84.48
377.424	68.09
377.635	16.9
377.845	-28.16
378.055	109.05
378.266	-38.4
378.476	104.96
378.686	88.57
378.897	57.86
379.107	137.73
379.317	86.53
379.528	-36.35
379.738	107.01
379.948	12.8
380.158	113.15
380.369	39.42
380.579	78.33
380.789	4.61
380.999	90.62
381.21	-3.58
381.42	170.49
381.63	23.04
381.84	18.94
382.05	102.91
382.261	207.36
382.471	139.77
382.681	-22.02
382.891	201.21
383.101	23.04
383.311	-56.83
383.521	-7.68
383.731	49.66
383.941	145.92
384.151	39.42
384.361	-5.63
384.571	68.09
384.781	43.52
384.991	193.02
385.201	156.16
385.411	82.43
385.621	39.42
385.831	16.9
386.041	141.82
386.251	43.52
386.461	100.86
386.671	-3.58
386.881	96.77
387.091	-44.54
387.301	96.77
387.511	20.99
387.72	18.94
387.93	113.15
388.14	-5.63
388.35	104.96
388.56	129.53
388.769	150.01
388.979	-15.87
389.189	-62.98
389.399	-1.54
389.609	98.81
389.818	29.18
390.028	72.19
390.238	55.81
390.447	-1.54
390.657	59.9
390.867	47.62
391.076	-15.87
391.286	33.28
391.496	0.51
391.705	-5.63
391.915	111.1
392.125	37.38
392.334	25.09
392.544	133.63
392.753	2.56
392.963	14.85
393.172	45.57
393.382	4.61
393.591	254.46
393.801	-3.58
394.01	205.31
394.22	74.24
394.429	29.18
394.639	-44.54
394.848	111.1
395.058	59.9
395.267	10.75
395.477	33.28
395.686	-1.54
395.895	188.93
396.105	172.54
396.314	59.9
396.524	111.1
396.733	64
396.942	150.01
397.152	70.14
397.361	117.25
397.57	82.43
397.78	-30.21
397.989	14.85
398.198	264.7
398.407	39.42
398.617	55.81
398.826	74.24
399.035	57.86
399.244	123.39
399.453	4.61
399.663	64
399.872	84.48
400.081	-58.88
400.29	133.63
400.499	23.04
400.708	156.16
400.917	-5.63
401.127	16.9
401.336	-1.54
401.545	100.86
401.754	150.01
401.963	174.59
402.172	6.66
402.381	-24.06
402.59	16.9
402.799	-5.63
403.008	143.87
403.217	94.72
403.426	88.57
403.635	-40.45
403.844	4.61
404.053	-15.87
404.262	76.29
404.471	256.51
404.68	137.73
404.888	23.04
405.097	-26.11
405.306	68.09
405.515	57.86
405.724	70.14
405.933	119.29
406.142	74.24
406.35	123.39
406.559	84.48
406.768	90.62
406.977	156.16
407.185	47.62
407.394	115.2
407.603	-28.16
407.812	51.71
408.02	109.05
408.229	78.33
408.438	74.24
408.646	23.04
408.855	82.43
409.064	51.71
409.272	-1.54
409.481	37.38
409.69	33.28
409.898	-50.69
410.107	8.7
410.315	82.43
410.524	23.04
410.733	25.09
410.941	23.04
411.15	92.67
411.358	47.62
411.567	172.54
411.775	14.85
411.984	92.67
412.192	59.9
412.401	43.52
412.609	96.77
412.818	162.3
413.026	100.86
413.234	6.66
413.443	41.47
413.651	4.61
413.86	125.44
414.068	162.3
414.276	160.25
414.485	35.33
414.693	145.92
414.901	137.73
415.11	57.86
415.318	55.81
415.526	-9.73
415.734	170.49
415.943	104.96
416.151	168.45
416.359	14.85
416.567	41.47
416.776	143.87
416.984	152.06
417.192	152.06
417.4	12.8
417.608	59.9
417.817	-32.26
418.025	72.19
418.233	205.31
418.441	-7.68
418.649	-1.54
418.857	78.33
419.065	190.97
419.273	94.72
419.481	43.52
419.689	25.09
419.897	49.66
420.105	18.94
420.313	147.97
420.521	115.2
420.729	135.68
420.937	0.51
421.145	-22.02
421.353	119.29
421.561	111.1
421.769	143.87
421.977	-30.21
422.185	80.38
422.393	-3.58
422.601	96.77
422.809	111.1
423.017	80.38
423.224	66.05
423.432	207.36
423.64	70.14
423.848	111.1
424.056	-7.68
424.263	98.81
424.471	74.24
424.679	133.63
424.887	43.52
425.094	104.96
425.302	164.35
425.51	64
425.718	176.64
425.925	35.33
426.133	39.42
426.341	190.97
426.548	139.77
426.756	35.33
426.964	64
427.171	-38.4
427.379	2.56
427.586	31.23
427.794	125.44
428.001	166.4
428.209	76.29
428.417	176.64
428.624	156.16
428.832	160.25
429.039	125.44
429.247	92.67
429.454	55.81
429.662	188.93
429.869	160.25
430.076	139.77
430.284	125.44
430.491	279.04
430.699	104.96
430.906	313.85
431.114	53.76
431.321	137.73
431.528	84.48
431.736	139.77
431.943	86.53
432.15	123.39
432.358	199.16
432.565	270.84
432.772	47.62
432.979	233.98
433.187	64
433.394	287.23
433.601	156.16
433.808	276.99
434.016	248.32
434.223	231.93
434.43	195.07
434.637	268.8
434.844	336.38
435.052	195.07
435.259	281.08
435.466	313.85
435.673	293.37
435.88	317.95
436.087	297.47
436.294	342.52
436.501	356.86
436.708	287.23
436.915	344.57
437.122	367.1
437.329	256.51
437.537	285.18
437.743	395.77
437.95	504.31
438.157	434.68
438.364	313.85
438.571	371.19
438.778	444.92
438.985	483.83
439.192	565.75
439.399	463.35
439.606	514.55
439.813	485.88
440.02	610.81
440.227	688.63
440.433	584.18
440.64	541.18
440.847	569.85
441.054	530.94
441.261	715.25
441.467	702.97
441.674	641.53
441.881	770.55
442.088	619
442.294	774.64
442.501	893.43
442.708	854.51
442.914	797.17
443.121	854.51
443.328	868.85
443.534	981.49
443.741	954.87
443.948	913.91
444.154	1065.46
444.361	1292.78
444.568	961.01
444.774	1116.65
444.981	969.2
445.187	1290.73
445.394	1202.67
445.6	1231.34
445.807	1423.85
446.013	1382.89
446.22	1339.88
446.426	1546.73
446.633	1675.75
446.839	1786.34
447.046	1460.71
447.252	1722.85
447.459	1663.46
447.665	1708.52
447.871	1837.54
448.078	2075.1
448.284	1935.84
448.491	2183.65
448.697	2183.65
448.903	2277.85
449.11	2361.82
449.316	2400.73
449.522	2542.04
449.728	2587.1
449.935	2707.93
450.141	2722.26
450.347	2953.68
450.553	2877.91
450.76	2929.11
450.966	2994.64
451.172	3176.91
451.378	3398.09
451.584	3426.76
451.791	3606.98
451.997	3799.49
452.203	3817.93
452.409	3869.12
452.615	4145.6
452.821	4170.18
453.027	4164.03
453.233	4739.51
453.44	4549.05
453.646	4690.36
453.852	5026.23
454.058	5130.67
454.264	5317.04
454.47	5601.71
454.676	5747.11
454.882	6070.69
455.088	5966.24
455.294	6203.81
455.5	6623.64
455.705	7006.61
455.911	7082.39
456.117	7315.86
456.323	7526.8
456.529	7616.91
456.735	8339.84
456.941	8563.07
457.147	8661.37
457.352	8876.41
457.558	9300.34
457.764	9793.9
457.97	10074.47
458.176	10400.1
458.381	10885.47
458.587	11077.97
458.793	11598.16
458.999	11700.56
459.204	13107.51
459.41	13523.25
459.616	13338.93
459.821	14072.11
460.027	14815.52
460.233	15391
460.438	15501.59
460.644	16361.73
460.85	16785.66
461.055	17410.29
461.261	18127.08
461.466	17731.83
461.672	17967.34
461.878	20340.94
462.083	20119.76
462.289	20785.35
462.494	21330.11
462.7	21551.29
462.905	21868.72
463.111	23611.54
463.316	24731.78
463.522	25151.62
463.727	26054.77
463.932	27064.42
464.138	27887.7
464.343	28631.12
464.549	29024.33
464.754	31211.56
464.959	32024.6
465.165	32589.84
465.37	32253.97
465.575	32368.66
465.781	34285.56
465.986	35383.27
466.191	35096.55
466.397	35536.87
466.602	34699.25
466.807	36610
467.012	37449.67
467.218	37711.81
467.423	38100.92
467.628	38895.53
467.833	40972.17
468.038	39958.43
468.244	39673.76
468.449	41668.48
468.654	40781.71
468.859	40466.33
469.064	40910.74
469.269	39696.29
469.474	40136.6
