Data from USB4F104151__94__10-45-04-465.txt Node

Date: Wed Feb 26 10:45:04 EST 2025
User: louis
Spectrometer: USB4F10415
Trigger mode: 4
Integration Time (sec): 1.000000E-1
Scans to average: 1
Electric dark correction enabled: true
Nonlinearity correction enabled: false
Boxcar width: 0
XAxis mode: Wavelengths
Number of Pixels in Spectrum: 3648
>>>>>Begin Spectral Data<<<<<
178.204	-383.65
178.424	-383.65
178.644	-383.65
178.864	-416.42
179.084	-314.02
179.304	-19.11
179.524	-111.27
179.744	60.76
179.964	56.66
180.184	25.94
180.404	60.76
180.624	-29.35
180.844	3.41
181.064	-103.08
181.283	109.91
181.503	-74.41
181.723	19.8
181.943	-127.66
182.163	208.21
182.383	-60.07
182.602	46.42
182.822	154.96
183.042	62.8
183.262	40.28
183.482	1.37
183.701	5.46
183.921	11.61
184.141	15.7
184.361	132.44
184.58	27.99
184.8	68.95
185.02	-29.35
185.239	128.34
185.459	95.57
185.679	148.82
185.898	-158.38
186.118	66.9
186.338	11.61
186.557	77.14
186.777	-41.64
186.997	-10.92
187.216	44.37
187.436	114
187.655	97.62
187.875	-31.4
188.095	-47.79
188.314	109.91
188.534	165.2
188.753	-6.83
188.973	105.81
189.192	202.07
189.412	19.8
189.631	68.95
189.851	146.77
190.07	181.59
190.29	-96.94
190.509	9.56
190.729	-10.92
190.948	91.48
191.168	224.59
191.387	38.23
191.607	44.37
191.826	144.72
192.045	-12.97
192.265	73.04
192.484	105.81
192.704	32.08
192.923	-21.16
193.142	189.78
193.362	89.43
193.581	62.8
193.8	48.47
194.02	154.96
194.239	66.9
194.458	32.08
194.678	36.18
194.897	-41.64
195.116	58.71
195.335	62.8
195.555	9.56
195.774	-58.03
195.993	124.24
196.212	-39.59
196.432	32.08
196.651	21.85
196.87	21.85
197.089	175.44
197.308	81.24
197.528	66.9
197.747	-62.12
197.966	36.18
198.185	128.34
198.404	3.41
198.623	73.04
198.842	97.62
199.062	77.14
199.281	136.53
199.5	73.04
199.719	152.91
199.938	34.13
200.157	56.66
200.376	136.53
200.595	140.63
200.814	15.7
201.033	19.8
201.252	206.16
201.471	42.32
201.69	109.91
201.909	25.94
202.128	97.62
202.347	136.53
202.566	83.28
202.785	-72.36
203.004	-0.68
203.223	206.16
203.442	52.56
203.661	-15.02
203.879	83.28
204.098	136.53
204.317	42.32
204.536	85.33
204.755	64.85
204.974	114
205.193	-27.31
205.411	175.44
205.63	116.05
205.849	89.43
206.068	58.71
206.287	-4.78
206.505	105.81
206.724	21.85
206.943	5.46
207.162	64.85
207.381	97.62
207.599	32.08
207.818	19.8
208.037	-8.87
208.255	54.61
208.474	93.52
208.693	97.62
208.911	25.94
209.13	148.82
209.349	95.57
209.567	42.32
209.786	73.04
210.005	142.68
210.223	-6.83
210.442	-115.37
210.661	27.99
210.879	95.57
211.098	89.43
211.316	97.62
211.535	91.48
211.753	68.95
211.972	42.32
212.191	25.94
212.409	-29.35
212.628	159.06
212.846	-15.02
213.065	146.77
213.283	122.2
213.502	27.99
213.72	44.37
213.938	21.85
214.157	-10.92
214.375	89.43
214.594	52.56
214.812	120.15
215.031	1.37
215.249	-19.11
215.467	-10.92
215.686	52.56
215.904	66.9
216.122	27.99
216.341	163.15
216.559	87.38
216.778	62.8
216.996	144.72
217.214	81.24
217.432	-39.59
217.651	-10.92
217.869	75.09
218.087	111.96
218.306	46.42
218.524	42.32
218.742	-33.45
218.96	87.38
219.179	75.09
219.397	83.28
219.615	300.37
219.833	154.96
220.051	-12.97
220.27	73.04
220.488	122.2
220.706	75.09
220.924	-60.07
221.142	30.04
221.36	64.85
221.578	167.25
221.796	30.04
222.015	9.56
222.233	-6.83
222.451	134.48
222.669	-27.31
222.887	77.14
223.105	-4.78
223.323	11.61
223.541	-2.73
223.759	21.85
223.977	73.04
224.195	195.92
224.413	64.85
224.631	54.61
224.849	-15.02
225.067	230.74
225.285	21.85
225.503	-62.12
225.721	-60.07
225.939	19.8
226.157	50.52
226.375	165.2
226.592	21.85
226.81	114
227.028	107.86
227.246	165.2
227.464	146.77
227.682	62.8
227.9	114
228.117	19.8
228.335	73.04
228.553	32.08
228.771	30.04
228.989	25.94
229.206	126.29
229.424	3.41
229.642	93.52
229.86	-62.12
230.077	177.49
230.295	85.33
230.513	157.01
230.731	38.23
230.948	173.39
231.166	93.52
231.384	-19.11
231.601	-25.26
231.819	165.2
232.037	38.23
232.254	-10.92
232.472	54.61
232.689	17.75
232.907	150.87
233.125	36.18
233.342	40.28
233.56	40.28
233.777	-2.73
233.995	9.56
234.213	114
234.43	30.04
234.648	81.24
234.865	40.28
235.083	85.33
235.3	77.14
235.518	144.72
235.735	81.24
235.953	91.48
236.17	46.42
236.388	81.24
236.605	-37.55
236.822	91.48
237.04	179.54
237.257	81.24
237.475	7.51
237.692	21.85
237.909	58.71
238.127	-43.69
238.344	134.48
238.562	36.18
238.779	-39.59
238.996	-58.03
239.214	-15.02
239.431	105.81
239.648	85.33
239.865	42.32
240.083	114
240.3	-15.02
240.517	-31.4
240.735	34.13
240.952	191.83
241.169	34.13
241.386	50.52
241.603	7.51
241.821	15.7
242.038	126.29
242.255	105.81
242.472	-62.12
242.689	103.76
242.907	50.52
243.124	40.28
243.341	38.23
243.558	-12.97
243.775	-72.36
243.992	-84.65
244.209	154.96
244.426	214.35
244.643	64.85
244.86	56.66
245.078	58.71
245.295	13.65
245.512	32.08
245.729	21.85
245.946	105.81
246.163	-17.07
246.38	36.18
246.597	64.85
246.814	73.04
247.031	32.08
247.248	-19.11
247.464	50.52
247.681	91.48
247.898	60.76
248.115	150.87
248.332	50.52
248.549	109.91
248.766	87.38
248.983	126.29
249.2	97.62
249.417	167.25
249.633	27.99
249.85	68.95
250.067	42.32
250.284	30.04
250.501	120.15
250.717	138.58
250.934	7.51
251.151	97.62
251.368	-29.35
251.585	93.52
251.801	44.37
252.018	-19.11
252.235	120.15
252.451	-37.55
252.668	75.09
252.885	85.33
253.102	66.9
253.318	-25.26
253.535	34.13
253.752	73.04
253.968	120.15
254.185	-113.32
254.401	71
254.618	109.91
254.835	73.04
255.051	95.57
255.268	93.52
255.484	-8.87
255.701	64.85
255.917	32.08
256.134	-33.45
256.351	27.99
256.567	-58.03
256.784	-41.64
257	-84.65
257.217	120.15
257.433	109.91
257.65	83.28
257.866	87.38
258.082	-27.31
258.299	-12.97
258.515	66.9
258.732	62.8
258.948	85.33
259.165	42.32
259.381	-12.97
259.597	122.2
259.814	77.14
260.03	38.23
260.246	-2.73
260.463	204.11
260.679	228.69
260.895	34.13
261.112	68.95
261.328	62.8
261.544	-27.31
261.761	175.44
261.977	-27.31
262.193	5.46
262.409	34.13
262.626	25.94
262.842	42.32
263.058	44.37
263.274	116.05
263.49	95.57
263.707	93.52
263.923	68.95
264.139	-25.26
264.355	46.42
264.571	185.68
264.787	122.2
265.004	109.91
265.22	11.61
265.436	-19.11
265.652	40.28
265.868	126.29
266.084	11.61
266.3	124.24
266.516	-0.68
266.732	42.32
266.948	68.95
267.164	17.75
267.38	142.68
267.596	9.56
267.812	210.26
268.028	62.8
268.244	60.76
268.46	34.13
268.676	-43.69
268.892	87.38
269.108	-21.16
269.324	-45.74
269.54	-74.41
269.756	118.1
269.972	-45.74
270.188	3.41
270.403	58.71
270.619	25.94
270.835	60.76
271.051	9.56
271.267	34.13
271.483	15.7
271.698	77.14
271.914	-8.87
272.13	58.71
272.346	7.51
272.562	83.28
272.777	103.76
272.993	50.52
273.209	68.95
273.425	25.94
273.64	-29.35
273.856	183.63
274.072	-49.83
274.287	-23.21
274.503	54.61
274.719	42.32
274.934	40.28
275.15	-33.45
275.366	101.72
275.581	-43.69
275.797	58.71
276.012	-25.26
276.228	40.28
276.444	83.28
276.659	167.25
276.875	5.46
277.09	19.8
277.306	13.65
277.521	89.43
277.737	83.28
277.952	44.37
278.168	91.48
278.383	73.04
278.599	107.86
278.814	95.57
279.03	-0.68
279.245	114
279.461	15.7
279.676	91.48
279.892	-51.88
280.107	1.37
280.322	1.37
280.538	44.37
280.753	36.18
280.969	46.42
281.184	58.71
281.399	146.77
281.615	77.14
281.83	101.72
282.045	-78.51
282.26	-21.16
282.476	122.2
282.691	130.39
282.906	1.37
283.122	105.81
283.337	-12.97
283.552	40.28
283.767	11.61
283.983	68.95
284.198	60.76
284.413	17.75
284.628	-58.03
284.843	23.89
285.058	103.76
285.274	9.56
285.489	-6.83
285.704	122.2
285.919	1.37
286.134	116.05
286.349	25.94
286.564	-2.73
286.779	136.53
286.995	21.85
287.21	-55.98
287.425	120.15
287.64	21.85
287.855	27.99
288.07	-53.93
288.285	116.05
288.5	124.24
288.715	111.96
288.93	157.01
289.145	-45.74
289.36	75.09
289.575	32.08
289.79	130.39
290.004	-2.73
290.219	130.39
290.434	-6.83
290.649	-72.36
290.864	34.13
291.079	21.85
291.294	40.28
291.509	79.19
291.724	-4.78
291.938	95.57
292.153	60.76
292.368	7.51
292.583	111.96
292.798	109.91
293.012	75.09
293.227	-6.83
293.442	-23.21
293.657	116.05
293.871	140.63
294.086	68.95
294.301	122.2
294.516	103.76
294.73	46.42
294.945	5.46
295.16	42.32
295.374	34.13
295.589	105.81
295.804	56.66
296.018	23.89
296.233	159.06
296.447	71
296.662	-25.26
296.877	79.19
297.091	66.9
297.306	56.66
297.52	17.75
297.735	107.86
297.949	-19.11
298.164	75.09
298.378	56.66
298.593	-17.07
298.807	-64.17
299.022	89.43
299.236	163.15
299.451	75.09
299.665	11.61
299.88	-4.78
300.094	99.67
300.309	77.14
300.523	103.76
300.737	36.18
300.952	81.24
301.166	11.61
301.381	-21.16
301.595	27.99
301.809	58.71
302.024	87.38
302.238	-27.31
302.452	130.39
302.667	97.62
302.881	71
303.095	91.48
303.309	36.18
303.524	9.56
303.738	68.95
303.952	-21.16
304.166	89.43
304.381	-107.18
304.595	193.87
304.809	19.8
305.023	36.18
305.237	-4.78
305.452	1.37
305.666	109.91
305.88	64.85
306.094	126.29
306.308	71
306.522	87.38
306.736	60.76
306.95	114
307.164	-29.35
307.379	64.85
307.593	93.52
307.807	157.01
308.021	111.96
308.235	89.43
308.449	-17.07
308.663	-0.68
308.877	200.02
309.091	7.51
309.305	128.34
309.519	-119.46
309.733	109.91
309.947	-60.07
310.161	97.62
310.374	103.76
310.588	124.24
310.802	-12.97
311.016	-4.78
311.23	85.33
311.444	-0.68
311.658	-25.26
311.872	89.43
312.085	200.02
312.299	212.31
312.513	144.72
312.727	9.56
312.941	-2.73
313.154	32.08
313.368	68.95
313.582	62.8
313.796	-17.07
314.009	54.61
314.223	118.1
314.437	68.95
314.651	124.24
314.864	60.76
315.078	21.85
315.292	-78.51
315.505	-62.12
315.719	19.8
315.933	-27.31
316.146	-25.26
316.36	9.56
316.573	91.48
316.787	126.29
317.001	17.75
317.214	-17.07
317.428	79.19
317.641	-37.55
317.855	27.99
318.068	62.8
318.282	50.52
318.495	154.96
318.709	32.08
318.922	-21.16
319.136	208.21
319.349	146.77
319.563	58.71
319.776	52.56
319.99	-66.22
320.203	157.01
320.417	54.61
320.63	48.47
320.843	187.73
321.057	83.28
321.27	-8.87
321.483	101.72
321.697	116.05
321.91	71
322.124	77.14
322.337	40.28
322.55	-60.07
322.763	50.52
322.977	42.32
323.19	19.8
323.403	36.18
323.617	54.61
323.83	109.91
324.043	81.24
324.256	120.15
324.469	-82.6
324.683	103.76
324.896	44.37
325.109	89.43
325.322	-4.78
325.535	126.29
325.748	85.33
325.962	-25.26
326.175	120.15
326.388	44.37
326.601	87.38
326.814	-47.79
327.027	44.37
327.24	146.77
327.453	25.94
327.666	-12.97
327.879	120.15
328.092	25.94
328.305	56.66
328.518	21.85
328.731	105.81
328.944	46.42
329.157	75.09
329.37	-19.11
329.583	167.25
329.796	114
330.009	-4.78
330.222	64.85
330.435	79.19
330.648	48.47
330.861	167.25
331.073	126.29
331.286	58.71
331.499	44.37
331.712	21.85
331.925	73.04
332.138	68.95
332.35	38.23
332.563	-4.78
332.776	109.91
332.989	21.85
333.202	38.23
333.414	34.13
333.627	1.37
333.84	44.37
334.053	91.48
334.265	-4.78
334.478	-33.45
334.691	15.7
334.903	38.23
335.116	-82.6
335.329	77.14
335.541	132.44
335.754	159.06
335.966	85.33
336.179	68.95
336.392	1.37
336.604	79.19
336.817	116.05
337.029	93.52
337.242	-6.83
337.454	195.92
337.667	19.8
337.88	81.24
338.092	44.37
338.305	154.96
338.517	71
338.729	124.24
338.942	202.07
339.154	13.65
339.367	-82.6
339.579	-8.87
339.792	-12.97
340.004	83.28
340.217	68.95
340.429	1.37
340.641	5.46
340.854	-37.55
341.066	60.76
341.278	167.25
341.491	157.01
341.703	56.66
341.915	-19.11
342.128	122.2
342.34	73.04
342.552	-31.4
342.764	42.32
342.977	32.08
343.189	50.52
343.401	79.19
343.613	-58.03
343.826	73.04
344.038	-4.78
344.25	71
344.462	-55.98
344.674	75.09
344.886	56.66
345.099	44.37
345.311	77.14
345.523	-12.97
345.735	-15.02
345.947	34.13
346.159	48.47
346.371	118.1
346.583	34.13
346.795	189.78
347.007	56.66
347.219	122.2
347.431	27.99
347.643	68.95
347.855	44.37
348.067	167.25
348.279	-146.09
348.491	17.75
348.703	56.66
348.915	-0.68
349.127	7.51
349.339	60.76
349.551	21.85
349.763	81.24
349.975	79.19
350.187	68.95
350.399	85.33
350.61	32.08
350.822	-33.45
351.034	9.56
351.246	60.76
351.458	32.08
351.669	87.38
351.881	54.61
352.093	138.58
352.305	144.72
352.517	154.96
352.728	93.52
352.94	75.09
353.152	81.24
353.363	-8.87
353.575	60.76
353.787	103.76
353.999	68.95
354.21	173.39
354.422	15.7
354.633	62.8
354.845	-2.73
355.057	60.76
355.268	75.09
355.48	93.52
355.692	13.65
355.903	21.85
356.115	34.13
356.326	-60.07
356.538	173.39
356.749	17.75
356.961	107.86
357.172	54.61
357.384	15.7
357.595	204.11
357.807	128.34
358.018	-25.26
358.23	17.75
358.441	138.58
358.653	-12.97
358.864	44.37
359.075	-45.74
359.287	19.8
359.498	132.44
359.709	109.91
359.921	83.28
360.132	11.61
360.344	-6.83
360.555	71
360.766	21.85
360.977	56.66
361.189	171.35
361.4	5.46
361.611	136.53
361.823	136.53
362.034	50.52
362.245	-31.4
362.456	17.75
362.667	68.95
362.879	21.85
363.09	85.33
363.301	27.99
363.512	52.56
363.723	19.8
363.935	-47.79
364.146	93.52
364.357	32.08
364.568	114
364.779	-94.89
364.99	101.72
365.201	42.32
365.412	68.95
365.623	-51.88
365.834	50.52
366.045	111.96
366.256	79.19
366.467	66.9
366.678	23.89
366.889	60.76
367.1	5.46
367.311	179.54
367.522	71
367.733	134.48
367.944	-19.11
368.155	68.95
368.366	64.85
368.577	87.38
368.788	101.72
368.999	-27.31
369.209	81.24
369.42	154.96
369.631	267.6
369.842	97.62
370.053	38.23
370.264	58.71
370.474	-86.7
370.685	111.96
370.896	77.14
371.107	58.71
371.317	71
371.528	-41.64
371.739	71
371.95	136.53
372.16	134.48
372.371	-64.17
372.582	11.61
372.792	64.85
373.003	-6.83
373.214	-2.73
373.424	111.96
373.635	13.65
373.846	122.2
374.056	27.99
374.267	48.47
374.477	97.62
374.688	3.41
374.898	34.13
375.109	36.18
375.319	38.23
375.53	114
375.74	120.15
375.951	91.48
376.161	50.52
376.372	136.53
376.582	-0.68
376.793	60.76
377.003	17.75
377.214	-68.27
377.424	-39.59
377.635	7.51
377.845	-33.45
378.055	150.87
378.266	-86.7
378.476	13.65
378.686	95.57
378.897	64.85
379.107	107.86
379.317	109.91
379.528	1.37
379.738	85.33
379.948	-86.7
380.158	146.77
380.369	30.04
380.579	116.05
380.789	120.15
380.999	109.91
381.21	9.56
381.42	161.11
381.63	101.72
381.84	124.24
382.05	105.81
382.261	68.95
382.471	122.2
382.681	19.8
382.891	132.44
383.101	103.76
383.311	-4.78
383.521	-58.03
383.731	99.67
383.941	56.66
384.151	44.37
384.361	9.56
384.571	-23.21
384.781	89.43
384.991	204.11
385.201	173.39
385.411	77.14
385.621	36.18
385.831	36.18
386.041	83.28
386.251	13.65
386.461	77.14
386.671	-17.07
386.881	13.65
387.091	66.9
387.301	73.04
387.511	83.28
387.72	87.38
387.93	109.91
388.14	19.8
388.35	71
388.56	120.15
388.769	101.72
388.979	50.52
389.189	-80.55
389.399	23.89
389.609	132.44
389.818	42.32
390.028	124.24
390.238	93.52
390.447	-29.35
390.657	87.38
390.867	64.85
391.076	-2.73
391.286	54.61
391.496	21.85
391.705	83.28
391.915	71
392.125	50.52
392.334	60.76
392.544	140.63
392.753	73.04
392.963	36.18
393.172	-29.35
393.382	25.94
393.591	175.44
393.801	-53.93
394.01	126.29
394.22	48.47
394.429	17.75
394.639	3.41
394.848	71
395.058	50.52
395.267	-6.83
395.477	109.91
395.686	5.46
395.895	154.96
396.105	208.21
396.314	85.33
396.524	-6.83
396.733	75.09
396.942	101.72
397.152	85.33
397.361	66.9
397.57	114
397.78	-19.11
397.989	122.2
398.198	208.21
398.407	13.65
398.617	40.28
398.826	5.46
399.035	34.13
399.244	138.58
399.453	91.48
399.663	62.8
399.872	27.99
400.081	-12.97
400.29	144.72
400.499	3.41
400.708	126.29
400.917	36.18
401.127	5.46
401.336	-47.79
401.545	189.78
401.754	136.53
401.963	124.24
402.172	75.09
402.381	1.37
402.59	81.24
402.799	-6.83
403.008	97.62
403.217	79.19
403.426	171.35
403.635	-49.83
403.844	38.23
404.053	-2.73
404.262	-19.11
404.471	124.24
404.68	44.37
404.888	32.08
405.097	75.09
405.306	36.18
405.515	75.09
405.724	23.89
405.933	167.25
406.142	27.99
406.35	134.48
406.559	77.14
406.768	27.99
406.977	222.55
407.185	75.09
407.394	99.67
407.603	-25.26
407.812	140.63
408.02	200.02
408.229	44.37
408.438	64.85
408.646	-35.5
408.855	23.89
409.064	111.96
409.272	48.47
409.481	85.33
409.69	42.32
409.898	21.85
410.107	1.37
410.315	81.24
410.524	5.46
410.733	73.04
410.941	103.76
411.15	165.2
411.358	58.71
411.567	179.54
411.775	52.56
411.984	44.37
412.192	48.47
412.401	36.18
412.609	173.39
412.818	136.53
413.026	91.48
413.234	27.99
413.443	60.76
413.651	-60.07
413.86	97.62
414.068	144.72
414.276	154.96
414.485	44.37
414.693	200.02
414.901	130.39
415.11	111.96
415.318	-23.21
415.526	75.09
415.734	126.29
415.943	109.91
416.151	206.16
416.359	120.15
416.567	85.33
416.776	116.05
416.984	130.39
417.192	150.87
417.4	13.65
417.608	58.71
417.817	-55.98
418.025	146.77
418.233	195.92
418.441	11.61
418.649	56.66
418.857	64.85
419.065	163.15
419.273	97.62
419.481	73.04
419.689	93.52
419.897	79.19
420.105	34.13
420.313	165.2
420.521	167.25
420.729	240.98
420.937	-49.83
421.145	42.32
421.353	218.45
421.561	154.96
421.769	138.58
421.977	3.41
422.185	116.05
422.393	-19.11
422.601	157.01
422.809	103.76
423.017	111.96
423.224	79.19
423.432	159.06
423.64	32.08
423.848	105.81
424.056	-25.26
424.263	93.52
424.471	77.14
424.679	130.39
424.887	-6.83
425.094	144.72
425.302	77.14
425.51	71
425.718	163.15
425.925	105.81
426.133	21.85
426.341	212.31
426.548	40.28
426.756	58.71
426.964	163.15
427.171	17.75
427.379	77.14
427.586	71
427.794	124.24
428.001	134.48
428.209	62.8
428.417	161.11
428.624	62.8
428.832	87.38
429.039	52.56
429.247	114
429.454	58.71
429.662	200.02
429.869	134.48
430.076	101.72
430.284	95.57
430.491	277.84
430.699	154.96
430.906	234.83
431.114	181.59
431.321	171.35
431.528	89.43
431.736	165.2
431.943	142.68
432.15	122.2
432.358	179.54
432.565	308.56
432.772	77.14
432.979	218.45
433.187	111.96
433.394	294.22
433.601	142.68
433.808	263.51
434.016	275.79
434.223	220.5
434.43	290.13
434.637	273.75
434.844	296.27
435.052	271.7
435.259	316.75
435.466	275.79
435.673	312.66
435.88	290.13
436.087	347.47
436.294	294.22
436.501	347.47
436.708	316.75
436.915	331.09
437.122	408.91
437.329	234.83
437.537	359.76
437.743	390.48
437.95	507.21
438.157	423.25
438.364	382.29
438.571	408.91
438.778	480.59
438.985	523.6
439.192	527.69
439.399	488.78
439.606	523.6
439.813	513.36
440.02	587.08
440.227	787.79
440.433	640.33
440.64	599.37
440.847	556.36
441.054	662.86
441.261	707.91
441.467	677.2
441.674	636.24
441.881	793.93
442.088	658.76
442.294	808.26
442.501	871.75
442.708	943.43
442.914	851.27
443.121	863.56
443.328	931.14
443.534	1084.74
443.741	984.39
443.948	814.41
444.154	1058.12
444.361	1181
444.568	1031.49
444.774	1058.12
444.981	1054.02
445.187	1314.11
445.394	1183.04
445.6	1224
445.807	1338.69
446.013	1334.59
446.22	1303.87
446.426	1447.23
446.633	1623.36
446.839	1678.65
447.046	1563.97
447.252	1668.41
447.459	1715.52
447.665	1754.43
447.871	1916.22
448.078	2090.29
448.284	1887.54
448.491	2159.92
448.697	2266.42
448.903	2235.7
449.11	2362.67
449.316	2313.52
449.522	2495.79
449.728	2598.19
449.935	2637.1
450.141	2682.16
450.347	2919.72
450.553	2854.19
450.76	2948.39
450.966	3136.81
451.172	3149.09
451.378	3405.09
451.584	3446.05
451.791	3738.91
451.997	3781.92
452.203	3884.31
452.409	3935.51
452.615	4089.11
452.821	4054.3
453.027	4136.21
453.233	4709.65
453.44	4510.99
453.646	4728.08
453.852	4951.31
454.058	5287.17
454.264	5213.45
454.47	5573.89
454.676	5561.6
454.882	5999.87
455.088	5979.39
455.294	6178.04
455.5	6399.22
455.705	7064.81
455.911	7044.33
456.117	7111.91
456.323	7402.72
456.529	7437.54
456.735	8215.77
456.941	8361.17
457.147	8778.96
457.352	8858.83
457.558	9188.55
457.764	9669.83
457.97	10054.84
458.176	10249.4
458.381	10566.84
458.587	11125.93
458.793	11644.07
458.999	11709.6
459.204	12735.64
459.41	13468.81
459.616	13231.24
459.821	13958.27
460.027	14556.28
460.233	15301.74
460.438	15443.05
460.644	16151.65
460.85	16327.77
461.055	16880.72
461.261	17933.38
461.466	17333.32
461.672	17859.65
461.878	19969.06
462.083	20012.07
462.289	20071.46
462.494	20808.73
462.7	21353.49
462.905	21476.37
463.111	23077.88
463.316	24179.68
463.522	24859.61
463.727	25367.51
463.932	26639.29
464.138	27016.12
464.343	28271.53
464.549	28427.17
464.754	30454.66
464.959	31392.63
465.165	31693.68
465.37	31535.99
465.575	31947.63
465.781	33880.91
465.986	35121.98
466.191	34499.4
466.397	34366.28
466.602	33911.63
466.807	35377.98
467.012	36313.9
467.218	37182.24
467.423	36940.58
467.628	38175.5
467.833	40076.02
468.038	39035.65
468.244	38552.33
468.449	40569.58
468.654	39930.61
468.859	39398.14
469.064	39715.58
469.269	38863.62
