Data from USB4F104151__12__10-41-45-286.txt Node

Date: Wed Feb 26 10:41:45 EST 2025
User: louis
Spectrometer: USB4F10415
Trigger mode: 4
Integration Time (sec): 1.000000E-1
Scans to average: 1
Electric dark correction enabled: true
Nonlinearity correction enabled: false
Boxcar width: 0
XAxis mode: Wavelengths
Number of Pixels in Spectrum: 3648
>>>>>Begin Spectral Data<<<<<
178.204	-374.61
178.424	-374.61
178.644	-374.61
178.864	-427.85
179.084	-395.09
179.304	6.31
179.524	-16.21
179.744	-30.55
179.964	-28.5
180.184	84.14
180.404	28.84
180.624	-34.64
180.844	-40.79
181.064	-87.89
181.283	67.75
181.503	-18.26
181.723	69.8
181.943	-143.19
182.163	196.78
182.383	26.79
182.602	92.33
182.822	125.1
183.042	24.75
183.262	55.47
183.482	73.9
183.701	30.89
183.921	49.32
184.141	-63.32
184.361	55.47
184.58	26.79
184.8	94.38
185.02	-3.93
185.239	135.34
185.459	65.71
185.679	114.86
185.898	-112.47
186.118	80.04
186.338	102.57
186.557	170.15
186.777	-18.26
186.997	-42.84
187.216	86.19
187.436	194.73
187.655	92.33
187.875	178.34
188.095	-36.69
188.314	176.3
188.534	80.04
188.753	-87.89
188.973	131.24
189.192	184.49
189.412	-1.88
189.631	39.08
189.851	86.19
190.07	139.43
190.29	0.17
190.509	30.89
190.729	20.65
190.948	80.04
191.168	215.21
191.387	30.89
191.607	18.6
191.826	45.23
192.045	2.22
192.265	-36.69
192.484	51.37
192.704	80.04
192.923	-32.6
193.142	155.82
193.362	125.1
193.581	104.62
193.8	4.27
194.02	63.66
194.239	59.56
194.458	47.27
194.678	41.13
194.897	8.36
195.116	98.47
195.335	-3.93
195.555	98.47
195.774	30.89
195.993	137.38
196.212	26.79
196.432	-30.55
196.651	-3.93
196.87	-5.97
197.089	202.92
197.308	18.6
197.528	77.99
197.747	4.27
197.966	8.36
198.185	166.06
198.404	16.55
198.623	43.18
198.842	96.43
199.062	59.56
199.281	188.58
199.5	51.37
199.719	100.52
199.938	102.57
200.157	53.42
200.376	131.24
200.595	168.1
200.814	100.52
201.033	-26.45
201.252	153.77
201.471	108.71
201.69	28.84
201.909	18.6
202.128	116.9
202.347	63.66
202.566	6.31
202.785	-3.93
203.004	-12.12
203.223	262.31
203.442	53.42
203.661	-75.6
203.879	106.67
204.098	71.85
204.317	-28.5
204.536	88.23
204.755	100.52
204.974	37.03
205.193	69.8
205.411	153.77
205.63	86.19
205.849	-10.07
206.068	104.62
206.287	8.36
206.505	121
206.724	45.23
206.943	55.47
207.162	-1.88
207.381	100.52
207.599	51.37
207.818	100.52
208.037	-79.7
208.255	47.27
208.474	86.19
208.693	77.99
208.911	20.65
209.13	100.52
209.349	55.47
209.567	123.05
209.786	45.23
210.005	45.23
210.223	14.51
210.442	-94.04
210.661	106.67
210.879	149.67
211.098	-3.93
211.316	61.61
211.535	92.33
211.753	22.7
211.972	143.53
212.191	16.55
212.409	49.32
212.628	94.38
212.846	0.17
213.065	57.51
213.283	123.05
213.502	10.41
213.72	-1.88
213.938	-81.75
214.157	6.31
214.375	98.47
214.594	30.89
214.812	88.23
215.031	8.36
215.249	4.27
215.467	90.28
215.686	22.7
215.904	80.04
216.122	18.6
216.341	184.49
216.559	-16.21
216.778	59.56
216.996	192.68
217.214	-102.23
217.432	43.18
217.651	22.7
217.869	39.08
218.087	61.61
218.306	2.22
218.524	98.47
218.742	-5.97
218.96	180.39
219.179	-10.07
219.397	43.18
219.615	297.13
219.833	147.62
220.051	-12.12
220.27	47.27
220.488	116.9
220.706	73.9
220.924	-1.88
221.142	2.22
221.36	90.28
221.578	45.23
221.796	-1.88
222.015	34.99
222.233	-30.55
222.451	147.62
222.669	-8.02
222.887	51.37
223.105	14.51
223.323	45.23
223.541	-16.21
223.759	135.34
223.977	69.8
224.195	170.15
224.413	53.42
224.631	0.17
224.849	100.52
225.067	243.88
225.285	-5.97
225.503	49.32
225.721	-128.85
225.939	57.51
226.157	73.9
226.375	194.73
226.592	65.71
226.81	110.76
227.028	77.99
227.246	121
227.464	69.8
227.682	47.27
227.9	39.08
228.117	16.55
228.335	94.38
228.553	20.65
228.771	59.56
228.989	-28.5
229.206	84.14
229.424	18.6
229.642	-67.41
229.86	2.22
230.077	182.44
230.295	-30.55
230.513	71.85
230.731	-30.55
230.948	86.19
231.166	123.05
231.384	-28.5
231.601	-26.45
231.819	223.4
232.037	-24.4
232.254	-48.98
232.472	92.33
232.689	-36.69
232.907	114.86
233.125	6.31
233.342	10.41
233.56	-24.4
233.777	24.75
233.995	-38.74
234.213	96.43
234.43	147.62
234.648	-14.17
234.865	4.27
235.083	86.19
235.3	84.14
235.518	-12.12
235.735	190.63
235.953	118.95
236.17	67.75
236.388	43.18
236.605	28.84
236.822	45.23
237.04	116.9
237.257	37.03
237.475	-34.64
237.692	39.08
237.909	63.66
238.127	43.18
238.344	84.14
238.562	55.47
238.779	-16.21
238.996	-38.74
239.214	37.03
239.431	10.41
239.648	-22.36
239.865	61.61
240.083	61.61
240.3	39.08
240.517	18.6
240.735	22.7
240.952	133.29
241.169	102.57
241.386	137.38
241.603	14.51
241.821	18.6
242.038	69.8
242.255	133.29
242.472	-34.64
242.689	108.71
242.907	96.43
243.124	82.09
243.341	55.47
243.558	28.84
243.775	-22.36
243.992	-8.02
244.209	75.95
244.426	194.73
244.643	90.28
244.86	37.03
245.078	51.37
245.295	49.32
245.512	14.51
245.729	6.31
245.946	110.76
246.163	63.66
246.38	-55.12
246.597	92.33
246.814	45.23
247.031	69.8
247.248	14.51
247.464	71.85
247.681	116.9
247.898	88.23
248.115	18.6
248.332	-22.36
248.549	108.71
248.766	172.2
248.983	104.62
249.2	59.56
249.417	147.62
249.633	-26.45
249.85	45.23
250.067	14.51
250.284	67.75
250.501	77.99
250.717	114.86
250.934	90.28
251.151	57.51
251.368	41.13
251.585	82.09
251.801	-12.12
252.018	12.46
252.235	147.62
252.451	-46.93
252.668	30.89
252.885	82.09
253.102	51.37
253.318	-10.07
253.535	14.51
253.752	-48.98
253.968	-1.88
254.185	-69.46
254.401	114.86
254.618	110.76
254.835	-1.88
255.051	166.06
255.268	63.66
255.484	47.27
255.701	75.95
255.917	30.89
256.134	32.94
256.351	-53.08
256.567	-28.5
256.784	57.51
257	-116.56
257.217	170.15
257.433	47.27
257.65	20.65
257.866	153.77
258.082	-69.46
258.299	-57.17
258.515	57.51
258.732	30.89
258.948	-67.41
259.165	6.31
259.381	-14.17
259.597	30.89
259.814	51.37
260.03	-5.97
260.246	86.19
260.463	102.57
260.679	170.15
260.895	32.94
261.112	0.17
261.328	-55.12
261.544	43.18
261.761	151.72
261.977	-1.88
262.193	-34.64
262.409	37.03
262.626	22.7
262.842	71.85
263.058	-38.74
263.274	84.14
263.49	65.71
263.707	39.08
263.923	143.53
264.139	-34.64
264.355	-3.93
264.571	88.23
264.787	67.75
265.004	145.58
265.22	-1.88
265.436	-69.46
265.652	159.91
265.868	32.94
266.084	-51.03
266.3	69.8
266.516	-20.31
266.732	121
266.948	80.04
267.164	-8.02
267.38	110.76
267.596	114.86
267.812	141.48
268.028	14.51
268.244	-38.74
268.46	88.23
268.676	-8.02
268.892	80.04
269.108	-147.28
269.324	-77.65
269.54	-14.17
269.756	125.1
269.972	-48.98
270.188	32.94
270.403	-48.98
270.619	65.71
270.835	20.65
271.051	0.17
271.267	61.61
271.483	116.9
271.698	96.43
271.914	88.23
272.13	96.43
272.346	6.31
272.562	-10.07
272.777	108.71
272.993	-22.36
273.209	18.6
273.425	116.9
273.64	-38.74
273.856	129.19
274.072	22.7
274.287	14.51
274.503	164.01
274.719	153.77
274.934	34.99
275.15	-77.65
275.366	20.65
275.581	16.55
275.797	39.08
276.012	53.42
276.228	75.95
276.444	37.03
276.659	145.58
276.875	-65.36
277.09	-48.98
277.306	-32.6
277.521	61.61
277.737	28.84
277.952	84.14
278.168	16.55
278.383	-5.97
278.599	43.18
278.814	49.32
279.03	106.67
279.245	170.15
279.461	51.37
279.676	63.66
279.892	86.19
280.107	-67.41
280.322	-8.02
280.538	96.43
280.753	-71.51
280.969	73.9
281.184	-3.93
281.399	211.11
281.615	108.71
281.83	30.89
282.045	-59.22
282.26	4.27
282.476	69.8
282.691	88.23
282.906	57.51
283.122	34.99
283.337	2.22
283.552	51.37
283.767	-32.6
283.983	77.99
284.198	-5.97
284.413	110.76
284.628	47.27
284.843	71.85
285.058	22.7
285.274	-98.13
285.489	-32.6
285.704	104.62
285.919	-12.12
286.134	26.79
286.349	32.94
286.564	45.23
286.779	127.14
286.995	-28.5
287.21	-28.5
287.425	110.76
287.64	102.57
287.855	-3.93
288.07	-32.6
288.285	110.76
288.5	90.28
288.715	30.89
288.93	22.7
289.145	84.14
289.36	114.86
289.575	-3.93
289.79	168.1
290.004	26.79
290.219	106.67
290.434	47.27
290.649	-16.21
290.864	32.94
291.079	59.56
291.294	84.14
291.509	92.33
291.724	39.08
291.938	-77.65
292.153	65.71
292.368	90.28
292.583	2.22
292.798	116.9
293.012	24.75
293.227	6.31
293.442	22.7
293.657	153.77
293.871	108.71
294.086	71.85
294.301	233.64
294.516	82.09
294.73	135.34
294.945	-18.26
295.16	51.37
295.374	67.75
295.589	116.9
295.804	-34.64
296.018	6.31
296.233	123.05
296.447	34.99
296.662	-26.45
296.877	141.48
297.091	67.75
297.306	49.32
297.52	-18.26
297.735	55.47
297.949	30.89
298.164	61.61
298.378	106.67
298.593	-20.31
298.807	-12.12
299.022	69.8
299.236	153.77
299.451	92.33
299.665	2.22
299.88	75.95
300.094	116.9
300.309	18.6
300.523	104.62
300.737	-42.84
300.952	88.23
301.166	69.8
301.381	-26.45
301.595	-55.12
301.809	41.13
302.024	8.36
302.238	-24.4
302.452	159.91
302.667	61.61
302.881	57.51
303.095	82.09
303.309	45.23
303.524	37.03
303.738	30.89
303.952	-73.56
304.166	57.51
304.381	-34.64
304.595	133.29
304.809	-32.6
305.023	37.03
305.237	41.13
305.452	55.47
305.666	86.19
305.88	30.89
306.094	143.53
306.308	37.03
306.522	49.32
306.736	47.27
306.95	104.62
307.164	0.17
307.379	55.47
307.593	155.82
307.807	86.19
308.021	47.27
308.235	26.79
308.449	-34.64
308.663	26.79
308.877	194.73
309.091	102.57
309.305	121
309.519	-63.32
309.733	131.24
309.947	-34.64
310.161	45.23
310.374	-5.97
310.588	166.06
310.802	-55.12
311.016	10.41
311.23	77.99
311.444	-32.6
311.658	51.37
311.872	77.99
312.085	110.76
312.299	129.19
312.513	82.09
312.727	22.7
312.941	-14.17
313.154	86.19
313.368	94.38
313.582	45.23
313.796	18.6
314.009	-3.93
314.223	143.53
314.437	26.79
314.651	104.62
314.864	-20.31
315.078	129.19
315.292	-28.5
315.505	-85.84
315.719	104.62
315.933	16.55
316.146	-32.6
316.36	-42.84
316.573	80.04
316.787	84.14
317.001	147.62
317.214	-10.07
317.428	45.23
317.641	-26.45
317.855	-26.45
318.068	69.8
318.282	61.61
318.495	190.63
318.709	-24.4
318.922	55.47
319.136	104.62
319.349	141.48
319.563	104.62
319.776	127.14
319.99	-98.13
320.203	104.62
320.417	16.55
320.63	164.01
320.843	219.3
321.057	98.47
321.27	61.61
321.483	8.36
321.697	86.19
321.91	-5.97
322.124	69.8
322.337	47.27
322.55	20.65
322.763	84.14
322.977	-28.5
323.19	12.46
323.403	61.61
323.617	63.66
323.83	90.28
324.043	61.61
324.256	65.71
324.469	-65.36
324.683	94.38
324.896	34.99
325.109	14.51
325.322	-18.26
325.535	147.62
325.748	176.3
325.962	-24.4
326.175	18.6
326.388	47.27
326.601	192.68
326.814	34.99
327.027	51.37
327.24	127.14
327.453	-51.03
327.666	57.51
327.879	118.95
328.092	135.34
328.305	127.14
328.518	0.17
328.731	-14.17
328.944	0.17
329.157	92.33
329.37	114.86
329.583	223.4
329.796	139.43
330.009	-36.69
330.222	96.43
330.435	51.37
330.648	53.42
330.861	77.99
331.073	69.8
331.286	45.23
331.499	75.95
331.712	12.46
331.925	121
332.138	84.14
332.35	59.56
332.563	63.66
332.776	166.06
332.989	-71.51
333.202	41.13
333.414	59.56
333.627	-8.02
333.84	32.94
334.053	86.19
334.265	24.75
334.478	-5.97
334.691	47.27
334.903	67.75
335.116	-36.69
335.329	90.28
335.541	24.75
335.754	55.47
335.966	-14.17
336.179	-55.12
336.392	-5.97
336.604	22.7
336.817	57.51
337.029	90.28
337.242	73.9
337.454	71.85
337.667	0.17
337.88	192.68
338.092	100.52
338.305	63.66
338.517	61.61
338.729	118.95
338.942	90.28
339.154	30.89
339.367	-24.4
339.579	104.62
339.792	-40.79
340.004	98.47
340.217	-3.93
340.429	90.28
340.641	-38.74
340.854	-67.41
341.066	14.51
341.278	86.19
341.491	186.54
341.703	110.76
341.915	-3.93
342.128	110.76
342.34	73.9
342.552	-26.45
342.764	104.62
342.977	12.46
343.189	84.14
343.401	106.67
343.613	-108.37
343.826	22.7
344.038	-53.08
344.25	59.56
344.462	37.03
344.674	67.75
344.886	51.37
345.099	118.95
345.311	55.47
345.523	-22.36
345.735	-26.45
345.947	116.9
346.159	14.51
346.371	37.03
346.583	30.89
346.795	129.19
347.007	10.41
347.219	30.89
347.431	0.17
347.643	67.75
347.855	-40.79
348.067	174.25
348.279	-69.46
348.491	20.65
348.703	116.9
348.915	28.84
349.127	10.41
349.339	92.33
349.551	-10.07
349.763	43.18
349.975	8.36
350.187	22.7
350.399	106.67
350.61	116.9
350.822	-44.88
351.034	57.51
351.246	32.94
351.458	151.72
351.669	77.99
351.881	98.47
352.093	116.9
352.305	143.53
352.517	114.86
352.728	106.67
352.94	51.37
353.152	102.57
353.363	-40.79
353.575	133.29
353.787	258.21
353.999	104.62
354.21	159.91
354.422	-40.79
354.633	14.51
354.845	-26.45
355.057	65.71
355.268	104.62
355.48	116.9
355.692	-51.03
355.903	71.85
356.115	-59.22
356.326	-40.79
356.538	182.44
356.749	131.24
356.961	180.39
357.172	55.47
357.384	-42.84
357.595	233.64
357.807	51.37
358.018	-3.93
358.23	20.65
358.441	110.76
358.653	123.05
358.864	-20.31
359.075	12.46
359.287	129.19
359.498	110.76
359.709	118.95
359.921	84.14
360.132	90.28
360.344	57.51
360.555	32.94
360.766	30.89
360.977	30.89
361.189	51.37
361.4	20.65
361.611	133.29
361.823	6.31
362.034	22.7
362.245	0.17
362.456	-16.21
362.667	59.56
362.879	-18.26
363.09	45.23
363.301	69.8
363.512	-8.02
363.723	2.22
363.935	-5.97
364.146	104.62
364.357	47.27
364.568	53.42
364.779	-46.93
364.99	168.1
365.201	34.99
365.412	88.23
365.623	-79.7
365.834	71.85
366.045	92.33
366.256	53.42
366.467	39.08
366.678	121
366.889	77.99
367.1	4.27
367.311	96.43
367.522	43.18
367.733	43.18
367.944	71.85
368.155	55.47
368.366	108.71
368.577	104.62
368.788	213.16
368.999	-18.26
369.209	28.84
369.42	290.98
369.631	178.34
369.842	86.19
370.053	-3.93
370.264	82.09
370.474	-28.5
370.685	30.89
370.896	45.23
371.107	75.95
371.317	34.99
371.528	-44.88
371.739	69.8
371.95	77.99
372.16	110.76
372.371	6.31
372.582	59.56
372.792	65.71
373.003	20.65
373.214	41.13
373.424	100.52
373.635	-3.93
373.846	204.97
374.056	45.23
374.267	80.04
374.477	170.15
374.688	6.31
374.898	90.28
375.109	71.85
375.319	73.9
375.53	149.67
375.74	102.57
375.951	4.27
376.161	16.55
376.372	82.09
376.582	26.79
376.793	18.6
377.003	10.41
377.214	-28.5
377.424	112.81
377.635	45.23
377.845	47.27
378.055	157.86
378.266	-91.99
378.476	37.03
378.686	90.28
378.897	102.57
379.107	53.42
379.317	155.82
379.528	82.09
379.738	127.14
379.948	-87.89
380.158	170.15
380.369	80.04
380.579	102.57
380.789	41.13
380.999	100.52
381.21	108.71
381.42	274.6
381.63	26.79
381.84	116.9
382.05	69.8
382.261	153.77
382.471	145.58
382.681	-34.64
382.891	250.02
383.101	80.04
383.311	-32.6
383.521	55.47
383.731	118.95
383.941	49.32
384.151	14.51
384.361	-18.26
384.571	139.43
384.781	125.1
384.991	186.54
385.201	186.54
385.411	82.09
385.621	59.56
385.831	26.79
386.041	41.13
386.251	41.13
386.461	161.96
386.671	37.03
386.881	41.13
387.091	16.55
387.301	145.58
387.511	88.23
387.72	51.37
387.93	176.3
388.14	39.08
388.35	139.43
388.56	43.18
388.769	155.82
388.979	-10.07
389.189	14.51
389.399	39.08
389.609	100.52
389.818	96.43
390.028	51.37
390.238	47.27
390.447	2.22
390.657	90.28
390.867	0.17
391.076	-106.32
391.286	75.95
391.496	24.75
391.705	-10.07
391.915	94.38
392.125	75.95
392.334	14.51
392.544	204.97
392.753	24.75
392.963	-22.36
393.172	30.89
393.382	14.51
393.591	131.24
393.801	55.47
394.01	164.01
394.22	96.43
394.429	-14.17
394.639	0.17
394.848	106.67
395.058	51.37
395.267	0.17
395.477	73.9
395.686	164.01
395.895	198.82
396.105	237.74
396.314	75.95
396.524	71.85
396.733	75.95
396.942	98.47
397.152	86.19
397.361	170.15
397.57	108.71
397.78	41.13
397.989	135.34
398.198	168.1
398.407	26.79
398.617	0.17
398.826	47.27
399.035	51.37
399.244	88.23
399.453	39.08
399.663	28.84
399.872	67.75
400.081	-69.46
400.29	139.43
400.499	-40.79
400.708	174.25
400.917	-16.21
401.127	106.67
401.336	-22.36
401.545	258.21
401.754	104.62
401.963	178.34
402.172	34.99
402.381	-61.27
402.59	26.79
402.799	-18.26
403.008	110.76
403.217	43.18
403.426	37.03
403.635	45.23
403.844	10.41
404.053	-1.88
404.262	34.99
404.471	151.72
404.68	20.65
404.888	53.42
405.097	-1.88
405.306	90.28
405.515	129.19
405.724	67.75
405.933	155.82
406.142	6.31
406.35	112.81
406.559	32.94
406.768	80.04
406.977	178.34
407.185	39.08
407.394	57.51
407.603	34.99
407.812	51.37
408.02	192.68
408.229	82.09
408.438	71.85
408.646	-94.04
408.855	39.08
409.064	69.8
409.272	39.08
409.481	53.42
409.69	34.99
409.898	-3.93
410.107	102.57
410.315	49.32
410.524	-38.74
410.733	80.04
410.941	39.08
411.15	118.95
411.358	176.3
411.567	123.05
411.775	55.47
411.984	104.62
412.192	84.14
412.401	51.37
412.609	200.87
412.818	125.1
413.026	88.23
413.234	114.86
413.443	28.84
413.651	-12.12
413.86	6.31
414.068	213.16
414.276	157.86
414.485	-20.31
414.693	260.26
414.901	139.43
415.11	71.85
415.318	133.29
415.526	69.8
415.734	141.48
415.943	53.42
416.151	75.95
416.359	51.37
416.567	116.9
416.776	67.75
416.984	39.08
417.192	192.68
417.4	-18.26
417.608	127.14
417.817	-8.02
418.025	164.01
418.233	172.2
418.441	32.94
418.649	26.79
418.857	65.71
419.065	123.05
419.273	45.23
419.481	73.9
419.689	75.95
419.897	63.66
420.105	-67.41
420.313	141.48
420.521	188.58
420.729	121
420.937	-14.17
421.145	4.27
421.353	100.52
421.561	161.96
421.769	186.54
421.977	28.84
422.185	65.71
422.393	20.65
422.601	114.86
422.809	153.77
423.017	55.47
423.224	143.53
423.432	151.72
423.64	71.85
423.848	182.44
424.056	69.8
424.263	112.81
424.471	77.99
424.679	207.02
424.887	65.71
425.094	118.95
425.302	116.9
425.51	92.33
425.718	92.33
425.925	147.62
426.133	-8.02
426.341	219.3
426.548	88.23
426.756	63.66
426.964	125.1
427.171	59.56
427.379	82.09
427.586	102.57
427.794	118.95
428.001	157.86
428.209	164.01
428.417	190.63
428.624	164.01
428.832	141.48
429.039	73.9
429.247	133.29
429.454	151.72
429.662	217.26
429.869	250.02
430.076	200.87
430.284	247.97
430.491	313.51
430.699	217.26
430.906	266.41
431.114	164.01
431.321	166.06
431.528	190.63
431.736	110.76
431.943	180.39
432.15	192.68
432.358	194.73
432.565	299.17
432.772	30.89
432.979	188.58
433.187	135.34
433.394	196.78
433.601	223.4
433.808	229.54
434.016	270.5
434.223	379.04
434.43	239.78
434.637	241.83
434.844	346.28
435.052	219.3
435.259	364.71
435.466	317.61
435.673	305.32
435.88	311.46
436.087	446.63
436.294	387.24
436.501	397.48
436.708	258.21
436.915	442.53
437.122	415.91
437.329	374.95
437.537	506.02
437.743	448.68
437.95	583.84
438.157	520.35
438.364	469.16
438.571	522.4
438.778	542.88
438.985	544.93
439.192	551.07
439.399	579.75
439.606	630.95
439.813	639.14
440.02	762.02
440.227	802.97
440.433	680.1
440.64	733.34
440.847	610.47
441.054	743.58
441.261	862.37
441.467	831.65
441.674	825.5
441.881	819.36
442.088	766.11
442.294	991.39
442.501	970.91
442.708	977.05
442.914	932
443.121	1122.46
443.328	1061.02
443.534	1294.49
443.741	1183.9
443.948	1040.54
444.154	1210.52
444.361	1327.25
444.568	1360.02
444.774	1337.49
444.981	1261.72
445.187	1392.79
445.394	1548.44
445.6	1517.72
445.807	1738.9
446.013	1699.98
446.22	1706.13
446.426	1888.4
446.633	1869.97
446.839	2080.91
447.046	1892.49
447.252	2148.49
447.459	2164.87
447.665	2226.31
447.871	2332.81
448.078	2515.08
448.284	2529.41
448.491	2580.61
448.697	2611.33
448.903	2865.28
449.11	2852.99
449.316	2807.94
449.522	3049.6
449.728	3092.6
449.935	3305.59
450.141	3229.82
450.347	3481.72
450.553	3534.96
450.76	3686.51
450.966	3719.28
451.172	3860.59
451.378	3958.89
451.584	4049
451.791	4577.38
451.997	4644.96
452.203	4761.7
452.409	4927.58
452.615	5238.87
452.821	4989.02
453.027	5052.51
453.233	5638.23
453.44	5687.38
453.646	5666.9
453.852	6041.68
454.058	6398.03
454.264	6445.13
454.47	7045.18
454.676	7026.75
454.882	7559.22
455.088	7235.64
455.294	7575.61
455.5	8196.14
455.705	8585.26
455.911	8556.58
456.117	8945.7
456.323	9058.34
456.529	9177.12
456.735	10039.31
456.941	10319.89
457.147	10475.53
457.352	10842.12
457.558	11192.32
457.764	12062.71
457.97	12226.54
458.176	12613.61
458.381	13389.79
458.587	13639.64
458.793	14385.1
458.999	14424.01
459.204	16080.82
459.41	16752.56
459.616	16590.77
459.821	17330.08
460.027	17981.34
460.233	18823.05
460.438	19191.69
460.644	20029.31
460.85	20500.34
461.055	21018.47
461.261	22179.67
461.466	21507.94
461.672	22171.48
461.878	24803.12
462.083	24373.05
462.289	24958.77
462.494	25829.15
462.7	26038.05
462.905	26472.21
463.111	28507.9
463.316	29918.95
463.522	30478.04
463.727	31657.67
463.932	32614.07
464.138	33822.37
464.343	35040.92
464.549	35364.5
464.754	37613.16
464.959	38800.99
465.165	39011.93
465.37	38846.04
465.575	39218.77
465.781	41707.05
465.986	43071
466.191	42391.08
466.397	42880.54
466.602	41705.01
466.807	44011.02
467.012	44766.72
467.218	45424.12
467.423	45766.13
467.628	47240.67
467.833	49085.89
468.038	48303.56
468.244	47328.73
468.449	49515.96
