Data from USB4F104151__222__11-06-07-927.txt Node

Date: Wed Feb 26 11:06:07 EST 2025
User: louis
Spectrometer: USB4F10415
Trigger mode: 4
Integration Time (sec): 1.000000E-1
Scans to average: 1
Electric dark correction enabled: true
Nonlinearity correction enabled: false
Boxcar width: 0
XAxis mode: Wavelengths
Number of Pixels in Spectrum: 3648
>>>>>Begin Spectral Data<<<<<
178.204	-360.78
178.424	-360.78
178.644	-360.78
178.864	-444.75
179.084	-362.83
179.304	-31.06
179.524	7.85
179.744	44.71
179.964	52.91
180.184	48.81
180.404	3.75
180.624	-12.63
180.844	67.24
181.064	-57.68
181.283	-63.83
181.503	-96.6
181.723	36.52
181.943	-153.94
182.163	247.46
182.383	-39.25
182.602	18.09
182.822	194.22
183.042	20.14
183.262	-31.06
183.482	-31.06
183.701	-12.63
183.921	71.34
184.141	-0.34
184.361	110.25
184.58	120.49
184.8	3.75
185.02	-139.6
185.239	42.67
185.459	75.43
185.679	136.87
185.898	-0.34
186.118	89.77
186.338	-14.68
186.557	149.16
186.777	-33.11
186.997	18.09
187.216	32.43
187.436	167.59
187.655	22.19
187.875	112.3
188.095	57
188.314	200.36
188.534	138.92
188.753	-49.49
188.973	124.58
189.192	202.41
189.412	-39.25
189.631	-18.77
189.851	1.71
190.07	132.78
190.29	-72.02
190.509	7.85
190.729	38.57
190.948	171.69
191.168	206.5
191.387	-4.44
191.607	-37.2
191.826	114.34
192.045	28.33
192.265	16.04
192.484	89.77
192.704	97.96
192.923	-45.4
193.142	229.03
193.362	95.91
193.581	114.34
193.8	102.06
194.02	114.34
194.239	83.63
194.458	52.91
194.678	-14.68
194.897	5.8
195.116	100.01
195.335	59.05
195.555	13.99
195.774	20.14
195.993	173.74
196.212	93.87
196.432	-22.87
196.651	-24.92
196.87	20.14
197.089	212.65
197.308	46.76
197.528	97.96
197.747	-29.01
197.966	67.24
198.185	120.49
198.404	-69.97
198.623	151.21
198.842	145.06
199.062	161.45
199.281	122.54
199.5	59.05
199.719	87.72
199.938	71.34
200.157	26.28
200.376	134.82
200.595	130.73
200.814	16.04
201.033	1.71
201.252	122.54
201.471	46.76
201.69	-10.58
201.909	30.38
202.128	169.64
202.347	118.44
202.566	-29.01
202.785	-37.2
203.004	-51.54
203.223	286.37
203.442	106.15
203.661	-43.35
203.879	124.58
204.098	104.11
204.317	1.71
204.536	77.48
204.755	65.19
204.974	108.2
205.193	59.05
205.411	118.44
205.63	136.87
205.849	81.58
206.068	63.15
206.287	-37.2
206.505	83.63
206.724	-20.82
206.943	-35.16
207.162	-10.58
207.381	65.19
207.599	24.23
207.818	42.67
208.037	-82.26
208.255	108.2
208.474	114.34
208.693	108.2
208.911	-8.53
209.13	108.2
209.349	114.34
209.567	79.53
209.786	22.19
210.005	95.91
210.223	46.76
210.442	-4.44
210.661	16.04
210.879	95.91
211.098	46.76
211.316	30.38
211.535	-6.49
211.753	95.91
211.972	59.05
212.191	-39.25
212.409	-2.39
212.628	83.63
212.846	57
213.065	85.67
213.283	128.68
213.502	61.1
213.72	102.06
213.938	61.1
214.157	40.62
214.375	89.77
214.594	75.43
214.812	95.91
215.031	36.52
215.249	57
215.467	89.77
215.686	57
215.904	104.11
216.122	89.77
216.341	138.92
216.559	106.15
216.778	54.95
216.996	177.83
217.214	5.8
217.432	-2.39
217.651	-39.25
217.869	34.47
218.087	38.57
218.306	-4.44
218.524	24.23
218.742	46.76
218.96	97.96
219.179	52.91
219.397	7.85
219.615	181.93
219.833	57
220.051	-26.96
220.27	100.01
220.488	83.63
220.706	75.43
220.924	11.95
221.142	16.04
221.36	73.39
221.578	71.34
221.796	-29.01
222.015	30.38
222.233	73.39
222.451	239.27
222.669	-20.82
222.887	124.58
223.105	28.33
223.323	13.99
223.541	-14.68
223.759	34.47
223.977	52.91
224.195	128.68
224.413	112.3
224.631	71.34
224.849	75.43
225.067	210.6
225.285	-43.35
225.503	63.15
225.721	-94.55
225.939	81.58
226.157	50.86
226.375	253.61
226.592	-2.39
226.81	57
227.028	130.73
227.246	147.11
227.464	9.9
227.682	50.86
227.9	87.72
228.117	-31.06
228.335	44.71
228.553	-4.44
228.771	67.24
228.989	-26.96
229.206	71.34
229.424	-39.25
229.642	13.99
229.86	-43.35
230.077	122.54
230.295	87.72
230.513	97.96
230.731	108.2
230.948	218.79
231.166	159.4
231.384	-37.2
231.601	11.95
231.819	212.65
232.037	-61.78
232.254	-49.49
232.472	36.52
232.689	-20.82
232.907	116.39
233.125	38.57
233.342	50.86
233.56	-12.63
233.777	5.8
233.995	-2.39
234.213	159.4
234.43	118.44
234.648	-18.77
234.865	106.15
235.083	54.95
235.3	81.58
235.518	87.72
235.735	130.73
235.953	42.67
236.17	34.47
236.388	-29.01
236.605	-72.02
236.822	93.87
237.04	149.16
237.257	52.91
237.475	-10.58
237.692	73.39
237.909	65.19
238.127	-22.87
238.344	22.19
238.562	-29.01
238.779	-43.35
238.996	-112.98
239.214	11.95
239.431	61.1
239.648	30.38
239.865	79.53
240.083	24.23
240.3	54.95
240.517	3.75
240.735	85.67
240.952	120.49
241.169	57
241.386	-14.68
241.603	81.58
241.821	-33.11
242.038	77.48
242.255	95.91
242.472	24.23
242.689	63.15
242.907	38.57
243.124	57
243.341	79.53
243.558	30.38
243.775	-12.63
243.992	-74.07
244.209	38.57
244.426	169.64
244.643	59.05
244.86	7.85
245.078	100.01
245.295	34.47
245.512	7.85
245.729	-4.44
245.946	85.67
246.163	7.85
246.38	28.33
246.597	120.49
246.814	44.71
247.031	-6.49
247.248	28.33
247.464	38.57
247.681	46.76
247.898	42.67
248.115	87.72
248.332	11.95
248.549	132.78
248.766	126.63
248.983	114.34
249.2	110.25
249.417	93.87
249.633	5.8
249.85	79.53
250.067	9.9
250.284	-4.44
250.501	71.34
250.717	46.76
250.934	-94.55
251.151	34.47
251.368	32.43
251.585	79.53
251.801	26.28
252.018	-84.31
252.235	116.39
252.451	-29.01
252.668	3.75
252.885	153.26
253.102	71.34
253.318	5.8
253.535	-67.92
253.752	24.23
253.968	-8.53
254.185	-24.92
254.401	46.76
254.618	95.91
254.835	-12.63
255.051	149.16
255.268	77.48
255.484	54.95
255.701	18.09
255.917	-4.44
256.134	-76.12
256.351	-14.68
256.567	-2.39
256.784	13.99
257	-94.55
257.217	91.82
257.433	100.01
257.65	34.47
257.866	130.73
258.082	-65.88
258.299	-24.92
258.515	63.15
258.732	30.38
258.948	44.71
259.165	50.86
259.381	20.14
259.597	40.62
259.814	48.81
260.03	1.71
260.246	16.04
260.463	120.49
260.679	159.4
260.895	32.43
261.112	95.91
261.328	32.43
261.544	-51.54
261.761	114.34
261.977	11.95
262.193	3.75
262.409	59.05
262.626	79.53
262.842	63.15
263.058	-80.21
263.274	67.24
263.49	48.81
263.707	63.15
263.923	36.52
264.139	-47.44
264.355	-20.82
264.571	112.3
264.787	59.05
265.004	93.87
265.22	77.48
265.436	11.95
265.652	-4.44
265.868	20.14
266.084	-24.92
266.3	77.48
266.516	-22.87
266.732	75.43
266.948	91.82
267.164	71.34
267.38	95.91
267.596	40.62
267.812	171.69
268.028	5.8
268.244	-4.44
268.46	-0.34
268.676	11.95
268.892	52.91
269.108	-12.63
269.324	-43.35
269.54	3.75
269.756	114.34
269.972	-72.02
270.188	-16.73
270.403	52.91
270.619	13.99
270.835	108.2
271.051	91.82
271.267	-61.78
271.483	9.9
271.698	206.5
271.914	44.71
272.13	13.99
272.346	20.14
272.562	65.19
272.777	128.68
272.993	34.47
273.209	95.91
273.425	69.29
273.64	-90.45
273.856	54.95
274.072	-2.39
274.287	-29.01
274.503	136.87
274.719	151.21
274.934	-63.83
275.15	-24.92
275.366	104.11
275.581	1.71
275.797	36.52
276.012	-2.39
276.228	61.1
276.444	-18.77
276.659	140.97
276.875	-35.16
277.09	-16.73
277.306	95.91
277.521	192.17
277.737	36.52
277.952	157.35
278.168	18.09
278.383	97.96
278.599	46.76
278.814	159.4
279.03	50.86
279.245	216.74
279.461	3.75
279.676	16.04
279.892	-94.55
280.107	-74.07
280.322	-78.16
280.538	95.91
280.753	61.1
280.969	-35.16
281.184	-49.49
281.399	134.82
281.615	54.95
281.83	77.48
282.045	-33.11
282.26	22.19
282.476	26.28
282.691	120.49
282.906	16.04
283.122	54.95
283.337	-20.82
283.552	16.04
283.767	22.19
283.983	114.34
284.198	36.52
284.413	83.63
284.628	-55.64
284.843	59.05
285.058	114.34
285.274	18.09
285.489	-18.77
285.704	130.73
285.919	28.33
286.134	22.19
286.349	24.23
286.564	-8.53
286.779	136.87
286.995	46.76
287.21	-90.45
287.425	87.72
287.64	-37.2
287.855	112.3
288.07	-72.02
288.285	200.36
288.5	69.29
288.715	95.91
288.93	50.86
289.145	-33.11
289.36	149.16
289.575	24.23
289.79	120.49
290.004	-2.39
290.219	108.2
290.434	-31.06
290.649	22.19
290.864	-41.3
291.079	44.71
291.294	-2.39
291.509	9.9
291.724	-37.2
291.938	-0.34
292.153	85.67
292.368	34.47
292.583	40.62
292.798	40.62
293.012	91.82
293.227	63.15
293.442	-16.73
293.657	77.48
293.871	79.53
294.086	28.33
294.301	249.51
294.516	83.63
294.73	-4.44
294.945	22.19
295.16	85.67
295.374	128.68
295.589	63.15
295.804	11.95
296.018	71.34
296.233	87.72
296.447	36.52
296.662	38.57
296.877	128.68
297.091	52.91
297.306	13.99
297.52	11.95
297.735	81.58
297.949	54.95
298.164	26.28
298.378	26.28
298.593	-10.58
298.807	106.15
299.022	-18.77
299.236	179.88
299.451	63.15
299.665	69.29
299.88	24.23
300.094	67.24
300.309	40.62
300.523	93.87
300.737	16.04
300.952	71.34
301.166	71.34
301.381	-29.01
301.595	-20.82
301.809	91.82
302.024	34.47
302.238	-67.92
302.452	77.48
302.667	20.14
302.881	157.35
303.095	124.58
303.309	26.28
303.524	-90.45
303.738	16.04
303.952	26.28
304.166	5.8
304.381	-90.45
304.595	130.73
304.809	-22.87
305.023	26.28
305.237	-33.11
305.452	1.71
305.666	110.25
305.88	69.29
306.094	149.16
306.308	26.28
306.522	110.25
306.736	-0.34
306.95	32.43
307.164	-35.16
307.379	-37.2
307.593	61.1
307.807	116.39
308.021	59.05
308.235	100.01
308.449	-2.39
308.663	18.09
308.877	206.5
309.091	100.01
309.305	149.16
309.519	-186.71
309.733	145.06
309.947	-57.68
310.161	34.47
310.374	44.71
310.588	63.15
310.802	-61.78
311.016	63.15
311.23	16.04
311.444	-88.4
311.658	24.23
311.872	95.91
312.085	124.58
312.299	108.2
312.513	186.02
312.727	85.67
312.941	-8.53
313.154	87.72
313.368	132.78
313.582	32.43
313.796	106.15
314.009	-22.87
314.223	177.83
314.437	52.91
314.651	110.25
314.864	-53.59
315.078	1.71
315.292	-29.01
315.505	61.1
315.719	87.72
315.933	138.92
316.146	75.43
316.36	-43.35
316.573	159.4
316.787	63.15
317.001	87.72
317.214	-57.68
317.428	44.71
317.641	3.75
317.855	30.38
318.068	26.28
318.282	59.05
318.495	222.89
318.709	112.3
318.922	-16.73
319.136	65.19
319.349	241.32
319.563	-14.68
319.776	108.2
319.99	-125.27
320.203	50.86
320.417	18.09
320.63	81.58
320.843	134.82
321.057	71.34
321.27	118.44
321.483	65.19
321.697	104.11
321.91	42.67
322.124	149.16
322.337	120.49
322.55	-41.3
322.763	61.1
322.977	28.33
323.19	13.99
323.403	42.67
323.617	67.24
323.83	79.53
324.043	-26.96
324.256	134.82
324.469	-72.02
324.683	-4.44
324.896	-18.77
325.109	-8.53
325.322	30.38
325.535	46.76
325.748	177.83
325.962	61.1
326.175	114.34
326.388	13.99
326.601	48.81
326.814	42.67
327.027	61.1
327.24	128.68
327.453	-55.64
327.666	73.39
327.879	83.63
328.092	-4.44
328.305	95.91
328.518	69.29
328.731	42.67
328.944	-10.58
329.157	28.33
329.37	7.85
329.583	171.69
329.796	126.63
330.009	-41.3
330.222	145.06
330.435	65.19
330.648	13.99
330.861	77.48
331.073	22.19
331.286	118.44
331.499	63.15
331.712	36.52
331.925	-49.49
332.138	-0.34
332.35	122.54
332.563	-61.78
332.776	175.78
332.989	48.81
333.202	54.95
333.414	1.71
333.627	-18.77
333.84	-37.2
334.053	40.62
334.265	26.28
334.478	34.47
334.691	-22.87
334.903	77.48
335.116	-55.64
335.329	18.09
335.541	120.49
335.754	175.78
335.966	18.09
336.179	-35.16
336.392	-31.06
336.604	87.72
336.817	171.69
337.029	16.04
337.242	57
337.454	54.95
337.667	38.57
337.88	124.58
338.092	71.34
338.305	20.14
338.517	44.71
338.729	93.87
338.942	122.54
339.154	-33.11
339.367	79.53
339.579	91.82
339.792	24.23
340.004	110.25
340.217	5.8
340.429	42.67
340.641	-45.4
340.854	-84.31
341.066	83.63
341.278	108.2
341.491	175.78
341.703	38.57
341.915	50.86
342.128	110.25
342.34	65.19
342.552	46.76
342.764	69.29
342.977	54.95
343.189	102.06
343.401	44.71
343.613	1.71
343.826	67.24
344.038	-6.49
344.25	63.15
344.462	-74.07
344.674	48.81
344.886	26.28
345.099	93.87
345.311	69.29
345.523	20.14
345.735	-39.25
345.947	93.87
346.159	57
346.371	65.19
346.583	108.2
346.795	126.63
347.007	3.75
347.219	59.05
347.431	26.28
347.643	153.26
347.855	-2.39
348.067	161.45
348.279	-33.11
348.491	97.96
348.703	85.67
348.915	67.24
349.127	3.75
349.339	-4.44
349.551	-20.82
349.763	145.06
349.975	20.14
350.187	97.96
350.399	102.06
350.61	71.34
350.822	42.67
351.034	48.81
351.246	48.81
351.458	-35.16
351.669	50.86
351.881	46.76
352.093	116.39
352.305	112.3
352.517	93.87
352.728	167.59
352.94	9.9
353.152	46.76
353.363	-55.64
353.575	61.1
353.787	136.87
353.999	85.67
354.21	175.78
354.422	42.67
354.633	1.71
354.845	79.53
355.057	28.33
355.268	30.38
355.48	102.06
355.692	-82.26
355.903	11.95
356.115	-49.49
356.326	-84.31
356.538	130.73
356.749	126.63
356.961	188.07
357.172	126.63
357.384	-80.21
357.595	183.98
357.807	28.33
358.018	-18.77
358.23	28.33
358.441	179.88
358.653	46.76
358.864	46.76
359.075	-12.63
359.287	132.78
359.498	126.63
359.709	124.58
359.921	110.25
360.132	75.43
360.344	22.19
360.555	-2.39
360.766	75.43
360.977	-4.44
361.189	134.82
361.4	34.47
361.611	138.92
361.823	102.06
362.034	24.23
362.245	-47.44
362.456	3.75
362.667	24.23
362.879	-33.11
363.09	52.91
363.301	91.82
363.512	95.91
363.723	18.09
363.935	-37.2
364.146	108.2
364.357	-39.25
364.568	40.62
364.779	-49.49
364.99	169.64
365.201	-22.87
365.412	171.69
365.623	-22.87
365.834	130.73
366.045	-74.07
366.256	7.85
366.467	11.95
366.678	85.67
366.889	1.71
367.1	50.86
367.311	106.15
367.522	-8.53
367.733	108.2
367.944	40.62
368.155	-16.73
368.366	18.09
368.577	181.93
368.788	85.67
368.999	-12.63
369.209	124.58
369.42	218.79
369.631	216.74
369.842	147.11
370.053	-43.35
370.264	63.15
370.474	-47.44
370.685	87.72
370.896	7.85
371.107	153.26
371.317	122.54
371.528	71.34
371.739	83.63
371.95	57
372.16	102.06
372.371	-45.4
372.582	-45.4
372.792	46.76
373.003	63.15
373.214	100.01
373.424	30.38
373.635	-41.3
373.846	106.15
374.056	24.23
374.267	97.96
374.477	120.49
374.688	16.04
374.898	116.39
375.109	-18.77
375.319	36.52
375.53	114.34
375.74	3.75
375.951	48.81
376.161	46.76
376.372	79.53
376.582	46.76
376.793	3.75
377.003	-76.12
377.214	3.75
377.424	89.77
377.635	24.23
377.845	-47.44
378.055	153.26
378.266	20.14
378.476	18.09
378.686	34.47
378.897	108.2
379.107	173.74
379.317	57
379.528	34.47
379.738	132.78
379.948	-29.01
380.158	149.16
380.369	46.76
380.579	85.67
380.789	73.39
380.999	26.28
381.21	77.48
381.42	212.65
381.63	32.43
381.84	102.06
382.05	122.54
382.261	140.97
382.471	153.26
382.681	116.39
382.891	247.46
383.101	11.95
383.311	-96.6
383.521	-29.01
383.731	65.19
383.941	67.24
384.151	116.39
384.361	61.1
384.571	69.29
384.781	44.71
384.991	212.65
385.201	186.02
385.411	38.57
385.621	91.82
385.831	44.71
386.041	77.48
386.251	106.15
386.461	83.63
386.671	34.47
386.881	69.29
387.091	-8.53
387.301	169.64
387.511	20.14
387.72	52.91
387.93	102.06
388.14	-104.79
388.35	46.76
388.56	108.2
388.769	61.1
388.979	52.91
389.189	-61.78
389.399	-10.58
389.609	145.06
389.818	104.11
390.028	71.34
390.238	73.39
390.447	-67.92
390.657	73.39
390.867	9.9
391.076	-65.88
391.286	83.63
391.496	67.24
391.705	-20.82
391.915	104.11
392.125	145.06
392.334	9.9
392.544	106.15
392.753	-14.68
392.963	36.52
393.172	5.8
393.382	24.23
393.591	231.08
393.801	63.15
394.01	208.55
394.22	155.3
394.429	69.29
394.639	-33.11
394.848	79.53
395.058	95.91
395.267	-0.34
395.477	106.15
395.686	-2.39
395.895	149.16
396.105	192.17
396.314	100.01
396.524	-10.58
396.733	87.72
396.942	151.21
397.152	57
397.361	165.54
397.57	73.39
397.78	34.47
397.989	114.34
398.198	175.78
398.407	118.44
398.617	28.33
398.826	61.1
399.035	65.19
399.244	71.34
399.453	34.47
399.663	38.57
399.872	63.15
400.081	-20.82
400.29	165.54
400.499	40.62
400.708	95.91
400.917	63.15
401.127	24.23
401.336	-33.11
401.545	151.21
401.754	73.39
401.963	79.53
402.172	26.28
402.381	-22.87
402.59	16.04
402.799	71.34
403.008	75.43
403.217	69.29
403.426	57
403.635	-4.44
403.844	26.28
404.053	22.19
404.262	3.75
404.471	251.56
404.68	143.02
404.888	54.95
405.097	65.19
405.306	34.47
405.515	134.82
405.724	40.62
405.933	85.67
406.142	26.28
406.35	89.77
406.559	81.58
406.768	24.23
406.977	145.06
407.185	112.3
407.394	71.34
407.603	-80.21
407.812	44.71
408.02	192.17
408.229	48.81
408.438	147.11
408.646	-72.02
408.855	-2.39
409.064	16.04
409.272	54.95
409.481	138.92
409.69	-33.11
409.898	11.95
410.107	1.71
410.315	91.82
410.524	-6.49
410.733	57
410.941	-16.73
411.15	149.16
411.358	151.21
411.567	157.35
411.775	89.77
411.984	42.67
412.192	132.78
412.401	87.72
412.609	224.94
412.818	190.12
413.026	63.15
413.234	-47.44
413.443	18.09
413.651	18.09
413.86	67.24
414.068	231.08
414.276	210.6
414.485	97.96
414.693	212.65
414.901	171.69
415.11	42.67
415.318	16.04
415.526	81.58
415.734	108.2
415.943	147.11
416.151	186.02
416.359	11.95
416.567	61.1
416.776	97.96
416.984	140.97
417.192	196.26
417.4	-31.06
417.608	28.33
417.817	1.71
418.025	175.78
418.233	194.22
418.441	-8.53
418.649	54.95
418.857	32.43
419.065	165.54
419.273	65.19
419.481	67.24
419.689	93.87
419.897	34.47
420.105	-33.11
420.313	120.49
420.521	128.68
420.729	171.69
420.937	44.71
421.145	13.99
421.353	81.58
421.561	151.21
421.769	63.15
421.977	34.47
422.185	71.34
422.393	-8.53
422.601	77.48
422.809	97.96
423.017	155.3
423.224	97.96
423.432	128.68
423.64	79.53
423.848	134.82
424.056	42.67
424.263	163.5
424.471	95.91
424.679	124.58
424.887	3.75
425.094	149.16
425.302	61.1
425.51	42.67
425.718	95.91
425.925	138.92
426.133	3.75
426.341	237.22
426.548	38.57
426.756	-14.68
426.964	143.02
427.171	32.43
427.379	97.96
427.586	38.57
427.794	102.06
428.001	218.79
428.209	110.25
428.417	177.83
428.624	120.49
428.832	153.26
429.039	100.01
429.247	97.96
429.454	124.58
429.662	261.8
429.869	106.15
430.076	155.3
430.284	161.45
430.491	235.18
430.699	100.01
430.906	253.61
431.114	188.07
431.321	167.59
431.528	147.11
431.736	149.16
431.943	190.12
432.15	175.78
432.358	175.78
432.565	208.55
432.772	40.62
432.979	155.3
433.187	163.5
433.394	233.13
433.601	95.91
433.808	210.6
434.016	308.9
434.223	163.5
434.43	247.46
434.637	241.32
434.844	294.57
435.052	171.69
435.259	257.7
435.466	220.84
435.673	231.08
435.88	222.89
436.087	323.24
436.294	380.58
436.501	358.05
436.708	276.13
436.915	269.99
437.122	337.57
437.329	274.09
437.537	358.05
437.743	362.15
437.95	368.29
438.157	372.39
438.364	310.95
438.571	403.11
438.778	444.07
438.985	425.64
439.192	476.84
439.399	407.2
439.606	521.89
439.813	528.03
440.02	554.66
440.227	671.39
440.433	642.72
440.64	521.89
440.847	439.97
441.054	607.91
441.261	743.07
441.467	564.9
441.674	564.9
441.881	720.54
442.088	585.38
442.294	698.02
442.501	808.61
442.708	835.23
442.914	693.92
443.121	851.61
443.328	831.13
443.534	943.77
443.741	917.15
443.948	786.08
444.154	1078.94
444.361	1078.94
444.568	972.44
444.774	1029.79
444.981	970.4
445.187	1185.43
445.394	1175.19
445.6	1048.22
445.807	1298.07
446.013	1300.12
446.22	1218.2
446.426	1480.34
446.633	1549.97
446.839	1754.77
447.046	1431.19
447.252	1683.09
447.459	1547.92
447.665	1658.51
447.871	1869.45
448.078	1910.41
448.284	1871.5
448.491	1953.42
448.697	2025.1
448.903	2135.69
449.11	2227.85
449.316	2125.45
449.522	2406.02
449.728	2455.17
449.935	2506.37
450.141	2533
450.347	2778.75
450.553	2715.27
450.76	2817.66
450.966	3038.84
451.172	3034.75
451.378	3171.96
451.584	3208.83
451.791	3413.62
451.997	3423.86
452.203	3614.32
452.409	3845.74
452.615	4013.68
452.821	3825.26
453.027	3888.75
453.233	4521.57
453.44	4234.86
453.646	4468.33
453.852	4701.79
454.058	4851.3
454.264	4927.07
454.47	5221.98
454.676	5289.56
454.882	5883.47
455.088	5484.12
455.294	6057.55
455.5	6221.39
455.705	6653.51
455.911	6598.21
456.117	6643.27
456.323	7067.2
456.529	6970.94
456.735	7663.16
456.941	7685.69
457.147	8181.29
457.352	8308.27
457.558	8449.58
457.764	9213.47
457.97	9504.28
458.176	9743.89
458.381	10153.49
458.587	10569.23
458.793	11032.07
458.999	10751.49
459.204	12346.86
459.41	12561.9
459.616	12676.59
459.821	13440.48
460.027	14058.96
460.233	14507.47
460.438	14511.57
460.644	15537.6
460.85	15631.8
461.055	16235.95
461.261	16977.32
461.466	16889.26
461.672	17065.38
461.878	19193.22
462.083	18795.92
462.289	18931.08
462.494	19991.93
462.7	19981.69
462.905	20465.01
463.111	22357.33
463.316	23113.03
463.522	23586.11
463.727	24151.35
463.932	25169.19
464.138	25744.67
464.343	27034.89
464.549	27086.09
464.754	29285.61
464.959	29877.47
465.165	30250.21
465.37	30475.48
465.575	30475.48
465.781	32019.65
465.986	33596.59
466.191	32556.22
466.397	33017.01
466.602	32509.11
466.807	33883.3
467.012	34690.2
467.218	35501.2
467.423	35404.94
467.628	36365.44
467.833	38050.92
468.038	37481.58
468.244	36787.32
468.449	39009.37
468.654	37837.93
