Data from USB4F104151__141__11-04-15-139.txt Node

Date: Wed Feb 26 11:04:15 EST 2025
User: louis
Spectrometer: USB4F10415
Trigger mode: 4
Integration Time (sec): 1.000000E-1
Scans to average: 1
Electric dark correction enabled: true
Nonlinearity correction enabled: false
Boxcar width: 0
XAxis mode: Wavelengths
Number of Pixels in Spectrum: 3648
>>>>>Begin Spectral Data<<<<<
178.204	-400.72
178.424	-400.72
178.644	-400.72
178.864	-376.14
179.084	-329.04
179.304	45.74
179.524	-3.41
179.744	76.46
179.964	-3.41
180.184	-19.8
180.404	39.59
180.624	23.21
180.844	-5.46
181.064	-58.71
181.283	10.92
181.503	-103.76
181.723	-1.37
181.943	-118.1
182.163	176.81
182.383	-9.56
182.602	88.75
182.822	129.7
183.042	150.18
183.262	-46.42
183.482	-1.37
183.701	23.21
183.921	33.45
184.141	-56.66
184.361	111.27
184.58	66.22
184.8	47.79
185.02	-60.76
185.239	88.75
185.459	82.6
185.679	162.47
185.898	-93.52
186.118	53.93
186.338	39.59
186.557	58.03
186.777	-58.71
186.997	25.26
187.216	25.26
187.436	135.85
187.655	103.08
187.875	107.18
188.095	15.02
188.314	185
188.534	117.42
188.753	-15.7
188.973	103.08
189.192	195.24
189.412	43.69
189.631	39.59
189.851	144.04
190.07	166.57
190.29	-91.48
190.509	15.02
190.729	43.69
190.948	107.18
191.168	264.87
191.387	103.08
191.607	4.78
191.826	105.13
192.045	86.7
192.265	47.79
192.484	49.83
192.704	129.7
192.923	-52.56
193.142	96.94
193.362	101.03
193.581	242.34
193.8	64.17
194.02	123.56
194.239	-25.94
194.458	182.95
194.678	107.18
194.897	-3.41
195.116	55.98
195.335	123.56
195.555	78.51
195.774	-23.89
195.993	109.22
196.212	39.59
196.432	-21.85
196.651	0.68
196.87	-46.42
197.089	295.59
197.308	47.79
197.528	139.94
197.747	-7.51
197.966	105.13
198.185	129.7
198.404	70.31
198.623	101.03
198.842	129.7
199.062	146.09
199.281	141.99
199.5	35.5
199.719	139.94
199.938	127.66
200.157	105.13
200.376	103.08
200.595	187.05
200.814	117.42
201.033	21.16
201.252	105.13
201.471	31.4
201.69	4.78
201.909	37.55
202.128	109.22
202.347	78.51
202.566	58.03
202.785	-114
203.004	23.21
203.223	287.4
203.442	74.41
203.661	-21.85
203.879	37.55
204.098	82.6
204.317	-34.13
204.536	80.55
204.755	111.27
204.974	88.75
205.193	-68.95
205.411	187.05
205.63	115.37
205.849	49.83
206.068	25.26
206.287	-34.13
206.505	115.37
206.724	23.21
206.943	-11.61
207.162	-1.37
207.381	121.51
207.599	66.22
207.818	98.99
208.037	-15.7
208.255	-7.51
208.474	-17.75
208.693	6.83
208.911	82.6
209.13	144.04
209.349	62.12
209.567	66.22
209.786	123.56
210.005	98.99
210.223	6.83
210.442	-54.61
210.661	144.04
210.879	103.08
211.098	55.98
211.316	88.75
211.535	127.66
211.753	86.7
211.972	101.03
212.191	21.16
212.409	96.94
212.628	72.36
212.846	-9.56
213.065	51.88
213.283	123.56
213.502	82.6
213.72	88.75
213.938	10.92
214.157	6.83
214.375	47.79
214.594	111.27
214.812	62.12
215.031	-15.7
215.249	107.18
215.467	131.75
215.686	10.92
215.904	68.27
216.122	41.64
216.341	205.48
216.559	10.92
216.778	174.76
216.996	195.24
217.214	43.69
217.432	-1.37
217.651	-42.32
217.869	66.22
218.087	58.03
218.306	55.98
218.524	51.88
218.742	37.55
218.96	170.66
219.179	66.22
219.397	94.89
219.615	311.97
219.833	103.08
220.051	-58.71
220.27	72.36
220.488	111.27
220.706	131.75
220.924	-50.52
221.142	4.78
221.36	139.94
221.578	70.31
221.796	27.31
222.015	43.69
222.233	19.11
222.451	242.34
222.669	58.03
222.887	109.22
223.105	-15.7
223.323	-5.46
223.541	-9.56
223.759	-15.7
223.977	72.36
224.195	133.8
224.413	76.46
224.631	4.78
224.849	78.51
225.067	174.76
225.285	-5.46
225.503	-25.94
225.721	-71
225.939	103.08
226.157	111.27
226.375	254.63
226.592	-32.08
226.81	80.55
227.028	76.46
227.246	162.47
227.464	68.27
227.682	117.42
227.9	154.28
228.117	76.46
228.335	82.6
228.553	86.7
228.771	37.55
228.989	6.83
229.206	123.56
229.424	29.35
229.642	-15.7
229.86	-15.7
230.077	168.62
230.295	23.21
230.513	66.22
230.731	12.97
230.948	205.48
231.166	129.7
231.384	23.21
231.601	-5.46
231.819	228.01
232.037	70.31
232.254	29.35
232.472	68.27
232.689	-68.95
232.907	123.56
233.125	35.5
233.342	-32.08
233.56	74.41
233.777	6.83
233.995	-7.51
234.213	121.51
234.43	94.89
234.648	2.73
234.865	-1.37
235.083	55.98
235.3	90.79
235.518	129.7
235.735	166.57
235.953	58.03
236.17	33.45
236.388	92.84
236.605	55.98
236.822	53.93
237.04	139.94
237.257	-1.37
237.475	-36.18
237.692	55.98
237.909	144.04
238.127	66.22
238.344	80.55
238.562	84.65
238.779	29.35
238.996	2.73
239.214	74.41
239.431	107.18
239.648	80.55
239.865	105.13
240.083	148.14
240.3	-15.7
240.517	10.92
240.735	35.5
240.952	141.99
241.169	72.36
241.386	135.85
241.603	49.83
241.821	-38.23
242.038	139.94
242.255	47.79
242.472	-44.37
242.689	82.6
242.907	41.64
243.124	90.79
243.341	47.79
243.558	33.45
243.775	-34.13
243.992	-42.32
244.209	180.9
244.426	219.82
244.643	64.17
244.86	-23.89
245.078	121.51
245.295	35.5
245.512	70.31
245.729	-17.75
245.946	55.98
246.163	39.59
246.38	49.83
246.597	62.12
246.814	-7.51
247.031	31.4
247.248	55.98
247.464	111.27
247.681	109.22
247.898	-7.51
248.115	27.31
248.332	-13.65
248.549	133.8
248.766	164.52
248.983	82.6
249.2	35.5
249.417	74.41
249.633	76.46
249.85	27.31
250.067	92.84
250.284	19.11
250.501	168.62
250.717	68.27
250.934	-93.52
251.151	64.17
251.368	96.94
251.585	105.13
251.801	62.12
252.018	-17.75
252.235	191.14
252.451	49.83
252.668	35.5
252.885	158.38
253.102	94.89
253.318	8.87
253.535	37.55
253.752	82.6
253.968	-25.94
254.185	-52.56
254.401	115.37
254.618	43.69
254.835	78.51
255.051	137.9
255.268	94.89
255.484	64.17
255.701	53.93
255.917	-1.37
256.134	12.97
256.351	53.93
256.567	-9.56
256.784	62.12
257	-1.37
257.217	43.69
257.433	148.14
257.65	113.32
257.866	156.33
258.082	12.97
258.299	6.83
258.515	53.93
258.732	84.65
258.948	86.7
259.165	129.7
259.381	-60.76
259.597	96.94
259.814	19.11
260.03	17.07
260.246	43.69
260.463	127.66
260.679	113.32
260.895	49.83
261.112	64.17
261.328	74.41
261.544	19.11
261.761	139.94
261.977	-7.51
262.193	-13.65
262.409	121.51
262.626	53.93
262.842	-23.89
263.058	-19.8
263.274	129.7
263.49	111.27
263.707	107.18
263.923	70.31
264.139	-13.65
264.355	109.22
264.571	58.03
264.787	121.51
265.004	131.75
265.22	66.22
265.436	76.46
265.652	4.78
265.868	4.78
266.084	-19.8
266.3	-36.18
266.516	-27.99
266.732	115.37
266.948	-7.51
267.164	8.87
267.38	113.32
267.596	43.69
267.812	160.42
268.028	88.75
268.244	-56.66
268.46	35.5
268.676	-7.51
268.892	105.13
269.108	17.07
269.324	-15.7
269.54	-62.8
269.756	133.8
269.972	-56.66
270.188	39.59
270.403	-58.71
270.619	96.94
270.835	60.07
271.051	-23.89
271.267	55.98
271.483	-44.37
271.698	107.18
271.914	113.32
272.13	33.45
272.346	-30.04
272.562	41.64
272.777	160.42
272.993	-19.8
273.209	41.64
273.425	70.31
273.64	98.99
273.856	60.07
274.072	31.4
274.287	10.92
274.503	113.32
274.719	70.31
274.934	-15.7
275.15	-64.85
275.366	31.4
275.581	-17.75
275.797	15.02
276.012	41.64
276.228	19.11
276.444	51.88
276.659	107.18
276.875	2.73
277.09	25.26
277.306	47.79
277.521	53.93
277.737	35.5
277.952	45.74
278.168	-23.89
278.383	90.79
278.599	37.55
278.814	37.55
279.03	41.64
279.245	72.36
279.461	55.98
279.676	117.42
279.892	-5.46
280.107	47.79
280.322	-21.85
280.538	86.7
280.753	66.22
280.969	29.35
281.184	10.92
281.399	96.94
281.615	90.79
281.83	60.07
282.045	-36.18
282.26	-11.61
282.476	74.41
282.691	117.42
282.906	25.26
283.122	101.03
283.337	96.94
283.552	10.92
283.767	21.16
283.983	156.33
284.198	107.18
284.413	82.6
284.628	27.31
284.843	80.55
285.058	98.99
285.274	-13.65
285.489	78.51
285.704	141.99
285.919	-34.13
286.134	27.31
286.349	-46.42
286.564	25.26
286.779	195.24
286.995	17.07
287.21	-34.13
287.425	35.5
287.64	37.55
287.855	72.36
288.07	-89.43
288.285	98.99
288.5	92.84
288.715	164.52
288.93	25.26
289.145	-32.08
289.36	94.89
289.575	41.64
289.79	90.79
290.004	41.64
290.219	98.99
290.434	-36.18
290.649	-11.61
290.864	45.74
291.079	82.6
291.294	123.56
291.509	103.08
291.724	23.21
291.938	-44.37
292.153	64.17
292.368	121.51
292.583	115.37
292.798	70.31
293.012	129.7
293.227	58.03
293.442	2.73
293.657	121.51
293.871	150.18
294.086	43.69
294.301	225.96
294.516	74.41
294.73	-7.51
294.945	4.78
295.16	55.98
295.374	195.24
295.589	111.27
295.804	8.87
296.018	125.61
296.233	191.14
296.447	66.22
296.662	-101.72
296.877	166.57
297.091	74.41
297.306	21.16
297.52	88.75
297.735	8.87
297.949	76.46
298.164	8.87
298.378	78.51
298.593	-19.8
298.807	-27.99
299.022	53.93
299.236	88.75
299.451	15.02
299.665	58.03
299.88	92.84
300.094	-42.32
300.309	55.98
300.523	41.64
300.737	23.21
300.952	84.65
301.166	121.51
301.381	-11.61
301.595	-19.8
301.809	64.17
302.024	31.4
302.238	-21.85
302.452	160.42
302.667	92.84
302.881	123.56
303.095	135.85
303.309	70.31
303.524	53.93
303.738	31.4
303.952	-99.67
304.166	129.7
304.381	-114
304.595	201.38
304.809	4.78
305.023	-44.37
305.237	-17.75
305.452	-44.37
305.666	109.22
305.88	148.14
306.094	168.62
306.308	64.17
306.522	76.46
306.736	55.98
306.95	49.83
307.164	6.83
307.379	39.59
307.593	86.7
307.807	49.83
308.021	103.08
308.235	127.66
308.449	-83.28
308.663	80.55
308.877	287.4
309.091	76.46
309.305	78.51
309.519	-50.52
309.733	131.75
309.947	8.87
310.161	152.23
310.374	88.75
310.588	209.58
310.802	-32.08
311.016	45.74
311.23	82.6
311.444	4.78
311.658	101.03
311.872	113.32
312.085	174.76
312.299	125.61
312.513	228.01
312.727	55.98
312.941	-9.56
313.154	146.09
313.368	62.12
313.582	70.31
313.796	127.66
314.009	105.13
314.223	90.79
314.437	17.07
314.651	135.85
314.864	-5.46
315.078	17.07
315.292	-34.13
315.505	72.36
315.719	78.51
315.933	66.22
316.146	-15.7
316.36	-25.94
316.573	86.7
316.787	109.22
317.001	15.02
317.214	-3.41
317.428	25.26
317.641	-19.8
317.855	17.07
318.068	105.13
318.282	25.26
318.495	109.22
318.709	133.8
318.922	29.35
319.136	139.94
319.349	131.75
319.563	86.7
319.776	96.94
319.99	-32.08
320.203	129.7
320.417	76.46
320.63	111.27
320.843	111.27
321.057	139.94
321.27	47.79
321.483	205.48
321.697	96.94
321.91	27.31
322.124	51.88
322.337	35.5
322.55	10.92
322.763	98.99
322.977	-32.08
323.19	-7.51
323.403	66.22
323.617	88.75
323.83	121.51
324.043	125.61
324.256	90.79
324.469	41.64
324.683	129.7
324.896	49.83
325.109	37.55
325.322	-56.66
325.535	64.17
325.748	62.12
325.962	86.7
326.175	68.27
326.388	23.21
326.601	109.22
326.814	23.21
327.027	78.51
327.24	139.94
327.453	-140.63
327.666	115.37
327.879	101.03
328.092	62.12
328.305	119.46
328.518	51.88
328.731	10.92
328.944	-7.51
329.157	-3.41
329.37	51.88
329.583	238.25
329.796	58.03
330.009	-23.89
330.222	127.66
330.435	58.03
330.648	23.21
330.861	129.7
331.073	10.92
331.286	98.99
331.499	31.4
331.712	25.26
331.925	39.59
332.138	66.22
332.35	98.99
332.563	2.73
332.776	62.12
332.989	-48.47
333.202	94.89
333.414	37.55
333.627	72.36
333.84	21.16
334.053	41.64
334.265	64.17
334.478	0.68
334.691	33.45
334.903	64.17
335.116	17.07
335.329	4.78
335.541	113.32
335.754	164.52
335.966	-79.19
336.179	51.88
336.392	35.5
336.604	2.73
336.817	193.19
337.029	58.03
337.242	64.17
337.454	33.45
337.667	82.6
337.88	137.9
338.092	68.27
338.305	66.22
338.517	-50.52
338.729	72.36
338.942	189.1
339.154	-5.46
339.367	-3.41
339.579	135.85
339.792	31.4
340.004	103.08
340.217	96.94
340.429	47.79
340.641	39.59
340.854	-27.99
341.066	21.16
341.278	90.79
341.491	182.95
341.703	33.45
341.915	41.64
342.128	135.85
342.34	53.93
342.552	55.98
342.764	47.79
342.977	53.93
343.189	133.8
343.401	82.6
343.613	-15.7
343.826	72.36
344.038	53.93
344.25	123.56
344.462	17.07
344.674	82.6
344.886	-3.41
345.099	92.84
345.311	133.8
345.523	43.69
345.735	-34.13
345.947	51.88
346.159	74.41
346.371	146.09
346.583	53.93
346.795	135.85
347.007	10.92
347.219	123.56
347.431	109.22
347.643	96.94
347.855	35.5
348.067	162.47
348.279	-30.04
348.491	15.02
348.703	170.66
348.915	23.21
349.127	-17.75
349.339	154.28
349.551	10.92
349.763	41.64
349.975	90.79
350.187	88.75
350.399	180.9
350.61	35.5
350.822	-52.56
351.034	90.79
351.246	119.46
351.458	45.74
351.669	60.07
351.881	131.75
352.093	156.33
352.305	98.99
352.517	78.51
352.728	107.18
352.94	117.42
353.152	109.22
353.363	-44.37
353.575	19.11
353.787	168.62
353.999	49.83
354.21	152.23
354.422	21.16
354.633	35.5
354.845	27.31
355.057	47.79
355.268	-3.41
355.48	86.7
355.692	12.97
355.903	27.31
356.115	-3.41
356.326	-97.62
356.538	137.9
356.749	78.51
356.961	172.71
357.172	-27.99
357.384	-15.7
357.595	254.63
357.807	-27.99
358.018	4.78
358.23	37.55
358.441	105.13
358.653	141.99
358.864	158.38
359.075	86.7
359.287	135.85
359.498	15.02
359.709	94.89
359.921	43.69
360.132	148.14
360.344	88.75
360.555	-19.8
360.766	115.37
360.977	96.94
361.189	62.12
361.4	-42.32
361.611	107.18
361.823	174.76
362.034	96.94
362.245	-58.71
362.456	21.16
362.667	119.46
362.879	15.02
363.09	109.22
363.301	107.18
363.512	27.31
363.723	8.87
363.935	-40.28
364.146	160.42
364.357	8.87
364.568	29.35
364.779	6.83
364.99	139.94
365.201	-3.41
365.412	62.12
365.623	-21.85
365.834	150.18
366.045	35.5
366.256	88.75
366.467	88.75
366.678	23.21
366.889	17.07
367.1	35.5
367.311	76.46
367.522	10.92
367.733	103.08
367.944	146.09
368.155	6.83
368.366	78.51
368.577	121.51
368.788	60.07
368.999	-34.13
369.209	29.35
369.42	217.77
369.631	277.16
369.842	66.22
370.053	25.26
370.264	137.9
370.474	29.35
370.685	101.03
370.896	10.92
371.107	146.09
371.317	94.89
371.528	78.51
371.739	152.23
371.95	62.12
372.16	94.89
372.371	-17.75
372.582	8.87
372.792	60.07
373.003	51.88
373.214	125.61
373.424	66.22
373.635	-11.61
373.846	98.99
374.056	-19.8
374.267	8.87
374.477	80.55
374.688	27.31
374.898	37.55
375.109	70.31
375.319	101.03
375.53	146.09
375.74	189.1
375.951	-5.46
376.161	72.36
376.372	152.23
376.582	92.84
376.793	90.79
377.003	133.8
377.214	-27.99
377.424	105.13
377.635	2.73
377.845	35.5
378.055	115.37
378.266	-68.95
378.476	66.22
378.686	60.07
378.897	55.98
379.107	137.9
379.317	66.22
379.528	37.55
379.738	152.23
379.948	-46.42
380.158	88.75
380.369	66.22
380.579	90.79
380.789	58.03
380.999	35.5
381.21	150.18
381.42	180.9
381.63	12.97
381.84	88.75
382.05	-1.37
382.261	148.14
382.471	160.42
382.681	-68.95
382.891	234.15
383.101	43.69
383.311	10.92
383.521	-42.32
383.731	92.84
383.941	53.93
384.151	51.88
384.361	64.17
384.571	80.55
384.781	51.88
384.991	164.52
385.201	189.1
385.411	49.83
385.621	68.27
385.831	125.61
386.041	21.16
386.251	70.31
386.461	139.94
386.671	17.07
386.881	45.74
387.091	74.41
387.301	146.09
387.511	-3.41
387.72	146.09
387.93	152.23
388.14	-73.04
388.35	58.03
388.56	141.99
388.769	96.94
388.979	53.93
389.189	78.51
389.399	27.31
389.609	88.75
389.818	133.8
390.028	127.66
390.238	133.8
390.447	8.87
390.657	86.7
390.867	80.55
391.076	2.73
391.286	84.65
391.496	47.79
391.705	113.32
391.915	172.71
392.125	53.93
392.334	-7.51
392.544	139.94
392.753	92.84
392.963	-11.61
393.172	80.55
393.382	-46.42
393.591	185
393.801	-17.75
394.01	180.9
394.22	88.75
394.429	-19.8
394.639	51.88
394.848	96.94
395.058	84.65
395.267	0.68
395.477	148.14
395.686	123.56
395.895	209.58
396.105	230.06
396.314	86.7
396.524	12.97
396.733	6.83
396.942	107.18
397.152	137.9
397.361	187.05
397.57	84.65
397.78	84.65
397.989	51.88
398.198	211.62
398.407	68.27
398.617	-32.08
398.826	129.7
399.035	2.73
399.244	107.18
399.453	72.36
399.663	107.18
399.872	70.31
400.081	4.78
400.29	88.75
400.499	10.92
400.708	135.85
400.917	25.26
401.127	8.87
401.336	58.03
401.545	209.58
401.754	107.18
401.963	123.56
402.172	86.7
402.381	23.21
402.59	4.78
402.799	45.74
403.008	90.79
403.217	90.79
403.426	113.32
403.635	70.31
403.844	12.97
404.053	51.88
404.262	-27.99
404.471	154.28
404.68	78.51
404.888	-19.8
405.097	76.46
405.306	12.97
405.515	82.6
405.724	4.78
405.933	123.56
406.142	107.18
406.35	135.85
406.559	98.99
406.768	-3.41
406.977	207.53
407.185	113.32
407.394	152.23
407.603	37.55
407.812	107.18
408.02	86.7
408.229	90.79
408.438	15.02
408.646	-1.37
408.855	176.81
409.064	55.98
409.272	43.69
409.481	103.08
409.69	-58.71
409.898	68.27
410.107	31.4
410.315	96.94
410.524	45.74
410.733	15.02
410.941	-32.08
411.15	111.27
411.358	103.08
411.567	139.94
411.775	68.27
411.984	58.03
412.192	129.7
412.401	113.32
412.609	162.47
412.818	119.46
413.026	168.62
413.234	33.45
413.443	72.36
413.651	90.79
413.86	49.83
414.068	174.76
414.276	254.63
414.485	72.36
414.693	135.85
414.901	180.9
415.11	68.27
415.318	-40.28
415.526	-9.56
415.734	80.55
415.943	88.75
416.151	119.46
416.359	127.66
416.567	37.55
416.776	191.14
416.984	154.28
417.192	148.14
417.4	31.4
417.608	37.55
417.817	-3.41
418.025	80.55
418.233	225.96
418.441	74.41
418.649	45.74
418.857	101.03
419.065	223.91
419.273	90.79
419.481	101.03
419.689	45.74
419.897	133.8
420.105	47.79
420.313	174.76
420.521	219.82
420.729	137.9
420.937	39.59
421.145	-30.04
421.353	146.09
421.561	187.05
421.769	90.79
421.977	21.16
422.185	176.81
422.393	47.79
422.601	193.19
422.809	187.05
423.017	35.5
423.224	127.66
423.432	164.52
423.64	6.83
423.848	117.42
424.056	41.64
424.263	174.76
424.471	94.89
424.679	191.14
424.887	0.68
425.094	217.77
425.302	68.27
425.51	-13.65
425.718	119.46
425.925	101.03
426.133	15.02
426.341	176.81
426.548	-3.41
426.756	33.45
426.964	162.47
427.171	2.73
427.379	109.22
427.586	78.51
427.794	162.47
428.001	166.57
428.209	182.95
428.417	139.94
428.624	125.61
428.832	164.52
429.039	154.28
429.247	86.7
429.454	33.45
429.662	254.63
429.869	92.84
430.076	139.94
430.284	228.01
430.491	266.92
430.699	60.07
430.906	185
431.114	185
431.321	172.71
431.528	141.99
431.736	182.95
431.943	156.33
432.15	162.47
432.358	178.86
432.565	260.77
432.772	55.98
432.979	207.53
433.187	207.53
433.394	309.93
433.601	150.18
433.808	248.49
434.016	238.25
434.223	262.82
434.43	228.01
434.637	248.49
434.844	311.97
435.052	291.49
435.259	273.06
435.466	371.36
435.673	279.21
435.88	363.17
436.087	307.88
436.294	305.83
436.501	406.18
436.708	299.69
436.915	361.13
437.122	369.32
437.329	287.4
437.537	314.02
437.743	348.84
437.95	537.25
438.157	408.23
438.364	369.32
438.571	297.64
438.778	477.86
438.985	432.8
439.192	567.97
439.399	457.38
439.606	488.1
439.813	559.78
440.02	664.22
440.227	674.46
440.433	666.27
440.64	631.46
440.847	580.26
441.054	641.7
441.261	764.57
441.467	643.74
441.674	709.28
441.881	713.38
442.088	684.7
442.294	770.72
442.501	946.84
442.708	864.93
442.914	805.53
443.121	891.55
443.328	957.08
443.534	996
443.741	1036.95
443.948	897.69
444.154	969.37
444.361	1233.56
444.568	1092.25
444.774	1096.35
444.981	1079.96
445.187	1256.09
445.394	1268.38
445.6	1256.09
445.807	1350.29
446.013	1381.01
446.22	1319.57
446.426	1520.28
446.633	1526.42
446.839	1802.9
447.046	1467.03
447.252	1667.73
447.459	1774.22
447.665	1811.09
447.871	1899.15
448.078	2161.29
448.284	1952.4
448.491	2105.99
448.697	2198.15
448.903	2357.89
449.11	2230.92
449.316	2386.57
449.522	2491.01
449.728	2601.6
449.935	2693.76
450.141	2640.51
450.347	3074.68
450.553	2806.4
450.76	2830.98
450.966	2972.29
451.172	3152.51
451.378	3324.54
451.584	3259
451.791	3695.22
451.997	3828.34
452.203	3764.85
452.409	3994.22
452.615	3971.69
452.821	4061.8
453.027	3930.73
453.233	4545.13
453.44	4481.64
453.646	4747.87
453.852	4835.94
454.058	5139.04
454.264	5167.71
454.47	5665.36
454.676	5720.66
454.882	6093.39
455.088	5831.25
455.294	6169.16
455.5	6730.31
455.705	7008.83
455.911	7156.29
456.117	7105.09
456.323	7488.06
456.529	7436.86
456.735	8077.87
456.941	8444.46
457.147	8636.97
457.352	8778.28
457.558	8956.45
457.764	9648.66
457.97	9818.64
458.176	10355.21
458.381	10613.26
458.587	10940.93
458.793	11641.34
458.999	11694.58
459.204	12814.82
459.41	13367.77
459.616	13126.11
459.821	14103
460.027	14637.52
460.233	15444.42
460.438	15430.08
460.644	16142.77
460.85	16466.35
461.055	16923.05
461.261	17709.47
461.466	17523.1
461.672	17592.73
461.878	20152.7
462.083	19716.48
462.289	20259.19
462.494	20658.54
462.7	21141.86
462.905	21135.72
463.111	23224.65
463.316	24285.5
463.522	24557.88
463.727	25465.13
463.932	26335.51
464.138	27396.36
464.343	28363
464.549	28543.22
464.754	30587.1
464.959	30947.54
465.165	31744.2
465.37	31553.74
465.575	31502.54
465.781	33775.78
465.986	34756.76
466.191	34160.8
466.397	34408.61
466.602	33718.44
466.807	35600.52
467.012	36255.87
467.218	36581.5
467.423	36544.64
467.628	37752.94
467.833	39952.46
468.038	38668.38
468.244	38381.67
468.449	40259.65
468.654	39282.77
