Data from USB4F104151__299__11-21-27-126.txt Node

Date: Wed Feb 26 11:21:27 EST 2025
User: louis
Spectrometer: USB4F10415
Trigger mode: 4
Integration Time (sec): 1.000000E-1
Scans to average: 1
Electric dark correction enabled: true
Nonlinearity correction enabled: false
Boxcar width: 0
XAxis mode: Wavelengths
Number of Pixels in Spectrum: 3648
>>>>>Begin Spectral Data<<<<<
178.204	-320.17
178.424	-320.17
178.644	-320.17
178.864	-416.42
179.084	-389.8
179.304	1.37
179.524	-8.87
179.744	-21.16
179.964	36.18
180.184	-35.5
180.404	101.72
180.624	-49.83
180.844	17.75
181.064	-21.16
181.283	56.66
181.503	-105.13
181.723	27.99
181.943	-94.89
182.163	197.97
182.383	-47.79
182.602	32.08
182.822	144.72
183.042	93.52
183.262	-37.55
183.482	-15.02
183.701	27.99
183.921	87.38
184.141	48.47
184.361	118.1
184.58	68.95
184.8	32.08
185.02	27.99
185.239	109.91
185.459	95.57
185.679	73.04
185.898	-152.23
186.118	17.75
186.338	36.18
186.557	132.44
186.777	-72.36
186.997	5.46
187.216	46.42
187.436	165.2
187.655	30.04
187.875	79.19
188.095	-51.88
188.314	159.06
188.534	87.38
188.753	-23.21
188.973	134.48
189.192	146.77
189.412	9.56
189.631	-2.73
189.851	62.8
190.07	101.72
190.29	-55.98
190.509	5.46
190.729	62.8
190.948	120.15
191.168	247.12
191.387	40.28
191.607	154.96
191.826	-8.87
192.045	73.04
192.265	-4.78
192.484	52.56
192.704	21.85
192.923	-76.46
193.142	220.5
193.362	111.96
193.581	181.59
193.8	50.52
194.02	68.95
194.239	3.41
194.458	77.14
194.678	27.99
194.897	-0.68
195.116	21.85
195.335	77.14
195.555	56.66
195.774	-68.27
195.993	79.19
196.212	11.61
196.432	-21.16
196.651	23.89
196.87	1.37
197.089	218.45
197.308	36.18
197.528	19.8
197.747	-31.4
197.966	46.42
198.185	134.48
198.404	-15.02
198.623	114
198.842	71
199.062	91.48
199.281	85.33
199.5	68.95
199.719	124.24
199.938	60.76
200.157	97.62
200.376	42.32
200.595	126.29
200.814	99.67
201.033	1.37
201.252	124.24
201.471	15.7
201.69	116.05
201.909	7.51
202.128	146.77
202.347	118.1
202.566	60.76
202.785	-115.37
203.004	-23.21
203.223	267.6
203.442	97.62
203.661	-133.8
203.879	27.99
204.098	93.52
204.317	50.52
204.536	103.76
204.755	68.95
204.974	165.2
205.193	36.18
205.411	58.71
205.63	148.82
205.849	105.81
206.068	25.94
206.287	-43.69
206.505	144.72
206.724	15.7
206.943	30.04
207.162	7.51
207.381	181.59
207.599	48.47
207.818	-17.07
208.037	-10.92
208.255	36.18
208.474	23.89
208.693	126.29
208.911	-0.68
209.13	161.11
209.349	118.1
209.567	71
209.786	75.09
210.005	11.61
210.223	93.52
210.442	-103.08
210.661	144.72
210.879	36.18
211.098	17.75
211.316	27.99
211.535	114
211.753	95.57
211.972	64.85
212.191	-29.35
212.409	50.52
212.628	60.76
212.846	21.85
213.065	19.8
213.283	120.15
213.502	17.75
213.72	48.47
213.938	-2.73
214.157	34.13
214.375	173.39
214.594	42.32
214.812	19.8
215.031	46.42
215.249	42.32
215.467	34.13
215.686	13.65
215.904	56.66
216.122	15.7
216.341	122.2
216.559	68.95
216.778	93.52
216.996	87.38
217.214	25.94
217.432	54.61
217.651	-74.41
217.869	75.09
218.087	130.39
218.306	-51.88
218.524	-66.22
218.742	73.04
218.96	85.33
219.179	25.94
219.397	73.04
219.615	220.5
219.833	101.72
220.051	15.7
220.27	132.44
220.488	130.39
220.706	75.09
220.924	-49.83
221.142	56.66
221.36	11.61
221.578	7.51
221.796	107.86
222.015	52.56
222.233	116.05
222.451	154.96
222.669	-70.31
222.887	107.86
223.105	-101.03
223.323	97.62
223.541	40.28
223.759	77.14
223.977	64.85
224.195	171.35
224.413	73.04
224.631	42.32
224.849	89.43
225.067	243.03
225.285	1.37
225.503	-39.59
225.721	-21.16
225.939	83.28
226.157	87.38
226.375	275.79
226.592	-51.88
226.81	19.8
227.028	107.86
227.246	132.44
227.464	75.09
227.682	66.9
227.9	66.9
228.117	71
228.335	103.76
228.553	15.7
228.771	40.28
228.989	38.23
229.206	130.39
229.424	11.61
229.642	-98.99
229.86	-60.07
230.077	130.39
230.295	7.51
230.513	50.52
230.731	56.66
230.948	130.39
231.166	132.44
231.384	-39.59
231.601	5.46
231.819	130.39
232.037	42.32
232.254	-49.83
232.472	-37.55
232.689	5.46
232.907	99.67
233.125	11.61
233.342	3.41
233.56	-6.83
233.777	-8.87
233.995	34.13
234.213	97.62
234.43	126.29
234.648	58.71
234.865	30.04
235.083	68.95
235.3	44.37
235.518	87.38
235.735	124.24
235.953	134.48
236.17	105.81
236.388	9.56
236.605	48.47
236.822	87.38
237.04	122.2
237.257	-23.21
237.475	-15.02
237.692	93.52
237.909	97.62
238.127	23.89
238.344	-8.87
238.562	97.62
238.779	-60.07
238.996	-33.45
239.214	58.71
239.431	105.81
239.648	7.51
239.865	111.96
240.083	68.95
240.3	-23.21
240.517	-25.26
240.735	83.28
240.952	161.11
241.169	9.56
241.386	68.95
241.603	-23.21
241.821	-49.83
242.038	68.95
242.255	169.3
242.472	7.51
242.689	101.72
242.907	75.09
243.124	46.42
243.341	60.76
243.558	-23.21
243.775	25.94
243.992	-39.59
244.209	128.34
244.426	152.91
244.643	3.41
244.86	-0.68
245.078	114
245.295	116.05
245.512	68.95
245.729	-51.88
245.946	62.8
246.163	73.04
246.38	27.99
246.597	103.76
246.814	46.42
247.031	77.14
247.248	56.66
247.464	105.81
247.681	87.38
247.898	46.42
248.115	62.8
248.332	-49.83
248.549	114
248.766	97.62
248.983	38.23
249.2	109.91
249.417	89.43
249.633	3.41
249.85	99.67
250.067	-10.92
250.284	40.28
250.501	40.28
250.717	75.09
250.934	1.37
251.151	-23.21
251.368	15.7
251.585	120.15
251.801	15.7
252.018	46.42
252.235	83.28
252.451	-70.31
252.668	-10.92
252.885	140.63
253.102	15.7
253.318	-74.41
253.535	-0.68
253.752	9.56
253.968	-10.92
254.185	-80.55
254.401	23.89
254.618	3.41
254.835	-15.02
255.051	48.47
255.268	71
255.484	62.8
255.701	50.52
255.917	-8.87
256.134	-33.45
256.351	25.94
256.567	-25.26
256.784	32.08
257	-80.55
257.217	107.86
257.433	114
257.65	89.43
257.866	103.76
258.082	5.46
258.299	-29.35
258.515	30.04
258.732	11.61
258.948	32.08
259.165	126.29
259.381	25.94
259.597	128.34
259.814	23.89
260.03	-6.83
260.246	34.13
260.463	64.85
260.679	101.72
260.895	40.28
261.112	9.56
261.328	-41.64
261.544	30.04
261.761	99.67
261.977	-8.87
262.193	-55.98
262.409	152.91
262.626	36.18
262.842	13.65
263.058	-74.41
263.274	154.96
263.49	-8.87
263.707	23.89
263.923	44.37
264.139	-70.31
264.355	36.18
264.571	132.44
264.787	79.19
265.004	114
265.22	54.61
265.436	-4.78
265.652	15.7
265.868	34.13
266.084	-39.59
266.3	52.56
266.516	23.89
266.732	-8.87
266.948	1.37
267.164	44.37
267.38	107.86
267.596	93.52
267.812	99.67
268.028	40.28
268.244	3.41
268.46	75.09
268.676	11.61
268.892	42.32
269.108	-4.78
269.324	-76.46
269.54	-23.21
269.756	50.52
269.972	34.13
270.188	66.9
270.403	-66.22
270.619	21.85
270.835	25.94
271.051	58.71
271.267	40.28
271.483	-6.83
271.698	48.47
271.914	85.33
272.13	-2.73
272.346	-19.11
272.562	60.76
272.777	105.81
272.993	-8.87
273.209	54.61
273.425	73.04
273.64	-62.12
273.856	118.1
274.072	-78.51
274.287	11.61
274.503	134.48
274.719	42.32
274.934	128.34
275.15	-29.35
275.366	7.51
275.581	11.61
275.797	27.99
276.012	32.08
276.228	3.41
276.444	85.33
276.659	177.49
276.875	-47.79
277.09	-2.73
277.306	23.89
277.521	7.51
277.737	56.66
277.952	-37.55
278.168	103.76
278.383	-33.45
278.599	58.71
278.814	93.52
279.03	-2.73
279.245	171.35
279.461	50.52
279.676	109.91
279.892	-35.5
280.107	-74.41
280.322	-10.92
280.538	52.56
280.753	60.76
280.969	17.75
281.184	9.56
281.399	128.34
281.615	32.08
281.83	83.28
282.045	-55.98
282.26	42.32
282.476	-47.79
282.691	79.19
282.906	-6.83
283.122	50.52
283.337	-29.35
283.552	109.91
283.767	30.04
283.983	132.44
284.198	11.61
284.413	130.39
284.628	9.56
284.843	1.37
285.058	66.9
285.274	15.7
285.489	-98.99
285.704	120.15
285.919	-37.55
286.134	9.56
286.349	48.47
286.564	5.46
286.779	138.58
286.995	79.19
287.21	-101.03
287.425	95.57
287.64	36.18
287.855	-10.92
288.07	-23.21
288.285	89.43
288.5	95.57
288.715	38.23
288.93	-53.93
289.145	-33.45
289.36	101.72
289.575	71
289.79	132.44
290.004	-19.11
290.219	152.91
290.434	3.41
290.649	-17.07
290.864	-19.11
291.079	62.8
291.294	25.94
291.509	-15.02
291.724	81.24
291.938	-6.83
292.153	27.99
292.368	36.18
292.583	81.24
292.798	32.08
293.012	52.56
293.227	73.04
293.442	-2.73
293.657	138.58
293.871	111.96
294.086	81.24
294.301	148.82
294.516	105.81
294.73	107.86
294.945	1.37
295.16	40.28
295.374	124.24
295.589	134.48
295.804	56.66
296.018	56.66
296.233	150.87
296.447	5.46
296.662	-8.87
296.877	85.33
297.091	116.05
297.306	81.24
297.52	-2.73
297.735	71
297.949	44.37
298.164	42.32
298.378	77.14
298.593	-0.68
298.807	46.42
299.022	-43.69
299.236	89.43
299.451	17.75
299.665	-53.93
299.88	56.66
300.094	-33.45
300.309	-78.51
300.523	52.56
300.737	7.51
300.952	79.19
301.166	38.23
301.381	-62.12
301.595	23.89
301.809	30.04
302.024	-43.69
302.238	23.89
302.452	128.34
302.667	32.08
302.881	128.34
303.095	124.24
303.309	-29.35
303.524	7.51
303.738	52.56
303.952	-10.92
304.166	77.14
304.381	-66.22
304.595	177.49
304.809	27.99
305.023	42.32
305.237	-25.26
305.452	42.32
305.666	142.68
305.88	105.81
306.094	71
306.308	68.95
306.522	66.9
306.736	25.94
306.95	120.15
307.164	17.75
307.379	-12.97
307.593	83.28
307.807	50.52
308.021	144.72
308.235	71
308.449	-70.31
308.663	73.04
308.877	228.69
309.091	97.62
309.305	130.39
309.519	-96.94
309.733	159.06
309.947	-135.85
310.161	60.76
310.374	71
310.588	25.94
310.802	-12.97
311.016	-47.79
311.23	146.77
311.444	-33.45
311.658	66.9
311.872	138.58
312.085	144.72
312.299	140.63
312.513	157.01
312.727	36.18
312.941	1.37
313.154	107.86
313.368	23.89
313.582	52.56
313.796	-12.97
314.009	-47.79
314.223	140.63
314.437	54.61
314.651	103.76
314.864	7.51
315.078	17.75
315.292	-70.31
315.505	-33.45
315.719	-21.16
315.933	-17.07
316.146	32.08
316.36	-37.55
316.573	66.9
316.787	107.86
317.001	157.01
317.214	-35.5
317.428	25.94
317.641	-6.83
317.855	85.33
318.068	46.42
318.282	93.52
318.495	177.49
318.709	46.42
318.922	81.24
319.136	152.91
319.349	179.54
319.563	-17.07
319.776	48.47
319.99	-115.37
320.203	85.33
320.417	40.28
320.63	167.25
320.843	187.73
321.057	101.72
321.27	79.19
321.483	179.54
321.697	154.96
321.91	40.28
322.124	62.8
322.337	75.09
322.55	-8.87
322.763	50.52
322.977	19.8
323.19	17.75
323.403	32.08
323.617	17.75
323.83	142.68
324.043	-29.35
324.256	71
324.469	13.65
324.683	79.19
324.896	52.56
325.109	56.66
325.322	-2.73
325.535	91.48
325.748	146.77
325.962	-8.87
326.175	68.95
326.388	58.71
326.601	179.54
326.814	-21.16
327.027	77.14
327.24	210.26
327.453	-45.74
327.666	52.56
327.879	200.02
328.092	60.76
328.305	193.87
328.518	25.94
328.731	-35.5
328.944	40.28
329.157	34.13
329.37	3.41
329.583	109.91
329.796	103.76
330.009	-84.65
330.222	60.76
330.435	128.34
330.648	30.04
330.861	36.18
331.073	46.42
331.286	75.09
331.499	-0.68
331.712	-29.35
331.925	42.32
332.138	-12.97
332.35	179.54
332.563	-25.26
332.776	114
332.989	-74.41
333.202	54.61
333.414	56.66
333.627	93.52
333.84	25.94
334.053	15.7
334.265	19.8
334.478	-62.12
334.691	85.33
334.903	-17.07
335.116	-2.73
335.329	7.51
335.541	75.09
335.754	122.2
335.966	62.8
336.179	-8.87
336.392	42.32
336.604	5.46
336.817	103.76
337.029	148.82
337.242	48.47
337.454	56.66
337.667	-27.31
337.88	154.96
338.092	48.47
338.305	36.18
338.517	62.8
338.729	136.53
338.942	175.44
339.154	13.65
339.367	-19.11
339.579	52.56
339.792	-19.11
340.004	56.66
340.217	68.95
340.429	27.99
340.641	30.04
340.854	-58.03
341.066	46.42
341.278	99.67
341.491	161.11
341.703	107.86
341.915	-8.87
342.128	64.85
342.34	44.37
342.552	-33.45
342.764	142.68
342.977	3.41
343.189	126.29
343.401	-23.21
343.613	-55.98
343.826	48.47
344.038	-10.92
344.25	15.7
344.462	32.08
344.674	50.52
344.886	83.28
345.099	128.34
345.311	64.85
345.523	-17.07
345.735	-29.35
345.947	58.71
346.159	25.94
346.371	-55.98
346.583	73.04
346.795	185.68
347.007	17.75
347.219	91.48
347.431	-10.92
347.643	99.67
347.855	27.99
348.067	111.96
348.279	-6.83
348.491	19.8
348.703	126.29
348.915	-8.87
349.127	-12.97
349.339	64.85
349.551	52.56
349.763	118.1
349.975	73.04
350.187	124.24
350.399	95.57
350.61	30.04
350.822	38.23
351.034	40.28
351.246	152.91
351.458	54.61
351.669	111.96
351.881	79.19
352.093	77.14
352.305	71
352.517	60.76
352.728	99.67
352.94	38.23
353.152	79.19
353.363	-55.98
353.575	73.04
353.787	210.26
353.999	103.76
354.21	197.97
354.422	-51.88
354.633	11.61
354.845	83.28
355.057	32.08
355.268	13.65
355.48	154.96
355.692	-39.59
355.903	-10.92
356.115	-41.64
356.326	-133.8
356.538	134.48
356.749	48.47
356.961	122.2
357.172	-33.45
357.384	-2.73
357.595	130.39
357.807	-141.99
358.018	44.37
358.23	5.46
358.441	157.01
358.653	99.67
358.864	52.56
359.075	-8.87
359.287	-33.45
359.498	118.1
359.709	11.61
359.921	36.18
360.132	81.24
360.344	60.76
360.555	32.08
360.766	58.71
360.977	15.7
361.189	148.82
361.4	79.19
361.611	165.2
361.823	73.04
362.034	81.24
362.245	-62.12
362.456	71
362.667	146.77
362.879	-21.16
363.09	54.61
363.301	103.76
363.512	1.37
363.723	56.66
363.935	-23.21
364.146	128.34
364.357	105.81
364.568	97.62
364.779	-33.45
364.99	130.39
365.201	-47.79
365.412	97.62
365.623	-25.26
365.834	85.33
366.045	58.71
366.256	152.91
366.467	42.32
366.678	23.89
366.889	54.61
367.1	21.85
367.311	105.81
367.522	-0.68
367.733	89.43
367.944	79.19
368.155	30.04
368.366	103.76
368.577	144.72
368.788	85.33
368.999	5.46
369.209	73.04
369.42	232.79
369.631	171.35
369.842	105.81
370.053	-39.59
370.264	114
370.474	-31.4
370.685	126.29
370.896	75.09
371.107	175.44
371.317	75.09
371.528	34.13
371.739	89.43
371.95	154.96
372.16	79.19
372.371	-70.31
372.582	77.14
372.792	58.71
373.003	101.72
373.214	73.04
373.424	83.28
373.635	-6.83
373.846	111.96
374.056	44.37
374.267	134.48
374.477	89.43
374.688	9.56
374.898	54.61
375.109	107.86
375.319	85.33
375.53	132.44
375.74	116.05
375.951	48.47
376.161	146.77
376.372	107.86
376.582	25.94
376.793	46.42
377.003	-41.64
377.214	-33.45
377.424	134.48
377.635	89.43
377.845	-4.78
378.055	181.59
378.266	-80.55
378.476	93.52
378.686	62.8
378.897	62.8
379.107	105.81
379.317	60.76
379.528	-2.73
379.738	9.56
379.948	-64.17
380.158	93.52
380.369	21.85
380.579	44.37
380.789	-49.83
380.999	85.33
381.21	126.29
381.42	165.2
381.63	-76.46
381.84	85.33
382.05	68.95
382.261	138.58
382.471	103.76
382.681	-27.31
382.891	150.87
383.101	64.85
383.311	7.51
383.521	-0.68
383.731	93.52
383.941	93.52
384.151	75.09
384.361	27.99
384.571	54.61
384.781	111.96
384.991	173.39
385.201	118.1
385.411	66.9
385.621	95.57
385.831	54.61
386.041	68.95
386.251	40.28
386.461	42.32
386.671	15.7
386.881	5.46
387.091	5.46
387.301	77.14
387.511	21.85
387.72	17.75
387.93	99.67
388.14	-74.41
388.35	130.39
388.56	136.53
388.769	105.81
388.979	62.8
389.189	21.85
389.399	54.61
389.609	71
389.818	105.81
390.028	38.23
390.238	54.61
390.447	27.99
390.657	134.48
390.867	9.56
391.076	-21.16
391.286	68.95
391.496	23.89
391.705	30.04
391.915	54.61
392.125	140.63
392.334	36.18
392.544	154.96
392.753	9.56
392.963	36.18
393.172	107.86
393.382	44.37
393.591	255.31
393.801	27.99
394.01	152.91
394.22	9.56
394.429	21.85
394.639	-8.87
394.848	62.8
395.058	101.72
395.267	34.13
395.477	81.24
395.686	99.67
395.895	148.82
396.105	216.4
396.314	91.48
396.524	58.71
396.733	54.61
396.942	136.53
397.152	52.56
397.361	89.43
397.57	62.8
397.78	19.8
397.989	95.57
398.198	269.65
398.407	7.51
398.617	-2.73
398.826	120.15
399.035	44.37
399.244	81.24
399.453	62.8
399.663	5.46
399.872	144.72
400.081	-17.07
400.29	101.72
400.499	-33.45
400.708	60.76
400.917	46.42
401.127	66.9
401.336	38.23
401.545	177.49
401.754	58.71
401.963	99.67
402.172	-6.83
402.381	-119.46
402.59	19.8
402.799	116.05
403.008	68.95
403.217	111.96
403.426	99.67
403.635	-23.21
403.844	54.61
404.053	-4.78
404.262	36.18
404.471	265.55
404.68	73.04
404.888	30.04
405.097	46.42
405.306	40.28
405.515	202.07
405.724	71
405.933	144.72
406.142	38.23
406.35	118.1
406.559	-2.73
406.768	64.85
406.977	169.3
407.185	75.09
407.394	73.04
407.603	13.65
407.812	3.41
408.02	83.28
408.229	83.28
408.438	128.34
408.646	25.94
408.855	91.48
409.064	93.52
409.272	91.48
409.481	118.1
409.69	-64.17
409.898	-55.98
410.107	52.56
410.315	134.48
410.524	42.32
410.733	38.23
410.941	79.19
411.15	87.38
411.358	54.61
411.567	114
411.775	27.99
411.984	109.91
412.192	118.1
412.401	36.18
412.609	226.64
412.818	159.06
413.026	60.76
413.234	66.9
413.443	38.23
413.651	-49.83
413.86	105.81
414.068	185.68
414.276	134.48
414.485	85.33
414.693	240.98
414.901	183.63
415.11	91.48
415.318	38.23
415.526	83.28
415.734	154.96
415.943	148.82
416.151	134.48
416.359	58.71
416.567	101.72
416.776	114
416.984	159.06
417.192	167.25
417.4	7.51
417.608	42.32
417.817	-25.26
418.025	177.49
418.233	204.11
418.441	-39.59
418.649	-0.68
418.857	114
419.065	83.28
419.273	-58.03
419.481	46.42
419.689	-29.35
419.897	11.61
420.105	13.65
420.313	79.19
420.521	73.04
420.729	89.43
420.937	-2.73
421.145	-58.03
421.353	93.52
421.561	122.2
421.769	95.57
421.977	5.46
422.185	83.28
422.393	34.13
422.601	136.53
422.809	101.72
423.017	-21.16
423.224	83.28
423.432	150.87
423.64	36.18
423.848	140.63
424.056	32.08
424.263	142.68
424.471	77.14
424.679	157.01
424.887	-35.5
425.094	193.87
425.302	73.04
425.51	27.99
425.718	179.54
425.925	62.8
426.133	42.32
426.341	167.25
426.548	25.94
426.756	103.76
426.964	83.28
427.171	-33.45
427.379	9.56
427.586	148.82
427.794	144.72
428.001	152.91
428.209	89.43
428.417	124.24
428.624	173.39
428.832	79.19
429.039	128.34
429.247	81.24
429.454	109.91
429.662	206.16
429.869	81.24
430.076	48.47
430.284	173.39
430.491	222.55
430.699	150.87
430.906	187.73
431.114	116.05
431.321	142.68
431.528	146.77
431.736	144.72
431.943	118.1
432.15	169.3
432.358	138.58
432.565	335.18
432.772	11.61
432.979	212.31
433.187	140.63
433.394	159.06
433.601	120.15
433.808	197.97
434.016	197.97
434.223	261.46
434.43	202.07
434.637	240.98
434.844	238.93
435.052	232.79
435.259	306.51
435.466	253.27
435.673	218.45
435.88	234.83
436.087	314.7
436.294	251.22
436.501	312.66
436.708	230.74
436.915	247.12
437.122	341.33
437.329	191.83
437.537	294.22
437.743	335.18
437.95	392.53
438.157	310.61
438.364	374.1
438.571	320.85
438.778	445.77
438.985	337.23
439.192	447.82
439.399	347.47
439.606	486.73
439.813	433.49
440.02	679.24
440.227	617.8
440.433	437.58
440.64	486.73
440.847	490.83
441.054	537.93
441.261	632.14
441.467	574.8
441.674	513.36
441.881	652.62
442.088	675.15
442.294	642.38
442.501	681.29
442.708	789.83
442.914	609.61
443.121	793.93
443.328	744.78
443.534	906.57
443.741	781.64
443.948	820.55
444.154	867.66
444.361	1021.25
444.568	927.05
444.774	968.01
444.981	859.46
445.187	1152.32
445.394	1037.64
445.6	961.86
445.807	1166.66
446.013	1230.15
446.22	1146.18
446.426	1299.78
446.633	1490.24
446.839	1523.01
447.046	1287.49
447.252	1539.39
447.459	1520.96
447.665	1416.51
447.871	1744.19
448.078	1776.95
448.284	1834.3
448.491	1791.29
448.697	1967.42
448.903	2000.18
449.11	2018.61
449.316	2047.29
449.522	2129.2
449.728	2280.75
449.935	2481.46
450.141	2340.15
450.347	2456.88
450.553	2448.69
450.76	2501.94
450.966	2796.84
451.172	2759.98
451.378	3020.07
451.584	2858.28
451.791	3323.17
451.997	3181.86
452.203	3384.61
452.409	3415.33
452.615	3685.66
452.821	3599.65
453.027	3532.06
453.233	4093.21
453.44	3849.5
453.646	4058.39
453.852	4261.14
454.058	4455.7
454.264	4615.44
454.47	4857.1
454.676	4982.03
454.882	5317.89
455.088	5037.32
455.294	5346.56
455.5	5651.71
455.705	6104.31
455.911	6006.01
456.117	6223.09
456.323	6259.96
456.529	6612.21
456.735	6937.84
456.941	7138.54
457.147	7453.92
457.352	7804.13
457.558	7996.64
457.764	8334.55
457.97	8525.01
458.176	8926.41
458.381	9364.68
458.587	9583.81
458.793	10058.94
458.999	9899.2
459.204	11146.41
459.41	11527.33
459.616	11469.99
459.821	12283.03
460.027	12584.09
460.233	13214.86
460.438	13153.42
460.644	13845.63
460.85	13911.17
461.055	14488.7
461.261	15299.69
461.466	14963.82
461.672	15328.36
461.878	17130.58
462.083	17044.56
462.289	17382.48
462.494	18031.68
462.7	18066.5
462.905	18279.49
463.111	19811.37
463.316	20737.05
463.522	21433.36
463.727	21597.2
463.932	22776.83
464.138	23434.22
464.343	24376.29
464.549	24769.5
464.754	26035.14
464.959	27139
465.165	27540.4
465.37	27313.08
465.575	27253.69
465.781	28804
465.986	30094.22
466.191	29621.14
466.397	30120.84
466.602	29373.33
466.807	30804.86
467.012	31222.65
467.218	31980.4
467.423	31746.93
467.628	33051.48
467.833	34532.17
468.038	33610.58
468.244	33241.95
468.449	35056.45
468.654	34022.22
468.859	34366.28
469.064	34149.2
469.269	33657.68
