Data from USB4F104151__34__10-42-32-982.txt Node

Date: Wed Feb 26 10:42:32 EST 2025
User: louis
Spectrometer: USB4F10415
Trigger mode: 4
Integration Time (sec): 1.000000E-1
Scans to average: 1
Electric dark correction enabled: true
Nonlinearity correction enabled: false
Boxcar width: 0
XAxis mode: Wavelengths
Number of Pixels in Spectrum: 3648
>>>>>Begin Spectral Data<<<<<
178.204	-397.82
178.424	-397.82
178.644	-397.82
178.864	-442.87
179.084	-332.28
179.304	-12.8
179.524	62.98
179.744	38.4
179.964	-6.66
180.184	-4.61
180.404	13.82
180.624	1.54
180.844	30.21
181.064	-78.33
181.283	-20.99
181.503	-80.38
181.723	56.83
181.943	-96.77
182.163	140.8
182.383	3.58
182.602	116.22
182.822	157.18
183.042	99.84
183.262	5.63
183.482	73.21
183.701	26.11
183.921	73.21
184.141	-0.51
184.361	124.41
184.58	83.45
184.8	67.07
185.02	-39.42
185.239	114.17
185.459	73.21
185.679	153.09
185.898	-14.85
186.118	128.51
186.338	132.61
186.557	112.13
186.777	58.88
186.997	-10.75
187.216	9.73
187.436	210.43
187.655	114.17
187.875	136.7
188.095	15.87
188.314	103.93
188.534	114.17
188.753	9.73
188.973	136.7
189.192	155.13
189.412	65.02
189.631	79.36
189.851	85.5
190.07	124.41
190.29	-4.61
190.509	7.68
190.729	-0.51
190.948	151.04
191.168	253.44
191.387	91.65
191.607	77.31
191.826	54.78
192.045	-20.99
192.265	60.93
192.484	24.06
192.704	81.41
192.923	-2.56
193.142	230.91
193.362	97.79
193.581	130.56
193.8	28.16
194.02	165.37
194.239	38.4
194.458	17.92
194.678	110.08
194.897	36.35
195.116	58.88
195.335	42.5
195.555	79.36
195.774	5.63
195.993	62.98
196.212	-45.57
196.432	-8.7
196.651	24.06
196.87	-4.61
197.089	220.67
197.308	136.7
197.528	99.84
197.747	-70.14
197.966	1.54
198.185	146.94
198.404	-18.94
198.623	79.36
198.842	50.69
199.062	73.21
199.281	95.74
199.5	-4.61
199.719	95.74
199.938	7.68
200.157	124.41
200.376	-8.7
200.595	89.6
200.814	103.93
201.033	-51.71
201.252	146.94
201.471	42.5
201.69	124.41
201.909	38.4
202.128	148.99
202.347	69.12
202.566	69.12
202.785	-76.29
203.004	19.97
203.223	284.16
203.442	-4.61
203.661	7.68
203.879	52.74
204.098	144.89
204.317	-55.81
204.536	44.54
204.755	112.13
204.974	108.03
205.193	75.26
205.411	153.09
205.63	132.61
205.849	85.5
206.068	-29.18
206.287	-47.62
206.505	58.88
206.724	15.87
206.943	42.5
207.162	-49.66
207.381	79.36
207.599	30.21
207.818	3.58
208.037	-10.75
208.255	54.78
208.474	97.79
208.693	69.12
208.911	22.02
209.13	97.79
209.349	48.64
209.567	130.56
209.786	60.93
210.005	140.8
210.223	26.11
210.442	-49.66
210.661	22.02
210.879	93.69
211.098	97.79
211.316	13.82
211.535	132.61
211.753	62.98
211.972	77.31
212.191	-16.9
212.409	-35.33
212.628	42.5
212.846	-16.9
213.065	-39.42
213.283	122.37
213.502	79.36
213.72	58.88
213.938	75.26
214.157	112.13
214.375	112.13
214.594	58.88
214.812	50.69
215.031	54.78
215.249	13.82
215.467	71.17
215.686	60.93
215.904	138.75
216.122	-12.8
216.341	200.19
216.559	144.89
216.778	54.78
216.996	204.28
217.214	22.02
217.432	-14.85
217.651	-41.47
217.869	-23.04
218.087	56.83
218.306	32.26
218.524	97.79
218.742	13.82
218.96	146.94
219.179	22.02
219.397	85.5
219.615	155.13
219.833	91.65
220.051	-10.75
220.27	128.51
220.488	148.99
220.706	7.68
220.924	30.21
221.142	30.21
221.36	36.35
221.578	87.55
221.796	22.02
222.015	26.11
222.233	103.93
222.451	155.13
222.669	9.73
222.887	132.61
223.105	-2.56
223.323	58.88
223.541	-68.09
223.759	-2.56
223.977	56.83
224.195	220.67
224.413	110.08
224.631	77.31
224.849	77.31
225.067	255.48
225.285	73.21
225.503	34.3
225.721	-31.23
225.939	58.88
226.157	-0.51
226.375	226.81
226.592	44.54
226.81	3.58
227.028	157.18
227.246	177.66
227.464	77.31
227.682	81.41
227.9	85.5
228.117	136.7
228.335	75.26
228.553	36.35
228.771	7.68
228.989	38.4
229.206	42.5
229.424	24.06
229.642	-45.57
229.86	9.73
230.077	177.66
230.295	40.45
230.513	73.21
230.731	110.08
230.948	116.22
231.166	142.85
231.384	34.3
231.601	-8.7
231.819	99.84
232.037	-49.66
232.254	-23.04
232.472	13.82
232.689	40.45
232.907	114.17
233.125	36.35
233.342	5.63
233.56	46.59
233.777	42.5
233.995	34.3
234.213	62.98
234.43	128.51
234.648	56.83
234.865	7.68
235.083	83.45
235.3	81.41
235.518	157.18
235.735	153.09
235.953	136.7
236.17	60.93
236.388	54.78
236.605	17.92
236.822	105.98
237.04	173.57
237.257	13.82
237.475	-0.51
237.692	-6.66
237.909	58.88
238.127	24.06
238.344	50.69
238.562	79.36
238.779	-100.86
238.996	-2.56
239.214	38.4
239.431	120.32
239.648	24.06
239.865	36.35
240.083	93.69
240.3	50.69
240.517	93.69
240.735	1.54
240.952	108.03
241.169	79.36
241.386	161.28
241.603	-0.51
241.821	-66.05
242.038	169.47
242.255	71.17
242.472	44.54
242.689	103.93
242.907	73.21
243.124	19.97
243.341	28.16
243.558	-45.57
243.775	17.92
243.992	-12.8
244.209	38.4
244.426	118.27
244.643	103.93
244.86	1.54
245.078	73.21
245.295	93.69
245.512	-8.7
245.729	-16.9
245.946	56.83
246.163	24.06
246.38	-8.7
246.597	97.79
246.814	58.88
247.031	56.83
247.248	13.82
247.464	79.36
247.681	73.21
247.898	46.59
248.115	3.58
248.332	-23.04
248.549	124.41
248.766	216.57
248.983	108.03
249.2	120.32
249.417	183.81
249.633	32.26
249.85	60.93
250.067	1.54
250.284	-8.7
250.501	136.7
250.717	75.26
250.934	-29.18
251.151	-25.09
251.368	69.12
251.585	85.5
251.801	101.89
252.018	-16.9
252.235	148.99
252.451	-33.28
252.668	-2.56
252.885	226.81
253.102	77.31
253.318	22.02
253.535	38.4
253.752	60.93
253.968	-27.14
254.185	-23.04
254.401	77.31
254.618	189.95
254.835	32.26
255.051	183.81
255.268	60.93
255.484	112.13
255.701	77.31
255.917	67.07
256.134	-74.24
256.351	24.06
256.567	-16.9
256.784	75.26
257	3.58
257.217	91.65
257.433	110.08
257.65	126.46
257.866	130.56
258.082	-20.99
258.299	-0.51
258.515	69.12
258.732	-31.23
258.948	22.02
259.165	81.41
259.381	73.21
259.597	101.89
259.814	48.64
260.03	77.31
260.246	9.73
260.463	130.56
260.679	157.18
260.895	11.78
261.112	112.13
261.328	-14.85
261.544	52.74
261.761	144.89
261.977	73.21
262.193	24.06
262.409	75.26
262.626	24.06
262.842	89.6
263.058	-25.09
263.274	114.17
263.49	105.98
263.707	91.65
263.923	148.99
264.139	-27.14
264.355	65.02
264.571	116.22
264.787	32.26
265.004	134.65
265.22	87.55
265.436	-0.51
265.652	19.97
265.868	26.11
266.084	-72.19
266.3	36.35
266.516	-25.09
266.732	97.79
266.948	62.98
267.164	54.78
267.38	151.04
267.596	-0.51
267.812	175.61
268.028	71.17
268.244	56.83
268.46	62.98
268.676	-0.51
268.892	73.21
269.108	9.73
269.324	-33.28
269.54	1.54
269.756	118.27
269.972	-39.42
270.188	95.74
270.403	-12.8
270.619	9.73
270.835	138.75
271.051	93.69
271.267	56.83
271.483	1.54
271.698	81.41
271.914	32.26
272.13	13.82
272.346	-2.56
272.562	83.45
272.777	116.22
272.993	65.02
273.209	38.4
273.425	122.37
273.64	-25.09
273.856	134.65
274.072	-4.61
274.287	5.63
274.503	85.5
274.719	138.75
274.934	71.17
275.15	-39.42
275.366	65.02
275.581	-25.09
275.797	30.21
276.012	48.64
276.228	3.58
276.444	110.08
276.659	85.5
276.875	13.82
277.09	48.64
277.306	-27.14
277.521	48.64
277.737	48.64
277.952	40.45
278.168	73.21
278.383	67.07
278.599	32.26
278.814	103.93
279.03	71.17
279.245	161.28
279.461	-18.94
279.676	134.65
279.892	-49.66
280.107	-41.47
280.322	-18.94
280.538	-23.04
280.753	-23.04
280.969	42.5
281.184	17.92
281.399	79.36
281.615	42.5
281.83	52.74
282.045	-33.28
282.26	-2.56
282.476	79.36
282.691	134.65
282.906	30.21
283.122	138.75
283.337	-10.75
283.552	81.41
283.767	13.82
283.983	124.41
284.198	48.64
284.413	99.84
284.628	-29.18
284.843	-12.8
285.058	120.32
285.274	1.54
285.489	30.21
285.704	155.13
285.919	-43.52
286.134	46.59
286.349	24.06
286.564	17.92
286.779	120.32
286.995	28.16
287.21	-109.05
287.425	67.07
287.64	19.97
287.855	9.73
288.07	-72.19
288.285	97.79
288.5	93.69
288.715	118.27
288.93	1.54
289.145	-72.19
289.36	146.94
289.575	54.78
289.79	65.02
290.004	-16.9
290.219	93.69
290.434	9.73
290.649	-88.57
290.864	91.65
291.079	38.4
291.294	132.61
291.509	89.6
291.724	44.54
291.938	30.21
292.153	77.31
292.368	77.31
292.583	67.07
292.798	73.21
293.012	42.5
293.227	58.88
293.442	52.74
293.657	85.5
293.871	122.37
294.086	97.79
294.301	116.22
294.516	114.17
294.73	140.8
294.945	-27.14
295.16	48.64
295.374	155.13
295.589	140.8
295.804	-0.51
296.018	81.41
296.233	148.99
296.447	105.98
296.662	-37.38
296.877	138.75
297.091	38.4
297.306	60.93
297.52	-4.61
297.735	165.37
297.949	15.87
298.164	69.12
298.378	85.5
298.593	-27.14
298.807	-27.14
299.022	65.02
299.236	189.95
299.451	-4.61
299.665	22.02
299.88	24.06
300.094	114.17
300.309	24.06
300.523	11.78
300.737	26.11
300.952	132.61
301.166	56.83
301.381	9.73
301.595	75.26
301.809	52.74
302.024	15.87
302.238	-14.85
302.452	73.21
302.667	101.89
302.881	169.47
303.095	134.65
303.309	22.02
303.524	-2.56
303.738	38.4
303.952	-16.9
304.166	130.56
304.381	-74.24
304.595	181.76
304.809	-27.14
305.023	46.59
305.237	62.98
305.452	28.16
305.666	73.21
305.88	85.5
306.094	36.35
306.308	132.61
306.522	108.03
306.736	34.3
306.95	140.8
307.164	118.27
307.379	32.26
307.593	157.18
307.807	65.02
308.021	58.88
308.235	173.57
308.449	-64
308.663	81.41
308.877	237.05
309.091	-4.61
309.305	179.71
309.519	-39.42
309.733	105.98
309.947	-80.38
310.161	91.65
310.374	138.75
310.588	120.32
310.802	26.11
311.016	-20.99
311.23	69.12
311.444	-39.42
311.658	75.26
311.872	60.93
312.085	7.68
312.299	118.27
312.513	91.65
312.727	97.79
312.941	-37.38
313.154	91.65
313.368	81.41
313.582	7.68
313.796	22.02
314.009	32.26
314.223	108.03
314.437	87.55
314.651	99.84
314.864	-8.7
315.078	3.58
315.292	5.63
315.505	15.87
315.719	13.82
315.933	124.41
316.146	-41.47
316.36	-39.42
316.573	124.41
316.787	48.64
317.001	73.21
317.214	-23.04
317.428	95.74
317.641	-27.14
317.855	40.45
318.068	3.58
318.282	60.93
318.495	214.52
318.709	65.02
318.922	73.21
319.136	155.13
319.349	151.04
319.563	5.63
319.776	89.6
319.99	-12.8
320.203	36.35
320.417	101.89
320.63	138.75
320.843	165.37
321.057	85.5
321.27	7.68
321.483	77.31
321.697	169.47
321.91	83.45
322.124	-8.7
322.337	62.98
322.55	-23.04
322.763	34.3
322.977	32.26
323.19	-2.56
323.403	40.45
323.617	71.17
323.83	54.78
324.043	46.59
324.256	130.56
324.469	-51.71
324.683	179.71
324.896	56.83
325.109	65.02
325.322	38.4
325.535	110.08
325.748	148.99
325.962	58.88
326.175	85.5
326.388	93.69
326.601	112.13
326.814	11.78
327.027	52.74
327.24	93.69
327.453	-47.62
327.666	134.65
327.879	136.7
328.092	58.88
328.305	26.11
328.518	1.54
328.731	-8.7
328.944	44.54
329.157	52.74
329.37	69.12
329.583	222.72
329.796	183.81
330.009	-18.94
330.222	77.31
330.435	204.28
330.648	48.64
330.861	48.64
331.073	73.21
331.286	118.27
331.499	24.06
331.712	46.59
331.925	77.31
332.138	136.7
332.35	83.45
332.563	3.58
332.776	161.28
332.989	-12.8
333.202	-12.8
333.414	28.16
333.627	81.41
333.84	73.21
334.053	58.88
334.265	77.31
334.478	7.68
334.691	32.26
334.903	132.61
335.116	15.87
335.329	-20.99
335.541	42.5
335.754	222.72
335.966	-12.8
336.179	69.12
336.392	60.93
336.604	-0.51
336.817	165.37
337.029	153.09
337.242	9.73
337.454	65.02
337.667	75.26
337.88	189.95
338.092	140.8
338.305	77.31
338.517	54.78
338.729	140.8
338.942	118.27
339.154	30.21
339.367	9.73
339.579	15.87
339.792	-37.38
340.004	103.93
340.217	140.8
340.429	101.89
340.641	42.5
340.854	11.78
341.066	85.5
341.278	173.57
341.491	173.57
341.703	30.21
341.915	-2.56
342.128	108.03
342.34	34.3
342.552	101.89
342.764	93.69
342.977	11.78
343.189	192
343.401	22.02
343.613	-43.52
343.826	75.26
344.038	9.73
344.25	81.41
344.462	-6.66
344.674	42.5
344.886	34.3
345.099	99.84
345.311	54.78
345.523	32.26
345.735	-76.29
345.947	89.6
346.159	46.59
346.371	-10.75
346.583	32.26
346.795	198.14
347.007	56.83
347.219	79.36
347.431	58.88
347.643	128.51
347.855	54.78
348.067	132.61
348.279	50.69
348.491	32.26
348.703	124.41
348.915	73.21
349.127	40.45
349.339	42.5
349.551	5.63
349.763	136.7
349.975	65.02
350.187	173.57
350.399	130.56
350.61	95.74
350.822	-4.61
351.034	85.5
351.246	3.58
351.458	130.56
351.669	114.17
351.881	105.98
352.093	222.72
352.305	44.54
352.517	140.8
352.728	110.08
352.94	73.21
353.152	177.66
353.363	-51.71
353.575	32.26
353.787	128.51
353.999	128.51
354.21	204.28
354.422	-59.9
354.633	-20.99
354.845	75.26
355.057	71.17
355.268	89.6
355.48	67.07
355.692	-25.09
355.903	65.02
356.115	-33.28
356.326	-84.48
356.538	187.9
356.749	134.65
356.961	116.22
357.172	9.73
357.384	-14.85
357.595	194.05
357.807	38.4
358.018	36.35
358.23	73.21
358.441	247.29
358.653	163.33
358.864	48.64
359.075	-35.33
359.287	97.79
359.498	118.27
359.709	142.85
359.921	1.54
360.132	130.56
360.344	-35.33
360.555	118.27
360.766	56.83
360.977	-14.85
361.189	134.65
361.4	24.06
361.611	87.55
361.823	187.9
362.034	50.69
362.245	-4.61
362.456	-39.42
362.667	165.37
362.879	-80.38
363.09	81.41
363.301	103.93
363.512	103.93
363.723	17.92
363.935	26.11
364.146	134.65
364.357	73.21
364.568	91.65
364.779	11.78
364.99	163.33
365.201	-27.14
365.412	65.02
365.623	-86.53
365.834	110.08
366.045	77.31
366.256	163.33
366.467	11.78
366.678	1.54
366.889	62.98
367.1	-10.75
367.311	116.22
367.522	-25.09
367.733	116.22
367.944	114.17
368.155	-27.14
368.366	73.21
368.577	126.46
368.788	52.74
368.999	32.26
369.209	48.64
369.42	216.57
369.631	263.68
369.842	110.08
370.053	32.26
370.264	157.18
370.474	-37.38
370.685	126.46
370.896	-20.99
371.107	99.84
371.317	118.27
371.528	38.4
371.739	140.8
371.95	71.17
372.16	48.64
372.371	42.5
372.582	26.11
372.792	87.55
373.003	48.64
373.214	93.69
373.424	108.03
373.635	-37.38
373.846	210.43
374.056	56.83
374.267	48.64
374.477	-8.7
374.688	15.87
374.898	56.83
375.109	58.88
375.319	130.56
375.53	114.17
375.74	132.61
375.951	122.37
376.161	50.69
376.372	148.99
376.582	-33.28
376.793	54.78
377.003	28.16
377.214	30.21
377.424	81.41
377.635	101.89
377.845	-18.94
378.055	212.48
378.266	-64
378.476	50.69
378.686	65.02
378.897	167.42
379.107	157.18
379.317	105.98
379.528	-16.9
379.738	95.74
379.948	-4.61
380.158	148.99
380.369	65.02
380.579	99.84
380.789	40.45
380.999	93.69
381.21	87.55
381.42	237.05
381.63	56.83
381.84	105.98
382.05	128.51
382.261	196.09
382.471	177.66
382.681	52.74
382.891	85.5
383.101	122.37
383.311	40.45
383.521	17.92
383.731	146.94
383.941	151.04
384.151	99.84
384.361	5.63
384.571	134.65
384.781	69.12
384.991	194.05
385.201	204.28
385.411	62.98
385.621	93.69
385.831	44.54
386.041	46.59
386.251	-55.81
386.461	161.28
386.671	114.17
386.881	136.7
387.091	93.69
387.301	103.93
387.511	46.59
387.72	138.75
387.93	142.85
388.14	-14.85
388.35	126.46
388.56	194.05
388.769	128.51
388.979	120.32
389.189	-27.14
389.399	116.22
389.609	171.52
389.818	32.26
390.028	77.31
390.238	103.93
390.447	46.59
390.657	130.56
390.867	65.02
391.076	-76.29
391.286	87.55
391.496	89.6
391.705	52.74
391.915	116.22
392.125	134.65
392.334	36.35
392.544	99.84
392.753	58.88
392.963	-10.75
393.172	52.74
393.382	60.93
393.591	255.48
393.801	-8.7
394.01	202.24
394.22	132.61
394.429	71.17
394.639	32.26
394.848	116.22
395.058	108.03
395.267	91.65
395.477	65.02
395.686	97.79
395.895	165.37
396.105	228.86
396.314	15.87
396.524	87.55
396.733	48.64
396.942	130.56
397.152	132.61
397.361	67.07
397.57	99.84
397.78	81.41
397.989	75.26
398.198	179.71
398.407	54.78
398.617	85.5
398.826	85.5
399.035	87.55
399.244	52.74
399.453	89.6
399.663	48.64
399.872	71.17
400.081	-12.8
400.29	165.37
400.499	-16.9
400.708	69.12
400.917	134.65
401.127	15.87
401.336	13.82
401.545	146.94
401.754	28.16
401.963	93.69
402.172	48.64
402.381	13.82
402.59	81.41
402.799	91.65
403.008	110.08
403.217	44.54
403.426	67.07
403.635	-51.71
403.844	73.21
404.053	40.45
404.262	71.17
404.471	132.61
404.68	151.04
404.888	7.68
405.097	24.06
405.306	13.82
405.515	89.6
405.724	73.21
405.933	50.69
406.142	132.61
406.35	146.94
406.559	19.97
406.768	136.7
406.977	62.98
407.185	62.98
407.394	153.09
407.603	9.73
407.812	56.83
408.02	185.85
408.229	93.69
408.438	81.41
408.646	11.78
408.855	75.26
409.064	130.56
409.272	34.3
409.481	132.61
409.69	-2.56
409.898	-16.9
410.107	105.98
410.315	151.04
410.524	91.65
410.733	112.13
410.941	-4.61
411.15	159.23
411.358	159.23
411.567	175.61
411.775	101.89
411.984	112.13
412.192	46.59
412.401	46.59
412.609	181.76
412.818	13.82
413.026	58.88
413.234	24.06
413.443	11.78
413.651	-14.85
413.86	79.36
414.068	110.08
414.276	192
414.485	56.83
414.693	148.99
414.901	218.62
415.11	52.74
415.318	97.79
415.526	-6.66
415.734	73.21
415.943	110.08
416.151	237.05
416.359	48.64
416.567	97.79
416.776	175.61
416.984	81.41
417.192	124.41
417.4	17.92
417.608	116.22
417.817	-31.23
418.025	103.93
418.233	216.57
418.441	19.97
418.649	-6.66
418.857	44.54
419.065	99.84
419.273	105.98
419.481	132.61
419.689	103.93
419.897	19.97
420.105	1.54
420.313	144.89
420.521	198.14
420.729	202.24
420.937	60.93
421.145	89.6
421.353	134.65
421.561	126.46
421.769	112.13
421.977	9.73
422.185	91.65
422.393	91.65
422.601	91.65
422.809	91.65
423.017	50.69
423.224	77.31
423.432	171.52
423.64	67.07
423.848	97.79
424.056	52.74
424.263	155.13
424.471	97.79
424.679	212.48
424.887	91.65
425.094	153.09
425.302	118.27
425.51	17.92
425.718	126.46
425.925	134.65
426.133	52.74
426.341	265.72
426.548	83.45
426.756	81.41
426.964	142.85
427.171	48.64
427.379	130.56
427.586	124.41
427.794	87.55
428.001	138.75
428.209	146.94
428.417	224.76
428.624	171.52
428.832	167.42
429.039	157.18
429.247	65.02
429.454	118.27
429.662	224.76
429.869	134.65
430.076	157.18
430.284	214.52
430.491	171.52
430.699	189.95
430.906	286.2
431.114	161.28
431.321	187.9
431.528	202.24
431.736	187.9
431.943	151.04
432.15	169.47
432.358	138.75
432.565	316.92
432.772	140.8
432.979	290.3
433.187	183.81
433.394	232.96
433.601	169.47
433.808	341.5
434.016	275.96
434.223	286.2
434.43	226.81
434.637	278.01
434.844	368.12
435.052	290.3
435.259	366.07
435.466	312.83
435.673	298.49
435.88	376.31
436.087	495.1
436.294	404.99
436.501	433.66
436.708	382.46
436.915	402.94
437.122	468.47
437.329	382.46
437.537	503.29
437.743	441.85
437.95	587.26
438.157	505.34
438.364	454.14
438.571	482.81
438.778	554.49
438.985	509.43
439.192	675.32
439.399	458.23
439.606	615.93
439.813	654.84
440.02	601.59
440.227	792.05
440.433	747
440.64	654.84
440.847	548.34
441.054	738.8
441.261	845.3
441.467	820.72
441.674	695.8
441.881	1005.04
442.088	847.35
442.294	925.17
442.501	986.61
442.708	1048.05
442.914	988.66
443.121	1113.58
443.328	1121.77
443.534	1281.52
443.741	1203.69
443.948	1121.77
444.154	1244.65
444.361	1476.07
444.568	1371.63
444.774	1271.28
444.981	1320.43
445.187	1463.79
445.394	1533.42
445.6	1365.48
445.807	1768.93
446.013	1564.14
446.22	1560.04
446.426	1742.31
446.633	2010.59
446.839	2059.74
447.046	1785.32
447.252	2117.09
447.459	2074.08
447.665	2145.76
447.871	2295.26
448.078	2612.7
448.284	2426.33
448.491	2569.69
448.697	2641.37
448.903	2725.33
449.11	2891.22
449.316	2754.01
449.522	3020.24
449.728	3231.18
449.935	3204.56
450.141	3136.98
450.347	3511.75
450.553	3560.91
450.76	3495.37
450.966	3876.29
451.172	3710.41
451.378	4044.23
451.584	4103.62
451.791	4335.04
451.997	4558.27
452.203	4588.99
452.409	4830.65
452.615	4861.37
452.821	4939.19
453.027	5031.35
453.233	5701.03
453.44	5561.77
453.646	5770.66
453.852	6069.67
454.058	6280.61
454.264	6462.88
454.47	6776.22
454.676	6940.05
454.882	7347.6
455.088	7163.28
455.294	7722.38
455.5	8199.55
455.705	8357.25
455.911	8430.98
456.117	8787.32
456.323	8856.95
456.529	9143.67
456.735	9971.05
456.941	10014.06
457.147	10519.9
457.352	10706.27
457.558	11044.18
457.764	11939.15
457.97	12037.45
458.176	12729.66
458.381	13178.17
458.587	13360.44
458.793	14122.28
458.999	14136.62
459.204	15916.3
459.41	16334.09
459.616	16194.82
459.821	17044.73
460.027	18019.57
460.233	18502.89
460.438	18588.9
460.644	19817.68
460.85	19920.08
461.055	20645.06
461.261	21791.92
461.466	21423.29
461.672	21640.37
461.878	24663.18
462.083	23915.67
462.289	24730.76
462.494	25660.54
462.7	25613.43
462.905	26301.55
463.111	28339.28
463.316	29594.68
463.522	29967.41
463.727	31200.29
463.932	32502.8
464.138	33051.66
464.343	34372.6
464.549	34638.83
464.754	37379.01
464.959	38308.79
465.165	39068.59
465.37	38695.86
465.575	38663.09
465.781	41018.25
465.986	42251.13
466.191	41995.14
466.397	42519.42
466.602	41485.19
466.807	43631.46
467.012	44583.77
467.218	44931.92
467.423	45146.96
467.628	46641.98
467.833	48915.22
468.038	47842.09
468.244	46979.89
468.449	49505.04
