Data from USB4F104151__302__11-21-38-525.txt Node

Date: Wed Feb 26 11:21:38 EST 2025
User: louis
Spectrometer: USB4F10415
Trigger mode: 4
Integration Time (sec): 1.000000E-1
Scans to average: 1
Electric dark correction enabled: true
Nonlinearity correction enabled: false
Boxcar width: 0
XAxis mode: Wavelengths
Number of Pixels in Spectrum: 3648
>>>>>Begin Spectral Data<<<<<
178.204	-343.21
178.424	-343.21
178.644	-343.21
178.864	-410.79
179.084	-416.93
179.304	-1.19
179.524	-27.82
179.744	54.1
179.964	-33.96
180.184	-15.53
180.404	15.19
180.624	-42.15
180.844	68.44
181.064	-52.39
181.283	45.91
181.503	-48.3
181.723	37.72
181.943	-97.45
182.163	199.51
182.383	-13.48
182.602	-7.34
182.822	101.2
183.042	95.06
183.262	-48.3
183.482	17.24
183.701	27.48
183.921	-11.43
184.141	-33.96
184.361	138.07
184.58	60.24
184.8	27.48
185.02	-27.82
185.239	39.76
185.459	66.39
185.679	84.82
185.898	-48.3
186.118	62.29
186.338	56.15
186.557	97.11
186.777	-76.97
186.997	-23.72
187.216	54.1
187.436	111.44
187.655	43.86
187.875	39.76
188.095	13.14
188.314	103.25
188.534	97.11
188.753	23.38
188.973	97.11
189.192	58.2
189.412	54.1
189.631	-36.01
189.851	33.62
190.07	193.36
190.29	-97.45
190.509	-13.48
190.729	84.82
190.948	142.16
191.168	297.81
191.387	50
191.607	-3.24
191.826	125.78
192.045	-70.83
192.265	45.91
192.484	15.19
192.704	68.44
192.923	-66.73
193.142	109.4
193.362	41.81
193.581	138.07
193.8	129.88
194.02	84.82
194.239	13.14
194.458	27.48
194.678	-11.43
194.897	-27.82
195.116	148.31
195.335	-27.82
195.555	76.63
195.774	4.95
195.993	176.98
196.212	23.38
196.432	62.29
196.651	15.19
196.87	27.48
197.089	205.65
197.308	15.19
197.528	13.14
197.747	17.24
197.966	107.35
198.185	111.44
198.404	-56.49
198.623	176.98
198.842	136.02
199.062	113.49
199.281	127.83
199.5	-11.43
199.719	52.05
199.938	-25.77
200.157	60.24
200.376	105.3
200.595	90.96
200.814	84.82
201.033	9.05
201.252	146.26
201.471	97.11
201.69	60.24
201.909	72.53
202.128	144.21
202.347	-13.48
202.566	37.72
202.785	-38.06
203.004	2.9
203.223	185.17
203.442	2.9
203.661	-74.92
203.879	76.63
204.098	207.7
204.317	-70.83
204.536	109.4
204.755	37.72
204.974	82.77
205.193	33.62
205.411	174.93
205.63	31.57
205.849	62.29
206.068	-1.19
206.287	7
206.505	103.25
206.724	56.15
206.943	29.52
207.162	39.76
207.381	101.2
207.599	-19.63
207.818	-7.34
208.037	0.85
208.255	31.57
208.474	7
208.693	31.57
208.911	50
209.13	95.06
209.349	93.01
209.567	54.1
209.786	58.2
210.005	84.82
210.223	60.24
210.442	-31.91
210.661	68.44
210.879	107.35
211.098	11.09
211.316	74.58
211.535	0.85
211.753	0.85
211.972	43.86
212.191	-70.83
212.409	-19.63
212.628	45.91
212.846	-9.39
213.065	27.48
213.283	111.44
213.502	29.52
213.72	80.72
213.938	45.91
214.157	29.52
214.375	170.83
214.594	-29.87
214.812	72.53
215.031	-9.39
215.249	7
215.467	43.86
215.686	52.05
215.904	70.48
216.122	115.54
216.341	168.79
216.559	56.15
216.778	136.02
216.996	113.49
217.214	37.72
217.432	37.72
217.651	-142.5
217.869	2.9
218.087	-56.49
218.306	56.15
218.524	56.15
218.742	-15.53
218.96	99.16
219.179	-33.96
219.397	39.76
219.615	295.76
219.833	109.4
220.051	21.33
220.27	45.91
220.488	107.35
220.706	60.24
220.924	7
221.142	82.77
221.36	37.72
221.578	-11.43
221.796	-9.39
222.015	95.06
222.233	-5.29
222.451	185.17
222.669	-13.48
222.887	84.82
223.105	37.72
223.323	97.11
223.541	-31.91
223.759	43.86
223.977	-5.29
224.195	131.92
224.413	50
224.631	93.01
224.849	72.53
225.067	154.45
225.285	45.91
225.503	-5.29
225.721	-140.46
225.939	-3.24
226.157	78.68
226.375	213.84
226.592	7
226.81	117.59
227.028	54.1
227.246	160.59
227.464	39.76
227.682	86.87
227.9	31.57
228.117	58.2
228.335	86.87
228.553	33.62
228.771	-19.63
228.989	64.34
229.206	170.83
229.424	27.48
229.642	-38.06
229.86	-13.48
230.077	111.44
230.295	33.62
230.513	105.3
230.731	74.58
230.948	148.31
231.166	136.02
231.384	-29.87
231.601	2.9
231.819	154.45
232.037	-50.35
232.254	-48.3
232.472	13.14
232.689	17.24
232.907	103.25
233.125	-7.34
233.342	-21.67
233.56	72.53
233.777	-13.48
233.995	2.9
234.213	121.68
234.43	76.63
234.648	78.68
234.865	4.95
235.083	131.92
235.3	66.39
235.518	146.26
235.735	82.77
235.953	129.88
236.17	84.82
236.388	23.38
236.605	-19.63
236.822	93.01
237.04	105.3
237.257	39.76
237.475	-105.64
237.692	2.9
237.909	127.83
238.127	-9.39
238.344	88.92
238.562	60.24
238.779	-31.91
238.996	-58.54
239.214	31.57
239.431	60.24
239.648	-25.77
239.865	101.2
240.083	39.76
240.3	7
240.517	-3.24
240.735	25.43
240.952	154.45
241.169	31.57
241.386	52.05
241.603	31.57
241.821	-54.44
242.038	99.16
242.255	45.91
242.472	-46.25
242.689	41.81
242.907	39.76
243.124	-9.39
243.341	-7.34
243.558	-33.96
243.775	-89.26
243.992	-72.87
244.209	58.2
244.426	150.36
244.643	56.15
244.86	60.24
245.078	19.29
245.295	187.22
245.512	7
245.729	-13.48
245.946	72.53
246.163	129.88
246.38	74.58
246.597	29.52
246.814	47.96
247.031	-17.58
247.248	0.85
247.464	80.72
247.681	11.09
247.898	21.33
248.115	64.34
248.332	-5.29
248.549	142.16
248.766	86.87
248.983	115.54
249.2	93.01
249.417	166.74
249.633	-13.48
249.85	66.39
250.067	39.76
250.284	64.34
250.501	9.05
250.717	52.05
250.934	-19.63
251.151	-7.34
251.368	70.48
251.585	64.34
251.801	88.92
252.018	-36.01
252.235	97.11
252.451	-83.11
252.668	68.44
252.885	113.49
253.102	25.43
253.318	-42.15
253.535	-5.29
253.752	-44.2
253.968	-50.35
254.185	-42.15
254.401	25.43
254.618	9.05
254.835	-36.01
255.051	70.48
255.268	60.24
255.484	-9.39
255.701	19.29
255.917	70.48
256.134	15.19
256.351	58.2
256.567	-97.45
256.784	19.29
257	-42.15
257.217	109.4
257.433	82.77
257.65	56.15
257.866	144.21
258.082	-66.73
258.299	-15.53
258.515	-13.48
258.732	66.39
258.948	-25.77
259.165	52.05
259.381	-60.59
259.597	52.05
259.814	19.29
260.03	43.86
260.246	9.05
260.463	93.01
260.679	107.35
260.895	58.2
261.112	105.3
261.328	-23.72
261.544	-42.15
261.761	289.62
261.977	-5.29
262.193	-126.12
262.409	117.59
262.626	64.34
262.842	7
263.058	-50.35
263.274	56.15
263.49	70.48
263.707	23.38
263.923	113.49
264.139	-74.92
264.355	111.44
264.571	23.38
264.787	11.09
265.004	90.96
265.22	11.09
265.436	-68.78
265.652	-13.48
265.868	47.96
266.084	-62.63
266.3	17.24
266.516	33.62
266.732	-7.34
266.948	-17.58
267.164	-33.96
267.38	136.02
267.596	86.87
267.812	142.16
268.028	23.38
268.244	-9.39
268.46	103.25
268.676	50
268.892	23.38
269.108	-42.15
269.324	-29.87
269.54	-40.11
269.756	29.52
269.972	-19.63
270.188	17.24
270.403	27.48
270.619	56.15
270.835	127.83
271.051	21.33
271.267	-5.29
271.483	25.43
271.698	58.2
271.914	-13.48
272.13	31.57
272.346	-13.48
272.562	25.43
272.777	113.49
272.993	72.53
273.209	17.24
273.425	56.15
273.64	23.38
273.856	154.45
274.072	-19.63
274.287	-76.97
274.503	131.92
274.719	119.64
274.934	-66.73
275.15	-72.87
275.366	-17.58
275.581	-79.02
275.797	45.91
276.012	-29.87
276.228	2.9
276.444	90.96
276.659	111.44
276.875	-17.58
277.09	-9.39
277.306	-15.53
277.521	13.14
277.737	136.02
277.952	93.01
278.168	-46.25
278.383	64.34
278.599	19.29
278.814	31.57
279.03	103.25
279.245	164.69
279.461	-23.72
279.676	101.2
279.892	-138.41
280.107	-70.83
280.322	-40.11
280.538	2.9
280.753	-54.44
280.969	78.68
281.184	-33.96
281.399	199.51
281.615	-9.39
281.83	58.2
282.045	-81.07
282.26	35.67
282.476	27.48
282.691	45.91
282.906	76.63
283.122	9.05
283.337	43.86
283.552	4.95
283.767	76.63
283.983	50
284.198	56.15
284.413	80.72
284.628	9.05
284.843	33.62
285.058	54.1
285.274	103.25
285.489	-31.91
285.704	74.58
285.919	-33.96
286.134	-60.59
286.349	45.91
286.564	-93.35
286.779	170.83
286.995	31.57
287.21	-66.73
287.425	41.81
287.64	-23.72
287.855	109.4
288.07	-36.01
288.285	201.55
288.5	54.1
288.715	76.63
288.93	0.85
289.145	15.19
289.36	78.68
289.575	9.05
289.79	127.83
290.004	-93.35
290.219	0.85
290.434	-33.96
290.649	50
290.864	15.19
291.079	-5.29
291.294	27.48
291.509	58.2
291.724	21.33
291.938	0.85
292.153	84.82
292.368	68.44
292.583	90.96
292.798	2.9
293.012	70.48
293.227	72.53
293.442	54.1
293.657	99.16
293.871	109.4
294.086	-21.67
294.301	158.55
294.516	187.22
294.73	56.15
294.945	-36.01
295.16	-5.29
295.374	172.88
295.589	164.69
295.804	-23.72
296.018	13.14
296.233	105.3
296.447	86.87
296.662	-23.72
296.877	113.49
297.091	52.05
297.306	9.05
297.52	62.29
297.735	4.95
297.949	-3.24
298.164	2.9
298.378	43.86
298.593	21.33
298.807	33.62
299.022	43.86
299.236	111.44
299.451	33.62
299.665	-64.68
299.88	-17.58
300.094	111.44
300.309	56.15
300.523	66.39
300.737	68.44
300.952	50
301.166	39.76
301.381	-76.97
301.595	-1.19
301.809	-7.34
302.024	2.9
302.238	-50.35
302.452	88.92
302.667	-11.43
302.881	107.35
303.095	109.4
303.309	27.48
303.524	27.48
303.738	15.19
303.952	15.19
304.166	70.48
304.381	-128.17
304.595	172.88
304.809	-11.43
305.023	9.05
305.237	-33.96
305.452	17.24
305.666	-19.63
305.88	84.82
306.094	101.2
306.308	41.81
306.522	105.3
306.736	2.9
306.95	150.36
307.164	4.95
307.379	64.34
307.593	99.16
307.807	133.97
308.021	35.67
308.235	11.09
308.449	-21.67
308.663	52.05
308.877	203.6
309.091	90.96
309.305	60.24
309.519	-21.67
309.733	23.38
309.947	-11.43
310.161	131.92
310.374	107.35
310.588	82.77
310.802	0.85
311.016	4.95
311.23	56.15
311.444	-83.11
311.658	2.9
311.872	84.82
312.085	88.92
312.299	148.31
312.513	123.73
312.727	47.96
312.941	-56.49
313.154	68.44
313.368	-25.77
313.582	31.57
313.796	154.45
314.009	82.77
314.223	107.35
314.437	39.76
314.651	109.4
314.864	29.52
315.078	-9.39
315.292	-87.21
315.505	13.14
315.719	9.05
315.933	47.96
316.146	13.14
316.36	2.9
316.573	156.5
316.787	93.01
317.001	-19.63
317.214	-1.19
317.428	115.54
317.641	-36.01
317.855	2.9
318.068	39.76
318.282	-42.15
318.495	158.55
318.709	138.07
318.922	-19.63
319.136	181.07
319.349	93.01
319.563	-31.91
319.776	90.96
319.99	-113.83
320.203	115.54
320.417	-17.58
320.63	41.81
320.843	105.3
321.057	39.76
321.27	-52.39
321.483	50
321.697	90.96
321.91	43.86
322.124	47.96
322.337	37.72
322.55	-60.59
322.763	45.91
322.977	-48.3
323.19	9.05
323.403	68.44
323.617	90.96
323.83	82.77
324.043	35.67
324.256	70.48
324.469	-13.48
324.683	105.3
324.896	21.33
325.109	45.91
325.322	-54.44
325.535	80.72
325.748	33.62
325.962	54.1
326.175	62.29
326.388	64.34
326.601	131.92
326.814	19.29
327.027	88.92
327.24	144.21
327.453	-97.45
327.666	80.72
327.879	119.64
328.092	101.2
328.305	41.81
328.518	-23.72
328.731	-27.82
328.944	4.95
329.157	23.38
329.37	-7.34
329.583	103.25
329.796	105.3
330.009	-19.63
330.222	101.2
330.435	84.82
330.648	23.38
330.861	47.96
331.073	56.15
331.286	80.72
331.499	62.29
331.712	33.62
331.925	-5.29
332.138	33.62
332.35	170.83
332.563	15.19
332.776	86.87
332.989	-25.77
333.202	-21.67
333.414	72.53
333.627	50
333.84	52.05
334.053	72.53
334.265	7
334.478	-42.15
334.691	-5.29
334.903	0.85
335.116	11.09
335.329	29.52
335.541	43.86
335.754	133.97
335.966	-36.01
336.179	-3.24
336.392	9.05
336.604	-50.35
336.817	21.33
337.029	52.05
337.242	-9.39
337.454	107.35
337.667	-27.82
337.88	127.83
338.092	72.53
338.305	99.16
338.517	39.76
338.729	160.59
338.942	74.58
339.154	-27.82
339.367	60.24
339.579	60.24
339.792	-5.29
340.004	70.48
340.217	-1.19
340.429	2.9
340.641	-3.24
340.854	-25.77
341.066	19.29
341.278	111.44
341.491	131.92
341.703	52.05
341.915	-48.3
342.128	82.77
342.34	78.68
342.552	-42.15
342.764	29.52
342.977	56.15
343.189	60.24
343.401	86.87
343.613	-25.77
343.826	68.44
344.038	-74.92
344.25	68.44
344.462	-23.72
344.674	58.2
344.886	45.91
345.099	-11.43
345.311	66.39
345.523	-42.15
345.735	-54.44
345.947	-31.91
346.159	76.63
346.371	86.87
346.583	-17.58
346.795	238.42
347.007	-3.24
347.219	123.73
347.431	15.19
347.643	158.55
347.855	15.19
348.067	52.05
348.279	25.43
348.491	-9.39
348.703	45.91
348.915	29.52
349.127	0.85
349.339	56.15
349.551	43.86
349.763	70.48
349.975	37.72
350.187	41.81
350.399	45.91
350.61	119.64
350.822	-42.15
351.034	72.53
351.246	31.57
351.458	35.67
351.669	99.16
351.881	93.01
352.093	50
352.305	80.72
352.517	62.29
352.728	117.59
352.94	-46.25
353.152	109.4
353.363	-17.58
353.575	41.81
353.787	260.95
353.999	11.09
354.21	179.03
354.422	-17.58
354.633	-21.67
354.845	4.95
355.057	43.86
355.268	74.58
355.48	88.92
355.692	2.9
355.903	37.72
356.115	-19.63
356.326	-107.69
356.538	174.93
356.749	125.78
356.961	164.69
357.172	29.52
357.384	-81.07
357.595	164.69
357.807	2.9
358.018	50
358.23	90.96
358.441	164.69
358.653	-7.34
358.864	-7.34
359.075	-46.25
359.287	115.54
359.498	86.87
359.709	107.35
359.921	-9.39
360.132	66.39
360.344	2.9
360.555	4.95
360.766	31.57
360.977	17.24
361.189	146.26
361.4	-23.72
361.611	29.52
361.823	64.34
362.034	21.33
362.245	-81.07
362.456	-1.19
362.667	66.39
362.879	11.09
363.09	99.16
363.301	-46.25
363.512	-3.24
363.723	31.57
363.935	-1.19
364.146	119.64
364.357	11.09
364.568	74.58
364.779	-44.2
364.99	99.16
365.201	0.85
365.412	158.55
365.623	-126.12
365.834	47.96
366.045	-15.53
366.256	31.57
366.467	60.24
366.678	13.14
366.889	41.81
367.1	29.52
367.311	19.29
367.522	-23.72
367.733	37.72
367.944	37.72
368.155	-9.39
368.366	17.24
368.577	27.48
368.788	117.59
368.999	-7.34
369.209	-46.25
369.42	281.43
369.631	211.79
369.842	133.97
370.053	-17.58
370.264	142.16
370.474	-1.19
370.685	0.85
370.896	-46.25
371.107	119.64
371.317	64.34
371.528	62.29
371.739	47.96
371.95	66.39
372.16	47.96
372.371	-66.73
372.582	-52.39
372.792	97.11
373.003	105.3
373.214	33.62
373.424	156.5
373.635	-21.67
373.846	109.4
374.056	99.16
374.267	-23.72
374.477	17.24
374.688	9.05
374.898	80.72
375.109	-13.48
375.319	-17.58
375.53	62.29
375.74	95.06
375.951	-7.34
376.161	-1.19
376.372	111.44
376.582	-19.63
376.793	58.2
377.003	-9.39
377.214	-103.59
377.424	84.82
377.635	58.2
377.845	7
378.055	105.3
378.266	-15.53
378.476	33.62
378.686	88.92
378.897	23.38
379.107	123.73
379.317	43.86
379.528	29.52
379.738	127.83
379.948	2.9
380.158	99.16
380.369	95.06
380.579	68.44
380.789	-3.24
380.999	64.34
381.21	105.3
381.42	219.99
381.63	43.86
381.84	131.92
382.05	60.24
382.261	144.21
382.471	127.83
382.681	-36.01
382.891	117.59
383.101	27.48
383.311	17.24
383.521	-19.63
383.731	47.96
383.941	4.95
384.151	90.96
384.361	-7.34
384.571	103.25
384.781	54.1
384.991	125.78
385.201	179.03
385.411	-3.24
385.621	84.82
385.831	13.14
386.041	72.53
386.251	17.24
386.461	13.14
386.671	101.2
386.881	88.92
387.091	-13.48
387.301	107.35
387.511	64.34
387.72	105.3
387.93	39.76
388.14	37.72
388.35	109.4
388.56	138.07
388.769	82.77
388.979	-23.72
389.189	-7.34
389.399	-9.39
389.609	80.72
389.818	101.2
390.028	35.67
390.238	86.87
390.447	-99.5
390.657	23.38
390.867	-95.4
391.076	4.95
391.286	47.96
391.496	33.62
391.705	-42.15
391.915	146.26
392.125	45.91
392.334	-33.96
392.544	138.07
392.753	11.09
392.963	-1.19
393.172	-25.77
393.382	2.9
393.591	136.02
393.801	-50.35
394.01	215.89
394.22	119.64
394.429	47.96
394.639	4.95
394.848	-23.72
395.058	78.68
395.267	0.85
395.477	62.29
395.686	127.83
395.895	109.4
396.105	234.32
396.314	99.16
396.524	21.33
396.733	-31.91
396.942	209.75
397.152	47.96
397.361	205.65
397.57	82.77
397.78	43.86
397.989	111.44
398.198	226.13
398.407	39.76
398.617	66.39
398.826	76.63
399.035	-1.19
399.244	95.06
399.453	60.24
399.663	11.09
399.872	84.82
400.081	-7.34
400.29	179.03
400.499	-58.54
400.708	95.06
400.917	19.29
401.127	45.91
401.336	50
401.545	248.66
401.754	127.83
401.963	80.72
402.172	35.67
402.381	-19.63
402.59	21.33
402.799	-38.06
403.008	70.48
403.217	-19.63
403.426	21.33
403.635	-38.06
403.844	-42.15
404.053	35.67
404.262	13.14
404.471	160.59
404.68	80.72
404.888	-31.91
405.097	-17.58
405.306	86.87
405.515	97.11
405.724	33.62
405.933	123.73
406.142	52.05
406.35	78.68
406.559	9.05
406.768	86.87
406.977	195.41
407.185	-48.3
407.394	70.48
407.603	-1.19
407.812	0.85
408.02	68.44
408.229	35.67
408.438	60.24
408.646	17.24
408.855	-21.67
409.064	97.11
409.272	37.72
409.481	88.92
409.69	-62.63
409.898	-33.96
410.107	19.29
410.315	33.62
410.524	-21.67
410.733	-17.58
410.941	-5.29
411.15	109.4
411.358	101.2
411.567	162.64
411.775	97.11
411.984	72.53
412.192	99.16
412.401	17.24
412.609	123.73
412.818	228.18
413.026	72.53
413.234	68.44
413.443	72.53
413.651	-5.29
413.86	-21.67
414.068	197.46
414.276	158.55
414.485	-15.53
414.693	195.41
414.901	275.28
415.11	113.49
415.318	-9.39
415.526	27.48
415.734	144.21
415.943	2.9
416.151	115.54
416.359	23.38
416.567	142.16
416.776	72.53
416.984	109.4
417.192	191.31
417.4	-9.39
417.608	68.44
417.817	-21.67
418.025	125.78
418.233	144.21
418.441	47.96
418.649	-36.01
418.857	80.72
419.065	52.05
419.273	37.72
419.481	74.58
419.689	47.96
419.897	-36.01
420.105	-72.87
420.313	97.11
420.521	125.78
420.729	99.16
420.937	25.43
421.145	0.85
421.353	74.58
421.561	68.44
421.769	7
421.977	19.29
422.185	150.36
422.393	99.16
422.601	119.64
422.809	39.76
423.017	33.62
423.224	107.35
423.432	111.44
423.64	47.96
423.848	101.2
424.056	4.95
424.263	179.03
424.471	54.1
424.679	105.3
424.887	13.14
425.094	107.35
425.302	187.22
425.51	60.24
425.718	37.72
425.925	47.96
426.133	72.53
426.341	164.69
426.548	68.44
426.756	9.05
426.964	66.39
427.171	25.43
427.379	121.68
427.586	0.85
427.794	74.58
428.001	66.39
428.209	29.52
428.417	103.25
428.624	90.96
428.832	146.26
429.039	64.34
429.247	47.96
429.454	86.87
429.662	242.51
429.869	154.45
430.076	-3.24
430.284	113.49
430.491	183.12
430.699	93.01
430.906	174.93
431.114	93.01
431.321	181.07
431.528	54.1
431.736	101.2
431.943	123.73
432.15	140.12
432.358	273.23
432.565	271.19
432.772	13.14
432.979	144.21
433.187	174.93
433.394	170.83
433.601	172.88
433.808	246.61
434.016	213.84
434.223	230.23
434.43	166.74
434.637	279.38
434.844	176.98
435.052	267.09
435.259	267.09
435.466	279.38
435.673	269.14
435.88	291.66
436.087	197.46
436.294	279.38
436.501	398.16
436.708	306
436.915	267.09
437.122	287.57
437.329	258.9
437.537	301.9
437.743	283.47
437.95	398.16
438.157	306
438.364	371.54
438.571	314.19
438.778	490.32
438.985	420.69
439.192	381.78
439.399	383.82
439.606	418.64
439.813	373.58
440.02	551.76
440.227	586.57
440.433	590.67
440.64	459.6
440.847	410.45
441.054	502.61
441.261	609.1
441.467	570.19
441.674	516.94
441.881	543.57
442.088	475.98
442.294	736.07
442.501	668.49
442.708	795.47
442.914	711.5
443.121	772.94
443.328	760.65
443.534	850.76
443.741	799.56
443.948	695.11
444.154	875.34
444.361	1090.37
444.568	922.44
444.774	985.93
444.981	858.95
445.187	1049.41
445.394	1069.89
445.6	1006.41
445.807	1203.01
446.013	1082.18
446.22	1012.55
446.426	1235.78
446.633	1258.31
446.839	1471.29
447.046	1360.7
447.252	1469.25
447.459	1491.77
447.665	1469.25
447.871	1542.97
448.078	1801.02
448.284	1780.54
448.491	1725.24
448.697	1915.7
448.903	2048.82
449.11	1989.43
449.316	1948.47
449.522	2169.65
449.728	2192.18
449.935	2290.48
450.141	2218.8
450.347	2487.09
450.553	2392.88
450.76	2560.81
450.966	2587.44
451.172	2730.8
451.378	2861.87
451.584	2812.71
451.791	3044.13
451.997	3203.88
452.203	3183.4
452.409	3201.83
452.615	3543.84
452.821	3386.15
453.027	3470.11
453.233	3844.89
453.44	3810.08
453.646	3914.52
453.852	4252.44
454.058	4225.81
454.264	4348.69
454.47	4770.57
454.676	4627.21
454.882	5147.4
455.088	5075.72
455.294	5217.03
455.5	5651.2
455.705	5960.44
455.911	5952.25
456.117	5839.61
456.323	6279.93
456.529	6284.02
456.735	6656.75
456.941	7115.5
457.147	7379.68
457.352	7529.19
457.558	7654.11
457.764	7987.93
457.97	8170.2
458.176	8688.34
458.381	9110.22
458.587	9505.48
458.793	9978.56
458.999	9673.41
459.204	10918.57
459.41	11510.44
459.616	11188.91
459.821	12098.2
460.027	12337.82
460.233	12892.82
460.438	12806.8
460.644	13902.47
460.85	13795.97
461.055	14527.1
461.261	15118.96
461.466	14735.99
461.672	15174.25
461.878	16878.16
462.083	16636.5
462.289	16792.15
462.494	17738.31
462.7	17562.19
462.905	17945.16
463.111	19730.98
463.316	20556.32
463.522	21008.92
463.727	21633.55
463.932	22284.8
464.138	23071.22
464.343	24070.63
464.549	23994.86
464.754	25977.29
464.959	26739.13
465.165	26763.71
465.37	26878.4
465.575	26876.35
465.781	28735.9
465.986	29626.77
466.191	29192.6
466.397	29456.79
466.602	28619.17
466.807	30364.04
467.012	31015.29
467.218	31332.73
467.423	31422.84
467.628	32764.26
467.833	34165.07
468.038	33700.18
468.244	32627.04
468.449	34722.12
468.654	33755.47
468.859	33890.64
469.064	33753.43
469.269	33165.66
469.474	33335.64
469.679	34500.93
