Data from USB4F104151__281__11-20-58-614.txt Node

Date: Wed Feb 26 11:20:58 EST 2025
User: louis
Spectrometer: USB4F10415
Trigger mode: 4
Integration Time (sec): 1.000000E-1
Scans to average: 1
Electric dark correction enabled: true
Nonlinearity correction enabled: false
Boxcar width: 0
XAxis mode: Wavelengths
Number of Pixels in Spectrum: 3648
>>>>>Begin Spectral Data<<<<<
178.204	-405.84
178.424	-405.84
178.644	-405.84
178.864	-430.41
179.084	-403.79
179.304	18.09
179.524	-24.92
179.744	52.91
179.964	42.67
180.184	-4.44
180.404	48.81
180.624	-41.3
180.844	50.86
181.064	-110.93
181.283	38.57
181.503	-106.84
181.723	36.52
181.943	-65.88
182.163	208.55
182.383	-35.16
182.602	-20.82
182.822	112.3
183.042	-8.53
183.262	32.43
183.482	-63.83
183.701	42.67
183.921	93.87
184.141	-55.64
184.361	91.82
184.58	83.63
184.8	87.72
185.02	-45.4
185.239	106.15
185.459	-16.73
185.679	134.82
185.898	-94.55
186.118	69.29
186.338	69.29
186.557	132.78
186.777	-26.96
186.997	30.38
187.216	46.76
187.436	169.64
187.655	22.19
187.875	24.23
188.095	5.8
188.314	163.5
188.534	116.39
188.753	-72.02
188.973	151.21
189.192	186.02
189.412	7.85
189.631	13.99
189.851	65.19
190.07	210.6
190.29	-16.73
190.509	-47.44
190.729	46.76
190.948	61.1
191.168	267.94
191.387	38.57
191.607	46.76
191.826	114.34
192.045	16.04
192.265	40.62
192.484	69.29
192.704	83.63
192.923	-12.63
193.142	188.07
193.362	118.44
193.581	198.31
193.8	89.77
194.02	95.91
194.239	102.06
194.458	161.45
194.678	40.62
194.897	-2.39
195.116	77.48
195.335	7.85
195.555	81.58
195.774	-12.63
195.993	167.59
196.212	7.85
196.432	-2.39
196.651	1.71
196.87	67.24
197.089	212.65
197.308	52.91
197.528	54.95
197.747	-55.64
197.966	11.95
198.185	89.77
198.404	11.95
198.623	118.44
198.842	171.69
199.062	75.43
199.281	46.76
199.5	9.9
199.719	157.35
199.938	102.06
200.157	134.82
200.376	77.48
200.595	106.15
200.814	77.48
201.033	-2.39
201.252	136.87
201.471	85.67
201.69	120.49
201.909	63.15
202.128	145.06
202.347	65.19
202.566	44.71
202.785	20.14
203.004	-74.07
203.223	208.55
203.442	63.15
203.661	16.04
203.879	57
204.098	114.34
204.317	-69.97
204.536	83.63
204.755	73.39
204.974	165.54
205.193	-26.96
205.411	147.11
205.63	48.81
205.849	57
206.068	1.71
206.287	-12.63
206.505	126.63
206.724	71.34
206.943	-12.63
207.162	-4.44
207.381	59.05
207.599	20.14
207.818	79.53
208.037	-51.54
208.255	122.54
208.474	110.25
208.693	54.95
208.911	44.71
209.13	75.43
209.349	89.77
209.567	44.71
209.786	63.15
210.005	116.39
210.223	44.71
210.442	-76.12
210.661	44.71
210.879	108.2
211.098	61.1
211.316	44.71
211.535	102.06
211.753	20.14
211.972	114.34
212.191	-4.44
212.409	26.28
212.628	116.39
212.846	-12.63
213.065	46.76
213.283	126.63
213.502	13.99
213.72	1.71
213.938	-6.49
214.157	7.85
214.375	95.91
214.594	63.15
214.812	1.71
215.031	-29.01
215.249	57
215.467	20.14
215.686	48.81
215.904	54.95
216.122	79.53
216.341	153.26
216.559	24.23
216.778	143.02
216.996	161.45
217.214	-10.58
217.432	7.85
217.651	-76.12
217.869	89.77
218.087	18.09
218.306	-41.3
218.524	20.14
218.742	38.57
218.96	52.91
219.179	40.62
219.397	-12.63
219.615	204.46
219.833	138.92
220.051	34.47
220.27	85.67
220.488	102.06
220.706	79.53
220.924	-12.63
221.142	24.23
221.36	77.48
221.578	22.19
221.796	24.23
222.015	34.47
222.233	71.34
222.451	239.27
222.669	24.23
222.887	83.63
223.105	-39.25
223.323	-39.25
223.541	-53.59
223.759	67.24
223.977	1.71
224.195	151.21
224.413	48.81
224.631	16.04
224.849	50.86
225.067	231.08
225.285	24.23
225.503	61.1
225.721	-102.74
225.939	-2.39
226.157	54.95
226.375	247.46
226.592	-53.59
226.81	-20.82
227.028	48.81
227.246	186.02
227.464	102.06
227.682	18.09
227.9	120.49
228.117	-0.34
228.335	13.99
228.553	26.28
228.771	42.67
228.989	61.1
229.206	91.82
229.424	-10.58
229.642	-18.77
229.86	-10.58
230.077	126.63
230.295	42.67
230.513	95.91
230.731	46.76
230.948	173.74
231.166	157.35
231.384	-24.92
231.601	-35.16
231.819	100.01
232.037	46.76
232.254	-47.44
232.472	-10.58
232.689	3.75
232.907	91.82
233.125	-63.83
233.342	-22.87
233.56	18.09
233.777	42.67
233.995	40.62
234.213	3.75
234.43	91.82
234.648	30.38
234.865	50.86
235.083	30.38
235.3	75.43
235.518	91.82
235.735	93.87
235.953	83.63
236.17	7.85
236.388	-18.77
236.605	38.57
236.822	97.96
237.04	100.01
237.257	75.43
237.475	-84.31
237.692	52.91
237.909	63.15
238.127	42.67
238.344	38.57
238.562	89.77
238.779	-26.96
238.996	9.9
239.214	46.76
239.431	28.33
239.648	20.14
239.865	65.19
240.083	40.62
240.3	24.23
240.517	-39.25
240.735	108.2
240.952	147.11
241.169	83.63
241.386	134.82
241.603	48.81
241.821	-45.4
242.038	63.15
242.255	118.44
242.472	7.85
242.689	38.57
242.907	5.8
243.124	-8.53
243.341	1.71
243.558	-55.64
243.775	-24.92
243.992	-43.35
244.209	106.15
244.426	263.85
244.643	67.24
244.86	46.76
245.078	143.02
245.295	44.71
245.512	-33.11
245.729	54.95
245.946	112.3
246.163	54.95
246.38	18.09
246.597	85.67
246.814	91.82
247.031	30.38
247.248	120.49
247.464	79.53
247.681	32.43
247.898	34.47
248.115	110.25
248.332	-47.44
248.549	136.87
248.766	145.06
248.983	134.82
249.2	128.68
249.417	114.34
249.633	-61.78
249.85	134.82
250.067	20.14
250.284	108.2
250.501	102.06
250.717	46.76
250.934	44.71
251.151	34.47
251.368	46.76
251.585	85.67
251.801	75.43
252.018	-18.77
252.235	132.78
252.451	-43.35
252.668	-20.82
252.885	91.82
253.102	57
253.318	11.95
253.535	-35.16
253.752	22.19
253.968	26.28
254.185	-35.16
254.401	18.09
254.618	22.19
254.835	24.23
255.051	151.21
255.268	171.69
255.484	46.76
255.701	-4.44
255.917	85.67
256.134	48.81
256.351	112.3
256.567	20.14
256.784	59.05
257	-67.92
257.217	161.45
257.433	87.72
257.65	-14.68
257.866	93.87
258.082	-45.4
258.299	-55.64
258.515	95.91
258.732	34.47
258.948	-4.44
259.165	63.15
259.381	-55.64
259.597	42.67
259.814	42.67
260.03	-6.49
260.246	-94.55
260.463	138.92
260.679	116.39
260.895	40.62
261.112	5.8
261.328	61.1
261.544	48.81
261.761	206.5
261.977	-24.92
262.193	44.71
262.409	69.29
262.626	87.72
262.842	34.47
263.058	-10.58
263.274	-16.73
263.49	54.95
263.707	147.11
263.923	169.64
264.139	-51.54
264.355	3.75
264.571	231.08
264.787	22.19
265.004	165.54
265.22	93.87
265.436	20.14
265.652	7.85
265.868	87.72
266.084	-26.96
266.3	-41.3
266.516	-67.92
266.732	67.24
266.948	73.39
267.164	18.09
267.38	54.95
267.596	65.19
267.812	177.83
268.028	26.28
268.244	5.8
268.46	67.24
268.676	-53.59
268.892	-18.77
269.108	18.09
269.324	50.86
269.54	-10.58
269.756	151.21
269.972	-55.64
270.188	11.95
270.403	16.04
270.619	102.06
270.835	59.05
271.051	-0.34
271.267	11.95
271.483	-8.53
271.698	91.82
271.914	22.19
272.13	13.99
272.346	32.43
272.562	40.62
272.777	116.39
272.993	73.39
273.209	-18.77
273.425	65.19
273.64	-65.88
273.856	138.92
274.072	-6.49
274.287	59.05
274.503	149.16
274.719	63.15
274.934	28.33
275.15	-92.5
275.366	-22.87
275.581	-16.73
275.797	85.67
276.012	-10.58
276.228	7.85
276.444	71.34
276.659	147.11
276.875	-39.25
277.09	28.33
277.306	26.28
277.521	87.72
277.737	87.72
277.952	69.29
278.168	-12.63
278.383	79.53
278.599	57
278.814	89.77
279.03	34.47
279.245	173.74
279.461	73.39
279.676	112.3
279.892	-2.39
280.107	-16.73
280.322	38.57
280.538	34.47
280.753	-39.25
280.969	20.14
281.184	13.99
281.399	93.87
281.615	38.57
281.83	147.11
282.045	18.09
282.26	-12.63
282.476	11.95
282.691	130.73
282.906	54.95
283.122	102.06
283.337	-35.16
283.552	34.47
283.767	-37.2
283.983	114.34
284.198	67.24
284.413	57
284.628	-53.59
284.843	143.02
285.058	11.95
285.274	-4.44
285.489	32.43
285.704	167.59
285.919	-63.83
286.134	89.77
286.349	5.8
286.564	-41.3
286.779	116.39
286.995	3.75
287.21	-67.92
287.425	40.62
287.64	46.76
287.855	93.87
288.07	-63.83
288.285	171.69
288.5	95.91
288.715	20.14
288.93	-45.4
289.145	-10.58
289.36	89.77
289.575	-4.44
289.79	83.63
290.004	61.1
290.219	81.58
290.434	-10.58
290.649	61.1
290.864	18.09
291.079	-43.35
291.294	79.53
291.509	122.54
291.724	91.82
291.938	-16.73
292.153	61.1
292.368	-78.16
292.583	-12.63
292.798	126.63
293.012	136.87
293.227	-53.59
293.442	-10.58
293.657	75.43
293.871	114.34
294.086	42.67
294.301	126.63
294.516	134.82
294.73	50.86
294.945	-10.58
295.16	-0.34
295.374	73.39
295.589	128.68
295.804	3.75
296.018	95.91
296.233	163.5
296.447	75.43
296.662	73.39
296.877	7.85
297.091	118.44
297.306	-20.82
297.52	32.43
297.735	73.39
297.949	-6.49
298.164	67.24
298.378	67.24
298.593	-63.83
298.807	-29.01
299.022	46.76
299.236	61.1
299.451	7.85
299.665	7.85
299.88	52.91
300.094	54.95
300.309	124.58
300.523	38.57
300.737	36.52
300.952	46.76
301.166	52.91
301.381	-39.25
301.595	-53.59
301.809	59.05
302.024	34.47
302.238	42.67
302.452	104.11
302.667	34.47
302.881	48.81
303.095	134.82
303.309	100.01
303.524	73.39
303.738	-31.06
303.952	-84.31
304.166	24.23
304.381	-127.32
304.595	177.83
304.809	-45.4
305.023	22.19
305.237	-35.16
305.452	59.05
305.666	91.82
305.88	89.77
306.094	83.63
306.308	116.39
306.522	122.54
306.736	136.87
306.95	143.02
307.164	-24.92
307.379	67.24
307.593	140.97
307.807	95.91
308.021	77.48
308.235	102.06
308.449	-69.97
308.663	75.43
308.877	233.13
309.091	26.28
309.305	-0.34
309.519	-67.92
309.733	114.34
309.947	9.9
310.161	18.09
310.374	132.78
310.588	97.96
310.802	-2.39
311.016	-22.87
311.23	83.63
311.444	-2.39
311.658	26.28
311.872	120.49
312.085	73.39
312.299	120.49
312.513	153.26
312.727	87.72
312.941	30.38
313.154	57
313.368	-0.34
313.582	20.14
313.796	28.33
314.009	44.71
314.223	106.15
314.437	44.71
314.651	116.39
314.864	28.33
315.078	57
315.292	-39.25
315.505	24.23
315.719	-8.53
315.933	73.39
316.146	-26.96
316.36	-33.11
316.573	143.02
316.787	63.15
317.001	104.11
317.214	-57.68
317.428	32.43
317.641	-53.59
317.855	-4.44
318.068	-20.82
318.282	52.91
318.495	118.44
318.709	52.91
318.922	-29.01
319.136	136.87
319.349	165.54
319.563	16.04
319.776	75.43
319.99	-74.07
320.203	30.38
320.417	46.76
320.63	132.78
320.843	124.58
321.057	110.25
321.27	-22.87
321.483	85.67
321.697	138.92
321.91	7.85
322.124	11.95
322.337	46.76
322.55	-12.63
322.763	-18.77
322.977	-16.73
323.19	-20.82
323.403	7.85
323.617	87.72
323.83	126.63
324.043	73.39
324.256	124.58
324.469	-31.06
324.683	79.53
324.896	28.33
325.109	79.53
325.322	-41.3
325.535	102.06
325.748	54.95
325.962	-31.06
326.175	89.77
326.388	73.39
326.601	138.92
326.814	120.49
327.027	143.02
327.24	216.74
327.453	-127.32
327.666	67.24
327.879	81.58
328.092	54.95
328.305	65.19
328.518	11.95
328.731	-14.68
328.944	26.28
329.157	73.39
329.37	73.39
329.583	183.98
329.796	102.06
330.009	-65.88
330.222	136.87
330.435	95.91
330.648	69.29
330.861	32.43
331.073	-2.39
331.286	91.82
331.499	59.05
331.712	-14.68
331.925	57
332.138	34.47
332.35	97.96
332.563	-31.06
332.776	153.26
332.989	46.76
333.202	-49.49
333.414	1.71
333.627	128.68
333.84	38.57
334.053	83.63
334.265	-22.87
334.478	-80.21
334.691	-6.49
334.903	52.91
335.116	-80.21
335.329	44.71
335.541	77.48
335.754	169.64
335.966	36.52
336.179	22.19
336.392	57
336.604	26.28
336.817	118.44
337.029	91.82
337.242	48.81
337.454	85.67
337.667	26.28
337.88	118.44
338.092	95.91
338.305	106.15
338.517	-12.63
338.729	128.68
338.942	190.12
339.154	-49.49
339.367	-12.63
339.579	75.43
339.792	-39.25
340.004	81.58
340.217	59.05
340.429	3.75
340.641	5.8
340.854	24.23
341.066	3.75
341.278	155.3
341.491	145.06
341.703	91.82
341.915	-35.16
342.128	120.49
342.34	71.34
342.552	-41.3
342.764	-59.73
342.977	97.96
343.189	87.72
343.401	89.77
343.613	18.09
343.826	11.95
344.038	-0.34
344.25	61.1
344.462	-35.16
344.674	48.81
344.886	79.53
345.099	20.14
345.311	116.39
345.523	91.82
345.735	-12.63
345.947	36.52
346.159	67.24
346.371	5.8
346.583	54.95
346.795	153.26
347.007	59.05
347.219	130.73
347.431	-39.25
347.643	134.82
347.855	3.75
348.067	194.22
348.279	-61.78
348.491	73.39
348.703	59.05
348.915	46.76
349.127	1.71
349.339	52.91
349.551	-26.96
349.763	36.52
349.975	61.1
350.187	87.72
350.399	151.21
350.61	128.68
350.822	20.14
351.034	59.05
351.246	26.28
351.458	48.81
351.669	173.74
351.881	63.15
352.093	108.2
352.305	81.58
352.517	91.82
352.728	87.72
352.94	40.62
353.152	61.1
353.363	5.8
353.575	71.34
353.787	112.3
353.999	77.48
354.21	134.82
354.422	-57.68
354.633	-4.44
354.845	85.67
355.057	36.52
355.268	57
355.48	67.24
355.692	-8.53
355.903	-41.3
356.115	-41.3
356.326	-125.27
356.538	134.82
356.749	73.39
356.961	102.06
357.172	30.38
357.384	-14.68
357.595	206.5
357.807	26.28
358.018	50.86
358.23	48.81
358.441	159.4
358.653	85.67
358.864	-41.3
359.075	34.47
359.287	71.34
359.498	122.54
359.709	-2.39
359.921	-14.68
360.132	75.43
360.344	-47.44
360.555	-90.45
360.766	77.48
360.977	9.9
361.189	106.15
361.4	-33.11
361.611	159.4
361.823	87.72
362.034	89.77
362.245	-0.34
362.456	32.43
362.667	116.39
362.879	-53.59
363.09	54.95
363.301	13.99
363.512	71.34
363.723	36.52
363.935	93.87
364.146	75.43
364.357	-6.49
364.568	114.34
364.779	-63.83
364.99	132.78
365.201	24.23
365.412	136.87
365.623	-86.36
365.834	26.28
366.045	59.05
366.256	79.53
366.467	22.19
366.678	-8.53
366.889	118.44
367.1	44.71
367.311	42.67
367.522	71.34
367.733	5.8
367.944	110.25
368.155	-0.34
368.366	161.45
368.577	145.06
368.788	50.86
368.999	13.99
369.209	71.34
369.42	198.31
369.631	269.99
369.842	116.39
370.053	20.14
370.264	63.15
370.474	-12.63
370.685	67.24
370.896	-98.64
371.107	163.5
371.317	42.67
371.528	48.81
371.739	110.25
371.95	95.91
372.16	63.15
372.371	-55.64
372.582	-8.53
372.792	75.43
373.003	63.15
373.214	24.23
373.424	77.48
373.635	36.52
373.846	75.43
374.056	-6.49
374.267	102.06
374.477	36.52
374.688	75.43
374.898	165.54
375.109	52.91
375.319	16.04
375.53	106.15
375.74	120.49
375.951	65.19
376.161	24.23
376.372	87.72
376.582	-65.88
376.793	110.25
377.003	106.15
377.214	11.95
377.424	42.67
377.635	116.39
377.845	18.09
378.055	149.16
378.266	-78.16
378.476	100.01
378.686	26.28
378.897	89.77
379.107	134.82
379.317	81.58
379.528	63.15
379.738	118.44
379.948	-72.02
380.158	140.97
380.369	40.62
380.579	91.82
380.789	30.38
380.999	46.76
381.21	50.86
381.42	149.16
381.63	11.95
381.84	75.43
382.05	112.3
382.261	165.54
382.471	179.88
382.681	16.04
382.891	226.98
383.101	57
383.311	-24.92
383.521	-53.59
383.731	77.48
383.941	69.29
384.151	89.77
384.361	77.48
384.571	100.01
384.781	108.2
384.991	149.16
385.201	177.83
385.411	140.97
385.621	77.48
385.831	40.62
386.041	50.86
386.251	69.29
386.461	132.78
386.671	11.95
386.881	132.78
387.091	42.67
387.301	102.06
387.511	63.15
387.72	153.26
387.93	97.96
388.14	-4.44
388.35	85.67
388.56	130.73
388.769	112.3
388.979	46.76
389.189	-39.25
389.399	71.34
389.609	116.39
389.818	118.44
390.028	57
390.238	59.05
390.447	-43.35
390.657	-2.39
390.867	-16.73
391.076	-115.03
391.286	153.26
391.496	63.15
391.705	18.09
391.915	130.73
392.125	81.58
392.334	-69.97
392.544	204.46
392.753	22.19
392.963	-45.4
393.172	83.63
393.382	24.23
393.591	149.16
393.801	24.23
394.01	140.97
394.22	95.91
394.429	36.52
394.639	18.09
394.848	93.87
395.058	63.15
395.267	54.95
395.477	128.68
395.686	120.49
395.895	161.45
396.105	210.6
396.314	-6.49
396.524	75.43
396.733	48.81
396.942	67.24
397.152	157.35
397.361	97.96
397.57	52.91
397.78	50.86
397.989	46.76
398.198	237.22
398.407	83.63
398.617	57
398.826	38.57
399.035	32.43
399.244	126.63
399.453	73.39
399.663	75.43
399.872	22.19
400.081	77.48
400.29	97.96
400.499	-43.35
400.708	145.06
400.917	102.06
401.127	-57.68
401.336	63.15
401.545	106.15
401.754	138.92
401.963	102.06
402.172	16.04
402.381	-39.25
402.59	18.09
402.799	75.43
403.008	63.15
403.217	36.52
403.426	173.74
403.635	-84.31
403.844	13.99
404.053	1.71
404.262	46.76
404.471	231.08
404.68	87.72
404.888	59.05
405.097	36.52
405.306	50.86
405.515	93.87
405.724	-0.34
405.933	149.16
406.142	54.95
406.35	102.06
406.559	30.38
406.768	61.1
406.977	177.83
407.185	75.43
407.394	71.34
407.603	-106.84
407.812	145.06
408.02	157.35
408.229	63.15
408.438	-22.87
408.646	-26.96
408.855	132.78
409.064	71.34
409.272	26.28
409.481	54.95
409.69	57
409.898	-112.98
410.107	28.33
410.315	120.49
410.524	22.19
410.733	50.86
410.941	30.38
411.15	24.23
411.358	145.06
411.567	175.78
411.775	130.73
411.984	63.15
412.192	83.63
412.401	28.33
412.609	163.5
412.818	206.5
413.026	71.34
413.234	-4.44
413.443	116.39
413.651	-20.82
413.86	118.44
414.068	198.31
414.276	128.68
414.485	9.9
414.693	128.68
414.901	190.12
415.11	112.3
415.318	-20.82
415.526	65.19
415.734	173.74
415.943	28.33
416.151	110.25
416.359	44.71
416.567	79.53
416.776	112.3
416.984	54.95
417.192	255.65
417.4	1.71
417.608	-98.64
417.817	63.15
418.025	124.58
418.233	153.26
418.441	-4.44
418.649	-18.77
418.857	126.63
419.065	100.01
419.273	-53.59
419.481	104.11
419.689	-20.82
419.897	7.85
420.105	-8.53
420.313	97.96
420.521	251.56
420.729	143.02
420.937	63.15
421.145	-8.53
421.353	114.34
421.561	243.37
421.769	91.82
421.977	30.38
422.185	149.16
422.393	73.39
422.601	138.92
422.809	108.2
423.017	18.09
423.224	102.06
423.432	118.44
423.64	59.05
423.848	102.06
424.056	50.86
424.263	95.91
424.471	112.3
424.679	153.26
424.887	-4.44
425.094	93.87
425.302	73.39
425.51	40.62
425.718	128.68
425.925	112.3
426.133	16.04
426.341	188.07
426.548	91.82
426.756	106.15
426.964	63.15
427.171	38.57
427.379	71.34
427.586	130.73
427.794	106.15
428.001	169.64
428.209	87.72
428.417	224.94
428.624	126.63
428.832	108.2
429.039	87.72
429.247	30.38
429.454	81.58
429.662	183.98
429.869	151.21
430.076	126.63
430.284	159.4
430.491	229.03
430.699	159.4
430.906	255.65
431.114	169.64
431.321	175.78
431.528	153.26
431.736	231.08
431.943	239.27
432.15	208.55
432.358	222.89
432.565	313
432.772	52.91
432.979	265.89
433.187	157.35
433.394	257.7
433.601	226.98
433.808	229.03
434.016	235.18
434.223	243.37
434.43	274.09
434.637	335.53
434.844	347.81
435.052	319.14
435.259	294.57
435.466	327.33
435.673	210.6
435.88	333.48
436.087	423.59
436.294	403.11
436.501	366.25
436.708	304.81
436.915	329.38
437.122	452.26
437.329	335.53
437.537	401.06
437.743	472.74
437.95	513.7
438.157	474.79
438.364	392.87
438.571	493.22
438.778	493.22
438.985	480.93
439.192	550.56
439.399	542.37
439.606	530.08
439.813	593.57
440.02	755.36
440.227	695.97
440.433	698.02
440.64	628.39
440.847	587.43
441.054	683.68
441.261	863.9
441.467	759.46
441.674	730.78
441.881	833.18
442.088	833.18
442.294	923.29
442.501	865.95
442.708	1011.36
442.914	935.58
443.121	1003.16
443.328	960.16
443.534	1050.27
443.741	1035.93
443.948	984.73
444.154	1089.18
444.361	1328.79
444.568	1160.86
444.774	1167
444.981	1148.57
445.187	1373.85
445.394	1418.9
445.6	1353.37
445.807	1556.11
446.013	1494.68
446.22	1488.53
446.426	1605.27
446.633	1754.77
446.839	1926.8
447.046	1812.11
447.252	1910.41
447.459	2016.91
447.665	1914.51
447.871	2137.74
448.078	2268.81
448.284	2295.43
448.491	2363.01
448.697	2483.84
448.903	2606.72
449.11	2557.57
449.316	2602.63
449.522	2895.49
449.728	2879.1
449.935	2993.79
450.141	3010.17
450.347	3370.62
450.553	3266.17
450.76	3225.21
450.966	3681.91
451.172	3690.1
451.378	3802.74
451.584	3798.64
451.791	4001.39
451.997	4124.27
452.203	4253.29
452.409	4554.34
452.615	4615.78
452.821	4634.21
453.027	4638.31
453.233	5121.63
453.44	4959.84
453.646	5342.81
453.852	5492.31
454.058	5844.56
454.264	5889.62
454.47	6331.98
454.676	6434.38
454.882	6747.72
455.088	6520.39
455.294	7026.24
455.5	7194.17
455.705	7845.43
455.911	7800.37
456.117	8050.22
456.323	8437.29
456.529	8316.46
456.735	9078.3
456.941	9258.53
457.147	9596.44
457.352	9993.75
457.558	10147.34
457.764	10765.83
457.97	11218.43
458.176	11560.44
458.381	12092.91
458.587	12408.3
458.793	13102.56
458.999	13020.64
459.204	14671.31
459.41	15162.82
459.616	15021.51
459.821	15742.39
460.027	16694.7
460.233	17198.5
460.438	17401.25
460.644	18154.9
460.85	18374.03
461.055	19174.79
461.261	20004.22
461.466	19711.36
461.672	19975.55
461.878	22343
462.083	22338.9
462.289	22519.12
462.494	23352.65
462.7	24051
462.905	23852.35
463.111	25824.54
463.316	27237.64
463.522	27569.41
463.727	28232.96
463.932	29682.92
464.138	30715.09
464.343	31968.45
464.549	32005.31
464.754	34135.2
464.959	35345.55
465.165	35961.99
465.37	35554.44
465.575	36119.68
465.781	37817.45
465.986	39144.53
466.191	38642.78
466.397	39093.33
466.602	37866.6
466.807	40111.17
467.012	40825.92
467.218	41319.48
467.423	41876.52
467.628	43258.9
467.833	44985.34
468.038	43963.4
468.244	43607.06
