Data from USB4F104151__236__11-06-29-513.txt Node

Date: Wed Feb 26 11:06:29 EST 2025
User: louis
Spectrometer: USB4F10415
Trigger mode: 4
Integration Time (sec): 1.000000E-1
Scans to average: 1
Electric dark correction enabled: true
Nonlinearity correction enabled: false
Boxcar width: 0
XAxis mode: Wavelengths
Number of Pixels in Spectrum: 3648
>>>>>Begin Spectral Data<<<<<
178.204	-445.77
178.424	-445.77
178.644	-445.77
178.864	-382.29
179.084	-441.68
179.304	6.83
179.524	-66.9
179.744	43.69
179.964	-32.08
180.184	37.55
180.404	49.83
180.624	-9.56
180.844	-13.65
181.064	-30.04
181.283	10.92
181.503	-3.41
181.723	6.83
181.943	-54.61
182.163	211.62
182.383	-64.85
182.602	96.94
182.822	109.23
183.042	66.22
183.262	-13.65
183.482	-32.08
183.701	-11.61
183.921	15.02
184.141	-87.38
184.361	74.41
184.58	53.93
184.8	47.79
185.02	-25.94
185.239	148.14
185.459	154.28
185.679	115.37
185.898	-83.28
186.118	74.41
186.338	-19.8
186.557	135.85
186.777	-85.33
186.997	-30.04
187.216	8.87
187.436	191.14
187.655	27.31
187.875	96.94
188.095	-23.89
188.314	141.99
188.534	160.42
188.753	2.73
188.973	117.42
189.192	109.23
189.412	37.55
189.631	-17.75
189.851	156.33
190.07	131.75
190.29	-52.56
190.509	-34.13
190.729	58.03
190.948	160.42
191.168	271.01
191.387	33.45
191.607	27.31
191.826	84.65
192.045	53.93
192.265	2.73
192.484	90.79
192.704	74.41
192.923	-97.62
193.142	174.76
193.362	70.31
193.581	119.46
193.8	82.6
194.02	35.5
194.239	96.94
194.458	6.83
194.678	-17.75
194.897	-38.23
195.116	39.59
195.335	55.98
195.555	29.35
195.774	10.92
195.993	162.47
196.212	19.11
196.432	-62.8
196.651	-40.28
196.87	82.6
197.089	289.45
197.308	51.88
197.528	94.89
197.747	45.74
197.966	39.59
198.185	201.38
198.404	-36.18
198.623	115.37
198.842	113.32
199.062	80.55
199.281	49.83
199.5	109.23
199.719	49.83
199.938	53.93
200.157	82.6
200.376	49.83
200.595	72.36
200.814	12.97
201.033	29.35
201.252	107.18
201.471	35.5
201.69	58.03
201.909	62.12
202.128	94.89
202.347	27.31
202.566	-9.56
202.785	-85.33
203.004	-13.65
203.223	281.25
203.442	55.98
203.661	-62.8
203.879	111.27
204.098	189.1
204.317	-19.8
204.536	101.03
204.755	109.23
204.974	160.42
205.193	29.35
205.411	154.28
205.63	127.66
205.849	64.17
206.068	-13.65
206.287	-44.37
206.505	185
206.724	35.5
206.943	41.64
207.162	23.21
207.381	72.36
207.599	29.35
207.818	-5.46
208.037	-38.23
208.255	-21.85
208.474	37.55
208.693	21.16
208.911	15.02
209.13	96.94
209.349	105.13
209.567	84.65
209.786	29.35
210.005	76.46
210.223	49.83
210.442	-27.99
210.661	113.32
210.879	113.32
211.098	12.97
211.316	29.35
211.535	90.79
211.753	76.46
211.972	35.5
212.191	-30.04
212.409	-42.32
212.628	94.89
212.846	-13.65
213.065	66.22
213.283	60.07
213.502	21.16
213.72	41.64
213.938	90.79
214.157	-38.23
214.375	141.99
214.594	43.69
214.812	70.31
215.031	-13.65
215.249	23.21
215.467	49.83
215.686	10.92
215.904	58.03
216.122	66.22
216.341	154.28
216.559	58.03
216.778	146.09
216.996	141.99
217.214	-23.89
217.432	-17.75
217.651	-23.89
217.869	19.11
218.087	33.45
218.306	-38.23
218.524	96.94
218.742	-1.37
218.96	94.89
219.179	-9.56
219.397	-7.51
219.615	189.1
219.833	94.89
220.051	-58.71
220.27	82.6
220.488	152.23
220.706	43.69
220.924	76.46
221.142	-66.9
221.36	31.4
221.578	19.11
221.796	68.27
222.015	53.93
222.233	68.27
222.451	148.14
222.669	-11.61
222.887	17.07
223.105	-54.61
223.323	6.83
223.541	-15.7
223.759	27.31
223.977	23.21
224.195	115.37
224.413	88.75
224.631	84.65
224.849	47.79
225.067	152.23
225.285	-30.04
225.503	-9.56
225.721	-66.9
225.939	49.83
226.157	64.17
226.375	244.39
226.592	-44.37
226.81	47.79
227.028	111.27
227.246	105.13
227.464	64.17
227.682	115.37
227.9	101.03
228.117	53.93
228.335	37.55
228.553	94.89
228.771	23.21
228.989	82.6
229.206	33.45
229.424	-46.42
229.642	-48.47
229.86	-68.95
230.077	43.69
230.295	74.41
230.513	96.94
230.731	82.6
230.948	178.86
231.166	101.03
231.384	17.07
231.601	19.11
231.819	133.8
232.037	2.73
232.254	62.12
232.472	10.92
232.689	27.31
232.907	133.8
233.125	37.55
233.342	17.07
233.56	-50.52
233.777	-15.7
233.995	43.69
234.213	152.23
234.43	37.55
234.648	2.73
234.865	43.69
235.083	88.75
235.3	15.02
235.518	135.85
235.735	129.7
235.953	115.37
236.17	64.17
236.388	21.16
236.605	72.36
236.822	37.55
237.04	141.99
237.257	70.31
237.475	-95.57
237.692	51.88
237.909	121.51
238.127	12.97
238.344	64.17
238.562	15.02
238.779	-25.94
238.996	-81.24
239.214	43.69
239.431	60.07
239.648	8.87
239.865	64.17
240.083	82.6
240.3	55.98
240.517	-48.47
240.735	17.07
240.952	58.03
241.169	152.23
241.386	94.89
241.603	-23.89
241.821	-30.04
242.038	0.68
242.255	146.09
242.472	-107.86
242.689	53.93
242.907	121.51
243.124	31.4
243.341	55.98
243.558	-27.99
243.775	-5.46
243.992	-66.9
244.209	82.6
244.426	127.66
244.643	101.03
244.86	53.93
245.078	58.03
245.295	62.12
245.512	33.45
245.729	12.97
245.946	107.18
246.163	72.36
246.38	49.83
246.597	-1.37
246.814	-5.46
247.031	45.74
247.248	6.83
247.464	86.7
247.681	84.65
247.898	119.46
248.115	27.31
248.332	-54.61
248.549	80.55
248.766	55.98
248.983	160.42
249.2	12.97
249.417	156.33
249.633	76.46
249.85	37.55
250.067	29.35
250.284	41.64
250.501	121.51
250.717	160.42
250.934	2.73
251.151	-17.75
251.368	88.75
251.585	19.11
251.801	41.64
252.018	-64.85
252.235	150.18
252.451	-30.04
252.668	-5.46
252.885	154.28
253.102	47.79
253.318	-3.41
253.535	-68.95
253.752	27.31
253.968	-17.75
254.185	-87.38
254.401	10.92
254.618	51.88
254.835	-11.61
255.051	133.8
255.268	80.55
255.484	25.26
255.701	58.03
255.917	107.18
256.134	-21.85
256.351	-9.56
256.567	-23.89
256.784	33.45
257	6.83
257.217	172.71
257.433	94.89
257.65	23.21
257.866	150.18
258.082	-19.8
258.299	-58.71
258.515	33.45
258.732	-1.37
258.948	12.97
259.165	150.18
259.381	-30.04
259.597	133.8
259.814	47.79
260.03	41.64
260.246	60.07
260.463	123.56
260.679	156.33
260.895	86.7
261.112	29.35
261.328	-3.41
261.544	2.73
261.761	201.38
261.977	-62.8
262.193	-30.04
262.409	121.51
262.626	37.55
262.842	35.5
263.058	31.4
263.274	55.98
263.49	10.92
263.707	60.07
263.923	133.8
264.139	-54.61
264.355	0.68
264.571	98.99
264.787	49.83
265.004	133.8
265.22	68.27
265.436	37.55
265.652	4.78
265.868	96.94
266.084	-27.99
266.3	-19.8
266.516	27.31
266.732	62.12
266.948	-7.51
267.164	58.03
267.38	88.75
267.596	66.22
267.812	213.67
268.028	49.83
268.244	19.11
268.46	27.31
268.676	53.93
268.892	53.93
269.108	25.26
269.324	-42.32
269.54	-30.04
269.756	55.98
269.972	-105.81
270.188	-19.8
270.403	23.21
270.619	21.16
270.835	141.99
271.051	39.59
271.267	-62.8
271.483	-23.89
271.698	68.27
271.914	47.79
272.13	68.27
272.346	53.93
272.562	98.99
272.777	135.85
272.993	-32.08
273.209	31.4
273.425	115.37
273.64	-52.56
273.856	80.55
274.072	-85.33
274.287	43.69
274.503	68.27
274.719	92.84
274.934	-5.46
275.15	-95.57
275.366	88.75
275.581	-93.52
275.797	10.92
276.012	88.75
276.228	58.03
276.444	78.51
276.659	115.37
276.875	21.16
277.09	-21.85
277.306	-27.99
277.521	76.46
277.737	111.27
277.952	68.27
278.168	4.78
278.383	45.74
278.599	-5.46
278.814	58.03
279.03	-1.37
279.245	76.46
279.461	35.5
279.676	101.03
279.892	-21.85
280.107	31.4
280.322	41.64
280.538	111.27
280.753	21.16
280.969	-17.75
281.184	53.93
281.399	119.46
281.615	31.4
281.83	43.69
282.045	-101.72
282.26	-52.56
282.476	33.45
282.691	33.45
282.906	35.5
283.122	60.07
283.337	-15.7
283.552	53.93
283.767	92.84
283.983	90.79
284.198	51.88
284.413	137.9
284.628	-44.37
284.843	45.74
285.058	78.51
285.274	-3.41
285.489	0.68
285.704	123.56
285.919	2.73
286.134	37.55
286.349	37.55
286.564	-19.8
286.779	68.27
286.995	35.5
287.21	2.73
287.425	49.83
287.64	-5.46
287.855	-3.41
288.07	-99.67
288.285	90.79
288.5	96.94
288.715	68.27
288.93	60.07
289.145	-38.23
289.36	156.33
289.575	123.56
289.79	60.07
290.004	47.79
290.219	113.32
290.434	19.11
290.649	25.26
290.864	43.69
291.079	-13.65
291.294	39.59
291.509	55.98
291.724	27.31
291.938	-42.32
292.153	-7.51
292.368	-23.89
292.583	94.89
292.798	72.36
293.012	-3.41
293.227	103.08
293.442	-42.32
293.657	90.79
293.871	150.18
294.086	162.47
294.301	111.27
294.516	133.8
294.73	72.36
294.945	-66.9
295.16	12.97
295.374	119.46
295.589	88.75
295.804	-3.41
296.018	98.99
296.233	64.17
296.447	53.93
296.662	-25.94
296.877	115.37
297.091	90.79
297.306	92.84
297.52	35.5
297.735	74.41
297.949	68.27
298.164	43.69
298.378	64.17
298.593	43.69
298.807	25.26
299.022	55.98
299.236	125.61
299.451	53.93
299.665	37.55
299.88	-5.46
300.094	35.5
300.309	60.07
300.523	68.27
300.737	2.73
300.952	111.27
301.166	8.87
301.381	-9.56
301.595	21.16
301.809	68.27
302.024	-42.32
302.238	47.79
302.452	68.27
302.667	-7.51
302.881	53.93
303.095	90.79
303.309	0.68
303.524	43.69
303.738	41.64
303.952	4.78
304.166	23.21
304.381	-150.87
304.595	105.13
304.809	19.11
305.023	35.5
305.237	4.78
305.452	-58.71
305.666	21.16
305.88	144.04
306.094	98.99
306.308	109.23
306.522	111.27
306.736	131.75
306.95	135.85
307.164	27.31
307.379	107.18
307.593	187.05
307.807	76.46
308.021	72.36
308.235	141.99
308.449	-7.51
308.663	62.12
308.877	258.73
309.091	6.83
309.305	82.6
309.519	-91.48
309.733	168.62
309.947	-36.18
310.161	96.94
310.374	105.13
310.588	133.8
310.802	-32.08
311.016	12.97
311.23	53.93
311.444	-7.51
311.658	51.88
311.872	45.74
312.085	141.99
312.299	121.51
312.513	193.19
312.727	86.7
312.941	-19.8
313.154	76.46
313.368	17.07
313.582	84.65
313.796	103.08
314.009	4.78
314.223	144.04
314.437	37.55
314.651	86.7
314.864	53.93
315.078	60.07
315.292	-34.13
315.505	41.64
315.719	82.6
315.933	47.79
316.146	45.74
316.36	10.92
316.573	170.66
316.787	86.7
317.001	74.41
317.214	-25.94
317.428	21.16
317.641	-11.61
317.855	-17.75
318.068	33.45
318.282	74.41
318.495	219.82
318.709	121.51
318.922	-23.89
319.136	111.27
319.349	129.7
319.563	49.83
319.776	35.5
319.99	-54.61
320.203	64.17
320.417	25.26
320.63	49.83
320.843	135.85
321.057	49.83
321.27	12.97
321.483	86.7
321.697	154.28
321.91	86.7
322.124	-25.94
322.337	76.46
322.55	35.5
322.763	-25.94
322.977	6.83
323.19	-25.94
323.403	66.22
323.617	19.11
323.83	127.66
324.043	58.03
324.256	82.6
324.469	-3.41
324.683	60.07
324.896	49.83
325.109	10.92
325.322	-87.38
325.535	90.79
325.748	101.03
325.962	17.07
326.175	19.11
326.388	55.98
326.601	160.42
326.814	74.41
327.027	64.17
327.24	150.18
327.453	-40.28
327.666	78.51
327.879	152.23
328.092	94.89
328.305	131.75
328.518	-50.52
328.731	-77.14
328.944	27.31
329.157	45.74
329.37	2.73
329.583	223.91
329.796	203.43
330.009	-60.76
330.222	82.6
330.435	88.75
330.648	25.26
330.861	49.83
331.073	27.31
331.286	121.51
331.499	31.4
331.712	-5.46
331.925	2.73
332.138	-15.7
332.35	129.7
332.563	23.21
332.776	105.13
332.989	35.5
333.202	15.02
333.414	115.37
333.627	17.07
333.84	43.69
334.053	31.4
334.265	-42.32
334.478	-5.46
334.691	-13.65
334.903	82.6
335.116	27.31
335.329	6.83
335.541	139.94
335.754	195.24
335.966	-3.41
336.179	43.69
336.392	-27.99
336.604	80.55
336.817	72.36
337.029	60.07
337.242	45.74
337.454	125.61
337.667	51.88
337.88	164.52
338.092	2.73
338.305	33.45
338.517	-83.28
338.729	64.17
338.942	148.14
339.154	29.35
339.367	8.87
339.579	53.93
339.792	-32.08
340.004	109.23
340.217	31.4
340.429	33.45
340.641	-1.37
340.854	4.78
341.066	-11.61
341.278	115.37
341.491	182.95
341.703	39.59
341.915	21.16
342.128	-13.65
342.34	-13.65
342.552	10.92
342.764	27.31
342.977	41.64
343.189	90.79
343.401	51.88
343.613	-91.48
343.826	98.99
344.038	-7.51
344.25	2.73
344.462	29.35
344.674	86.7
344.886	25.26
345.099	60.07
345.311	70.31
345.523	23.21
345.735	-30.04
345.947	76.46
346.159	107.18
346.371	47.79
346.583	2.73
346.795	162.47
347.007	-17.75
347.219	-5.46
347.431	10.92
347.643	127.66
347.855	21.16
348.067	78.51
348.279	-62.8
348.491	64.17
348.703	51.88
348.915	66.22
349.127	-5.46
349.339	94.89
349.551	17.07
349.763	60.07
349.975	23.21
350.187	66.22
350.399	180.9
350.61	90.79
350.822	64.17
351.034	115.37
351.246	21.16
351.458	39.59
351.669	6.83
351.881	53.93
352.093	129.7
352.305	72.36
352.517	115.37
352.728	150.18
352.94	90.79
353.152	66.22
353.363	23.21
353.575	15.02
353.787	170.66
353.999	-42.32
354.21	105.13
354.422	19.11
354.633	53.93
354.845	33.45
355.057	86.7
355.268	10.92
355.48	160.42
355.692	-21.85
355.903	64.17
356.115	0.68
356.326	-87.38
356.538	170.66
356.749	98.99
356.961	160.42
357.172	53.93
357.384	-46.42
357.595	252.58
357.807	-3.41
358.018	15.02
358.23	21.16
358.441	139.94
358.653	94.89
358.864	27.31
359.075	-7.51
359.287	94.89
359.498	39.59
359.709	96.94
359.921	0.68
360.132	125.61
360.344	74.41
360.555	23.21
360.766	33.45
360.977	76.46
361.189	113.32
361.4	62.12
361.611	68.27
361.823	82.6
362.034	49.83
362.245	-52.56
362.456	53.93
362.667	-7.51
362.879	-42.32
363.09	113.32
363.301	82.6
363.512	35.5
363.723	51.88
363.935	-3.41
364.146	113.32
364.357	-1.37
364.568	10.92
364.779	-40.28
364.99	33.45
365.201	45.74
365.412	60.07
365.623	-48.47
365.834	90.79
366.045	-5.46
366.256	113.32
366.467	88.75
366.678	64.17
366.889	117.42
367.1	10.92
367.311	82.6
367.522	-5.46
367.733	35.5
367.944	88.75
368.155	84.65
368.366	117.42
368.577	88.75
368.788	88.75
368.999	2.73
369.209	74.41
369.42	191.14
369.631	252.58
369.842	152.23
370.053	27.31
370.264	141.99
370.474	-27.99
370.685	121.51
370.896	12.97
371.107	72.36
371.317	76.46
371.528	105.13
371.739	148.14
371.95	4.78
372.16	94.89
372.371	33.45
372.582	55.98
372.792	70.31
373.003	-19.8
373.214	60.07
373.424	80.55
373.635	-9.56
373.846	207.53
374.056	53.93
374.267	92.84
374.477	-5.46
374.688	21.16
374.898	160.42
375.109	70.31
375.319	113.32
375.53	33.45
375.74	45.74
375.951	64.17
376.161	115.37
376.372	129.7
376.582	-1.37
376.793	96.94
377.003	6.83
377.214	8.87
377.424	-17.75
377.635	39.59
377.845	29.35
378.055	121.51
378.266	-25.94
378.476	29.35
378.686	51.88
378.897	25.26
379.107	98.99
379.317	51.88
379.528	31.4
379.738	178.86
379.948	-79.19
380.158	96.94
380.369	53.93
380.579	49.83
380.789	37.55
380.999	88.75
381.21	152.23
381.42	199.34
381.63	49.83
381.84	51.88
382.05	92.84
382.261	154.28
382.471	170.66
382.681	35.5
382.891	162.47
383.101	94.89
383.311	12.97
383.521	-9.56
383.731	51.88
383.941	193.19
384.151	80.55
384.361	12.97
384.571	78.51
384.781	96.94
384.991	199.34
385.201	164.52
385.411	64.17
385.621	49.83
385.831	55.98
386.041	98.99
386.251	25.26
386.461	78.51
386.671	-36.18
386.881	92.84
387.091	-64.85
387.301	150.18
387.511	10.92
387.72	47.79
387.93	17.07
388.14	-34.13
388.35	53.93
388.56	82.6
388.769	74.41
388.979	47.79
389.189	15.02
389.399	12.97
389.609	84.65
389.818	25.26
390.028	148.14
390.238	98.99
390.447	4.78
390.657	8.87
390.867	15.02
391.076	-116.05
391.286	101.03
391.496	21.16
391.705	53.93
391.915	109.23
392.125	137.9
392.334	-1.37
392.544	78.51
392.753	23.21
392.963	31.4
393.172	45.74
393.382	-3.41
393.591	148.14
393.801	12.97
394.01	43.69
394.22	195.24
394.429	141.99
394.639	51.88
394.848	-36.18
395.058	66.22
395.267	-13.65
395.477	82.6
395.686	51.88
395.895	191.14
396.105	180.9
396.314	-7.51
396.524	-17.75
396.733	0.68
396.942	80.55
397.152	60.07
397.361	121.51
397.57	25.26
397.78	117.42
397.989	82.6
398.198	174.76
398.407	66.22
398.617	82.6
398.826	39.59
399.035	66.22
399.244	94.89
399.453	19.11
399.663	74.41
399.872	148.14
400.081	-13.65
400.29	96.94
400.499	19.11
400.708	101.03
400.917	-38.23
401.127	78.51
401.336	39.59
401.545	187.05
401.754	187.05
401.963	160.42
402.172	58.03
402.381	-30.04
402.59	148.14
402.799	8.87
403.008	94.89
403.217	39.59
403.426	35.5
403.635	-11.61
403.844	33.45
404.053	49.83
404.262	23.21
404.471	156.33
404.68	107.18
404.888	4.78
405.097	25.26
405.306	103.08
405.515	131.75
405.724	39.59
405.933	121.51
406.142	78.51
406.35	31.4
406.559	25.26
406.768	80.55
406.977	144.04
407.185	135.85
407.394	119.46
407.603	-3.41
407.812	133.8
408.02	172.71
408.229	17.07
408.438	119.46
408.646	-44.37
408.855	-25.94
409.064	66.22
409.272	-7.51
409.481	70.31
409.69	-23.89
409.898	-46.42
410.107	66.22
410.315	139.94
410.524	-54.61
410.733	72.36
410.941	19.11
411.15	133.8
411.358	103.08
411.567	90.79
411.775	49.83
411.984	82.6
412.192	68.27
412.401	-40.28
412.609	176.81
412.818	103.08
413.026	160.42
413.234	76.46
413.443	98.99
413.651	-7.51
413.86	37.55
414.068	180.9
414.276	189.1
414.485	115.37
414.693	209.58
414.901	256.68
415.11	98.99
415.318	29.35
415.526	51.88
415.734	82.6
415.943	80.55
416.151	162.47
416.359	23.21
416.567	137.9
416.776	125.61
416.984	98.99
417.192	193.19
417.4	66.22
417.608	33.45
417.817	15.02
418.025	88.75
418.233	115.37
418.441	58.03
418.649	-32.08
418.857	72.36
419.065	207.53
419.273	60.07
419.481	2.73
419.689	51.88
419.897	-40.28
420.105	15.02
420.313	96.94
420.521	117.42
420.729	174.76
420.937	8.87
421.145	35.5
421.353	47.79
421.561	117.42
421.769	55.98
421.977	-11.61
422.185	109.23
422.393	8.87
422.601	70.31
422.809	141.99
423.017	74.41
423.224	70.31
423.432	113.32
423.64	37.55
423.848	135.85
424.056	33.45
424.263	166.57
424.471	45.74
424.679	123.56
424.887	-60.76
425.094	113.32
425.302	111.27
425.51	76.46
425.718	117.42
425.925	72.36
426.133	47.79
426.341	189.1
426.548	101.03
426.756	-25.94
426.964	98.99
427.171	92.84
427.379	109.23
427.586	137.9
427.794	60.07
428.001	201.38
428.209	121.51
428.417	156.33
428.624	125.61
428.832	187.05
429.039	156.33
429.247	29.35
429.454	156.33
429.662	182.95
429.869	86.7
430.076	45.74
430.284	107.18
430.491	240.3
430.699	152.23
430.906	314.02
431.114	115.37
431.321	119.46
431.528	121.51
431.736	201.38
431.943	191.14
432.15	246.44
432.358	217.77
432.565	242.34
432.772	127.66
432.979	207.53
433.187	195.24
433.394	309.93
433.601	170.66
433.808	336.55
434.016	359.08
434.223	178.86
434.43	283.3
434.637	350.89
434.844	279.21
435.052	266.92
435.259	350.89
435.466	332.45
435.673	301.73
435.88	291.49
436.087	365.22
436.294	420.52
436.501	350.89
436.708	283.3
436.915	264.87
437.122	369.32
437.329	295.59
437.537	336.55
437.743	402.08
437.95	451.24
438.157	465.57
438.364	467.62
438.571	465.57
438.778	488.1
438.985	518.82
439.192	570.02
439.399	531.11
439.606	524.96
439.813	608.93
440.02	740
440.227	694.94
440.433	723.62
440.64	649.89
440.847	602.79
441.054	676.51
441.261	914.08
441.467	682.66
441.674	606.88
441.881	832.16
442.088	758.43
442.294	918.17
442.501	936.6
442.708	938.65
442.914	914.08
443.121	998.04
443.328	969.37
443.534	1127.07
443.741	1120.92
443.948	944.8
444.154	1223.32
444.361	1295
444.568	1237.66
444.774	1274.52
444.981	1137.31
445.187	1477.27
445.394	1417.88
445.6	1325.72
445.807	1563.28
446.013	1573.52
446.22	1518.23
446.426	1573.52
446.633	1706.64
446.839	1976.97
447.046	1749.65
447.252	1972.88
447.459	2091.66
447.665	1991.31
447.871	2022.03
448.078	2339.46
448.284	2278.02
448.491	2368.13
448.697	2636.42
448.903	2445.96
449.11	2562.69
449.316	2534.02
449.522	2853.5
449.728	2968.19
449.935	3103.36
450.141	2937.47
450.347	3273.34
450.553	3254.9
450.76	3265.14
450.966	3500.66
451.172	3414.65
451.378	3703.41
451.584	3797.62
451.791	4119.15
451.997	4301.42
452.203	4211.31
452.409	4446.82
452.615	4645.48
452.821	4432.49
453.027	4725.35
453.233	5220.95
453.44	4911.71
453.646	5345.88
453.852	5565.01
454.058	5786.19
454.264	5958.22
454.47	6509.13
454.676	6154.83
454.882	7010.88
455.088	6574.66
455.294	7082.56
455.5	7563.83
455.705	7858.74
455.911	7805.49
456.117	8198.7
456.323	8368.68
456.529	8387.11
456.735	9161.25
456.941	9153.06
457.147	9849.36
457.352	9837.08
457.558	10390.03
457.764	10994.18
457.97	11239.94
458.176	11659.77
458.381	12179.95
458.587	12364.27
458.793	13038.05
458.999	12925.41
459.204	14975.43
459.41	15159.75
459.616	14967.24
459.821	15933.88
460.027	16439.73
460.233	17271.2
460.438	17162.66
460.644	18321.81
460.85	18696.59
461.055	19310.98
461.261	20351.35
461.466	19712.38
461.672	20197.75
461.878	22593.87
462.083	22427.99
462.289	22796.62
462.494	23775.55
462.7	23918.91
462.905	24357.17
463.111	26218.78
463.316	27289.87
463.522	27818.24
463.727	28799.22
463.932	30089.44
464.138	31127.76
464.343	32196.8
464.549	32352.44
464.754	34539.68
464.959	35643.53
465.165	36079.75
465.37	35956.87
465.575	35745.93
465.781	38373.47
465.986	39514.19
466.191	38903.9
466.397	39219.28
466.602	38604.89
466.807	40558.66
467.012	41371.7
467.218	41920.55
467.423	42068.01
467.628	43122.71
467.833	45240.31
468.038	44584.96
468.244	43601.94
468.449	45660.15
468.654	45139.96
468.859	44779.52
