Data from USB4F104151__168__11-04-52-635.txt Node

Date: Wed Feb 26 11:04:52 EST 2025
User: louis
Spectrometer: USB4F10415
Trigger mode: 4
Integration Time (sec): 1.000000E-1
Scans to average: 1
Electric dark correction enabled: true
Nonlinearity correction enabled: false
Boxcar width: 0
XAxis mode: Wavelengths
Number of Pixels in Spectrum: 3648
>>>>>Begin Spectral Data<<<<<
178.204	-387.75
178.424	-387.75
178.644	-387.75
178.864	-397.99
179.084	-402.08
179.304	34.13
179.524	-17.07
179.744	21.84
179.964	-15.02
180.184	-21.16
180.404	34.13
180.624	-27.31
180.844	-12.97
181.064	-23.21
181.283	-25.26
181.503	7.51
181.723	44.37
181.943	-23.21
182.163	251.22
182.383	-90.79
182.602	30.04
182.822	83.28
183.042	128.34
183.262	-19.11
183.482	17.75
183.701	-17.07
183.921	73.04
184.141	27.99
184.361	85.33
184.58	89.43
184.8	-25.26
185.02	-4.78
185.239	197.97
185.459	66.9
185.679	138.58
185.898	5.46
186.118	71
186.338	81.24
186.557	116.05
186.777	-35.5
186.997	25.94
187.216	71
187.436	144.72
187.655	60.76
187.875	177.49
188.095	85.33
188.314	181.59
188.534	136.53
188.753	-70.31
188.973	128.34
189.192	134.48
189.412	-45.74
189.631	15.7
189.851	23.89
190.07	122.2
190.29	-60.07
190.509	13.65
190.729	140.63
190.948	71
191.168	173.39
191.387	105.81
191.607	-2.73
191.826	130.39
192.045	7.51
192.265	40.28
192.484	128.34
192.704	-43.69
192.923	-37.55
193.142	175.44
193.362	56.66
193.581	150.87
193.8	3.41
194.02	-0.68
194.239	9.56
194.458	142.68
194.678	13.65
194.897	21.84
195.116	89.43
195.335	87.38
195.555	91.48
195.774	19.8
195.993	89.43
196.212	42.32
196.432	-21.16
196.651	23.89
196.87	54.61
197.089	296.27
197.308	46.42
197.528	64.85
197.747	21.84
197.966	-17.07
198.185	107.86
198.404	9.56
198.623	42.32
198.842	118.1
199.062	134.48
199.281	95.57
199.5	66.9
199.719	130.39
199.938	25.94
200.157	101.72
200.376	144.72
200.595	120.15
200.814	107.86
201.033	-37.55
201.252	124.24
201.471	101.72
201.69	48.47
201.909	62.8
202.128	159.06
202.347	134.48
202.566	27.99
202.785	-19.11
203.004	-23.21
203.223	202.07
203.442	40.28
203.661	-66.22
203.879	91.48
204.098	154.96
204.317	-21.16
204.536	116.05
204.755	99.67
204.974	191.83
205.193	27.99
205.411	146.77
205.63	60.76
205.849	111.96
206.068	-10.92
206.287	-35.5
206.505	181.59
206.724	-37.55
206.943	15.7
207.162	-17.07
207.381	77.14
207.599	42.32
207.818	56.66
208.037	27.99
208.255	60.76
208.474	66.9
208.693	44.37
208.911	-39.59
209.13	27.99
209.349	163.15
209.567	77.14
209.786	73.04
210.005	97.62
210.223	111.96
210.442	-74.41
210.661	-35.5
210.879	60.76
211.098	-31.4
211.316	99.67
211.535	38.23
211.753	62.8
211.972	56.66
212.191	-2.73
212.409	21.84
212.628	101.72
212.846	-4.78
213.065	13.65
213.283	99.67
213.502	30.04
213.72	101.72
213.938	32.08
214.157	64.85
214.375	165.2
214.594	-10.92
214.812	73.04
215.031	36.18
215.249	42.32
215.467	97.62
215.686	9.56
215.904	23.89
216.122	101.72
216.341	152.91
216.559	85.33
216.778	54.61
216.996	116.05
217.214	-8.87
217.432	15.7
217.651	-4.78
217.869	34.13
218.087	52.56
218.306	36.18
218.524	83.28
218.742	56.66
218.96	91.48
219.179	42.32
219.397	87.38
219.615	234.83
219.833	136.53
220.051	-58.03
220.27	122.2
220.488	107.86
220.706	56.66
220.924	54.61
221.142	-6.83
221.36	54.61
221.578	56.66
221.796	15.7
222.015	40.28
222.233	30.04
222.451	157.01
222.669	-29.35
222.887	120.15
223.105	34.13
223.323	30.04
223.541	17.75
223.759	89.43
223.977	44.37
224.195	208.21
224.413	91.48
224.631	52.56
224.849	91.48
225.067	210.26
225.285	-31.4
225.503	-41.64
225.721	-60.07
225.939	-6.83
226.157	-0.68
226.375	220.5
226.592	-25.26
226.81	19.8
227.028	116.05
227.246	177.49
227.464	93.52
227.682	109.91
227.9	48.47
228.117	52.56
228.335	68.95
228.553	36.18
228.771	9.56
228.989	9.56
229.206	73.04
229.424	-23.21
229.642	91.48
229.86	17.75
230.077	120.15
230.295	17.75
230.513	138.58
230.731	52.56
230.948	138.58
231.166	138.58
231.384	-4.78
231.601	9.56
231.819	187.73
232.037	-17.07
232.254	-12.97
232.472	-15.02
232.689	-12.97
232.907	132.44
233.125	-78.51
233.342	7.51
233.56	-49.83
233.777	-35.5
233.995	40.28
234.213	73.04
234.43	62.8
234.648	38.23
234.865	-21.16
235.083	95.57
235.3	46.42
235.518	46.42
235.735	142.68
235.953	105.81
236.17	114
236.388	46.42
236.605	-2.73
236.822	109.91
237.04	144.72
237.257	93.52
237.475	17.75
237.692	116.05
237.909	161.11
238.127	52.56
238.344	128.34
238.562	79.19
238.779	-41.64
238.996	-10.92
239.214	93.52
239.431	120.15
239.648	81.24
239.865	136.53
240.083	19.8
240.3	-4.78
240.517	-94.89
240.735	52.56
240.952	124.24
241.169	228.69
241.386	27.99
241.603	130.39
241.821	5.46
242.038	73.04
242.255	85.33
242.472	-12.97
242.689	107.86
242.907	148.82
243.124	77.14
243.341	9.56
243.558	7.51
243.775	5.46
243.992	-60.07
244.209	5.46
244.426	173.39
244.643	5.46
244.86	54.61
245.078	62.8
245.295	66.9
245.512	7.51
245.729	50.52
245.946	46.42
246.163	101.72
246.38	-51.88
246.597	46.42
246.814	81.24
247.031	50.52
247.248	105.81
247.464	73.04
247.681	38.23
247.898	48.47
248.115	93.52
248.332	-53.93
248.549	132.44
248.766	140.63
248.983	126.29
249.2	38.23
249.417	58.71
249.633	34.13
249.85	122.2
250.067	-10.92
250.284	87.38
250.501	73.04
250.717	140.63
250.934	5.46
251.151	32.08
251.368	130.39
251.585	-0.68
251.801	-12.97
252.018	60.76
252.235	75.09
252.451	-64.17
252.668	27.99
252.885	122.2
253.102	109.91
253.318	-35.5
253.535	-12.97
253.752	36.18
253.968	-19.11
254.185	-86.7
254.401	91.48
254.618	21.84
254.835	-33.45
255.051	177.49
255.268	107.86
255.484	58.71
255.701	50.52
255.917	128.34
256.134	-84.65
256.351	-0.68
256.567	40.28
256.784	17.75
257	-123.56
257.217	71
257.433	85.33
257.65	54.61
257.866	140.63
258.082	-8.87
258.299	83.28
258.515	95.57
258.732	48.47
258.948	-2.73
259.165	165.2
259.381	-6.83
259.597	46.42
259.814	-29.35
260.03	17.75
260.246	36.18
260.463	101.72
260.679	177.49
260.895	97.62
261.112	66.9
261.328	-21.16
261.544	5.46
261.761	157.01
261.977	97.62
262.193	27.99
262.409	128.34
262.626	126.29
262.842	3.41
263.058	52.56
263.274	126.29
263.49	130.39
263.707	83.28
263.923	56.66
264.139	-25.26
264.355	93.52
264.571	71
264.787	36.18
265.004	157.01
265.22	-70.31
265.436	13.65
265.652	3.41
265.868	75.09
266.084	17.75
266.3	21.84
266.516	23.89
266.732	48.47
266.948	40.28
267.164	-8.87
267.38	214.35
267.596	64.85
267.812	140.63
268.028	93.52
268.244	-17.07
268.46	71
268.676	62.8
268.892	81.24
269.108	116.05
269.324	-19.11
269.54	40.28
269.756	132.44
269.972	-6.83
270.188	19.8
270.403	-17.07
270.619	50.52
270.835	120.15
271.051	48.47
271.267	-80.55
271.483	-19.11
271.698	130.39
271.914	58.71
272.13	23.89
272.346	5.46
272.562	5.46
272.777	167.25
272.993	7.51
273.209	17.75
273.425	134.48
273.64	-51.88
273.856	101.72
274.072	-25.26
274.287	25.94
274.503	148.82
274.719	114
274.934	66.9
275.15	-49.83
275.366	-12.97
275.581	21.84
275.797	77.14
276.012	40.28
276.228	66.9
276.444	-17.07
276.659	132.44
276.875	-43.69
277.09	-10.92
277.306	11.61
277.521	83.28
277.737	56.66
277.952	77.14
278.168	40.28
278.383	42.32
278.599	30.04
278.814	99.67
279.03	114
279.245	234.83
279.461	50.52
279.676	165.2
279.892	-76.46
280.107	-10.92
280.322	-62.12
280.538	52.56
280.753	-12.97
280.969	62.8
281.184	58.71
281.399	257.36
281.615	64.85
281.83	83.28
282.045	56.66
282.26	-31.4
282.476	-12.97
282.691	93.52
282.906	161.11
283.122	146.77
283.337	56.66
283.552	105.81
283.767	1.37
283.983	62.8
284.198	91.48
284.413	140.63
284.628	-21.16
284.843	109.91
285.058	15.7
285.274	36.18
285.489	-31.4
285.704	97.62
285.919	-64.17
286.134	87.38
286.349	19.8
286.564	52.56
286.779	169.3
286.995	1.37
287.21	-45.74
287.425	124.24
287.64	-17.07
287.855	75.09
288.07	3.41
288.285	66.9
288.5	136.53
288.715	83.28
288.93	-39.59
289.145	-15.02
289.36	109.91
289.575	-4.78
289.79	116.05
290.004	1.37
290.219	146.77
290.434	75.09
290.649	1.37
290.864	-8.87
291.079	62.8
291.294	179.54
291.509	48.47
291.724	-23.21
291.938	-66.22
292.153	62.8
292.368	-6.83
292.583	93.52
292.798	161.11
293.012	60.76
293.227	38.23
293.442	42.32
293.657	89.43
293.871	85.33
294.086	91.48
294.301	177.49
294.516	85.33
294.73	77.14
294.945	-17.07
295.16	46.42
295.374	118.1
295.589	175.44
295.804	-64.17
296.018	27.99
296.233	148.82
296.447	89.43
296.662	-21.16
296.877	128.34
297.091	150.87
297.306	44.37
297.52	56.66
297.735	118.1
297.949	36.18
298.164	38.23
298.378	3.41
298.593	-17.07
298.807	1.37
299.022	81.24
299.236	167.25
299.451	-8.87
299.665	1.37
299.88	93.52
300.094	36.18
300.309	75.09
300.523	93.52
300.737	25.94
300.952	95.57
301.166	103.76
301.381	-23.21
301.595	-33.45
301.809	134.48
302.024	44.37
302.238	-33.45
302.452	181.59
302.667	32.08
302.881	103.76
303.095	120.15
303.309	62.8
303.524	-2.73
303.738	-31.4
303.952	42.32
304.166	116.05
304.381	-131.75
304.595	144.72
304.809	3.41
305.023	71
305.237	124.24
305.452	38.23
305.666	140.63
305.88	107.86
306.094	130.39
306.308	64.85
306.522	87.38
306.736	146.77
306.95	83.28
307.164	7.51
307.379	27.99
307.593	146.77
307.807	152.91
308.021	122.2
308.235	73.04
308.449	-6.83
308.663	103.76
308.877	179.54
309.091	15.7
309.305	68.95
309.519	-47.79
309.733	81.24
309.947	13.65
310.161	130.39
310.374	58.71
310.588	152.91
310.802	-35.5
311.016	-123.56
311.23	81.24
311.444	-105.13
311.658	93.52
311.872	169.3
312.085	118.1
312.299	177.49
312.513	167.25
312.727	105.81
312.941	25.94
313.154	101.72
313.368	13.65
313.582	44.37
313.796	77.14
314.009	118.1
314.223	161.11
314.437	38.23
314.651	128.34
314.864	7.51
315.078	52.56
315.292	-39.59
315.505	-45.74
315.719	91.48
315.933	64.85
316.146	-64.17
316.36	3.41
316.573	120.15
316.787	54.61
317.001	79.19
317.214	52.56
317.428	48.47
317.641	19.8
317.855	9.56
318.068	75.09
318.282	62.8
318.495	200.02
318.709	91.48
318.922	38.23
319.136	181.59
319.349	91.48
319.563	50.52
319.776	87.38
319.99	-70.31
320.203	44.37
320.417	56.66
320.63	136.53
320.843	167.25
321.057	85.33
321.27	-80.55
321.483	46.42
321.697	175.44
321.91	-19.11
322.124	71
322.337	46.42
322.55	-2.73
322.763	91.48
322.977	56.66
323.19	-21.16
323.403	23.89
323.617	97.62
323.83	19.8
324.043	40.28
324.256	101.72
324.469	5.46
324.683	118.1
324.896	101.72
325.109	15.7
325.322	9.56
325.535	120.15
325.748	42.32
325.962	52.56
326.175	79.19
326.388	71
326.601	81.24
326.814	-4.78
327.027	85.33
327.24	122.2
327.453	-43.69
327.666	116.05
327.879	138.58
328.092	81.24
328.305	101.72
328.518	-31.4
328.731	27.99
328.944	-27.31
329.157	101.72
329.37	42.32
329.583	200.02
329.796	210.26
330.009	-12.97
330.222	95.57
330.435	54.61
330.648	93.52
330.861	48.47
331.073	91.48
331.286	152.91
331.499	73.04
331.712	54.61
331.925	40.28
332.138	27.99
332.35	130.39
332.563	19.8
332.776	138.58
332.989	36.18
333.202	27.99
333.414	89.43
333.627	23.89
333.84	21.84
334.053	1.37
334.265	-12.97
334.478	107.86
334.691	85.33
334.903	128.34
335.116	5.46
335.329	60.76
335.541	81.24
335.754	66.9
335.966	62.8
336.179	40.28
336.392	5.46
336.604	-33.45
336.817	132.44
337.029	40.28
337.242	1.37
337.454	52.56
337.667	15.7
337.88	114
338.092	44.37
338.305	85.33
338.517	-21.16
338.729	157.01
338.942	116.05
339.154	-43.69
339.367	-66.22
339.579	185.68
339.792	-27.31
340.004	122.2
340.217	-2.73
340.429	54.61
340.641	36.18
340.854	-0.68
341.066	56.66
341.278	130.39
341.491	197.97
341.703	17.75
341.915	1.37
342.128	177.49
342.34	126.29
342.552	-0.68
342.764	34.13
342.977	52.56
343.189	44.37
343.401	107.86
343.613	-10.92
343.826	48.47
344.038	52.56
344.25	157.01
344.462	21.84
344.674	122.2
344.886	17.75
345.099	32.08
345.311	161.11
345.523	13.65
345.735	-43.69
345.947	89.43
346.159	-2.73
346.371	-4.78
346.583	-19.11
346.795	247.12
347.007	32.08
347.219	81.24
347.431	73.04
347.643	193.87
347.855	38.23
348.067	171.35
348.279	-23.21
348.491	54.61
348.703	118.1
348.915	44.37
349.127	21.84
349.339	122.2
349.551	7.51
349.763	66.9
349.975	83.28
350.187	97.62
350.399	128.34
350.61	83.28
350.822	30.04
351.034	83.28
351.246	34.13
351.458	138.58
351.669	132.44
351.881	93.52
352.093	220.5
352.305	134.48
352.517	46.42
352.728	91.48
352.94	44.37
353.152	3.41
353.363	50.52
353.575	87.38
353.787	177.49
353.999	85.33
354.21	118.1
354.422	54.61
354.633	-23.21
354.845	56.66
355.057	79.19
355.268	46.42
355.48	95.57
355.692	-37.55
355.903	75.09
356.115	-58.03
356.326	-60.07
356.538	165.2
356.749	52.56
356.961	150.87
357.172	9.56
357.384	-33.45
357.595	281.94
357.807	30.04
358.018	-0.68
358.23	48.47
358.441	193.87
358.653	85.33
358.864	95.57
359.075	-74.41
359.287	60.76
359.498	91.48
359.709	89.43
359.921	52.56
360.132	30.04
360.344	89.43
360.555	91.48
360.766	85.33
360.977	-15.02
361.189	120.15
361.4	25.94
361.611	165.2
361.823	193.87
362.034	73.04
362.245	-27.31
362.456	52.56
362.667	89.43
362.879	1.37
363.09	25.94
363.301	130.39
363.512	103.76
363.723	25.94
363.935	68.95
364.146	109.91
364.357	9.56
364.568	38.23
364.779	38.23
364.99	87.38
365.201	44.37
365.412	87.38
365.623	-41.64
365.834	75.09
366.045	81.24
366.256	23.89
366.467	64.85
366.678	40.28
366.889	109.91
367.1	-49.83
367.311	97.62
367.522	38.23
367.733	66.9
367.944	68.95
368.155	58.71
368.366	109.91
368.577	58.71
368.788	50.52
368.999	44.37
369.209	46.42
369.42	265.55
369.631	161.11
369.842	136.53
370.053	34.13
370.264	134.48
370.474	19.8
370.685	87.38
370.896	46.42
371.107	128.34
371.317	83.28
371.528	54.61
371.739	163.15
371.95	109.91
372.16	44.37
372.371	-12.97
372.582	27.99
372.792	122.2
373.003	87.38
373.214	101.72
373.424	62.8
373.635	-15.02
373.846	140.63
374.056	36.18
374.267	50.52
374.477	38.23
374.688	62.8
374.898	68.95
375.109	60.76
375.319	64.85
375.53	101.72
375.74	99.67
375.951	38.23
376.161	101.72
376.372	132.44
376.582	50.52
376.793	52.56
377.003	-39.59
377.214	17.75
377.424	56.66
377.635	83.28
377.845	1.37
378.055	138.58
378.266	-29.35
378.476	58.71
378.686	109.91
378.897	128.34
379.107	73.04
379.317	73.04
379.528	34.13
379.738	128.34
379.948	-35.5
380.158	66.9
380.369	13.65
380.579	3.41
380.789	-8.87
380.999	56.66
381.21	38.23
381.42	218.45
381.63	5.46
381.84	99.67
382.05	48.47
382.261	191.83
382.471	132.44
382.681	-66.22
382.891	167.25
383.101	50.52
383.311	-12.97
383.521	-6.83
383.731	116.05
383.941	97.62
384.151	15.7
384.361	13.65
384.571	44.37
384.781	134.48
384.991	183.63
385.201	220.5
385.411	48.47
385.621	56.66
385.831	56.66
386.041	79.19
386.251	-37.55
386.461	105.81
386.671	87.38
386.881	-15.02
387.091	23.89
387.301	128.34
387.511	25.94
387.72	5.46
387.93	159.06
388.14	9.56
388.35	46.42
388.56	138.58
388.769	118.1
388.979	60.76
389.189	-51.88
389.399	73.04
389.609	130.39
389.818	111.96
390.028	58.71
390.238	154.96
390.447	-45.74
390.657	109.91
390.867	64.85
391.076	-70.31
391.286	99.67
391.496	62.8
391.705	32.08
391.915	99.67
392.125	81.24
392.334	75.09
392.544	187.73
392.753	71
392.963	-53.93
393.172	91.48
393.382	111.96
393.591	210.26
393.801	58.71
394.01	212.31
394.22	109.91
394.429	32.08
394.639	95.57
394.848	89.43
395.058	93.52
395.267	42.32
395.477	85.33
395.686	126.29
395.895	232.79
396.105	183.63
396.314	122.2
396.524	19.8
396.733	44.37
396.942	44.37
397.152	66.9
397.361	93.52
397.57	189.78
397.78	81.24
397.989	85.33
398.198	140.63
398.407	25.94
398.617	17.75
398.826	118.1
399.035	36.18
399.244	142.68
399.453	87.38
399.663	68.95
399.872	68.95
400.081	-82.6
400.29	173.39
400.499	-80.55
400.708	179.54
400.917	58.71
401.127	89.43
401.336	5.46
401.545	226.64
401.754	173.39
401.963	167.25
402.172	-45.74
402.381	52.56
402.59	11.61
402.799	54.61
403.008	116.05
403.217	44.37
403.426	87.38
403.635	-47.79
403.844	50.52
404.053	48.47
404.262	-31.4
404.471	204.11
404.68	101.72
404.888	34.13
405.097	-6.83
405.306	71
405.515	130.39
405.724	56.66
405.933	126.29
406.142	120.15
406.35	173.39
406.559	23.89
406.768	97.62
406.977	177.49
407.185	128.34
407.394	58.71
407.603	-12.97
407.812	107.86
408.02	140.63
408.229	-4.78
408.438	114
408.646	-8.87
408.855	89.43
409.064	99.67
409.272	-4.78
409.481	77.14
409.69	-25.26
409.898	-23.21
410.107	89.43
410.315	107.86
410.524	11.61
410.733	68.95
410.941	52.56
411.15	60.76
411.358	79.19
411.567	193.87
411.775	13.65
411.984	48.47
412.192	167.25
412.401	-15.02
412.609	154.96
412.818	120.15
413.026	50.52
413.234	5.46
413.443	161.11
413.651	42.32
413.86	62.8
414.068	36.18
414.276	152.91
414.485	46.42
414.693	146.77
414.901	204.11
415.11	95.57
415.318	25.94
415.526	27.99
415.734	87.38
415.943	79.19
416.151	136.53
416.359	-8.87
416.567	101.72
416.776	120.15
416.984	81.24
417.192	165.2
417.4	-0.68
417.608	56.66
417.817	7.51
418.025	122.2
418.233	73.04
418.441	34.13
418.649	-29.35
418.857	73.04
419.065	157.01
419.273	44.37
419.481	27.99
419.689	95.57
419.897	-49.83
420.105	-23.21
420.313	222.55
420.521	171.35
420.729	161.11
420.937	-12.97
421.145	21.84
421.353	111.96
421.561	181.59
421.769	93.52
421.977	7.51
422.185	87.38
422.393	79.19
422.601	36.18
422.809	87.38
423.017	38.23
423.224	85.33
423.432	107.86
423.64	11.61
423.848	290.13
424.056	64.85
424.263	109.91
424.471	89.43
424.679	126.29
424.887	-10.92
425.094	175.44
425.302	116.05
425.51	44.37
425.718	193.87
425.925	68.95
426.133	19.8
426.341	220.5
426.548	54.61
426.756	38.23
426.964	111.96
427.171	-51.88
427.379	23.89
427.586	44.37
427.794	114
428.001	118.1
428.209	142.68
428.417	243.03
428.624	175.44
428.832	81.24
429.039	56.66
429.247	85.33
429.454	165.2
429.662	195.92
429.869	114
430.076	165.2
430.284	193.87
430.491	271.7
430.699	128.34
430.906	238.93
431.114	134.48
431.321	48.47
431.528	157.01
431.736	189.78
431.943	142.68
432.15	183.63
432.358	236.88
432.565	267.6
432.772	140.63
432.979	185.68
433.187	101.72
433.394	111.96
433.601	185.68
433.808	126.29
434.016	253.27
434.223	265.55
434.43	249.17
434.637	265.55
434.844	238.93
435.052	226.64
435.259	261.46
435.466	302.42
435.673	136.53
435.88	320.85
436.087	273.75
436.294	322.9
436.501	427.34
436.708	308.56
436.915	265.55
437.122	257.36
437.329	310.61
437.537	374.1
437.743	226.64
437.95	423.25
438.157	359.76
438.364	402.77
438.571	499.02
438.778	431.44
438.985	458.06
439.192	544.08
439.399	406.86
439.606	419.15
439.813	482.64
440.02	562.51
440.227	632.14
440.433	560.46
440.64	544.08
440.847	556.36
441.054	558.41
441.261	681.29
441.467	535.89
441.674	591.18
441.881	752.97
442.088	630.09
442.294	730.44
442.501	748.87
442.708	841.03
442.914	793.93
443.121	908.62
443.328	871.75
443.534	965.96
443.741	898.38
443.948	873.8
444.154	1037.64
444.361	1181
444.568	963.91
444.774	1097.03
444.981	900.42
445.187	1201.47
445.394	1156.42
445.6	1117.51
445.807	1314.11
446.013	1244.48
446.22	1199.43
446.426	1357.12
446.633	1490.24
446.839	1639.74
447.046	1477.95
447.252	1611.07
447.459	1572.16
447.665	1674.56
447.871	1770.81
448.078	1959.22
448.284	1899.83
448.491	2084.15
448.697	2022.71
448.903	2139.44
449.11	2061.62
449.316	2200.88
449.522	2440.5
449.728	2489.65
449.935	2524.46
450.141	2544.94
450.347	2719.02
450.553	2725.16
450.76	2784.55
450.966	2905.38
451.172	2972.97
451.378	3136.81
451.584	3097.89
451.791	3525.92
451.997	3482.91
452.203	3585.31
452.409	3775.77
452.615	3814.68
452.821	3738.91
453.027	3792.16
453.233	4474.13
453.44	4271.38
453.646	4422.93
453.852	4541.71
454.058	4748.56
454.264	4848.91
454.47	5244.17
454.676	5203.21
454.882	5725.44
455.088	5498.11
455.294	5737.73
455.5	6210.81
455.705	6604.02
455.911	6630.64
456.117	6659.31
456.323	7058.67
456.529	6999.27
456.735	7797.98
456.941	7871.71
457.147	8099.03
457.352	8244.44
457.558	8531.16
457.764	9176.27
457.97	9254.09
458.176	9635.01
458.381	10169.53
458.587	10519.73
458.793	11015.34
458.999	10728.63
459.204	12555.41
459.41	12778.64
459.616	12262.55
459.821	13253.77
460.027	13802.63
460.233	14541.94
460.438	14597.24
460.644	15268.97
460.85	15328.36
461.055	16141.41
461.261	16950.35
461.466	16583.77
461.672	16702.55
461.878	18824.25
462.083	19012.66
462.289	18773.05
462.494	19647.53
462.7	19792.94
462.905	20190.24
463.111	21904.39
463.316	23051.25
463.522	23198.71
463.727	24165.35
463.932	25439.19
464.138	25615.31
464.343	26821.56
464.549	26809.28
464.754	28767.13
464.959	29754.26
465.165	30520.2
465.37	29879.18
465.575	30012.3
465.781	31894.38
465.986	32787.3
466.191	32541.54
466.397	32772.96
466.602	32191.34
466.807	34054.99
467.012	34532.17
467.218	35087.17
467.423	35334.97
467.628	35945.26
467.833	37772.05
468.038	36840.23
468.244	36401.96
468.449	38155.02
468.654	37755.67
468.859	37432.09
