Data from USB4F104151__101__10-45-25-063.txt Node

Date: Wed Feb 26 10:45:25 EST 2025
User: louis
Spectrometer: USB4F10415
Trigger mode: 4
Integration Time (sec): 1.000000E-1
Scans to average: 1
Electric dark correction enabled: true
Nonlinearity correction enabled: false
Boxcar width: 0
XAxis mode: Wavelengths
Number of Pixels in Spectrum: 3648
>>>>>Begin Spectral Data<<<<<
178.204	-358.57
178.424	-358.57
178.644	-358.57
178.864	-358.57
179.084	-426.15
179.304	79.7
179.524	-59.56
179.744	-18.6
179.964	91.99
180.184	57.17
180.404	-4.27
180.624	-73.9
180.844	16.21
181.064	-65.71
181.283	3.93
181.503	-39.08
181.723	12.12
181.943	-125.1
182.163	124.76
182.383	3.93
182.602	96.08
182.822	173.91
183.042	85.84
183.262	8.02
183.482	51.03
183.701	18.26
183.921	59.22
184.141	-26.79
184.361	94.04
184.58	118.61
184.8	75.6
185.02	48.98
185.239	87.89
185.459	112.47
185.679	116.56
185.898	-47.27
186.118	69.46
186.338	14.17
186.557	102.23
186.777	-10.41
186.997	104.28
187.216	71.51
187.436	151.38
187.655	126.8
187.875	165.71
188.095	114.52
188.314	155.47
188.534	110.42
188.753	-28.84
188.973	89.94
189.192	135
189.412	36.69
189.631	53.08
189.851	36.69
190.07	200.53
190.29	36.69
190.509	5.97
190.729	53.08
190.948	126.8
191.168	268.11
191.387	91.99
191.607	42.84
191.826	67.41
192.045	110.42
192.265	-2.22
192.484	85.84
192.704	67.41
192.923	-34.99
193.142	319.31
193.362	91.99
193.581	165.71
193.8	71.51
194.02	141.14
194.239	-0.17
194.458	100.18
194.678	69.46
194.897	-49.32
195.116	155.47
195.335	34.64
195.555	67.41
195.774	26.45
195.993	147.28
196.212	30.55
196.432	51.03
196.651	34.64
196.87	73.56
197.089	190.29
197.308	87.89
197.528	42.84
197.747	-45.23
197.966	118.61
198.185	143.19
198.404	-8.36
198.623	98.13
198.842	100.18
199.062	91.99
199.281	145.24
199.5	89.94
199.719	28.5
199.938	104.28
200.157	104.28
200.376	102.23
200.595	106.32
200.814	104.28
201.033	-14.51
201.252	100.18
201.471	126.8
201.69	55.12
201.909	87.89
202.128	32.6
202.347	91.99
202.566	79.7
202.785	-18.6
203.004	36.69
203.223	266.07
203.442	116.56
203.661	-10.41
203.879	77.65
204.098	204.63
204.317	-6.31
204.536	171.86
204.755	71.51
204.974	94.04
205.193	-6.31
205.411	159.57
205.63	147.28
205.849	48.98
206.068	59.22
206.287	-18.6
206.505	239.44
206.724	-12.46
206.943	-59.56
207.162	36.69
207.381	30.55
207.599	-8.36
207.818	69.46
208.037	57.17
208.255	81.75
208.474	42.84
208.693	98.13
208.911	-6.31
209.13	112.47
209.349	81.75
209.567	61.27
209.786	110.42
210.005	100.18
210.223	53.08
210.442	-69.8
210.661	-18.6
210.879	59.22
211.098	-16.55
211.316	51.03
211.535	98.13
211.753	118.61
211.972	151.38
212.191	-39.08
212.409	38.74
212.628	81.75
212.846	20.31
213.065	83.8
213.283	124.76
213.502	89.94
213.72	40.79
213.938	114.52
214.157	-10.41
214.375	96.08
214.594	51.03
214.812	155.47
215.031	16.21
215.249	89.94
215.467	100.18
215.686	71.51
215.904	61.27
216.122	100.18
216.341	204.63
216.559	53.08
216.778	112.47
216.996	77.65
217.214	-65.71
217.432	63.32
217.651	-22.7
217.869	71.51
218.087	46.93
218.306	18.26
218.524	42.84
218.742	89.94
218.96	98.13
219.179	20.31
219.397	-20.65
219.615	200.53
219.833	130.9
220.051	-80.04
220.27	57.17
220.488	130.9
220.706	102.23
220.924	42.84
221.142	-69.8
221.36	22.36
221.578	40.79
221.796	24.4
222.015	67.41
222.233	73.56
222.451	130.9
222.669	-55.47
222.887	83.8
223.105	-39.08
223.323	46.93
223.541	-12.46
223.759	28.5
223.977	91.99
224.195	137.04
224.413	100.18
224.631	-34.99
224.849	77.65
225.067	233.3
225.285	71.51
225.503	85.84
225.721	-84.14
225.939	61.27
226.157	151.38
226.375	284.5
226.592	24.4
226.81	38.74
227.028	139.09
227.246	94.04
227.464	110.42
227.682	161.62
227.9	89.94
228.117	40.79
228.335	182.1
228.553	135
228.771	122.71
228.989	-34.99
229.206	116.56
229.424	12.12
229.642	59.22
229.86	-30.89
230.077	165.71
230.295	44.88
230.513	212.82
230.731	42.84
230.948	200.53
231.166	149.33
231.384	24.4
231.601	34.64
231.819	247.63
232.037	-20.65
232.254	-26.79
232.472	8.02
232.689	55.12
232.907	106.32
233.125	24.4
233.342	-41.13
233.56	10.07
233.777	-43.18
233.995	59.22
234.213	137.04
234.43	102.23
234.648	71.51
234.865	3.93
235.083	171.86
235.3	139.09
235.518	63.32
235.735	118.61
235.953	110.42
236.17	46.93
236.388	-14.51
236.605	24.4
236.822	83.8
237.04	145.24
237.257	89.94
237.475	-6.31
237.692	83.8
237.909	51.03
238.127	96.08
238.344	28.5
238.562	5.97
238.779	24.4
238.996	-84.14
239.214	59.22
239.431	51.03
239.648	-59.56
239.865	118.61
240.083	51.03
240.3	87.89
240.517	-51.37
240.735	83.8
240.952	175.95
241.169	149.33
241.386	149.33
241.603	139.09
241.821	12.12
242.038	12.12
242.255	77.65
242.472	20.31
242.689	71.51
242.907	124.76
243.124	67.41
243.341	85.84
243.558	-18.6
243.775	-39.08
243.992	-37.03
244.209	120.66
244.426	210.77
244.643	100.18
244.86	42.84
245.078	137.04
245.295	26.45
245.512	10.07
245.729	65.36
245.946	67.41
246.163	44.88
246.38	1.88
246.597	36.69
246.814	55.12
247.031	16.21
247.248	34.64
247.464	75.6
247.681	89.94
247.898	171.86
248.115	116.56
248.332	24.4
248.549	139.09
248.766	231.25
248.983	40.79
249.2	53.08
249.417	157.52
249.633	-32.94
249.85	61.27
250.067	30.55
250.284	53.08
250.501	40.79
250.717	36.69
250.934	-53.42
251.151	116.56
251.368	44.88
251.585	137.04
251.801	26.45
252.018	-28.84
252.235	112.47
252.451	-80.04
252.668	59.22
252.885	143.19
253.102	22.36
253.318	-28.84
253.535	-2.22
253.752	65.36
253.968	57.17
254.185	-34.99
254.401	65.36
254.618	67.41
254.835	-12.46
255.051	83.8
255.268	83.8
255.484	14.17
255.701	3.93
255.917	55.12
256.134	-26.79
256.351	40.79
256.567	-4.27
256.784	94.04
257	3.93
257.217	153.43
257.433	81.75
257.65	87.89
257.866	100.18
258.082	10.07
258.299	-20.65
258.515	73.56
258.732	40.79
258.948	-12.46
259.165	40.79
259.381	-61.61
259.597	137.04
259.814	77.65
260.03	-6.31
260.246	16.21
260.463	106.32
260.679	163.67
260.895	40.79
261.112	135
261.328	22.36
261.544	-24.75
261.761	137.04
261.977	-2.22
262.193	-37.03
262.409	94.04
262.626	42.84
262.842	59.22
263.058	10.07
263.274	139.09
263.49	3.93
263.707	137.04
263.923	102.23
264.139	-28.84
264.355	22.36
264.571	108.37
264.787	112.47
265.004	147.28
265.22	114.52
265.436	-14.51
265.652	22.36
265.868	110.42
266.084	22.36
266.3	87.89
266.516	18.26
266.732	73.56
266.948	-22.7
267.164	67.41
267.38	114.52
267.596	18.26
267.812	96.08
268.028	30.55
268.244	-59.56
268.46	65.36
268.676	1.88
268.892	44.88
269.108	26.45
269.324	-10.41
269.54	-2.22
269.756	81.75
269.972	-45.23
270.188	42.84
270.403	-61.61
270.619	65.36
270.835	161.62
271.051	57.17
271.267	30.55
271.483	-82.09
271.698	122.71
271.914	14.17
272.13	75.6
272.346	51.03
272.562	77.65
272.777	104.28
272.993	75.6
273.209	1.88
273.425	59.22
273.64	-75.95
273.856	124.76
274.072	8.02
274.287	-47.27
274.503	122.71
274.719	104.28
274.934	32.6
275.15	-65.71
275.366	38.74
275.581	100.18
275.797	12.12
276.012	85.84
276.228	3.93
276.444	65.36
276.659	163.67
276.875	3.93
277.09	24.4
277.306	16.21
277.521	73.56
277.737	48.98
277.952	141.14
278.168	59.22
278.383	44.88
278.599	46.93
278.814	114.52
279.03	42.84
279.245	167.76
279.461	12.12
279.676	100.18
279.892	-92.33
280.107	-8.36
280.322	-10.41
280.538	32.6
280.753	100.18
280.969	91.99
281.184	18.26
281.399	178
281.615	96.08
281.83	151.38
282.045	-45.23
282.26	32.6
282.476	100.18
282.691	137.04
282.906	106.32
283.122	96.08
283.337	-34.99
283.552	16.21
283.767	34.64
283.983	83.8
284.198	46.93
284.413	126.8
284.628	5.97
284.843	57.17
285.058	55.12
285.274	-16.55
285.489	16.21
285.704	22.36
285.919	-45.23
286.134	8.02
286.349	1.88
286.564	-0.17
286.779	180.05
286.995	38.74
287.21	-34.99
287.425	75.6
287.64	36.69
287.855	77.65
288.07	30.55
288.285	85.84
288.5	65.36
288.715	141.14
288.93	5.97
289.145	110.42
289.36	114.52
289.575	-4.27
289.79	124.76
290.004	-98.47
290.219	110.42
290.434	-96.43
290.649	65.36
290.864	5.97
291.079	-10.41
291.294	40.79
291.509	143.19
291.724	30.55
291.938	26.45
292.153	36.69
292.368	-69.8
292.583	112.47
292.798	83.8
293.012	63.32
293.227	147.28
293.442	-22.7
293.657	126.8
293.871	128.85
294.086	122.71
294.301	132.95
294.516	114.52
294.73	38.74
294.945	-49.32
295.16	24.4
295.374	155.47
295.589	91.99
295.804	-6.31
296.018	20.31
296.233	94.04
296.447	149.33
296.662	59.22
296.877	98.13
297.091	94.04
297.306	69.46
297.52	-6.31
297.735	79.7
297.949	46.93
298.164	94.04
298.378	77.65
298.593	-37.03
298.807	20.31
299.022	55.12
299.236	229.2
299.451	-24.75
299.665	65.36
299.88	-32.94
300.094	81.75
300.309	42.84
300.523	96.08
300.737	10.07
300.952	63.32
301.166	132.95
301.381	-16.55
301.595	22.36
301.809	18.26
302.024	73.56
302.238	-47.27
302.452	130.9
302.667	114.52
302.881	110.42
303.095	122.71
303.309	59.22
303.524	40.79
303.738	40.79
303.952	-32.94
304.166	38.74
304.381	-49.32
304.595	143.19
304.809	20.31
305.023	-49.32
305.237	30.55
305.452	100.18
305.666	96.08
305.88	139.09
306.094	114.52
306.308	40.79
306.522	100.18
306.736	48.98
306.95	143.19
307.164	48.98
307.379	36.69
307.593	182.1
307.807	120.66
308.021	83.8
308.235	96.08
308.449	-43.18
308.663	-22.7
308.877	210.77
309.091	36.69
309.305	94.04
309.519	-55.47
309.733	126.8
309.947	5.97
310.161	106.32
310.374	159.57
310.588	157.52
310.802	-37.03
311.016	1.88
311.23	73.56
311.444	-20.65
311.658	59.22
311.872	116.56
312.085	94.04
312.299	81.75
312.513	212.82
312.727	53.08
312.941	14.17
313.154	42.84
313.368	63.32
313.582	8.02
313.796	51.03
314.009	42.84
314.223	149.33
314.437	75.6
314.651	135
314.864	5.97
315.078	-10.41
315.292	-63.66
315.505	22.36
315.719	63.32
315.933	38.74
316.146	32.6
316.36	-45.23
316.573	102.23
316.787	22.36
317.001	51.03
317.214	-18.6
317.428	28.5
317.641	20.31
317.855	59.22
318.068	67.41
318.282	48.98
318.495	178
318.709	53.08
318.922	81.75
319.136	122.71
319.349	145.24
319.563	24.4
319.776	104.28
319.99	16.21
320.203	161.62
320.417	18.26
320.63	132.95
320.843	198.48
321.057	57.17
321.27	112.47
321.483	77.65
321.697	102.23
321.91	130.9
322.124	171.86
322.337	124.76
322.55	44.88
322.763	87.89
322.977	18.26
323.19	55.12
323.403	61.27
323.617	91.99
323.83	114.52
324.043	65.36
324.256	57.17
324.469	8.02
324.683	128.85
324.896	24.4
325.109	28.5
325.322	-121
325.535	91.99
325.748	96.08
325.962	12.12
326.175	94.04
326.388	87.89
326.601	194.39
326.814	57.17
327.027	48.98
327.24	198.48
327.453	-51.37
327.666	122.71
327.879	143.19
328.092	51.03
328.305	114.52
328.518	79.7
328.731	30.55
328.944	61.27
329.157	65.36
329.37	75.6
329.583	112.47
329.796	190.29
330.009	-14.51
330.222	110.42
330.435	102.23
330.648	48.98
330.861	22.36
331.073	16.21
331.286	110.42
331.499	12.12
331.712	34.64
331.925	57.17
332.138	38.74
332.35	118.61
332.563	-10.41
332.776	132.95
332.989	22.36
333.202	-14.51
333.414	16.21
333.627	44.88
333.84	8.02
334.053	83.8
334.265	10.07
334.478	42.84
334.691	34.64
334.903	20.31
335.116	-30.89
335.329	-6.31
335.541	75.6
335.754	233.3
335.966	-30.89
336.179	46.93
336.392	57.17
336.604	59.22
336.817	32.6
337.029	128.85
337.242	38.74
337.454	112.47
337.667	24.4
337.88	116.56
338.092	128.85
338.305	91.99
338.517	-6.31
338.729	30.55
338.942	231.25
339.154	5.97
339.367	-75.95
339.579	87.89
339.792	-30.89
340.004	87.89
340.217	44.88
340.429	77.65
340.641	-18.6
340.854	-22.7
341.066	-20.65
341.278	87.89
341.491	184.15
341.703	46.93
341.915	-4.27
342.128	73.56
342.34	87.89
342.552	-65.71
342.764	12.12
342.977	206.67
343.189	104.28
343.401	-4.27
343.613	-53.42
343.826	98.13
344.038	-47.27
344.25	28.5
344.462	42.84
344.674	114.52
344.886	61.27
345.099	28.5
345.311	94.04
345.523	26.45
345.735	-100.52
345.947	114.52
346.159	65.36
346.371	10.07
346.583	-0.17
346.795	155.47
347.007	51.03
347.219	69.46
347.431	85.84
347.643	141.14
347.855	3.93
348.067	51.03
348.279	-41.13
348.491	100.18
348.703	145.24
348.915	1.88
349.127	24.4
349.339	-2.22
349.551	14.17
349.763	141.14
349.975	51.03
350.187	132.95
350.399	163.67
350.61	42.84
350.822	-41.13
351.034	83.8
351.246	81.75
351.458	1.88
351.669	59.22
351.881	120.66
352.093	132.95
352.305	163.67
352.517	71.51
352.728	124.76
352.94	71.51
353.152	81.75
353.363	-28.84
353.575	61.27
353.787	266.07
353.999	46.93
354.21	171.86
354.422	40.79
354.633	85.84
354.845	114.52
355.057	34.64
355.268	67.41
355.48	118.61
355.692	-26.79
355.903	36.69
356.115	12.12
356.326	-18.6
356.538	216.91
356.749	26.45
356.961	114.52
357.172	-2.22
357.384	10.07
357.595	300.88
357.807	77.65
358.018	-6.31
358.23	8.02
358.441	141.14
358.653	141.14
358.864	34.64
359.075	55.12
359.287	1.88
359.498	98.13
359.709	114.52
359.921	32.6
360.132	53.08
360.344	36.69
360.555	-55.47
360.766	65.36
360.977	100.18
361.189	171.86
361.4	-6.31
361.611	104.28
361.823	167.76
362.034	167.76
362.245	-55.47
362.456	-10.41
362.667	145.24
362.879	-28.84
363.09	81.75
363.301	145.24
363.512	12.12
363.723	51.03
363.935	-10.41
364.146	65.36
364.357	94.04
364.568	67.41
364.779	-32.94
364.99	163.67
365.201	-12.46
365.412	116.56
365.623	-37.03
365.834	63.32
366.045	12.12
366.256	85.84
366.467	81.75
366.678	38.74
366.889	-6.31
367.1	5.97
367.311	163.67
367.522	12.12
367.733	96.08
367.944	98.13
368.155	-43.18
368.366	100.18
368.577	83.8
368.788	61.27
368.999	55.12
369.209	59.22
369.42	194.39
369.631	180.05
369.842	110.42
370.053	57.17
370.264	186.19
370.474	-100.52
370.685	198.48
370.896	36.69
371.107	190.29
371.317	48.98
371.528	46.93
371.739	98.13
371.95	94.04
372.16	96.08
372.371	-88.23
372.582	-14.51
372.792	85.84
373.003	55.12
373.214	112.47
373.424	132.95
373.635	-18.6
373.846	165.71
374.056	14.17
374.267	71.51
374.477	34.64
374.688	-32.94
374.898	38.74
375.109	24.4
375.319	34.64
375.53	151.38
375.74	130.9
375.951	108.37
376.161	102.23
376.372	145.24
376.582	42.84
376.793	89.94
377.003	-4.27
377.214	63.32
377.424	65.36
377.635	83.8
377.845	-2.22
378.055	128.85
378.266	-16.55
378.476	1.88
378.686	53.08
378.897	61.27
379.107	210.77
379.317	116.56
379.528	65.36
379.738	94.04
379.948	22.36
380.158	53.08
380.369	59.22
380.579	85.84
380.789	40.79
380.999	87.89
381.21	94.04
381.42	180.05
381.63	69.46
381.84	79.7
382.05	65.36
382.261	122.71
382.471	210.77
382.681	55.12
382.891	153.43
383.101	120.66
383.311	65.36
383.521	71.51
383.731	137.04
383.941	163.67
384.151	91.99
384.361	145.24
384.571	108.37
384.781	34.64
384.991	218.96
385.201	198.48
385.411	153.43
385.621	139.09
385.831	59.22
386.041	46.93
386.251	81.75
386.461	163.67
386.671	-6.31
386.881	83.8
387.091	120.66
387.301	130.9
387.511	83.8
387.72	94.04
387.93	79.7
388.14	-45.23
388.35	81.75
388.56	167.76
388.769	71.51
388.979	71.51
389.189	-53.42
389.399	51.03
389.609	157.52
389.818	122.71
390.028	36.69
390.238	85.84
390.447	51.03
390.657	-16.55
390.867	5.97
391.076	1.88
391.286	112.47
391.496	61.27
391.705	69.46
391.915	157.52
392.125	116.56
392.334	34.64
392.544	139.09
392.753	18.26
392.963	-16.55
393.172	85.84
393.382	42.84
393.591	167.76
393.801	16.21
394.01	157.52
394.22	118.61
394.429	26.45
394.639	59.22
394.848	87.89
395.058	53.08
395.267	20.31
395.477	124.76
395.686	53.08
395.895	167.76
396.105	229.2
396.314	100.18
396.524	48.98
396.733	-6.31
396.942	104.28
397.152	124.76
397.361	196.43
397.57	94.04
397.78	75.6
397.989	108.37
398.198	188.24
398.407	77.65
398.617	18.26
398.826	135
399.035	104.28
399.244	42.84
399.453	26.45
399.663	20.31
399.872	51.03
400.081	-18.6
400.29	145.24
400.499	-0.17
400.708	130.9
400.917	46.93
401.127	67.41
401.336	-12.46
401.545	196.43
401.754	188.24
401.963	91.99
402.172	116.56
402.381	1.88
402.59	-2.22
402.799	24.4
403.008	122.71
403.217	75.6
403.426	81.75
403.635	-143.53
403.844	30.55
404.053	91.99
404.262	-20.65
404.471	173.91
404.68	112.47
404.888	110.42
405.097	59.22
405.306	124.76
405.515	98.13
405.724	55.12
405.933	61.27
406.142	53.08
406.35	202.58
406.559	-6.31
406.768	120.66
406.977	157.52
407.185	141.14
407.394	61.27
407.603	-24.75
407.812	61.27
408.02	227.15
408.229	22.36
408.438	96.08
408.646	-63.66
408.855	61.27
409.064	59.22
409.272	51.03
409.481	132.95
409.69	34.64
409.898	-55.47
410.107	137.04
410.315	94.04
410.524	24.4
410.733	79.7
410.941	114.52
411.15	126.8
411.358	128.85
411.567	137.04
411.775	36.69
411.984	77.65
412.192	130.9
412.401	16.21
412.609	169.81
412.818	165.71
413.026	128.85
413.234	32.6
413.443	67.41
413.651	55.12
413.86	77.65
414.068	178
414.276	149.33
414.485	12.12
414.693	194.39
414.901	128.85
415.11	96.08
415.318	71.51
415.526	22.36
415.734	163.67
415.943	163.67
416.151	116.56
416.359	44.88
416.567	61.27
416.776	116.56
416.984	124.76
417.192	163.67
417.4	-53.42
417.608	46.93
417.817	16.21
418.025	94.04
418.233	241.49
418.441	-77.99
418.649	26.45
418.857	65.36
419.065	143.19
419.273	-0.17
419.481	63.32
419.689	83.8
419.897	32.6
420.105	-86.19
420.313	114.52
420.521	155.47
420.729	184.15
420.937	94.04
421.145	-10.41
421.353	192.34
421.561	159.57
421.769	143.19
421.977	108.37
422.185	147.28
422.393	57.17
422.601	63.32
422.809	106.32
423.017	22.36
423.224	120.66
423.432	132.95
423.64	20.31
423.848	116.56
424.056	100.18
424.263	65.36
424.471	16.21
424.679	200.53
424.887	-18.6
425.094	110.42
425.302	145.24
425.51	94.04
425.718	130.9
425.925	-0.17
426.133	57.17
426.341	223.06
426.548	55.12
426.756	61.27
426.964	149.33
427.171	55.12
427.379	38.74
427.586	155.47
427.794	94.04
428.001	180.05
428.209	91.99
428.417	268.11
428.624	87.89
428.832	122.71
429.039	141.14
429.247	110.42
429.454	63.32
429.662	270.16
429.869	137.04
430.076	118.61
430.284	212.82
430.491	237.39
430.699	145.24
430.906	296.78
431.114	122.71
431.321	169.81
431.528	128.85
431.736	231.25
431.943	216.91
432.15	186.19
432.358	257.87
432.565	251.73
432.772	28.5
432.979	288.59
433.187	208.72
433.394	227.15
433.601	112.47
433.808	282.45
434.016	253.78
434.223	268.11
434.43	276.31
434.637	216.91
434.844	323.41
435.052	143.19
435.259	296.78
435.466	300.88
435.673	343.89
435.88	259.92
436.087	296.78
436.294	358.22
436.501	313.17
436.708	239.44
436.915	388.94
437.122	411.47
437.329	321.36
437.537	313.17
437.743	393.04
437.95	415.57
438.157	436.05
438.364	526.16
438.571	343.89
438.778	507.73
438.985	431.95
439.192	499.53
439.399	522.06
439.606	513.87
439.813	583.5
440.02	706.38
440.227	700.23
440.433	667.47
440.64	595.79
440.847	489.29
441.054	651.08
441.261	784.2
441.467	667.47
441.674	661.32
441.881	726.86
442.088	624.46
442.294	851.78
442.501	911.18
442.708	937.8
442.914	771.91
443.121	939.85
443.328	952.13
443.534	1056.58
443.741	884.55
443.948	1009.48
444.154	980.81
444.361	1265.47
444.568	1124.16
444.774	1044.29
444.981	1083.2
445.187	1392.45
445.394	1267.52
445.6	1187.65
445.807	1390.4
446.013	1457.98
446.22	1353.54
446.426	1468.22
446.633	1554.24
446.839	1791.8
447.046	1576.77
447.252	1732.41
447.459	1707.84
447.665	1761.08
447.871	1912.63
448.078	2125.62
448.284	2115.38
448.491	2101.05
448.697	2152.24
448.903	2283.31
449.11	2318.13
449.316	2293.55
449.522	2527.02
449.728	2639.66
449.935	2676.52
450.141	2711.34
450.347	2942.76
450.553	2848.55
450.76	2969.38
450.966	3127.08
451.172	3170.08
451.378	3305.25
451.584	3462.94
451.791	3645.21
451.997	3798.81
452.203	3884.83
452.409	4085.53
452.615	4101.91
452.821	4093.72
453.027	4163.35
453.233	4695.82
453.44	4546.32
453.646	4792.08
453.852	4925.19
454.058	5183.24
454.264	5359.36
454.47	5662.46
454.676	5715.71
454.882	6151.93
455.088	5996.28
455.294	6266.61
455.5	6489.84
455.705	6928.11
455.911	6940.4
456.117	7149.29
456.323	7536.35
456.529	7603.94
456.735	8152.79
456.941	8234.71
457.147	8623.83
457.352	8859.34
457.558	9340.61
457.764	9756.35
457.97	10073.79
458.176	10428.09
458.381	10782.38
458.587	11142.83
458.793	11667.11
458.999	11636.39
459.204	13008.53
459.41	13254.28
459.616	13141.64
459.821	14259.84
460.027	14849.65
460.233	15337.07
460.438	15400.55
460.644	16475.74
460.85	16768.6
461.055	16993.87
461.261	17909.32
461.466	17636.94
461.672	17929.8
461.878	20262.43
462.083	19772.97
462.289	20362.78
462.494	21067.28
462.7	21177.87
462.905	21698.06
463.111	23154.16
463.316	24200.68
463.522	24896.99
463.727	25705.93
463.932	26600.9
464.138	26951.1
464.343	28376.48
464.549	28444.07
464.754	30336.39
464.959	31712.63
465.165	31831.41
465.37	31538.55
465.575	31966.57
465.781	34110.8
465.986	34895.17
466.191	34241.87
466.397	34774.34
466.602	34086.22
466.807	35908.91
467.012	36615.46
467.218	37174.56
467.423	36990.24
467.628	38186.25
467.833	40017.14
468.038	39144.7
