Data from USB4F104151__160__11-04-42-137.txt Node

Date: Wed Feb 26 11:04:42 EST 2025
User: louis
Spectrometer: USB4F10415
Trigger mode: 4
Integration Time (sec): 1.000000E-1
Scans to average: 1
Electric dark correction enabled: true
Nonlinearity correction enabled: false
Boxcar width: 0
XAxis mode: Wavelengths
Number of Pixels in Spectrum: 3648
>>>>>Begin Spectral Data<<<<<
178.204	-460.45
178.424	-460.45
178.644	-460.45
178.864	-401.06
179.084	-435.88
179.304	12.63
179.524	-26.28
179.744	-34.47
179.964	88.4
180.184	-44.71
180.404	8.53
180.624	31.06
180.844	29.01
181.064	-32.43
181.283	22.87
181.503	-95.91
181.723	41.3
181.943	-77.48
182.163	84.31
182.383	2.39
182.602	51.54
182.822	151.89
183.042	137.56
183.262	-28.33
183.482	35.16
183.701	106.84
183.921	45.4
184.141	-67.24
184.361	119.12
184.58	45.4
184.8	96.6
185.02	-54.95
185.239	80.21
185.459	39.25
185.679	147.8
185.898	-89.77
186.118	88.4
186.338	2.39
186.557	119.12
186.777	-114.34
186.997	39.25
187.216	35.16
187.436	198.99
187.655	76.12
187.875	88.4
188.095	18.77
188.314	123.22
188.534	74.07
188.753	-24.23
188.973	100.69
189.192	125.27
189.412	39.25
189.631	-9.9
189.851	110.93
190.07	133.46
190.29	-83.63
190.509	12.63
190.729	6.49
190.948	137.56
191.168	209.23
191.387	43.35
191.607	-73.39
191.826	92.5
192.045	2.39
192.265	-81.58
192.484	-28.33
192.704	59.73
192.923	4.44
193.142	145.75
193.362	53.59
193.581	98.64
193.8	100.69
194.02	123.22
194.239	24.92
194.458	145.75
194.678	-7.85
194.897	29.01
195.116	43.35
195.335	88.4
195.555	43.35
195.774	-3.75
195.993	172.37
196.212	47.44
196.432	-50.86
196.651	18.77
196.87	-26.28
197.089	147.8
197.308	72.02
197.528	47.44
197.747	-83.63
197.966	78.16
198.185	94.55
198.404	-26.28
198.623	104.79
198.842	112.98
199.062	-1.71
199.281	112.98
199.5	88.4
199.719	102.74
199.938	18.77
200.157	151.89
200.376	67.92
200.595	69.97
200.814	35.16
201.033	10.58
201.252	115.03
201.471	108.88
201.69	61.78
201.909	-75.43
202.128	100.69
202.347	55.64
202.566	29.01
202.785	-83.63
203.004	10.58
203.223	303.44
203.442	20.82
203.661	-128.68
203.879	92.5
204.098	98.64
204.317	-13.99
204.536	137.56
204.755	45.4
204.974	162.13
205.193	-26.28
205.411	184.66
205.63	74.07
205.849	63.83
206.068	31.06
206.287	4.44
206.505	158.03
206.724	69.97
206.943	0.34
207.162	-30.38
207.381	24.92
207.599	49.49
207.818	-9.9
208.037	-61.1
208.255	119.12
208.474	106.84
208.693	51.54
208.911	24.92
209.13	92.5
209.349	41.3
209.567	96.6
209.786	98.64
210.005	143.7
210.223	-24.23
210.442	-63.15
210.661	53.59
210.879	35.16
211.098	47.44
211.316	2.39
211.535	57.68
211.753	39.25
211.972	-18.09
212.191	-57
212.409	8.53
212.628	153.94
212.846	22.87
213.065	67.92
213.283	78.16
213.502	45.4
213.72	74.07
213.938	76.12
214.157	74.07
214.375	82.26
214.594	-1.71
214.812	86.36
215.031	22.87
215.249	115.03
215.467	100.69
215.686	-9.9
215.904	117.08
216.122	12.63
216.341	94.55
216.559	49.49
216.778	121.17
216.996	194.9
217.214	96.6
217.432	6.49
217.651	-77.48
217.869	14.68
218.087	141.65
218.306	0.34
218.524	31.06
218.742	14.68
218.96	112.98
219.179	-48.81
219.397	16.73
219.615	198.99
219.833	78.16
220.051	33.11
220.27	72.02
220.488	158.03
220.706	72.02
220.924	-57
221.142	2.39
221.36	-13.99
221.578	72.02
221.796	92.5
222.015	-7.85
222.233	86.36
222.451	166.23
222.669	10.58
222.887	63.83
223.105	18.77
223.323	39.25
223.541	35.16
223.759	106.84
223.977	33.11
224.195	231.76
224.413	151.89
224.631	61.78
224.849	168.27
225.067	166.23
225.285	-11.95
225.503	33.11
225.721	-140.97
225.939	43.35
226.157	45.4
226.375	194.9
226.592	0.34
226.81	-11.95
227.028	47.44
227.246	110.93
227.464	33.11
227.682	112.98
227.9	6.49
228.117	80.21
228.335	125.27
228.553	115.03
228.771	61.78
228.989	2.39
229.206	133.46
229.424	4.44
229.642	-54.95
229.86	-7.85
230.077	211.28
230.295	57.68
230.513	82.26
230.731	90.45
230.948	174.42
231.166	119.12
231.384	-18.09
231.601	-24.23
231.819	170.32
232.037	-3.75
232.254	-42.67
232.472	-38.57
232.689	16.73
232.907	115.03
233.125	18.77
233.342	-5.8
233.56	-97.96
233.777	-73.39
233.995	-28.33
234.213	86.36
234.43	12.63
234.648	26.96
234.865	12.63
235.083	123.22
235.3	94.55
235.518	59.73
235.735	231.76
235.953	51.54
236.17	16.73
236.388	117.08
236.605	12.63
236.822	143.7
237.04	180.56
237.257	45.4
237.475	-54.95
237.692	39.25
237.909	78.16
238.127	49.49
238.344	172.37
238.562	47.44
238.779	51.54
238.996	2.39
239.214	57.68
239.431	69.97
239.648	47.44
239.865	18.77
240.083	141.65
240.3	-20.14
240.517	2.39
240.735	31.06
240.952	47.44
241.169	147.8
241.386	53.59
241.603	-40.62
241.821	0.34
242.038	100.69
242.255	162.13
242.472	-57
242.689	51.54
242.907	92.5
243.124	14.68
243.341	47.44
243.558	-71.34
243.775	-50.86
243.992	35.16
244.209	117.08
244.426	192.85
244.643	94.55
244.86	24.92
245.078	55.64
245.295	37.2
245.512	96.6
245.729	-75.43
245.946	137.56
246.163	57.68
246.38	76.12
246.597	45.4
246.814	110.93
247.031	35.16
247.248	-11.95
247.464	88.4
247.681	55.64
247.898	35.16
248.115	80.21
248.332	-52.91
248.549	201.04
248.766	127.32
248.983	110.93
249.2	139.6
249.417	104.79
249.633	-48.81
249.85	59.73
250.067	10.58
250.284	80.21
250.501	76.12
250.717	55.64
250.934	-89.77
251.151	24.92
251.368	76.12
251.585	76.12
251.801	29.01
252.018	-7.85
252.235	155.99
252.451	24.92
252.668	31.06
252.885	143.7
253.102	112.98
253.318	-30.38
253.535	45.4
253.752	-73.39
253.968	20.82
254.185	-46.76
254.401	125.27
254.618	45.4
254.835	-3.75
255.051	41.3
255.268	43.35
255.484	117.08
255.701	16.73
255.917	133.46
256.134	14.68
256.351	-22.19
256.567	-57
256.784	-7.85
257	-63.15
257.217	69.97
257.433	94.55
257.65	47.44
257.866	78.16
258.082	20.82
258.299	-50.86
258.515	65.88
258.732	2.39
258.948	-50.86
259.165	121.17
259.381	-30.38
259.597	14.68
259.814	12.63
260.03	-26.28
260.246	43.35
260.463	147.8
260.679	162.13
260.895	31.06
261.112	14.68
261.328	78.16
261.544	-18.09
261.761	135.51
261.977	-9.9
262.193	-57
262.409	106.84
262.626	59.73
262.842	18.77
263.058	-71.34
263.274	112.98
263.49	2.39
263.707	145.75
263.923	229.71
264.139	-102.06
264.355	115.03
264.571	24.92
264.787	72.02
265.004	160.08
265.22	74.07
265.436	2.39
265.652	18.77
265.868	76.12
266.084	-26.28
266.3	12.63
266.516	-54.95
266.732	65.88
266.948	37.2
267.164	55.64
267.38	78.16
267.596	131.41
267.812	149.84
268.028	20.82
268.244	39.25
268.46	55.64
268.676	35.16
268.892	16.73
269.108	-18.09
269.324	-34.47
269.54	-79.53
269.756	170.32
269.972	-9.9
270.188	-63.15
270.403	-18.09
270.619	74.07
270.835	18.77
271.051	47.44
271.267	74.07
271.483	6.49
271.698	61.78
271.914	86.36
272.13	63.83
272.346	78.16
272.562	37.2
272.777	80.21
272.993	100.69
273.209	22.87
273.425	45.4
273.64	-83.63
273.856	90.45
274.072	-42.67
274.287	-24.23
274.503	145.75
274.719	59.73
274.934	-36.52
275.15	20.82
275.366	69.97
275.581	-59.05
275.797	29.01
276.012	31.06
276.228	22.87
276.444	92.5
276.659	172.37
276.875	-83.63
277.09	55.64
277.306	-1.71
277.521	90.45
277.737	33.11
277.952	162.13
278.168	10.58
278.383	88.4
278.599	72.02
278.814	35.16
279.03	43.35
279.245	188.75
279.461	16.73
279.676	53.59
279.892	-46.76
280.107	22.87
280.322	-77.48
280.538	160.08
280.753	12.63
280.969	104.79
281.184	-11.95
281.399	108.88
281.615	55.64
281.83	47.44
282.045	-100.01
282.26	61.78
282.476	80.21
282.691	143.7
282.906	121.17
283.122	49.49
283.337	-42.67
283.552	88.4
283.767	39.25
283.983	108.88
284.198	12.63
284.413	55.64
284.628	-1.71
284.843	41.3
285.058	-13.99
285.274	121.17
285.489	-42.67
285.704	135.51
285.919	45.4
286.134	-18.09
286.349	-52.91
286.564	65.88
286.779	149.84
286.995	35.16
287.21	-120.49
287.425	94.55
287.64	-50.86
287.855	-9.9
288.07	-13.99
288.285	65.88
288.5	108.88
288.715	80.21
288.93	12.63
289.145	-110.25
289.36	47.44
289.575	-59.05
289.79	112.98
290.004	12.63
290.219	78.16
290.434	41.3
290.649	-24.23
290.864	24.92
291.079	10.58
291.294	49.49
291.509	98.64
291.724	4.44
291.938	-20.14
292.153	41.3
292.368	-11.95
292.583	74.07
292.798	129.36
293.012	51.54
293.227	51.54
293.442	31.06
293.657	110.93
293.871	96.6
294.086	80.21
294.301	254.29
294.516	98.64
294.73	53.59
294.945	-36.52
295.16	8.53
295.374	72.02
295.589	188.75
295.804	61.78
296.018	-3.75
296.233	57.68
296.447	143.7
296.662	43.35
296.877	92.5
297.091	41.3
297.306	41.3
297.52	51.54
297.735	8.53
297.949	31.06
298.164	80.21
298.378	18.77
298.593	-24.23
298.807	-5.8
299.022	49.49
299.236	143.7
299.451	33.11
299.665	24.92
299.88	55.64
300.094	108.88
300.309	33.11
300.523	119.12
300.737	6.49
300.952	119.12
301.166	125.27
301.381	24.92
301.595	-100.01
301.809	-16.04
302.024	51.54
302.238	84.31
302.452	88.4
302.667	6.49
302.881	55.64
303.095	131.41
303.309	80.21
303.524	-20.14
303.738	-20.14
303.952	26.96
304.166	133.46
304.381	-83.63
304.595	117.08
304.809	-71.34
305.023	37.2
305.237	-13.99
305.452	22.87
305.666	121.17
305.88	63.83
306.094	141.65
306.308	39.25
306.522	133.46
306.736	55.64
306.95	37.2
307.164	33.11
307.379	-5.8
307.593	143.7
307.807	151.89
308.021	84.31
308.235	55.64
308.449	-65.19
308.663	94.55
308.877	149.84
309.091	-11.95
309.305	31.06
309.519	-54.95
309.733	145.75
309.947	-13.99
310.161	18.77
310.374	69.97
310.588	133.46
310.802	22.87
311.016	31.06
311.23	125.27
311.444	-112.3
311.658	35.16
311.872	80.21
312.085	104.79
312.299	188.75
312.513	153.94
312.727	47.44
312.941	-9.9
313.154	108.88
313.368	112.98
313.582	14.68
313.796	55.64
314.009	55.64
314.223	160.08
314.437	61.78
314.651	-16.04
314.864	47.44
315.078	33.11
315.292	-36.52
315.505	45.4
315.719	139.6
315.933	137.56
316.146	-11.95
316.36	-38.57
316.573	102.74
316.787	53.59
317.001	86.36
317.214	-16.04
317.428	115.03
317.641	-44.71
317.855	-34.47
318.068	112.98
318.282	98.64
318.495	131.41
318.709	35.16
318.922	24.92
319.136	119.12
319.349	57.68
319.563	-52.91
319.776	104.79
319.99	-9.9
320.203	67.92
320.417	-7.85
320.63	41.3
320.843	203.09
321.057	61.78
321.27	-3.75
321.483	86.36
321.697	149.84
321.91	74.07
322.124	82.26
322.337	129.36
322.55	-38.57
322.763	112.98
322.977	22.87
323.19	-79.53
323.403	63.83
323.617	18.77
323.83	74.07
324.043	69.97
324.256	24.92
324.469	-50.86
324.683	37.2
324.896	4.44
325.109	59.73
325.322	-11.95
325.535	121.17
325.748	117.08
325.962	45.4
326.175	72.02
326.388	121.17
326.601	174.42
326.814	51.54
327.027	41.3
327.24	158.03
327.453	-38.57
327.666	123.22
327.879	98.64
328.092	112.98
328.305	94.55
328.518	82.26
328.731	-40.62
328.944	59.73
329.157	31.06
329.37	78.16
329.583	207.19
329.796	96.6
330.009	-67.24
330.222	127.32
330.435	74.07
330.648	-13.99
330.861	63.83
331.073	6.49
331.286	119.12
331.499	76.12
331.712	-36.52
331.925	39.25
332.138	29.01
332.35	94.55
332.563	47.44
332.776	196.95
332.989	6.49
333.202	51.54
333.414	35.16
333.627	90.45
333.84	43.35
334.053	31.06
334.265	22.87
334.478	14.68
334.691	6.49
334.903	29.01
335.116	-91.82
335.329	-13.99
335.541	141.65
335.754	141.65
335.966	22.87
336.179	0.34
336.392	10.58
336.604	20.82
336.817	125.27
337.029	57.68
337.242	-5.8
337.454	100.69
337.667	78.16
337.88	176.47
338.092	78.16
338.305	98.64
338.517	-20.14
338.729	88.4
338.942	231.76
339.154	-28.33
339.367	-18.09
339.579	67.92
339.792	-1.71
340.004	63.83
340.217	35.16
340.429	41.3
340.641	-83.63
340.854	-26.28
341.066	63.83
341.278	55.64
341.491	145.75
341.703	51.54
341.915	65.88
342.128	86.36
342.34	51.54
342.552	6.49
342.764	104.79
342.977	65.88
343.189	119.12
343.401	84.31
343.613	-54.95
343.826	76.12
344.038	26.96
344.25	72.02
344.462	20.82
344.674	45.4
344.886	-5.8
345.099	141.65
345.311	149.84
345.523	88.4
345.735	-93.87
345.947	49.49
346.159	-18.09
346.371	49.49
346.583	-32.43
346.795	194.9
347.007	-26.28
347.219	86.36
347.431	106.84
347.643	106.84
347.855	-48.81
348.067	153.94
348.279	-48.81
348.491	12.63
348.703	88.4
348.915	14.68
349.127	-22.19
349.339	67.92
349.551	55.64
349.763	147.8
349.975	14.68
350.187	119.12
350.399	182.61
350.61	31.06
350.822	-48.81
351.034	65.88
351.246	84.31
351.458	61.78
351.669	2.39
351.881	57.68
352.093	135.51
352.305	76.12
352.517	67.92
352.728	149.84
352.94	12.63
353.152	158.03
353.363	-18.09
353.575	82.26
353.787	221.52
353.999	55.64
354.21	135.51
354.422	-77.48
354.633	59.73
354.845	78.16
355.057	22.87
355.268	63.83
355.48	78.16
355.692	-57
355.903	74.07
356.115	29.01
356.326	-59.05
356.538	78.16
356.749	86.36
356.961	184.66
357.172	12.63
357.384	-57
357.595	174.42
357.807	20.82
358.018	45.4
358.23	-5.8
358.441	147.8
358.653	47.44
358.864	94.55
359.075	35.16
359.287	94.55
359.498	129.36
359.709	67.92
359.921	41.3
360.132	110.93
360.344	14.68
360.555	80.21
360.766	59.73
360.977	37.2
361.189	121.17
361.4	-3.75
361.611	176.47
361.823	82.26
362.034	33.11
362.245	-130.73
362.456	82.26
362.667	104.79
362.879	-40.62
363.09	41.3
363.301	139.6
363.512	55.64
363.723	35.16
363.935	43.35
364.146	106.84
364.357	-11.95
364.568	86.36
364.779	-20.14
364.99	180.56
365.201	26.96
365.412	22.87
365.623	-65.19
365.834	104.79
366.045	-28.33
366.256	108.88
366.467	80.21
366.678	6.49
366.889	39.25
367.1	-1.71
367.311	135.51
367.522	-61.1
367.733	96.6
367.944	125.27
368.155	26.96
368.366	84.31
368.577	104.79
368.788	129.36
368.999	59.73
369.209	69.97
369.42	209.23
369.631	223.57
369.842	158.03
370.053	-22.19
370.264	29.01
370.474	-77.48
370.685	-5.8
370.896	78.16
371.107	153.94
371.317	84.31
371.528	-42.67
371.739	121.17
371.95	160.08
372.16	84.31
372.371	-36.52
372.582	31.06
372.792	88.4
373.003	33.11
373.214	121.17
373.424	100.69
373.635	-57
373.846	121.17
374.056	72.02
374.267	100.69
374.477	92.5
374.688	-83.63
374.898	80.21
375.109	49.49
375.319	37.2
375.53	96.6
375.74	115.03
375.951	84.31
376.161	51.54
376.372	57.68
376.582	-48.81
376.793	90.45
377.003	-30.38
377.214	33.11
377.424	90.45
377.635	53.59
377.845	-13.99
378.055	182.61
378.266	-7.85
378.476	0.34
378.686	49.49
378.897	47.44
379.107	110.93
379.317	121.17
379.528	22.87
379.738	108.88
379.948	-3.75
380.158	61.78
380.369	104.79
380.579	137.56
380.789	51.54
380.999	31.06
381.21	72.02
381.42	135.51
381.63	-13.99
381.84	153.94
382.05	115.03
382.261	155.99
382.471	96.6
382.681	18.77
382.891	196.95
383.101	-32.43
383.311	-85.67
383.521	-52.91
383.731	82.26
383.941	115.03
384.151	31.06
384.361	-1.71
384.571	78.16
384.781	10.58
384.991	182.61
385.201	129.36
385.411	104.79
385.621	123.22
385.831	49.49
386.041	53.59
386.251	-24.23
386.461	168.27
386.671	12.63
386.881	72.02
387.091	24.92
387.301	112.98
387.511	80.21
387.72	104.79
387.93	102.74
388.14	-1.71
388.35	45.4
388.56	151.89
388.769	190.8
388.979	39.25
389.189	59.73
389.399	80.21
389.609	86.36
389.818	24.92
390.028	92.5
390.238	88.4
390.447	-9.9
390.657	76.12
390.867	-16.04
391.076	-22.19
391.286	86.36
391.496	82.26
391.705	82.26
391.915	102.74
392.125	86.36
392.334	39.25
392.544	153.94
392.753	47.44
392.963	24.92
393.172	51.54
393.382	2.39
393.591	174.42
393.801	39.25
394.01	57.68
394.22	84.31
394.429	18.77
394.639	65.88
394.848	192.85
395.058	78.16
395.267	8.53
395.477	125.27
395.686	61.78
395.895	239.95
396.105	225.62
396.314	117.08
396.524	78.16
396.733	29.01
396.942	158.03
397.152	82.26
397.361	108.88
397.57	92.5
397.78	125.27
397.989	82.26
398.198	135.51
398.407	39.25
398.617	-22.19
398.826	22.87
399.035	35.16
399.244	115.03
399.453	-1.71
399.663	65.88
399.872	33.11
400.081	-13.99
400.29	59.73
400.499	-110.25
400.708	106.84
400.917	57.68
401.127	84.31
401.336	-40.62
401.545	194.9
401.754	209.23
401.963	12.63
402.172	-30.38
402.381	-7.85
402.59	26.96
402.799	-9.9
403.008	80.21
403.217	88.4
403.426	10.58
403.635	10.58
403.844	53.59
404.053	43.35
404.262	-48.81
404.471	139.6
404.68	121.17
404.888	57.68
405.097	12.63
405.306	119.12
405.515	59.73
405.724	33.11
405.933	39.25
406.142	41.3
406.35	117.08
406.559	16.73
406.768	6.49
406.977	141.65
407.185	10.58
407.394	24.92
407.603	-28.33
407.812	135.51
408.02	178.51
408.229	14.68
408.438	84.31
408.646	-11.95
408.855	53.59
409.064	98.64
409.272	-26.28
409.481	127.32
409.69	88.4
409.898	41.3
410.107	80.21
410.315	55.64
410.524	0.34
410.733	47.44
410.941	2.39
411.15	112.98
411.358	96.6
411.567	190.8
411.775	63.83
411.984	-16.04
412.192	63.83
412.401	-3.75
412.609	196.95
412.818	139.6
413.026	45.4
413.234	24.92
413.443	-5.8
413.651	-5.8
413.86	-32.43
414.068	151.89
414.276	158.03
414.485	-24.23
414.693	139.6
414.901	196.95
415.11	82.26
415.318	-91.82
415.526	65.88
415.734	65.88
415.943	131.41
416.151	115.03
416.359	-7.85
416.567	110.93
416.776	182.61
416.984	102.74
417.192	182.61
417.4	-18.09
417.608	-63.15
417.817	-28.33
418.025	94.55
418.233	104.79
418.441	6.49
418.649	-102.06
418.857	94.55
419.065	149.84
419.273	65.88
419.481	29.01
419.689	110.93
419.897	92.5
420.105	-38.57
420.313	155.99
420.521	172.37
420.729	160.08
420.937	61.78
421.145	0.34
421.353	209.23
421.561	117.08
421.769	72.02
421.977	-24.23
422.185	94.55
422.393	94.55
422.601	80.21
422.809	0.34
423.017	106.84
423.224	74.07
423.432	123.22
423.64	24.92
423.848	112.98
424.056	-13.99
424.263	88.4
424.471	78.16
424.679	151.89
424.887	-9.9
425.094	170.32
425.302	82.26
425.51	45.4
425.718	125.27
425.925	47.44
426.133	6.49
426.341	213.33
426.548	80.21
426.756	31.06
426.964	94.55
427.171	-22.19
427.379	55.64
427.586	102.74
427.794	129.36
428.001	127.32
428.209	84.31
428.417	115.03
428.624	90.45
428.832	100.69
429.039	106.84
429.247	12.63
429.454	100.69
429.662	198.99
429.869	147.8
430.076	137.56
430.284	117.08
430.491	153.94
430.699	129.36
430.906	229.71
431.114	168.27
431.321	115.03
431.528	201.04
431.736	180.56
431.943	129.36
432.15	135.51
432.358	178.51
432.565	207.19
432.772	92.5
432.979	184.66
433.187	67.92
433.394	192.85
433.601	201.04
433.808	172.37
434.016	227.67
434.223	229.71
434.43	176.47
434.637	291.15
434.844	242
435.052	160.08
435.259	252.24
435.466	264.53
435.673	285.01
435.88	237.91
436.087	330.06
436.294	317.78
436.501	297.3
436.708	303.44
436.915	301.39
437.122	321.87
437.329	170.32
437.537	325.97
437.743	305.49
437.95	430.41
438.157	340.3
438.364	305.49
438.571	409.94
438.778	368.98
438.985	446.8
439.192	487.76
439.399	444.75
439.606	411.98
439.813	520.53
440.02	600.4
440.227	579.92
440.433	526.67
440.64	524.62
440.847	457.04
441.054	596.3
441.261	667.98
441.467	608.59
441.674	614.73
441.881	758.09
442.088	637.26
442.294	680.27
442.501	756.04
442.708	764.23
442.914	745.8
443.121	862.54
443.328	758.09
443.534	837.96
443.741	868.68
443.948	731.47
444.154	934.22
444.361	1112.39
444.568	989.51
444.774	991.56
444.981	958.79
445.187	1167.68
445.394	1175.88
445.6	1046.85
445.807	1235.27
446.013	1282.37
446.22	1227.07
446.426	1386.82
446.633	1419.58
446.839	1777.98
447.046	1302.85
447.252	1648.96
447.459	1466.69
447.665	1634.62
447.871	1720.64
448.078	1915.19
448.284	1911.1
448.491	1935.67
448.697	2042.17
448.903	2191.67
449.11	2083.13
449.316	2068.79
449.522	2388.27
449.728	2402.61
449.935	2459.95
450.141	2414.9
450.347	2681.13
450.553	2677.04
450.76	2603.31
450.966	2844.97
451.172	2947.37
451.378	2971.94
451.584	3209.51
451.791	3397.92
451.997	3473.7
452.203	3445.02
452.409	3725.6
452.615	3713.31
452.821	3672.35
453.027	3713.31
453.233	4110.61
453.44	4088.09
453.646	4319.51
453.852	4466.96
454.058	4700.43
454.264	4958.47
454.47	5138.69
454.676	5148.93
454.882	5581.06
455.088	5359.88
455.294	5779.71
455.5	6103.29
455.705	6332.66
455.911	6314.23
456.117	6447.35
456.323	6844.65
456.529	6838.51
456.735	7477.48
456.941	7626.98
457.147	7979.23
457.352	8161.5
457.558	8280.28
457.764	9031.88
457.97	9132.23
458.176	9494.72
458.381	9894.08
458.587	10135.74
458.793	10715.31
458.999	10539.19
459.204	11946.14
459.41	12411.03
459.616	12193.95
459.821	12996.75
460.027	13596.81
460.233	14157.95
460.438	14205.05
460.644	15044.72
460.85	15267.95
461.055	15978.59
461.261	16662.62
461.466	16025.7
461.672	16693.33
461.878	18452.54
462.083	18413.63
462.289	18882.61
462.494	19318.83
462.7	19365.93
462.905	19998.76
463.111	21389.33
463.316	22528
463.522	22722.55
463.727	23771.11
463.932	24383.46
464.138	25022.42
464.343	26181.57
464.549	26386.37
464.754	28129.19
464.959	29194.14
465.165	29781.9
465.37	29589.39
465.575	29163.42
465.781	31305.59
465.986	32329.58
466.191	31881.07
466.397	32034.67
466.602	31721.33
466.807	33187.67
467.012	33640.28
467.218	34248.52
467.423	34318.15
467.628	35434.3
467.833	37230.37
468.038	36323.12
468.244	35813.17
468.449	38016.79
468.654	36761.38
