Data from USB4F104151__78__10-44-17-470.txt Node

Date: Wed Feb 26 10:44:17 EST 2025
User: louis
Spectrometer: USB4F10415
Trigger mode: 4
Integration Time (sec): 1.000000E-1
Scans to average: 1
Electric dark correction enabled: true
Nonlinearity correction enabled: false
Boxcar width: 0
XAxis mode: Wavelengths
Number of Pixels in Spectrum: 3648
>>>>>Begin Spectral Data<<<<<
178.204	-476.49
178.424	-476.49
178.644	-476.49
178.864	-392.53
179.084	-351.57
179.304	76.46
179.524	-38.23
179.744	-93.52
179.964	76.46
180.184	31.4
180.404	94.89
180.624	-68.95
180.844	92.84
181.064	-152.92
181.283	-34.13
181.503	-42.32
181.723	58.03
181.943	-60.76
182.163	115.37
182.383	-34.13
182.602	21.16
182.822	193.19
183.042	31.4
183.262	23.21
183.482	2.73
183.701	-5.46
183.921	45.74
184.141	-40.28
184.361	17.07
184.58	103.08
184.8	-9.56
185.02	4.78
185.239	90.79
185.459	-46.42
185.679	66.22
185.898	-116.05
186.118	64.17
186.338	23.21
186.557	107.18
186.777	-46.42
186.997	37.55
187.216	84.65
187.436	72.36
187.655	78.51
187.875	4.78
188.095	-23.89
188.314	72.36
188.534	37.55
188.753	39.59
188.973	162.47
189.192	146.09
189.412	10.92
189.631	-15.7
189.851	70.31
190.07	113.32
190.29	-32.08
190.509	-9.56
190.729	-9.56
190.948	98.99
191.168	279.21
191.387	15.02
191.607	66.22
191.826	37.55
192.045	27.31
192.265	-42.32
192.484	72.36
192.704	4.78
192.923	-34.13
193.142	193.19
193.362	82.6
193.581	107.18
193.8	84.65
194.02	55.98
194.239	31.4
194.458	156.33
194.678	-11.61
194.897	47.79
195.116	47.79
195.335	33.45
195.555	125.61
195.774	21.16
195.993	62.12
196.212	45.74
196.432	-5.46
196.651	-36.18
196.87	23.21
197.089	209.58
197.308	47.79
197.528	12.97
197.747	-11.61
197.966	35.5
198.185	105.13
198.404	-34.13
198.623	60.07
198.842	55.98
199.062	119.46
199.281	193.19
199.5	-7.51
199.719	94.89
199.938	12.97
200.157	29.35
200.376	94.89
200.595	66.22
200.814	29.35
201.033	19.11
201.252	62.12
201.471	123.56
201.69	205.48
201.909	47.79
202.128	88.75
202.347	43.69
202.566	-1.37
202.785	6.83
203.004	-34.13
203.223	240.29
203.442	62.12
203.661	-50.52
203.879	103.08
204.098	76.46
204.317	-11.61
204.536	51.88
204.755	144.04
204.974	74.41
205.193	21.16
205.411	90.79
205.63	43.69
205.849	-9.56
206.068	-1.37
206.287	12.97
206.505	109.22
206.724	21.16
206.943	10.92
207.162	-9.56
207.381	41.64
207.599	10.92
207.818	23.21
208.037	2.73
208.255	19.11
208.474	66.22
208.693	-25.94
208.911	35.5
209.13	135.85
209.349	168.62
209.567	92.84
209.786	29.35
210.005	90.79
210.223	-23.89
210.442	-111.96
210.661	-32.08
210.879	66.22
211.098	119.46
211.316	55.98
211.535	96.94
211.753	74.41
211.972	55.98
212.191	-1.37
212.409	6.83
212.628	23.21
212.846	33.45
213.065	15.02
213.283	137.9
213.502	43.69
213.72	-1.37
213.938	8.87
214.157	37.55
214.375	35.5
214.594	33.45
214.812	47.79
215.031	98.99
215.249	92.84
215.467	74.41
215.686	70.31
215.904	86.7
216.122	4.78
216.341	90.79
216.559	-48.47
216.778	154.28
216.996	144.04
217.214	-36.18
217.432	15.02
217.651	-54.61
217.869	23.21
218.087	55.98
218.306	15.02
218.524	8.87
218.742	8.87
218.96	58.03
219.179	-44.37
219.397	-44.37
219.615	283.3
219.833	80.55
220.051	-17.75
220.27	45.74
220.488	80.55
220.706	31.4
220.924	-9.56
221.142	-11.61
221.36	60.07
221.578	92.84
221.796	53.93
222.015	-9.56
222.233	62.12
222.451	162.47
222.669	8.87
222.887	64.17
223.105	-23.89
223.323	-9.56
223.541	-30.04
223.759	78.51
223.977	25.26
224.195	113.32
224.413	17.07
224.631	78.51
224.849	92.84
225.067	215.72
225.285	90.79
225.503	-9.56
225.721	-64.85
225.939	-3.41
226.157	45.74
226.375	170.66
226.592	-17.75
226.81	-17.75
227.028	58.03
227.246	47.79
227.464	15.02
227.682	68.27
227.9	121.51
228.117	-48.47
228.335	49.83
228.553	47.79
228.771	15.02
228.989	33.45
229.206	35.5
229.424	60.07
229.642	80.55
229.86	19.11
230.077	23.21
230.295	41.64
230.513	133.8
230.731	92.84
230.948	174.76
231.166	187.05
231.384	-64.85
231.601	-1.37
231.819	103.08
232.037	-5.46
232.254	15.02
232.472	45.74
232.689	-71
232.907	92.84
233.125	25.26
233.342	92.84
233.56	-34.13
233.777	33.45
233.995	43.69
234.213	103.08
234.43	96.94
234.648	72.36
234.865	2.73
235.083	60.07
235.3	64.17
235.518	86.7
235.735	111.27
235.953	141.99
236.17	15.02
236.388	45.74
236.605	-21.85
236.822	88.75
237.04	80.55
237.257	19.11
237.475	-34.13
237.692	80.55
237.909	10.92
238.127	-32.08
238.344	53.93
238.562	66.22
238.779	-71
238.996	-93.52
239.214	21.16
239.431	125.61
239.648	-38.23
239.865	58.03
240.083	19.11
240.3	-38.23
240.517	6.83
240.735	-13.65
240.952	109.22
241.169	21.16
241.386	12.97
241.603	45.74
241.821	-71
242.038	62.12
242.255	84.65
242.472	-111.96
242.689	107.18
242.907	53.93
243.124	146.09
243.341	-1.37
243.558	-75.09
243.775	-19.8
243.992	-85.33
244.209	86.7
244.426	223.91
244.643	58.03
244.86	49.83
245.078	76.46
245.295	10.92
245.512	-11.61
245.729	4.78
245.946	37.55
246.163	35.5
246.38	55.98
246.597	33.45
246.814	-60.76
247.031	-66.9
247.248	45.74
247.464	74.41
247.681	-3.41
247.898	101.03
248.115	90.79
248.332	31.4
248.549	94.89
248.766	156.33
248.983	53.93
249.2	98.99
249.417	74.41
249.633	70.31
249.85	51.88
250.067	-1.37
250.284	8.87
250.501	55.98
250.717	-3.41
250.934	-71
251.151	-13.65
251.368	47.79
251.585	72.36
251.801	17.07
252.018	-62.8
252.235	148.14
252.451	-46.42
252.668	17.07
252.885	101.03
253.102	62.12
253.318	-11.61
253.535	-5.46
253.752	-66.9
253.968	-7.51
254.185	-105.81
254.401	55.98
254.618	55.98
254.835	23.21
255.051	158.38
255.268	86.7
255.484	39.59
255.701	17.07
255.917	-23.89
256.134	0.68
256.351	117.42
256.567	-9.56
256.784	49.83
257	-21.85
257.217	125.61
257.433	51.88
257.65	62.12
257.866	133.8
258.082	-73.04
258.299	-5.46
258.515	37.55
258.732	2.73
258.948	-5.46
259.165	47.79
259.381	-44.37
259.597	146.09
259.814	64.17
260.03	-3.41
260.246	43.69
260.463	172.71
260.679	82.6
260.895	90.79
261.112	62.12
261.328	4.78
261.544	-83.28
261.761	53.93
261.977	10.92
262.193	-64.85
262.409	125.61
262.626	53.93
262.842	4.78
263.058	37.55
263.274	121.51
263.49	103.08
263.707	31.4
263.923	86.7
264.139	-50.52
264.355	58.03
264.571	152.23
264.787	98.99
265.004	121.51
265.22	125.61
265.436	-34.13
265.652	25.26
265.868	21.16
266.084	-101.72
266.3	39.59
266.516	19.11
266.732	29.35
266.948	68.27
267.164	-3.41
267.38	55.98
267.596	4.78
267.812	209.58
268.028	55.98
268.244	-1.37
268.46	17.07
268.676	43.69
268.892	64.17
269.108	-19.8
269.324	-21.85
269.54	-15.7
269.756	35.5
269.972	-73.04
270.188	33.45
270.403	-64.85
270.619	47.79
270.835	2.73
271.051	-30.04
271.267	-54.61
271.483	0.68
271.698	88.75
271.914	92.84
272.13	90.79
272.346	21.16
272.562	25.26
272.777	113.32
272.993	-13.65
273.209	8.87
273.425	53.93
273.64	10.92
273.856	201.38
274.072	-52.56
274.287	-34.13
274.503	51.88
274.719	60.07
274.934	2.73
275.15	-34.13
275.366	-23.89
275.581	-34.13
275.797	29.35
276.012	31.4
276.228	6.83
276.444	-34.13
276.659	219.82
276.875	-62.8
277.09	17.07
277.306	25.26
277.521	76.46
277.737	37.55
277.952	78.51
278.168	17.07
278.383	101.03
278.599	35.5
278.814	86.7
279.03	43.69
279.245	109.22
279.461	47.79
279.676	72.36
279.892	-81.24
280.107	-44.37
280.322	-71
280.538	-52.56
280.753	-34.13
280.969	53.93
281.184	19.11
281.399	160.42
281.615	72.36
281.83	27.31
282.045	-48.47
282.26	-36.18
282.476	43.69
282.691	117.42
282.906	117.42
283.122	8.87
283.337	-95.57
283.552	88.75
283.767	68.27
283.983	62.12
284.198	10.92
284.413	31.4
284.628	-73.04
284.843	31.4
285.058	86.7
285.274	2.73
285.489	-11.61
285.704	129.7
285.919	27.31
286.134	-50.52
286.349	66.22
286.564	-36.18
286.779	101.03
286.995	-25.94
287.21	-75.09
287.425	21.16
287.64	-25.94
287.855	10.92
288.07	-73.04
288.285	152.23
288.5	137.9
288.715	80.55
288.93	47.79
289.145	-71
289.36	135.85
289.575	-58.71
289.79	156.33
290.004	-17.75
290.219	66.22
290.434	8.87
290.649	-62.8
290.864	-54.61
291.079	21.16
291.294	109.22
291.509	35.5
291.724	70.31
291.938	-42.32
292.153	27.31
292.368	62.12
292.583	-21.85
292.798	180.9
293.012	92.84
293.227	39.59
293.442	-27.99
293.657	82.6
293.871	94.89
294.086	98.99
294.301	201.38
294.516	141.99
294.73	43.69
294.945	-30.04
295.16	68.27
295.374	123.56
295.589	51.88
295.804	21.16
296.018	88.75
296.233	90.79
296.447	49.83
296.662	-7.51
296.877	76.46
297.091	39.59
297.306	-42.32
297.52	21.16
297.735	-38.23
297.949	6.83
298.164	96.94
298.378	35.5
298.593	-27.99
298.807	-46.42
299.022	10.92
299.236	55.98
299.451	17.07
299.665	10.92
299.88	39.59
300.094	15.02
300.309	60.07
300.523	-3.41
300.737	-32.08
300.952	55.98
301.166	21.16
301.381	-83.28
301.595	58.03
301.809	4.78
302.024	19.11
302.238	-95.57
302.452	111.27
302.667	62.12
302.881	84.65
303.095	129.7
303.309	53.93
303.524	-30.04
303.738	74.41
303.952	-7.51
304.166	66.22
304.381	-95.57
304.595	137.9
304.809	2.73
305.023	62.12
305.237	0.68
305.452	39.59
305.666	51.88
305.88	23.21
306.094	76.46
306.308	148.14
306.522	74.41
306.736	68.27
306.95	111.27
307.164	27.31
307.379	37.55
307.593	86.7
307.807	127.66
308.021	117.42
308.235	-1.37
308.449	-79.19
308.663	35.5
308.877	170.66
309.091	37.55
309.305	19.11
309.519	-73.04
309.733	80.55
309.947	-83.28
310.161	62.12
310.374	55.98
310.588	121.51
310.802	-52.56
311.016	43.69
311.23	2.73
311.444	-50.52
311.658	47.79
311.872	121.51
312.085	217.77
312.299	123.56
312.513	103.08
312.727	78.51
312.941	-21.85
313.154	-3.41
313.368	27.31
313.582	12.97
313.796	101.03
314.009	74.41
314.223	37.55
314.437	39.59
314.651	125.61
314.864	6.83
315.078	-68.95
315.292	-64.85
315.505	23.21
315.719	10.92
315.933	55.98
316.146	-7.51
316.36	-52.56
316.573	158.38
316.787	66.22
317.001	-7.51
317.214	-38.23
317.428	29.35
317.641	-40.28
317.855	-52.56
318.068	-7.51
318.282	84.65
318.495	252.58
318.709	55.98
318.922	-9.56
319.136	107.18
319.349	98.99
319.563	70.31
319.776	123.56
319.99	-81.24
320.203	64.17
320.417	-64.85
320.63	90.79
320.843	168.62
321.057	94.89
321.27	53.93
321.483	88.75
321.697	141.99
321.91	6.83
322.124	129.7
322.337	49.83
322.55	15.02
322.763	8.87
322.977	39.59
323.19	39.59
323.403	-40.28
323.617	80.55
323.83	107.18
324.043	-1.37
324.256	37.55
324.469	2.73
324.683	105.13
324.896	6.83
325.109	45.74
325.322	-34.13
325.535	53.93
325.748	111.27
325.962	-56.66
326.175	82.6
326.388	25.26
326.601	148.14
326.814	49.83
327.027	-23.89
327.24	135.85
327.453	-52.56
327.666	51.88
327.879	141.99
328.092	178.86
328.305	-13.65
328.518	-19.8
328.731	-11.61
328.944	19.11
329.157	64.17
329.37	-42.32
329.583	178.86
329.796	137.9
330.009	-9.56
330.222	0.68
330.435	51.88
330.648	23.21
330.861	68.27
331.073	25.26
331.286	129.7
331.499	51.88
331.712	-32.08
331.925	17.07
332.138	12.97
332.35	111.27
332.563	19.11
332.776	86.7
332.989	-17.75
333.202	-58.71
333.414	-44.37
333.627	43.69
333.84	27.31
334.053	-5.46
334.265	29.35
334.478	-15.7
334.691	55.98
334.903	70.31
335.116	-58.71
335.329	33.45
335.541	113.32
335.754	185
335.966	2.73
336.179	23.21
336.392	-11.61
336.604	53.93
336.817	37.55
337.029	-30.04
337.242	47.79
337.454	66.22
337.667	27.31
337.88	76.46
338.092	33.45
338.305	107.18
338.517	-21.85
338.729	103.08
338.942	98.99
339.154	31.4
339.367	-89.43
339.579	53.93
339.792	-91.48
340.004	-5.46
340.217	4.78
340.429	66.22
340.641	-34.13
340.854	-42.32
341.066	78.51
341.278	105.13
341.491	96.94
341.703	47.79
341.915	-62.8
342.128	84.65
342.34	-25.94
342.552	-42.32
342.764	58.03
342.977	88.75
343.189	66.22
343.401	37.55
343.613	2.73
343.826	53.93
344.038	-17.75
344.25	-23.89
344.462	15.02
344.674	84.65
344.886	10.92
345.099	27.31
345.311	109.22
345.523	-21.85
345.735	-93.52
345.947	10.92
346.159	53.93
346.371	45.74
346.583	-3.41
346.795	221.86
347.007	-27.99
347.219	76.46
347.431	39.59
347.643	176.81
347.855	33.45
348.067	180.9
348.279	-3.41
348.491	64.17
348.703	135.85
348.915	-27.99
349.127	6.83
349.339	31.4
349.551	-54.61
349.763	-7.51
349.975	33.45
350.187	47.79
350.399	107.18
350.61	76.46
350.822	70.31
351.034	60.07
351.246	-11.61
351.458	31.4
351.669	62.12
351.881	43.69
352.093	148.14
352.305	150.18
352.517	29.35
352.728	129.7
352.94	109.22
353.152	53.93
353.363	-11.61
353.575	64.17
353.787	182.95
353.999	-17.75
354.21	148.14
354.422	-1.37
354.633	17.07
354.845	74.41
355.057	43.69
355.268	-19.8
355.48	55.98
355.692	-136.53
355.903	55.98
356.115	-21.85
356.326	-103.76
356.538	125.61
356.749	84.65
356.961	195.24
357.172	78.51
357.384	-30.04
357.595	164.52
357.807	10.92
358.018	33.45
358.23	-32.08
358.441	189.1
358.653	101.03
358.864	39.59
359.075	-54.61
359.287	31.4
359.498	45.74
359.709	-15.7
359.921	17.07
360.132	47.79
360.344	72.36
360.555	19.11
360.766	35.5
360.977	29.35
361.189	164.52
361.4	21.16
361.611	113.32
361.823	86.7
362.034	21.16
362.245	-73.04
362.456	12.97
362.667	82.6
362.879	-15.7
363.09	125.61
363.301	60.07
363.512	37.55
363.723	-7.51
363.935	-32.08
364.146	2.73
364.357	27.31
364.568	133.8
364.779	-103.76
364.99	96.94
365.201	-60.76
365.412	141.99
365.623	-60.76
365.834	21.16
366.045	17.07
366.256	78.51
366.467	133.8
366.678	53.93
366.889	6.83
367.1	0.68
367.311	105.13
367.522	45.74
367.733	148.14
367.944	47.79
368.155	49.83
368.366	53.93
368.577	55.98
368.788	131.75
368.999	-21.85
369.209	45.74
369.42	252.58
369.631	182.95
369.842	53.93
370.053	2.73
370.264	82.6
370.474	-34.13
370.685	10.92
370.896	-3.41
371.107	123.56
371.317	76.46
371.528	-42.32
371.739	90.79
371.95	64.17
372.16	31.4
372.371	-32.08
372.582	6.83
372.792	60.07
373.003	8.87
373.214	60.07
373.424	72.36
373.635	-19.8
373.846	127.66
374.056	17.07
374.267	-1.37
374.477	55.98
374.688	-71
374.898	92.84
375.109	-1.37
375.319	6.83
375.53	96.94
375.74	82.6
375.951	6.83
376.161	25.26
376.372	109.22
376.582	10.92
376.793	27.31
377.003	94.89
377.214	29.35
377.424	4.78
377.635	0.68
377.845	-13.65
378.055	133.8
378.266	33.45
378.476	10.92
378.686	31.4
378.897	51.88
379.107	141.99
379.317	35.5
379.528	-38.23
379.738	160.42
379.948	-52.56
380.158	33.45
380.369	43.69
380.579	72.36
380.789	113.32
380.999	51.88
381.21	96.94
381.42	156.33
381.63	-11.61
381.84	80.55
382.05	76.46
382.261	86.7
382.471	58.03
382.681	-71
382.891	139.94
383.101	80.55
383.311	-11.61
383.521	-68.95
383.731	45.74
383.941	94.89
384.151	101.03
384.361	2.73
384.571	53.93
384.781	2.73
384.991	232.1
385.201	170.66
385.411	43.69
385.621	33.45
385.831	62.12
386.041	37.55
386.251	62.12
386.461	74.41
386.671	117.42
386.881	0.68
387.091	15.02
387.301	70.31
387.511	25.26
387.72	103.08
387.93	76.46
388.14	-89.43
388.35	25.26
388.56	117.42
388.769	123.56
388.979	45.74
389.189	86.7
389.399	19.11
389.609	66.22
389.818	103.08
390.028	-48.47
390.238	53.93
390.447	-21.85
390.657	0.68
390.867	27.31
391.076	-87.38
391.286	60.07
391.496	23.21
391.705	2.73
391.915	135.85
392.125	117.42
392.334	4.78
392.544	131.75
392.753	8.87
392.963	17.07
393.172	27.31
393.382	-19.8
393.591	178.86
393.801	-9.56
394.01	125.61
394.22	150.18
394.429	27.31
394.639	49.83
394.848	101.03
395.058	29.35
395.267	-5.46
395.477	80.55
395.686	88.75
395.895	135.85
396.105	162.47
396.314	68.27
396.524	74.41
396.733	0.68
396.942	88.75
397.152	51.88
397.361	123.56
397.57	105.13
397.78	-5.46
397.989	0.68
398.198	187.05
398.407	-50.52
398.617	12.97
398.826	17.07
399.035	17.07
399.244	139.94
399.453	-1.37
399.663	25.26
399.872	49.83
400.081	12.97
400.29	82.6
400.499	-9.56
400.708	72.36
400.917	-7.51
401.127	58.03
401.336	10.92
401.545	144.04
401.754	191.14
401.963	60.07
402.172	-1.37
402.381	-32.08
402.59	15.02
402.799	37.55
403.008	76.46
403.217	51.88
403.426	6.83
403.635	-30.04
403.844	4.78
404.053	53.93
404.262	-38.23
404.471	176.81
404.68	49.83
404.888	-27.99
405.097	23.21
405.306	51.88
405.515	39.59
405.724	53.93
405.933	72.36
406.142	101.03
406.35	174.76
406.559	15.02
406.768	-7.51
406.977	219.82
407.185	74.41
407.394	43.69
407.603	-73.04
407.812	88.75
408.02	178.86
408.229	82.6
408.438	74.41
408.646	-42.32
408.855	10.92
409.064	74.41
409.272	-71
409.481	111.27
409.69	-66.9
409.898	8.87
410.107	17.07
410.315	96.94
410.524	15.02
410.733	-27.99
410.941	-9.56
411.15	66.22
411.358	90.79
411.567	137.9
411.775	2.73
411.984	-7.51
412.192	76.46
412.401	27.31
412.609	141.99
412.818	88.75
413.026	86.7
413.234	45.74
413.443	45.74
413.651	10.92
413.86	49.83
414.068	78.51
414.276	158.38
414.485	-68.95
414.693	131.75
414.901	139.94
415.11	94.89
415.318	78.51
415.526	80.55
415.734	135.85
415.943	49.83
416.151	103.08
416.359	111.27
416.567	68.27
416.776	103.08
416.984	39.59
417.192	113.32
417.4	47.79
417.608	-5.46
417.817	-52.56
418.025	172.71
418.233	164.52
418.441	-9.56
418.649	-136.53
418.857	39.59
419.065	60.07
419.273	6.83
419.481	10.92
419.689	29.35
419.897	35.5
420.105	-50.52
420.313	86.7
420.521	168.62
420.729	45.74
420.937	64.17
421.145	96.94
421.353	78.51
421.561	121.51
421.769	27.31
421.977	-64.85
422.185	86.7
422.393	-3.41
422.601	90.79
422.809	133.8
423.017	31.4
423.224	90.79
423.432	101.03
423.64	45.74
423.848	109.22
424.056	-25.94
424.263	92.84
424.471	76.46
424.679	182.95
424.887	-15.7
425.094	150.18
425.302	76.46
425.51	39.59
425.718	74.41
425.925	131.75
426.133	-50.52
426.341	172.71
426.548	-1.37
426.756	-15.7
426.964	78.51
427.171	53.93
427.379	55.98
427.586	72.36
427.794	94.89
428.001	123.56
428.209	80.55
428.417	176.81
428.624	174.76
428.832	125.61
429.039	121.51
429.247	12.97
429.454	123.56
429.662	254.63
429.869	82.6
430.076	88.75
430.284	66.22
430.491	209.58
430.699	152.23
430.906	205.48
431.114	127.66
431.321	164.52
431.528	86.7
431.736	150.18
431.943	172.71
432.15	105.13
432.358	187.05
432.565	287.4
432.772	31.4
432.979	187.05
433.187	62.12
433.394	137.9
433.601	123.56
433.808	164.52
434.016	285.35
434.223	164.52
434.43	164.52
434.637	246.44
434.844	301.73
435.052	185
435.259	250.53
435.466	221.86
435.673	279.21
435.88	250.53
436.087	277.16
436.294	283.3
436.501	234.15
436.708	219.82
436.915	277.16
437.122	252.58
437.329	178.86
437.537	287.4
437.743	299.69
437.95	365.22
438.157	402.08
438.364	371.36
438.571	336.55
438.778	402.08
438.985	340.65
439.192	412.32
439.399	324.26
439.606	426.66
439.813	445.09
440.02	518.82
440.227	608.93
440.433	496.29
440.64	453.28
440.847	418.47
441.054	580.26
441.261	549.54
441.467	545.44
441.674	518.82
441.881	701.09
442.088	563.87
442.294	662.18
442.501	754.34
442.708	770.72
442.914	670.37
443.121	914.08
443.328	864.93
443.534	871.07
443.741	764.57
443.948	805.53
444.154	924.32
444.361	961.18
444.568	778.91
444.774	932.51
444.981	899.74
445.187	1059.48
445.394	1077.91
445.6	1057.43
445.807	1155.74
446.013	1114.78
446.22	1131.16
446.426	1374.87
446.633	1290.9
446.839	1495.7
447.046	1235.61
447.252	1493.65
447.459	1491.6
447.665	1358.49
447.871	1614.48
448.078	1749.65
448.284	1671.83
448.491	1837.71
448.697	1950.35
448.903	1993.36
449.11	2073.23
449.316	1921.68
449.522	2222.73
449.728	2220.68
449.935	2329.22
450.141	2445.96
450.347	2550.4
450.553	2382.47
450.76	2624.13
450.966	2669.19
451.172	2781.82
451.378	2814.59
451.584	2972.29
451.791	3177.08
451.997	3228.28
452.203	3234.43
452.409	3451.51
452.615	3680.88
452.821	3467.89
453.027	3625.59
453.233	4037.23
453.44	3828.34
453.646	3955.31
453.852	4137.58
454.058	4344.42
454.264	4596.32
454.47	4854.37
454.676	4766.31
454.882	5362.26
455.088	5028.45
455.294	5454.42
455.5	5663.32
455.705	6120.01
455.911	5913.17
456.117	6148.68
456.323	6345.29
456.529	6507.08
456.735	7078.46
456.941	7088.7
457.147	7436.86
457.352	7617.08
457.558	7625.27
457.764	8450.6
457.97	8598.06
458.176	8847.91
458.381	9337.37
458.587	9607.7
458.793	10228.24
458.999	9857.56
459.204	11356.67
459.41	11581.95
459.616	11256.32
459.821	12130.8
460.027	12542.44
460.233	13253.09
460.438	13046.24
460.644	14000.6
460.85	14350.8
461.055	14651.85
461.261	15239.62
461.466	14948.81
461.672	15395.26
461.878	17263.01
462.083	16703.92
462.289	17611.17
462.494	18155.93
462.7	18051.48
462.905	18260.37
463.111	19978.62
463.316	20973.93
463.522	21393.76
463.727	21823.84
463.932	22958.41
464.138	23343.43
464.343	24246.58
464.549	24760.62
464.754	26339.61
464.959	27076.88
465.165	27484.42
465.37	27267.34
465.575	27459.85
465.781	29196.53
465.986	30093.54
466.191	29573.35
466.397	29837.54
466.602	29198.57
466.807	30714.07
467.012	31348.94
467.218	32032.96
467.423	31731.91
467.628	32899.25
467.833	34652.31
468.038	33999.01
468.244	33386.67
468.449	35211.41
468.654	34173.09
468.859	34222.24
469.064	34410.65
469.269	33728.68
469.474	33988.77
