Data from USB4F104151__81__10-44-21-770.txt Node

Date: Wed Feb 26 10:44:21 EST 2025
User: louis
Spectrometer: USB4F10415
Trigger mode: 4
Integration Time (sec): 1.000000E-1
Scans to average: 1
Electric dark correction enabled: true
Nonlinearity correction enabled: false
Boxcar width: 0
XAxis mode: Wavelengths
Number of Pixels in Spectrum: 3648
>>>>>Begin Spectral Data<<<<<
178.204	-368.29
178.424	-368.29
178.644	-368.29
178.864	-482.98
179.084	-423.59
179.304	-32.43
179.524	61.78
179.744	-26.28
179.964	6.49
180.184	49.49
180.404	72.02
180.624	-22.19
180.844	-24.23
181.064	-118.44
181.283	10.58
181.503	-36.52
181.723	59.73
181.943	-140.97
182.163	131.41
182.383	-11.95
182.602	6.49
182.822	84.31
183.042	43.35
183.262	39.25
183.482	-50.86
183.701	-7.85
183.921	-75.43
184.141	-108.2
184.361	59.73
184.58	43.35
184.8	115.03
185.02	55.64
185.239	65.88
185.459	47.44
185.679	37.2
185.898	-73.39
186.118	12.63
186.338	26.96
186.557	61.78
186.777	-3.75
186.997	2.39
187.216	24.92
187.436	160.08
187.655	104.79
187.875	133.46
188.095	-24.23
188.314	94.55
188.534	213.33
188.753	-34.47
188.973	147.8
189.192	139.6
189.412	-69.29
189.631	12.63
189.851	63.83
190.07	108.88
190.29	-28.33
190.509	-61.1
190.729	22.87
190.948	123.22
191.168	225.62
191.387	53.59
191.607	80.21
191.826	137.56
192.045	61.78
192.265	24.92
192.484	125.27
192.704	-1.71
192.923	-122.54
193.142	162.13
193.362	125.27
193.581	133.46
193.8	84.31
194.02	135.51
194.239	8.53
194.458	47.44
194.678	-7.85
194.897	43.35
195.116	76.12
195.335	67.92
195.555	6.49
195.774	-32.43
195.993	160.08
196.212	-63.15
196.432	-83.63
196.651	-32.43
196.87	14.68
197.089	188.75
197.308	80.21
197.528	55.64
197.747	-20.14
197.966	31.06
198.185	153.94
198.404	-30.38
198.623	155.99
198.842	112.98
199.062	94.55
199.281	123.22
199.5	74.07
199.719	37.2
199.938	16.73
200.157	22.87
200.376	92.5
200.595	39.25
200.814	78.16
201.033	8.53
201.252	192.85
201.471	59.73
201.69	86.36
201.909	-11.95
202.128	112.98
202.347	53.59
202.566	-36.52
202.785	-116.39
203.004	53.59
203.223	237.91
203.442	-38.57
203.661	-149.16
203.879	162.13
204.098	67.92
204.317	4.44
204.536	26.96
204.755	39.25
204.974	127.32
205.193	-20.14
205.411	92.5
205.63	108.88
205.849	57.68
206.068	-77.48
206.287	4.44
206.505	168.27
206.724	4.44
206.943	16.73
207.162	-42.67
207.381	61.78
207.599	69.97
207.818	4.44
208.037	26.96
208.255	14.68
208.474	53.59
208.693	29.01
208.911	24.92
209.13	100.69
209.349	18.77
209.567	-3.75
209.786	76.12
210.005	133.46
210.223	57.68
210.442	-134.82
210.661	47.44
210.879	57.68
211.098	-9.9
211.316	57.68
211.535	49.49
211.753	22.87
211.972	49.49
212.191	-22.19
212.409	10.58
212.628	86.36
212.846	-50.86
213.065	-34.47
213.283	82.26
213.502	20.82
213.72	16.73
213.938	59.73
214.157	14.68
214.375	88.4
214.594	57.68
214.812	78.16
215.031	41.3
215.249	88.4
215.467	65.88
215.686	86.36
215.904	123.22
216.122	59.73
216.341	127.32
216.559	86.36
216.778	106.84
216.996	145.75
217.214	2.39
217.432	-1.71
217.651	-81.58
217.869	10.58
218.087	31.06
218.306	18.77
218.524	108.88
218.742	29.01
218.96	45.4
219.179	-22.19
219.397	49.49
219.615	207.19
219.833	80.21
220.051	-75.43
220.27	94.55
220.488	84.31
220.706	-9.9
220.924	43.35
221.142	-32.43
221.36	22.87
221.578	76.12
221.796	12.63
222.015	65.88
222.233	67.92
222.451	102.74
222.669	-42.67
222.887	74.07
223.105	8.53
223.323	76.12
223.541	-7.85
223.759	20.82
223.977	115.03
224.195	145.75
224.413	78.16
224.631	33.11
224.849	45.4
225.067	198.99
225.285	-32.43
225.503	55.64
225.721	-91.82
225.939	69.97
226.157	63.83
226.375	168.27
226.592	-1.71
226.81	-18.09
227.028	158.03
227.246	90.45
227.464	84.31
227.682	102.74
227.9	41.3
228.117	39.25
228.335	8.53
228.553	22.87
228.771	18.77
228.989	39.25
229.206	104.79
229.424	-3.75
229.642	-22.19
229.86	31.06
230.077	137.56
230.295	61.78
230.513	53.59
230.731	47.44
230.948	151.89
231.166	172.37
231.384	-57
231.601	4.44
231.819	137.56
232.037	-38.57
232.254	-85.67
232.472	-28.33
232.689	-20.14
232.907	112.98
233.125	-7.85
233.342	-44.71
233.56	-42.67
233.777	8.53
233.995	10.58
234.213	63.83
234.43	65.88
234.648	8.53
234.865	-71.34
235.083	86.36
235.3	20.82
235.518	37.2
235.735	176.47
235.953	37.2
236.17	33.11
236.388	55.64
236.605	-28.33
236.822	135.51
237.04	170.32
237.257	59.73
237.475	18.77
237.692	-1.71
237.909	74.07
238.127	24.92
238.344	4.44
238.562	8.53
238.779	-24.23
238.996	-83.63
239.214	-7.85
239.431	24.92
239.648	-18.09
239.865	121.17
240.083	61.78
240.3	0.34
240.517	-67.24
240.735	-11.95
240.952	115.03
241.169	4.44
241.386	8.53
241.603	49.49
241.821	-155.3
242.038	92.5
242.255	61.78
242.472	-104.11
242.689	43.35
242.907	43.35
243.124	98.64
243.341	-5.8
243.558	-42.67
243.775	-40.62
243.992	-118.44
244.209	96.6
244.426	151.89
244.643	55.64
244.86	-7.85
245.078	76.12
245.295	41.3
245.512	106.84
245.729	-42.67
245.946	121.17
246.163	18.77
246.38	-7.85
246.597	80.21
246.814	0.34
247.031	63.83
247.248	76.12
247.464	31.06
247.681	-20.14
247.898	86.36
248.115	74.07
248.332	-13.99
248.549	137.56
248.766	180.56
248.983	65.88
249.2	96.6
249.417	84.31
249.633	43.35
249.85	-5.8
250.067	43.35
250.284	119.12
250.501	41.3
250.717	20.82
250.934	-61.1
251.151	55.64
251.368	-16.04
251.585	43.35
251.801	39.25
252.018	-134.82
252.235	108.88
252.451	-110.25
252.668	-16.04
252.885	98.64
253.102	63.83
253.318	-18.09
253.535	6.49
253.752	-30.38
253.968	61.78
254.185	-28.33
254.401	78.16
254.618	98.64
254.835	-97.96
255.051	102.74
255.268	33.11
255.484	35.16
255.701	39.25
255.917	-5.8
256.134	-50.86
256.351	18.77
256.567	-95.91
256.784	-3.75
257	-16.04
257.217	78.16
257.433	29.01
257.65	29.01
257.866	88.4
258.082	-46.76
258.299	-61.1
258.515	51.54
258.732	-11.95
258.948	-50.86
259.165	6.49
259.381	-28.33
259.597	102.74
259.814	-9.9
260.03	-11.95
260.246	6.49
260.463	90.45
260.679	100.69
260.895	37.2
261.112	92.5
261.328	4.44
261.544	-11.95
261.761	186.71
261.977	24.92
262.193	-59.05
262.409	53.59
262.626	16.73
262.842	-7.85
263.058	-42.67
263.274	49.49
263.49	6.49
263.707	41.3
263.923	90.45
264.139	-77.48
264.355	76.12
264.571	12.63
264.787	45.4
265.004	74.07
265.22	18.77
265.436	-5.8
265.652	47.44
265.868	39.25
266.084	-24.23
266.3	18.77
266.516	-5.8
266.732	78.16
266.948	8.53
267.164	-28.33
267.38	96.6
267.596	22.87
267.812	172.37
268.028	127.32
268.244	-24.23
268.46	-7.85
268.676	4.44
268.892	-16.04
269.108	-20.14
269.324	-100.01
269.54	-44.71
269.756	123.22
269.972	2.39
270.188	45.4
270.403	-38.57
270.619	37.2
270.835	-3.75
271.051	-1.71
271.267	24.92
271.483	-34.47
271.698	74.07
271.914	61.78
272.13	41.3
272.346	-30.38
272.562	55.64
272.777	102.74
272.993	-57
273.209	-9.9
273.425	57.68
273.64	-7.85
273.856	61.78
274.072	-63.15
274.287	-13.99
274.503	43.35
274.719	141.65
274.934	22.87
275.15	-79.53
275.366	12.63
275.581	12.63
275.797	-11.95
276.012	49.49
276.228	55.64
276.444	37.2
276.659	102.74
276.875	-44.71
277.09	119.12
277.306	6.49
277.521	14.68
277.737	-5.8
277.952	29.01
278.168	59.73
278.383	-18.09
278.599	45.4
278.814	55.64
279.03	2.39
279.245	51.54
279.461	49.49
279.676	84.31
279.892	-18.09
280.107	-22.19
280.322	-36.52
280.538	29.01
280.753	92.5
280.969	112.98
281.184	49.49
281.399	143.7
281.615	65.88
281.83	4.44
282.045	-83.63
282.26	-1.71
282.476	-1.71
282.691	80.21
282.906	82.26
283.122	2.39
283.337	-61.1
283.552	72.02
283.767	-16.04
283.983	106.84
284.198	-1.71
284.413	31.06
284.628	-22.19
284.843	121.17
285.058	67.92
285.274	63.83
285.489	-54.95
285.704	104.79
285.919	-20.14
286.134	-24.23
286.349	18.77
286.564	-32.43
286.779	92.5
286.995	47.44
287.21	-34.47
287.425	117.08
287.64	33.11
287.855	61.78
288.07	-97.96
288.285	-1.71
288.5	172.37
288.715	59.73
288.93	-16.04
289.145	-59.05
289.36	31.06
289.575	-50.86
289.79	117.08
290.004	51.54
290.219	43.35
290.434	-28.33
290.649	20.82
290.864	33.11
291.079	45.4
291.294	65.88
291.509	8.53
291.724	-3.75
291.938	-36.52
292.153	129.36
292.368	29.01
292.583	-24.23
292.798	135.51
293.012	82.26
293.227	170.32
293.442	8.53
293.657	45.4
293.871	158.03
294.086	-44.71
294.301	162.13
294.516	131.41
294.73	-59.05
294.945	-30.38
295.16	-9.9
295.374	88.4
295.589	98.64
295.804	-1.71
296.018	72.02
296.233	119.12
296.447	160.08
296.662	8.53
296.877	76.12
297.091	57.68
297.306	29.01
297.52	61.78
297.735	47.44
297.949	39.25
298.164	10.58
298.378	-3.75
298.593	31.06
298.807	20.82
299.022	72.02
299.236	112.98
299.451	-20.14
299.665	-3.75
299.88	69.97
300.094	74.07
300.309	-5.8
300.523	45.4
300.737	-40.62
300.952	119.12
301.166	96.6
301.381	-46.76
301.595	-3.75
301.809	10.58
302.024	12.63
302.238	-7.85
302.452	88.4
302.667	8.53
302.881	145.75
303.095	143.7
303.309	88.4
303.524	51.54
303.738	4.44
303.952	-48.81
304.166	33.11
304.381	-46.76
304.595	123.22
304.809	63.83
305.023	92.5
305.237	14.68
305.452	29.01
305.666	72.02
305.88	63.83
306.094	139.6
306.308	57.68
306.522	76.12
306.736	78.16
306.95	100.69
307.164	53.59
307.379	37.2
307.593	90.45
307.807	127.32
308.021	-3.75
308.235	45.4
308.449	-81.58
308.663	-7.85
308.877	133.46
309.091	88.4
309.305	-16.04
309.519	-124.58
309.733	110.93
309.947	-81.58
310.161	41.3
310.374	92.5
310.588	80.21
310.802	-79.53
311.016	14.68
311.23	131.41
311.444	43.35
311.658	-38.57
311.872	125.27
312.085	115.03
312.299	104.79
312.513	135.51
312.727	43.35
312.941	-38.57
313.154	4.44
313.368	53.59
313.582	55.64
313.796	110.93
314.009	-1.71
314.223	84.31
314.437	45.4
314.651	119.12
314.864	-24.23
315.078	-16.04
315.292	-54.95
315.505	10.58
315.719	10.58
315.933	10.58
316.146	33.11
316.36	-57
316.573	129.36
316.787	74.07
317.001	-20.14
317.214	-114.34
317.428	74.07
317.641	-50.86
317.855	49.49
318.068	-3.75
318.282	16.73
318.495	131.41
318.709	82.26
318.922	-26.28
319.136	127.32
319.349	125.27
319.563	-34.47
319.776	55.64
319.99	-122.54
320.203	158.03
320.417	69.97
320.63	49.49
320.843	217.43
321.057	33.11
321.27	82.26
321.483	117.08
321.697	160.08
321.91	29.01
322.124	121.17
322.337	72.02
322.55	-42.67
322.763	63.83
322.977	4.44
323.19	61.78
323.403	102.74
323.617	-38.57
323.83	98.64
324.043	45.4
324.256	76.12
324.469	6.49
324.683	117.08
324.896	-11.95
325.109	88.4
325.322	-36.52
325.535	88.4
325.748	129.36
325.962	0.34
326.175	22.87
326.388	108.88
326.601	125.27
326.814	6.49
327.027	12.63
327.24	158.03
327.453	-91.82
327.666	45.4
327.879	49.49
328.092	145.75
328.305	45.4
328.518	29.01
328.731	61.78
328.944	10.58
329.157	65.88
329.37	-40.62
329.583	207.19
329.796	149.84
330.009	-89.77
330.222	49.49
330.435	110.93
330.648	10.58
330.861	100.69
331.073	41.3
331.286	98.64
331.499	84.31
331.712	12.63
331.925	26.96
332.138	-36.52
332.35	117.08
332.563	-18.09
332.776	86.36
332.989	-3.75
333.202	53.59
333.414	65.88
333.627	-16.04
333.84	8.53
334.053	74.07
334.265	0.34
334.478	18.77
334.691	-11.95
334.903	49.49
335.116	14.68
335.329	0.34
335.541	92.5
335.754	170.32
335.966	-7.85
336.179	59.73
336.392	-36.52
336.604	26.96
336.817	80.21
337.029	4.44
337.242	-9.9
337.454	76.12
337.667	8.53
337.88	145.75
338.092	59.73
338.305	112.98
338.517	18.77
338.729	127.32
338.942	76.12
339.154	-134.82
339.367	-77.48
339.579	4.44
339.792	6.49
340.004	86.36
340.217	24.92
340.429	92.5
340.641	6.49
340.854	-91.82
341.066	39.25
341.278	92.5
341.491	196.95
341.703	-30.38
341.915	33.11
342.128	133.46
342.34	26.96
342.552	-116.39
342.764	43.35
342.977	-22.19
343.189	2.39
343.401	24.92
343.613	-71.34
343.826	57.68
344.038	-26.28
344.25	-16.04
344.462	-48.81
344.674	-3.75
344.886	-40.62
345.099	20.82
345.311	115.03
345.523	-13.99
345.735	-97.96
345.947	16.73
346.159	72.02
346.371	16.73
346.583	26.96
346.795	190.8
347.007	-40.62
347.219	78.16
347.431	16.73
347.643	112.98
347.855	-40.62
348.067	235.86
348.279	-26.28
348.491	69.97
348.703	94.55
348.915	39.25
349.127	-1.71
349.339	78.16
349.551	14.68
349.763	74.07
349.975	57.68
350.187	121.17
350.399	174.42
350.61	90.45
350.822	-3.75
351.034	63.83
351.246	8.53
351.458	14.68
351.669	110.93
351.881	117.08
352.093	61.78
352.305	33.11
352.517	86.36
352.728	119.12
352.94	82.26
353.152	31.06
353.363	26.96
353.575	90.45
353.787	170.32
353.999	41.3
354.21	170.32
354.422	-44.71
354.633	-75.43
354.845	24.92
355.057	16.73
355.268	22.87
355.48	112.98
355.692	-38.57
355.903	65.88
356.115	-73.39
356.326	-9.9
356.538	98.64
356.749	90.45
356.961	166.23
357.172	61.78
357.384	-32.43
357.595	203.09
357.807	4.44
358.018	-9.9
358.23	49.49
358.441	127.32
358.653	67.92
358.864	20.82
359.075	-22.19
359.287	41.3
359.498	76.12
359.709	67.92
359.921	29.01
360.132	127.32
360.344	-16.04
360.555	-71.34
360.766	63.83
360.977	55.64
361.189	94.55
361.4	-34.47
361.611	33.11
361.823	51.54
362.034	45.4
362.245	-93.87
362.456	24.92
362.667	123.22
362.879	14.68
363.09	14.68
363.301	24.92
363.512	69.97
363.723	-59.05
363.935	-7.85
364.146	112.98
364.357	4.44
364.568	31.06
364.779	-38.57
364.99	184.66
365.201	-16.04
365.412	49.49
365.623	6.49
365.834	31.06
366.045	45.4
366.256	35.16
366.467	88.4
366.678	12.63
366.889	86.36
367.1	-38.57
367.311	108.88
367.522	-34.47
367.733	41.3
367.944	82.26
368.155	-16.04
368.366	166.23
368.577	82.26
368.788	110.93
368.999	39.25
369.209	29.01
369.42	274.77
369.631	233.81
369.842	90.45
370.053	125.27
370.264	-20.14
370.474	12.63
370.685	92.5
370.896	35.16
371.107	168.27
371.317	82.26
371.528	33.11
371.739	127.32
371.95	106.84
372.16	76.12
372.371	-100.01
372.582	-52.91
372.792	26.96
373.003	90.45
373.214	29.01
373.424	88.4
373.635	10.58
373.846	18.77
374.056	8.53
374.267	102.74
374.477	184.66
374.688	-32.43
374.898	-9.9
375.109	29.01
375.319	-18.09
375.53	162.13
375.74	53.59
375.951	10.58
376.161	131.41
376.372	92.5
376.582	26.96
376.793	80.21
377.003	-52.91
377.214	-3.75
377.424	74.07
377.635	-13.99
377.845	-9.9
378.055	184.66
378.266	-69.29
378.476	72.02
378.686	-18.09
378.897	22.87
379.107	141.65
379.317	94.55
379.528	-11.95
379.738	129.36
379.948	-36.52
380.158	47.44
380.369	41.3
380.579	57.68
380.789	14.68
380.999	67.92
381.21	90.45
381.42	168.27
381.63	37.2
381.84	16.73
382.05	92.5
382.261	80.21
382.471	115.03
382.681	-57
382.891	160.08
383.101	22.87
383.311	-28.33
383.521	-9.9
383.731	43.35
383.941	129.36
384.151	-1.71
384.361	59.73
384.571	43.35
384.781	88.4
384.991	190.8
385.201	229.71
385.411	135.51
385.621	127.32
385.831	88.4
386.041	59.73
386.251	84.31
386.461	18.77
386.671	49.49
386.881	39.25
387.091	94.55
387.301	158.03
387.511	49.49
387.72	115.03
387.93	57.68
388.14	8.53
388.35	59.73
388.56	86.36
388.769	125.27
388.979	-36.52
389.189	-48.81
389.399	72.02
389.609	117.08
389.818	84.31
390.028	24.92
390.238	57.68
390.447	-36.52
390.657	92.5
390.867	59.73
391.076	8.53
391.286	76.12
391.496	4.44
391.705	29.01
391.915	164.18
392.125	160.08
392.334	-9.9
392.544	178.51
392.753	100.69
392.963	51.54
393.172	45.4
393.382	-3.75
393.591	108.88
393.801	59.73
394.01	123.22
394.22	117.08
394.429	24.92
394.639	31.06
394.848	74.07
395.058	72.02
395.267	-65.19
395.477	88.4
395.686	100.69
395.895	213.33
396.105	229.71
396.314	108.88
396.524	29.01
396.733	31.06
396.942	237.91
397.152	92.5
397.361	74.07
397.57	61.78
397.78	63.83
397.989	115.03
398.198	192.85
398.407	55.64
398.617	35.16
398.826	35.16
399.035	-11.95
399.244	82.26
399.453	59.73
399.663	76.12
399.872	88.4
400.081	-77.48
400.29	129.36
400.499	-28.33
400.708	119.12
400.917	39.25
401.127	74.07
401.336	-26.28
401.545	112.98
401.754	155.99
401.963	98.64
402.172	8.53
402.381	-32.43
402.59	29.01
402.799	16.73
403.008	74.07
403.217	6.49
403.426	0.34
403.635	-32.43
403.844	26.96
404.053	20.82
404.262	63.83
404.471	112.98
404.68	-32.43
404.888	18.77
405.097	-75.43
405.306	33.11
405.515	84.31
405.724	-11.95
405.933	84.31
406.142	92.5
406.35	53.59
406.559	41.3
406.768	59.73
406.977	147.8
407.185	74.07
407.394	96.6
407.603	-73.39
407.812	49.49
408.02	123.22
408.229	88.4
408.438	84.31
408.646	-40.62
408.855	12.63
409.064	61.78
409.272	20.82
409.481	108.88
409.69	-5.8
409.898	-26.28
410.107	-3.75
410.315	76.12
410.524	-1.71
410.733	20.82
410.941	-1.71
411.15	-36.52
411.358	178.51
411.567	133.46
411.775	2.39
411.984	108.88
412.192	90.45
412.401	-7.85
412.609	139.6
412.818	141.65
413.026	108.88
413.234	-46.76
413.443	22.87
413.651	-1.71
413.86	12.63
414.068	84.31
414.276	149.84
414.485	8.53
414.693	98.64
414.901	166.23
415.11	33.11
415.318	59.73
415.526	26.96
415.734	78.16
415.943	-5.8
416.151	164.18
416.359	8.53
416.567	35.16
416.776	67.92
416.984	112.98
417.192	213.33
417.4	-30.38
417.608	-28.33
417.817	-16.04
418.025	104.79
418.233	135.51
418.441	-108.2
418.649	-20.14
418.857	108.88
419.065	123.22
419.273	-26.28
419.481	57.68
419.689	22.87
419.897	69.97
420.105	6.49
420.313	104.79
420.521	121.17
420.729	129.36
420.937	-1.71
421.145	-1.71
421.353	78.16
421.561	147.8
421.769	24.92
421.977	-1.71
422.185	94.55
422.393	-1.71
422.601	131.41
422.809	65.88
423.017	106.84
423.224	131.41
423.432	170.32
423.64	-5.8
423.848	110.93
424.056	-24.23
424.263	141.65
424.471	47.44
424.679	119.12
424.887	-30.38
425.094	174.42
425.302	104.79
425.51	10.58
425.718	63.83
425.925	67.92
426.133	-73.39
426.341	160.08
426.548	43.35
426.756	37.2
426.964	88.4
427.171	24.92
427.379	88.4
427.586	82.26
427.794	129.36
428.001	164.18
428.209	47.44
428.417	221.52
428.624	76.12
428.832	145.75
429.039	102.74
429.247	6.49
429.454	106.84
429.662	213.33
429.869	129.36
430.076	123.22
430.284	125.27
430.491	248.15
430.699	176.47
430.906	186.71
431.114	112.98
431.321	184.66
431.528	67.92
431.736	57.68
431.943	112.98
432.15	121.17
432.358	196.95
432.565	198.99
432.772	-1.71
432.979	182.61
433.187	78.16
433.394	151.89
433.601	47.44
433.808	221.52
434.016	178.51
434.223	188.75
434.43	198.99
434.637	235.86
434.844	239.95
435.052	168.27
435.259	207.19
435.466	297.3
435.673	233.81
435.88	274.77
436.087	299.34
436.294	293.2
436.501	221.52
436.708	266.58
436.915	293.2
437.122	334.16
437.329	205.14
437.537	311.63
437.743	330.06
437.95	414.03
438.157	229.71
438.364	268.63
438.571	334.16
438.778	399.7
438.985	393.55
439.192	391.5
439.399	360.78
439.606	389.46
439.813	467.28
440.02	502.09
440.227	518.48
440.433	459.09
440.64	416.08
440.847	471.37
441.054	524.62
441.261	645.45
441.467	516.43
441.674	536.91
441.881	612.68
442.088	551.24
442.294	670.03
442.501	682.31
442.708	758.09
442.914	647.5
443.121	768.33
443.328	719.18
443.534	819.53
443.741	749.9
443.948	762.19
444.154	915.78
444.361	1126.72
444.568	807.24
444.774	964.93
444.981	831.82
445.187	1106.24
445.394	1055.05
445.6	985.41
445.807	1071.43
446.013	1116.48
446.22	1059.14
446.426	1190.21
446.633	1249.6
446.839	1425.73
447.046	1327.43
447.252	1401.15
447.459	1458.5
447.665	1401.15
447.871	1626.43
448.078	1573.18
448.284	1704.25
448.491	1782.07
448.697	1794.36
448.903	1843.51
449.11	1853.75
449.316	1907
449.522	2101.56
449.728	2103.61
449.935	2294.07
450.141	2093.37
450.347	2453.81
450.553	2298.16
450.76	2464.05
450.966	2478.38
451.172	2601.26
451.378	2672.94
451.584	2804.01
451.791	3029.29
451.997	3017
452.203	2980.14
452.409	3236.13
452.615	3438.88
452.821	3324.19
453.027	3395.87
453.233	3801.37
453.44	3608.86
453.646	3787.04
453.852	3881.24
454.058	4010.26
454.264	4358.42
454.47	4503.82
454.676	4581.65
454.882	4946.19
455.088	4794.64
455.294	4907.27
455.5	5466.37
455.705	5615.87
455.911	5679.36
456.117	5880.06
456.323	5955.83
456.529	5972.22
456.735	6678.77
456.941	6758.64
457.147	6697.2
457.352	7260.39
457.558	7284.97
457.764	7866.59
457.97	8073.43
458.176	8235.22
458.381	8943.82
458.587	9046.22
458.793	9365.7
458.999	9361.61
459.204	10447.03
459.41	10772.66
459.616	10571.96
459.821	11333.8
460.027	11706.53
460.233	12460.18
460.438	12329.11
460.644	13195.4
460.85	13400.2
461.055	13809.79
461.261	14350.46
461.466	13936.77
461.672	14397.56
461.878	15886.43
462.083	16001.12
462.289	16167.01
462.494	16871.51
462.7	16910.42
462.905	17254.48
463.111	18776.12
463.316	19664.94
463.522	19925.03
463.727	20774.94
463.932	21366.8
464.138	22032.39
464.343	22982.65
464.549	23441.39
464.754	24692.7
464.959	25180.12
465.165	26120.13
465.37	25692.11
465.575	25503.7
465.781	27375.54
465.986	28555.17
466.191	27895.72
466.397	28137.38
466.602	27522.99
466.807	29376.41
467.012	29317.01
467.218	30154.63
467.423	30029.71
467.628	30896
467.833	32954.21
468.038	32010.09
468.244	31111.03
468.449	32925.53
468.654	32573.28
468.859	32331.62
469.064	32374.63
