Data from USB4F104151__48__10-43-20-977.txt Node

Date: Wed Feb 26 10:43:20 EST 2025
User: louis
Spectrometer: USB4F10415
Trigger mode: 4
Integration Time (sec): 1.000000E-1
Scans to average: 1
Electric dark correction enabled: true
Nonlinearity correction enabled: false
Boxcar width: 0
XAxis mode: Wavelengths
Number of Pixels in Spectrum: 3648
>>>>>Begin Spectral Data<<<<<
178.204	-372.73
178.424	-372.73
178.644	-372.73
178.864	-385.02
179.084	-364.54
179.304	-22.53
179.524	-6.14
179.744	-24.58
179.964	6.14
180.184	-40.96
180.404	-8.19
180.624	22.53
180.844	73.73
181.064	-6.14
181.283	-20.48
181.503	-40.96
181.723	67.58
181.943	-120.83
182.163	231.42
182.383	-2.05
182.602	139.26
182.822	137.21
183.042	141.31
183.262	-59.39
183.482	-22.53
183.701	40.96
183.921	20.48
184.141	-110.59
184.361	100.35
184.58	86.01
184.8	28.67
185.02	-28.67
185.239	98.3
185.459	65.53
185.679	96.25
185.898	-38.91
186.118	106.49
186.338	20.48
186.557	159.74
186.777	-57.34
186.997	55.3
187.216	24.58
187.436	212.99
187.655	63.49
187.875	202.75
188.095	12.29
188.314	131.07
188.534	147.45
188.753	55.3
188.973	110.59
189.192	198.65
189.412	47.1
189.631	16.38
189.851	108.54
190.07	188.41
190.29	55.3
190.509	12.29
190.729	10.24
190.948	120.83
191.168	210.94
191.387	96.25
191.607	83.97
191.826	69.63
192.045	79.87
192.265	4.1
192.484	90.11
192.704	114.69
192.923	51.2
193.142	208.89
193.362	88.06
193.581	98.3
193.8	53.25
194.02	67.58
194.239	-4.1
194.458	145.41
194.678	28.67
194.897	10.24
195.116	-8.19
195.335	77.82
195.555	67.58
195.774	-14.34
195.993	114.69
196.212	118.78
196.432	-14.34
196.651	-10.24
196.87	81.92
197.089	258.04
197.308	141.31
197.528	79.87
197.747	43.01
197.966	-59.39
198.185	155.65
198.404	47.1
198.623	122.88
198.842	47.1
199.062	77.82
199.281	141.31
199.5	40.96
199.719	36.86
199.938	92.16
200.157	120.83
200.376	182.27
200.595	120.83
200.814	57.34
201.033	30.72
201.252	204.8
201.471	106.49
201.69	96.25
201.909	6.14
202.128	104.45
202.347	88.06
202.566	12.29
202.785	-16.38
203.004	22.53
203.223	188.41
203.442	92.16
203.661	-20.48
203.879	63.49
204.098	81.92
204.317	-43.01
204.536	98.3
204.755	118.78
204.974	135.17
205.193	-36.86
205.411	174.08
205.63	61.44
205.849	79.87
206.068	4.1
206.287	-36.86
206.505	172.03
206.724	43.01
206.943	55.3
207.162	34.82
207.381	69.63
207.599	77.82
207.818	104.45
208.037	40.96
208.255	143.36
208.474	133.12
208.693	124.93
208.911	30.72
209.13	137.21
209.349	73.73
209.567	81.92
209.786	116.73
210.005	83.97
210.223	86.01
210.442	-65.54
210.661	40.96
210.879	36.86
211.098	-4.1
211.316	-4.1
211.535	133.12
211.753	124.93
211.972	108.54
212.191	-4.1
212.409	73.73
212.628	163.84
212.846	71.68
213.065	77.82
213.283	163.84
213.502	75.77
213.72	90.11
213.938	32.77
214.157	12.29
214.375	147.45
214.594	63.49
214.812	86.01
215.031	86.01
215.249	22.53
215.467	47.1
215.686	100.35
215.904	57.34
216.122	45.06
216.341	159.74
216.559	71.68
216.778	131.07
216.996	104.45
217.214	8.19
217.432	-14.34
217.651	28.67
217.869	135.17
218.087	102.4
218.306	34.82
218.524	94.21
218.742	36.86
218.96	106.49
219.179	12.29
219.397	2.05
219.615	239.61
219.833	71.68
220.051	22.53
220.27	139.26
220.488	116.73
220.706	114.69
220.924	-12.29
221.142	38.91
221.36	59.39
221.578	77.82
221.796	-8.19
222.015	-16.38
222.233	102.4
222.451	210.94
222.669	45.06
222.887	137.21
223.105	36.86
223.323	55.3
223.541	14.34
223.759	73.73
223.977	81.92
224.195	208.89
224.413	172.03
224.631	90.11
224.849	118.78
225.067	206.84
225.285	36.86
225.503	67.58
225.721	-47.1
225.939	16.38
226.157	55.3
226.375	243.71
226.592	-30.72
226.81	69.63
227.028	153.6
227.246	139.26
227.464	112.64
227.682	112.64
227.9	106.49
228.117	118.78
228.335	116.73
228.553	51.2
228.771	30.72
228.989	-2.05
229.206	190.46
229.424	22.53
229.642	73.73
229.86	-14.34
230.077	159.74
230.295	100.35
230.513	90.11
230.731	116.73
230.948	278.52
231.166	120.83
231.384	26.62
231.601	18.43
231.819	131.07
232.037	43.01
232.254	-2.05
232.472	53.25
232.689	28.67
232.907	172.03
233.125	-92.16
233.342	-61.44
233.56	20.48
233.777	-2.05
233.995	61.44
234.213	165.89
234.43	88.06
234.648	53.25
234.865	-2.05
235.083	106.49
235.3	63.49
235.518	90.11
235.735	112.64
235.953	124.93
236.17	12.29
236.388	28.67
236.605	45.06
236.822	143.36
237.04	63.49
237.257	32.77
237.475	43.01
237.692	55.3
237.909	145.41
238.127	-18.43
238.344	61.44
238.562	126.97
238.779	-34.82
238.996	26.62
239.214	16.38
239.431	88.06
239.648	-10.24
239.865	114.69
240.083	122.88
240.3	73.73
240.517	53.25
240.735	-18.43
240.952	122.88
241.169	129.02
241.386	112.64
241.603	32.77
241.821	43.01
242.038	133.12
242.255	118.78
242.472	-0
242.689	106.49
242.907	161.79
243.124	122.88
243.341	38.91
243.558	-63.49
243.775	-28.67
243.992	-0
244.209	81.92
244.426	190.46
244.643	118.78
244.86	94.21
245.078	141.31
245.295	43.01
245.512	61.44
245.729	-0
245.946	133.12
246.163	88.06
246.38	16.38
246.597	112.64
246.814	4.1
247.031	38.91
247.248	45.06
247.464	145.41
247.681	139.26
247.898	169.98
248.115	47.1
248.332	6.14
248.549	202.75
248.766	204.8
248.983	172.03
249.2	159.74
249.417	108.54
249.633	-12.29
249.85	67.58
250.067	83.97
250.284	71.68
250.501	100.35
250.717	124.93
250.934	34.82
251.151	38.91
251.368	51.2
251.585	102.4
251.801	-16.38
252.018	86.01
252.235	86.01
252.451	-34.82
252.668	28.67
252.885	133.12
253.102	67.58
253.318	-22.53
253.535	-14.34
253.752	10.24
253.968	86.01
254.185	-77.82
254.401	69.63
254.618	55.3
254.835	24.58
255.051	114.69
255.268	67.58
255.484	102.4
255.701	92.16
255.917	129.02
256.134	-14.34
256.351	86.01
256.567	-14.34
256.784	22.53
257	-34.82
257.217	26.62
257.433	67.58
257.65	79.87
257.866	198.65
258.082	-73.73
258.299	24.58
258.515	38.91
258.732	40.96
258.948	-94.21
259.165	6.14
259.381	-43.01
259.597	116.73
259.814	20.48
260.03	51.2
260.246	69.63
260.463	141.31
260.679	116.73
260.895	4.1
261.112	102.4
261.328	22.53
261.544	-26.62
261.761	167.93
261.977	-53.25
262.193	43.01
262.409	59.39
262.626	108.54
262.842	55.3
263.058	-32.77
263.274	165.89
263.49	75.77
263.707	73.73
263.923	94.21
264.139	-8.19
264.355	124.93
264.571	100.35
264.787	92.16
265.004	116.73
265.22	-0
265.436	-28.67
265.652	-45.06
265.868	92.16
266.084	40.96
266.3	18.43
266.516	90.11
266.732	65.53
266.948	61.44
267.164	28.67
267.38	65.53
267.596	57.34
267.812	208.89
268.028	34.82
268.244	49.15
268.46	55.3
268.676	-30.72
268.892	53.25
269.108	57.34
269.324	-30.72
269.54	-28.67
269.756	81.92
269.972	-79.87
270.188	-8.19
270.403	57.34
270.619	12.29
270.835	118.78
271.051	47.1
271.267	38.91
271.483	55.3
271.698	135.17
271.914	34.82
272.13	110.59
272.346	-0
272.562	114.69
272.777	151.55
272.993	59.39
273.209	57.34
273.425	14.34
273.64	45.06
273.856	149.5
274.072	69.63
274.287	-4.1
274.503	92.16
274.719	143.36
274.934	51.2
275.15	-98.3
275.366	114.69
275.581	22.53
275.797	81.92
276.012	110.59
276.228	-2.05
276.444	55.3
276.659	192.51
276.875	-0
277.09	102.4
277.306	-14.34
277.521	51.2
277.737	55.3
277.952	106.49
278.168	81.92
278.383	96.25
278.599	96.25
278.814	65.53
279.03	131.07
279.245	139.26
279.461	53.25
279.676	69.63
279.892	-71.68
280.107	-34.82
280.322	18.43
280.538	22.53
280.753	-34.82
280.969	57.34
281.184	90.11
281.399	118.78
281.615	88.06
281.83	124.93
282.045	-12.29
282.26	-90.11
282.476	-4.1
282.691	131.07
282.906	116.73
283.122	57.34
283.337	36.86
283.552	114.69
283.767	63.49
283.983	98.3
284.198	30.72
284.413	57.34
284.628	-2.05
284.843	102.4
285.058	145.41
285.274	43.01
285.489	-45.06
285.704	12.29
285.919	10.24
286.134	69.63
286.349	100.35
286.564	55.3
286.779	272.38
286.995	34.82
287.21	-40.96
287.425	94.21
287.64	-8.19
287.855	14.34
288.07	-43.01
288.285	155.65
288.5	139.26
288.715	114.69
288.93	30.72
289.145	51.2
289.36	145.41
289.575	-4.1
289.79	133.12
290.004	6.14
290.219	69.63
290.434	16.38
290.649	63.49
290.864	55.3
291.079	-10.24
291.294	81.92
291.509	139.26
291.724	47.1
291.938	133.12
292.153	26.62
292.368	104.45
292.583	86.01
292.798	98.3
293.012	116.73
293.227	47.1
293.442	18.43
293.657	110.59
293.871	141.31
294.086	63.49
294.301	157.69
294.516	174.08
294.73	24.58
294.945	-10.24
295.16	71.68
295.374	198.65
295.589	118.78
295.804	20.48
296.018	77.82
296.233	79.87
296.447	63.49
296.662	6.14
296.877	133.12
297.091	92.16
297.306	18.43
297.52	49.15
297.735	77.82
297.949	65.53
298.164	133.12
298.378	106.49
298.593	43.01
298.807	-18.43
299.022	88.06
299.236	190.46
299.451	34.82
299.665	106.49
299.88	88.06
300.094	-45.06
300.309	-2.05
300.523	104.45
300.737	14.34
300.952	86.01
301.166	86.01
301.381	-36.86
301.595	57.34
301.809	-12.29
302.024	22.53
302.238	-24.58
302.452	120.83
302.667	69.63
302.881	174.08
303.095	69.63
303.309	55.3
303.524	12.29
303.738	-51.2
303.952	22.53
304.166	45.06
304.381	-69.63
304.595	227.32
304.809	-18.43
305.023	83.97
305.237	43.01
305.452	57.34
305.666	73.73
305.88	63.49
306.094	122.88
306.308	143.36
306.522	55.3
306.736	100.35
306.95	47.1
307.164	22.53
307.379	83.97
307.593	172.03
307.807	104.45
308.021	61.44
308.235	61.44
308.449	-102.4
308.663	20.48
308.877	243.71
309.091	71.68
309.305	159.74
309.519	-67.58
309.733	178.17
309.947	-100.35
310.161	79.87
310.374	165.89
310.588	165.89
310.802	-8.19
311.016	8.19
311.23	153.6
311.444	-2.05
311.658	65.53
311.872	126.97
312.085	98.3
312.299	219.13
312.513	200.7
312.727	114.69
312.941	26.62
313.154	94.21
313.368	43.01
313.582	77.82
313.796	81.92
314.009	53.25
314.223	116.73
314.437	-10.24
314.651	118.78
314.864	-12.29
315.078	-22.53
315.292	45.06
315.505	-28.67
315.719	139.26
315.933	88.06
316.146	-10.24
316.36	28.67
316.573	131.07
316.787	98.3
317.001	100.35
317.214	4.1
317.428	-4.1
317.641	-73.73
317.855	71.68
318.068	59.39
318.282	120.83
318.495	239.61
318.709	114.69
318.922	79.87
319.136	155.65
319.349	69.63
319.563	20.48
319.776	108.54
319.99	-53.25
320.203	151.55
320.417	6.14
320.63	61.44
320.843	184.32
321.057	106.49
321.27	69.63
321.483	131.07
321.697	149.5
321.91	57.34
322.124	182.27
322.337	143.36
322.55	-65.54
322.763	47.1
322.977	32.77
323.19	8.19
323.403	-47.1
323.617	133.12
323.83	67.58
324.043	40.96
324.256	133.12
324.469	-12.29
324.683	57.34
324.896	-0
325.109	-12.29
325.322	-143.36
325.535	114.69
325.748	110.59
325.962	20.48
326.175	106.49
326.388	88.06
326.601	145.41
326.814	88.06
327.027	116.73
327.24	153.6
327.453	-79.87
327.666	88.06
327.879	147.45
328.092	81.92
328.305	110.59
328.518	16.38
328.731	-6.14
328.944	36.86
329.157	149.5
329.37	34.82
329.583	188.41
329.796	147.45
330.009	-28.67
330.222	143.36
330.435	147.45
330.648	20.48
330.861	8.19
331.073	124.93
331.286	151.55
331.499	65.53
331.712	14.34
331.925	47.1
332.138	18.43
332.35	122.88
332.563	-16.38
332.776	98.3
332.989	-45.06
333.202	40.96
333.414	10.24
333.627	36.86
333.84	36.86
334.053	81.92
334.265	-6.14
334.478	57.34
334.691	47.1
334.903	51.2
335.116	16.38
335.329	12.29
335.541	94.21
335.754	94.21
335.966	4.1
336.179	43.01
336.392	79.87
336.604	57.34
336.817	100.35
337.029	51.2
337.242	51.2
337.454	77.82
337.667	24.58
337.88	145.41
338.092	81.92
338.305	116.73
338.517	49.15
338.729	149.5
338.942	98.3
339.154	36.86
339.367	-28.67
339.579	73.73
339.792	-18.43
340.004	129.02
340.217	12.29
340.429	71.68
340.641	-26.62
340.854	77.82
341.066	45.06
341.278	110.59
341.491	198.65
341.703	163.84
341.915	65.53
342.128	90.11
342.34	40.96
342.552	20.48
342.764	88.06
342.977	-32.77
343.189	159.74
343.401	98.3
343.613	-36.86
343.826	94.21
344.038	32.77
344.25	-4.1
344.462	38.91
344.674	63.49
344.886	-8.19
345.099	73.73
345.311	126.97
345.523	96.25
345.735	-45.06
345.947	63.49
346.159	63.49
346.371	-2.05
346.583	36.86
346.795	194.56
347.007	57.34
347.219	114.69
347.431	65.53
347.643	63.49
347.855	2.05
348.067	163.84
348.279	-92.16
348.491	10.24
348.703	206.84
348.915	57.34
349.127	-16.38
349.339	43.01
349.551	40.96
349.763	169.98
349.975	77.82
350.187	122.88
350.399	204.8
350.61	73.73
350.822	26.62
351.034	145.41
351.246	75.77
351.458	108.54
351.669	143.36
351.881	143.36
352.093	180.22
352.305	102.4
352.517	94.21
352.728	145.41
352.94	83.97
353.152	59.39
353.363	38.91
353.575	116.73
353.787	159.74
353.999	51.2
354.21	227.32
354.422	22.53
354.633	110.59
354.845	-8.19
355.057	79.87
355.268	118.78
355.48	120.83
355.692	-57.34
355.903	34.82
356.115	38.91
356.326	-79.87
356.538	161.79
356.749	137.21
356.961	194.56
357.172	86.01
357.384	-57.34
357.595	256
357.807	8.19
358.018	-36.86
358.23	63.49
358.441	143.36
358.653	116.73
358.864	12.29
359.075	-2.05
359.287	94.21
359.498	143.36
359.709	75.77
359.921	38.91
360.132	77.82
360.344	131.07
360.555	30.72
360.766	32.77
360.977	4.1
361.189	139.26
361.4	51.2
361.611	104.45
361.823	110.59
362.034	131.07
362.245	-2.05
362.456	38.91
362.667	153.6
362.879	-55.3
363.09	57.34
363.301	51.2
363.512	28.67
363.723	34.82
363.935	69.63
364.146	104.45
364.357	57.34
364.568	75.77
364.779	-20.48
364.99	155.65
365.201	-4.1
365.412	145.41
365.623	40.96
365.834	71.68
366.045	88.06
366.256	108.54
366.467	129.02
366.678	94.21
366.889	122.88
367.1	71.68
367.311	137.21
367.522	43.01
367.733	131.07
367.944	8.19
368.155	36.86
368.366	141.31
368.577	141.31
368.788	206.84
368.999	-18.43
369.209	67.58
369.42	278.52
369.631	303.1
369.842	161.79
370.053	14.34
370.264	88.06
370.474	38.91
370.685	55.3
370.896	-8.19
371.107	118.78
371.317	53.25
371.528	38.91
371.739	104.45
371.95	43.01
372.16	145.41
372.371	-40.96
372.582	8.19
372.792	86.01
373.003	61.44
373.214	53.25
373.424	165.89
373.635	-45.06
373.846	124.93
374.056	14.34
374.267	102.4
374.477	34.82
374.688	36.86
374.898	83.97
375.109	118.78
375.319	8.19
375.53	71.68
375.74	151.55
375.951	100.35
376.161	143.36
376.372	233.47
376.582	14.34
376.793	36.86
377.003	40.96
377.214	18.43
377.424	114.69
377.635	47.1
377.845	2.05
378.055	215.04
378.266	-47.1
378.476	94.21
378.686	129.02
378.897	61.44
379.107	53.25
379.317	108.54
379.528	114.69
379.738	112.64
379.948	53.25
380.158	118.78
380.369	14.34
380.579	120.83
380.789	81.92
380.999	143.36
381.21	161.79
381.42	182.27
381.63	12.29
381.84	94.21
382.05	188.41
382.261	98.3
382.471	180.22
382.681	-38.91
382.891	239.61
383.101	102.4
383.311	24.58
383.521	75.77
383.731	28.67
383.941	129.02
384.151	26.62
384.361	6.14
384.571	126.97
384.781	94.21
384.991	169.98
385.201	180.22
385.411	163.84
385.621	75.77
385.831	77.82
386.041	81.92
386.251	43.01
386.461	114.69
386.671	34.82
386.881	59.39
387.091	2.05
387.301	124.93
387.511	67.58
387.72	79.87
387.93	151.55
388.14	-10.24
388.35	28.67
388.56	122.88
388.769	149.5
388.979	53.25
389.189	-47.1
389.399	69.63
389.609	88.06
389.818	102.4
390.028	81.92
390.238	112.64
390.447	-49.15
390.657	104.45
390.867	40.96
391.076	-118.78
391.286	63.49
391.496	75.77
391.705	38.91
391.915	198.65
392.125	208.89
392.334	20.48
392.544	225.28
392.753	4.1
392.963	8.19
393.172	112.64
393.382	47.1
393.591	161.79
393.801	36.86
394.01	147.45
394.22	73.73
394.429	34.82
394.639	38.91
394.848	77.82
395.058	100.35
395.267	34.82
395.477	71.68
395.686	96.25
395.895	217.08
396.105	149.5
396.314	-4.1
396.524	30.72
396.733	24.58
396.942	169.98
397.152	133.12
397.361	126.97
397.57	133.12
397.78	100.35
397.989	131.07
398.198	241.66
398.407	4.1
398.617	43.01
398.826	30.72
399.035	104.45
399.244	145.41
399.453	51.2
399.663	149.5
399.872	108.54
400.081	-2.05
400.29	174.08
400.499	57.34
400.708	180.22
400.917	63.49
401.127	57.34
401.336	20.48
401.545	229.37
401.754	151.55
401.963	145.41
402.172	81.92
402.381	-40.96
402.59	55.3
402.799	34.82
403.008	137.21
403.217	83.97
403.426	114.69
403.635	-10.24
403.844	63.49
404.053	43.01
404.262	22.53
404.471	133.12
404.68	83.97
404.888	53.25
405.097	53.25
405.306	59.39
405.515	143.36
405.724	-14.34
405.933	98.3
406.142	59.39
406.35	135.17
406.559	79.87
406.768	-32.77
406.977	169.98
407.185	75.77
407.394	6.14
407.603	38.91
407.812	141.31
408.02	210.94
408.229	114.69
408.438	83.97
408.646	-73.73
408.855	53.25
409.064	114.69
409.272	71.68
409.481	90.11
409.69	32.77
409.898	20.48
410.107	57.34
410.315	192.51
410.524	45.06
410.733	69.63
410.941	92.16
411.15	40.96
411.358	149.5
411.567	141.31
411.775	22.53
411.984	79.87
412.192	71.68
412.401	49.15
412.609	176.13
412.818	151.55
413.026	73.73
413.234	53.25
413.443	59.39
413.651	38.91
413.86	112.64
414.068	124.93
414.276	241.66
414.485	16.38
414.693	194.56
414.901	202.75
415.11	104.45
415.318	77.82
415.526	122.88
415.734	145.41
415.943	135.17
416.151	178.17
416.359	36.86
416.567	73.73
416.776	90.11
416.984	106.49
417.192	206.84
417.4	2.05
417.608	34.82
417.817	-8.19
418.025	174.08
418.233	221.18
418.441	49.15
418.649	-18.43
418.857	79.87
419.065	161.79
419.273	6.14
419.481	53.25
419.689	26.62
419.897	-40.96
420.105	-20.48
420.313	71.68
420.521	102.4
420.729	202.75
420.937	16.38
421.145	-18.43
421.353	143.36
421.561	239.61
421.769	149.5
421.977	92.16
422.185	116.73
422.393	86.01
422.601	198.65
422.809	182.27
423.017	116.73
423.224	59.39
423.432	133.12
423.64	55.3
423.848	126.97
424.056	18.43
424.263	118.78
424.471	153.6
424.679	141.31
424.887	-26.62
425.094	120.83
425.302	122.88
425.51	40.96
425.718	100.35
425.925	79.87
426.133	40.96
426.341	227.32
426.548	131.07
426.756	34.82
426.964	147.45
427.171	-45.06
427.379	24.58
427.586	159.74
427.794	137.21
428.001	188.41
428.209	53.25
428.417	215.04
428.624	83.97
428.832	186.37
429.039	77.82
429.247	112.64
429.454	114.69
429.662	258.04
429.869	108.54
430.076	215.04
430.284	215.04
430.491	200.7
430.699	163.84
430.906	204.8
431.114	131.07
431.321	169.98
431.528	157.69
431.736	106.49
431.943	221.18
432.15	155.65
432.358	212.99
432.565	282.62
432.772	137.21
432.979	194.56
433.187	172.03
433.394	280.57
433.601	208.89
433.808	260.09
434.016	399.35
434.223	215.04
434.43	286.72
434.637	358.39
434.844	282.62
435.052	221.18
435.259	296.96
435.466	372.73
435.673	233.47
435.88	393.21
436.087	440.31
436.294	428.03
436.501	321.53
436.708	305.15
436.915	288.76
437.122	446.46
437.329	286.72
437.537	401.4
437.743	425.98
437.95	546.81
438.157	419.83
438.364	481.27
438.571	491.51
438.778	528.38
438.985	509.94
439.192	485.37
439.399	524.28
439.606	538.62
439.813	649.21
440.02	671.73
440.227	720.88
440.433	696.31
440.64	622.58
440.847	661.49
441.054	710.65
441.261	821.24
441.467	765.94
441.674	739.32
441.881	774.13
442.088	714.74
442.294	919.54
442.501	913.39
442.708	954.35
442.914	929.78
443.121	968.69
443.328	1046.51
443.534	1085.42
443.741	940.02
443.948	1058.8
444.154	1257.45
444.361	1294.32
444.568	1187.82
444.774	1169.39
444.981	1181.68
445.187	1388.52
445.394	1337.32
445.6	1308.65
445.807	1495.02
446.013	1406.95
446.22	1402.86
446.426	1617.9
446.633	1683.43
446.839	1892.32
447.046	1644.52
447.252	1974.24
447.459	1837.03
447.665	1857.51
447.871	2023.39
448.078	2281.44
448.284	2166.75
448.491	2379.74
448.697	2328.54
448.903	2475.99
449.11	2500.57
449.316	2461.66
449.522	2844.63
449.728	2793.43
449.935	2813.91
450.141	3037.14
450.347	3303.37
450.553	3071.95
450.76	3297.23
450.966	3231.69
451.172	3395.53
451.378	3590.09
451.584	3811.27
451.791	4032.45
451.997	3923.91
452.203	4124.61
452.409	4296.64
452.615	4620.22
452.821	4337.6
453.027	4466.62
453.233	4935.6
453.44	4739
453.646	5083.06
453.852	5205.94
454.058	5472.17
454.264	5752.74
454.47	6217.63
454.676	6172.58
454.882	6539.16
455.088	6426.53
455.294	6657.95
455.5	7219.09
455.705	7655.31
455.911	7612.3
456.117	7692.17
456.323	7989.13
456.529	7972.74
456.735	8867.7
456.941	9047.93
457.147	9406.32
457.352	9504.62
457.558	9676.65
457.764	10477.41
457.97	10669.92
458.176	11198.29
458.381	11763.53
458.587	11945.8
458.793	12453.7
458.999	12713.79
459.204	14071.59
459.41	14438.18
459.616	14253.86
459.821	14931.74
460.027	15728.4
460.233	16684.8
460.438	16578.31
460.644	17544.95
460.85	17778.42
461.055	18343.66
461.261	19265.24
461.466	18751.2
461.672	19306.2
461.878	21610.17
462.083	21259.96
462.289	21831.35
462.494	22550.18
462.7	22941.35
462.905	23101.09
463.111	24911.49
463.316	26533.48
463.522	26699.37
463.727	27735.64
463.932	29009.48
464.138	29673.02
464.343	31053.35
464.549	30944.81
464.754	33324.55
464.959	34190.84
465.165	34405.88
465.37	34354.68
465.575	34432.5
465.781	36642.26
465.986	37762.5
466.191	37451.2
466.397	37154.25
466.602	36744.66
466.807	38845.87
467.012	39783.84
467.218	40408.47
467.423	40138.14
467.628	41502.09
467.833	43455.85
