Data from USB4F104151__167__11-04-51-736.txt Node

Date: Wed Feb 26 11:04:51 EST 2025
User: louis
Spectrometer: USB4F10415
Trigger mode: 4
Integration Time (sec): 1.000000E-1
Scans to average: 1
Electric dark correction enabled: true
Nonlinearity correction enabled: false
Boxcar width: 0
XAxis mode: Wavelengths
Number of Pixels in Spectrum: 3648
>>>>>Begin Spectral Data<<<<<
178.204	-367.27
178.424	-367.27
178.644	-367.27
178.864	-379.56
179.084	-408.23
179.304	-74.41
179.524	11.61
179.744	68.95
179.964	107.86
180.184	-37.55
180.404	-2.73
180.624	-49.83
180.844	25.94
181.064	-131.75
181.283	52.56
181.503	30.04
181.723	-0.68
181.943	-121.51
182.163	161.11
182.383	-51.88
182.602	-0.68
182.822	163.15
183.042	56.66
183.262	77.14
183.482	-109.23
183.701	54.61
183.921	38.23
184.141	-45.74
184.361	89.43
184.58	40.28
184.8	-0.68
185.02	-21.16
185.239	120.15
185.459	3.41
185.679	128.34
185.898	-74.41
186.118	77.14
186.338	27.99
186.557	132.44
186.777	-78.51
186.997	-37.55
187.216	52.56
187.436	66.9
187.655	58.71
187.875	83.28
188.095	11.61
188.314	124.24
188.534	146.77
188.753	-21.16
188.973	111.96
189.192	148.82
189.412	1.37
189.631	-37.55
189.851	44.37
190.07	169.3
190.29	-62.12
190.509	19.8
190.729	-23.21
190.948	179.54
191.168	255.31
191.387	95.57
191.607	-35.5
191.826	71
192.045	-17.07
192.265	85.33
192.484	-49.83
192.704	40.28
192.923	-64.17
193.142	23.89
193.362	120.15
193.581	101.72
193.8	71
194.02	126.29
194.239	50.52
194.458	95.57
194.678	3.41
194.897	-29.35
195.116	-6.83
195.335	52.56
195.555	23.89
195.774	-47.79
195.993	109.91
196.212	-53.93
196.432	15.7
196.651	9.56
196.87	-33.45
197.089	232.79
197.308	38.23
197.528	103.76
197.747	5.46
197.966	-2.73
198.185	163.15
198.404	-21.16
198.623	36.18
198.842	73.04
199.062	134.48
199.281	-19.11
199.5	71
199.719	27.99
199.938	-6.83
200.157	42.32
200.376	81.24
200.595	44.37
200.814	44.37
201.033	3.41
201.252	185.68
201.471	5.46
201.69	56.66
201.909	52.56
202.128	30.04
202.347	15.7
202.566	-2.73
202.785	-144.04
203.004	9.56
203.223	279.89
203.442	50.52
203.661	-21.16
203.879	9.56
204.098	83.28
204.317	32.08
204.536	21.84
204.755	-17.07
204.974	105.81
205.193	25.94
205.411	118.1
205.63	93.52
205.849	3.41
206.068	-0.68
206.287	-29.35
206.505	85.33
206.724	-0.68
206.943	-80.55
207.162	-10.92
207.381	40.28
207.599	34.13
207.818	83.28
208.037	-66.22
208.255	-47.79
208.474	36.18
208.693	17.75
208.911	-76.46
209.13	50.52
209.349	30.04
209.567	9.56
209.786	68.95
210.005	42.32
210.223	64.85
210.442	-84.65
210.661	77.14
210.879	85.33
211.098	27.99
211.316	9.56
211.535	91.48
211.753	5.46
211.972	21.84
212.191	-35.5
212.409	-43.69
212.628	58.71
212.846	13.65
213.065	97.62
213.283	136.53
213.502	11.61
213.72	44.37
213.938	-8.87
214.157	38.23
214.375	109.91
214.594	13.65
214.812	11.61
215.031	-15.02
215.249	52.56
215.467	44.37
215.686	-12.97
215.904	56.66
216.122	75.09
216.341	97.62
216.559	23.89
216.778	105.81
216.996	64.85
217.214	21.84
217.432	-0.68
217.651	-19.11
217.869	75.09
218.087	52.56
218.306	-0.68
218.524	27.99
218.742	-2.73
218.96	56.66
219.179	-80.55
219.397	19.8
219.615	238.93
219.833	50.52
220.051	-15.02
220.27	81.24
220.488	109.91
220.706	46.42
220.924	-53.93
221.142	-12.97
221.36	64.85
221.578	7.51
221.796	40.28
222.015	54.61
222.233	15.7
222.451	81.24
222.669	-72.36
222.887	79.19
223.105	9.56
223.323	95.57
223.541	44.37
223.759	81.24
223.977	3.41
224.195	130.39
224.413	30.04
224.631	81.24
224.849	9.56
225.067	208.21
225.285	-39.59
225.503	-10.92
225.721	-45.74
225.939	54.61
226.157	11.61
226.375	230.74
226.592	-23.21
226.81	48.47
227.028	79.19
227.246	54.61
227.464	38.23
227.682	103.76
227.9	50.52
228.117	-12.97
228.335	58.71
228.553	5.46
228.771	-33.45
228.989	34.13
229.206	97.62
229.424	-19.11
229.642	-41.64
229.86	-96.94
230.077	128.34
230.295	23.89
230.513	9.56
230.731	109.91
230.948	130.39
231.166	222.55
231.384	-19.11
231.601	-4.78
231.819	128.34
232.037	66.9
232.254	-19.11
232.472	-8.87
232.689	-45.74
232.907	146.77
233.125	-4.78
233.342	11.61
233.56	-23.21
233.777	-60.07
233.995	11.61
234.213	56.66
234.43	99.67
234.648	-29.35
234.865	21.84
235.083	34.13
235.3	68.95
235.518	40.28
235.735	66.9
235.953	138.58
236.17	-10.92
236.388	1.37
236.605	19.8
236.822	152.91
237.04	42.32
237.257	87.38
237.475	-23.21
237.692	-8.87
237.909	107.86
238.127	-17.07
238.344	38.23
238.562	-17.07
238.779	-51.88
238.996	-74.41
239.214	27.99
239.431	-6.83
239.648	38.23
239.865	40.28
240.083	75.09
240.3	5.46
240.517	13.65
240.735	7.51
240.952	136.53
241.169	44.37
241.386	75.09
241.603	3.41
241.821	-6.83
242.038	54.61
242.255	48.47
242.472	-45.74
242.689	-17.07
242.907	62.8
243.124	34.13
243.341	-0.68
243.558	-84.65
243.775	-101.03
243.992	-121.51
244.209	97.62
244.426	157.01
244.643	77.14
244.86	56.66
245.078	52.56
245.295	5.46
245.512	-35.5
245.729	-10.92
245.946	116.05
246.163	-23.21
246.38	-4.78
246.597	38.23
246.814	-2.73
247.031	44.37
247.248	54.61
247.464	83.28
247.681	7.51
247.898	42.32
248.115	38.23
248.332	-2.73
248.549	152.91
248.766	126.29
248.983	124.24
249.2	71
249.417	114
249.633	1.37
249.85	34.13
250.067	48.47
250.284	21.84
250.501	42.32
250.717	71
250.934	32.08
251.151	-0.68
251.368	13.65
251.585	17.75
251.801	114
252.018	-51.88
252.235	60.76
252.451	-37.55
252.668	-10.92
252.885	71
253.102	93.52
253.318	5.46
253.535	-0.68
253.752	3.41
253.968	-15.02
254.185	15.7
254.401	81.24
254.618	91.48
254.835	-33.45
255.051	85.33
255.268	48.47
255.484	109.91
255.701	-35.5
255.917	111.96
256.134	-53.93
256.351	132.44
256.567	-39.59
256.784	-15.02
257	-92.84
257.217	50.52
257.433	75.09
257.65	44.37
257.866	87.38
258.082	-27.31
258.299	-74.41
258.515	93.52
258.732	-15.02
258.948	-29.35
259.165	48.47
259.381	15.7
259.597	83.28
259.814	46.42
260.03	11.61
260.246	46.42
260.463	99.67
260.679	116.05
260.895	1.37
261.112	3.41
261.328	136.53
261.544	58.71
261.761	95.57
261.977	25.94
262.193	-64.17
262.409	1.37
262.626	-35.5
262.842	-6.83
263.058	-35.5
263.274	79.19
263.49	42.32
263.707	38.23
263.923	71
264.139	-78.51
264.355	-0.68
264.571	120.15
264.787	42.32
265.004	77.14
265.22	27.99
265.436	-60.07
265.652	-8.87
265.868	52.56
266.084	-2.73
266.3	44.37
266.516	-17.07
266.732	52.56
266.948	64.85
267.164	-4.78
267.38	50.52
267.596	48.47
267.812	165.2
268.028	44.37
268.244	-23.21
268.46	38.23
268.676	-23.21
268.892	40.28
269.108	-76.46
269.324	-41.64
269.54	-119.46
269.756	154.96
269.972	-39.59
270.188	46.42
270.403	-80.55
270.619	87.38
270.835	114
271.051	62.8
271.267	-29.35
271.483	-64.17
271.698	32.08
271.914	-37.55
272.13	25.94
272.346	-31.4
272.562	-2.73
272.777	111.96
272.993	-6.83
273.209	-4.78
273.425	109.91
273.64	-86.7
273.856	62.8
274.072	-39.59
274.287	-39.59
274.503	87.38
274.719	99.67
274.934	-86.7
275.15	-47.79
275.366	44.37
275.581	-0.68
275.797	50.52
276.012	13.65
276.228	44.37
276.444	-19.11
276.659	144.72
276.875	34.13
277.09	-55.98
277.306	-29.35
277.521	81.24
277.737	-15.02
277.952	68.95
278.168	40.28
278.383	13.65
278.599	-2.73
278.814	64.85
279.03	3.41
279.245	111.96
279.461	-10.92
279.676	97.62
279.892	15.7
280.107	-19.11
280.322	-2.73
280.538	-23.21
280.753	17.75
280.969	64.85
281.184	85.33
281.399	163.15
281.615	-55.98
281.83	52.56
282.045	-29.35
282.26	-76.46
282.476	-10.92
282.691	130.39
282.906	64.85
283.122	54.61
283.337	-37.55
283.552	34.13
283.767	-15.02
283.983	15.7
284.198	-55.98
284.413	73.04
284.628	-27.31
284.843	-12.97
285.058	118.1
285.274	-60.07
285.489	-8.87
285.704	107.86
285.919	52.56
286.134	-58.03
286.349	52.56
286.564	-6.83
286.779	114
286.995	-29.35
287.21	-47.79
287.425	58.71
287.64	19.8
287.855	71
288.07	-41.64
288.285	73.04
288.5	73.04
288.715	58.71
288.93	7.51
289.145	-15.02
289.36	66.9
289.575	-66.22
289.79	122.2
290.004	3.41
290.219	146.77
290.434	-8.87
290.649	25.94
290.864	-66.22
291.079	34.13
291.294	116.05
291.509	27.99
291.724	30.04
291.938	30.04
292.153	-21.16
292.368	-27.31
292.583	56.66
292.798	64.85
293.012	77.14
293.227	42.32
293.442	11.61
293.657	97.62
293.871	126.29
294.086	-23.21
294.301	183.63
294.516	46.42
294.73	48.47
294.945	50.52
295.16	-117.42
295.374	103.76
295.589	138.58
295.804	-27.31
296.018	85.33
296.233	114
296.447	21.84
296.662	-45.74
296.877	144.72
297.091	107.86
297.306	30.04
297.52	-2.73
297.735	11.61
297.949	-8.87
298.164	66.9
298.378	126.29
298.593	3.41
298.807	-17.07
299.022	77.14
299.236	60.76
299.451	-12.97
299.665	25.94
299.88	-2.73
300.094	34.13
300.309	-23.21
300.523	73.04
300.737	19.8
300.952	50.52
301.166	40.28
301.381	-47.79
301.595	-17.07
301.809	23.89
302.024	13.65
302.238	-10.92
302.452	114
302.667	-15.02
302.881	118.1
303.095	148.82
303.309	32.08
303.524	-23.21
303.738	-47.79
303.952	-15.02
304.166	136.53
304.381	-127.66
304.595	91.48
304.809	-8.87
305.023	-0.68
305.237	23.89
305.452	-25.26
305.666	83.28
305.88	83.28
306.094	93.52
306.308	62.8
306.522	105.81
306.736	77.14
306.95	75.09
307.164	-35.5
307.379	-4.78
307.593	111.96
307.807	99.67
308.021	87.38
308.235	52.56
308.449	-70.31
308.663	44.37
308.877	226.64
309.091	56.66
309.305	30.04
309.519	-62.12
309.733	120.15
309.947	-31.4
310.161	36.18
310.374	83.28
310.588	64.85
310.802	-27.31
311.016	-80.55
311.23	32.08
311.444	-111.27
311.658	-21.16
311.872	46.42
312.085	122.2
312.299	122.2
312.513	60.76
312.727	30.04
312.941	-41.64
313.154	13.65
313.368	-21.16
313.582	13.65
313.796	27.99
314.009	56.66
314.223	114
314.437	5.46
314.651	44.37
314.864	-60.07
315.078	-49.83
315.292	-10.92
315.505	-39.59
315.719	62.8
315.933	103.76
316.146	15.7
316.36	79.19
316.573	124.24
316.787	99.67
317.001	7.51
317.214	48.47
317.428	73.04
317.641	3.41
317.855	-45.74
318.068	79.19
318.282	-55.98
318.495	23.89
318.709	101.72
318.922	-58.03
319.136	101.72
319.349	93.52
319.563	-29.35
319.776	54.61
319.99	-2.73
320.203	38.23
320.417	79.19
320.63	75.09
320.843	185.68
321.057	23.89
321.27	71
321.483	32.08
321.697	89.43
321.91	68.95
322.124	85.33
322.337	111.96
322.55	5.46
322.763	54.61
322.977	-90.79
323.19	-2.73
323.403	-17.07
323.617	52.56
323.83	89.43
324.043	-21.16
324.256	11.61
324.469	-21.16
324.683	73.04
324.896	-35.5
325.109	-25.26
325.322	-43.69
325.535	71
325.748	79.19
325.962	46.42
326.175	56.66
326.388	-0.68
326.601	97.62
326.814	73.04
327.027	54.61
327.24	120.15
327.453	-45.74
327.666	-19.11
327.879	167.25
328.092	89.43
328.305	58.71
328.518	-12.97
328.731	-17.07
328.944	34.13
329.157	48.47
329.37	79.19
329.583	175.44
329.796	85.33
330.009	-58.03
330.222	27.99
330.435	97.62
330.648	95.57
330.861	40.28
331.073	38.23
331.286	42.32
331.499	-78.51
331.712	-27.31
331.925	-58.03
332.138	120.15
332.35	93.52
332.563	-39.59
332.776	44.37
332.989	-29.35
333.202	44.37
333.414	128.34
333.627	73.04
333.84	-29.35
334.053	5.46
334.265	17.75
334.478	-25.26
334.691	-10.92
334.903	34.13
335.116	-39.59
335.329	-15.02
335.541	56.66
335.754	148.82
335.966	36.18
336.179	83.28
336.392	54.61
336.604	36.18
336.817	136.53
337.029	60.76
337.242	-0.68
337.454	93.52
337.667	91.48
337.88	171.35
338.092	54.61
338.305	79.19
338.517	19.8
338.729	42.32
338.942	148.82
339.154	-4.78
339.367	-78.51
339.579	58.71
339.792	-10.92
340.004	150.87
340.217	15.7
340.429	83.28
340.641	-68.27
340.854	-53.93
341.066	-55.98
341.278	97.62
341.491	202.07
341.703	-0.68
341.915	-45.74
342.128	30.04
342.34	25.94
342.552	17.75
342.764	-37.55
342.977	-4.78
343.189	73.04
343.401	13.65
343.613	-72.36
343.826	75.09
344.038	-107.18
344.25	-2.73
344.462	-66.22
344.674	64.85
344.886	19.8
345.099	-31.4
345.311	103.76
345.523	-62.12
345.735	-80.55
345.947	62.8
346.159	13.65
346.371	46.42
346.583	-37.55
346.795	132.44
347.007	15.7
347.219	-33.45
347.431	7.51
347.643	140.63
347.855	-35.5
348.067	126.29
348.279	-96.94
348.491	17.75
348.703	38.23
348.915	71
349.127	40.28
349.339	7.51
349.551	3.41
349.763	77.14
349.975	118.1
350.187	48.47
350.399	152.91
350.61	42.32
350.822	32.08
351.034	17.75
351.246	48.47
351.458	101.72
351.669	38.23
351.881	27.99
352.093	132.44
352.305	58.71
352.517	-58.03
352.728	62.8
352.94	73.04
353.152	87.38
353.363	1.37
353.575	60.76
353.787	107.86
353.999	38.23
354.21	154.96
354.422	9.56
354.633	44.37
354.845	52.56
355.057	79.19
355.268	21.84
355.48	81.24
355.692	-12.97
355.903	40.28
356.115	-21.16
356.326	-101.03
356.538	146.77
356.749	91.48
356.961	185.68
357.172	21.84
357.384	-27.31
357.595	171.35
357.807	-41.64
358.018	11.61
358.23	27.99
358.441	140.63
358.653	91.48
358.864	19.8
359.075	-17.07
359.287	73.04
359.498	122.2
359.709	40.28
359.921	-37.55
360.132	46.42
360.344	-6.83
360.555	-4.78
360.766	-39.59
360.977	68.95
361.189	62.8
361.4	-58.03
361.611	-6.83
361.823	87.38
362.034	58.71
362.245	-86.7
362.456	36.18
362.667	30.04
362.879	7.51
363.09	-17.07
363.301	73.04
363.512	-10.92
363.723	-25.26
363.935	5.46
364.146	191.83
364.357	19.8
364.568	44.37
364.779	46.42
364.99	163.15
365.201	34.13
365.412	103.76
365.623	-25.26
365.834	32.08
366.045	111.96
366.256	36.18
366.467	40.28
366.678	48.47
366.889	25.94
367.1	-21.16
367.311	93.52
367.522	-33.45
367.733	99.67
367.944	60.76
368.155	114
368.366	77.14
368.577	83.28
368.788	48.47
368.999	-19.11
369.209	-64.17
369.42	257.36
369.631	238.93
369.842	107.86
370.053	13.65
370.264	64.85
370.474	-84.65
370.685	-37.55
370.896	5.46
371.107	171.35
371.317	62.8
371.528	11.61
371.739	118.1
371.95	27.99
372.16	73.04
372.371	-45.74
372.582	30.04
372.792	62.8
373.003	99.67
373.214	77.14
373.424	101.72
373.635	-0.68
373.846	122.2
374.056	52.56
374.267	-23.21
374.477	54.61
374.688	-68.27
374.898	32.08
375.109	44.37
375.319	-2.73
375.53	103.76
375.74	89.43
375.951	93.52
376.161	48.47
376.372	83.28
376.582	-25.26
376.793	107.86
377.003	-35.5
377.214	68.95
377.424	60.76
377.635	-2.73
377.845	-29.35
378.055	99.67
378.266	-43.69
378.476	-29.35
378.686	71
378.897	-35.5
379.107	111.96
379.317	97.62
379.528	-39.59
379.738	42.32
379.948	-47.79
380.158	97.62
380.369	99.67
380.579	52.56
380.789	79.19
380.999	101.72
381.21	107.86
381.42	136.53
381.63	25.94
381.84	32.08
382.05	81.24
382.261	87.38
382.471	136.53
382.681	-68.27
382.891	87.38
383.101	-35.5
383.311	-150.18
383.521	-58.03
383.731	157.01
383.941	103.76
384.151	124.24
384.361	-15.02
384.571	23.89
384.781	50.52
384.991	128.34
385.201	136.53
385.411	42.32
385.621	111.96
385.831	68.95
386.041	-15.02
386.251	75.09
386.461	97.62
386.671	-21.16
386.881	81.24
387.091	9.56
387.301	105.81
387.511	71
387.72	109.91
387.93	144.72
388.14	-86.7
388.35	64.85
388.56	169.3
388.769	109.91
388.979	-27.31
389.189	-10.92
389.399	58.71
389.609	83.28
389.818	62.8
390.028	34.13
390.238	42.32
390.447	-39.59
390.657	111.96
390.867	42.32
391.076	-88.75
391.286	116.05
391.496	-60.07
391.705	56.66
391.915	130.39
392.125	136.53
392.334	-10.92
392.544	124.24
392.753	52.56
392.963	-58.03
393.172	-8.87
393.382	-2.73
393.591	204.11
393.801	-12.97
394.01	181.59
394.22	95.57
394.429	23.89
394.639	17.75
394.848	52.56
395.058	105.81
395.267	-0.68
395.477	85.33
395.686	146.77
395.895	181.59
396.105	167.25
396.314	114
396.524	48.47
396.733	38.23
396.942	124.24
397.152	32.08
397.361	42.32
397.57	64.85
397.78	-35.5
397.989	87.38
398.198	185.68
398.407	42.32
398.617	103.76
398.826	3.41
399.035	5.46
399.244	40.28
399.453	58.71
399.663	54.61
399.872	85.33
400.081	-60.07
400.29	103.76
400.499	-94.89
400.708	48.47
400.917	21.84
401.127	42.32
401.336	-12.97
401.545	187.73
401.754	71
401.963	68.95
402.172	75.09
402.381	-84.65
402.59	36.18
402.799	68.95
403.008	56.66
403.217	-12.97
403.426	56.66
403.635	-68.27
403.844	60.76
404.053	32.08
404.262	7.51
404.471	130.39
404.68	66.9
404.888	5.46
405.097	-8.87
405.306	40.28
405.515	105.81
405.724	-53.93
405.933	64.85
406.142	32.08
406.35	111.96
406.559	75.09
406.768	19.8
406.977	103.76
407.185	103.76
407.394	62.8
407.603	3.41
407.812	64.85
408.02	114
408.229	77.14
408.438	68.95
408.646	-70.31
408.855	38.23
409.064	52.56
409.272	66.9
409.481	17.75
409.69	-70.31
409.898	-21.16
410.107	83.28
410.315	81.24
410.524	77.14
410.733	-15.02
410.941	105.81
411.15	71
411.358	77.14
411.567	154.96
411.775	56.66
411.984	3.41
412.192	140.63
412.401	3.41
412.609	163.15
412.818	148.82
413.026	122.2
413.234	-2.73
413.443	60.76
413.651	54.61
413.86	7.51
414.068	62.8
414.276	126.29
414.485	36.18
414.693	173.39
414.901	140.63
415.11	93.52
415.318	-6.83
415.526	-4.78
415.734	99.67
415.943	17.75
416.151	52.56
416.359	132.44
416.567	83.28
416.776	189.78
416.984	64.85
417.192	107.86
417.4	-29.35
417.608	11.61
417.817	-10.92
418.025	116.05
418.233	193.87
418.441	40.28
418.649	3.41
418.857	9.56
419.065	79.19
419.273	3.41
419.481	77.14
419.689	95.57
419.897	46.42
420.105	-19.11
420.313	114
420.521	111.96
420.729	114
420.937	44.37
421.145	-39.59
421.353	142.68
421.561	114
421.769	64.85
421.977	-4.78
422.185	105.81
422.393	66.9
422.601	81.24
422.809	62.8
423.017	64.85
423.224	83.28
423.432	107.86
423.64	-39.59
423.848	83.28
424.056	-31.4
424.263	120.15
424.471	75.09
424.679	75.09
424.887	50.52
425.094	85.33
425.302	5.46
425.51	32.08
425.718	23.89
425.925	99.67
426.133	-8.87
426.341	226.64
426.548	7.51
426.756	3.41
426.964	83.28
427.171	-66.22
427.379	48.47
427.586	134.48
427.794	48.47
428.001	150.87
428.209	179.54
428.417	167.25
428.624	68.95
428.832	93.52
429.039	130.39
429.247	32.08
429.454	91.48
429.662	245.07
429.869	191.83
430.076	116.05
430.284	114
430.491	118.1
430.699	169.3
430.906	204.11
431.114	103.76
431.321	93.52
431.528	73.04
431.736	132.44
431.943	58.71
432.15	142.68
432.358	122.2
432.565	298.32
432.772	42.32
432.979	238.93
433.187	87.38
433.394	177.49
433.601	169.3
433.808	259.41
434.016	243.03
434.223	138.58
434.43	224.59
434.637	271.7
434.844	243.03
435.052	185.68
435.259	220.5
435.466	361.81
435.673	257.36
435.88	269.65
436.087	288.08
436.294	388.43
436.501	243.03
436.708	271.7
436.915	298.32
437.122	357.71
437.329	187.73
437.537	224.59
437.743	243.03
437.95	337.23
438.157	333.14
438.364	273.75
438.571	378.19
438.778	486.73
438.985	408.91
439.192	396.62
439.399	449.87
439.606	453.97
439.813	527.69
440.02	513.36
440.227	623.95
440.433	523.6
440.64	537.93
440.847	447.82
441.054	580.94
441.261	687.43
441.467	585.04
441.674	623.95
441.881	662.86
442.088	626
442.294	709.96
442.501	775.5
442.708	779.59
442.914	824.65
443.121	816.46
443.328	845.13
443.534	904.52
443.741	916.81
443.948	769.35
444.154	976.2
444.361	1111.36
444.568	1006.92
444.774	1037.64
444.981	941.38
445.187	1142.08
445.394	1111.36
445.6	1176.9
445.807	1344.83
446.013	1281.35
446.22	1158.47
446.426	1355.07
446.633	1465.66
446.839	1658.17
447.046	1353.02
447.252	1686.84
447.459	1627.45
447.665	1604.92
447.871	1770.81
448.078	1887.54
448.284	1838.39
448.491	1895.74
448.697	2155.83
448.903	2153.78
449.11	2186.55
449.316	2135.35
449.522	2434.35
449.728	2374.96
449.935	2450.74
450.141	2446.64
450.347	2741.55
450.553	2651.44
450.76	2800.94
450.966	2909.48
451.172	3087.65
451.378	3013.93
451.584	3200.29
451.791	3497.25
451.997	3460.38
452.203	3429.66
452.409	3757.34
452.615	3966.23
452.821	3788.06
453.027	3925.27
453.233	4506.9
453.44	4271.38
453.646	4449.55
453.852	4703.5
454.058	4760.84
454.264	4928.78
454.47	5215.49
454.676	5309.7
454.882	5772.54
455.088	5274.88
455.294	5780.73
455.5	6161.66
455.705	6444.27
455.911	6550.77
456.117	6802.67
456.323	6960.36
456.529	7056.62
456.735	7681.25
456.941	7718.11
457.147	8283.35
457.352	8281.3
457.558	8422.61
457.764	9116.87
457.97	9440.45
458.176	9743.55
458.381	10267.83
458.587	10423.48
458.793	10894.51
458.999	10978.48
459.204	12291.23
459.41	12840.08
459.616	12848.27
459.821	13626.5
460.027	13851.78
460.233	14480.5
460.438	14689.4
460.644	15412.33
460.85	15662.18
461.055	16192.61
461.261	16989.27
461.466	16583.77
461.672	16819.28
461.878	19323.95
462.083	18891.83
462.289	18873.4
462.494	20040.74
462.7	19975.2
462.905	20372.51
463.111	22178.82
463.316	23018.49
463.522	23413.74
463.727	24032.23
463.932	25191.38
464.138	26018.76
464.343	27157.43
464.549	27083.7
464.754	28971.93
464.959	29784.97
465.165	30485.38
465.37	30077.83
465.575	30116.75
465.781	32191.34
465.986	33495.89
466.191	32867.17
466.397	33012.57
466.602	31869.81
466.807	33874.77
467.012	34636.61
467.218	35271.48
467.423	35423.03
467.628	36399.91
467.833	37950.23
468.038	37573.4
468.244	36549.42
468.449	38750.98
468.654	37585.69
468.859	37462.81
469.064	37966.61
469.269	36678.44
