Data from USB4F104151__280__11-20-53-630.txt Node

Date: Wed Feb 26 11:20:53 EST 2025
User: louis
Spectrometer: USB4F10415
Trigger mode: 4
Integration Time (sec): 1.000000E-1
Scans to average: 1
Electric dark correction enabled: true
Nonlinearity correction enabled: false
Boxcar width: 0
XAxis mode: Wavelengths
Number of Pixels in Spectrum: 3648
>>>>>Begin Spectral Data<<<<<
178.204	-385.87
178.424	-385.87
178.644	-385.87
178.864	-418.64
179.084	-453.45
179.304	-0.85
179.524	-41.81
179.744	13.48
179.964	66.73
180.184	-31.57
180.404	13.48
180.624	-50
180.844	-41.81
181.064	-47.96
181.283	54.44
181.503	-33.62
181.723	99.5
181.943	-148.31
182.163	197.8
182.383	-86.87
182.602	74.92
182.822	54.44
183.042	99.5
183.262	-54.1
183.482	-41.81
183.701	3.24
183.921	3.24
184.141	-21.33
184.361	7.34
184.58	91.31
184.8	58.54
185.02	-111.44
185.239	54.44
185.459	58.54
185.679	76.97
185.898	-50
186.118	111.78
186.338	33.96
186.557	72.87
186.777	-15.19
186.997	1.19
187.216	17.58
187.436	193.7
187.655	91.31
187.875	58.54
188.095	68.78
188.314	169.13
188.534	97.45
188.753	31.91
188.973	13.48
189.192	99.5
189.412	27.82
189.631	-21.33
189.851	85.16
190.07	181.42
190.29	-60.24
190.509	-33.62
190.729	17.58
190.948	173.22
191.168	224.42
191.387	83.11
191.607	-43.86
191.826	19.63
192.045	-13.14
192.265	-35.67
192.484	50.35
192.704	13.48
192.923	-45.91
193.142	158.89
193.362	36.01
193.581	165.03
193.8	33.96
194.02	103.59
194.239	58.54
194.458	54.44
194.678	13.48
194.897	-45.91
195.116	72.87
195.335	126.12
195.555	72.87
195.774	-25.43
195.993	52.39
196.212	48.3
196.432	-70.48
196.651	-19.29
196.87	-4.95
197.089	150.7
197.308	36.01
197.528	-29.52
197.747	-90.96
197.966	7.34
198.185	181.42
198.404	-154.45
198.623	101.55
198.842	136.36
199.062	79.02
199.281	66.73
199.5	44.2
199.719	11.43
199.938	83.11
200.157	79.02
200.376	21.67
200.595	89.26
200.814	11.43
201.033	-27.48
201.252	175.27
201.471	23.72
201.69	54.44
201.909	19.63
202.128	95.4
202.347	105.64
202.566	-13.14
202.785	-78.68
203.004	-23.38
203.223	183.46
203.442	17.58
203.661	-0.85
203.879	70.83
204.098	103.59
204.317	-68.44
204.536	122.02
204.755	56.49
204.974	29.87
205.193	-9.05
205.411	146.6
205.63	70.83
205.849	66.73
206.068	1.19
206.287	-29.52
206.505	74.92
206.724	58.54
206.943	-37.72
207.162	-4.95
207.381	68.78
207.599	128.17
207.818	40.11
208.037	-52.05
208.255	-54.1
208.474	21.67
208.693	109.74
208.911	36.01
209.13	13.48
209.349	46.25
209.567	42.15
209.786	95.4
210.005	66.73
210.223	50.35
210.442	-37.72
210.661	70.83
210.879	50.35
211.098	-4.95
211.316	7.34
211.535	11.43
211.753	54.44
211.972	58.54
212.191	21.67
212.409	25.77
212.628	91.31
212.846	-9.05
213.065	136.36
213.283	23.72
213.502	19.63
213.72	56.49
213.938	23.72
214.157	62.63
214.375	126.12
214.594	9.39
214.812	42.15
215.031	-27.48
215.249	-21.33
215.467	29.87
215.686	-0.85
215.904	52.39
216.122	97.45
216.341	150.7
216.559	-9.05
216.778	50.35
216.996	179.37
217.214	56.49
217.432	-0.85
217.651	-29.52
217.869	79.02
218.087	76.97
218.306	-66.39
218.524	38.06
218.742	42.15
218.96	72.87
219.179	17.58
219.397	3.24
219.615	218.28
219.833	103.59
220.051	17.58
220.27	103.59
220.488	103.59
220.706	-7
220.924	27.82
221.142	-15.19
221.36	91.31
221.578	44.2
221.796	52.39
222.015	91.31
222.233	15.53
222.451	181.42
222.669	-56.15
222.887	52.39
223.105	-84.82
223.323	17.58
223.541	-50
223.759	5.29
223.977	85.16
224.195	156.84
224.413	72.87
224.631	83.11
224.849	29.87
225.067	259.24
225.285	-0.85
225.503	-33.62
225.721	-93.01
225.939	66.73
226.157	103.59
226.375	165.03
226.592	-4.95
226.81	-13.14
227.028	154.79
227.246	89.26
227.464	-11.09
227.682	117.93
227.9	74.92
228.117	54.44
228.335	-4.95
228.553	74.92
228.771	-37.72
228.989	21.67
229.206	76.97
229.424	-7
229.642	-62.29
229.86	1.19
230.077	134.31
230.295	1.19
230.513	91.31
230.731	136.36
230.948	193.7
231.166	111.78
231.384	33.96
231.601	-39.76
231.819	101.55
232.037	19.63
232.254	-9.05
232.472	-25.43
232.689	5.29
232.907	85.16
233.125	-37.72
233.342	-15.19
233.56	58.54
233.777	25.77
233.995	40.11
234.213	36.01
234.43	-15.19
234.648	-11.09
234.865	-62.29
235.083	9.39
235.3	33.96
235.518	25.77
235.735	31.91
235.953	68.78
236.17	40.11
236.388	-29.52
236.605	42.15
236.822	101.55
237.04	72.87
237.257	85.16
237.475	-35.67
237.692	68.78
237.909	27.82
238.127	-33.62
238.344	36.01
238.562	48.3
238.779	-19.29
238.996	-72.53
239.214	23.72
239.431	160.94
239.648	-27.48
239.865	91.31
240.083	48.3
240.3	-7
240.517	-25.43
240.735	25.77
240.952	156.84
241.169	36.01
241.386	130.22
241.603	-45.91
241.821	-90.96
242.038	138.41
242.255	113.83
242.472	19.63
242.689	13.48
242.907	70.83
243.124	31.91
243.341	44.2
243.558	-35.67
243.775	-152.4
243.992	-62.29
244.209	17.58
244.426	134.31
244.643	83.11
244.86	33.96
245.078	101.55
245.295	83.11
245.512	-11.09
245.729	1.19
245.946	66.73
246.163	5.29
246.38	-31.57
246.597	91.31
246.814	85.16
247.031	21.67
247.248	-4.95
247.464	72.87
247.681	33.96
247.898	70.83
248.115	89.26
248.332	-70.48
248.549	58.54
248.766	109.74
248.983	64.68
249.2	52.39
249.417	115.88
249.633	-25.43
249.85	91.31
250.067	19.63
250.284	-4.95
250.501	76.97
250.717	76.97
250.934	-64.34
251.151	-0.85
251.368	9.39
251.585	5.29
251.801	95.4
252.018	-25.43
252.235	126.12
252.451	-103.25
252.668	-41.81
252.885	79.02
253.102	87.21
253.318	-27.48
253.535	33.96
253.752	33.96
253.968	-47.96
254.185	-52.05
254.401	-7
254.618	56.49
254.835	-45.91
255.051	115.88
255.268	56.49
255.484	-19.29
255.701	44.2
255.917	38.06
256.134	-74.58
256.351	124.07
256.567	-15.19
256.784	87.21
257	-68.44
257.217	105.64
257.433	64.68
257.65	109.74
257.866	144.55
258.082	-4.95
258.299	33.96
258.515	52.39
258.732	25.77
258.948	36.01
259.165	5.29
259.381	19.63
259.597	109.74
259.814	58.54
260.03	-37.72
260.246	-17.24
260.463	122.02
260.679	187.56
260.895	70.83
261.112	27.82
261.328	117.93
261.544	-66.39
261.761	138.41
261.977	-11.09
262.193	-37.72
262.409	66.73
262.626	42.15
262.842	15.53
263.058	27.82
263.274	132.26
263.49	13.48
263.707	33.96
263.923	99.5
264.139	-60.24
264.355	3.24
264.571	33.96
264.787	105.64
265.004	64.68
265.22	-0.85
265.436	-37.72
265.652	-25.43
265.868	33.96
266.084	-31.57
266.3	52.39
266.516	-47.96
266.732	50.35
266.948	23.72
267.164	-11.09
267.38	46.25
267.596	58.54
267.812	124.07
268.028	44.2
268.244	-25.43
268.46	23.72
268.676	21.67
268.892	91.31
269.108	7.34
269.324	-27.48
269.54	-115.54
269.756	72.87
269.972	-107.35
270.188	-31.57
270.403	-54.1
270.619	-45.91
270.835	74.92
271.051	13.48
271.267	-25.43
271.483	-37.72
271.698	128.17
271.914	89.26
272.13	33.96
272.346	-13.14
272.562	11.43
272.777	126.12
272.993	-15.19
273.209	38.06
273.425	119.98
273.64	-70.48
273.856	44.2
274.072	-21.33
274.287	-58.2
274.503	54.44
274.719	58.54
274.934	-68.44
275.15	-60.24
275.366	15.53
275.581	42.15
275.797	-15.19
276.012	7.34
276.228	-31.57
276.444	7.34
276.659	126.12
276.875	-13.14
277.09	33.96
277.306	19.63
277.521	72.87
277.737	31.91
277.952	87.21
278.168	36.01
278.383	70.83
278.599	74.92
278.814	79.02
279.03	-29.52
279.245	103.59
279.461	19.63
279.676	146.6
279.892	-90.96
280.107	13.48
280.322	-29.52
280.538	46.25
280.753	29.87
280.969	68.78
281.184	-11.09
281.399	144.55
281.615	-37.72
281.83	54.44
282.045	-66.39
282.26	50.35
282.476	-2.9
282.691	95.4
282.906	44.2
283.122	-9.05
283.337	-90.96
283.552	9.39
283.767	5.29
283.983	91.31
284.198	152.74
284.413	66.73
284.628	-64.34
284.843	19.63
285.058	19.63
285.274	-11.09
285.489	21.67
285.704	119.98
285.919	1.19
286.134	-37.72
286.349	42.15
286.564	42.15
286.779	185.51
286.995	-29.52
287.21	-88.92
287.425	38.06
287.64	-33.62
287.855	27.82
288.07	-109.4
288.285	185.51
288.5	107.69
288.715	46.25
288.93	36.01
289.145	29.87
289.36	74.92
289.575	17.58
289.79	107.69
290.004	-35.67
290.219	150.7
290.434	46.25
290.649	-56.15
290.864	-15.19
291.079	-31.57
291.294	11.43
291.509	-2.9
291.724	54.44
291.938	-2.9
292.153	-17.24
292.368	31.91
292.583	101.55
292.798	46.25
293.012	87.21
293.227	103.59
293.442	-56.15
293.657	85.16
293.871	38.06
294.086	9.39
294.301	195.75
294.516	115.88
294.73	60.59
294.945	-52.05
295.16	74.92
295.374	195.75
295.589	126.12
295.804	5.29
296.018	54.44
296.233	66.73
296.447	95.4
296.662	5.29
296.877	89.26
297.091	132.26
297.306	11.43
297.52	-19.29
297.735	91.31
297.949	-0.85
298.164	83.11
298.378	58.54
298.593	25.77
298.807	-29.52
299.022	15.53
299.236	87.21
299.451	-17.24
299.665	33.96
299.88	-21.33
300.094	128.17
300.309	5.29
300.523	-2.9
300.737	-15.19
300.952	85.16
301.166	140.46
301.381	-54.1
301.595	23.72
301.809	103.59
302.024	9.39
302.238	-27.48
302.452	76.97
302.667	38.06
302.881	134.31
303.095	46.25
303.309	54.44
303.524	25.77
303.738	38.06
303.952	-47.96
304.166	107.69
304.381	-105.3
304.595	152.74
304.809	-72.53
305.023	76.97
305.237	-23.38
305.452	72.87
305.666	48.3
305.88	79.02
306.094	58.54
306.308	103.59
306.522	87.21
306.736	46.25
306.95	72.87
307.164	44.2
307.379	-15.19
307.593	56.49
307.807	171.18
308.021	85.16
308.235	60.59
308.449	-86.87
308.663	19.63
308.877	175.27
309.091	19.63
309.305	66.73
309.519	-101.2
309.733	40.11
309.947	-33.62
310.161	91.31
310.374	117.93
310.588	111.78
310.802	-64.34
311.016	27.82
311.23	-9.05
311.444	7.34
311.658	-37.72
311.872	29.87
312.085	91.31
312.299	44.2
312.513	171.18
312.727	25.77
312.941	-47.96
313.154	79.02
313.368	91.31
313.582	17.58
313.796	21.67
314.009	-2.9
314.223	103.59
314.437	103.59
314.651	109.74
314.864	42.15
315.078	5.29
315.292	-52.05
315.505	-37.72
315.719	91.31
315.933	13.48
316.146	87.21
316.36	-25.43
316.573	97.45
316.787	29.87
317.001	87.21
317.214	-47.96
317.428	89.26
317.641	-107.35
317.855	46.25
318.068	-39.76
318.282	140.46
318.495	103.59
318.709	64.68
318.922	42.15
319.136	74.92
319.349	160.94
319.563	1.19
319.776	89.26
319.99	-74.58
320.203	70.83
320.417	-33.62
320.63	91.31
320.843	74.92
321.057	27.82
321.27	76.97
321.483	50.35
321.697	68.78
321.91	70.83
322.124	81.07
322.337	107.69
322.55	-39.76
322.763	60.59
322.977	15.53
323.19	-27.48
323.403	101.55
323.617	48.3
323.83	56.49
324.043	9.39
324.256	-17.24
324.469	9.39
324.683	95.4
324.896	-76.63
325.109	-25.43
325.322	-101.2
325.535	117.93
325.748	101.55
325.962	31.91
326.175	93.35
326.388	66.73
326.601	19.63
326.814	81.07
327.027	42.15
327.24	105.64
327.453	-101.2
327.666	64.68
327.879	115.88
328.092	105.64
328.305	11.43
328.518	-0.85
328.731	-52.05
328.944	-27.48
329.157	83.11
329.37	-27.48
329.583	208.04
329.796	140.46
330.009	-56.15
330.222	93.35
330.435	76.97
330.648	68.78
330.861	54.44
331.073	54.44
331.286	97.45
331.499	79.02
331.712	11.43
331.925	5.29
332.138	36.01
332.35	72.87
332.563	-37.72
332.776	124.07
332.989	-25.43
333.202	46.25
333.414	19.63
333.627	95.4
333.84	29.87
334.053	27.82
334.265	-35.67
334.478	62.63
334.691	7.34
334.903	17.58
335.116	-76.63
335.329	-17.24
335.541	56.49
335.754	119.98
335.966	-45.91
336.179	58.54
336.392	-54.1
336.604	-47.96
336.817	50.35
337.029	99.5
337.242	40.11
337.454	115.88
337.667	23.72
337.88	113.83
338.092	111.78
338.305	62.63
338.517	-4.95
338.729	66.73
338.942	165.03
339.154	-25.43
339.367	11.43
339.579	68.78
339.792	-19.29
340.004	81.07
340.217	42.15
340.429	17.58
340.641	54.44
340.854	-7
341.066	-41.81
341.278	128.17
341.491	226.47
341.703	33.96
341.915	-15.19
342.128	105.64
342.34	124.07
342.552	17.58
342.764	89.26
342.977	7.34
343.189	50.35
343.401	7.34
343.613	-111.44
343.826	23.72
344.038	-45.91
344.25	44.2
344.462	11.43
344.674	105.64
344.886	9.39
345.099	29.87
345.311	-17.24
345.523	-119.64
345.735	-56.15
345.947	58.54
346.159	76.97
346.371	56.49
346.583	62.63
346.795	230.57
347.007	-88.92
347.219	128.17
347.431	-7
347.643	144.55
347.855	-27.48
348.067	105.64
348.279	-27.48
348.491	7.34
348.703	64.68
348.915	-0.85
349.127	7.34
349.339	-4.95
349.551	-62.29
349.763	48.3
349.975	19.63
350.187	87.21
350.399	130.22
350.61	81.07
350.822	-58.2
351.034	-13.14
351.246	-9.05
351.458	93.35
351.669	134.31
351.881	107.69
352.093	148.65
352.305	111.78
352.517	50.35
352.728	93.35
352.94	76.97
353.152	126.12
353.363	-74.58
353.575	42.15
353.787	144.55
353.999	70.83
354.21	140.46
354.422	-35.67
354.633	97.45
354.845	-19.29
355.057	5.29
355.268	148.65
355.48	113.83
355.692	-27.48
355.903	11.43
356.115	-11.09
356.326	-121.68
356.538	146.6
356.749	-0.85
356.961	122.02
357.172	72.87
357.384	-39.76
357.595	171.18
357.807	-43.86
358.018	-15.19
358.23	31.91
358.441	124.07
358.653	-4.95
358.864	17.58
359.075	-29.52
359.287	95.4
359.498	76.97
359.709	79.02
359.921	42.15
360.132	25.77
360.344	76.97
360.555	-97.11
360.766	91.31
360.977	-25.43
361.189	138.41
361.4	-7
361.611	89.26
361.823	181.42
362.034	60.59
362.245	-21.33
362.456	1.19
362.667	83.11
362.879	-58.2
363.09	44.2
363.301	-19.29
363.512	97.45
363.723	3.24
363.935	-13.14
364.146	128.17
364.357	42.15
364.568	25.77
364.779	-64.34
364.99	167.08
365.201	-97.11
365.412	113.83
365.623	-90.96
365.834	146.6
366.045	-31.57
366.256	146.6
366.467	29.87
366.678	17.58
366.889	-4.95
367.1	5.29
367.311	113.83
367.522	-56.15
367.733	81.07
367.944	68.78
368.155	-0.85
368.366	17.58
368.577	38.06
368.788	64.68
368.999	-50
369.209	17.58
369.42	177.32
369.631	212.14
369.842	132.26
370.053	52.39
370.264	177.32
370.474	-19.29
370.685	46.25
370.896	44.2
371.107	160.94
371.317	72.87
371.528	68.78
371.739	79.02
371.95	91.31
372.16	7.34
372.371	-95.06
372.582	-0.85
372.792	54.44
373.003	23.72
373.214	9.39
373.424	29.87
373.635	-31.57
373.846	93.35
374.056	7.34
374.267	48.3
374.477	79.02
374.688	-50
374.898	50.35
375.109	48.3
375.319	3.24
375.53	99.5
375.74	150.7
375.951	5.29
376.161	60.59
376.372	115.88
376.582	-15.19
376.793	17.58
377.003	-4.95
377.214	-66.39
377.424	7.34
377.635	13.48
377.845	15.53
378.055	99.5
378.266	-25.43
378.476	62.63
378.686	13.48
378.897	27.82
379.107	93.35
379.317	64.68
379.528	-56.15
379.738	76.97
379.948	-43.86
380.158	119.98
380.369	-27.48
380.579	42.15
380.789	5.29
380.999	70.83
381.21	40.11
381.42	136.36
381.63	25.77
381.84	171.18
382.05	21.67
382.261	60.59
382.471	154.79
382.681	-64.34
382.891	38.06
383.101	93.35
383.311	-15.19
383.521	60.59
383.731	1.19
383.941	62.63
384.151	79.02
384.361	-27.48
384.571	3.24
384.781	162.98
384.991	154.79
385.201	185.51
385.411	70.83
385.621	21.67
385.831	58.54
386.041	103.59
386.251	72.87
386.461	19.63
386.671	-9.05
386.881	-9.05
387.091	-80.72
387.301	195.75
387.511	7.34
387.72	91.31
387.93	25.77
388.14	-72.53
388.35	31.91
388.56	50.35
388.769	167.08
388.979	-39.76
389.189	5.29
389.399	72.87
389.609	117.93
389.818	72.87
390.028	40.11
390.238	117.93
390.447	36.01
390.657	11.43
390.867	31.91
391.076	-54.1
391.286	66.73
391.496	-2.9
391.705	23.72
391.915	79.02
392.125	140.46
392.334	-70.48
392.544	128.17
392.753	33.96
392.963	-54.1
393.172	52.39
393.382	64.68
393.591	222.38
393.801	46.25
394.01	140.46
394.22	111.78
394.429	7.34
394.639	42.15
394.848	3.24
395.058	-9.05
395.267	5.29
395.477	99.5
395.686	79.02
395.895	191.66
396.105	165.03
396.314	97.45
396.524	66.73
396.733	-2.9
396.942	46.25
397.152	105.64
397.361	128.17
397.57	74.92
397.78	66.73
397.989	150.7
398.198	160.94
398.407	23.72
398.617	5.29
398.826	79.02
399.035	31.91
399.244	99.5
399.453	46.25
399.663	-7
399.872	21.67
400.081	-78.68
400.29	136.36
400.499	-111.44
400.708	42.15
400.917	52.39
401.127	74.92
401.336	79.02
401.545	187.56
401.754	54.44
401.963	81.07
402.172	44.2
402.381	-2.9
402.59	23.72
402.799	89.26
403.008	115.88
403.217	91.31
403.426	126.12
403.635	-113.49
403.844	27.82
404.053	-17.24
404.262	-9.05
404.471	115.88
404.68	97.45
404.888	50.35
405.097	-19.29
405.306	126.12
405.515	107.69
405.724	33.96
405.933	81.07
406.142	103.59
406.35	146.6
406.559	9.39
406.768	-13.14
406.977	162.98
407.185	15.53
407.394	107.69
407.603	-41.81
407.812	81.07
408.02	191.66
408.229	54.44
408.438	9.39
408.646	-113.49
408.855	-27.48
409.064	58.54
409.272	48.3
409.481	-0.85
409.69	-2.9
409.898	11.43
410.107	124.07
410.315	95.4
410.524	15.53
410.733	83.11
410.941	25.77
411.15	68.78
411.358	-0.85
411.567	144.55
411.775	74.92
411.984	29.87
412.192	103.59
412.401	56.49
412.609	134.31
412.818	81.07
413.026	138.41
413.234	60.59
413.443	130.22
413.651	-47.96
413.86	17.58
414.068	54.44
414.276	183.46
414.485	17.58
414.693	156.84
414.901	189.61
415.11	1.19
415.318	1.19
415.526	52.39
415.734	97.45
415.943	62.63
416.151	201.9
416.359	33.96
416.567	5.29
416.776	21.67
416.984	124.07
417.192	111.78
417.4	-15.19
417.608	21.67
417.817	-4.95
418.025	27.82
418.233	193.7
418.441	-0.85
418.649	-105.3
418.857	76.97
419.065	124.07
419.273	-2.9
419.481	79.02
419.689	68.78
419.897	-74.58
420.105	-39.76
420.313	87.21
420.521	107.69
420.729	177.32
420.937	-11.09
421.145	-11.09
421.353	99.5
421.561	103.59
421.769	54.44
421.977	-9.05
422.185	93.35
422.393	93.35
422.601	99.5
422.809	-0.85
423.017	64.68
423.224	70.83
423.432	138.41
423.64	29.87
423.848	173.22
424.056	-17.24
424.263	146.6
424.471	93.35
424.679	87.21
424.887	-45.91
425.094	130.22
425.302	60.59
425.51	64.68
425.718	54.44
425.925	58.54
426.133	68.78
426.341	205.99
426.548	128.17
426.756	111.78
426.964	48.3
427.171	17.58
427.379	93.35
427.586	97.45
427.794	107.69
428.001	83.11
428.209	199.85
428.417	234.66
428.624	103.59
428.832	162.98
429.039	52.39
429.247	29.87
429.454	169.13
429.662	187.56
429.869	91.31
430.076	150.7
430.284	89.26
430.491	58.54
430.699	31.91
430.906	259.24
431.114	19.63
431.321	93.35
431.528	119.98
431.736	91.31
431.943	197.8
432.15	146.6
432.358	148.65
432.565	240.81
432.772	76.97
432.979	208.04
433.187	152.74
433.394	195.75
433.601	119.98
433.808	156.84
434.016	212.14
434.223	228.52
434.43	222.38
434.637	251.05
434.844	210.09
435.052	199.85
435.259	173.22
435.466	292.01
435.673	289.96
435.88	191.66
436.087	371.88
436.294	271.53
436.501	312.49
436.708	218.28
436.915	261.29
437.122	281.77
437.329	224.42
437.537	294.05
437.743	322.73
437.95	361.64
438.157	322.73
438.364	289.96
438.571	324.77
438.778	466.08
438.985	369.83
439.192	353.45
439.399	396.45
439.606	396.45
439.813	500.9
440.02	591.01
440.227	601.25
440.433	550.05
440.64	429.22
440.847	406.69
441.054	550.05
441.261	674.98
441.467	613.54
441.674	515.23
441.881	683.17
442.088	640.16
442.294	689.31
442.501	685.22
442.708	722.08
442.914	728.22
443.121	740.51
443.328	847.01
443.534	955.55
443.741	769.18
443.948	779.42
444.154	887.97
444.361	1074.33
444.568	953.5
444.774	937.12
444.981	869.53
445.187	1064.09
445.394	1078.43
445.6	1000.6
445.807	1221.78
446.013	1170.58
446.22	1131.67
446.426	1176.73
446.633	1377.43
446.839	1602.71
447.046	1348.76
447.252	1483.92
447.459	1481.88
447.665	1477.78
447.871	1625.23
448.078	1787.02
448.284	1698.96
448.491	1825.93
448.697	1909.9
448.903	1944.72
449.11	2004.11
449.316	1858.7
449.522	2268.3
449.728	2296.97
449.935	2327.69
450.141	2202.76
450.347	2415.75
450.553	2581.64
450.76	2550.92
450.966	2653.31
451.172	2792.58
451.378	2823.3
451.584	2827.39
451.791	3179.64
451.997	3300.47
452.203	3222.65
452.409	3560.56
452.615	3495.03
452.821	3437.69
453.027	3429.49
453.233	4062.32
453.44	3837.04
453.646	4095.08
453.852	4236.39
454.058	4392.04
454.264	4621.41
454.47	4725.86
454.676	4834.4
454.882	5348.44
455.088	5104.73
455.294	5289.05
455.5	5577.81
455.705	5932.11
455.911	6134.86
456.117	6130.77
456.323	6302.79
456.529	6429.77
456.735	7023.68
456.941	7240.76
457.147	7513.14
457.352	7631.93
457.558	7853.11
457.764	8262.7
457.97	8700.97
458.176	8807.46
458.381	9346.08
458.587	9528.35
458.793	10001.43
458.999	9776.15
459.204	11148.29
459.41	11754.49
459.616	11463.68
459.821	11875.32
460.027	12618.73
460.233	13175.78
460.438	13233.12
460.644	13876.18
460.85	14035.92
461.055	14783.43
461.261	15342.53
461.466	15348.67
461.672	15264.71
461.878	17044.39
462.083	17144.74
462.289	17341.35
462.494	17925.02
462.7	18510.74
462.905	18365.33
463.111	19876.73
463.316	20736.88
463.522	21361.51
463.727	22295.38
463.932	22674.26
464.138	23268.17
464.343	24384.31
464.549	24687.41
464.754	26571.54
464.959	27132.68
465.165	27550.47
465.37	27419.4
465.575	27376.39
465.781	29145.84
465.986	29895.39
466.191	29752.04
466.397	29938.4
466.602	29414.12
466.807	30843.6
467.012	31447.75
467.218	32103.1
467.423	32178.88
467.628	32862.9
467.833	34359.97
468.038	33948.32
468.244	33196.72
468.449	35056.28
468.654	34378.4
468.859	34224.8
