Data from USB4F104151__181__11-05-07-534.txt Node

Date: Wed Feb 26 11:05:07 EST 2025
User: louis
Spectrometer: USB4F10415
Trigger mode: 4
Integration Time (sec): 1.000000E-1
Scans to average: 1
Electric dark correction enabled: true
Nonlinearity correction enabled: false
Boxcar width: 0
XAxis mode: Wavelengths
Number of Pixels in Spectrum: 3648
>>>>>Begin Spectral Data<<<<<
178.204	-417.44
178.424	-417.44
178.644	-417.44
178.864	-394.92
179.084	-360.1
179.304	-38.57
179.524	12.63
179.744	-16.04
179.964	80.21
180.184	-16.04
180.404	-3.75
180.624	2.39
180.844	-18.09
181.064	-81.58
181.283	29.01
181.503	4.44
181.723	45.4
181.943	-65.19
182.163	266.58
182.383	6.49
182.602	39.25
182.822	190.8
183.042	129.36
183.262	39.25
183.482	65.88
183.701	-18.09
183.921	96.6
184.141	-38.57
184.361	137.56
184.58	110.93
184.8	39.25
185.02	2.39
185.239	149.84
185.459	123.22
185.679	141.65
185.898	-71.34
186.118	-3.75
186.338	119.12
186.557	143.7
186.777	-30.38
186.997	-11.95
187.216	74.07
187.436	223.57
187.655	94.55
187.875	125.27
188.095	24.92
188.314	153.94
188.534	151.89
188.753	20.82
188.973	178.51
189.192	133.46
189.412	-73.39
189.631	51.54
189.851	78.16
190.07	192.85
190.29	-36.52
190.509	78.16
190.729	106.84
190.948	133.46
191.168	239.95
191.387	41.3
191.607	0.34
191.826	69.97
192.045	61.78
192.265	37.2
192.484	51.54
192.704	-7.85
192.923	-71.34
193.142	194.9
193.362	166.23
193.581	80.21
193.8	76.12
194.02	151.89
194.239	82.26
194.458	121.17
194.678	10.58
194.897	6.49
195.116	117.08
195.335	69.97
195.555	112.98
195.774	49.49
195.993	182.61
196.212	55.64
196.432	-3.75
196.651	18.77
196.87	127.32
197.089	207.19
197.308	96.6
197.528	190.8
197.747	-57
197.966	37.2
198.185	215.38
198.404	16.73
198.623	57.68
198.842	90.45
199.062	94.55
199.281	12.63
199.5	76.12
199.719	82.26
199.938	104.79
200.157	153.94
200.376	153.94
200.595	108.88
200.814	127.32
201.033	47.44
201.252	221.52
201.471	131.41
201.69	92.5
201.909	72.02
202.128	90.45
202.347	80.21
202.566	-9.9
202.785	-67.24
203.004	6.49
203.223	264.53
203.442	31.06
203.661	-46.76
203.879	78.16
204.098	74.07
204.317	67.92
204.536	129.36
204.755	158.03
204.974	131.41
205.193	-24.23
205.411	133.46
205.63	209.23
205.849	86.36
206.068	45.4
206.287	-9.9
206.505	123.22
206.724	55.64
206.943	-18.09
207.162	55.64
207.381	104.79
207.599	14.68
207.818	-13.99
208.037	61.78
208.255	108.88
208.474	29.01
208.693	155.99
208.911	-32.43
209.13	98.64
209.349	186.71
209.567	84.31
209.786	102.74
210.005	84.31
210.223	178.51
210.442	-63.15
210.661	47.44
210.879	131.41
211.098	41.3
211.316	153.94
211.535	51.54
211.753	65.88
211.972	131.41
212.191	-83.63
212.409	8.53
212.628	149.84
212.846	-73.39
213.065	92.5
213.283	110.93
213.502	-22.19
213.72	43.35
213.938	59.73
214.157	59.73
214.375	49.49
214.594	14.68
214.812	98.64
215.031	-1.71
215.249	22.87
215.467	65.88
215.686	57.68
215.904	162.13
216.122	31.06
216.341	104.79
216.559	98.64
216.778	119.12
216.996	143.7
217.214	-11.95
217.432	53.59
217.651	10.58
217.869	96.6
218.087	45.4
218.306	45.4
218.524	8.53
218.742	90.45
218.96	166.23
219.179	4.44
219.397	31.06
219.615	209.23
219.833	57.68
220.051	37.2
220.27	110.93
220.488	141.65
220.706	141.65
220.924	-44.71
221.142	37.2
221.36	37.2
221.578	133.46
221.796	86.36
222.015	137.56
222.233	49.49
222.451	88.4
222.669	-32.43
222.887	145.75
223.105	4.44
223.323	10.58
223.541	-20.14
223.759	47.44
223.977	106.84
224.195	176.47
224.413	129.36
224.631	39.25
224.849	86.36
225.067	166.23
225.285	49.49
225.503	22.87
225.721	-26.28
225.939	119.12
226.157	72.02
226.375	250.19
226.592	8.53
226.81	139.6
227.028	59.73
227.246	121.17
227.464	76.12
227.682	166.23
227.9	72.02
228.117	53.59
228.335	131.41
228.553	100.69
228.771	22.87
228.989	145.75
229.206	119.12
229.424	61.78
229.642	37.2
229.86	47.44
230.077	182.61
230.295	24.92
230.513	153.94
230.731	110.93
230.948	168.27
231.166	176.47
231.384	61.78
231.601	-52.91
231.819	264.53
232.037	-34.47
232.254	-16.04
232.472	29.01
232.689	26.96
232.907	205.14
233.125	61.78
233.342	-32.43
233.56	74.07
233.777	59.73
233.995	106.84
234.213	160.08
234.43	82.26
234.648	57.68
234.865	14.68
235.083	37.2
235.3	82.26
235.518	166.23
235.735	139.6
235.953	88.4
236.17	-42.67
236.388	22.87
236.605	80.21
236.822	147.8
237.04	137.56
237.257	55.64
237.475	-22.19
237.692	59.73
237.909	100.69
238.127	-7.85
238.344	53.59
238.562	67.92
238.779	-67.24
238.996	14.68
239.214	94.55
239.431	63.83
239.648	96.6
239.865	178.51
240.083	53.59
240.3	110.93
240.517	37.2
240.735	33.11
240.952	119.12
241.169	117.08
241.386	104.79
241.603	6.49
241.821	57.68
242.038	176.47
242.255	147.8
242.472	-73.39
242.689	133.46
242.907	149.84
243.124	84.31
243.341	108.88
243.558	47.44
243.775	72.02
243.992	-81.58
244.209	82.26
244.426	98.64
244.643	82.26
244.86	18.77
245.078	184.66
245.295	67.92
245.512	20.82
245.729	57.68
245.946	168.27
246.163	74.07
246.38	16.73
246.597	123.22
246.814	24.92
247.031	45.4
247.248	39.25
247.464	92.5
247.681	-11.95
247.898	8.53
248.115	84.31
248.332	63.83
248.549	145.75
248.766	129.36
248.983	127.32
249.2	33.11
249.417	88.4
249.633	78.16
249.85	104.79
250.067	49.49
250.284	35.16
250.501	0.34
250.717	72.02
250.934	-16.04
251.151	123.22
251.368	55.64
251.585	121.17
251.801	110.93
252.018	-57
252.235	125.27
252.451	-44.71
252.668	51.54
252.885	196.95
253.102	29.01
253.318	22.87
253.535	-20.14
253.752	80.21
253.968	84.31
254.185	-87.72
254.401	16.73
254.618	57.68
254.835	82.26
255.051	59.73
255.268	153.94
255.484	45.4
255.701	26.96
255.917	131.41
256.134	98.64
256.351	55.64
256.567	41.3
256.784	29.01
257	-126.63
257.217	100.69
257.433	86.36
257.65	47.44
257.866	149.84
258.082	-50.86
258.299	-42.67
258.515	125.27
258.732	39.25
258.948	55.64
259.165	-13.99
259.381	-40.62
259.597	160.08
259.814	31.06
260.03	14.68
260.246	0.34
260.463	115.03
260.679	37.2
260.895	6.49
261.112	94.55
261.328	20.82
261.544	8.53
261.761	96.6
261.977	39.25
262.193	33.11
262.409	127.32
262.626	67.92
262.842	98.64
263.058	-24.23
263.274	190.8
263.49	108.88
263.707	119.12
263.923	115.03
264.139	-77.48
264.355	47.44
264.571	131.41
264.787	100.69
265.004	153.94
265.22	33.11
265.436	78.16
265.652	24.92
265.868	94.55
266.084	-59.05
266.3	10.58
266.516	-40.62
266.732	24.92
266.948	22.87
267.164	0.34
267.38	158.03
267.596	61.78
267.812	176.47
268.028	176.47
268.244	-32.43
268.46	2.39
268.676	-32.43
268.892	96.6
269.108	-108.2
269.324	67.92
269.54	-75.43
269.756	110.93
269.972	-16.04
270.188	6.49
270.403	43.35
270.619	22.87
270.835	92.5
271.051	31.06
271.267	-30.38
271.483	33.11
271.698	158.03
271.914	96.6
272.13	76.12
272.346	0.34
272.562	63.83
272.777	102.74
272.993	10.58
273.209	-46.76
273.425	96.6
273.64	-65.19
273.856	117.08
274.072	-42.67
274.287	-38.57
274.503	86.36
274.719	102.74
274.934	-40.62
275.15	-34.47
275.366	14.68
275.581	-32.43
275.797	47.44
276.012	82.26
276.228	-50.86
276.444	41.3
276.659	117.08
276.875	-30.38
277.09	74.07
277.306	57.68
277.521	141.65
277.737	57.68
277.952	88.4
278.168	57.68
278.383	14.68
278.599	72.02
278.814	65.88
279.03	2.39
279.245	198.99
279.461	67.92
279.676	43.35
279.892	41.3
280.107	-52.91
280.322	20.82
280.538	72.02
280.753	-3.75
280.969	82.26
281.184	125.27
281.399	158.03
281.615	49.49
281.83	59.73
282.045	43.35
282.26	41.3
282.476	80.21
282.691	119.12
282.906	162.13
283.122	67.92
283.337	4.44
283.552	182.61
283.767	-3.75
283.983	155.99
284.198	49.49
284.413	12.63
284.628	-40.62
284.843	84.31
285.058	102.74
285.274	6.49
285.489	-16.04
285.704	88.4
285.919	14.68
286.134	82.26
286.349	74.07
286.564	-50.86
286.779	108.88
286.995	14.68
287.21	16.73
287.425	137.56
287.64	69.97
287.855	31.06
288.07	-65.19
288.285	184.66
288.5	186.71
288.715	84.31
288.93	33.11
289.145	-13.99
289.36	117.08
289.575	8.53
289.79	84.31
290.004	-46.76
290.219	158.03
290.434	29.01
290.649	-24.23
290.864	112.98
291.079	39.25
291.294	18.77
291.509	137.56
291.724	80.21
291.938	-13.99
292.153	96.6
292.368	-30.38
292.583	37.2
292.798	155.99
293.012	74.07
293.227	158.03
293.442	-11.95
293.657	90.45
293.871	80.21
294.086	76.12
294.301	211.28
294.516	96.6
294.73	69.97
294.945	-20.14
295.16	20.82
295.374	74.07
295.589	115.03
295.804	31.06
296.018	65.88
296.233	141.65
296.447	37.2
296.662	29.01
296.877	178.51
297.091	47.44
297.306	131.41
297.52	90.45
297.735	43.35
297.949	41.3
298.164	59.73
298.378	76.12
298.593	8.53
298.807	47.44
299.022	69.97
299.236	110.93
299.451	14.68
299.665	2.39
299.88	115.03
300.094	78.16
300.309	63.83
300.523	98.64
300.737	26.96
300.952	117.08
301.166	65.88
301.381	37.2
301.595	80.21
301.809	69.97
302.024	10.58
302.238	-73.39
302.452	86.36
302.667	137.56
302.881	104.79
303.095	135.51
303.309	117.08
303.524	-7.85
303.738	-44.71
303.952	-7.85
304.166	65.88
304.381	-46.76
304.595	164.18
304.809	67.92
305.023	94.55
305.237	55.64
305.452	31.06
305.666	123.22
305.88	76.12
306.094	217.43
306.308	49.49
306.522	149.84
306.736	94.55
306.95	131.41
307.164	6.49
307.379	43.35
307.593	176.47
307.807	153.94
308.021	33.11
308.235	123.22
308.449	-57
308.663	94.55
308.877	170.32
309.091	100.69
309.305	86.36
309.519	-112.3
309.733	121.17
309.947	-32.43
310.161	76.12
310.374	115.03
310.588	186.71
310.802	-13.99
311.016	14.68
311.23	139.6
311.444	-18.09
311.658	141.65
311.872	108.88
312.085	35.16
312.299	125.27
312.513	145.75
312.727	67.92
312.941	90.45
313.154	119.12
313.368	26.96
313.582	59.73
313.796	72.02
314.009	20.82
314.223	194.9
314.437	74.07
314.651	92.5
314.864	-5.8
315.078	41.3
315.292	-32.43
315.505	88.4
315.719	53.59
315.933	162.13
316.146	10.58
316.36	12.63
316.573	74.07
316.787	88.4
317.001	96.6
317.214	-95.91
317.428	147.8
317.641	10.58
317.855	49.49
318.068	55.64
318.282	78.16
318.495	233.81
318.709	106.84
318.922	55.64
319.136	88.4
319.349	119.12
319.563	0.34
319.776	112.98
319.99	-87.72
320.203	125.27
320.417	86.36
320.63	102.74
320.843	168.27
321.057	43.35
321.27	0.34
321.483	115.03
321.697	139.6
321.91	33.11
322.124	96.6
322.337	135.51
322.55	-24.23
322.763	39.25
322.977	47.44
323.19	-3.75
323.403	-1.71
323.617	135.51
323.83	106.84
324.043	-5.8
324.256	-13.99
324.469	26.96
324.683	168.27
324.896	63.83
325.109	74.07
325.322	-46.76
325.535	162.13
325.748	137.56
325.962	-30.38
326.175	41.3
326.388	100.69
326.601	104.79
326.814	-1.71
327.027	47.44
327.24	35.16
327.453	-26.28
327.666	49.49
327.879	137.56
328.092	115.03
328.305	37.2
328.518	12.63
328.731	18.77
328.944	51.54
329.157	110.93
329.37	61.78
329.583	239.95
329.796	239.95
330.009	-54.95
330.222	145.75
330.435	96.6
330.648	51.54
330.861	72.02
331.073	12.63
331.286	92.5
331.499	67.92
331.712	8.53
331.925	16.73
332.138	0.34
332.35	86.36
332.563	4.44
332.776	119.12
332.989	-24.23
333.202	127.32
333.414	117.08
333.627	-11.95
333.84	10.58
334.053	51.54
334.265	18.77
334.478	-16.04
334.691	6.49
334.903	100.69
335.116	12.63
335.329	59.73
335.541	29.01
335.754	153.94
335.966	-13.99
336.179	51.54
336.392	69.97
336.604	88.4
336.817	180.56
337.029	115.03
337.242	84.31
337.454	147.8
337.667	55.64
337.88	190.8
338.092	92.5
338.305	43.35
338.517	18.77
338.729	84.31
338.942	143.7
339.154	-67.24
339.367	24.92
339.579	45.4
339.792	37.2
340.004	67.92
340.217	-40.62
340.429	178.51
340.641	2.39
340.854	2.39
341.066	12.63
341.278	125.27
341.491	178.51
341.703	-65.19
341.915	-7.85
342.128	182.61
342.34	12.63
342.552	-83.63
342.764	43.35
342.977	14.68
343.189	108.88
343.401	96.6
343.613	-28.33
343.826	-11.95
344.038	-18.09
344.25	92.5
344.462	4.44
344.674	84.31
344.886	18.77
345.099	74.07
345.311	86.36
345.523	12.63
345.735	-34.47
345.947	45.4
346.159	-3.75
346.371	-7.85
346.583	76.12
346.795	180.56
347.007	14.68
347.219	61.78
347.431	106.84
347.643	55.64
347.855	-32.43
348.067	149.84
348.279	-38.57
348.491	69.97
348.703	108.88
348.915	8.53
349.127	-9.9
349.339	41.3
349.551	92.5
349.763	106.84
349.975	88.4
350.187	137.56
350.399	92.5
350.61	178.51
350.822	-22.19
351.034	80.21
351.246	33.11
351.458	127.32
351.669	78.16
351.881	0.34
352.093	129.36
352.305	153.94
352.517	121.17
352.728	162.13
352.94	112.98
353.152	96.6
353.363	-5.8
353.575	76.12
353.787	123.22
353.999	57.68
354.21	125.27
354.422	6.49
354.633	84.31
354.845	67.92
355.057	84.31
355.268	84.31
355.48	117.08
355.692	-57
355.903	129.36
356.115	-7.85
356.326	-79.53
356.538	217.43
356.749	76.12
356.961	231.76
357.172	61.78
357.384	2.39
357.595	174.42
357.807	47.44
358.018	26.96
358.23	86.36
358.441	117.08
358.653	69.97
358.864	125.27
359.075	26.96
359.287	31.06
359.498	127.32
359.709	125.27
359.921	16.73
360.132	121.17
360.344	45.4
360.555	8.53
360.766	24.92
360.977	82.26
361.189	123.22
361.4	67.92
361.611	198.99
361.823	201.04
362.034	98.64
362.245	-13.99
362.456	10.58
362.667	119.12
362.879	-7.85
363.09	80.21
363.301	82.26
363.512	88.4
363.723	51.54
363.935	39.25
364.146	135.51
364.357	82.26
364.568	29.01
364.779	-57
364.99	203.09
365.201	35.16
365.412	153.94
365.623	-54.95
365.834	74.07
366.045	67.92
366.256	112.98
366.467	88.4
366.678	-5.8
366.889	14.68
367.1	72.02
367.311	86.36
367.522	69.97
367.733	90.45
367.944	59.73
368.155	108.88
368.366	196.95
368.577	61.78
368.788	106.84
368.999	4.44
369.209	12.63
369.42	196.95
369.631	170.32
369.842	147.8
370.053	76.12
370.264	100.69
370.474	-73.39
370.685	131.41
370.896	39.25
371.107	119.12
371.317	96.6
371.528	16.73
371.739	92.5
371.95	127.32
372.16	104.79
372.371	-30.38
372.582	22.87
372.792	170.32
373.003	41.3
373.214	65.88
373.424	-13.99
373.635	51.54
373.846	145.75
374.056	-18.09
374.267	100.69
374.477	88.4
374.688	53.59
374.898	80.21
375.109	74.07
375.319	63.83
375.53	139.6
375.74	112.98
375.951	2.39
376.161	-13.99
376.372	145.75
376.582	37.2
376.793	172.37
377.003	63.83
377.214	12.63
377.424	119.12
377.635	137.56
377.845	14.68
378.055	233.81
378.266	49.49
378.476	12.63
378.686	78.16
378.897	90.45
379.107	82.26
379.317	6.49
379.528	43.35
379.738	168.27
379.948	-65.19
380.158	129.36
380.369	72.02
380.579	65.88
380.789	59.73
380.999	123.22
381.21	67.92
381.42	196.95
381.63	31.06
381.84	166.23
382.05	63.83
382.261	112.98
382.471	139.6
382.681	65.88
382.891	174.42
383.101	84.31
383.311	22.87
383.521	-59.05
383.731	112.98
383.941	112.98
384.151	115.03
384.361	29.01
384.571	57.68
384.781	96.6
384.991	164.18
385.201	190.8
385.411	182.61
385.621	119.12
385.831	76.12
386.041	47.44
386.251	24.92
386.461	192.85
386.671	35.16
386.881	22.87
387.091	55.64
387.301	137.56
387.511	-9.9
387.72	106.84
387.93	61.78
388.14	10.58
388.35	92.5
388.56	190.8
388.769	207.19
388.979	82.26
389.189	-11.95
389.399	72.02
389.609	117.08
389.818	153.94
390.028	61.78
390.238	45.4
390.447	-18.09
390.657	41.3
390.867	67.92
391.076	20.82
391.286	117.08
391.496	37.2
391.705	158.03
391.915	170.32
392.125	94.55
392.334	72.02
392.544	209.23
392.753	29.01
392.963	-32.43
393.172	24.92
393.382	4.44
393.591	188.75
393.801	14.68
394.01	237.91
394.22	104.79
394.429	72.02
394.639	78.16
394.848	84.31
395.058	45.4
395.267	24.92
395.477	94.55
395.686	63.83
395.895	172.37
396.105	262.48
396.314	53.59
396.524	61.78
396.733	57.68
396.942	123.22
397.152	41.3
397.361	143.7
397.57	84.31
397.78	35.16
397.989	168.27
398.198	160.08
398.407	88.4
398.617	98.64
398.826	72.02
399.035	69.97
399.244	119.12
399.453	0.34
399.663	14.68
399.872	90.45
400.081	41.3
400.29	135.51
400.499	4.44
400.708	127.32
400.917	84.31
401.127	22.87
401.336	-54.95
401.545	252.24
401.754	141.65
401.963	117.08
402.172	2.39
402.381	-7.85
402.59	10.58
402.799	139.6
403.008	155.99
403.217	26.96
403.426	135.51
403.635	-16.04
403.844	51.54
404.053	78.16
404.262	49.49
404.471	205.14
404.68	39.25
404.888	129.36
405.097	51.54
405.306	39.25
405.515	39.25
405.724	14.68
405.933	180.56
406.142	35.16
406.35	184.66
406.559	61.78
406.768	92.5
406.977	227.67
407.185	129.36
407.394	67.92
407.603	-11.95
407.812	102.74
408.02	112.98
408.229	57.68
408.438	31.06
408.646	67.92
408.855	31.06
409.064	155.99
409.272	18.77
409.481	158.03
409.69	33.11
409.898	22.87
410.107	86.36
410.315	117.08
410.524	-11.95
410.733	86.36
410.941	80.21
411.15	133.46
411.358	88.4
411.567	227.67
411.775	43.35
411.984	112.98
412.192	90.45
412.401	14.68
412.609	158.03
412.818	135.51
413.026	88.4
413.234	104.79
413.443	78.16
413.651	41.3
413.86	10.58
414.068	170.32
414.276	180.56
414.485	65.88
414.693	82.26
414.901	217.43
415.11	92.5
415.318	86.36
415.526	74.07
415.734	117.08
415.943	106.84
416.151	153.94
416.359	72.02
416.567	4.44
416.776	119.12
416.984	96.6
417.192	139.6
417.4	51.54
417.608	20.82
417.817	45.4
418.025	112.98
418.233	172.37
418.441	47.44
418.649	0.34
418.857	67.92
419.065	155.99
419.273	80.21
419.481	6.49
419.689	16.73
419.897	14.68
420.105	49.49
420.313	94.55
420.521	155.99
420.729	194.9
420.937	61.78
421.145	-30.38
421.353	100.69
421.561	160.08
421.769	112.98
421.977	24.92
422.185	135.51
422.393	14.68
422.601	112.98
422.809	47.44
423.017	39.25
423.224	37.2
423.432	121.17
423.64	145.75
423.848	137.56
424.056	84.31
424.263	100.69
424.471	121.17
424.679	239.95
424.887	2.39
425.094	96.6
425.302	96.6
425.51	22.87
425.718	76.12
425.925	90.45
426.133	49.49
426.341	201.04
426.548	96.6
426.756	72.02
426.964	209.23
427.171	61.78
427.379	143.7
427.586	57.68
427.794	141.65
428.001	168.27
428.209	98.64
428.417	190.8
428.624	186.71
428.832	174.42
429.039	143.7
429.247	160.08
429.454	237.91
429.662	239.95
429.869	205.14
430.076	102.74
430.284	239.95
430.491	227.67
430.699	155.99
430.906	192.85
431.114	141.65
431.321	184.66
431.528	80.21
431.736	123.22
431.943	158.03
432.15	155.99
432.358	153.94
432.565	305.49
432.772	47.44
432.979	246.1
433.187	221.52
433.394	248.15
433.601	119.12
433.808	198.99
434.016	311.63
434.223	237.91
434.43	213.33
434.637	272.72
434.844	250.19
435.052	340.3
435.259	352.59
435.466	293.2
435.673	246.1
435.88	342.35
436.087	274.77
436.294	420.17
436.501	352.59
436.708	313.68
436.915	395.6
437.122	411.98
437.329	258.39
437.537	332.11
437.743	354.64
437.95	434.51
438.157	375.12
438.364	440.65
438.571	432.46
438.778	426.32
438.985	528.72
439.192	643.4
439.399	368.98
439.606	424.27
439.813	551.24
440.02	665.93
440.227	670.03
440.433	622.92
440.64	598.35
440.847	520.53
441.054	612.68
441.261	745.8
441.467	620.88
441.674	600.4
441.881	727.37
442.088	633.16
442.294	794.95
442.501	753.99
442.708	903.5
442.914	821.58
443.121	954.69
443.328	801.1
443.534	915.78
443.741	981.32
443.948	897.35
444.154	977.22
444.361	1112.39
444.568	1032.52
444.774	1116.48
444.981	1112.39
445.187	1190.21
445.394	1257.79
445.6	1265.99
445.807	1364.29
446.013	1290.56
446.22	1306.95
446.426	1579.33
446.633	1544.51
446.839	1802.55
447.046	1472.83
447.252	1775.93
447.459	1769.79
447.665	1687.87
447.871	1882.42
448.078	2097.46
448.284	1956.15
448.491	2101.56
448.697	2265.39
448.903	2384.18
449.11	2388.27
449.316	2296.11
449.522	2404.66
449.728	2660.65
449.935	2683.18
450.141	2681.13
450.347	2761
450.553	2816.3
450.76	2793.77
450.966	3141.93
451.172	3225.89
451.378	3322.15
451.584	3346.72
451.791	3594.53
451.997	3764.51
452.203	3922.2
452.409	4012.31
452.615	4075.8
452.821	4104.47
453.027	3918.11
453.233	4618.51
453.44	4415.76
453.646	4665.61
453.852	4796.68
454.058	5132.55
454.264	5181.7
454.47	5591.3
454.676	5728.51
454.882	6025.47
455.088	5779.71
455.294	6134.01
455.5	6441.2
455.705	6869.23
455.911	6822.13
456.117	7110.89
456.323	7463.14
456.529	7352.55
456.735	8220.89
456.941	8267.99
457.147	8499.41
457.352	8872.14
457.558	9244.87
457.764	9484.48
457.97	9820.35
458.176	10318.01
458.381	10866.86
458.587	10965.17
458.793	11743.39
458.999	11587.75
459.204	13131.92
459.41	13158.54
459.616	13170.83
459.821	13877.38
460.027	14489.72
460.233	15331.44
460.438	15380.59
460.644	16158.81
460.85	16334.94
461.055	17205.33
461.261	17948.74
461.466	17559.63
461.672	17860.68
461.878	20326.43
462.083	19490.86
462.289	19892.26
462.494	21268.5
462.7	20983.83
462.905	21524.49
463.111	23592.94
463.316	24002.54
463.522	24596.45
463.727	25571.28
463.932	26329.03
464.138	27633.58
464.343	28567.46
464.549	28495.78
464.754	30666.63
464.959	31154.04
465.165	32229.23
465.37	31942.51
465.575	31727.47
465.781	34029.39
465.986	35231.55
466.191	34721.6
466.397	34694.98
466.602	33779.54
466.807	35776.31
467.012	36323.12
467.218	36857.63
467.423	36763.43
467.628	38076.18
467.833	40136.43
468.038	39341.82
468.244	38455.05
468.449	40443.63
468.654	39831.29
