Data from USB4F104151__295__11-21-16-427.txt Node

Date: Wed Feb 26 11:21:16 EST 2025
User: louis
Spectrometer: USB4F10415
Trigger mode: 4
Integration Time (sec): 1.000000E-1
Scans to average: 1
Electric dark correction enabled: true
Nonlinearity correction enabled: false
Boxcar width: 0
XAxis mode: Wavelengths
Number of Pixels in Spectrum: 3648
>>>>>Begin Spectral Data<<<<<
178.204	-410.11
178.424	-410.11
178.644	-410.11
178.864	-416.25
179.084	-440.83
179.304	-23.04
179.524	-41.47
179.744	85.5
179.964	42.5
180.184	-35.33
180.404	30.21
180.624	5.63
180.844	17.92
181.064	-61.95
181.283	-8.7
181.503	-39.42
181.723	28.16
181.943	-80.38
182.163	108.03
182.383	26.11
182.602	1.54
182.822	126.46
183.042	132.61
183.262	-102.91
183.482	15.87
183.701	11.78
183.921	36.35
184.141	-94.72
184.361	30.21
184.58	71.17
184.8	-6.66
185.02	-23.04
185.239	50.69
185.459	3.58
185.679	52.74
185.898	-61.95
186.118	7.68
186.338	30.21
186.557	126.46
186.777	-41.47
186.997	-0.51
187.216	19.97
187.436	177.66
187.655	79.36
187.875	11.78
188.095	-37.38
188.314	42.5
188.534	65.02
188.753	-20.99
188.973	103.93
189.192	54.78
189.412	-16.9
189.631	-16.9
189.851	79.36
190.07	112.13
190.29	-152.06
190.509	19.97
190.729	-18.94
190.948	130.56
191.168	140.8
191.387	71.17
191.607	22.02
191.826	5.63
192.045	22.02
192.265	11.78
192.484	-14.85
192.704	1.54
192.923	-119.29
193.142	134.65
193.362	138.75
193.581	148.99
193.8	89.6
194.02	58.88
194.239	34.3
194.458	112.13
194.678	-66.05
194.897	-23.04
195.116	89.6
195.335	62.98
195.555	62.98
195.774	-86.53
195.993	128.51
196.212	-12.8
196.432	-80.38
196.651	7.68
196.87	19.97
197.089	198.14
197.308	15.87
197.528	110.08
197.747	-43.52
197.966	-18.94
198.185	132.61
198.404	-20.99
198.623	142.85
198.842	48.64
199.062	46.59
199.281	79.36
199.5	30.21
199.719	26.11
199.938	-0.51
200.157	28.16
200.376	165.37
200.595	116.22
200.814	79.36
201.033	19.97
201.252	138.75
201.471	75.26
201.69	32.26
201.909	32.26
202.128	118.27
202.347	22.02
202.566	19.97
202.785	-68.09
203.004	-98.81
203.223	247.29
203.442	54.78
203.661	-51.71
203.879	26.11
204.098	105.98
204.317	-16.9
204.536	48.64
204.755	91.65
204.974	50.69
205.193	-51.71
205.411	83.45
205.63	128.51
205.849	50.69
206.068	36.35
206.287	5.63
206.505	58.88
206.724	40.45
206.943	-51.71
207.162	50.69
207.381	124.41
207.599	11.78
207.818	-0.51
208.037	-31.23
208.255	-31.23
208.474	130.56
208.693	-4.61
208.911	56.83
209.13	75.26
209.349	114.17
209.567	85.5
209.786	58.88
210.005	85.5
210.223	38.4
210.442	-113.15
210.661	13.82
210.879	108.03
211.098	7.68
211.316	-16.9
211.535	95.74
211.753	-25.09
211.972	71.17
212.191	7.68
212.409	24.06
212.628	101.89
212.846	67.07
213.065	36.35
213.283	44.54
213.502	9.73
213.72	62.98
213.938	71.17
214.157	58.88
214.375	73.21
214.594	-66.05
214.812	116.22
215.031	32.26
215.249	-4.61
215.467	48.64
215.686	75.26
215.904	44.54
216.122	-2.56
216.341	128.51
216.559	28.16
216.778	97.79
216.996	163.33
217.214	11.78
217.432	1.54
217.651	-12.8
217.869	38.4
218.087	28.16
218.306	-43.52
218.524	-0.51
218.742	1.54
218.96	81.41
219.179	-12.8
219.397	11.78
219.615	241.15
219.833	48.64
220.051	26.11
220.27	52.74
220.488	77.31
220.706	36.35
220.924	40.45
221.142	-76.29
221.36	58.88
221.578	79.36
221.796	-0.51
222.015	9.73
222.233	30.21
222.451	110.08
222.669	-27.14
222.887	48.64
223.105	-8.7
223.323	-59.9
223.541	-35.33
223.759	155.13
223.977	32.26
224.195	142.85
224.413	26.11
224.631	38.4
224.849	132.61
225.067	163.33
225.285	9.73
225.503	36.35
225.721	-70.14
225.939	-23.04
226.157	62.98
226.375	196.09
226.592	-90.62
226.81	58.88
227.028	144.89
227.246	81.41
227.464	62.98
227.682	99.84
227.9	13.82
228.117	11.78
228.335	56.83
228.553	75.26
228.771	5.63
228.989	-6.66
229.206	67.07
229.424	17.92
229.642	-4.61
229.86	-14.85
230.077	42.5
230.295	34.3
230.513	112.13
230.731	-39.42
230.948	146.94
231.166	124.41
231.384	-14.85
231.601	-68.09
231.819	146.94
232.037	-82.43
232.254	-35.33
232.472	-14.85
232.689	-68.09
232.907	142.85
233.125	-8.7
233.342	-39.42
233.56	-145.92
233.777	5.63
233.995	77.31
234.213	108.03
234.43	58.88
234.648	54.78
234.865	-47.62
235.083	114.17
235.3	75.26
235.518	99.84
235.735	65.02
235.953	19.97
236.17	52.74
236.388	110.08
236.605	-0.51
236.822	24.06
237.04	124.41
237.257	120.32
237.475	-51.71
237.692	122.37
237.909	52.74
238.127	-72.19
238.344	30.21
238.562	30.21
238.779	-76.29
238.996	-27.14
239.214	95.74
239.431	40.45
239.648	-8.7
239.865	185.85
240.083	97.79
240.3	-2.56
240.517	26.11
240.735	-4.61
240.952	95.74
241.169	54.78
241.386	48.64
241.603	-25.09
241.821	-98.81
242.038	36.35
242.255	71.17
242.472	-51.71
242.689	-6.66
242.907	87.55
243.124	11.78
243.341	24.06
243.558	-82.43
243.775	-51.71
243.992	-98.81
244.209	140.8
244.426	165.37
244.643	34.3
244.86	42.5
245.078	40.45
245.295	42.5
245.512	-6.66
245.729	-53.76
245.946	56.83
246.163	9.73
246.38	-6.66
246.597	52.74
246.814	13.82
247.031	-6.66
247.248	-6.66
247.464	38.4
247.681	75.26
247.898	54.78
248.115	56.83
248.332	-35.33
248.549	103.93
248.766	173.57
248.983	142.85
249.2	101.89
249.417	5.63
249.633	-0.51
249.85	67.07
250.067	-6.66
250.284	62.98
250.501	50.69
250.717	17.92
250.934	-96.77
251.151	-25.09
251.368	17.92
251.585	-23.04
251.801	-35.33
252.018	-35.33
252.235	157.18
252.451	-78.33
252.668	-57.86
252.885	118.27
253.102	52.74
253.318	42.5
253.535	-39.42
253.752	-23.04
253.968	-49.66
254.185	-92.67
254.401	15.87
254.618	159.23
254.835	32.26
255.051	81.41
255.268	69.12
255.484	15.87
255.701	1.54
255.917	69.12
256.134	-51.71
256.351	-25.09
256.567	-16.9
256.784	-20.99
257	-59.9
257.217	179.71
257.433	103.93
257.65	7.68
257.866	126.46
258.082	-16.9
258.299	-31.23
258.515	-39.42
258.732	-29.18
258.948	-66.05
259.165	22.02
259.381	-18.94
259.597	9.73
259.814	17.92
260.03	13.82
260.246	28.16
260.463	65.02
260.679	87.55
260.895	54.78
261.112	136.7
261.328	36.35
261.544	19.97
261.761	116.22
261.977	22.02
262.193	-68.09
262.409	103.93
262.626	54.78
262.842	50.69
263.058	-37.38
263.274	7.68
263.49	26.11
263.707	65.02
263.923	120.32
264.139	-107.01
264.355	13.82
264.571	54.78
264.787	34.3
265.004	189.95
265.22	40.45
265.436	-47.62
265.652	24.06
265.868	73.21
266.084	-47.62
266.3	30.21
266.516	-31.23
266.732	44.54
266.948	91.65
267.164	36.35
267.38	120.32
267.596	36.35
267.812	99.84
268.028	93.69
268.244	7.68
268.46	44.54
268.676	71.17
268.892	93.69
269.108	-59.9
269.324	-74.24
269.54	-6.66
269.756	48.64
269.972	-2.56
270.188	-10.75
270.403	-96.77
270.619	42.5
270.835	9.73
271.051	95.74
271.267	-33.28
271.483	-49.66
271.698	99.84
271.914	26.11
272.13	42.5
272.346	-70.14
272.562	26.11
272.777	130.56
272.993	19.97
273.209	-57.86
273.425	83.45
273.64	-68.09
273.856	81.41
274.072	-39.42
274.287	-45.57
274.503	3.58
274.719	87.55
274.934	22.02
275.15	-100.86
275.366	5.63
275.581	-33.28
275.797	9.73
276.012	99.84
276.228	13.82
276.444	30.21
276.659	148.99
276.875	-16.9
277.09	-31.23
277.306	-51.71
277.521	65.02
277.737	58.88
277.952	91.65
278.168	42.5
278.383	11.78
278.599	116.22
278.814	75.26
279.03	40.45
279.245	52.74
279.461	-0.51
279.676	144.89
279.892	-88.57
280.107	48.64
280.322	17.92
280.538	34.3
280.753	-27.14
280.969	-6.66
281.184	28.16
281.399	161.28
281.615	-0.51
281.83	62.98
282.045	-68.09
282.26	-61.95
282.476	-18.94
282.691	48.64
282.906	134.65
283.122	38.4
283.337	-45.57
283.552	24.06
283.767	-16.9
283.983	73.21
284.198	81.41
284.413	46.59
284.628	-18.94
284.843	9.73
285.058	46.59
285.274	-41.47
285.489	-29.18
285.704	105.98
285.919	32.26
286.134	19.97
286.349	17.92
286.564	-80.38
286.779	103.93
286.995	15.87
287.21	-119.29
287.425	-68.09
287.64	-25.09
287.855	50.69
288.07	-8.7
288.285	108.03
288.5	110.08
288.715	34.3
288.93	54.78
289.145	-27.14
289.36	77.31
289.575	44.54
289.79	75.26
290.004	50.69
290.219	128.51
290.434	40.45
290.649	7.68
290.864	56.83
291.079	26.11
291.294	62.98
291.509	50.69
291.724	15.87
291.938	-2.56
292.153	87.55
292.368	38.4
292.583	-31.23
292.798	144.89
293.012	34.3
293.227	-18.94
293.442	-18.94
293.657	101.89
293.871	24.06
294.086	30.21
294.301	222.72
294.516	54.78
294.73	48.64
294.945	-88.57
295.16	38.4
295.374	93.69
295.589	65.02
295.804	13.82
296.018	-20.99
296.233	93.69
296.447	-4.61
296.662	-49.66
296.877	77.31
297.091	134.65
297.306	-41.47
297.52	24.06
297.735	-43.52
297.949	99.84
298.164	67.07
298.378	112.13
298.593	-74.24
298.807	-41.47
299.022	9.73
299.236	196.09
299.451	5.63
299.665	-49.66
299.88	-16.9
300.094	110.08
300.309	-76.29
300.523	19.97
300.737	-35.33
300.952	7.68
301.166	5.63
301.381	-31.23
301.595	-66.05
301.809	26.11
302.024	9.73
302.238	-20.99
302.452	114.17
302.667	-43.52
302.881	122.37
303.095	77.31
303.309	9.73
303.524	1.54
303.738	30.21
303.952	-41.47
304.166	126.46
304.381	-94.72
304.595	85.5
304.809	-23.04
305.023	1.54
305.237	-39.42
305.452	46.59
305.666	89.6
305.88	91.65
306.094	85.5
306.308	34.3
306.522	11.78
306.736	187.9
306.95	62.98
307.164	50.69
307.379	-45.57
307.593	91.65
307.807	142.85
308.021	103.93
308.235	34.3
308.449	-98.81
308.663	1.54
308.877	175.61
309.091	30.21
309.305	52.74
309.519	-53.76
309.733	114.17
309.947	-104.96
310.161	69.12
310.374	71.17
310.588	77.31
310.802	-12.8
311.016	-16.9
311.23	38.4
311.444	-6.66
311.658	73.21
311.872	67.07
312.085	58.88
312.299	128.51
312.513	155.13
312.727	60.93
312.941	-39.42
313.154	93.69
313.368	34.3
313.582	38.4
313.796	58.88
314.009	-76.29
314.223	30.21
314.437	62.98
314.651	128.51
314.864	81.41
315.078	1.54
315.292	-127.49
315.505	-43.52
315.719	108.03
315.933	22.02
316.146	-10.75
316.36	-109.05
316.573	62.98
316.787	116.22
317.001	77.31
317.214	-14.85
317.428	40.45
317.641	-29.18
317.855	-18.94
318.068	-20.99
318.282	-8.7
318.495	103.93
318.709	91.65
318.922	-53.76
319.136	171.52
319.349	99.84
319.563	-76.29
319.776	48.64
319.99	-16.9
320.203	32.26
320.417	5.63
320.63	28.16
320.843	144.89
321.057	91.65
321.27	15.87
321.483	30.21
321.697	171.52
321.91	52.74
322.124	56.83
322.337	40.45
322.55	24.06
322.763	15.87
322.977	-33.28
323.19	-51.71
323.403	-2.56
323.617	75.26
323.83	89.6
324.043	3.58
324.256	62.98
324.469	-57.86
324.683	122.37
324.896	58.88
325.109	36.35
325.322	-82.43
325.535	89.6
325.748	34.3
325.962	-96.77
326.175	36.35
326.388	34.3
326.601	142.85
326.814	40.45
327.027	36.35
327.24	198.14
327.453	-141.82
327.666	28.16
327.879	93.69
328.092	56.83
328.305	34.3
328.518	-8.7
328.731	15.87
328.944	44.54
329.157	36.35
329.37	22.02
329.583	198.14
329.796	144.89
330.009	-107.01
330.222	163.33
330.435	114.17
330.648	99.84
330.861	-29.18
331.073	69.12
331.286	112.13
331.499	44.54
331.712	-12.8
331.925	-12.8
332.138	-37.38
332.35	146.94
332.563	-74.24
332.776	251.39
332.989	-31.23
333.202	28.16
333.414	40.45
333.627	-35.33
333.84	-35.33
334.053	58.88
334.265	28.16
334.478	-45.57
334.691	103.93
334.903	73.21
335.116	7.68
335.329	-0.51
335.541	-29.18
335.754	200.19
335.966	7.68
336.179	7.68
336.392	-10.75
336.604	-66.05
336.817	120.32
337.029	110.08
337.242	28.16
337.454	-16.9
337.667	19.97
337.88	101.89
338.092	62.98
338.305	58.88
338.517	3.58
338.729	144.89
338.942	116.22
339.154	-59.9
339.367	-23.04
339.579	54.78
339.792	-39.42
340.004	114.17
340.217	38.4
340.429	67.07
340.641	-96.77
340.854	24.06
341.066	22.02
341.278	62.98
341.491	183.81
341.703	103.93
341.915	-68.09
342.128	-10.75
342.34	87.55
342.552	17.92
342.764	42.5
342.977	30.21
343.189	54.78
343.401	11.78
343.613	-104.96
343.826	136.7
344.038	5.63
344.25	30.21
344.462	-25.09
344.674	58.88
344.886	-25.09
345.099	42.5
345.311	65.02
345.523	38.4
345.735	-104.96
345.947	52.74
346.159	69.12
346.371	24.06
346.583	-12.8
346.795	171.52
347.007	40.45
347.219	62.98
347.431	26.11
347.643	120.32
347.855	-10.75
348.067	116.22
348.279	-98.81
348.491	48.64
348.703	95.74
348.915	26.11
349.127	-18.94
349.339	56.83
349.551	32.26
349.763	65.02
349.975	73.21
350.187	101.89
350.399	65.02
350.61	36.35
350.822	-80.38
351.034	40.45
351.246	-49.66
351.458	116.22
351.669	48.64
351.881	75.26
352.093	128.51
352.305	71.17
352.517	32.26
352.728	134.65
352.94	1.54
353.152	36.35
353.363	30.21
353.575	95.74
353.787	58.88
353.999	169.47
354.21	198.14
354.422	-66.05
354.633	-37.38
354.845	3.58
355.057	40.45
355.268	26.11
355.48	40.45
355.692	-100.86
355.903	17.92
356.115	-74.24
356.326	-123.39
356.538	194.05
356.749	24.06
356.961	136.7
357.172	73.21
357.384	-57.86
357.595	189.95
357.807	56.83
358.018	-88.57
358.23	-20.99
358.441	198.14
358.653	69.12
358.864	-14.85
359.075	7.68
359.287	5.63
359.498	40.45
359.709	77.31
359.921	-72.19
360.132	50.69
360.344	40.45
360.555	42.5
360.766	30.21
360.977	42.5
361.189	81.41
361.4	15.87
361.611	46.59
361.823	99.84
362.034	-14.85
362.245	-41.47
362.456	-8.7
362.667	126.46
362.879	-51.71
363.09	75.26
363.301	1.54
363.512	-29.18
363.723	-12.8
363.935	7.68
364.146	71.17
364.357	15.87
364.568	44.54
364.779	-131.58
364.99	97.79
365.201	-82.43
365.412	105.98
365.623	-74.24
365.834	1.54
366.045	-8.7
366.256	60.93
366.467	65.02
366.678	83.45
366.889	-47.62
367.1	-66.05
367.311	93.69
367.522	-6.66
367.733	144.89
367.944	54.78
368.155	69.12
368.366	34.3
368.577	87.55
368.788	91.65
368.999	-59.9
369.209	-68.09
369.42	181.76
369.631	200.19
369.842	73.21
370.053	-6.66
370.264	97.79
370.474	-45.57
370.685	40.45
370.896	-16.9
371.107	126.46
371.317	56.83
371.528	40.45
371.739	144.89
371.95	95.74
372.16	58.88
372.371	-31.23
372.582	1.54
372.792	26.11
373.003	58.88
373.214	36.35
373.424	146.94
373.635	13.82
373.846	126.46
374.056	40.45
374.267	75.26
374.477	120.32
374.688	-64
374.898	67.07
375.109	5.63
375.319	65.02
375.53	95.74
375.74	56.83
375.951	9.73
376.161	46.59
376.372	146.94
376.582	17.92
376.793	19.97
377.003	-88.57
377.214	15.87
377.424	60.93
377.635	101.89
377.845	11.78
378.055	116.22
378.266	-29.18
378.476	54.78
378.686	30.21
378.897	26.11
379.107	79.36
379.317	79.36
379.528	19.97
379.738	7.68
379.948	-12.8
380.158	83.45
380.369	30.21
380.579	-12.8
380.789	34.3
380.999	108.03
381.21	77.31
381.42	210.43
381.63	65.02
381.84	173.57
382.05	58.88
382.261	136.7
382.471	54.78
382.681	36.35
382.891	112.13
383.101	71.17
383.311	-29.18
383.521	-39.42
383.731	105.98
383.941	75.26
384.151	79.36
384.361	-31.23
384.571	-72.19
384.781	22.02
384.991	112.13
385.201	120.32
385.411	89.6
385.621	81.41
385.831	67.07
386.041	15.87
386.251	26.11
386.461	112.13
386.671	-16.9
386.881	110.08
387.091	36.35
387.301	120.32
387.511	67.07
387.72	108.03
387.93	-4.61
388.14	-82.43
388.35	24.06
388.56	114.17
388.769	60.93
388.979	9.73
389.189	50.69
389.399	17.92
389.609	146.94
389.818	114.17
390.028	75.26
390.238	89.6
390.447	-8.7
390.657	81.41
390.867	48.64
391.076	-68.09
391.286	52.74
391.496	-25.09
391.705	122.37
391.915	120.32
392.125	122.37
392.334	-0.51
392.544	243.2
392.753	110.08
392.963	-4.61
393.172	-6.66
393.382	-8.7
393.591	189.95
393.801	26.11
394.01	181.76
394.22	71.17
394.429	-14.85
394.639	15.87
394.848	32.26
395.058	30.21
395.267	3.58
395.477	112.13
395.686	38.4
395.895	163.33
396.105	189.95
396.314	56.83
396.524	-0.51
396.733	-12.8
396.942	85.5
397.152	36.35
397.361	183.81
397.57	71.17
397.78	69.12
397.989	79.36
398.198	194.05
398.407	128.51
398.617	73.21
398.826	48.64
399.035	-12.8
399.244	110.08
399.453	91.65
399.663	89.6
399.872	38.4
400.081	38.4
400.29	85.5
400.499	5.63
400.708	93.69
400.917	-98.81
401.127	32.26
401.336	22.02
401.545	167.42
401.754	89.6
401.963	122.37
402.172	48.64
402.381	-49.66
402.59	62.98
402.799	5.63
403.008	108.03
403.217	75.26
403.426	32.26
403.635	-0.51
403.844	11.78
404.053	38.4
404.262	1.54
404.471	243.2
404.68	19.97
404.888	-76.29
405.097	-29.18
405.306	83.45
405.515	101.89
405.724	-10.75
405.933	132.61
406.142	-45.57
406.35	52.74
406.559	-41.47
406.768	91.65
406.977	85.5
407.185	101.89
407.394	87.55
407.603	-53.76
407.812	75.26
408.02	171.52
408.229	77.31
408.438	79.36
408.646	-127.49
408.855	62.98
409.064	40.45
409.272	50.69
409.481	79.36
409.69	-37.38
409.898	-18.94
410.107	-0.51
410.315	144.89
410.524	42.5
410.733	148.99
410.941	93.69
411.15	120.32
411.358	95.74
411.567	153.09
411.775	9.73
411.984	175.61
412.192	79.36
412.401	40.45
412.609	108.03
412.818	146.94
413.026	34.3
413.234	52.74
413.443	19.97
413.651	-8.7
413.86	36.35
414.068	93.69
414.276	204.28
414.485	5.63
414.693	167.42
414.901	116.22
415.11	91.65
415.318	54.78
415.526	26.11
415.734	142.85
415.943	144.89
416.151	142.85
416.359	89.6
416.567	56.83
416.776	138.75
416.984	138.75
417.192	169.47
417.4	5.63
417.608	28.16
417.817	28.16
418.025	161.28
418.233	198.14
418.441	-72.19
418.649	-16.9
418.857	132.61
419.065	138.75
419.273	-16.9
419.481	56.83
419.689	124.41
419.897	22.02
420.105	-57.86
420.313	101.89
420.521	163.33
420.729	194.05
420.937	52.74
421.145	-4.61
421.353	71.17
421.561	153.09
421.769	75.26
421.977	34.3
422.185	138.75
422.393	17.92
422.601	40.45
422.809	26.11
423.017	40.45
423.224	114.17
423.432	148.99
423.64	32.26
423.848	159.23
424.056	1.54
424.263	192
424.471	36.35
424.679	95.74
424.887	-55.81
425.094	87.55
425.302	118.27
425.51	65.02
425.718	81.41
425.925	122.37
426.133	42.5
426.341	216.57
426.548	62.98
426.756	48.64
426.964	151.04
427.171	7.68
427.379	22.02
427.586	110.08
427.794	177.66
428.001	144.89
428.209	60.93
428.417	142.85
428.624	126.46
428.832	153.09
429.039	122.37
429.247	83.45
429.454	116.22
429.662	187.9
429.869	93.69
430.076	192
430.284	97.79
430.491	194.05
430.699	124.41
430.906	255.48
431.114	124.41
431.321	253.44
431.528	132.61
431.736	161.28
431.943	177.66
432.15	306.68
432.358	192
432.565	310.78
432.772	93.69
432.979	179.71
433.187	214.52
433.394	282.11
433.601	105.98
433.808	345.59
434.016	296.44
434.223	325.12
434.43	171.52
434.637	267.77
434.844	325.12
435.052	294.4
435.259	286.2
435.466	288.25
435.673	269.82
435.88	273.92
436.087	409.08
436.294	312.83
436.501	361.98
436.708	368.12
436.915	361.98
437.122	491
437.329	341.5
437.537	364.03
437.743	454.14
437.95	495.1
438.157	441.85
438.364	433.66
438.571	427.51
438.778	538.1
438.985	513.53
439.192	515.58
439.399	513.53
439.606	579.06
439.813	628.21
440.02	775.67
440.227	749.04
440.433	701.94
440.64	701.94
440.847	638.45
441.054	747
441.261	871.92
441.467	716.28
441.674	685.56
441.881	943.6
442.088	859.63
442.294	933.36
442.501	927.22
442.708	1046
442.914	1017.33
443.121	1230.32
443.328	1150.45
443.534	1172.97
443.741	1076.72
443.948	959.99
444.154	1351.15
444.361	1418.73
444.568	1230.32
444.774	1230.32
444.981	1177.07
445.187	1584.62
445.394	1471.98
445.6	1439.21
445.807	1682.92
446.013	1611.24
446.22	1619.43
446.426	1766.89
446.633	1861.09
446.839	2035.17
447.046	1715.69
447.252	2108.9
447.459	1951.2
447.665	2170.33
447.871	2174.43
448.078	2461.15
448.284	2524.63
448.491	2495.96
448.697	2647.51
448.903	2807.25
449.11	2840.02
449.316	2694.61
449.522	3057.11
449.728	3030.48
449.935	3210.7
450.141	3407.31
450.347	3429.84
450.553	3474.89
450.76	3462.6
450.966	3857.86
451.172	3841.48
451.378	4115.91
451.584	4304.32
451.791	4390.33
451.997	4378.05
452.203	4681.14
452.409	4855.22
452.615	5049.78
452.821	4810.17
453.027	5090.74
453.233	5707.18
453.44	5545.39
453.646	5731.75
453.852	5959.08
454.058	6079.91
454.264	6358.43
454.47	6749.59
454.676	6823.32
454.882	7325.07
455.088	6892.95
455.294	7400.85
455.5	7884.17
455.705	8412.54
455.911	8510.85
456.117	8603
456.323	9010.55
456.529	9012.6
456.735	9854.31
456.941	10210.66
457.147	10399.07
457.352	10724.7
457.558	11009.37
457.764	11779.4
457.97	12098.89
458.176	12526.91
458.381	13067.58
458.587	13061.43
458.793	14081.32
458.999	13942.06
459.204	15734.03
459.41	16194.82
459.616	16008.46
459.821	17126.65
460.027	17962.22
460.233	18697.44
460.438	18498.79
460.644	19875.02
460.85	19784.91
461.055	20602.05
461.261	21789.88
461.466	21097.66
461.672	21564.6
461.878	24138.9
462.083	23968.91
462.289	24519.82
462.494	25279.61
462.7	25543.8
462.905	25894
463.111	27978.84
463.316	29279.3
463.522	29912.12
463.727	30905.38
463.932	32113.69
464.138	32992.26
464.343	34538.48
464.549	34462.71
464.754	36824.01
464.959	38228.92
465.165	38849.46
465.37	38382.52
465.575	38861.74
465.781	41055.12
465.986	42349.43
466.191	41450.38
466.397	41950.08
466.602	41061.26
466.807	43473.77
467.012	44335.96
467.218	44471.13
467.423	45030.22
467.628	45720.39
467.833	48241.44
468.038	47686.44
468.244	46641.98
468.449	49400.59
