Data from USB4F104151__16__10-41-52-086.txt Node

Date: Wed Feb 26 10:41:52 EST 2025
User: louis
Spectrometer: USB4F10415
Trigger mode: 4
Integration Time (sec): 1.000000E-1
Scans to average: 1
Electric dark correction enabled: true
Nonlinearity correction enabled: false
Boxcar width: 0
XAxis mode: Wavelengths
Number of Pixels in Spectrum: 3648
>>>>>Begin Spectral Data<<<<<
178.204	-347.47
178.424	-347.47
178.644	-347.47
178.864	-408.91
179.084	-337.23
179.304	10.92
179.524	-42.32
179.744	60.07
179.964	60.07
180.184	31.4
180.404	88.75
180.624	-77.14
180.844	-60.76
181.064	-114
181.283	-52.56
181.503	0.68
181.723	94.89
181.943	6.83
182.163	242.34
182.383	47.79
182.602	94.89
182.822	160.42
183.042	70.31
183.262	62.12
183.482	6.83
183.701	10.92
183.921	-7.51
184.141	37.55
184.361	82.6
184.58	92.84
184.8	76.46
185.02	-109.91
185.239	125.61
185.459	156.33
185.679	105.13
185.898	-97.62
186.118	66.22
186.338	10.92
186.557	43.69
186.777	39.59
186.997	88.75
187.216	23.21
187.436	207.53
187.655	115.37
187.875	90.79
188.095	125.61
188.314	127.66
188.534	123.56
188.753	-58.71
188.973	242.34
189.192	139.94
189.412	103.08
189.631	39.59
189.851	-32.08
190.07	201.38
190.29	-7.51
190.509	-48.47
190.729	78.51
190.948	103.08
191.168	260.77
191.387	107.18
191.607	78.51
191.826	121.51
192.045	19.11
192.265	15.02
192.484	51.88
192.704	41.64
192.923	-42.32
193.142	154.28
193.362	170.66
193.581	172.71
193.8	84.65
194.02	105.13
194.239	29.35
194.458	43.69
194.678	-34.13
194.897	47.79
195.116	70.31
195.335	27.31
195.555	117.42
195.774	-44.37
195.993	205.48
196.212	55.98
196.432	-15.7
196.651	37.55
196.87	17.07
197.089	187.05
197.308	74.41
197.528	8.87
197.747	-1.37
197.966	156.33
198.185	139.94
198.404	-11.61
198.623	80.55
198.842	176.81
199.062	49.83
199.281	98.99
199.5	51.88
199.719	68.27
199.938	21.16
200.157	84.65
200.376	174.76
200.595	82.6
200.814	113.32
201.033	12.97
201.252	152.23
201.471	105.13
201.69	86.7
201.909	-9.56
202.128	160.42
202.347	113.32
202.566	39.59
202.785	-17.75
203.004	39.59
203.223	230.06
203.442	115.37
203.661	-11.61
203.879	55.98
204.098	94.89
204.317	-56.66
204.536	51.88
204.755	88.75
204.974	113.32
205.193	105.13
205.411	101.03
205.63	166.57
205.849	121.51
206.068	27.31
206.287	4.78
206.505	129.7
206.724	58.03
206.943	-13.65
207.162	-64.85
207.381	68.27
207.599	23.21
207.818	88.75
208.037	17.07
208.255	33.45
208.474	23.21
208.693	53.93
208.911	-83.28
209.13	62.12
209.349	92.84
209.567	139.94
209.786	74.41
210.005	107.18
210.223	68.27
210.442	-34.13
210.661	33.45
210.879	92.84
211.098	62.12
211.316	35.5
211.535	47.79
211.753	47.79
211.972	68.27
212.191	-15.7
212.409	35.5
212.628	68.27
212.846	27.31
213.065	55.98
213.283	189.1
213.502	37.55
213.72	80.55
213.938	78.51
214.157	-11.61
214.375	170.66
214.594	68.27
214.812	72.36
215.031	35.5
215.249	15.02
215.467	17.07
215.686	10.92
215.904	23.21
216.122	23.21
216.341	135.85
216.559	115.37
216.778	68.27
216.996	119.46
217.214	33.45
217.432	29.35
217.651	0.68
217.869	39.59
218.087	10.92
218.306	15.02
218.524	19.11
218.742	-23.89
218.96	49.83
219.179	-42.32
219.397	39.59
219.615	297.64
219.833	115.37
220.051	-60.76
220.27	121.51
220.488	101.03
220.706	101.03
220.924	-15.7
221.142	-44.37
221.36	62.12
221.578	78.51
221.796	23.21
222.015	70.31
222.233	107.18
222.451	111.27
222.669	25.26
222.887	64.17
223.105	23.21
223.323	12.97
223.541	-38.23
223.759	92.84
223.977	64.17
224.195	199.34
224.413	68.27
224.631	68.27
224.849	131.75
225.067	158.38
225.285	-7.51
225.503	119.46
225.721	-25.94
225.939	105.13
226.157	55.98
226.375	185
226.592	45.74
226.81	-32.08
227.028	199.34
227.246	101.03
227.464	150.18
227.682	45.74
227.9	12.97
228.117	70.31
228.335	39.59
228.553	103.08
228.771	-21.85
228.989	55.98
229.206	41.64
229.424	101.03
229.642	8.87
229.86	41.64
230.077	152.23
230.295	86.7
230.513	111.27
230.731	94.89
230.948	197.29
231.166	168.62
231.384	-3.41
231.601	-17.75
231.819	199.34
232.037	60.07
232.254	-5.46
232.472	27.31
232.689	70.31
232.907	121.51
233.125	68.27
233.342	-30.04
233.56	88.75
233.777	62.12
233.995	113.32
234.213	195.24
234.43	191.14
234.648	21.16
234.865	-17.75
235.083	127.66
235.3	135.85
235.518	68.27
235.735	96.94
235.953	98.99
236.17	33.45
236.388	64.17
236.605	84.65
236.822	88.75
237.04	70.31
237.257	37.55
237.475	-56.66
237.692	41.64
237.909	70.31
238.127	8.87
238.344	86.7
238.562	39.59
238.779	-27.99
238.996	8.87
239.214	92.84
239.431	129.7
239.648	23.21
239.865	17.07
240.083	58.03
240.3	21.16
240.517	4.78
240.735	-36.18
240.952	137.9
241.169	76.46
241.386	60.07
241.603	19.11
241.821	-1.37
242.038	135.85
242.255	135.85
242.472	0.68
242.689	74.41
242.907	96.94
243.124	98.99
243.341	19.11
243.558	-64.85
243.775	4.78
243.992	-3.41
244.209	133.8
244.426	182.95
244.643	39.59
244.86	-7.51
245.078	103.08
245.295	76.46
245.512	47.79
245.729	6.83
245.946	90.79
246.163	45.74
246.38	10.92
246.597	86.7
246.814	60.07
247.031	21.16
247.248	127.66
247.464	152.23
247.681	25.26
247.898	-9.56
248.115	39.59
248.332	17.07
248.549	101.03
248.766	182.95
248.983	121.51
249.2	66.22
249.417	133.8
249.633	23.21
249.85	29.35
250.067	62.12
250.284	96.94
250.501	88.75
250.717	129.7
250.934	-58.71
251.151	53.93
251.368	70.31
251.585	58.03
251.801	98.99
252.018	-27.99
252.235	51.88
252.451	-32.08
252.668	29.35
252.885	105.13
253.102	117.42
253.318	-30.04
253.535	23.21
253.752	58.03
253.968	35.5
254.185	-21.85
254.401	76.46
254.618	113.32
254.835	-32.08
255.051	60.07
255.268	51.88
255.484	51.88
255.701	4.78
255.917	80.55
256.134	-5.46
256.351	88.75
256.567	-34.13
256.784	39.59
257	-87.38
257.217	111.27
257.433	103.08
257.65	70.31
257.866	205.48
258.082	-34.13
258.299	8.87
258.515	113.32
258.732	-7.51
258.948	-23.89
259.165	70.31
259.381	-7.51
259.597	92.84
259.814	25.26
260.03	31.4
260.246	37.55
260.463	123.56
260.679	131.75
260.895	47.79
261.112	88.75
261.328	35.5
261.544	29.35
261.761	107.18
261.977	62.12
262.193	-17.75
262.409	76.46
262.626	80.55
262.842	76.46
263.058	-50.52
263.274	131.75
263.49	113.32
263.707	139.94
263.923	144.04
264.139	-103.76
264.355	-11.61
264.571	92.84
264.787	107.18
265.004	70.31
265.22	37.55
265.436	-23.89
265.652	25.26
265.868	92.84
266.084	-68.95
266.3	23.21
266.516	33.45
266.732	-3.41
266.948	23.21
267.164	41.64
267.38	199.34
267.596	88.75
267.812	234.15
268.028	70.31
268.244	-3.41
268.46	111.27
268.676	15.02
268.892	98.99
269.108	17.07
269.324	58.03
269.54	19.11
269.756	80.55
269.972	-40.28
270.188	-30.04
270.403	-40.28
270.619	105.13
270.835	133.8
271.051	92.84
271.267	101.03
271.483	-34.13
271.698	82.6
271.914	96.94
272.13	25.26
272.346	-19.8
272.562	27.31
272.777	160.42
272.993	29.35
273.209	39.59
273.425	43.69
273.64	-85.33
273.856	62.12
274.072	-48.47
274.287	-13.65
274.503	15.02
274.719	80.55
274.934	29.35
275.15	8.87
275.366	68.27
275.581	-5.46
275.797	23.21
276.012	101.03
276.228	80.55
276.444	-40.28
276.659	150.18
276.875	-99.67
277.09	55.98
277.306	78.51
277.521	107.18
277.737	6.83
277.952	162.47
278.168	64.17
278.383	43.69
278.599	19.11
278.814	125.61
279.03	33.45
279.245	98.99
279.461	82.6
279.676	82.6
279.892	-34.13
280.107	-23.89
280.322	37.55
280.538	49.83
280.753	-5.46
280.969	115.37
281.184	41.64
281.399	82.6
281.615	125.61
281.83	119.46
282.045	0.68
282.26	33.45
282.476	35.5
282.691	101.03
282.906	96.94
283.122	80.55
283.337	78.51
283.552	144.04
283.767	-36.18
283.983	133.8
284.198	12.97
284.413	127.66
284.628	-73.04
284.843	29.35
285.058	115.37
285.274	64.17
285.489	33.45
285.704	66.22
285.919	60.07
286.134	0.68
286.349	113.32
286.564	49.83
286.779	154.28
286.995	0.68
287.21	-38.23
287.425	2.73
287.64	78.51
287.855	66.22
288.07	-73.04
288.285	82.6
288.5	144.04
288.715	49.83
288.93	84.65
289.145	-13.65
289.36	113.32
289.575	43.69
289.79	113.32
290.004	55.98
290.219	96.94
290.434	-5.46
290.649	17.07
290.864	-52.56
291.079	-42.32
291.294	117.42
291.509	72.36
291.724	68.27
291.938	19.11
292.153	133.8
292.368	6.83
292.583	45.74
292.798	21.16
293.012	49.83
293.227	176.81
293.442	21.16
293.657	68.27
293.871	113.32
294.086	19.11
294.301	232.1
294.516	115.37
294.73	88.75
294.945	15.02
295.16	66.22
295.374	84.65
295.589	131.75
295.804	19.11
296.018	109.22
296.233	129.7
296.447	123.56
296.662	55.98
296.877	139.94
297.091	150.18
297.306	84.65
297.52	12.97
297.735	27.31
297.949	10.92
298.164	58.03
298.378	80.55
298.593	45.74
298.807	-68.95
299.022	51.88
299.236	80.55
299.451	29.35
299.665	21.16
299.88	4.78
300.094	105.13
300.309	-1.37
300.523	64.17
300.737	19.11
300.952	113.32
301.166	82.6
301.381	25.26
301.595	10.92
301.809	103.08
302.024	121.51
302.238	-42.32
302.452	150.18
302.667	19.11
302.881	146.09
303.095	172.71
303.309	123.56
303.524	33.45
303.738	-11.61
303.952	-19.8
304.166	58.03
304.381	-42.32
304.595	182.95
304.809	-25.94
305.023	78.51
305.237	76.46
305.452	51.88
305.666	164.52
305.88	170.66
306.094	115.37
306.308	117.42
306.522	96.94
306.736	92.84
306.95	113.32
307.164	51.88
307.379	33.45
307.593	131.75
307.807	158.38
308.021	123.56
308.235	37.55
308.449	-42.32
308.663	98.99
308.877	137.9
309.091	103.08
309.305	117.42
309.519	-58.71
309.733	144.04
309.947	-68.95
310.161	76.46
310.374	0.68
310.588	219.82
310.802	35.5
311.016	15.02
311.23	113.32
311.444	-34.13
311.658	84.65
311.872	129.7
312.085	66.22
312.299	191.14
312.513	96.94
312.727	62.12
312.941	15.02
313.154	96.94
313.368	82.6
313.582	64.17
313.796	35.5
314.009	8.87
314.223	160.42
314.437	109.22
314.651	88.75
314.864	78.51
315.078	39.59
315.292	-38.23
315.505	19.11
315.719	8.87
315.933	90.79
316.146	-1.37
316.36	-7.51
316.573	90.79
316.787	6.83
317.001	101.03
317.214	-1.37
317.428	17.07
317.641	-64.85
317.855	55.98
318.068	129.7
318.282	70.31
318.495	207.53
318.709	160.42
318.922	64.17
319.136	182.95
319.349	94.89
319.563	27.31
319.776	131.75
319.99	-54.61
320.203	111.27
320.417	-52.56
320.63	139.94
320.843	232.1
321.057	23.21
321.27	8.87
321.483	154.28
321.697	156.33
321.91	74.41
322.124	135.85
322.337	-13.65
322.55	-9.56
322.763	103.08
322.977	66.22
323.19	6.83
323.403	25.26
323.617	96.94
323.83	123.56
324.043	66.22
324.256	68.27
324.469	-101.72
324.683	113.32
324.896	-19.8
325.109	47.79
325.322	0.68
325.535	144.04
325.748	92.84
325.962	-50.52
326.175	12.97
326.388	78.51
326.601	135.85
326.814	58.03
327.027	-38.23
327.24	141.99
327.453	-42.32
327.666	168.62
327.879	180.9
328.092	113.32
328.305	117.42
328.518	35.5
328.731	-52.56
328.944	101.03
329.157	72.36
329.37	17.07
329.583	144.04
329.796	60.07
330.009	-68.95
330.222	152.23
330.435	62.12
330.648	90.79
330.861	66.22
331.073	47.79
331.286	139.94
331.499	109.22
331.712	12.97
331.925	25.26
332.138	78.51
332.35	113.32
332.563	12.97
332.776	180.9
332.989	-68.95
333.202	51.88
333.414	86.7
333.627	111.27
333.84	51.88
334.053	2.73
334.265	-17.75
334.478	-17.75
334.691	86.7
334.903	154.28
335.116	6.83
335.329	88.75
335.541	113.32
335.754	213.67
335.966	19.11
336.179	37.55
336.392	72.36
336.604	90.79
336.817	96.94
337.029	45.74
337.242	96.94
337.454	107.18
337.667	70.31
337.88	144.04
338.092	31.4
338.305	68.27
338.517	45.74
338.729	160.42
338.942	144.04
339.154	-19.8
339.367	-30.04
339.579	45.74
339.792	-66.9
340.004	111.27
340.217	103.08
340.429	68.27
340.641	21.16
340.854	-62.8
341.066	47.79
341.278	98.99
341.491	156.33
341.703	-21.85
341.915	2.73
342.128	178.86
342.34	6.83
342.552	-71
342.764	68.27
342.977	31.4
343.189	41.64
343.401	92.84
343.613	2.73
343.826	51.88
344.038	29.35
344.25	111.27
344.462	-1.37
344.674	96.94
344.886	27.31
345.099	64.17
345.311	127.66
345.523	19.11
345.735	-42.32
345.947	96.94
346.159	84.65
346.371	131.75
346.583	-7.51
346.795	182.95
347.007	64.17
347.219	96.94
347.431	35.5
347.643	88.75
347.855	76.46
348.067	127.66
348.279	49.83
348.491	74.41
348.703	105.13
348.915	51.88
349.127	-7.51
349.339	45.74
349.551	49.83
349.763	76.46
349.975	0.68
350.187	43.69
350.399	185
350.61	162.47
350.822	58.03
351.034	35.5
351.246	-11.61
351.458	74.41
351.669	96.94
351.881	74.41
352.093	154.28
352.305	113.32
352.517	80.55
352.728	144.04
352.94	84.65
353.152	-13.65
353.363	0.68
353.575	-21.85
353.787	228.01
353.999	31.4
354.21	131.75
354.422	-15.7
354.633	-36.18
354.845	10.92
355.057	43.69
355.268	92.84
355.48	109.22
355.692	-36.18
355.903	-36.18
356.115	31.4
356.326	-36.18
356.538	148.14
356.749	74.41
356.961	182.95
357.172	51.88
357.384	-7.51
357.595	223.91
357.807	-48.47
358.018	76.46
358.23	21.16
358.441	225.96
358.653	45.74
358.864	90.79
359.075	33.45
359.287	27.31
359.498	107.18
359.709	23.21
359.921	33.45
360.132	84.65
360.344	98.99
360.555	4.78
360.766	39.59
360.977	35.5
361.189	37.55
361.4	105.13
361.611	92.84
361.823	156.33
362.034	23.21
362.245	23.21
362.456	-7.51
362.667	82.6
362.879	29.35
363.09	80.55
363.301	51.88
363.512	45.74
363.723	-66.9
363.935	39.59
364.146	43.69
364.357	17.07
364.568	98.99
364.779	6.83
364.99	178.86
365.201	-27.99
365.412	119.46
365.623	-9.56
365.834	113.32
366.045	43.69
366.256	80.55
366.467	53.93
366.678	94.89
366.889	88.75
367.1	64.17
367.311	113.32
367.522	37.55
367.733	49.83
367.944	92.84
368.155	17.07
368.366	113.32
368.577	111.27
368.788	121.51
368.999	-7.51
369.209	80.55
369.42	309.93
369.631	215.72
369.842	55.98
370.053	45.74
370.264	109.22
370.474	-19.8
370.685	70.31
370.896	-44.37
371.107	141.99
371.317	96.94
371.528	23.21
371.739	168.62
371.95	51.88
372.16	-19.8
372.371	-36.18
372.582	-1.37
372.792	70.31
373.003	82.6
373.214	80.55
373.424	109.22
373.635	-54.61
373.846	182.95
374.056	60.07
374.267	105.13
374.477	111.27
374.688	10.92
374.898	74.41
375.109	-13.65
375.319	68.27
375.53	172.71
375.74	80.55
375.951	25.26
376.161	62.12
376.372	137.9
376.582	31.4
376.793	60.07
377.003	8.87
377.214	23.21
377.424	129.7
377.635	10.92
377.845	49.83
378.055	164.52
378.266	-34.13
378.476	64.17
378.686	98.99
378.897	76.46
379.107	129.7
379.317	119.46
379.528	-25.94
379.738	66.22
379.948	2.73
380.158	64.17
380.369	103.08
380.579	43.69
380.789	2.73
380.999	41.64
381.21	107.18
381.42	217.77
381.63	72.36
381.84	90.79
382.05	66.22
382.261	150.18
382.471	115.37
382.681	0.68
382.891	172.71
383.101	78.51
383.311	10.92
383.521	43.69
383.731	96.94
383.941	84.65
384.151	92.84
384.361	15.02
384.571	80.55
384.781	-1.37
384.991	209.58
385.201	205.48
385.411	12.97
385.621	94.89
385.831	78.51
386.041	141.99
386.251	-1.37
386.461	195.24
386.671	29.35
386.881	74.41
387.091	113.32
387.301	127.66
387.511	-15.7
387.72	113.32
387.93	158.38
388.14	-40.28
388.35	43.69
388.56	148.14
388.769	94.89
388.979	94.89
389.189	29.35
389.399	19.11
389.609	51.88
389.818	10.92
390.028	117.42
390.238	109.22
390.447	60.07
390.657	17.07
390.867	10.92
391.076	-46.42
391.286	43.69
391.496	90.79
391.705	78.51
391.915	172.71
392.125	101.03
392.334	27.31
392.544	174.76
392.753	109.22
392.963	0.68
393.172	74.41
393.382	-50.52
393.591	187.05
393.801	35.5
394.01	158.38
394.22	82.6
394.429	70.31
394.639	23.21
394.848	86.7
395.058	58.03
395.267	0.68
395.477	45.74
395.686	141.99
395.895	176.81
396.105	254.63
396.314	74.41
396.524	72.36
396.733	43.69
396.942	154.28
397.152	96.94
397.361	72.36
397.57	62.12
397.78	64.17
397.989	148.14
398.198	187.05
398.407	113.32
398.617	88.75
398.826	135.85
399.035	76.46
399.244	182.95
399.453	41.64
399.663	86.7
399.872	117.42
400.081	-38.23
400.29	96.94
400.499	0.68
400.708	111.27
400.917	74.41
401.127	76.46
401.336	-11.61
401.545	182.95
401.754	119.46
401.963	45.74
402.172	12.97
402.381	86.7
402.59	12.97
402.799	53.93
403.008	117.42
403.217	43.69
403.426	127.66
403.635	-5.46
403.844	92.84
404.053	68.27
404.262	76.46
404.471	164.52
404.68	127.66
404.888	12.97
405.097	66.22
405.306	60.07
405.515	131.75
405.724	53.93
405.933	150.18
406.142	25.26
406.35	166.57
406.559	125.61
406.768	109.22
406.977	170.66
407.185	84.65
407.394	88.75
407.603	-25.94
407.812	131.75
408.02	154.28
408.229	125.61
408.438	121.51
408.646	-17.75
408.855	47.79
409.064	74.41
409.272	2.73
409.481	92.84
409.69	-30.04
409.898	98.99
410.107	164.52
410.315	103.08
410.524	-36.18
410.733	58.03
410.941	166.57
411.15	121.51
411.358	58.03
411.567	146.09
411.775	92.84
411.984	113.32
412.192	60.07
412.401	76.46
412.609	166.57
412.818	197.29
413.026	135.85
413.234	98.99
413.443	113.32
413.651	35.5
413.86	51.88
414.068	158.38
414.276	96.94
414.485	27.31
414.693	152.23
414.901	189.1
415.11	146.09
415.318	53.93
415.526	94.89
415.734	117.42
415.943	94.89
416.151	180.9
416.359	12.97
416.567	170.66
416.776	125.61
416.984	49.83
417.192	244.39
417.4	62.12
417.608	49.83
417.817	-68.95
418.025	135.85
418.233	197.29
418.441	-93.52
418.649	-42.32
418.857	111.27
419.065	154.28
419.273	53.93
419.481	131.75
419.689	23.21
419.897	2.73
420.105	-38.23
420.313	213.67
420.521	187.05
420.729	191.14
420.937	0.68
421.145	-25.94
421.353	150.18
421.561	119.46
421.769	15.02
421.977	49.83
422.185	168.62
422.393	37.55
422.601	80.55
422.809	105.13
423.017	66.22
423.224	123.56
423.432	154.28
423.64	84.65
423.848	174.76
424.056	-5.46
424.263	176.81
424.471	96.94
424.679	185
424.887	-17.75
425.094	156.33
425.302	135.85
425.51	90.79
425.718	195.24
425.925	146.09
426.133	-7.51
426.341	168.62
426.548	88.75
426.756	115.37
426.964	135.85
427.171	45.74
427.379	133.8
427.586	123.56
427.794	82.6
428.001	168.62
428.209	197.29
428.417	232.1
428.624	131.75
428.832	174.76
429.039	76.46
429.247	172.71
429.454	121.51
429.662	281.25
429.869	144.04
430.076	215.72
430.284	203.43
430.491	150.18
430.699	205.48
430.906	324.26
431.114	166.57
431.321	223.91
431.528	101.03
431.736	211.62
431.943	258.73
432.15	176.81
432.358	223.91
432.565	236.2
432.772	90.79
432.979	232.1
433.187	141.99
433.394	301.73
433.601	180.9
433.808	248.49
434.016	361.13
434.223	283.3
434.43	285.35
434.637	232.1
434.844	324.26
435.052	285.35
435.259	217.77
435.466	330.41
435.673	330.41
435.88	363.17
436.087	340.65
436.294	410.28
436.501	402.08
436.708	336.55
436.915	348.84
437.122	393.89
437.329	281.25
437.537	373.41
437.743	334.5
437.95	471.72
438.157	410.28
438.364	418.47
438.571	451.24
438.778	490.15
438.985	563.87
439.192	498.34
439.399	441
439.606	631.46
439.813	600.74
440.02	594.59
440.227	729.76
440.433	572.07
440.64	656.03
440.847	553.63
441.054	674.46
441.261	869.02
441.467	768.67
441.674	830.11
441.881	809.63
442.088	719.52
442.294	787.1
442.501	836.25
442.708	912.03
442.914	918.17
443.121	959.13
443.328	996
443.534	1157.78
443.741	1024.67
443.948	1059.48
444.154	1086.11
444.361	1254.04
444.568	1221.27
444.774	1303.19
444.981	1155.74
445.187	1313.43
445.394	1342.1
445.6	1335.96
445.807	1512.08
446.013	1376.92
446.22	1471.12
446.426	1624.72
446.633	1776.27
446.839	1962.64
447.046	1637.01
447.252	1876.62
447.459	1847.95
447.665	2009.74
447.871	2153.1
448.078	2409.09
448.284	2085.51
448.491	2361.99
448.697	2368.13
448.903	2521.73
449.11	2460.29
449.316	2429.57
449.522	2726.53
449.728	2890.37
449.935	2976.38
450.141	2914.94
450.347	3156.6
450.553	3105.4
450.76	3154.55
450.966	3388.02
451.172	3631.73
451.378	3750.51
451.584	3727.99
451.791	4076.14
451.997	4010.61
452.203	4170.35
452.409	4575.84
452.615	4590.18
452.821	4381.29
453.027	4489.83
453.233	5007.97
453.44	4817.51
453.646	5126.75
453.852	5257.82
454.058	5513.81
454.264	5616.21
454.47	6109.77
454.676	6171.21
454.882	6801.99
455.088	6468.17
455.294	6656.58
455.5	7299.64
455.705	7539.26
455.911	7494.2
456.117	7815.73
456.323	8102.45
456.529	7985.71
456.735	9067.04
456.941	8940.07
457.147	9323.04
457.352	9437.72
457.558	9884.18
457.764	10594.82
457.97	10908.16
458.176	11125.25
458.381	11880.95
458.587	11745.78
458.793	12632.55
458.999	12591.59
459.204	14268.88
459.41	14784.97
459.616	14361.04
459.821	15190.47
460.027	15989.17
460.233	16904.62
460.438	16937.38
460.644	17514.91
460.85	17772.96
461.055	18393.49
461.261	19294.6
461.466	18901.39
461.672	19364.23
461.878	21645.66
462.083	21487.97
462.289	21752.16
462.494	22522.19
462.7	22884.69
462.905	23120.2
463.111	25317.67
463.316	26263.83
463.522	26652.95
463.727	27781.38
463.932	28666.1
464.138	29554.92
464.343	30712.02
464.549	30990.55
464.754	33384.62
464.959	33956
465.165	34771.1
465.37	34531.48
465.575	34291.87
465.781	36638.84
465.986	37544.05
466.191	37331.06
466.397	37544.05
466.602	36413.57
466.807	38680.67
467.012	38891.61
467.218	39833.67
467.423	39991.37
467.628	41281.59
467.833	43046.94
468.038	42739.74
