Data from USB4F104151__51__10-43-24-177.txt Node

Date: Wed Feb 26 10:43:24 EST 2025
User: louis
Spectrometer: USB4F10415
Trigger mode: 4
Integration Time (sec): 1.000000E-1
Scans to average: 1
Electric dark correction enabled: true
Nonlinearity correction enabled: false
Boxcar width: 0
XAxis mode: Wavelengths
Number of Pixels in Spectrum: 3648
>>>>>Begin Spectral Data<<<<<
178.204	-324.6
178.424	-324.6
178.644	-324.6
178.864	-357.37
179.084	-336.89
179.304	-21.5
179.524	-1.02
179.744	-31.74
179.964	1.02
180.184	13.31
180.404	29.7
180.624	-29.7
180.844	66.56
181.064	-60.42
181.283	5.12
181.503	-23.55
181.723	52.22
181.943	-82.94
182.163	158.72
182.383	-11.26
182.602	70.65
182.822	113.66
183.042	115.71
183.262	46.08
183.482	19.46
183.701	50.18
183.921	-3.07
184.141	-5.12
184.361	91.13
184.58	-11.26
184.8	175.1
185.02	1.02
185.239	64.51
185.459	140.29
185.679	91.13
185.898	-74.75
186.118	72.7
186.338	39.94
186.557	123.9
186.777	-31.74
186.997	46.08
187.216	56.32
187.436	203.77
187.655	99.33
187.875	146.43
188.095	64.51
188.314	171.01
188.534	166.91
188.753	-5.12
188.973	128
189.192	160.77
189.412	95.23
189.631	15.36
189.851	70.65
190.07	175.1
190.29	-91.13
190.509	13.31
190.729	31.74
190.948	132.09
191.168	271.36
191.387	41.98
191.607	13.31
191.826	13.31
192.045	150.53
192.265	68.61
192.484	146.43
192.704	136.19
192.923	9.22
193.142	164.86
193.362	117.76
193.581	130.05
193.8	70.65
194.02	154.62
194.239	39.94
194.458	185.34
194.678	23.55
194.897	-29.7
195.116	13.31
195.335	107.52
195.555	142.33
195.774	25.6
195.993	144.38
196.212	41.98
196.432	54.27
196.651	46.08
196.87	44.03
197.089	240.64
197.308	78.85
197.528	62.46
197.747	27.65
197.966	76.8
198.185	236.54
198.404	-50.18
198.623	107.52
198.842	93.18
199.062	109.57
199.281	82.94
199.5	78.85
199.719	107.52
199.938	121.85
200.157	82.94
200.376	179.2
200.595	168.96
200.814	113.66
201.033	9.22
201.252	246.78
201.471	72.7
201.69	103.42
201.909	52.22
202.128	97.28
202.347	66.56
202.566	56.32
202.785	-13.31
203.004	11.26
203.223	285.69
203.442	105.47
203.661	-37.89
203.879	72.7
204.098	140.29
204.317	-39.94
204.536	119.81
204.755	91.13
204.974	152.57
205.193	29.7
205.411	80.89
205.63	115.71
205.849	113.66
206.068	13.31
206.287	-3.07
206.505	101.37
206.724	25.6
206.943	31.74
207.162	-1.02
207.381	117.76
207.599	80.89
207.818	5.12
208.037	-29.7
208.255	101.37
208.474	17.41
208.693	78.85
208.911	44.03
209.13	87.04
209.349	117.76
209.567	121.85
209.786	58.37
210.005	33.79
210.223	113.66
210.442	-44.03
210.661	84.99
210.879	76.8
211.098	-21.5
211.316	76.8
211.535	68.61
211.753	101.37
211.972	74.75
212.191	-7.17
212.409	27.65
212.628	68.61
212.846	-21.5
213.065	33.79
213.283	173.05
213.502	11.26
213.72	142.33
213.938	23.55
214.157	-11.26
214.375	138.24
214.594	93.18
214.812	68.61
215.031	97.28
215.249	35.84
215.467	107.52
215.686	72.7
215.904	76.8
216.122	160.77
216.341	103.42
216.559	107.52
216.778	74.75
216.996	230.4
217.214	-33.79
217.432	31.74
217.651	-13.31
217.869	103.42
218.087	78.85
218.306	-7.17
218.524	52.22
218.742	105.47
218.96	150.53
219.179	70.65
219.397	64.51
219.615	275.45
219.833	138.24
220.051	-52.22
220.27	142.33
220.488	119.81
220.706	164.86
220.924	19.46
221.142	25.6
221.36	-1.02
221.578	70.65
221.796	1.02
222.015	3.07
222.233	50.18
222.451	211.96
222.669	7.17
222.887	84.99
223.105	64.51
223.323	33.79
223.541	29.7
223.759	62.46
223.977	31.74
224.195	177.15
224.413	54.27
224.631	15.36
224.849	25.6
225.067	203.77
225.285	11.26
225.503	-3.07
225.721	-60.42
225.939	125.95
226.157	29.7
226.375	254.97
226.592	-15.36
226.81	-19.46
227.028	173.05
227.246	136.19
227.464	109.57
227.682	144.38
227.9	121.85
228.117	132.09
228.335	82.94
228.553	82.94
228.771	62.46
228.989	44.03
229.206	97.28
229.424	93.18
229.642	64.51
229.86	-46.08
230.077	80.89
230.295	60.42
230.513	89.09
230.731	76.8
230.948	173.05
231.166	103.42
231.384	-33.79
231.601	39.94
231.819	130.05
232.037	3.07
232.254	-48.13
232.472	44.03
232.689	39.94
232.907	80.89
233.125	25.6
233.342	44.03
233.56	-17.41
233.777	-54.27
233.995	87.04
234.213	125.95
234.43	138.24
234.648	68.61
234.865	107.52
235.083	103.42
235.3	156.67
235.518	84.99
235.735	117.76
235.953	52.22
236.17	70.65
236.388	117.76
236.605	19.46
236.822	99.33
237.04	48.13
237.257	58.37
237.475	-3.07
237.692	101.37
237.909	64.51
238.127	11.26
238.344	82.94
238.562	48.13
238.779	-11.26
238.996	5.12
239.214	35.84
239.431	132.09
239.648	13.31
239.865	97.28
240.083	146.43
240.3	25.6
240.517	3.07
240.735	68.61
240.952	207.87
241.169	115.71
241.386	103.42
241.603	3.07
241.821	-25.6
242.038	80.89
242.255	39.94
242.472	-15.36
242.689	56.32
242.907	60.42
243.124	123.9
243.341	105.47
243.558	-29.7
243.775	-21.5
243.992	-7.17
244.209	84.99
244.426	173.05
244.643	58.37
244.86	70.65
245.078	144.38
245.295	44.03
245.512	31.74
245.729	-15.36
245.946	52.22
246.163	82.94
246.38	44.03
246.597	50.18
246.814	46.08
247.031	44.03
247.248	17.41
247.464	101.37
247.681	101.37
247.898	44.03
248.115	109.57
248.332	3.07
248.549	173.05
248.766	269.31
248.983	72.7
249.2	113.66
249.417	140.29
249.633	23.55
249.85	105.47
250.067	15.36
250.284	91.13
250.501	99.33
250.717	52.22
250.934	11.26
251.151	39.94
251.368	52.22
251.585	74.75
251.801	97.28
252.018	-35.84
252.235	99.33
252.451	-37.89
252.668	9.22
252.885	144.38
253.102	46.08
253.318	103.42
253.535	48.13
253.752	37.89
253.968	21.5
254.185	-87.04
254.401	60.42
254.618	64.51
254.835	15.36
255.051	87.04
255.268	123.9
255.484	152.57
255.701	121.85
255.917	31.74
256.134	39.94
256.351	3.07
256.567	3.07
256.784	78.85
257	33.79
257.217	87.04
257.433	52.22
257.65	52.22
257.866	150.53
258.082	41.98
258.299	46.08
258.515	39.94
258.732	91.13
258.948	-3.07
259.165	78.85
259.381	5.12
259.597	54.27
259.814	80.89
260.03	-39.94
260.246	72.7
260.463	162.81
260.679	125.95
260.895	72.7
261.112	74.75
261.328	21.5
261.544	-11.26
261.761	224.25
261.977	35.84
262.193	11.26
262.409	134.14
262.626	46.08
262.842	35.84
263.058	-21.5
263.274	128
263.49	84.99
263.707	119.81
263.923	140.29
264.139	-54.27
264.355	54.27
264.571	115.71
264.787	60.42
265.004	123.9
265.22	35.84
265.436	56.32
265.652	82.94
265.868	109.57
266.084	-84.99
266.3	74.75
266.516	54.27
266.732	130.05
266.948	46.08
267.164	-3.07
267.38	146.43
267.596	60.42
267.812	125.95
268.028	23.55
268.244	-1.02
268.46	54.27
268.676	48.13
268.892	99.33
269.108	-58.37
269.324	44.03
269.54	-91.13
269.756	125.95
269.972	-58.37
270.188	60.42
270.403	-31.74
270.619	66.56
270.835	123.9
271.051	99.33
271.267	64.51
271.483	62.46
271.698	121.85
271.914	128
272.13	123.9
272.346	58.37
272.562	111.61
272.777	123.9
272.993	-21.5
273.209	9.22
273.425	35.84
273.64	7.17
273.856	78.85
274.072	9.22
274.287	-46.08
274.503	142.33
274.719	64.51
274.934	15.36
275.15	-15.36
275.366	46.08
275.581	7.17
275.797	60.42
276.012	39.94
276.228	39.94
276.444	76.8
276.659	175.1
276.875	35.84
277.09	15.36
277.306	58.37
277.521	87.04
277.737	115.71
277.952	132.09
278.168	144.38
278.383	66.56
278.599	58.37
278.814	44.03
279.03	-41.98
279.245	191.49
279.461	27.65
279.676	175.1
279.892	15.36
280.107	-29.7
280.322	-37.89
280.538	76.8
280.753	21.5
280.969	35.84
281.184	39.94
281.399	125.95
281.615	66.56
281.83	160.77
282.045	-58.37
282.26	3.07
282.476	56.32
282.691	140.29
282.906	62.46
283.122	60.42
283.337	15.36
283.552	76.8
283.767	41.98
283.983	76.8
284.198	25.6
284.413	146.43
284.628	-27.65
284.843	160.77
285.058	76.8
285.274	19.46
285.489	-33.79
285.704	70.65
285.919	-80.89
286.134	-5.12
286.349	70.65
286.564	35.84
286.779	136.19
286.995	121.85
287.21	-39.94
287.425	54.27
287.64	-21.5
287.855	119.81
288.07	-27.65
288.285	154.62
288.5	166.91
288.715	54.27
288.93	95.23
289.145	-5.12
289.36	142.33
289.575	44.03
289.79	177.15
290.004	-35.84
290.219	97.28
290.434	15.36
290.649	56.32
290.864	-15.36
291.079	21.5
291.294	134.14
291.509	48.13
291.724	25.6
291.938	54.27
292.153	99.33
292.368	60.42
292.583	60.42
292.798	148.48
293.012	103.42
293.227	54.27
293.442	-1.02
293.657	84.99
293.871	111.61
294.086	101.37
294.301	216.06
294.516	150.53
294.73	3.07
294.945	-46.08
295.16	25.6
295.374	162.81
295.589	148.48
295.804	35.84
296.018	27.65
296.233	136.19
296.447	60.42
296.662	-19.46
296.877	117.76
297.091	13.31
297.306	11.26
297.52	56.32
297.735	46.08
297.949	5.12
298.164	91.13
298.378	35.84
298.593	-23.55
298.807	37.89
299.022	103.42
299.236	156.67
299.451	68.61
299.665	35.84
299.88	93.18
300.094	136.19
300.309	39.94
300.523	107.52
300.737	44.03
300.952	152.57
301.166	66.56
301.381	64.51
301.595	11.26
301.809	115.71
302.024	11.26
302.238	-35.84
302.452	175.1
302.667	70.65
302.881	103.42
303.095	179.2
303.309	60.42
303.524	35.84
303.738	39.94
303.952	39.94
304.166	132.09
304.381	-74.75
304.595	152.57
304.809	-25.6
305.023	89.09
305.237	103.42
305.452	39.94
305.666	152.57
305.88	123.9
306.094	136.19
306.308	93.18
306.522	80.89
306.736	21.5
306.95	158.72
307.164	58.37
307.379	48.13
307.593	181.25
307.807	82.94
308.021	87.04
308.235	58.37
308.449	-54.27
308.663	-15.36
308.877	252.92
309.091	93.18
309.305	128
309.519	-68.61
309.733	134.14
309.947	-76.8
310.161	64.51
310.374	107.52
310.588	93.18
310.802	-44.03
311.016	50.18
311.23	95.23
311.444	-70.65
311.658	29.7
311.872	156.67
312.085	144.38
312.299	156.67
312.513	193.53
312.727	66.56
312.941	44.03
313.154	50.18
313.368	101.37
313.582	70.65
313.796	113.66
314.009	3.07
314.223	211.96
314.437	82.94
314.651	168.96
314.864	35.84
315.078	117.76
315.292	-72.7
315.505	74.75
315.719	111.61
315.933	140.29
316.146	-13.31
316.36	1.02
316.573	156.67
316.787	121.85
317.001	132.09
317.214	46.08
317.428	37.89
317.641	-87.04
317.855	33.79
318.068	58.37
318.282	68.61
318.495	201.72
318.709	93.18
318.922	78.85
319.136	68.61
319.349	146.43
319.563	58.37
319.776	99.33
319.99	-60.42
320.203	146.43
320.417	62.46
320.63	148.48
320.843	164.86
321.057	33.79
321.27	60.42
321.483	64.51
321.697	109.57
321.91	115.71
322.124	154.62
322.337	89.09
322.55	-54.27
322.763	23.55
322.977	25.6
323.19	-3.07
323.403	50.18
323.617	97.28
323.83	121.85
324.043	11.26
324.256	72.7
324.469	44.03
324.683	162.81
324.896	68.61
325.109	101.37
325.322	-62.46
325.535	175.1
325.748	156.67
325.962	11.26
326.175	101.37
326.388	58.37
326.601	162.81
326.814	-21.5
327.027	54.27
327.24	191.49
327.453	-35.84
327.666	54.27
327.879	84.99
328.092	60.42
328.305	130.05
328.518	56.32
328.731	-68.61
328.944	60.42
329.157	91.13
329.37	-29.7
329.583	148.48
329.796	138.24
330.009	64.51
330.222	183.29
330.435	140.29
330.648	3.07
330.861	41.98
331.073	78.85
331.286	62.46
331.499	78.85
331.712	-33.79
331.925	48.13
332.138	105.47
332.35	132.09
332.563	-13.31
332.776	211.96
332.989	29.7
333.202	91.13
333.414	58.37
333.627	39.94
333.84	21.5
334.053	89.09
334.265	29.7
334.478	-148.48
334.691	11.26
334.903	93.18
335.116	-1.02
335.329	84.99
335.541	115.71
335.754	187.39
335.966	-33.79
336.179	11.26
336.392	93.18
336.604	25.6
336.817	138.24
337.029	80.89
337.242	70.65
337.454	99.33
337.667	97.28
337.88	214.01
338.092	70.65
338.305	64.51
338.517	21.5
338.729	37.89
338.942	175.1
339.154	-7.17
339.367	-27.65
339.579	60.42
339.792	33.79
340.004	78.85
340.217	62.46
340.429	97.28
340.641	7.17
340.854	19.46
341.066	37.89
341.278	173.05
341.491	220.16
341.703	-3.07
341.915	68.61
342.128	150.53
342.34	46.08
342.552	-46.08
342.764	99.33
342.977	109.57
343.189	89.09
343.401	111.61
343.613	-64.51
343.826	23.55
344.038	1.02
344.25	84.99
344.462	9.22
344.674	64.51
344.886	109.57
345.099	109.57
345.311	152.57
345.523	54.27
345.735	-11.26
345.947	46.08
346.159	115.71
346.371	-9.22
346.583	-52.22
346.795	168.96
347.007	91.13
347.219	160.77
347.431	60.42
347.643	121.85
347.855	48.13
348.067	166.91
348.279	-33.79
348.491	80.89
348.703	142.33
348.915	68.61
349.127	-66.56
349.339	58.37
349.551	80.89
349.763	97.28
349.975	152.57
350.187	171.01
350.399	183.29
350.61	87.04
350.822	41.98
351.034	74.75
351.246	56.32
351.458	113.66
351.669	111.61
351.881	138.24
352.093	158.72
352.305	50.18
352.517	160.77
352.728	191.49
352.94	78.85
353.152	142.33
353.363	37.89
353.575	31.74
353.787	160.77
353.999	46.08
354.21	150.53
354.422	-1.02
354.633	52.22
354.845	121.85
355.057	29.7
355.268	9.22
355.48	115.71
355.692	-1.02
355.903	54.27
356.115	35.84
356.326	-5.12
356.538	220.16
356.749	93.18
356.961	183.29
357.172	-44.03
357.384	5.12
357.595	338.94
357.807	68.61
358.018	46.08
358.23	72.7
358.441	224.25
358.653	119.81
358.864	39.94
359.075	13.31
359.287	156.67
359.498	171.01
359.709	82.94
359.921	17.41
360.132	89.09
360.344	60.42
360.555	27.65
360.766	91.13
360.977	171.01
361.189	168.96
361.4	44.03
361.611	93.18
361.823	150.53
362.034	93.18
362.245	44.03
362.456	54.27
362.667	97.28
362.879	41.98
363.09	29.7
363.301	97.28
363.512	166.91
363.723	-1.02
363.935	25.6
364.146	125.95
364.357	54.27
364.568	50.18
364.779	-19.46
364.99	119.81
365.201	-1.02
365.412	93.18
365.623	-84.99
365.834	93.18
366.045	80.89
366.256	99.33
366.467	117.76
366.678	31.74
366.889	125.95
367.1	60.42
367.311	103.42
367.522	9.22
367.733	113.66
367.944	99.33
368.155	91.13
368.366	103.42
368.577	111.61
368.788	119.81
368.999	52.22
369.209	19.46
369.42	226.3
369.631	269.31
369.842	68.61
370.053	119.81
370.264	125.95
370.474	33.79
370.685	119.81
370.896	72.7
371.107	197.63
371.317	64.51
371.528	66.56
371.739	130.05
371.95	113.66
372.16	177.15
372.371	-21.5
372.582	3.07
372.792	17.41
373.003	87.04
373.214	119.81
373.424	62.46
373.635	31.74
373.846	171.01
374.056	37.89
374.267	107.52
374.477	95.23
374.688	-7.17
374.898	101.37
375.109	93.18
375.319	33.79
375.53	109.57
375.74	95.23
375.951	56.32
376.161	-7.17
376.372	179.2
376.582	35.84
376.793	195.58
377.003	72.7
377.214	87.04
377.424	74.75
377.635	70.65
377.845	62.46
378.055	115.71
378.266	35.84
378.476	29.7
378.686	64.51
378.897	134.14
379.107	117.76
379.317	166.91
379.528	46.08
379.738	109.57
379.948	66.56
380.158	164.86
380.369	64.51
380.579	119.81
380.789	31.74
380.999	166.91
381.21	93.18
381.42	273.4
381.63	41.98
381.84	97.28
382.05	41.98
382.261	175.1
382.471	166.91
382.681	7.17
382.891	152.57
383.101	-9.22
383.311	21.5
383.521	52.22
383.731	89.09
383.941	56.32
384.151	138.24
384.361	58.37
384.571	87.04
384.781	64.51
384.991	218.11
385.201	197.63
385.411	74.75
385.621	62.46
385.831	103.42
386.041	130.05
386.251	54.27
386.461	93.18
386.671	164.86
386.881	156.67
387.091	111.61
387.301	148.48
387.511	25.6
387.72	46.08
387.93	101.37
388.14	5.12
388.35	140.29
388.56	128
388.769	158.72
388.979	37.89
389.189	29.7
389.399	60.42
389.609	21.5
389.818	138.24
390.028	91.13
390.238	56.32
390.447	-48.13
390.657	35.84
390.867	-13.31
391.076	-62.46
391.286	103.42
391.496	62.46
391.705	52.22
391.915	199.68
392.125	109.57
392.334	27.65
392.544	177.15
392.753	37.89
392.963	68.61
393.172	9.22
393.382	46.08
393.591	150.53
393.801	5.12
394.01	207.87
394.22	41.98
394.429	64.51
394.639	-7.17
394.848	125.95
395.058	154.62
395.267	54.27
395.477	119.81
395.686	121.85
395.895	252.92
396.105	173.05
396.314	99.33
396.524	33.79
396.733	62.46
396.942	121.85
397.152	103.42
397.361	134.14
397.57	52.22
397.78	44.03
397.989	62.46
398.198	216.06
398.407	84.99
398.617	154.62
398.826	93.18
399.035	19.46
399.244	82.94
399.453	87.04
399.663	37.89
399.872	109.57
400.081	87.04
400.29	199.68
400.499	56.32
400.708	181.25
400.917	78.85
401.127	80.89
401.336	60.42
401.545	228.35
401.754	123.9
401.963	95.23
402.172	-17.41
402.381	-39.94
402.59	68.61
402.799	132.09
403.008	91.13
403.217	148.48
403.426	93.18
403.635	-25.6
403.844	52.22
404.053	-33.79
404.262	128
404.471	267.26
404.68	115.71
404.888	89.09
405.097	50.18
405.306	103.42
405.515	107.52
405.724	125.95
405.933	181.25
406.142	136.19
406.35	109.57
406.559	66.56
406.768	39.94
406.977	121.85
407.185	103.42
407.394	123.9
407.603	-44.03
407.812	54.27
408.02	224.25
408.229	66.56
408.438	113.66
408.646	19.46
408.855	76.8
409.064	115.71
409.272	46.08
409.481	109.57
409.69	-21.5
409.898	84.99
410.107	74.75
410.315	152.57
410.524	84.99
410.733	132.09
410.941	50.18
411.15	119.81
411.358	171.01
411.567	70.65
411.775	74.75
411.984	31.74
412.192	99.33
412.401	58.37
412.609	173.05
412.818	248.83
413.026	199.68
413.234	1.02
413.443	-17.41
413.651	23.55
413.86	37.89
414.068	160.77
414.276	177.15
414.485	72.7
414.693	162.81
414.901	220.16
415.11	70.65
415.318	48.13
415.526	46.08
415.734	173.05
415.943	142.33
416.151	181.25
416.359	39.94
416.567	123.9
416.776	84.99
416.984	91.13
417.192	222.2
417.4	17.41
417.608	130.05
417.817	-87.04
418.025	160.77
418.233	166.91
418.441	37.89
418.649	5.12
418.857	160.77
419.065	160.77
419.273	84.99
419.481	41.98
419.689	115.71
419.897	128
420.105	1.02
420.313	191.49
420.521	234.49
420.729	242.68
420.937	84.99
421.145	54.27
421.353	138.24
421.561	236.54
421.769	80.89
421.977	13.31
422.185	150.53
422.393	111.61
422.601	125.95
422.809	123.9
423.017	123.9
423.224	123.9
423.432	107.52
423.64	70.65
423.848	125.95
424.056	97.28
424.263	148.48
424.471	54.27
424.679	191.49
424.887	95.23
425.094	125.95
425.302	160.77
425.51	115.71
425.718	87.04
425.925	97.28
426.133	68.61
426.341	248.83
426.548	56.32
426.756	101.37
426.964	173.05
427.171	21.5
427.379	130.05
427.586	115.71
427.794	146.43
428.001	191.49
428.209	138.24
428.417	93.18
428.624	160.77
428.832	193.53
429.039	138.24
429.247	181.25
429.454	166.91
429.662	259.07
429.869	142.33
430.076	136.19
430.284	207.87
430.491	252.92
430.699	207.87
430.906	281.6
431.114	148.48
431.321	171.01
431.528	205.82
431.736	195.58
431.943	181.25
432.15	175.1
432.358	287.74
432.565	295.93
432.772	130.05
432.979	220.16
433.187	203.77
433.394	328.7
433.601	158.72
433.808	300.03
434.016	259.07
434.223	297.98
434.43	230.4
434.637	338.94
434.844	283.64
435.052	287.74
435.259	287.74
435.466	293.88
435.673	211.96
435.88	375.8
436.087	332.79
436.294	336.89
436.501	398.33
436.708	310.27
436.915	414.71
437.122	392.19
437.329	404.47
437.537	334.84
437.743	365.56
437.95	496.63
438.157	463.86
438.364	390.14
438.571	482.3
438.778	500.73
438.985	510.97
439.192	596.98
439.399	535.54
439.606	560.12
439.813	607.22
440.02	734.2
440.227	771.06
440.433	644.09
440.64	642.04
440.847	588.79
441.054	711.67
441.261	836.6
441.467	672.76
441.674	629.75
441.881	838.64
442.088	707.57
442.294	781.3
442.501	1014.77
442.708	934.9
442.914	875.51
443.121	949.23
443.328	984.05
443.534	1012.72
443.741	1039.34
443.948	941.04
444.154	1192.94
444.361	1262.57
444.568	1262.57
444.774	1174.51
444.981	1238
445.187	1430.51
445.394	1324.01
445.6	1334.25
445.807	1487.85
446.013	1534.95
446.22	1430.51
446.426	1645.54
446.633	1727.46
446.839	1856.48
447.046	1711.08
447.252	1907.68
447.459	1993.7
447.665	1958.88
447.871	2120.67
448.078	2292.7
448.284	2106.34
448.491	2333.66
448.697	2376.67
448.903	2606.04
449.11	2503.64
449.316	2595.8
449.522	2667.48
449.728	2892.76
449.935	2925.52
450.141	2933.72
450.347	3087.31
450.553	3068.88
450.76	3156.94
450.966	3335.12
451.172	3584.97
451.378	3677.13
451.584	3740.61
451.791	3861.45
451.997	4041.67
452.203	4246.46
452.409	4389.82
452.615	4565.95
452.821	4414.4
453.027	4285.37
453.233	4907.96
453.44	4893.62
453.646	5143.47
453.852	5346.22
454.058	5604.27
454.264	5708.71
454.47	6032.29
454.676	6237.09
454.882	6744.99
455.088	6372.25
455.294	6919.06
455.5	7187.35
455.705	7363.47
455.911	7404.43
456.117	7766.92
456.323	7885.7
456.529	8043.4
456.735	8846.2
456.941	8838.01
457.147	9290.61
457.352	9638.76
457.558	9890.67
457.764	10552.16
457.97	11021.14
458.176	11262.8
458.381	11776.84
458.587	11926.35
458.793	12626.75
458.999	12622.66
459.204	14111.53
459.41	14445.35
459.616	14607.14
459.821	15201.05
460.027	16036.62
460.233	16708.35
460.438	16466.69
460.644	17588.98
460.85	17867.5
461.055	18502.37
461.261	19485.4
461.466	18877.15
461.672	19327.71
461.878	21852.85
462.083	21422.78
462.289	21746.36
462.494	22641.32
462.7	22682.28
462.905	23315.1
463.111	25045.63
463.316	26272.37
463.522	26827.37
463.727	27546.2
463.932	28725.83
464.138	29694.52
464.343	30706.22
464.549	30800.43
464.754	33272.32
464.959	33819.13
465.165	34595.31
465.37	34300.4
465.575	34214.39
465.781	36956.62
465.986	37943.74
466.191	37188.04
466.397	38078.91
466.602	36852.17
466.807	38439.35
467.012	39915.93
467.218	40128.92
467.423	40311.19
467.628	41283.98
467.833	43420.01
468.038	42647.93
