Data from USB4F104151__294__11-21-15-727.txt Node

Date: Wed Feb 26 11:21:15 EST 2025
User: louis
Spectrometer: USB4F10415
Trigger mode: 4
Integration Time (sec): 1.000000E-1
Scans to average: 1
Electric dark correction enabled: true
Nonlinearity correction enabled: false
Boxcar width: 0
XAxis mode: Wavelengths
Number of Pixels in Spectrum: 3648
>>>>>Begin Spectral Data<<<<<
178.204	-418.13
178.424	-418.13
178.644	-418.13
178.864	-442.7
179.084	-362.83
179.304	-31.06
179.524	-14.68
179.744	28.33
179.964	75.43
180.184	73.39
180.404	-26.96
180.624	-108.88
180.844	36.52
181.064	-41.3
181.283	18.09
181.503	-10.58
181.723	1.71
181.943	-98.64
182.163	110.25
182.383	-55.64
182.602	108.2
182.822	130.73
183.042	81.58
183.262	-24.92
183.482	-6.49
183.701	1.71
183.921	73.39
184.141	46.76
184.361	48.81
184.58	114.34
184.8	91.82
185.02	-76.12
185.239	155.3
185.459	24.23
185.679	85.67
185.898	-155.99
186.118	-37.2
186.338	30.38
186.557	173.74
186.777	-35.16
186.997	13.99
187.216	-16.73
187.436	196.26
187.655	89.77
187.875	26.28
188.095	-20.82
188.314	161.45
188.534	192.17
188.753	-45.4
188.973	114.34
189.192	116.39
189.412	-0.34
189.631	-2.39
189.851	44.71
190.07	46.76
190.29	-4.44
190.509	-43.35
190.729	-31.06
190.948	128.68
191.168	263.85
191.387	85.67
191.607	5.8
191.826	42.67
192.045	20.14
192.265	-43.35
192.484	9.9
192.704	20.14
192.923	-110.93
193.142	143.02
193.362	130.73
193.581	188.07
193.8	79.53
194.02	59.05
194.239	1.71
194.458	93.87
194.678	22.19
194.897	28.33
195.116	11.95
195.335	63.15
195.555	91.82
195.774	-20.82
195.993	44.71
196.212	34.47
196.432	-35.16
196.651	-20.82
196.87	1.71
197.089	167.59
197.308	97.96
197.528	57
197.747	-37.2
197.966	9.9
198.185	104.11
198.404	-0.34
198.623	69.29
198.842	50.86
199.062	104.11
199.281	100.01
199.5	28.33
199.719	122.54
199.938	63.15
200.157	54.95
200.376	143.02
200.595	28.33
200.814	93.87
201.033	-110.93
201.252	132.78
201.471	26.28
201.69	85.67
201.909	-35.16
202.128	114.34
202.347	177.83
202.566	-33.11
202.785	-39.25
203.004	-39.25
203.223	269.99
203.442	-33.11
203.661	-35.16
203.879	102.06
204.098	218.79
204.317	-57.68
204.536	147.11
204.755	63.15
204.974	110.25
205.193	40.62
205.411	79.53
205.63	79.53
205.849	42.67
206.068	26.28
206.287	-8.53
206.505	134.82
206.724	40.62
206.943	-72.02
207.162	-53.59
207.381	69.29
207.599	-20.82
207.818	59.05
208.037	-14.68
208.255	30.38
208.474	42.67
208.693	48.81
208.911	-57.68
209.13	126.63
209.349	18.09
209.567	65.19
209.786	75.43
210.005	87.72
210.223	36.52
210.442	-106.84
210.661	-14.68
210.879	44.71
211.098	28.33
211.316	42.67
211.535	95.91
211.753	44.71
211.972	143.02
212.191	22.19
212.409	3.75
212.628	87.72
212.846	-31.06
213.065	48.81
213.283	48.81
213.502	22.19
213.72	83.63
213.938	59.05
214.157	-4.44
214.375	106.15
214.594	-10.58
214.812	28.33
215.031	-33.11
215.249	-24.92
215.467	59.05
215.686	-47.44
215.904	157.35
216.122	-6.49
216.341	186.02
216.559	-35.16
216.778	97.96
216.996	83.63
217.214	-6.49
217.432	-18.77
217.651	-141.65
217.869	54.95
218.087	67.24
218.306	-2.39
218.524	73.39
218.742	7.85
218.96	95.91
219.179	26.28
219.397	-24.92
219.615	243.37
219.833	46.76
220.051	-16.73
220.27	61.1
220.488	110.25
220.706	46.76
220.924	20.14
221.142	-12.63
221.36	73.39
221.578	32.43
221.796	48.81
222.015	1.71
222.233	83.63
222.451	46.76
222.669	-63.83
222.887	83.63
223.105	1.71
223.323	-49.49
223.541	18.09
223.759	83.63
223.977	-24.92
224.195	114.34
224.413	34.47
224.631	32.43
224.849	73.39
225.067	202.41
225.285	-16.73
225.503	-0.34
225.721	3.75
225.939	-2.39
226.157	79.53
226.375	210.6
226.592	-45.4
226.81	67.24
227.028	140.97
227.246	77.48
227.464	52.91
227.682	61.1
227.9	61.1
228.117	52.91
228.335	79.53
228.553	50.86
228.771	34.47
228.989	-6.49
229.206	89.77
229.424	34.47
229.642	-29.01
229.86	-6.49
230.077	97.96
230.295	61.1
230.513	61.1
230.731	34.47
230.948	124.58
231.166	130.73
231.384	89.77
231.601	5.8
231.819	171.69
232.037	-12.63
232.254	-72.02
232.472	65.19
232.689	5.8
232.907	-39.25
233.125	11.95
233.342	-6.49
233.56	-67.92
233.777	-10.58
233.995	16.04
234.213	118.44
234.43	50.86
234.648	18.09
234.865	-8.53
235.083	54.95
235.3	79.53
235.518	114.34
235.735	102.06
235.953	122.54
236.17	71.34
236.388	22.19
236.605	77.48
236.822	104.11
237.04	173.74
237.257	-0.34
237.475	3.75
237.692	71.34
237.909	75.43
238.127	18.09
238.344	73.39
238.562	22.19
238.779	-86.36
238.996	7.85
239.214	5.8
239.431	102.06
239.648	36.52
239.865	171.69
240.083	46.76
240.3	36.52
240.517	44.71
240.735	34.47
240.952	128.68
241.169	75.43
241.386	83.63
241.603	48.81
241.821	-53.59
242.038	153.26
242.255	44.71
242.472	9.9
242.689	50.86
242.907	13.99
243.124	67.24
243.341	34.47
243.558	24.23
243.775	-4.44
243.992	-117.08
244.209	104.11
244.426	157.35
244.643	83.63
244.86	-4.44
245.078	48.81
245.295	57
245.512	-18.77
245.729	-20.82
245.946	173.74
246.163	3.75
246.38	-0.34
246.597	87.72
246.814	26.28
247.031	97.96
247.248	-26.96
247.464	104.11
247.681	42.67
247.898	52.91
248.115	83.63
248.332	-49.49
248.549	106.15
248.766	-4.44
248.983	81.58
249.2	104.11
249.417	118.44
249.633	-2.39
249.85	71.34
250.067	9.9
250.284	65.19
250.501	-12.63
250.717	63.15
250.934	-72.02
251.151	34.47
251.368	67.24
251.585	108.2
251.801	89.77
252.018	-37.2
252.235	85.67
252.451	-88.4
252.668	26.28
252.885	104.11
253.102	18.09
253.318	30.38
253.535	16.04
253.752	-37.2
253.968	-12.63
254.185	-94.55
254.401	-18.77
254.618	134.82
254.835	24.23
255.051	95.91
255.268	-2.39
255.484	1.71
255.701	77.48
255.917	63.15
256.134	-18.77
256.351	18.09
256.567	-31.06
256.784	48.81
257	-33.11
257.217	120.49
257.433	93.87
257.65	67.24
257.866	114.34
258.082	-53.59
258.299	-39.25
258.515	30.38
258.732	-41.3
258.948	-0.34
259.165	85.67
259.381	-35.16
259.597	75.43
259.814	9.9
260.03	-43.35
260.246	3.75
260.463	59.05
260.679	116.39
260.895	73.39
261.112	48.81
261.328	69.29
261.544	-29.01
261.761	151.21
261.977	-29.01
262.193	-6.49
262.409	52.91
262.626	-2.39
262.842	-26.96
263.058	22.19
263.274	93.87
263.49	5.8
263.707	30.38
263.923	57
264.139	-65.88
264.355	65.19
264.571	104.11
264.787	87.72
265.004	110.25
265.22	40.62
265.436	-153.94
265.652	-6.49
265.868	18.09
266.084	-33.11
266.3	59.05
266.516	-63.83
266.732	9.9
266.948	69.29
267.164	22.19
267.38	-4.44
267.596	44.71
267.812	122.54
268.028	18.09
268.244	-2.39
268.46	67.24
268.676	28.33
268.892	40.62
269.108	-0.34
269.324	-14.68
269.54	-82.26
269.756	87.72
269.972	-10.58
270.188	26.28
270.403	-67.92
270.619	18.09
270.835	30.38
271.051	69.29
271.267	11.95
271.483	-98.64
271.698	118.44
271.914	59.05
272.13	63.15
272.346	11.95
272.562	40.62
272.777	124.58
272.993	28.33
273.209	-31.06
273.425	85.67
273.64	1.71
273.856	124.58
274.072	-96.6
274.287	24.23
274.503	57
274.719	77.48
274.934	-6.49
275.15	-22.87
275.366	28.33
275.581	-112.98
275.797	-53.59
276.012	102.06
276.228	40.62
276.444	69.29
276.659	106.15
276.875	-6.49
277.09	61.1
277.306	-41.3
277.521	-0.34
277.737	71.34
277.952	100.01
278.168	-22.87
278.383	46.76
278.599	59.05
278.814	102.06
279.03	-26.96
279.245	134.82
279.461	69.29
279.676	97.96
279.892	-61.78
280.107	-86.36
280.322	-108.88
280.538	7.85
280.753	-67.92
280.969	-69.97
281.184	-33.11
281.399	124.58
281.615	91.82
281.83	7.85
282.045	-61.78
282.26	5.8
282.476	-12.63
282.691	118.44
282.906	16.04
283.122	28.33
283.337	-76.12
283.552	38.57
283.767	-8.53
283.983	108.2
284.198	-31.06
284.413	61.1
284.628	-63.83
284.843	-6.49
285.058	79.53
285.274	95.91
285.489	-29.01
285.704	106.15
285.919	-69.97
286.134	48.81
286.349	1.71
286.564	36.52
286.779	46.76
286.995	-8.53
287.21	-182.61
287.425	18.09
287.64	-22.87
287.855	52.91
288.07	-16.73
288.285	42.67
288.5	52.91
288.715	38.57
288.93	-29.01
289.145	22.19
289.36	32.43
289.575	-16.73
289.79	116.39
290.004	-14.68
290.219	87.72
290.434	-18.77
290.649	-47.44
290.864	-35.16
291.079	-14.68
291.294	114.34
291.509	26.28
291.724	22.19
291.938	71.34
292.153	-26.96
292.368	11.95
292.583	59.05
292.798	81.58
293.012	50.86
293.227	124.58
293.442	-51.54
293.657	-8.53
293.871	89.77
294.086	40.62
294.301	163.5
294.516	61.1
294.73	65.19
294.945	-55.64
295.16	18.09
295.374	104.11
295.589	130.73
295.804	63.15
296.018	52.91
296.233	140.97
296.447	67.24
296.662	28.33
296.877	145.06
297.091	38.57
297.306	-4.44
297.52	22.19
297.735	20.14
297.949	-8.53
298.164	93.87
298.378	-53.59
298.593	-6.49
298.807	-31.06
299.022	104.11
299.236	202.41
299.451	-12.63
299.665	73.39
299.88	5.8
300.094	87.72
300.309	3.75
300.523	9.9
300.737	1.71
300.952	50.86
301.166	11.95
301.381	-10.58
301.595	-102.74
301.809	1.71
302.024	71.34
302.238	-0.34
302.452	40.62
302.667	71.34
302.881	257.7
303.095	108.2
303.309	-18.77
303.524	50.86
303.738	-31.06
303.952	-47.44
304.166	69.29
304.381	-65.88
304.595	132.78
304.809	-72.02
305.023	112.3
305.237	-63.83
305.452	-45.4
305.666	79.53
305.88	85.67
306.094	102.06
306.308	46.76
306.522	100.01
306.736	24.23
306.95	167.59
307.164	75.43
307.379	22.19
307.593	102.06
307.807	77.48
308.021	87.72
308.235	108.2
308.449	-127.32
308.663	-39.25
308.877	104.11
309.091	67.24
309.305	65.19
309.519	-108.88
309.733	130.73
309.947	-49.49
310.161	-2.39
310.374	110.25
310.588	89.77
310.802	-49.49
311.016	-22.87
311.23	100.01
311.444	-41.3
311.658	65.19
311.872	104.11
312.085	89.77
312.299	97.96
312.513	73.39
312.727	1.71
312.941	-6.49
313.154	30.38
313.368	-33.11
313.582	36.52
313.796	18.09
314.009	-4.44
314.223	69.29
314.437	91.82
314.651	44.71
314.864	-10.58
315.078	71.34
315.292	-45.4
315.505	3.75
315.719	42.67
315.933	42.67
316.146	24.23
316.36	-26.96
316.573	91.82
316.787	108.2
317.001	34.47
317.214	-86.36
317.428	-4.44
317.641	-43.35
317.855	-24.92
318.068	13.99
318.282	36.52
318.495	143.02
318.709	34.47
318.922	18.09
319.136	149.16
319.349	81.58
319.563	24.23
319.776	61.1
319.99	24.23
320.203	104.11
320.417	36.52
320.63	61.1
320.843	175.78
321.057	91.82
321.27	7.85
321.483	75.43
321.697	42.67
321.91	38.57
322.124	61.1
322.337	7.85
322.55	-16.73
322.763	-29.01
322.977	16.04
323.19	30.38
323.403	-16.73
323.617	89.77
323.83	93.87
324.043	-22.87
324.256	-2.39
324.469	-102.74
324.683	95.91
324.896	32.43
325.109	34.47
325.322	-76.12
325.535	40.62
325.748	65.19
325.962	75.43
326.175	9.9
326.388	20.14
326.601	69.29
326.814	-31.06
327.027	20.14
327.24	132.78
327.453	-4.44
327.666	108.2
327.879	110.25
328.092	69.29
328.305	24.23
328.518	30.38
328.731	-63.83
328.944	61.1
329.157	24.23
329.37	24.23
329.583	155.3
329.796	63.15
330.009	-108.88
330.222	87.72
330.435	179.88
330.648	77.48
330.861	71.34
331.073	28.33
331.286	65.19
331.499	48.81
331.712	11.95
331.925	-33.11
332.138	30.38
332.35	71.34
332.563	-49.49
332.776	151.21
332.989	-45.4
333.202	63.15
333.414	81.58
333.627	36.52
333.84	5.8
334.053	73.39
334.265	-20.82
334.478	52.91
334.691	18.09
334.903	42.67
335.116	-22.87
335.329	30.38
335.541	57
335.754	192.17
335.966	-51.54
336.179	57
336.392	5.8
336.604	-14.68
336.817	83.63
337.029	57
337.242	16.04
337.454	83.63
337.667	50.86
337.88	106.15
338.092	69.29
338.305	85.67
338.517	7.85
338.729	11.95
338.942	130.73
339.154	-43.35
339.367	16.04
339.579	100.01
339.792	-33.11
340.004	69.29
340.217	69.29
340.429	112.3
340.641	-69.97
340.854	-12.63
341.066	18.09
341.278	145.06
341.491	165.54
341.703	24.23
341.915	-22.87
342.128	149.16
342.34	22.19
342.552	9.9
342.764	13.99
342.977	7.85
343.189	-16.73
343.401	93.87
343.613	-45.4
343.826	79.53
344.038	-39.25
344.25	32.43
344.462	-10.58
344.674	9.9
344.886	52.91
345.099	24.23
345.311	134.82
345.523	-43.35
345.735	-49.49
345.947	46.76
346.159	52.91
346.371	9.9
346.583	-4.44
346.795	147.11
347.007	48.81
347.219	100.01
347.431	46.76
347.643	79.53
347.855	44.71
348.067	145.06
348.279	-45.4
348.491	73.39
348.703	59.05
348.915	28.33
349.127	-2.39
349.339	50.86
349.551	-82.26
349.763	67.24
349.975	52.91
350.187	104.11
350.399	112.3
350.61	97.96
350.822	16.04
351.034	38.57
351.246	42.67
351.458	122.54
351.669	79.53
351.881	24.23
352.093	71.34
352.305	108.2
352.517	59.05
352.728	126.63
352.94	46.76
353.152	32.43
353.363	5.8
353.575	93.87
353.787	120.49
353.999	13.99
354.21	247.46
354.422	5.8
354.633	-53.59
354.845	38.57
355.057	54.95
355.268	61.1
355.48	67.24
355.692	-65.88
355.903	73.39
356.115	-4.44
356.326	-110.93
356.538	95.91
356.749	114.34
356.961	102.06
357.172	50.86
357.384	-26.96
357.595	235.18
357.807	-41.3
358.018	-2.39
358.23	-8.53
358.441	149.16
358.653	85.67
358.864	102.06
359.075	-80.21
359.287	46.76
359.498	44.71
359.709	44.71
359.921	32.43
360.132	87.72
360.344	69.29
360.555	1.71
360.766	75.43
360.977	11.95
361.189	83.63
361.4	30.38
361.611	69.29
361.823	87.72
362.034	20.14
362.245	-90.45
362.456	11.95
362.667	42.67
362.879	-82.26
363.09	52.91
363.301	67.24
363.512	-45.4
363.723	-53.59
363.935	-43.35
364.146	71.34
364.357	28.33
364.568	52.91
364.779	-112.98
364.99	118.44
365.201	22.19
365.412	75.43
365.623	-86.36
365.834	71.34
366.045	1.71
366.256	65.19
366.467	42.67
366.678	-29.01
366.889	81.58
367.1	-18.77
367.311	52.91
367.522	-31.06
367.733	59.05
367.944	44.71
368.155	42.67
368.366	100.01
368.577	87.72
368.788	102.06
368.999	-57.68
369.209	38.57
369.42	171.69
369.631	274.09
369.842	50.86
370.053	-10.58
370.264	198.31
370.474	-51.54
370.685	57
370.896	46.76
371.107	136.87
371.317	81.58
371.528	-59.73
371.739	112.3
371.95	3.75
372.16	75.43
372.371	-6.49
372.582	-6.49
372.792	161.45
373.003	9.9
373.214	9.9
373.424	110.25
373.635	-61.78
373.846	138.92
374.056	91.82
374.267	32.43
374.477	-4.44
374.688	26.28
374.898	91.82
375.109	73.39
375.319	-10.58
375.53	67.24
375.74	132.78
375.951	26.28
376.161	24.23
376.372	134.82
376.582	-4.44
376.793	-22.87
377.003	3.75
377.214	-33.11
377.424	97.96
377.635	104.11
377.845	7.85
378.055	110.25
378.266	-33.11
378.476	3.75
378.686	83.63
378.897	28.33
379.107	75.43
379.317	95.91
379.528	26.28
379.738	145.06
379.948	-74.07
380.158	77.48
380.369	71.34
380.579	38.57
380.789	32.43
380.999	77.48
381.21	69.29
381.42	159.4
381.63	18.09
381.84	52.91
382.05	48.81
382.261	147.11
382.471	120.49
382.681	-12.63
382.891	108.2
383.101	93.87
383.311	-80.21
383.521	-6.49
383.731	87.72
383.941	75.43
384.151	-31.06
384.361	54.95
384.571	83.63
384.781	106.15
384.991	165.54
385.201	200.36
385.411	134.82
385.621	-4.44
385.831	112.3
386.041	71.34
386.251	54.95
386.461	122.54
386.671	30.38
386.881	59.05
387.091	132.78
387.301	161.45
387.511	95.91
387.72	102.06
387.93	26.28
388.14	-84.31
388.35	11.95
388.56	159.4
388.769	79.53
388.979	-47.44
389.189	24.23
389.399	48.81
389.609	102.06
389.818	24.23
390.028	104.11
390.238	83.63
390.447	-18.77
390.657	59.05
390.867	-51.54
391.076	-59.73
391.286	18.09
391.496	-8.53
391.705	-16.73
391.915	200.36
392.125	79.53
392.334	69.29
392.544	143.02
392.753	106.15
392.963	-57.68
393.172	81.58
393.382	-88.4
393.591	181.93
393.801	-45.4
394.01	188.07
394.22	112.3
394.429	48.81
394.639	73.39
394.848	61.1
395.058	52.91
395.267	-4.44
395.477	102.06
395.686	102.06
395.895	243.37
396.105	237.22
396.314	77.48
396.524	11.95
396.733	91.82
396.942	26.28
397.152	69.29
397.361	128.68
397.57	18.09
397.78	155.3
397.989	77.48
398.198	126.63
398.407	3.75
398.617	46.76
398.826	36.52
399.035	-90.45
399.244	200.36
399.453	71.34
399.663	61.1
399.872	11.95
400.081	-8.53
400.29	126.63
400.499	32.43
400.708	124.58
400.917	106.15
401.127	85.67
401.336	-2.39
401.545	106.15
401.754	54.95
401.963	83.63
402.172	-2.39
402.381	-12.63
402.59	9.9
402.799	100.01
403.008	87.72
403.217	77.48
403.426	85.67
403.635	-78.16
403.844	18.09
404.053	-76.12
404.262	9.9
404.471	145.06
404.68	73.39
404.888	-8.53
405.097	54.95
405.306	36.52
405.515	118.44
405.724	-14.68
405.933	102.06
406.142	67.24
406.35	181.93
406.559	-18.77
406.768	75.43
406.977	159.4
407.185	81.58
407.394	102.06
407.603	-26.96
407.812	-31.06
408.02	108.2
408.229	-6.49
408.438	57
408.646	9.9
408.855	46.76
409.064	71.34
409.272	-10.58
409.481	71.34
409.69	40.62
409.898	-47.44
410.107	67.24
410.315	147.11
410.524	-4.44
410.733	71.34
410.941	34.47
411.15	100.01
411.358	136.87
411.567	192.17
411.775	124.58
411.984	40.62
412.192	124.58
412.401	7.85
412.609	108.2
412.818	151.21
413.026	54.95
413.234	-2.39
413.443	85.67
413.651	42.67
413.86	24.23
414.068	128.68
414.276	163.5
414.485	5.8
414.693	216.74
414.901	100.01
415.11	200.36
415.318	5.8
415.526	26.28
415.734	208.55
415.943	97.96
416.151	85.67
416.359	79.53
416.567	63.15
416.776	134.82
416.984	112.3
417.192	120.49
417.4	65.19
417.608	28.33
417.817	-37.2
418.025	188.07
418.233	116.39
418.441	1.71
418.649	-12.63
418.857	44.71
419.065	216.74
419.273	-10.58
419.481	63.15
419.689	54.95
419.897	81.58
420.105	42.67
420.313	179.88
420.521	124.58
420.729	147.11
420.937	61.1
421.145	-35.16
421.353	173.74
421.561	145.06
421.769	89.77
421.977	-29.01
422.185	77.48
422.393	79.53
422.601	145.06
422.809	157.35
423.017	-6.49
423.224	54.95
423.432	149.16
423.64	138.92
423.848	163.5
424.056	102.06
424.263	79.53
424.471	26.28
424.679	188.07
424.887	-33.11
425.094	151.21
425.302	54.95
425.51	48.81
425.718	108.2
425.925	130.73
426.133	7.85
426.341	274.09
426.548	65.19
426.756	13.99
426.964	34.47
427.171	-8.53
427.379	36.52
427.586	134.82
427.794	44.71
428.001	165.54
428.209	67.24
428.417	157.35
428.624	89.77
428.832	124.58
429.039	112.3
429.247	163.5
429.454	122.54
429.662	224.94
429.869	167.59
430.076	112.3
430.284	171.69
430.491	165.54
430.699	149.16
430.906	347.81
431.114	136.87
431.321	126.63
431.528	77.48
431.736	155.3
431.943	159.4
432.15	243.37
432.358	200.36
432.565	235.18
432.772	34.47
432.979	249.51
433.187	130.73
433.394	165.54
433.601	120.49
433.808	274.09
434.016	214.7
434.223	253.61
434.43	257.7
434.637	280.23
434.844	267.94
435.052	226.98
435.259	341.67
435.466	401.06
435.673	204.46
435.88	325.29
436.087	374.44
436.294	376.48
436.501	376.48
436.708	374.44
436.915	427.68
437.122	480.93
437.329	319.14
437.537	425.64
437.743	411.3
437.95	472.74
438.157	450.21
438.364	450.21
438.571	452.26
438.778	464.55
438.985	593.57
439.192	530.08
439.399	517.79
439.606	599.71
439.813	554.66
440.02	700.06
440.227	734.88
440.433	671.39
440.64	673.44
440.847	605.86
441.054	706.21
441.261	861.85
441.467	818.85
441.674	712.35
441.881	902.81
442.088	894.62
442.294	966.3
442.501	980.64
442.708	956.06
442.914	980.64
443.121	1076.89
443.328	1068.7
443.534	1146.52
443.741	1197.72
443.948	1169.05
444.154	1226.39
444.361	1361.56
444.568	1253.02
444.774	1349.27
444.981	1277.59
445.187	1478.29
445.394	1400.47
445.6	1427.09
445.807	1613.46
446.013	1683.09
446.22	1658.51
446.426	1738.38
446.633	1885.84
446.839	2107.02
447.046	1869.45
447.252	2088.59
447.459	2207.37
447.665	2127.5
447.871	2246.28
448.078	2315.91
448.284	2430.6
448.491	2631.3
448.697	2629.25
448.903	2825.86
449.11	2821.76
449.316	2821.76
449.522	3057.28
449.728	3042.94
449.935	3194.49
450.141	3116.67
450.347	3446.39
450.553	3374.71
450.76	3456.63
450.966	3806.83
451.172	3954.29
451.378	4200.04
451.584	4056.68
451.791	4419.18
451.997	4585.06
452.203	4529.77
452.409	4845.15
452.615	5084.77
452.821	4695.65
453.027	5047.9
453.233	5584.47
453.44	5416.54
453.646	5570.13
453.852	5906
454.058	6250.06
454.264	6336.07
454.47	6889.03
454.676	6792.77
454.882	7427.64
455.088	6993.47
455.294	7607.86
455.5	8169.01
455.705	8431.15
455.911	8459.82
456.117	8654.37
456.323	9035.3
456.529	9123.36
456.735	9956.88
456.941	9963.03
457.147	10425.87
457.352	10892.8
457.558	11222.53
457.764	11701.75
457.97	12011
458.176	12672.49
458.381	13057.51
458.587	13096.42
458.793	14001.62
458.999	14042.58
459.204	15754.68
459.41	16174.52
459.616	15941.05
459.821	16926.12
460.027	17909.15
460.233	18527.63
460.438	18636.17
460.644	19572.1
460.85	19971.45
461.055	20534.64
461.261	21826.91
461.466	21265.77
461.672	21716.32
461.878	24368.44
462.083	23924.03
462.289	24483.13
462.494	25525.54
462.7	25787.68
462.905	25984.29
463.111	28288.25
463.316	29742.31
463.522	30033.12
463.727	31005.91
463.932	32388.28
464.138	33328.3
464.343	34319.52
464.549	34765.98
464.754	37104.76
464.959	38159.46
465.165	39046.23
465.37	38452.32
465.575	38474.85
465.781	40950.84
465.986	42548.26
466.191	41626.67
466.397	42089.51
466.602	41278.52
466.807	43576.34
467.012	43926.54
467.218	44741.63
467.423	45341.69
467.628	45782
467.833	48409.54
468.038	47453.14
468.244	47090.65
468.449	49144.76
