Data from USB4F104151__69__10-44-01-872.txt Node

Date: Wed Feb 26 10:44:01 EST 2025
User: louis
Spectrometer: USB4F10415
Trigger mode: 4
Integration Time (sec): 1.000000E-1
Scans to average: 1
Electric dark correction enabled: true
Nonlinearity correction enabled: false
Boxcar width: 0
XAxis mode: Wavelengths
Number of Pixels in Spectrum: 3648
>>>>>Begin Spectral Data<<<<<
178.204	-436.39
178.424	-436.39
178.644	-436.39
178.864	-417.96
179.084	-436.39
179.304	-4.27
179.524	-4.27
179.744	16.21
179.964	46.93
180.184	-2.22
180.404	42.84
180.624	-26.79
180.844	55.12
181.064	-51.37
181.283	1.88
181.503	-90.28
181.723	16.21
181.943	-135.34
182.163	175.95
182.383	-43.18
182.602	75.6
182.822	114.52
183.042	-0.17
183.262	-86.19
183.482	28.5
183.701	14.17
183.921	67.41
184.141	-39.08
184.361	116.56
184.58	91.99
184.8	63.32
185.02	12.12
185.239	91.99
185.459	28.5
185.679	182.1
185.898	-55.47
186.118	44.88
186.338	-26.79
186.557	126.8
186.777	-37.03
186.997	-8.36
187.216	-77.99
187.436	206.67
187.655	79.7
187.875	108.37
188.095	75.6
188.314	141.14
188.534	212.82
188.753	-61.61
188.973	208.72
189.192	79.7
189.412	69.46
189.631	20.31
189.851	65.36
190.07	155.47
190.29	-67.75
190.509	5.97
190.729	59.22
190.948	71.51
191.168	223.06
191.387	126.8
191.607	46.93
191.826	91.99
192.045	57.17
192.265	3.93
192.484	120.66
192.704	28.5
192.923	12.12
193.142	130.9
193.362	63.32
193.581	218.96
193.8	143.19
194.02	46.93
194.239	3.93
194.458	26.45
194.678	-28.84
194.897	-24.75
195.116	100.18
195.335	32.6
195.555	73.56
195.774	100.18
195.993	104.28
196.212	67.41
196.432	79.7
196.651	-32.94
196.87	63.32
197.089	229.2
197.308	112.47
197.528	98.13
197.747	-55.47
197.966	28.5
198.185	114.52
198.404	-37.03
198.623	91.99
198.842	130.9
199.062	120.66
199.281	14.17
199.5	108.37
199.719	114.52
199.938	87.89
200.157	71.51
200.376	110.42
200.595	106.32
200.814	48.98
201.033	-30.89
201.252	108.37
201.471	59.22
201.69	77.65
201.909	61.27
202.128	139.09
202.347	118.61
202.566	-0.17
202.785	-92.33
203.004	1.88
203.223	182.1
203.442	57.17
203.661	81.75
203.879	128.85
204.098	100.18
204.317	-28.84
204.536	102.23
204.755	89.94
204.974	30.55
205.193	63.32
205.411	100.18
205.63	24.4
205.849	67.41
206.068	69.46
206.287	-22.7
206.505	122.71
206.724	112.47
206.943	-30.89
207.162	22.36
207.381	118.61
207.599	44.88
207.818	55.12
208.037	-53.42
208.255	51.03
208.474	32.6
208.693	77.65
208.911	-28.84
209.13	71.51
209.349	48.98
209.567	112.47
209.786	63.32
210.005	96.08
210.223	1.88
210.442	-125.1
210.661	53.08
210.879	42.84
211.098	30.55
211.316	20.31
211.535	124.76
211.753	77.65
211.972	147.28
212.191	5.97
212.409	85.84
212.628	149.33
212.846	53.08
213.065	16.21
213.283	118.61
213.502	38.74
213.72	67.41
213.938	67.41
214.157	51.03
214.375	204.63
214.594	26.45
214.812	104.28
215.031	-12.46
215.249	3.93
215.467	91.99
215.686	-2.22
215.904	77.65
216.122	69.46
216.341	141.14
216.559	69.46
216.778	128.85
216.996	223.06
217.214	14.17
217.432	69.46
217.651	-45.23
217.869	40.79
218.087	59.22
218.306	8.02
218.524	26.45
218.742	10.07
218.96	85.84
219.179	63.32
219.397	14.17
219.615	239.44
219.833	114.52
220.051	-53.42
220.27	167.76
220.488	42.84
220.706	96.08
220.924	5.97
221.142	-2.22
221.36	61.27
221.578	42.84
221.796	22.36
222.015	67.41
222.233	48.98
222.451	104.28
222.669	-16.55
222.887	161.62
223.105	1.88
223.323	26.45
223.541	-45.23
223.759	145.24
223.977	57.17
224.195	128.85
224.413	79.7
224.631	26.45
224.849	55.12
225.067	171.86
225.285	5.97
225.503	12.12
225.721	-28.84
225.939	114.52
226.157	91.99
226.375	290.64
226.592	8.02
226.81	14.17
227.028	77.65
227.246	171.86
227.464	132.95
227.682	108.37
227.9	42.84
228.117	18.26
228.335	155.47
228.553	40.79
228.771	24.4
228.989	112.47
229.206	65.36
229.424	-18.6
229.642	3.93
229.86	42.84
230.077	255.83
230.295	36.69
230.513	91.99
230.731	91.99
230.948	120.66
231.166	214.87
231.384	51.03
231.601	51.03
231.819	190.29
232.037	69.46
232.254	-82.09
232.472	24.4
232.689	24.4
232.907	165.71
233.125	-67.75
233.342	-77.99
233.56	-12.46
233.777	36.69
233.995	36.69
234.213	87.89
234.43	87.89
234.648	-18.6
234.865	-26.79
235.083	69.46
235.3	96.08
235.518	130.9
235.735	151.38
235.953	77.65
236.17	100.18
236.388	-61.61
236.605	89.94
236.822	61.27
237.04	163.67
237.257	-0.17
237.475	-47.27
237.692	73.56
237.909	67.41
238.127	14.17
238.344	24.4
238.562	91.99
238.779	-26.79
238.996	18.26
239.214	67.41
239.431	46.93
239.648	1.88
239.865	79.7
240.083	100.18
240.3	-61.61
240.517	-34.99
240.735	42.84
240.952	100.18
241.169	12.12
241.386	91.99
241.603	28.5
241.821	-61.61
242.038	55.12
242.255	83.8
242.472	-71.85
242.689	42.84
242.907	104.28
243.124	-24.75
243.341	61.27
243.558	-22.7
243.775	-14.51
243.992	-34.99
244.209	104.28
244.426	204.63
244.643	3.93
244.86	-20.65
245.078	83.8
245.295	83.8
245.512	-39.08
245.729	28.5
245.946	36.69
246.163	110.42
246.38	26.45
246.597	106.32
246.814	57.17
247.031	1.88
247.248	42.84
247.464	102.23
247.681	18.26
247.898	44.88
248.115	110.42
248.332	12.12
248.549	53.08
248.766	194.39
248.983	151.38
249.2	112.47
249.417	44.88
249.633	-18.6
249.85	96.08
250.067	73.56
250.284	20.31
250.501	44.88
250.717	83.8
250.934	-49.32
251.151	24.4
251.368	-2.22
251.585	55.12
251.801	91.99
252.018	-98.47
252.235	102.23
252.451	-71.85
252.668	71.51
252.885	53.08
253.102	110.42
253.318	38.74
253.535	-6.31
253.752	20.31
253.968	-28.84
254.185	-53.42
254.401	28.5
254.618	46.93
254.835	12.12
255.051	59.22
255.268	69.46
255.484	81.75
255.701	36.69
255.917	98.13
256.134	32.6
256.351	3.93
256.567	-34.99
256.784	59.22
257	-112.81
257.217	132.95
257.433	141.14
257.65	48.98
257.866	163.67
258.082	-28.84
258.299	22.36
258.515	38.74
258.732	59.22
258.948	-0.17
259.165	147.28
259.381	1.88
259.597	87.89
259.814	-10.41
260.03	-34.99
260.246	3.93
260.463	100.18
260.679	112.47
260.895	36.69
261.112	18.26
261.328	26.45
261.544	8.02
261.761	135
261.977	-4.27
262.193	-18.6
262.409	81.75
262.626	120.66
262.842	10.07
263.058	-24.75
263.274	96.08
263.49	34.64
263.707	42.84
263.923	122.71
264.139	-26.79
264.355	94.04
264.571	71.51
264.787	79.7
265.004	108.37
265.22	8.02
265.436	40.79
265.652	12.12
265.868	12.12
266.084	-39.08
266.3	55.12
266.516	-10.41
266.732	26.45
266.948	79.7
267.164	30.55
267.38	73.56
267.596	132.95
267.812	212.82
268.028	53.08
268.244	3.93
268.46	135
268.676	-14.51
268.892	96.08
269.108	5.97
269.324	-10.41
269.54	-55.47
269.756	69.46
269.972	-12.46
270.188	28.5
270.403	8.02
270.619	65.36
270.835	34.64
271.051	91.99
271.267	-39.08
271.483	-32.94
271.698	100.18
271.914	89.94
272.13	61.27
272.346	30.55
272.562	91.99
272.777	141.14
272.993	5.97
273.209	55.12
273.425	147.28
273.64	-4.27
273.856	81.75
274.072	48.98
274.287	-73.9
274.503	96.08
274.719	120.66
274.934	20.31
275.15	22.36
275.366	87.89
275.581	-28.84
275.797	3.93
276.012	104.28
276.228	30.55
276.444	57.17
276.659	85.84
276.875	-47.27
277.09	96.08
277.306	10.07
277.521	91.99
277.737	-2.22
277.952	67.41
278.168	26.45
278.383	-51.37
278.599	153.43
278.814	145.24
279.03	48.98
279.245	163.67
279.461	36.69
279.676	104.28
279.892	-18.6
280.107	-8.36
280.322	30.55
280.538	34.64
280.753	67.41
280.969	14.17
281.184	-10.41
281.399	141.14
281.615	59.22
281.83	96.08
282.045	-0.17
282.26	-2.22
282.476	71.51
282.691	14.17
282.906	51.03
283.122	71.51
283.337	-16.55
283.552	57.17
283.767	20.31
283.983	57.17
284.198	69.46
284.413	12.12
284.628	-37.03
284.843	91.99
285.058	10.07
285.274	28.5
285.489	-26.79
285.704	139.09
285.919	38.74
286.134	34.64
286.349	71.51
286.564	16.21
286.779	190.29
286.995	-28.84
287.21	-32.94
287.425	118.61
287.64	22.36
287.855	112.47
288.07	10.07
288.285	194.39
288.5	77.65
288.715	61.27
288.93	-14.51
289.145	-30.89
289.36	77.65
289.575	-6.31
289.79	159.57
290.004	16.21
290.219	147.28
290.434	20.31
290.649	-30.89
290.864	-75.95
291.079	77.65
291.294	59.22
291.509	91.99
291.724	53.08
291.938	67.41
292.153	73.56
292.368	-4.27
292.583	36.69
292.798	16.21
293.012	67.41
293.227	145.24
293.442	38.74
293.657	91.99
293.871	106.32
294.086	34.64
294.301	243.54
294.516	153.43
294.73	-12.46
294.945	-16.55
295.16	-2.22
295.374	124.76
295.589	145.24
295.804	63.32
296.018	24.4
296.233	130.9
296.447	110.42
296.662	-67.75
296.877	104.28
297.091	135
297.306	18.26
297.52	24.4
297.735	22.36
297.949	67.41
298.164	1.88
298.378	116.56
298.593	-69.8
298.807	-4.27
299.022	73.56
299.236	141.14
299.451	-14.51
299.665	1.88
299.88	40.79
300.094	53.08
300.309	8.02
300.523	3.93
300.737	30.55
300.952	83.8
301.166	81.75
301.381	-75.95
301.595	-47.27
301.809	106.32
302.024	20.31
302.238	-100.52
302.452	40.79
302.667	96.08
302.881	81.75
303.095	151.38
303.309	16.21
303.524	16.21
303.738	38.74
303.952	55.12
304.166	85.84
304.381	-63.66
304.595	124.76
304.809	-0.17
305.023	-43.18
305.237	57.17
305.452	3.93
305.666	120.66
305.88	110.42
306.094	57.17
306.308	85.84
306.522	71.51
306.736	26.45
306.95	57.17
307.164	-22.7
307.379	5.97
307.593	24.4
307.807	184.15
308.021	91.99
308.235	110.42
308.449	-12.46
308.663	40.79
308.877	167.76
309.091	104.28
309.305	85.84
309.519	-137.38
309.733	151.38
309.947	-14.51
310.161	75.6
310.374	57.17
310.588	165.71
310.802	20.31
311.016	30.55
311.23	161.62
311.444	-30.89
311.658	34.64
311.872	61.27
312.085	184.15
312.299	130.9
312.513	169.81
312.727	65.36
312.941	-10.41
313.154	132.95
313.368	38.74
313.582	57.17
313.796	71.51
314.009	51.03
314.223	91.99
314.437	83.8
314.651	128.85
314.864	26.45
315.078	-12.46
315.292	-16.55
315.505	42.84
315.719	55.12
315.933	120.66
316.146	-6.31
316.36	18.26
316.573	98.13
316.787	53.08
317.001	118.61
317.214	-61.61
317.428	51.03
317.641	59.22
317.855	57.17
318.068	79.7
318.282	20.31
318.495	167.76
318.709	65.36
318.922	18.26
319.136	112.47
319.349	61.27
319.563	10.07
319.776	81.75
319.99	-14.51
320.203	91.99
320.417	44.88
320.63	116.56
320.843	178
321.057	81.75
321.27	30.55
321.483	44.88
321.697	184.15
321.91	28.5
322.124	14.17
322.337	100.18
322.55	-32.94
322.763	46.93
322.977	1.88
323.19	42.84
323.403	73.56
323.617	96.08
323.83	61.27
324.043	-8.36
324.256	18.26
324.469	-47.27
324.683	63.32
324.896	-6.31
325.109	48.98
325.322	-43.18
325.535	73.56
325.748	81.75
325.962	-2.22
326.175	-2.22
326.388	65.36
326.601	124.76
326.814	44.88
327.027	83.8
327.24	153.43
327.453	-77.99
327.666	139.09
327.879	212.82
328.092	132.95
328.305	57.17
328.518	5.97
328.731	16.21
328.944	-26.79
329.157	169.81
329.37	-12.46
329.583	149.33
329.796	128.85
330.009	-26.79
330.222	108.37
330.435	75.6
330.648	-18.6
330.861	75.6
331.073	3.93
331.286	91.99
331.499	53.08
331.712	-57.51
331.925	8.02
332.138	12.12
332.35	132.95
332.563	28.5
332.776	124.76
332.989	38.74
333.202	24.4
333.414	34.64
333.627	16.21
333.84	28.5
334.053	87.89
334.265	10.07
334.478	87.89
334.691	-0.17
334.903	53.08
335.116	73.56
335.329	16.21
335.541	83.8
335.754	202.58
335.966	63.32
336.179	-53.42
336.392	-37.03
336.604	32.6
336.817	139.09
337.029	55.12
337.242	14.17
337.454	5.97
337.667	-14.51
337.88	139.09
338.092	46.93
338.305	22.36
338.517	10.07
338.729	73.56
338.942	124.76
339.154	-2.22
339.367	-16.55
339.579	106.32
339.792	42.84
340.004	8.02
340.217	94.04
340.429	114.52
340.641	-24.75
340.854	-49.32
341.066	61.27
341.278	229.2
341.491	143.19
341.703	32.6
341.915	-4.27
342.128	91.99
342.34	79.7
342.552	-39.08
342.764	24.4
342.977	26.45
343.189	14.17
343.401	22.36
343.613	28.5
343.826	12.12
344.038	-22.7
344.25	8.02
344.462	14.17
344.674	-8.36
344.886	38.74
345.099	98.13
345.311	104.28
345.523	-0.17
345.735	-49.32
345.947	28.5
346.159	106.32
346.371	65.36
346.583	-24.75
346.795	175.95
347.007	5.97
347.219	81.75
347.431	71.51
347.643	147.28
347.855	-73.9
348.067	145.24
348.279	-16.55
348.491	-24.75
348.703	14.17
348.915	-43.18
349.127	36.69
349.339	71.51
349.551	1.88
349.763	24.4
349.975	55.12
350.187	120.66
350.399	67.41
350.61	61.27
350.822	96.08
351.034	14.17
351.246	83.8
351.458	110.42
351.669	79.7
351.881	137.04
352.093	139.09
352.305	81.75
352.517	42.84
352.728	112.47
352.94	108.37
353.152	122.71
353.363	-47.27
353.575	116.56
353.787	85.84
353.999	65.36
354.21	143.19
354.422	-0.17
354.633	42.84
354.845	139.09
355.057	65.36
355.268	34.64
355.48	71.51
355.692	20.31
355.903	106.32
356.115	-47.27
356.326	-53.42
356.538	100.18
356.749	61.27
356.961	145.24
357.172	118.61
357.384	-39.08
357.595	173.91
357.807	116.56
358.018	14.17
358.23	36.69
358.441	188.24
358.653	163.67
358.864	61.27
359.075	3.93
359.287	34.64
359.498	155.47
359.709	128.85
359.921	83.8
360.132	120.66
360.344	32.6
360.555	-49.32
360.766	57.17
360.977	34.64
361.189	100.18
361.4	38.74
361.611	255.83
361.823	157.52
362.034	124.76
362.245	-4.27
362.456	-22.7
362.667	124.76
362.879	-0.17
363.09	26.45
363.301	87.89
363.512	104.28
363.723	34.64
363.935	30.55
364.146	122.71
364.357	-18.6
364.568	173.91
364.779	-18.6
364.99	126.8
365.201	3.93
365.412	104.28
365.623	-86.19
365.834	135
366.045	94.04
366.256	137.04
366.467	87.89
366.678	16.21
366.889	71.51
367.1	24.4
367.311	34.64
367.522	-26.79
367.733	57.17
367.944	18.26
368.155	63.32
368.366	106.32
368.577	96.08
368.788	122.71
368.999	-43.18
369.209	22.36
369.42	169.81
369.631	208.72
369.842	120.66
370.053	26.45
370.264	46.93
370.474	-71.85
370.685	-18.6
370.896	38.74
371.107	112.47
371.317	57.17
371.528	-34.99
371.739	124.76
371.95	79.7
372.16	40.79
372.371	-63.66
372.582	-20.65
372.792	77.65
373.003	112.47
373.214	14.17
373.424	106.32
373.635	-61.61
373.846	190.29
374.056	96.08
374.267	137.04
374.477	-4.27
374.688	28.5
374.898	75.6
375.109	48.98
375.319	124.76
375.53	137.04
375.74	26.45
375.951	-28.84
376.161	124.76
376.372	182.1
376.582	83.8
376.793	14.17
377.003	-32.94
377.214	22.36
377.424	63.32
377.635	24.4
377.845	8.02
378.055	188.24
378.266	-26.79
378.476	67.41
378.686	89.94
378.897	143.19
379.107	161.62
379.317	112.47
379.528	-8.36
379.738	40.79
379.948	18.26
380.158	87.89
380.369	-30.89
380.579	104.28
380.789	22.36
380.999	116.56
381.21	130.9
381.42	132.95
381.63	57.17
381.84	102.23
382.05	73.56
382.261	116.56
382.471	61.27
382.681	-26.79
382.891	218.96
383.101	77.65
383.311	-39.08
383.521	26.45
383.731	94.04
383.941	122.71
384.151	-6.31
384.361	34.64
384.571	139.09
384.781	22.36
384.991	145.24
385.201	255.83
385.411	57.17
385.621	67.41
385.831	30.55
386.041	59.22
386.251	46.93
386.461	10.07
386.671	77.65
386.881	79.7
387.091	59.22
387.301	112.47
387.511	55.12
387.72	55.12
387.93	126.8
388.14	-20.65
388.35	14.17
388.56	112.47
388.769	102.23
388.979	-22.7
389.189	61.27
389.399	153.43
389.609	83.8
389.818	89.94
390.028	-41.13
390.238	12.12
390.447	-0.17
390.657	59.22
390.867	65.36
391.076	-133.29
391.286	65.36
391.496	75.6
391.705	112.47
391.915	106.32
392.125	124.76
392.334	34.64
392.544	163.67
392.753	-22.7
392.963	51.03
393.172	85.84
393.382	3.93
393.591	229.2
393.801	14.17
394.01	149.33
394.22	87.89
394.429	81.75
394.639	59.22
394.848	137.04
395.058	106.32
395.267	75.6
395.477	120.66
395.686	83.8
395.895	182.1
396.105	212.82
396.314	42.84
396.524	36.69
396.733	12.12
396.942	116.56
397.152	91.99
397.361	116.56
397.57	57.17
397.78	61.27
397.989	36.69
398.198	282.45
398.407	-12.46
398.617	32.6
398.826	24.4
399.035	-0.17
399.244	169.81
399.453	40.79
399.663	-22.7
399.872	139.09
400.081	10.07
400.29	128.85
400.499	-28.84
400.708	132.95
400.917	-22.7
401.127	-49.32
401.336	63.32
401.545	198.48
401.754	153.43
401.963	100.18
402.172	87.89
402.381	-12.46
402.59	30.55
402.799	-28.84
403.008	130.9
403.217	36.69
403.426	102.23
403.635	-53.42
403.844	59.22
404.053	-6.31
404.262	16.21
404.471	216.91
404.68	77.65
404.888	98.13
405.097	-14.51
405.306	98.13
405.515	153.43
405.724	-6.31
405.933	151.38
406.142	94.04
406.35	139.09
406.559	8.02
406.768	8.02
406.977	126.8
407.185	83.8
407.394	100.18
407.603	-26.79
407.812	87.89
408.02	141.14
408.229	65.36
408.438	120.66
408.646	3.93
408.855	59.22
409.064	91.99
409.272	46.93
409.481	96.08
409.69	5.97
409.898	-75.95
410.107	118.61
410.315	180.05
410.524	34.64
410.733	44.88
410.941	104.28
411.15	102.23
411.358	57.17
411.567	137.04
411.775	1.88
411.984	26.45
412.192	114.52
412.401	14.17
412.609	169.81
412.818	157.52
413.026	124.76
413.234	18.26
413.443	51.03
413.651	-20.65
413.86	81.75
414.068	114.52
414.276	118.61
414.485	-75.95
414.693	167.76
414.901	272.21
415.11	30.55
415.318	98.13
415.526	51.03
415.734	116.56
415.943	83.8
416.151	173.91
416.359	83.8
416.567	106.32
416.776	61.27
416.984	63.32
417.192	192.34
417.4	12.12
417.608	26.45
417.817	85.84
418.025	108.37
418.233	249.68
418.441	100.18
418.649	-8.36
418.857	98.13
419.065	122.71
419.273	34.64
419.481	20.31
419.689	26.45
419.897	-55.47
420.105	-63.66
420.313	79.7
420.521	120.66
420.729	143.19
420.937	57.17
421.145	44.88
421.353	110.42
421.561	89.94
421.769	85.84
421.977	32.6
422.185	128.85
422.393	61.27
422.601	149.33
422.809	8.02
423.017	26.45
423.224	91.99
423.432	120.66
423.64	53.08
423.848	212.82
424.056	5.97
424.263	94.04
424.471	34.64
424.679	196.43
424.887	26.45
425.094	87.89
425.302	32.6
425.51	81.75
425.718	137.04
425.925	73.56
426.133	38.74
426.341	175.95
426.548	-4.27
426.756	-37.03
426.964	188.24
427.171	94.04
427.379	120.66
427.586	81.75
427.794	159.57
428.001	130.9
428.209	102.23
428.417	169.81
428.624	141.14
428.832	135
429.039	59.22
429.247	108.37
429.454	167.76
429.662	251.73
429.869	145.24
430.076	44.88
430.284	110.42
430.491	124.76
430.699	182.1
430.906	175.95
431.114	102.23
431.321	118.61
431.528	147.28
431.736	210.77
431.943	116.56
432.15	216.91
432.358	268.11
432.565	251.73
432.772	-41.13
432.979	218.96
433.187	139.09
433.394	259.92
433.601	28.5
433.808	214.87
434.016	216.91
434.223	231.25
434.43	251.73
434.637	294.74
434.844	315.22
435.052	198.48
435.259	255.83
435.466	294.74
435.673	280.4
435.88	247.63
436.087	300.88
436.294	304.98
436.501	335.7
436.708	300.88
436.915	253.78
437.122	423.76
437.329	149.33
437.537	350.03
437.743	335.7
437.95	405.33
438.157	280.4
438.364	296.78
438.571	376.66
438.778	321.36
438.985	434
439.192	522.06
439.399	427.85
439.606	429.9
439.813	440.14
440.02	663.37
440.227	663.37
440.433	491.34
440.64	538.45
440.847	456.53
441.054	585.55
441.261	679.75
441.467	599.88
441.674	546.64
441.881	702.28
442.088	614.22
442.294	612.17
442.501	708.43
442.708	737.1
442.914	724.81
443.121	798.54
443.328	806.73
443.534	966.47
443.741	841.54
443.948	714.57
444.154	941.89
444.361	1032.01
444.568	917.32
444.774	1048.39
444.981	886.6
445.187	1136.45
445.394	1011.53
445.6	1013.57
445.807	1265.47
446.013	1277.76
446.22	1150.79
446.426	1343.3
446.633	1423.17
446.839	1574.72
447.046	1253.19
447.252	1552.19
447.459	1554.24
447.665	1611.58
447.871	1732.41
448.078	1750.84
448.284	1718.08
448.491	1873.72
448.697	1922.87
448.903	2027.32
449.11	1920.82
449.316	1974.07
449.522	2225.97
449.728	2234.16
449.935	2410.29
450.141	2377.52
450.347	2565.93
450.553	2453.3
450.76	2625.33
450.966	2664.24
451.172	2697
451.378	2909.99
451.584	2924.33
451.791	3163.94
451.997	3270.44
452.203	3319.59
452.409	3481.38
452.615	3620.64
452.821	3516.19
453.027	3649.31
453.233	4048.66
453.44	3821.34
453.646	4032.28
453.852	4230.93
454.058	4476.69
454.264	4581.14
454.47	4820.75
454.676	4777.74
454.882	5267.2
455.088	5041.93
455.294	5314.31
455.5	5865.21
455.705	6088.44
455.911	6065.91
456.117	6139.64
456.323	6420.21
456.529	6457.07
456.735	7096.04
456.941	7243.49
457.147	7362.28
457.352	7735.01
457.558	7792.35
457.764	8339.16
457.97	8552.15
458.176	8957.64
458.381	9363.14
458.587	9590.47
458.793	10135.23
458.999	10084.03
459.204	11157.16
459.41	11556.52
459.616	11439.78
459.821	12275.35
460.027	12637.84
460.233	13268.62
460.438	13305.48
460.644	14077.57
460.85	14173.82
461.055	14698.1
461.261	15392.36
461.466	15062.64
461.672	15449.71
461.878	17319.5
462.083	17276.49
462.289	17589.83
462.494	18251.33
462.7	18331.2
462.905	18744.89
463.111	20184.61
463.316	21141.01
463.522	21100.05
463.727	22160.9
463.932	22875.64
464.138	23617
464.343	24587.74
464.549	24800.73
464.754	26514.88
464.959	27041.21
465.165	27588.02
465.37	27555.25
465.575	27702.7
465.781	29314.45
465.986	30358.92
466.191	29754.77
466.397	30397.83
466.602	29336.98
466.807	31364.47
467.012	31583.6
467.218	32277.86
467.423	32286.06
467.628	33205.59
467.833	34741.57
468.038	34200.91
468.244	32955.74
468.449	35419.45
468.654	34782.53
