Data from USB4F104151__213__11-05-50-529.txt Node

Date: Wed Feb 26 11:05:50 EST 2025
User: louis
Spectrometer: USB4F10415
Trigger mode: 4
Integration Time (sec): 1.000000E-1
Scans to average: 1
Electric dark correction enabled: true
Nonlinearity correction enabled: false
Boxcar width: 0
XAxis mode: Wavelengths
Number of Pixels in Spectrum: 3648
>>>>>Begin Spectral Data<<<<<
178.204	-391.67
178.424	-391.67
178.644	-391.67
178.864	-391.67
179.084	-383.48
179.304	-16.9
179.524	-53.76
179.744	24.06
179.964	-0.51
180.184	99.84
180.404	-41.47
180.624	-23.04
180.844	-47.62
181.064	-33.28
181.283	19.97
181.503	15.87
181.723	56.83
181.943	-119.29
182.163	194.05
182.383	34.3
182.602	105.98
182.822	175.61
183.042	50.69
183.262	-23.04
183.482	3.58
183.701	-43.52
183.921	60.93
184.141	-2.56
184.361	24.06
184.58	32.26
184.8	-8.7
185.02	-59.9
185.239	60.93
185.459	112.13
185.679	105.98
185.898	-102.91
186.118	120.32
186.338	30.21
186.557	108.03
186.777	7.68
186.997	-68.09
187.216	-6.66
187.436	89.6
187.655	112.13
187.875	54.78
188.095	67.07
188.314	144.89
188.534	83.45
188.753	-68.09
188.973	93.69
189.192	177.66
189.412	54.78
189.631	46.59
189.851	97.79
190.07	200.19
190.29	-31.23
190.509	-45.57
190.729	65.02
190.948	130.56
191.168	228.86
191.387	54.78
191.607	11.78
191.826	77.31
192.045	-16.9
192.265	22.02
192.484	77.31
192.704	97.79
192.923	-100.86
193.142	177.66
193.362	87.55
193.581	171.52
193.8	3.58
194.02	40.45
194.239	71.17
194.458	105.98
194.678	9.73
194.897	50.69
195.116	11.78
195.335	9.73
195.555	13.82
195.774	-2.56
195.993	42.5
196.212	48.64
196.432	42.5
196.651	-10.75
196.87	26.11
197.089	249.34
197.308	34.3
197.528	50.69
197.747	-55.81
197.966	34.3
198.185	153.09
198.404	-96.77
198.623	42.5
198.842	103.93
199.062	67.07
199.281	116.22
199.5	17.92
199.719	24.06
199.938	108.03
200.157	105.98
200.376	101.89
200.595	157.18
200.814	-4.61
201.033	46.59
201.252	146.94
201.471	77.31
201.69	163.33
201.909	-23.04
202.128	77.31
202.347	79.36
202.566	67.07
202.785	-53.76
203.004	-68.09
203.223	224.76
203.442	77.31
203.661	32.26
203.879	114.17
204.098	81.41
204.317	-88.57
204.536	138.75
204.755	42.5
204.974	40.45
205.193	-35.33
205.411	194.05
205.63	118.27
205.849	11.78
206.068	11.78
206.287	-33.28
206.505	128.51
206.724	-39.42
206.943	-18.94
207.162	-41.47
207.381	11.78
207.599	-41.47
207.818	42.5
208.037	-31.23
208.255	30.21
208.474	24.06
208.693	9.73
208.911	-16.9
209.13	56.83
209.349	34.3
209.567	93.69
209.786	62.98
210.005	126.46
210.223	3.58
210.442	-78.33
210.661	40.45
210.879	22.02
211.098	34.3
211.316	30.21
211.535	124.41
211.753	46.59
211.972	95.74
212.191	24.06
212.409	-68.09
212.628	124.41
212.846	79.36
213.065	17.92
213.283	11.78
213.502	44.54
213.72	62.98
213.938	87.55
214.157	-20.99
214.375	101.89
214.594	-35.33
214.812	122.37
215.031	-25.09
215.249	65.02
215.467	-8.7
215.686	124.41
215.904	87.55
216.122	62.98
216.341	124.41
216.559	-10.75
216.778	99.84
216.996	83.45
217.214	77.31
217.432	11.78
217.651	-88.57
217.869	7.68
218.087	79.36
218.306	24.06
218.524	36.35
218.742	67.07
218.96	30.21
219.179	-8.7
219.397	-2.56
219.615	329.21
219.833	-20.99
220.051	-51.71
220.27	103.93
220.488	62.98
220.706	48.64
220.924	-20.99
221.142	-35.33
221.36	46.59
221.578	79.36
221.796	60.93
222.015	22.02
222.233	97.79
222.451	128.51
222.669	38.4
222.887	40.45
223.105	-37.38
223.323	-39.42
223.541	-6.66
223.759	87.55
223.977	85.5
224.195	89.6
224.413	40.45
224.631	-14.85
224.849	58.88
225.067	222.72
225.285	24.06
225.503	-76.29
225.721	-86.53
225.939	13.82
226.157	1.54
226.375	157.18
226.592	9.73
226.81	30.21
227.028	157.18
227.246	132.61
227.464	60.93
227.682	140.8
227.9	24.06
228.117	11.78
228.335	77.31
228.553	-43.52
228.771	89.6
228.989	24.06
229.206	99.84
229.424	36.35
229.642	-14.85
229.86	-33.28
230.077	77.31
230.295	108.03
230.513	62.98
230.731	60.93
230.948	173.57
231.166	85.5
231.384	-78.33
231.601	1.54
231.819	99.84
232.037	22.02
232.254	-57.86
232.472	22.02
232.689	-25.09
232.907	73.21
233.125	-43.52
233.342	-74.24
233.56	-2.56
233.777	32.26
233.995	26.11
234.213	75.26
234.43	97.79
234.648	-0.51
234.865	48.64
235.083	52.74
235.3	22.02
235.518	-4.61
235.735	69.12
235.953	50.69
236.17	-6.66
236.388	-0.51
236.605	71.17
236.822	65.02
237.04	83.45
237.257	105.98
237.475	3.58
237.692	19.97
237.909	52.74
238.127	-14.85
238.344	110.08
238.562	44.54
238.779	-39.42
238.996	-117.25
239.214	75.26
239.431	67.07
239.648	-39.42
239.865	46.59
240.083	69.12
240.3	11.78
240.517	-0.51
240.735	17.92
240.952	77.31
241.169	44.54
241.386	69.12
241.603	32.26
241.821	-96.77
242.038	124.41
242.255	30.21
242.472	9.73
242.689	1.54
242.907	65.02
243.124	54.78
243.341	79.36
243.558	-12.8
243.775	-25.09
243.992	5.63
244.209	93.69
244.426	81.41
244.643	42.5
244.86	-8.7
245.078	97.79
245.295	-2.56
245.512	-51.71
245.729	22.02
245.946	83.45
246.163	26.11
246.38	81.41
246.597	93.69
246.814	42.5
247.031	-8.7
247.248	26.11
247.464	62.98
247.681	38.4
247.898	85.5
248.115	48.64
248.332	-20.99
248.549	183.81
248.766	200.19
248.983	67.07
249.2	46.59
249.417	38.4
249.633	-0.51
249.85	75.26
250.067	48.64
250.284	46.59
250.501	50.69
250.717	71.17
250.934	-10.75
251.151	-16.9
251.368	13.82
251.585	-12.8
251.801	3.58
252.018	-55.81
252.235	142.85
252.451	-27.14
252.668	-25.09
252.885	108.03
253.102	22.02
253.318	-12.8
253.535	58.88
253.752	-25.09
253.968	-12.8
254.185	-20.99
254.401	97.79
254.618	122.37
254.835	-88.57
255.051	120.32
255.268	75.26
255.484	73.21
255.701	3.58
255.917	75.26
256.134	26.11
256.351	1.54
256.567	-92.67
256.784	-74.24
257	-111.1
257.217	56.83
257.433	79.36
257.65	11.78
257.866	108.03
258.082	-88.57
258.299	-31.23
258.515	89.6
258.732	26.11
258.948	13.82
259.165	28.16
259.381	30.21
259.597	81.41
259.814	-10.75
260.03	3.58
260.246	58.88
260.463	146.94
260.679	54.78
260.895	97.79
261.112	52.74
261.328	73.21
261.544	-59.9
261.761	112.13
261.977	-35.33
262.193	-94.72
262.409	79.36
262.626	-4.61
262.842	87.55
263.058	11.78
263.274	110.08
263.49	97.79
263.707	-0.51
263.923	144.89
264.139	-18.94
264.355	-10.75
264.571	124.41
264.787	19.97
265.004	91.65
265.22	-14.85
265.436	-29.18
265.652	-12.8
265.868	46.59
266.084	-18.94
266.3	1.54
266.516	-33.28
266.732	3.58
266.948	30.21
267.164	-64
267.38	42.5
267.596	112.13
267.812	183.81
268.028	5.63
268.244	-6.66
268.46	32.26
268.676	-41.47
268.892	44.54
269.108	13.82
269.324	-80.38
269.54	52.74
269.756	19.97
269.972	-143.87
270.188	9.73
270.403	-37.38
270.619	24.06
270.835	77.31
271.051	87.55
271.267	-41.47
271.483	30.21
271.698	157.18
271.914	13.82
272.13	-12.8
272.346	15.87
272.562	46.59
272.777	116.22
272.993	42.5
273.209	-8.7
273.425	48.64
273.64	-57.86
273.856	151.04
274.072	-8.7
274.287	-14.85
274.503	110.08
274.719	83.45
274.934	56.83
275.15	-16.9
275.366	28.16
275.581	-64
275.797	60.93
276.012	3.58
276.228	50.69
276.444	-10.75
276.659	214.52
276.875	-74.24
277.09	-25.09
277.306	-18.94
277.521	44.54
277.737	-33.28
277.952	151.04
278.168	17.92
278.383	-35.33
278.599	11.78
278.814	67.07
279.03	-10.75
279.245	105.98
279.461	-59.9
279.676	99.84
279.892	-57.86
280.107	3.58
280.322	-6.66
280.538	79.36
280.753	5.63
280.969	-14.85
281.184	30.21
281.399	130.56
281.615	-14.85
281.83	50.69
282.045	-23.04
282.26	-61.95
282.476	-35.33
282.691	71.17
282.906	62.98
283.122	26.11
283.337	56.83
283.552	83.45
283.767	-6.66
283.983	26.11
284.198	-39.42
284.413	99.84
284.628	-45.57
284.843	60.93
285.058	-47.62
285.274	1.54
285.489	-64
285.704	36.35
285.919	-66.05
286.134	71.17
286.349	28.16
286.564	13.82
286.779	85.5
286.995	-59.9
287.21	-43.52
287.425	48.64
287.64	1.54
287.855	19.97
288.07	-41.47
288.285	26.11
288.5	192
288.715	114.17
288.93	48.64
289.145	-70.14
289.36	60.93
289.575	-35.33
289.79	44.54
290.004	-27.14
290.219	42.5
290.434	-6.66
290.649	13.82
290.864	-66.05
291.079	-12.8
291.294	58.88
291.509	79.36
291.724	-47.62
291.938	-78.33
292.153	-45.57
292.368	24.06
292.583	52.74
292.798	52.74
293.012	26.11
293.227	116.22
293.442	-18.94
293.657	28.16
293.871	159.23
294.086	5.63
294.301	169.47
294.516	97.79
294.73	3.58
294.945	-53.76
295.16	-33.28
295.374	116.22
295.589	200.19
295.804	-0.51
296.018	-86.53
296.233	114.17
296.447	42.5
296.662	-82.43
296.877	97.79
297.091	75.26
297.306	-12.8
297.52	58.88
297.735	42.5
297.949	85.5
298.164	5.63
298.378	32.26
298.593	-10.75
298.807	15.87
299.022	42.5
299.236	134.65
299.451	-10.75
299.665	-18.94
299.88	13.82
300.094	62.98
300.309	54.78
300.523	-2.56
300.737	-35.33
300.952	77.31
301.166	48.64
301.381	-45.57
301.595	-25.09
301.809	77.31
302.024	19.97
302.238	40.45
302.452	114.17
302.667	13.82
302.881	99.84
303.095	36.35
303.309	15.87
303.524	52.74
303.738	1.54
303.952	-59.9
304.166	56.83
304.381	-125.44
304.595	108.03
304.809	-51.71
305.023	120.32
305.237	17.92
305.452	-27.14
305.666	38.4
305.88	130.56
306.094	95.74
306.308	24.06
306.522	153.09
306.736	36.35
306.95	79.36
307.164	79.36
307.379	3.58
307.593	159.23
307.807	56.83
308.021	110.08
308.235	118.27
308.449	-23.04
308.663	-25.09
308.877	218.62
309.091	87.55
309.305	58.88
309.519	-61.95
309.733	58.88
309.947	-10.75
310.161	40.45
310.374	46.59
310.588	181.76
310.802	-51.71
311.016	36.35
311.23	3.58
311.444	-23.04
311.658	26.11
311.872	124.41
312.085	134.65
312.299	77.31
312.513	99.84
312.727	30.21
312.941	-82.43
313.154	40.45
313.368	17.92
313.582	122.37
313.796	65.02
314.009	75.26
314.223	183.81
314.437	22.02
314.651	116.22
314.864	-31.23
315.078	60.93
315.292	-45.57
315.505	1.54
315.719	24.06
315.933	34.3
316.146	-82.43
316.36	-84.48
316.573	187.9
316.787	110.08
317.001	116.22
317.214	-23.04
317.428	30.21
317.641	11.78
317.855	24.06
318.068	-121.34
318.282	54.78
318.495	173.57
318.709	62.98
318.922	40.45
319.136	204.28
319.349	116.22
319.563	24.06
319.776	17.92
319.99	-133.63
320.203	79.36
320.417	28.16
320.63	48.64
320.843	214.52
321.057	38.4
321.27	7.68
321.483	46.59
321.697	155.13
321.91	69.12
322.124	83.45
322.337	73.21
322.55	-123.39
322.763	-0.51
322.977	40.45
323.19	-16.9
323.403	15.87
323.617	73.21
323.83	40.45
324.043	110.08
324.256	-10.75
324.469	-25.09
324.683	108.03
324.896	56.83
325.109	-2.56
325.322	3.58
325.535	110.08
325.748	52.74
325.962	24.06
326.175	122.37
326.388	99.84
326.601	110.08
326.814	36.35
327.027	30.21
327.24	171.52
327.453	-119.29
327.666	5.63
327.879	126.46
328.092	28.16
328.305	26.11
328.518	-43.52
328.731	-53.76
328.944	24.06
329.157	-14.85
329.37	-4.61
329.583	189.95
329.796	157.18
330.009	-104.96
330.222	22.02
330.435	60.93
330.648	40.45
330.861	38.4
331.073	7.68
331.286	112.13
331.499	108.03
331.712	-20.99
331.925	71.17
332.138	34.3
332.35	144.89
332.563	-0.51
332.776	161.28
332.989	-64
333.202	-29.18
333.414	40.45
333.627	28.16
333.84	-6.66
334.053	38.4
334.265	-0.51
334.478	-92.67
334.691	15.87
334.903	-14.85
335.116	-35.33
335.329	38.4
335.541	75.26
335.754	120.32
335.966	-25.09
336.179	40.45
336.392	-27.14
336.604	101.89
336.817	103.93
337.029	77.31
337.242	32.26
337.454	130.56
337.667	50.69
337.88	120.32
338.092	112.13
338.305	28.16
338.517	-0.51
338.729	42.5
338.942	114.17
339.154	-27.14
339.367	-90.62
339.579	60.93
339.792	-96.77
340.004	65.02
340.217	89.6
340.429	73.21
340.641	-18.94
340.854	-45.57
341.066	7.68
341.278	87.55
341.491	118.27
341.703	93.69
341.915	-51.71
342.128	116.22
342.34	44.54
342.552	-55.81
342.764	-45.57
342.977	36.35
343.189	54.78
343.401	-18.94
343.613	-37.38
343.826	34.3
344.038	-4.61
344.25	56.83
344.462	-39.42
344.674	99.84
344.886	-10.75
345.099	81.41
345.311	60.93
345.523	42.5
345.735	-139.77
345.947	-16.9
346.159	44.54
346.371	-31.23
346.583	-84.48
346.795	179.71
347.007	22.02
347.219	128.51
347.431	-6.66
347.643	136.7
347.855	52.74
348.067	126.46
348.279	-51.71
348.491	42.5
348.703	62.98
348.915	-59.9
349.127	-25.09
349.339	44.54
349.551	15.87
349.763	24.06
349.975	50.69
350.187	83.45
350.399	91.65
350.61	24.06
350.822	-92.67
351.034	38.4
351.246	108.03
351.458	67.07
351.669	89.6
351.881	67.07
352.093	155.13
352.305	73.21
352.517	30.21
352.728	122.37
352.94	26.11
353.152	40.45
353.363	-2.56
353.575	116.22
353.787	157.18
353.999	24.06
354.21	146.94
354.422	-61.95
354.633	11.78
354.845	19.97
355.057	46.59
355.268	34.3
355.48	5.63
355.692	-92.67
355.903	58.88
356.115	-37.38
356.326	-51.71
356.538	157.18
356.749	7.68
356.961	148.99
357.172	60.93
357.384	-12.8
357.595	216.57
357.807	52.74
358.018	91.65
358.23	3.58
358.441	116.22
358.653	122.37
358.864	54.78
359.075	-59.9
359.287	34.3
359.498	103.93
359.709	48.64
359.921	77.31
360.132	114.17
360.344	87.55
360.555	48.64
360.766	93.69
360.977	-8.7
361.189	73.21
361.4	28.16
361.611	67.07
361.823	34.3
362.034	1.54
362.245	1.54
362.456	7.68
362.667	44.54
362.879	-43.52
363.09	7.68
363.301	65.02
363.512	9.73
363.723	5.63
363.935	-53.76
364.146	124.41
364.357	52.74
364.568	34.3
364.779	-78.33
364.99	85.5
365.201	-51.71
365.412	148.99
365.623	-55.81
365.834	69.12
366.045	30.21
366.256	155.13
366.467	105.98
366.678	-2.56
366.889	1.54
367.1	-27.14
367.311	116.22
367.522	38.4
367.733	13.82
367.944	36.35
368.155	89.6
368.366	93.69
368.577	128.51
368.788	62.98
368.999	19.97
369.209	44.54
369.42	249.34
369.631	230.91
369.842	17.92
370.053	-10.75
370.264	77.31
370.474	1.54
370.685	58.88
370.896	54.78
371.107	95.74
371.317	83.45
371.528	17.92
371.739	103.93
371.95	83.45
372.16	60.93
372.371	-37.38
372.582	-14.85
372.792	192
373.003	65.02
373.214	17.92
373.424	146.94
373.635	-57.86
373.846	73.21
374.056	26.11
374.267	71.17
374.477	17.92
374.688	-64
374.898	9.73
375.109	114.17
375.319	38.4
375.53	67.07
375.74	77.31
375.951	60.93
376.161	56.83
376.372	85.5
376.582	-59.9
376.793	46.59
377.003	-80.38
377.214	-57.86
377.424	24.06
377.635	42.5
377.845	24.06
378.055	173.57
378.266	-8.7
378.476	9.73
378.686	3.58
378.897	87.55
379.107	60.93
379.317	71.17
379.528	40.45
379.738	46.59
379.948	-72.19
380.158	124.41
380.369	26.11
380.579	11.78
380.789	7.68
380.999	7.68
381.21	159.23
381.42	151.04
381.63	17.92
381.84	56.83
382.05	26.11
382.261	85.5
382.471	108.03
382.681	-84.48
382.891	171.52
383.101	75.26
383.311	-80.38
383.521	-20.99
383.731	105.98
383.941	85.5
384.151	36.35
384.361	24.06
384.571	69.12
384.781	28.16
384.991	128.51
385.201	89.6
385.411	52.74
385.621	-20.99
385.831	34.3
386.041	48.64
386.251	-16.9
386.461	95.74
386.671	-8.7
386.881	5.63
387.091	77.31
387.301	-18.94
387.511	81.41
387.72	81.41
387.93	60.93
388.14	-84.48
388.35	67.07
388.56	28.16
388.769	118.27
388.979	34.3
389.189	26.11
389.399	28.16
389.609	77.31
389.818	103.93
390.028	91.65
390.238	1.54
390.447	32.26
390.657	144.89
390.867	38.4
391.076	-115.2
391.286	58.88
391.496	15.87
391.705	-10.75
391.915	85.5
392.125	54.78
392.334	-4.61
392.544	101.89
392.753	-37.38
392.963	22.02
393.172	34.3
393.382	15.87
393.591	169.47
393.801	-25.09
394.01	114.17
394.22	87.55
394.429	17.92
394.639	65.02
394.848	50.69
395.058	34.3
395.267	-35.33
395.477	46.59
395.686	58.88
395.895	122.37
396.105	171.52
396.314	30.21
396.524	-6.66
396.733	-47.62
396.942	159.23
397.152	32.26
397.361	85.5
397.57	38.4
397.78	65.02
397.989	112.13
398.198	142.85
398.407	3.58
398.617	-10.75
398.826	13.82
399.035	-49.66
399.244	30.21
399.453	97.79
399.663	-18.94
399.872	97.79
400.081	-29.18
400.29	69.12
400.499	-31.23
400.708	50.69
400.917	5.63
401.127	71.17
401.336	11.78
401.545	194.05
401.754	146.94
401.963	146.94
402.172	36.35
402.381	-68.09
402.59	32.26
402.799	60.93
403.008	34.3
403.217	69.12
403.426	52.74
403.635	-41.47
403.844	83.45
404.053	-33.28
404.262	-10.75
404.471	169.47
404.68	93.69
404.888	-23.04
405.097	17.92
405.306	7.68
405.515	56.83
405.724	-18.94
405.933	38.4
406.142	-2.56
406.35	181.76
406.559	22.02
406.768	93.69
406.977	97.79
407.185	71.17
407.394	161.28
407.603	46.59
407.812	85.5
408.02	144.89
408.229	62.98
408.438	9.73
408.646	-74.24
408.855	-0.51
409.064	60.93
409.272	54.78
409.481	17.92
409.69	13.82
409.898	-20.99
410.107	69.12
410.315	24.06
410.524	-47.62
410.733	58.88
410.941	-16.9
411.15	126.46
411.358	38.4
411.567	112.13
411.775	7.68
411.984	73.21
412.192	114.17
412.401	42.5
412.609	179.71
412.818	151.04
413.026	34.3
413.234	5.63
413.443	-35.33
413.651	1.54
413.86	28.16
414.068	138.75
414.276	146.94
414.485	-66.05
414.693	101.89
414.901	185.85
415.11	50.69
415.318	44.54
415.526	1.54
415.734	151.04
415.943	5.63
416.151	87.55
416.359	60.93
416.567	38.4
416.776	134.65
416.984	151.04
417.192	144.89
417.4	52.74
417.608	3.58
417.817	60.93
418.025	132.61
418.233	93.69
418.441	3.58
418.649	34.3
418.857	58.88
419.065	167.42
419.273	-53.76
419.481	26.11
419.689	103.93
419.897	-2.56
420.105	-49.66
420.313	97.79
420.521	163.33
420.729	198.14
420.937	-31.23
421.145	-2.56
421.353	77.31
421.561	101.89
421.769	9.73
421.977	-47.62
422.185	62.98
422.393	77.31
422.601	148.99
422.809	58.88
423.017	75.26
423.224	30.21
423.432	171.52
423.64	65.02
423.848	71.17
424.056	-27.14
424.263	192
424.471	48.64
424.679	95.74
424.887	-49.66
425.094	175.61
425.302	60.93
425.51	26.11
425.718	171.52
425.925	85.5
426.133	48.64
426.341	243.2
426.548	52.74
426.756	44.54
426.964	93.69
427.171	-18.94
427.379	87.55
427.586	44.54
427.794	175.61
428.001	108.03
428.209	108.03
428.417	183.81
428.624	157.18
428.832	91.65
429.039	128.51
429.247	122.37
429.454	157.18
429.662	183.81
429.869	46.59
430.076	114.17
430.284	171.52
430.491	228.86
430.699	128.51
430.906	169.47
431.114	155.13
431.321	175.61
431.528	73.21
431.736	116.22
431.943	212.48
432.15	89.6
432.358	208.38
432.565	273.92
432.772	-43.52
432.979	198.14
433.187	245.24
433.394	208.38
433.601	108.03
433.808	210.43
434.016	249.34
434.223	228.86
434.43	179.71
434.637	261.63
434.844	159.23
435.052	259.58
435.259	245.24
435.466	292.35
435.673	269.82
435.88	286.2
436.087	302.59
436.294	351.74
436.501	349.69
436.708	300.54
436.915	382.46
437.122	431.61
437.329	267.77
437.537	343.55
437.743	407.03
437.95	454.14
438.157	433.66
438.364	429.56
438.571	380.41
438.778	509.43
438.985	515.58
439.192	505.34
439.399	466.42
439.606	491
439.813	558.58
440.02	626.17
440.227	747
440.433	665.08
440.64	556.54
440.847	511.48
441.054	665.08
441.261	794.1
441.467	747
441.674	663.03
441.881	767.48
442.088	759.28
442.294	808.44
442.501	812.53
442.708	814.58
442.914	906.74
443.121	916.98
443.328	935.41
443.534	1025.52
443.741	976.37
443.948	904.69
444.154	1023.47
444.361	1258.99
444.568	1140.21
444.774	1115.63
444.981	1140.21
445.187	1269.23
445.394	1246.7
445.6	1281.52
445.807	1494.51
446.013	1324.52
446.22	1467.88
446.426	1635.82
446.633	1723.88
446.839	1834.47
447.046	1674.73
447.252	1764.84
447.459	1816.04
447.665	1813.99
447.871	1994.21
448.078	2063.84
448.284	2100.7
448.491	2149.86
448.697	2297.31
448.903	2467.29
449.11	2588.12
449.316	2506.2
449.522	2696.66
449.728	2680.28
449.935	2833.88
450.141	2831.83
450.347	3200.46
450.553	3030.48
450.76	3165.65
450.966	3395.02
451.172	3331.53
451.378	3565
451.584	3573.19
451.791	3843.53
451.997	4007.36
452.203	3980.74
452.409	4230.59
452.615	4470.2
452.821	4292.03
453.027	4314.56
453.233	5100.98
453.44	4826.55
453.646	5182.9
453.852	5223.86
454.058	5578.15
454.264	5504.43
454.47	6026.66
454.676	6041
454.882	6469.02
455.088	6243.74
455.294	6559.13
455.5	7001.49
455.705	7333.26
455.911	7421.33
456.117	7832.97
456.323	7955.85
456.529	8013.19
456.735	8689.02
456.941	8996.21
457.147	9131.38
457.352	9487.73
457.558	9641.32
457.764	10358.11
457.97	10644.83
458.176	10986.84
458.381	11556.18
458.587	11730.25
458.793	12414.27
458.999	12401.99
459.204	13743.41
459.41	14452
459.616	14163.24
459.821	14818.59
460.027	15574.29
460.233	16346.37
460.438	16516.36
460.644	17349.88
460.85	17775.86
461.055	17990.89
461.261	19082.46
461.466	18668.77
461.672	19002.59
461.878	21494.97
462.083	20991.17
462.289	21488.82
462.494	22181.04
462.7	22586.54
462.905	23002.27
463.111	24927.36
463.316	25822.33
463.522	26567.79
463.727	27165.79
463.932	28220.5
464.138	29170.75
464.343	30366.77
464.549	30612.52
464.754	32998.41
464.959	33864.7
465.165	34354.16
465.37	34192.37
465.575	34167.8
465.781	36019.16
465.986	37258.18
466.191	36694.99
466.397	37110.73
466.602	36240.34
466.807	38577.08
467.012	39082.92
467.218	39658.4
467.423	39494.57
467.628	40633.24
467.833	42433.4
468.038	41644.93
468.244	41102.22
468.449	43404.14
468.654	42660.73
468.859	42423.16
469.064	42818.42
