Data from USB4F104151__265__11-20-28-533.txt Node

Date: Wed Feb 26 11:20:28 EST 2025
User: louis
Spectrometer: USB4F10415
Trigger mode: 4
Integration Time (sec): 1.000000E-1
Scans to average: 1
Electric dark correction enabled: true
Nonlinearity correction enabled: false
Boxcar width: 0
XAxis mode: Wavelengths
Number of Pixels in Spectrum: 3648
>>>>>Begin Spectral Data<<<<<
178.204	-488.61
178.424	-488.61
178.644	-488.61
178.864	-416.93
179.084	-418.98
179.304	35.67
179.524	21.33
179.744	25.43
179.964	21.33
180.184	2.9
180.404	-5.29
180.624	21.33
180.844	-3.24
181.064	-56.49
181.283	-54.44
181.503	-46.25
181.723	37.72
181.943	-81.07
182.163	211.79
182.383	54.1
182.602	80.72
182.822	133.97
183.042	72.53
183.262	37.72
183.482	-25.77
183.701	27.48
183.921	78.68
184.141	54.1
184.361	90.96
184.58	138.07
184.8	37.72
185.02	-56.49
185.239	99.16
185.459	62.29
185.679	142.16
185.898	2.9
186.118	54.1
186.338	76.63
186.557	66.39
186.777	-5.29
186.997	-11.43
187.216	0.85
187.436	176.98
187.655	66.39
187.875	74.58
188.095	-36.01
188.314	203.6
188.534	74.58
188.753	-36.01
188.973	187.22
189.192	209.75
189.412	-19.63
189.631	21.33
189.851	31.57
190.07	127.83
190.29	11.09
190.509	-3.24
190.729	97.11
190.948	45.91
191.168	246.61
191.387	58.2
191.607	25.43
191.826	4.95
192.045	29.52
192.265	-48.3
192.484	52.05
192.704	58.2
192.923	-21.67
193.142	191.31
193.362	93.01
193.581	205.65
193.8	17.24
194.02	95.06
194.239	93.01
194.458	99.16
194.678	29.52
194.897	-46.25
195.116	86.87
195.335	74.58
195.555	99.16
195.774	29.52
195.993	56.15
196.212	27.48
196.432	4.95
196.651	43.86
196.87	60.24
197.089	234.32
197.308	78.68
197.528	7
197.747	-58.54
197.966	-3.24
198.185	129.88
198.404	-9.39
198.623	133.97
198.842	76.63
199.062	78.68
199.281	131.92
199.5	-3.24
199.719	62.29
199.938	80.72
200.157	50
200.376	127.83
200.595	54.1
200.814	23.38
201.033	39.76
201.252	197.46
201.471	97.11
201.69	43.86
201.909	29.52
202.128	121.68
202.347	99.16
202.566	45.91
202.785	-156.84
203.004	29.52
203.223	256.85
203.442	84.82
203.661	17.24
203.879	45.91
204.098	148.31
204.317	-11.43
204.536	93.01
204.755	70.48
204.974	166.74
205.193	-3.24
205.411	119.64
205.63	93.01
205.849	19.29
206.068	23.38
206.287	-15.53
206.505	99.16
206.724	39.76
206.943	2.9
207.162	-25.77
207.381	125.78
207.599	39.76
207.818	31.57
208.037	-52.39
208.255	47.96
208.474	148.31
208.693	52.05
208.911	-25.77
209.13	88.92
209.349	74.58
209.567	90.96
209.786	23.38
210.005	123.73
210.223	76.63
210.442	-62.63
210.661	27.48
210.879	41.81
211.098	43.86
211.316	86.87
211.535	97.11
211.753	0.85
211.972	84.82
212.191	21.33
212.409	-11.43
212.628	4.95
212.846	47.96
213.065	136.02
213.283	62.29
213.502	17.24
213.72	56.15
213.938	-31.91
214.157	-17.58
214.375	97.11
214.594	-11.43
214.812	80.72
215.031	-1.19
215.249	37.72
215.467	33.62
215.686	52.05
215.904	76.63
216.122	21.33
216.341	170.83
216.559	105.3
216.778	105.3
216.996	150.36
217.214	70.48
217.432	-13.48
217.651	-68.78
217.869	60.24
218.087	95.06
218.306	35.67
218.524	29.52
218.742	-11.43
218.96	19.29
219.179	-29.87
219.397	50
219.615	219.99
219.833	115.54
220.051	19.29
220.27	74.58
220.488	33.62
220.706	90.96
220.924	-81.07
221.142	56.15
221.36	187.22
221.578	164.69
221.796	35.67
222.015	56.15
222.233	119.64
222.451	179.03
222.669	-27.82
222.887	9.05
223.105	-54.44
223.323	23.38
223.541	-95.4
223.759	13.14
223.977	25.43
224.195	148.31
224.413	93.01
224.631	58.2
224.849	90.96
225.067	287.57
225.285	17.24
225.503	-15.53
225.721	-99.5
225.939	7
226.157	70.48
226.375	234.32
226.592	33.62
226.81	-21.67
227.028	140.12
227.246	123.73
227.464	162.64
227.682	99.16
227.9	84.82
228.117	82.77
228.335	95.06
228.553	88.92
228.771	33.62
228.989	64.34
229.206	64.34
229.424	15.19
229.642	-58.54
229.86	9.05
230.077	152.4
230.295	84.82
230.513	39.76
230.731	72.53
230.948	160.59
231.166	176.98
231.384	23.38
231.601	-44.2
231.819	107.35
232.037	-11.43
232.254	-74.92
232.472	-11.43
232.689	43.86
232.907	103.25
233.125	54.1
233.342	2.9
233.56	45.91
233.777	-3.24
233.995	21.33
234.213	101.2
234.43	41.81
234.648	4.95
234.865	19.29
235.083	76.63
235.3	-9.39
235.518	43.86
235.735	117.59
235.953	72.53
236.17	27.48
236.388	2.9
236.605	95.06
236.822	86.87
237.04	82.77
237.257	74.58
237.475	-33.96
237.692	60.24
237.909	35.67
238.127	62.29
238.344	70.48
238.562	62.29
238.779	13.14
238.996	-38.06
239.214	74.58
239.431	56.15
239.648	15.19
239.865	123.73
240.083	109.4
240.3	-17.58
240.517	-119.98
240.735	68.44
240.952	90.96
241.169	80.72
241.386	78.68
241.603	-25.77
241.821	-11.43
242.038	154.45
242.255	136.02
242.472	-48.3
242.689	133.97
242.907	103.25
243.124	56.15
243.341	-9.39
243.558	15.19
243.775	-27.82
243.992	-66.73
244.209	160.59
244.426	166.74
244.643	33.62
244.86	33.62
245.078	109.4
245.295	2.9
245.512	64.34
245.729	-19.63
245.946	11.09
246.163	76.63
246.38	-7.34
246.597	58.2
246.814	43.86
247.031	78.68
247.248	72.53
247.464	31.57
247.681	4.95
247.898	4.95
248.115	66.39
248.332	-60.59
248.549	136.02
248.766	176.98
248.983	60.24
249.2	58.2
249.417	93.01
249.633	-11.43
249.85	17.24
250.067	64.34
250.284	78.68
250.501	70.48
250.717	107.35
250.934	-31.91
251.151	-17.58
251.368	64.34
251.585	78.68
251.801	86.87
252.018	-62.63
252.235	72.53
252.451	-70.83
252.668	4.95
252.885	156.5
253.102	64.34
253.318	90.96
253.535	-5.29
253.752	0.85
253.968	-5.29
254.185	-60.59
254.401	11.09
254.618	84.82
254.835	-19.63
255.051	125.78
255.268	84.82
255.484	35.67
255.701	23.38
255.917	80.72
256.134	-21.67
256.351	37.72
256.567	-89.26
256.784	84.82
257	-42.15
257.217	21.33
257.433	144.21
257.65	21.33
257.866	158.55
258.082	-25.77
258.299	-3.24
258.515	78.68
258.732	66.39
258.948	-29.87
259.165	93.01
259.381	25.43
259.597	70.48
259.814	68.44
260.03	9.05
260.246	-21.67
260.463	121.68
260.679	150.36
260.895	27.48
261.112	-54.44
261.328	41.81
261.544	21.33
261.761	148.31
261.977	-56.49
262.193	-64.68
262.409	58.2
262.626	25.43
262.842	111.44
263.058	39.76
263.274	70.48
263.49	56.15
263.707	76.63
263.923	68.44
264.139	-72.87
264.355	39.76
264.571	154.45
264.787	50
265.004	82.77
265.22	95.06
265.436	-56.49
265.652	58.2
265.868	25.43
266.084	0.85
266.3	35.67
266.516	15.19
266.732	27.48
266.948	74.58
267.164	27.48
267.38	68.44
267.596	99.16
267.812	103.25
268.028	33.62
268.244	-17.58
268.46	11.09
268.676	0.85
268.892	152.4
269.108	13.14
269.324	-56.49
269.54	7
269.756	41.81
269.972	-9.39
270.188	50
270.403	0.85
270.619	-9.39
270.835	152.4
271.051	74.58
271.267	0.85
271.483	33.62
271.698	54.1
271.914	93.01
272.13	56.15
272.346	2.9
272.562	23.38
272.777	131.92
272.993	-3.24
273.209	-29.87
273.425	70.48
273.64	-62.63
273.856	115.54
274.072	43.86
274.287	-1.19
274.503	64.34
274.719	74.58
274.934	-7.34
275.15	-58.54
275.366	50
275.581	27.48
275.797	66.39
276.012	95.06
276.228	50
276.444	90.96
276.659	172.88
276.875	15.19
277.09	-38.06
277.306	76.63
277.521	76.63
277.737	54.1
277.952	144.21
278.168	50
278.383	43.86
278.599	33.62
278.814	101.2
279.03	-13.48
279.245	111.44
279.461	80.72
279.676	88.92
279.892	-13.48
280.107	-52.39
280.322	-48.3
280.538	50
280.753	21.33
280.969	64.34
281.184	47.96
281.399	115.54
281.615	9.05
281.83	99.16
282.045	-93.35
282.26	23.38
282.476	76.63
282.691	33.62
282.906	-19.63
283.122	109.4
283.337	86.87
283.552	111.44
283.767	54.1
283.983	115.54
284.198	103.25
284.413	19.29
284.628	-101.55
284.843	11.09
285.058	68.44
285.274	-29.87
285.489	-5.29
285.704	52.05
285.919	-17.58
286.134	-17.58
286.349	-5.29
286.564	-62.63
286.779	154.45
286.995	68.44
287.21	-27.82
287.425	129.88
287.64	-27.82
287.855	146.26
288.07	-58.54
288.285	95.06
288.5	107.35
288.715	21.33
288.93	95.06
289.145	-11.43
289.36	23.38
289.575	99.16
289.79	125.78
290.004	-68.78
290.219	84.82
290.434	29.52
290.649	29.52
290.864	-38.06
291.079	9.05
291.294	35.67
291.509	117.59
291.724	-7.34
291.938	43.86
292.153	-27.82
292.368	56.15
292.583	-7.34
292.798	82.77
293.012	58.2
293.227	37.72
293.442	-48.3
293.657	37.72
293.871	183.12
294.086	138.07
294.301	185.17
294.516	172.88
294.73	107.35
294.945	-7.34
295.16	-7.34
295.374	97.11
295.589	23.38
295.804	-29.87
296.018	123.73
296.233	140.12
296.447	-13.48
296.662	23.38
296.877	54.1
297.091	101.2
297.306	45.91
297.52	90.96
297.735	117.59
297.949	50
298.164	101.2
298.378	37.72
298.593	7
298.807	11.09
299.022	86.87
299.236	119.64
299.451	50
299.665	23.38
299.88	-46.25
300.094	7
300.309	-19.63
300.523	9.05
300.737	74.58
300.952	33.62
301.166	156.5
301.381	9.05
301.595	-21.67
301.809	80.72
302.024	-42.15
302.238	-25.77
302.452	105.3
302.667	45.91
302.881	217.94
303.095	45.91
303.309	76.63
303.524	-11.43
303.738	45.91
303.952	-7.34
304.166	111.44
304.381	-81.07
304.595	160.59
304.809	27.48
305.023	58.2
305.237	47.96
305.452	-5.29
305.666	21.33
305.88	-21.67
306.094	168.79
306.308	25.43
306.522	74.58
306.736	35.67
306.95	150.36
307.164	-21.67
307.379	60.24
307.593	164.69
307.807	125.78
308.021	154.45
308.235	113.49
308.449	-99.5
308.663	76.63
308.877	238.42
309.091	142.16
309.305	107.35
309.519	-95.4
309.733	119.64
309.947	-38.06
310.161	82.77
310.374	158.55
310.588	150.36
310.802	-36.01
311.016	-1.19
311.23	142.16
311.444	-46.25
311.658	68.44
311.872	88.92
312.085	82.77
312.299	127.83
312.513	129.88
312.727	45.91
312.941	4.95
313.154	45.91
313.368	-5.29
313.582	39.76
313.796	62.29
314.009	31.57
314.223	125.78
314.437	17.24
314.651	93.01
314.864	-19.63
315.078	4.95
315.292	27.48
315.505	-50.35
315.719	97.11
315.933	84.82
316.146	15.19
316.36	-31.91
316.573	131.92
316.787	123.73
317.001	31.57
317.214	-33.96
317.428	74.58
317.641	-15.53
317.855	68.44
318.068	27.48
318.282	64.34
318.495	222.03
318.709	11.09
318.922	99.16
319.136	164.69
319.349	58.2
319.563	-76.97
319.776	111.44
319.99	-87.21
320.203	78.68
320.417	41.81
320.63	95.06
320.843	148.31
321.057	150.36
321.27	0.85
321.483	68.44
321.697	164.69
321.91	78.68
322.124	95.06
322.337	115.54
322.55	0.85
322.763	4.95
322.977	7
323.19	-15.53
323.403	60.24
323.617	4.95
323.83	138.07
324.043	47.96
324.256	54.1
324.469	-7.34
324.683	50
324.896	41.81
325.109	66.39
325.322	21.33
325.535	21.33
325.748	27.48
325.962	39.76
326.175	4.95
326.388	78.68
326.601	121.68
326.814	13.14
327.027	138.07
327.24	121.68
327.453	-7.34
327.666	109.4
327.879	60.24
328.092	115.54
328.305	129.88
328.518	-68.78
328.731	25.43
328.944	-52.39
329.157	33.62
329.37	35.67
329.583	179.03
329.796	146.26
330.009	-11.43
330.222	107.35
330.435	90.96
330.648	-64.68
330.861	-99.5
331.073	101.2
331.286	19.29
331.499	95.06
331.712	-52.39
331.925	33.62
332.138	-27.82
332.35	125.78
332.563	-5.29
332.776	125.78
332.989	-38.06
333.202	29.52
333.414	17.24
333.627	-48.3
333.84	4.95
334.053	72.53
334.265	-15.53
334.478	13.14
334.691	107.35
334.903	52.05
335.116	-23.72
335.329	39.76
335.541	52.05
335.754	150.36
335.966	4.95
336.179	31.57
336.392	-11.43
336.604	9.05
336.817	37.72
337.029	78.68
337.242	35.67
337.454	109.4
337.667	101.2
337.88	86.87
338.092	105.3
338.305	23.38
338.517	66.39
338.729	113.49
338.942	123.73
339.154	60.24
339.367	-107.69
339.579	0.85
339.792	-52.39
340.004	80.72
340.217	-31.91
340.429	27.48
340.641	9.05
340.854	-38.06
341.066	47.96
341.278	150.36
341.491	181.07
341.703	52.05
341.915	4.95
342.128	109.4
342.34	35.67
342.552	-33.96
342.764	23.38
342.977	43.86
343.189	66.39
343.401	70.48
343.613	-9.39
343.826	-31.91
344.038	-64.68
344.25	47.96
344.462	19.29
344.674	62.29
344.886	-1.19
345.099	86.87
345.311	66.39
345.523	25.43
345.735	-52.39
345.947	39.76
346.159	84.82
346.371	97.11
346.583	33.62
346.795	170.83
347.007	-13.48
347.219	86.87
347.431	-15.53
347.643	45.91
347.855	21.33
348.067	84.82
348.279	-29.87
348.491	58.2
348.703	54.1
348.915	21.33
349.127	-29.87
349.339	35.67
349.551	17.24
349.763	148.31
349.975	15.19
350.187	129.88
350.399	144.21
350.61	127.83
350.822	76.63
351.034	103.25
351.246	0.85
351.458	70.48
351.669	88.92
351.881	138.07
352.093	41.81
352.305	113.49
352.517	88.92
352.728	154.45
352.94	56.15
353.152	68.44
353.363	-89.26
353.575	50
353.787	123.73
353.999	29.52
354.21	131.92
354.422	19.29
354.633	64.34
354.845	43.86
355.057	78.68
355.268	-7.34
355.48	103.25
355.692	11.09
355.903	17.24
356.115	-62.63
356.326	-126.12
356.538	142.16
356.749	52.05
356.961	119.64
357.172	78.68
357.384	-11.43
357.595	242.51
357.807	-7.34
358.018	52.05
358.23	-21.67
358.441	181.07
358.653	56.15
358.864	21.33
359.075	-119.98
359.287	45.91
359.498	95.06
359.709	129.88
359.921	33.62
360.132	41.81
360.344	15.19
360.555	-15.53
360.766	72.53
360.977	52.05
361.189	64.34
361.4	54.1
361.611	193.36
361.823	103.25
362.034	56.15
362.245	-97.45
362.456	127.83
362.667	99.16
362.879	-7.34
363.09	45.91
363.301	101.2
363.512	35.67
363.723	-11.43
363.935	21.33
364.146	103.25
364.357	64.34
364.568	117.59
364.779	-74.92
364.99	13.14
365.201	-52.39
365.412	54.1
365.623	-83.11
365.834	-5.29
366.045	23.38
366.256	37.72
366.467	78.68
366.678	-31.91
366.889	39.76
367.1	-40.11
367.311	86.87
367.522	-21.67
367.733	105.3
367.944	58.2
368.155	27.48
368.366	0.85
368.577	74.58
368.788	125.78
368.999	-33.96
369.209	82.77
369.42	226.13
369.631	199.51
369.842	58.2
370.053	56.15
370.264	62.29
370.474	-36.01
370.685	35.67
370.896	58.2
371.107	60.24
371.317	172.88
371.528	35.67
371.739	101.2
371.95	50
372.16	93.01
372.371	-11.43
372.582	90.96
372.792	101.2
373.003	43.86
373.214	101.2
373.424	172.88
373.635	-132.26
373.846	127.83
374.056	29.52
374.267	84.82
374.477	27.48
374.688	-7.34
374.898	105.3
375.109	21.33
375.319	43.86
375.53	215.89
375.74	82.77
375.951	-31.91
376.161	56.15
376.372	125.78
376.582	17.24
376.793	62.29
377.003	27.48
377.214	4.95
377.424	88.92
377.635	47.96
377.845	70.48
378.055	113.49
378.266	-17.58
378.476	-27.82
378.686	93.01
378.897	97.11
379.107	189.27
379.317	41.81
379.528	70.48
379.738	156.5
379.948	-101.55
380.158	125.78
380.369	121.68
380.579	54.1
380.789	-7.34
380.999	131.92
381.21	166.74
381.42	191.31
381.63	29.52
381.84	156.5
382.05	103.25
382.261	111.44
382.471	111.44
382.681	29.52
382.891	133.97
383.101	95.06
383.311	-62.63
383.521	45.91
383.731	111.44
383.941	58.2
384.151	66.39
384.361	-58.54
384.571	80.72
384.781	64.34
384.991	185.17
385.201	179.03
385.411	95.06
385.621	66.39
385.831	47.96
386.041	68.44
386.251	66.39
386.461	125.78
386.671	84.82
386.881	68.44
387.091	-9.39
387.301	56.15
387.511	9.05
387.72	58.2
387.93	76.63
388.14	66.39
388.35	0.85
388.56	127.83
388.769	70.48
388.979	64.34
389.189	-23.72
389.399	47.96
389.609	60.24
389.818	166.74
390.028	41.81
390.238	88.92
390.447	35.67
390.657	25.43
390.867	21.33
391.076	-87.21
391.286	54.1
391.496	4.95
391.705	58.2
391.915	109.4
392.125	50
392.334	19.29
392.544	133.97
392.753	103.25
392.963	-15.53
393.172	82.77
393.382	-11.43
393.591	176.98
393.801	-33.96
394.01	125.78
394.22	101.2
394.429	60.24
394.639	50
394.848	68.44
395.058	93.01
395.267	13.14
395.477	125.78
395.686	123.73
395.895	213.84
396.105	156.5
396.314	41.81
396.524	80.72
396.733	39.76
396.942	115.54
397.152	107.35
397.361	109.4
397.57	76.63
397.78	107.35
397.989	76.63
398.198	127.83
398.407	66.39
398.617	33.62
398.826	43.86
399.035	41.81
399.244	88.92
399.453	13.14
399.663	4.95
399.872	2.9
400.081	-33.96
400.29	127.83
400.499	19.29
400.708	148.31
400.917	23.38
401.127	78.68
401.336	11.09
401.545	234.32
401.754	150.36
401.963	131.92
402.172	50
402.381	45.91
402.59	-13.48
402.799	2.9
403.008	50
403.217	95.06
403.426	99.16
403.635	-70.83
403.844	62.29
404.053	-13.48
404.262	4.95
404.471	111.44
404.68	4.95
404.888	88.92
405.097	-11.43
405.306	105.3
405.515	140.12
405.724	25.43
405.933	148.31
406.142	111.44
406.35	174.93
406.559	9.05
406.768	4.95
406.977	133.97
407.185	21.33
407.394	121.68
407.603	23.38
407.812	17.24
408.02	29.52
408.229	41.81
408.438	131.92
408.646	17.24
408.855	39.76
409.064	86.87
409.272	19.29
409.481	105.3
409.69	-15.53
409.898	-42.15
410.107	58.2
410.315	107.35
410.524	29.52
410.733	31.57
410.941	123.73
411.15	162.64
411.358	33.62
411.567	209.75
411.775	19.29
411.984	131.92
412.192	58.2
412.401	90.96
412.609	129.88
412.818	189.27
413.026	131.92
413.234	39.76
413.443	78.68
413.651	25.43
413.86	-9.39
414.068	99.16
414.276	187.22
414.485	47.96
414.693	162.64
414.901	203.6
415.11	136.02
415.318	86.87
415.526	-13.48
415.734	158.55
415.943	131.92
416.151	99.16
416.359	-1.19
416.567	56.15
416.776	78.68
416.984	131.92
417.192	246.61
417.4	31.57
417.608	56.15
417.817	13.14
418.025	146.26
418.233	203.6
418.441	41.81
418.649	-95.4
418.857	127.83
419.065	136.02
419.273	17.24
419.481	-3.24
419.689	-3.24
419.897	-11.43
420.105	-31.91
420.313	113.49
420.521	156.5
420.729	154.45
420.937	84.82
421.145	-38.06
421.353	84.82
421.561	195.41
421.769	119.64
421.977	19.29
422.185	95.06
422.393	66.39
422.601	148.31
422.809	35.67
423.017	93.01
423.224	127.83
423.432	74.58
423.64	7
423.848	172.88
424.056	2.9
424.263	115.54
424.471	43.86
424.679	179.03
424.887	-93.35
425.094	125.78
425.302	117.59
425.51	2.9
425.718	21.33
425.925	52.05
426.133	52.05
426.341	160.59
426.548	101.2
426.756	84.82
426.964	64.34
427.171	23.38
427.379	76.63
427.586	127.83
427.794	107.35
428.001	197.46
428.209	78.68
428.417	142.16
428.624	125.78
428.832	90.96
429.039	80.72
429.247	82.77
429.454	107.35
429.662	201.55
429.869	88.92
430.076	86.87
430.284	203.6
430.491	252.75
430.699	146.26
430.906	258.9
431.114	62.29
431.321	162.64
431.528	113.49
431.736	95.06
431.943	166.74
432.15	133.97
432.358	252.75
432.565	262.99
432.772	78.68
432.979	201.55
433.187	140.12
433.394	238.42
433.601	162.64
433.808	242.51
434.016	217.94
434.223	308.05
434.43	199.51
434.637	301.9
434.844	306
435.052	277.33
435.259	283.47
435.466	260.95
435.673	277.33
435.88	252.75
436.087	371.54
436.294	377.68
436.501	461.65
436.708	385.87
436.915	310.1
437.122	330.58
437.329	279.38
437.537	383.82
437.743	328.53
437.95	512.85
438.157	465.74
438.364	398.16
438.571	379.73
438.778	418.64
438.985	467.79
439.192	557.9
439.399	557.9
439.606	482.13
439.813	578.38
440.02	664.4
440.227	740.17
440.433	633.68
440.64	596.81
440.847	486.22
441.054	607.05
441.261	752.46
441.467	635.72
441.674	590.67
441.881	836.42
442.088	654.16
442.294	826.18
442.501	906.06
442.708	934.73
442.914	811.85
443.121	981.83
443.328	973.64
443.534	1041.22
443.741	1088.32
443.948	774.99
444.154	1073.99
444.361	1286.98
444.568	1172.29
444.774	1168.2
444.981	1104.71
445.187	1334.08
445.394	1405.76
445.6	1274.69
445.807	1534.78
446.013	1420.1
446.22	1516.35
446.426	1563.45
446.633	1704.76
446.839	1788.73
447.046	1557.31
447.252	1762.11
447.459	1815.35
447.665	1874.74
447.871	2024.25
448.078	2120.5
448.284	2003.77
448.491	2247.48
448.697	2372.4
448.903	2331.44
449.11	2474.8
449.316	2384.69
449.522	2581.29
449.728	2790.19
449.935	2818.86
450.141	2831.15
450.347	3037.99
450.553	3058.47
450.76	3003.18
450.966	3291.94
451.172	3423.01
451.378	3451.68
451.584	3578.65
451.791	3803.93
451.997	3986.2
452.203	3937.05
452.409	3998.49
452.615	4344.6
452.821	4180.76
453.027	4309.78
453.233	4700.94
453.44	4641.55
453.646	5014.28
453.852	5145.35
454.058	5243.65
454.264	5489.41
454.47	5696.25
454.676	5954.3
454.882	6503.15
455.088	6107.9
455.294	6630.13
455.5	6929.13
455.705	7193.32
455.911	7197.42
456.117	7359.21
456.323	7729.89
456.529	7887.58
456.735	8463.06
456.941	8729.3
457.147	8991.44
457.352	9140.94
457.558	9345.73
457.764	10148.54
457.97	10394.29
458.176	10779.31
458.381	11270.83
458.587	11293.35
458.793	12163.74
458.999	11795.11
459.204	13193.87
459.41	13937.28
459.616	13625.99
459.821	14539.38
460.027	15301.23
460.233	15981.15
460.438	15862.37
460.644	16786.01
460.85	16806.48
461.055	17470.03
461.261	18494.01
461.466	18326.08
461.672	18469.44
461.878	20779.54
462.083	20279.84
462.289	20881.94
462.494	21664.27
462.7	21586.44
462.905	22030.85
463.111	24113.64
463.316	25422.29
463.522	25502.16
463.727	26393.03
463.932	27181.49
464.138	28602.78
464.343	29225.37
464.549	29215.13
464.754	31299.96
464.959	32455.01
465.165	32584.04
465.37	32555.36
465.575	32469.35
465.781	34871.62
465.986	36122.93
466.191	35399.99
466.397	35385.66
466.602	35342.65
466.807	37028.13
467.012	37875.99
467.218	38123.79
467.423	38213.9
467.628	39416.06
467.833	41408.73
468.038	40524.01
468.244	39657.72
468.449	41664.73
468.654	41199.84
468.859	40884.45
469.064	41148.64
469.269	40104.18
469.474	40513.77
