Data from USB4F104151__203__11-05-38-029.txt Node

Date: Wed Feb 26 11:05:38 EST 2025
User: louis
Spectrometer: USB4F10415
Trigger mode: 4
Integration Time (sec): 1.000000E-1
Scans to average: 1
Electric dark correction enabled: true
Nonlinearity correction enabled: false
Boxcar width: 0
XAxis mode: Wavelengths
Number of Pixels in Spectrum: 3648
>>>>>Begin Spectral Data<<<<<
178.204	-372.05
178.424	-372.05
178.644	-372.05
178.864	-339.28
179.084	-378.19
179.304	33.45
179.524	45.74
179.744	-13.65
179.964	107.18
180.184	-13.65
180.404	6.83
180.624	-30.04
180.844	-46.42
181.064	-95.57
181.283	-15.7
181.503	-56.66
181.723	78.51
181.943	-79.19
182.163	217.77
182.383	31.4
182.602	117.42
182.822	174.76
183.042	72.36
183.262	-32.08
183.482	27.31
183.701	33.45
183.921	60.07
184.141	-11.61
184.361	131.75
184.58	84.65
184.8	17.07
185.02	-42.32
185.239	127.66
185.459	101.03
185.679	43.69
185.898	-42.32
186.118	-15.7
186.338	33.45
186.557	133.8
186.777	-54.61
186.997	-7.51
187.216	-13.65
187.436	215.72
187.655	74.41
187.875	185
188.095	84.65
188.314	185
188.534	107.18
188.753	-44.37
188.973	123.56
189.192	162.47
189.412	4.78
189.631	35.5
189.851	76.46
190.07	234.15
190.29	-25.94
190.509	8.87
190.729	-17.75
190.948	76.46
191.168	287.4
191.387	-11.61
191.607	10.92
191.826	35.5
192.045	58.03
192.265	66.22
192.484	47.79
192.704	80.55
192.923	19.11
193.142	215.72
193.362	160.42
193.581	144.04
193.8	68.27
194.02	76.46
194.239	31.4
194.458	80.55
194.678	31.4
194.897	21.16
195.116	68.27
195.335	31.4
195.555	47.79
195.774	41.64
195.993	98.99
196.212	109.23
196.432	68.27
196.651	0.68
196.87	62.12
197.089	250.53
197.308	35.5
197.528	64.17
197.747	-46.42
197.966	86.7
198.185	180.9
198.404	-52.56
198.623	225.96
198.842	170.66
199.062	66.22
199.281	129.7
199.5	-30.04
199.719	96.94
199.938	88.75
200.157	103.08
200.376	88.75
200.595	144.04
200.814	94.89
201.033	19.11
201.252	191.14
201.471	-7.51
201.69	119.46
201.909	76.46
202.128	162.47
202.347	107.18
202.566	78.51
202.785	-13.65
203.004	-27.99
203.223	236.2
203.442	25.26
203.661	35.5
203.879	109.23
204.098	189.1
204.317	21.16
204.536	111.27
204.755	60.07
204.974	92.84
205.193	15.02
205.411	133.8
205.63	146.09
205.849	86.7
206.068	0.68
206.287	-34.13
206.505	213.67
206.724	58.03
206.943	-54.61
207.162	-87.38
207.381	76.46
207.599	72.36
207.818	84.65
208.037	64.17
208.255	17.07
208.474	51.88
208.693	68.27
208.911	62.12
209.13	154.28
209.349	117.42
209.567	113.32
209.786	76.46
210.005	86.7
210.223	96.94
210.442	-50.52
210.661	94.89
210.879	70.31
211.098	115.37
211.316	88.75
211.535	90.79
211.753	76.46
211.972	78.51
212.191	-21.84
212.409	101.03
212.628	113.32
212.846	55.98
213.065	94.89
213.283	133.8
213.502	49.83
213.72	76.46
213.938	47.79
214.157	-19.8
214.375	101.03
214.594	-9.56
214.812	66.22
215.031	10.92
215.249	55.98
215.467	98.99
215.686	25.26
215.904	72.36
216.122	43.69
216.341	111.27
216.559	86.7
216.778	82.6
216.996	158.38
217.214	117.42
217.432	4.78
217.651	-7.51
217.869	55.98
218.087	98.99
218.306	-27.99
218.524	51.88
218.742	43.69
218.96	125.61
219.179	-34.13
219.397	-9.56
219.615	277.16
219.833	74.41
220.051	-21.84
220.27	150.18
220.488	144.04
220.706	96.94
220.924	2.73
221.142	-25.94
221.36	10.92
221.578	103.08
221.796	82.6
222.015	33.45
222.233	33.45
222.451	180.9
222.669	27.31
222.887	158.38
223.105	-3.41
223.323	27.31
223.541	-52.56
223.759	103.08
223.977	-3.41
224.195	158.38
224.413	78.51
224.631	37.55
224.849	115.37
225.067	195.24
225.285	113.32
225.503	35.5
225.721	-132.44
225.939	-7.51
226.157	31.4
226.375	185
226.592	43.69
226.81	76.46
227.028	170.66
227.246	115.37
227.464	66.22
227.682	187.05
227.9	84.65
228.117	62.12
228.335	109.23
228.553	82.6
228.771	82.6
228.989	58.03
229.206	133.8
229.424	96.94
229.642	-38.23
229.86	8.87
230.077	129.7
230.295	33.45
230.513	150.18
230.731	92.84
230.948	123.56
231.166	215.72
231.384	86.7
231.601	41.64
231.819	166.57
232.037	-15.7
232.254	-15.7
232.472	68.27
232.689	-3.41
232.907	172.71
233.125	49.83
233.342	-40.28
233.56	-44.37
233.777	8.87
233.995	8.87
234.213	41.64
234.43	129.7
234.648	29.35
234.865	-21.84
235.083	90.79
235.3	78.51
235.518	127.66
235.735	103.08
235.953	127.66
236.17	49.83
236.388	-38.23
236.605	12.97
236.822	150.18
237.04	98.99
237.257	96.94
237.475	-52.56
237.692	53.93
237.909	156.33
238.127	-5.46
238.344	113.32
238.562	68.27
238.779	-30.04
238.996	15.02
239.214	31.4
239.431	76.46
239.648	90.79
239.865	88.75
240.083	94.89
240.3	-27.99
240.517	39.59
240.735	41.64
240.952	111.27
241.169	141.99
241.386	60.07
241.603	84.65
241.821	-64.85
242.038	137.9
242.255	82.6
242.472	25.26
242.689	101.03
242.907	53.93
243.124	98.99
243.341	60.07
243.558	-34.13
243.775	15.02
243.992	-52.56
244.209	92.84
244.426	203.43
244.643	135.85
244.86	68.27
245.078	129.7
245.295	25.26
245.512	10.92
245.729	66.22
245.946	68.27
246.163	96.94
246.38	35.5
246.597	92.84
246.814	82.6
247.031	72.36
247.248	29.35
247.464	137.9
247.681	25.26
247.898	119.46
248.115	137.9
248.332	4.78
248.549	123.56
248.766	92.84
248.983	144.04
249.2	123.56
249.417	123.56
249.633	23.21
249.85	139.94
250.067	41.64
250.284	111.27
250.501	109.23
250.717	86.7
250.934	8.87
251.151	76.46
251.368	70.31
251.585	25.26
251.801	125.61
252.018	60.07
252.235	94.89
252.451	0.68
252.668	25.26
252.885	76.46
253.102	88.75
253.318	103.08
253.535	-89.43
253.752	-50.52
253.968	49.83
254.185	12.97
254.401	92.84
254.618	64.17
254.835	6.83
255.051	115.37
255.268	137.9
255.484	35.5
255.701	96.94
255.917	92.84
256.134	-101.72
256.351	76.46
256.567	41.64
256.784	-5.46
257	-36.18
257.217	92.84
257.433	96.94
257.65	29.35
257.866	201.38
258.082	-77.14
258.299	25.26
258.515	10.92
258.732	8.87
258.948	17.07
259.165	88.75
259.381	-11.61
259.597	133.8
259.814	53.93
260.03	-9.56
260.246	88.75
260.463	105.13
260.679	166.57
260.895	2.73
261.112	76.46
261.328	25.26
261.544	-25.94
261.761	170.66
261.977	-40.28
262.193	55.98
262.409	105.13
262.626	2.73
262.842	47.79
263.058	-7.51
263.274	105.13
263.49	74.41
263.707	133.8
263.923	78.51
264.139	21.16
264.355	41.64
264.571	133.8
264.787	17.07
265.004	164.52
265.22	41.64
265.436	-87.38
265.652	60.07
265.868	51.88
266.084	-9.56
266.3	47.79
266.516	25.26
266.732	-3.41
266.948	60.07
267.164	-9.56
267.38	103.08
267.596	92.84
267.812	182.95
268.028	35.5
268.244	45.74
268.46	80.55
268.676	68.27
268.892	-7.51
269.108	45.74
269.324	6.83
269.54	8.87
269.756	72.36
269.972	-44.37
270.188	58.03
270.403	-11.61
270.619	-21.84
270.835	88.75
271.051	55.98
271.267	66.22
271.483	47.79
271.698	86.7
271.914	33.45
272.13	78.51
272.346	62.12
272.562	41.64
272.777	92.84
272.993	49.83
273.209	-79.19
273.425	82.6
273.64	-54.61
273.856	80.55
274.072	-3.41
274.287	60.07
274.503	82.6
274.719	166.57
274.934	-15.7
275.15	-81.24
275.366	33.45
275.581	-11.61
275.797	101.03
276.012	107.18
276.228	23.21
276.444	84.65
276.659	68.27
276.875	-77.14
277.09	98.99
277.306	117.42
277.521	84.65
277.737	-5.46
277.952	72.36
278.168	80.55
278.383	31.4
278.599	15.02
278.814	121.51
279.03	43.69
279.245	125.61
279.461	82.6
279.676	127.66
279.892	-36.18
280.107	-25.94
280.322	62.12
280.538	15.02
280.753	-5.46
280.969	29.35
281.184	-3.41
281.399	137.9
281.615	-21.84
281.83	111.27
282.045	-27.99
282.26	-5.46
282.476	-17.75
282.691	113.32
282.906	25.26
283.122	68.27
283.337	35.5
283.552	90.79
283.767	117.42
283.983	133.8
284.198	-44.37
284.413	135.85
284.628	-56.66
284.843	117.42
285.058	109.23
285.274	21.16
285.489	-103.76
285.704	98.99
285.919	-17.75
286.134	94.89
286.349	45.74
286.564	-38.23
286.779	137.9
286.995	17.07
287.21	-27.99
287.425	119.46
287.64	29.35
287.855	55.98
288.07	-54.61
288.285	49.83
288.5	94.89
288.715	123.56
288.93	19.11
289.145	-27.99
289.36	131.75
289.575	35.5
289.79	125.61
290.004	0.68
290.219	129.7
290.434	8.87
290.649	6.83
290.864	10.92
291.079	-9.56
291.294	19.11
291.509	43.69
291.724	80.55
291.938	51.88
292.153	94.89
292.368	29.35
292.583	23.21
292.798	58.03
293.012	94.89
293.227	111.27
293.442	21.16
293.657	117.42
293.871	166.57
294.086	41.64
294.301	178.86
294.516	129.7
294.73	107.18
294.945	-93.52
295.16	6.83
295.374	117.42
295.589	84.65
295.804	29.35
296.018	53.93
296.233	121.51
296.447	107.18
296.662	-99.67
296.877	152.23
297.091	64.17
297.306	0.68
297.52	45.74
297.735	94.89
297.949	49.83
298.164	33.45
298.378	35.5
298.593	66.22
298.807	37.55
299.022	8.87
299.236	137.9
299.451	98.99
299.665	-32.08
299.88	41.64
300.094	76.46
300.309	33.45
300.523	21.16
300.737	107.18
300.952	141.99
301.166	119.46
301.381	-42.32
301.595	-50.52
301.809	2.73
302.024	-11.61
302.238	15.02
302.452	107.18
302.667	53.93
302.881	131.75
303.095	43.69
303.309	68.27
303.524	60.07
303.738	-48.47
303.952	-32.08
304.166	135.85
304.381	-85.33
304.595	164.52
304.809	8.87
305.023	19.11
305.237	0.68
305.452	0.68
305.666	129.7
305.88	27.31
306.094	131.75
306.308	113.32
306.522	113.32
306.736	70.31
306.95	103.08
307.164	76.46
307.379	74.41
307.593	150.18
307.807	182.95
308.021	10.92
308.235	166.57
308.449	-13.65
308.663	19.11
308.877	283.3
309.091	47.79
309.305	45.74
309.519	-50.52
309.733	121.51
309.947	-38.23
310.161	105.13
310.374	109.23
310.588	117.42
310.802	-13.65
311.016	-40.28
311.23	113.32
311.444	19.11
311.658	-13.65
311.872	193.19
312.085	129.7
312.299	109.23
312.513	144.04
312.727	62.12
312.941	-25.94
313.154	70.31
313.368	58.03
313.582	62.12
313.796	41.64
314.009	4.78
314.223	154.28
314.437	74.41
314.651	92.84
314.864	27.31
315.078	-3.41
315.292	-46.42
315.505	111.27
315.719	107.18
315.933	66.22
316.146	33.45
316.36	35.5
316.573	176.81
316.787	64.17
317.001	35.5
317.214	-3.41
317.428	131.75
317.641	2.73
317.855	68.27
318.068	25.26
318.282	66.22
318.495	180.9
318.709	60.07
318.922	94.89
319.136	129.7
319.349	92.84
319.563	25.26
319.776	29.35
319.99	-5.46
320.203	78.51
320.417	37.55
320.63	121.51
320.843	158.38
321.057	88.75
321.27	25.26
321.483	129.7
321.697	185
321.91	39.59
322.124	37.55
322.337	90.79
322.55	-34.13
322.763	70.31
322.977	39.59
323.19	-15.7
323.403	72.36
323.617	127.66
323.83	154.28
324.043	60.07
324.256	96.94
324.469	-54.61
324.683	131.75
324.896	74.41
325.109	25.26
325.322	-27.99
325.535	84.65
325.748	94.89
325.962	35.5
326.175	62.12
326.388	66.22
326.601	185
326.814	86.7
327.027	94.89
327.24	232.1
327.453	-97.62
327.666	176.81
327.879	51.88
328.092	62.12
328.305	113.32
328.518	43.69
328.731	-3.41
328.944	12.97
329.157	115.37
329.37	-15.7
329.583	193.19
329.796	150.18
330.009	-58.71
330.222	141.99
330.435	80.55
330.648	66.22
330.861	101.03
331.073	68.27
331.286	160.42
331.499	64.17
331.712	-19.8
331.925	82.6
332.138	43.69
332.35	103.08
332.563	27.31
332.776	90.79
332.989	-50.52
333.202	80.55
333.414	74.41
333.627	94.89
333.84	23.21
334.053	115.37
334.265	12.97
334.478	-32.08
334.691	27.31
334.903	133.8
335.116	43.69
335.329	-66.9
335.541	131.75
335.754	141.99
335.966	58.03
336.179	49.83
336.392	25.26
336.604	74.41
336.817	92.84
337.029	94.89
337.242	-30.04
337.454	115.37
337.667	51.88
337.88	154.28
338.092	129.7
338.305	113.32
338.517	-13.65
338.729	172.71
338.942	111.27
339.154	-23.89
339.367	47.79
339.579	17.07
339.792	10.92
340.004	137.9
340.217	55.98
340.429	141.99
340.641	-56.66
340.854	-38.23
341.066	-27.99
341.278	70.31
341.491	117.42
341.703	76.46
341.915	78.51
342.128	82.6
342.34	129.7
342.552	43.69
342.764	49.83
342.977	8.87
343.189	117.42
343.401	150.18
343.613	-52.56
343.826	121.51
344.038	27.31
344.25	129.7
344.462	-44.37
344.674	35.5
344.886	80.55
345.099	27.31
345.311	74.41
345.523	39.59
345.735	-56.66
345.947	117.42
346.159	125.61
346.371	37.55
346.583	-7.51
346.795	154.28
347.007	31.4
347.219	72.36
347.431	10.92
347.643	197.29
347.855	23.21
348.067	240.3
348.279	-52.56
348.491	90.79
348.703	35.5
348.915	37.55
349.127	74.41
349.339	86.7
349.551	0.68
349.763	105.13
349.975	74.41
350.187	101.03
350.399	64.17
350.61	76.46
350.822	-1.37
351.034	66.22
351.246	21.16
351.458	72.36
351.669	133.8
351.881	103.08
352.093	135.85
352.305	58.03
352.517	131.75
352.728	209.58
352.94	41.64
353.152	27.31
353.363	27.31
353.575	160.42
353.787	197.29
353.999	139.94
354.21	123.56
354.422	37.55
354.633	84.65
354.845	131.75
355.057	23.21
355.268	8.87
355.48	117.42
355.692	4.78
355.903	43.69
356.115	-11.61
356.326	-75.09
356.538	203.43
356.749	6.83
356.961	180.9
357.172	66.22
357.384	21.16
357.595	107.18
357.807	2.73
358.018	-7.51
358.23	25.26
358.441	205.48
358.653	86.7
358.864	39.59
359.075	-50.52
359.287	129.7
359.498	158.38
359.709	180.9
359.921	39.59
360.132	70.31
360.344	80.55
360.555	17.07
360.766	47.79
360.977	47.79
361.189	125.61
361.4	55.98
361.611	193.19
361.823	172.71
362.034	55.98
362.245	-91.48
362.456	53.93
362.667	141.99
362.879	-25.94
363.09	72.36
363.301	84.65
363.512	131.75
363.723	15.02
363.935	64.17
364.146	154.28
364.357	19.11
364.568	88.75
364.779	-5.46
364.99	115.37
365.201	27.31
365.412	156.33
365.623	-91.48
365.834	123.56
366.045	45.74
366.256	86.7
366.467	201.38
366.678	37.55
366.889	70.31
367.1	10.92
367.311	160.42
367.522	33.45
367.733	156.33
367.944	90.79
368.155	82.6
368.366	121.51
368.577	123.56
368.788	125.61
368.999	-11.61
369.209	35.5
369.42	197.29
369.631	215.72
369.842	51.88
370.053	47.79
370.264	45.74
370.474	0.68
370.685	41.64
370.896	74.41
371.107	135.85
371.317	0.68
371.528	125.61
371.739	209.58
371.95	2.73
372.16	55.98
372.371	4.78
372.582	4.78
372.792	105.13
373.003	21.16
373.214	96.94
373.424	137.9
373.635	-40.28
373.846	156.33
374.056	107.18
374.267	82.6
374.477	39.59
374.688	12.97
374.898	92.84
375.109	6.83
375.319	113.32
375.53	148.14
375.74	76.46
375.951	-13.65
376.161	70.31
376.372	193.19
376.582	-3.41
376.793	84.65
377.003	76.46
377.214	23.21
377.424	94.89
377.635	43.69
377.845	-3.41
378.055	162.47
378.266	-46.42
378.476	-30.04
378.686	82.6
378.897	0.68
379.107	117.42
379.317	105.13
379.528	10.92
379.738	115.37
379.948	-17.75
380.158	21.16
380.369	66.22
380.579	86.7
380.789	84.65
380.999	96.94
381.21	53.93
381.42	137.9
381.63	64.17
381.84	70.31
382.05	94.89
382.261	125.61
382.471	51.88
382.681	0.68
382.891	176.81
383.101	19.11
383.311	27.31
383.521	17.07
383.731	86.7
383.941	137.9
384.151	51.88
384.361	43.69
384.571	94.89
384.781	45.74
384.991	158.38
385.201	141.99
385.411	119.46
385.621	6.83
385.831	53.93
386.041	55.98
386.251	4.78
386.461	146.09
386.671	49.83
386.881	66.22
387.091	113.32
387.301	154.28
387.511	-1.37
387.72	15.02
387.93	109.23
388.14	6.83
388.35	37.55
388.56	205.48
388.769	154.28
388.979	27.31
389.189	21.16
389.399	53.93
389.609	156.33
389.818	125.61
390.028	88.75
390.238	62.12
390.447	19.11
390.657	90.79
390.867	68.27
391.076	-40.28
391.286	121.51
391.496	43.69
391.705	74.41
391.915	141.99
392.125	117.42
392.334	25.26
392.544	80.55
392.753	15.02
392.963	-25.94
393.172	21.16
393.382	82.6
393.591	135.85
393.801	25.26
394.01	135.85
394.22	125.61
394.429	-52.56
394.639	-7.51
394.848	160.42
395.058	105.13
395.267	21.16
395.477	125.61
395.686	39.59
395.895	180.9
396.105	232.1
396.314	86.7
396.524	8.87
396.733	94.89
396.942	168.62
397.152	164.52
397.361	68.27
397.57	47.79
397.78	109.23
397.989	107.18
398.198	254.63
398.407	84.65
398.617	27.31
398.826	21.16
399.035	-3.41
399.244	172.71
399.453	12.97
399.663	76.46
399.872	68.27
400.081	-19.8
400.29	148.14
400.499	33.45
400.708	211.62
400.917	74.41
401.127	76.46
401.336	-27.99
401.545	121.51
401.754	144.04
401.963	129.7
402.172	19.11
402.381	-3.41
402.59	21.16
402.799	68.27
403.008	101.03
403.217	82.6
403.426	23.21
403.635	-30.04
403.844	105.13
404.053	94.89
404.262	-40.28
404.471	176.81
404.68	35.5
404.888	101.03
405.097	-36.18
405.306	78.51
405.515	150.18
405.724	41.64
405.933	94.89
406.142	98.99
406.35	82.6
406.559	12.97
406.768	35.5
406.977	189.1
407.185	70.31
407.394	129.7
407.603	8.87
407.812	123.56
408.02	219.82
408.229	-1.37
408.438	37.55
408.646	31.4
408.855	0.68
409.064	117.42
409.272	80.55
409.481	98.99
409.69	-23.89
409.898	31.4
410.107	64.17
410.315	131.75
410.524	86.7
410.733	107.18
410.941	103.08
411.15	176.81
411.358	125.61
411.567	125.61
411.775	72.36
411.984	76.46
412.192	115.37
412.401	2.73
412.609	125.61
412.818	187.05
413.026	98.99
413.234	29.35
413.443	45.74
413.651	-77.14
413.86	62.12
414.068	117.42
414.276	219.82
414.485	45.74
414.693	176.81
414.901	178.86
415.11	133.8
415.318	23.21
415.526	35.5
415.734	119.46
415.943	8.87
416.151	191.14
416.359	125.61
416.567	68.27
416.776	174.76
416.984	92.84
417.192	174.76
417.4	2.73
417.608	-7.51
417.817	80.55
418.025	70.31
418.233	195.24
418.441	60.07
418.649	-1.37
418.857	23.21
419.065	168.62
419.273	27.31
419.481	49.83
419.689	105.13
419.897	19.11
420.105	-30.04
420.313	187.05
420.521	189.1
420.729	170.66
420.937	72.36
421.145	-13.65
421.353	133.8
421.561	203.43
421.769	88.75
421.977	76.46
422.185	162.47
422.393	72.36
422.601	92.84
422.809	92.84
423.017	127.66
423.224	92.84
423.432	109.23
423.64	58.03
423.848	141.99
424.056	107.18
424.263	172.71
424.471	33.45
424.679	172.71
424.887	29.35
425.094	127.66
425.302	64.17
425.51	45.74
425.718	135.85
425.925	90.79
426.133	8.87
426.341	223.91
426.548	121.51
426.756	55.98
426.964	66.22
427.171	55.98
427.379	135.85
427.586	74.41
427.794	115.37
428.001	168.62
428.209	84.65
428.417	146.09
428.624	121.51
428.832	160.42
429.039	80.55
429.247	236.2
429.454	187.05
429.662	187.05
429.869	133.8
430.076	189.1
430.284	131.75
430.491	246.44
430.699	125.61
430.906	297.64
431.114	174.76
431.321	203.43
431.528	152.23
431.736	160.42
431.943	197.29
432.15	193.19
432.358	285.35
432.565	283.3
432.772	96.94
432.979	252.58
433.187	125.61
433.394	271.01
433.601	205.48
433.808	205.48
434.016	320.17
434.223	271.01
434.43	166.57
434.637	238.25
434.844	299.69
435.052	236.2
435.259	316.07
435.466	348.84
435.673	275.11
435.88	338.6
436.087	451.24
436.294	328.36
436.501	391.84
436.708	367.27
436.915	420.52
437.122	477.86
437.329	354.98
437.537	363.17
437.743	367.27
437.95	475.81
438.157	414.37
438.364	383.65
438.571	484
438.778	559.78
438.985	441
439.192	613.03
439.399	512.67
439.606	555.68
439.813	602.79
440.02	617.12
440.227	723.62
440.433	608.93
440.64	586.4
440.847	598.69
441.054	717.47
441.261	776.86
441.467	639.65
441.674	760.48
441.881	866.97
442.088	621.22
442.294	838.3
442.501	920.22
442.708	950.94
442.914	905.88
443.121	977.56
443.328	1006.24
443.534	1069.72
443.741	1084.06
443.948	942.75
444.154	1231.51
444.361	1342.1
444.568	1200.79
444.774	1206.94
444.981	1200.79
445.187	1434.26
445.394	1381.01
445.6	1362.58
445.807	1493.65
446.013	1387.16
446.22	1405.59
446.426	1575.57
446.633	1727.12
446.839	1862.29
447.046	1837.71
447.252	1899.15
447.459	1915.53
447.665	2056.84
447.871	1968.78
448.078	2220.68
448.284	2212.49
448.491	2323.08
448.697	2536.07
448.903	2609.79
449.11	2603.65
449.316	2501.25
449.522	2663.04
449.728	2890.37
449.935	2861.69
450.141	2943.61
450.347	3224.19
450.553	3240.57
450.76	3168.89
450.966	3504.76
451.172	3494.52
451.378	3805.81
451.584	3758.71
451.791	4076.14
451.997	4039.28
452.203	4188.78
452.409	4391.53
452.615	4590.18
452.821	4522.6
453.027	4424.3
453.233	5093.98
453.44	4921.95
453.646	5210.72
453.852	5468.76
454.058	5565.01
454.264	5816.91
454.47	6173.26
454.676	6345.29
454.882	6806.08
455.088	6298.19
455.294	6777.41
455.5	7209.53
455.705	7776.82
455.911	7633.46
456.117	8055.34
456.323	8202.8
456.529	8206.89
456.735	8952.35
456.941	9021.99
457.147	9660.95
457.352	9693.72
457.558	9972.24
457.764	10504.71
457.97	10787.33
458.176	11389.44
458.381	11813.37
458.587	12077.55
458.793	12802.54
458.999	12708.33
459.204	14299.6
459.41	14989.77
459.616	14535.12
459.821	15550.91
460.027	16228.79
460.233	16888.23
460.438	17136.04
460.644	17754.52
460.85	18219.41
461.055	19016.07
461.261	19491.2
461.466	18948.49
461.672	19612.03
461.878	22038.87
462.083	21551.46
462.289	22079.83
462.494	22927.69
462.7	23347.53
462.905	23234.89
463.111	25358.63
463.316	26501.4
463.522	27379.98
463.727	28098.81
463.932	28872.95
464.138	30234.85
464.343	31101.14
464.549	31627.46
464.754	33849.51
464.959	34324.64
465.165	34986.13
465.37	34965.65
465.575	34672.79
465.781	37154.93
465.986	38424.67
466.191	37396.59
466.397	37990.5
466.602	36917.37
466.807	39055.45
467.012	39733.32
467.218	40480.83
467.423	40597.57
467.628	41693.23
467.833	43778.06
468.038	43008.03
468.244	42448.93
468.449	44185.61
