Data from USB4F104151__158__11-04-37-436.txt Node

Date: Wed Feb 26 11:04:37 EST 2025
User: louis
Spectrometer: USB4F10415
Trigger mode: 4
Integration Time (sec): 1.000000E-1
Scans to average: 1
Electric dark correction enabled: true
Nonlinearity correction enabled: false
Boxcar width: 0
XAxis mode: Wavelengths
Number of Pixels in Spectrum: 3648
>>>>>Begin Spectral Data<<<<<
178.204	-522.91
178.424	-522.91
178.644	-522.91
178.864	-389.8
179.084	-451.24
179.304	56.66
179.524	34.13
179.744	-0.68
179.964	27.99
180.184	48.47
180.404	21.85
180.624	-53.93
180.844	-47.79
181.064	-82.6
181.283	-4.78
181.503	-70.31
181.723	71
181.943	-31.4
182.163	175.44
182.383	-19.11
182.602	66.9
182.822	152.92
183.042	32.08
183.262	-84.65
183.482	-25.26
183.701	-10.92
183.921	17.75
184.141	-98.99
184.361	66.9
184.58	105.81
184.8	-0.68
185.02	-86.7
185.239	97.62
185.459	130.39
185.679	75.09
185.898	-135.85
186.118	109.91
186.338	30.04
186.557	75.09
186.777	-78.51
186.997	-39.59
187.216	36.18
187.436	167.25
187.655	111.96
187.875	87.38
188.095	38.23
188.314	122.2
188.534	66.9
188.753	-41.64
188.973	89.43
189.192	114
189.412	40.28
189.631	23.89
189.851	34.13
190.07	154.96
190.29	-29.35
190.509	73.04
190.729	27.99
190.948	142.68
191.168	224.59
191.387	111.96
191.607	13.65
191.826	56.66
192.045	-55.98
192.265	32.08
192.484	140.63
192.704	17.75
192.923	-96.94
193.142	132.44
193.362	52.56
193.581	154.96
193.8	107.86
194.02	27.99
194.239	97.62
194.458	79.19
194.678	-12.97
194.897	36.18
195.116	50.52
195.335	40.28
195.555	93.52
195.774	44.37
195.993	95.57
196.212	44.37
196.432	-58.03
196.651	-60.07
196.87	42.32
197.089	212.31
197.308	42.32
197.528	81.24
197.747	-29.35
197.966	-41.64
198.185	79.19
198.404	-55.98
198.623	91.48
198.842	107.86
199.062	71
199.281	114
199.5	-35.5
199.719	60.76
199.938	71
200.157	62.8
200.376	64.85
200.595	54.61
200.814	79.19
201.033	7.51
201.252	165.2
201.471	25.94
201.69	79.19
201.909	-39.59
202.128	111.96
202.347	36.18
202.566	13.65
202.785	-29.35
203.004	42.32
203.223	167.25
203.442	42.32
203.661	-51.88
203.879	97.62
204.098	93.52
204.317	7.51
204.536	177.49
204.755	58.71
204.974	124.24
205.193	-2.73
205.411	97.62
205.63	95.57
205.849	3.41
206.068	21.85
206.287	-47.79
206.505	136.53
206.724	91.48
206.943	-21.16
207.162	-49.83
207.381	81.24
207.599	-0.68
207.818	-10.92
208.037	-53.93
208.255	30.04
208.474	30.04
208.693	42.32
208.911	71
209.13	114
209.349	42.32
209.567	17.75
209.786	81.24
210.005	126.29
210.223	54.61
210.442	-64.17
210.661	21.85
210.879	42.32
211.098	-35.5
211.316	120.15
211.535	38.23
211.753	25.94
211.972	19.8
212.191	-43.69
212.409	-12.97
212.628	114
212.846	34.13
213.065	73.04
213.283	95.57
213.502	5.46
213.72	17.75
213.938	-35.5
214.157	21.85
214.375	23.89
214.594	15.7
214.812	62.8
215.031	-0.68
215.249	66.9
215.467	95.57
215.686	21.85
215.904	36.18
216.122	-27.31
216.341	152.92
216.559	48.47
216.778	124.24
216.996	122.2
217.214	40.28
217.432	19.8
217.651	-70.31
217.869	7.51
218.087	-23.21
218.306	-15.02
218.524	50.52
218.742	-33.45
218.96	97.62
219.179	54.61
219.397	27.99
219.615	208.21
219.833	56.66
220.051	15.7
220.27	118.1
220.488	150.87
220.706	-27.31
220.924	-33.45
221.142	-2.73
221.36	9.56
221.578	77.14
221.796	-23.21
222.015	54.61
222.233	3.41
222.451	97.62
222.669	-41.64
222.887	150.87
223.105	-12.97
223.323	42.32
223.541	-35.5
223.759	93.52
223.977	71
224.195	161.11
224.413	128.34
224.631	99.67
224.849	103.76
225.067	183.63
225.285	-70.31
225.503	73.04
225.721	-107.18
225.939	79.19
226.157	11.61
226.375	189.78
226.592	-90.79
226.81	15.7
227.028	85.33
227.246	179.54
227.464	-0.68
227.682	87.38
227.9	54.61
228.117	17.75
228.335	87.38
228.553	48.47
228.771	17.75
228.989	73.04
229.206	66.9
229.424	-0.68
229.642	-0.68
229.86	7.51
230.077	120.15
230.295	-12.97
230.513	58.71
230.731	-12.97
230.948	191.83
231.166	171.35
231.384	15.7
231.601	-49.83
231.819	212.31
232.037	15.7
232.254	-45.74
232.472	13.65
232.689	-80.55
232.907	148.82
233.125	54.61
233.342	27.99
233.56	-4.78
233.777	11.61
233.995	-21.16
234.213	87.38
234.43	109.91
234.648	3.41
234.865	-10.92
235.083	93.52
235.3	71
235.518	68.95
235.735	93.52
235.953	126.29
236.17	52.56
236.388	40.28
236.605	-37.55
236.822	68.95
237.04	142.68
237.257	-2.73
237.475	-88.75
237.692	118.1
237.909	50.52
238.127	-31.4
238.344	1.37
238.562	11.61
238.779	-6.83
238.996	-45.74
239.214	52.56
239.431	66.9
239.648	25.94
239.865	42.32
240.083	116.05
240.3	-47.79
240.517	19.8
240.735	30.04
240.952	118.1
241.169	58.71
241.386	93.52
241.603	73.04
241.821	-53.93
242.038	93.52
242.255	64.85
242.472	-23.21
242.689	85.33
242.907	36.18
243.124	54.61
243.341	5.46
243.558	-29.35
243.775	11.61
243.992	-45.74
244.209	56.66
244.426	187.73
244.643	40.28
244.86	-27.31
245.078	111.96
245.295	42.32
245.512	50.52
245.729	15.7
245.946	118.1
246.163	27.99
246.38	-43.69
246.597	36.18
246.814	27.99
247.031	40.28
247.248	23.89
247.464	38.23
247.681	-23.21
247.898	77.14
248.115	7.51
248.332	-94.89
248.549	177.49
248.766	173.39
248.983	83.28
249.2	46.42
249.417	66.9
249.633	32.08
249.85	3.41
250.067	62.8
250.284	36.18
250.501	122.2
250.717	-37.55
250.934	-51.88
251.151	-29.35
251.368	-10.92
251.585	27.99
251.801	46.42
252.018	-80.55
252.235	85.33
252.451	-88.75
252.668	50.52
252.885	101.72
253.102	44.37
253.318	44.37
253.535	-25.26
253.752	9.56
253.968	1.37
254.185	-109.22
254.401	36.18
254.618	19.8
254.835	-12.97
255.051	62.8
255.268	64.85
255.484	99.67
255.701	-10.92
255.917	52.56
256.134	-39.59
256.351	34.13
256.567	40.28
256.784	-4.78
257	-55.98
257.217	122.2
257.433	167.25
257.65	-10.92
257.866	150.87
258.082	-58.03
258.299	-17.07
258.515	36.18
258.732	5.46
258.948	44.37
259.165	52.56
259.381	-43.69
259.597	15.7
259.814	60.76
260.03	-21.16
260.246	9.56
260.463	130.39
260.679	77.14
260.895	114
261.112	77.14
261.328	27.99
261.544	3.41
261.761	120.15
261.977	-31.4
262.193	-70.31
262.409	-23.21
262.626	13.65
262.842	36.18
263.058	17.75
263.274	107.86
263.49	114
263.707	91.48
263.923	60.76
264.139	-66.22
264.355	87.38
264.571	157.01
264.787	38.23
265.004	124.24
265.22	27.99
265.436	-55.98
265.652	15.7
265.868	-0.68
266.084	-86.7
266.3	44.37
266.516	-29.35
266.732	-12.97
266.948	19.8
267.164	32.08
267.38	62.8
267.596	50.52
267.812	197.97
268.028	58.71
268.244	-6.83
268.46	-31.4
268.676	-96.94
268.892	97.62
269.108	56.66
269.324	-55.98
269.54	-25.26
269.756	132.44
269.972	1.37
270.188	21.85
270.403	-62.12
270.619	-4.78
270.835	64.85
271.051	30.04
271.267	-131.75
271.483	-8.87
271.698	42.32
271.914	81.24
272.13	62.8
272.346	13.65
272.562	38.23
272.777	144.72
272.993	21.85
273.209	-53.93
273.425	38.23
273.64	-37.55
273.856	73.04
274.072	-23.21
274.287	7.51
274.503	56.66
274.719	120.15
274.934	-31.4
275.15	-27.31
275.366	21.85
275.581	-74.41
275.797	48.47
276.012	83.28
276.228	-43.69
276.444	-58.03
276.659	77.14
276.875	-82.6
277.09	-23.21
277.306	-21.16
277.521	81.24
277.737	-31.4
277.952	42.32
278.168	46.42
278.383	21.85
278.599	109.91
278.814	165.2
279.03	27.99
279.245	75.09
279.461	-29.35
279.676	118.1
279.892	21.85
280.107	17.75
280.322	38.23
280.538	34.13
280.753	-21.16
280.969	19.8
281.184	44.37
281.399	138.58
281.615	48.47
281.83	42.32
282.045	-78.51
282.26	15.7
282.476	-19.11
282.691	85.33
282.906	-49.83
283.122	-41.64
283.337	-76.46
283.552	-4.78
283.767	-4.78
283.983	97.62
284.198	-29.35
284.413	5.46
284.628	-53.93
284.843	13.65
285.058	5.46
285.274	-27.31
285.489	-62.12
285.704	120.15
285.919	-35.5
286.134	66.9
286.349	-10.92
286.564	9.56
286.779	38.23
286.995	-55.98
287.21	-168.62
287.425	9.56
287.64	15.7
287.855	27.99
288.07	-90.79
288.285	114
288.5	185.68
288.715	62.8
288.93	5.46
289.145	-35.5
289.36	83.28
289.575	-2.73
289.79	60.76
290.004	-60.07
290.219	111.96
290.434	-39.59
290.649	-29.35
290.864	-6.83
291.079	23.89
291.294	66.9
291.509	114
291.724	91.48
291.938	-21.16
292.153	-33.45
292.368	66.9
292.583	73.04
292.798	19.8
293.012	21.85
293.227	-2.73
293.442	-64.17
293.657	120.15
293.871	128.34
294.086	9.56
294.301	122.2
294.516	48.47
294.73	42.32
294.945	25.94
295.16	7.51
295.374	83.28
295.589	54.61
295.804	-8.87
296.018	7.51
296.233	128.34
296.447	75.09
296.662	-51.88
296.877	91.48
297.091	105.81
297.306	-107.18
297.52	-15.02
297.735	11.61
297.949	21.85
298.164	25.94
298.378	7.51
298.593	17.75
298.807	-55.98
299.022	79.19
299.236	154.96
299.451	93.52
299.665	34.13
299.88	25.94
300.094	52.56
300.309	-62.12
300.523	66.9
300.737	30.04
300.952	1.37
301.166	109.91
301.381	-19.11
301.595	-19.11
301.809	30.04
302.024	23.89
302.238	-15.02
302.452	109.91
302.667	-12.97
302.881	189.78
303.095	95.57
303.309	73.04
303.524	-10.92
303.738	36.18
303.952	-6.83
304.166	40.28
304.381	-164.52
304.595	111.96
304.809	64.85
305.023	30.04
305.237	91.48
305.452	11.61
305.666	83.28
305.88	23.89
306.094	66.9
306.308	81.24
306.522	15.7
306.736	93.52
306.95	34.13
307.164	32.08
307.379	-12.97
307.593	126.29
307.807	142.68
308.021	52.56
308.235	21.85
308.449	-125.61
308.663	-35.5
308.877	122.2
309.091	75.09
309.305	114
309.519	-58.03
309.733	150.87
309.947	-53.93
310.161	50.52
310.374	87.38
310.588	224.59
310.802	-17.07
311.016	-6.83
311.23	15.7
311.444	-25.26
311.658	32.08
311.872	95.57
312.085	142.68
312.299	105.81
312.513	171.35
312.727	54.61
312.941	19.8
313.154	5.46
313.368	36.18
313.582	21.85
313.796	116.05
314.009	46.42
314.223	103.76
314.437	128.34
314.651	56.66
314.864	-12.97
315.078	-12.97
315.292	-66.22
315.505	1.37
315.719	68.95
315.933	66.9
316.146	1.37
316.36	-51.88
316.573	161.11
316.787	163.15
317.001	50.52
317.214	-19.11
317.428	56.66
317.641	44.37
317.855	-21.16
318.068	56.66
318.282	32.08
318.495	200.02
318.709	75.09
318.922	77.14
319.136	109.91
319.349	71
319.563	19.8
319.776	107.86
319.99	-17.07
320.203	99.67
320.417	-25.26
320.63	93.52
320.843	118.1
321.057	25.94
321.27	60.76
321.483	66.9
321.697	107.86
321.91	64.85
322.124	79.19
322.337	32.08
322.55	-152.23
322.763	21.85
322.977	36.18
323.19	-35.5
323.403	38.23
323.617	83.28
323.83	30.04
324.043	-31.4
324.256	-25.26
324.469	-88.75
324.683	89.43
324.896	30.04
325.109	36.18
325.322	-62.12
325.535	40.28
325.748	83.28
325.962	15.7
326.175	50.52
326.388	50.52
326.601	77.14
326.814	-58.03
327.027	40.28
327.24	97.62
327.453	-64.17
327.666	60.76
327.879	107.86
328.092	15.7
328.305	27.99
328.518	44.37
328.731	11.61
328.944	-8.87
329.157	83.28
329.37	25.94
329.583	169.3
329.796	140.63
330.009	-33.45
330.222	52.56
330.435	73.04
330.648	-62.12
330.861	-39.59
331.073	48.47
331.286	56.66
331.499	50.52
331.712	44.37
331.925	50.52
332.138	89.43
332.35	91.48
332.563	-29.35
332.776	146.77
332.989	-12.97
333.202	32.08
333.414	25.94
333.627	54.61
333.84	15.7
334.053	36.18
334.265	1.37
334.478	48.47
334.691	7.51
334.903	54.61
335.116	25.94
335.329	50.52
335.541	42.32
335.754	171.35
335.966	52.56
336.179	-2.73
336.392	52.56
336.604	-12.97
336.817	44.37
337.029	19.8
337.242	34.13
337.454	64.85
337.667	66.9
337.88	60.76
338.092	40.28
338.305	52.56
338.517	1.37
338.729	105.81
338.942	173.39
339.154	36.18
339.367	34.13
339.579	48.47
339.792	-33.45
340.004	58.71
340.217	21.85
340.429	-23.21
340.641	-29.35
340.854	-51.88
341.066	42.32
341.278	124.24
341.491	122.2
341.703	77.14
341.915	-17.07
342.128	60.76
342.34	56.66
342.552	5.46
342.764	71
342.977	-15.02
343.189	21.85
343.401	23.89
343.613	-17.07
343.826	50.52
344.038	-0.68
344.25	21.85
344.462	-37.55
344.674	62.8
344.886	44.37
345.099	-8.87
345.311	105.81
345.523	-27.31
345.735	-31.4
345.947	23.89
346.159	46.42
346.371	23.89
346.583	-12.97
346.795	157.01
347.007	-23.21
347.219	17.75
347.431	-29.35
347.643	64.85
347.855	-4.78
348.067	124.24
348.279	-17.07
348.491	46.42
348.703	44.37
348.915	38.23
349.127	32.08
349.339	44.37
349.551	25.94
349.763	3.41
349.975	32.08
350.187	87.38
350.399	173.39
350.61	124.24
350.822	-33.45
351.034	-12.97
351.246	66.9
351.458	66.9
351.669	77.14
351.881	109.91
352.093	118.1
352.305	138.58
352.517	79.19
352.728	124.24
352.94	27.99
353.152	101.72
353.363	-62.12
353.575	101.72
353.787	111.96
353.999	40.28
354.21	97.62
354.422	13.65
354.633	32.08
354.845	36.18
355.057	27.99
355.268	48.47
355.48	118.1
355.692	-66.22
355.903	5.46
356.115	-35.5
356.326	-103.08
356.538	138.58
356.749	124.24
356.961	146.77
357.172	19.8
357.384	-74.41
357.595	169.3
357.807	-43.69
358.018	-0.68
358.23	-82.6
358.441	126.29
358.653	15.7
358.864	9.56
359.075	-10.92
359.287	89.43
359.498	42.32
359.709	30.04
359.921	13.65
360.132	9.56
360.344	1.37
360.555	-25.26
360.766	50.52
360.977	40.28
361.189	136.53
361.4	15.7
361.611	95.57
361.823	181.59
362.034	30.04
362.245	-70.31
362.456	-39.59
362.667	146.77
362.879	-33.45
363.09	66.9
363.301	83.28
363.512	159.06
363.723	-23.21
363.935	11.61
364.146	93.52
364.357	54.61
364.568	62.8
364.779	-105.13
364.99	91.48
365.201	-17.07
365.412	101.72
365.623	-105.13
365.834	27.99
366.045	-15.02
366.256	58.71
366.467	89.43
366.678	58.71
366.889	-4.78
367.1	15.7
367.311	146.77
367.522	17.75
367.733	56.66
367.944	79.19
368.155	-12.97
368.366	107.86
368.577	144.72
368.788	87.38
368.999	-109.22
369.209	-66.22
369.42	265.55
369.631	210.26
369.842	85.33
370.053	52.56
370.264	52.56
370.474	-8.87
370.685	40.28
370.896	25.94
371.107	140.63
371.317	103.76
371.528	15.7
371.739	66.9
371.95	32.08
372.16	-27.31
372.371	-55.98
372.582	-39.59
372.792	109.91
373.003	54.61
373.214	83.28
373.424	66.9
373.635	-10.92
373.846	134.48
374.056	-8.87
374.267	85.33
374.477	71
374.688	66.9
374.898	68.95
375.109	9.56
375.319	54.61
375.53	99.67
375.74	148.82
375.951	-0.68
376.161	17.75
376.372	89.43
376.582	11.61
376.793	87.38
377.003	-92.84
377.214	-45.74
377.424	89.43
377.635	-10.92
377.845	36.18
378.055	216.4
378.266	-53.93
378.476	34.13
378.686	58.71
378.897	15.7
379.107	75.09
379.317	83.28
379.528	-8.87
379.738	89.43
379.948	-29.35
380.158	101.72
380.369	85.33
380.579	120.15
380.789	87.38
380.999	68.95
381.21	97.62
381.42	169.3
381.63	58.71
381.84	81.24
382.05	5.46
382.261	136.53
382.471	58.71
382.681	40.28
382.891	134.48
383.101	60.76
383.311	-10.92
383.521	-25.26
383.731	62.8
383.941	109.91
384.151	71
384.361	-37.55
384.571	3.41
384.781	64.85
384.991	103.76
385.201	71
385.411	66.9
385.621	-8.87
385.831	87.38
386.041	3.41
386.251	17.75
386.461	150.87
386.671	30.04
386.881	89.43
387.091	38.23
387.301	105.81
387.511	50.52
387.72	42.32
387.93	134.48
388.14	-66.22
388.35	7.51
388.56	64.85
388.769	46.42
388.979	-37.55
389.189	-68.27
389.399	56.66
389.609	60.76
389.818	105.81
390.028	48.47
390.238	60.76
390.447	-2.73
390.657	38.23
390.867	40.28
391.076	-72.36
391.286	71
391.496	-41.64
391.705	34.13
391.915	107.86
392.125	73.04
392.334	-33.45
392.544	146.77
392.753	-15.02
392.963	-17.07
393.172	-4.78
393.382	3.41
393.591	163.15
393.801	-17.07
394.01	146.77
394.22	62.8
394.429	21.85
394.639	95.57
394.848	21.85
395.058	87.38
395.267	-2.73
395.477	91.48
395.686	73.04
395.895	230.74
396.105	146.77
396.314	97.62
396.524	30.04
396.733	66.9
396.942	116.05
397.152	111.96
397.361	171.35
397.57	25.94
397.78	56.66
397.989	79.19
398.198	187.73
398.407	-0.68
398.617	-25.26
398.826	54.61
399.035	13.65
399.244	142.68
399.453	54.61
399.663	-15.02
399.872	64.85
400.081	-66.22
400.29	116.05
400.499	27.99
400.708	181.59
400.917	-6.83
401.127	52.56
401.336	-4.78
401.545	193.87
401.754	101.72
401.963	116.05
402.172	-27.31
402.381	-41.64
402.59	-0.68
402.799	17.75
403.008	44.37
403.217	42.32
403.426	-31.4
403.635	-76.46
403.844	27.99
404.053	40.28
404.262	58.71
404.471	120.15
404.68	25.94
404.888	1.37
405.097	54.61
405.306	32.08
405.515	89.43
405.724	-33.45
405.933	138.58
406.142	32.08
406.35	109.91
406.559	27.99
406.768	116.05
406.977	183.63
407.185	25.94
407.394	64.85
407.603	-53.93
407.812	91.48
408.02	159.06
408.229	103.76
408.438	40.28
408.646	-8.87
408.855	9.56
409.064	163.15
409.272	66.9
409.481	165.2
409.69	-19.11
409.898	-17.07
410.107	64.85
410.315	179.54
410.524	-80.55
410.733	48.47
410.941	-82.6
411.15	44.37
411.358	83.28
411.567	7.51
411.775	9.56
411.984	27.99
412.192	66.9
412.401	42.32
412.609	122.2
412.818	134.48
413.026	79.19
413.234	30.04
413.443	19.8
413.651	87.38
413.86	48.47
414.068	181.59
414.276	122.2
414.485	-10.92
414.693	134.48
414.901	189.78
415.11	79.19
415.318	-17.07
415.526	32.08
415.734	175.44
415.943	17.75
416.151	107.86
416.359	50.52
416.567	34.13
416.776	83.28
416.984	109.91
417.192	154.96
417.4	73.04
417.608	-19.11
417.817	-49.83
418.025	122.2
418.233	191.83
418.441	-45.74
418.649	-51.88
418.857	97.62
419.065	130.39
419.273	32.08
419.481	48.47
419.689	64.85
419.897	19.8
420.105	-70.31
420.313	124.24
420.521	163.15
420.729	195.92
420.937	25.94
421.145	-64.17
421.353	75.09
421.561	204.11
421.769	36.18
421.977	25.94
422.185	126.29
422.393	-21.16
422.601	124.24
422.809	118.1
423.017	124.24
423.224	54.61
423.432	89.43
423.64	68.95
423.848	103.76
424.056	-23.21
424.263	122.2
424.471	107.86
424.679	179.54
424.887	-29.35
425.094	9.56
425.302	107.86
425.51	50.52
425.718	79.19
425.925	66.9
426.133	30.04
426.341	220.5
426.548	77.14
426.756	3.41
426.964	81.24
427.171	-8.87
427.379	23.89
427.586	15.7
427.794	224.59
428.001	130.39
428.209	124.24
428.417	150.87
428.624	116.05
428.832	218.45
429.039	185.68
429.247	148.82
429.454	152.92
429.662	214.35
429.869	148.82
430.076	101.72
430.284	161.11
430.491	216.4
430.699	150.87
430.906	232.79
431.114	107.86
431.321	132.44
431.528	93.52
431.736	163.15
431.943	128.34
432.15	259.41
432.358	238.93
432.565	208.21
432.772	71
432.979	302.42
433.187	95.57
433.394	185.68
433.601	130.39
433.808	232.79
434.016	232.79
434.223	208.21
434.43	208.21
434.637	234.83
434.844	288.08
435.052	175.44
435.259	226.64
435.466	292.18
435.673	267.6
435.88	292.18
436.087	322.9
436.294	339.28
436.501	341.33
436.708	273.75
436.915	275.79
437.122	312.66
437.329	306.51
437.537	310.61
437.743	324.94
437.95	488.78
438.157	429.39
438.364	339.28
438.571	390.48
438.778	486.73
438.985	509.26
439.192	492.88
439.399	408.91
439.606	464.21
439.813	527.69
440.02	679.24
440.227	623.95
440.433	505.17
440.64	472.4
440.847	552.27
441.054	640.33
441.261	746.83
441.467	658.76
441.674	671.05
441.881	728.39
442.088	709.96
442.294	804.17
442.501	785.74
442.708	910.66
442.914	818.5
443.121	955.72
443.328	808.27
443.534	986.44
443.741	996.68
443.948	884.04
444.154	1150.28
444.361	1232.19
444.568	1121.6
444.774	1006.92
444.981	1090.88
445.187	1320.26
445.394	1297.73
445.6	1297.73
445.807	1365.31
446.013	1375.55
446.22	1291.59
446.426	1457.47
446.633	1670.46
446.839	1742.14
447.046	1684.8
447.252	1793.34
447.459	1764.67
447.665	1641.79
447.871	1969.46
448.078	2184.5
448.284	2059.57
448.491	2243.89
448.697	2331.95
448.903	2506.03
449.11	2495.79
449.316	2356.53
449.522	2620.72
449.728	2620.72
449.935	2759.98
450.141	2706.73
450.347	3169.57
450.553	2909.48
450.76	3034.41
450.966	3267.88
451.172	3288.36
451.378	3521.82
451.584	3616.03
451.791	3636.51
451.997	3945.75
452.203	3882.27
452.409	4070.68
452.615	4287.76
452.821	4089.11
453.027	4332.82
453.233	4822.28
453.44	4726.03
453.646	4941.07
453.852	5154.05
454.058	5139.72
454.264	5479.68
454.47	5803.26
454.676	5987.58
454.882	6321.4
455.088	6190.33
455.294	6343.92
455.5	6735.09
455.705	7376.1
455.911	7171.3
456.117	7408.87
456.323	7810.27
456.529	7726.3
456.735	8656.08
456.941	8596.69
457.147	8903.89
457.352	9333.96
457.558	9577.67
457.764	10108.09
457.97	10519.73
458.176	10904.75
458.381	11543.72
458.587	11388.07
458.793	12219.55
458.999	12137.63
459.204	13685.89
459.41	14052.48
459.616	13794.43
459.821	14691.45
460.027	15262.83
460.233	15967.33
460.438	16329.82
460.644	17052.75
460.85	17237.07
461.055	17964.1
461.261	18820.15
461.466	18435.13
461.672	18971.7
461.878	21091.35
462.083	20771.86
462.289	21312.53
462.494	22178.82
462.7	22029.32
462.905	22563.84
463.111	24585.18
463.316	25568.21
463.522	26004.42
463.727	26590.14
463.932	28054.44
464.138	28945.31
464.343	29750.16
464.549	30155.66
464.754	32428.9
464.959	33346.39
465.165	33796.95
465.37	33659.73
465.575	33669.97
465.781	35533.62
465.986	36651.81
466.191	36186.93
466.397	36506.41
466.602	35738.42
466.807	37765.91
467.012	38329.1
467.218	38695.69
467.423	39441.15
467.628	40506.09
467.833	42076.88
468.038	41466.59
468.244	40645.35
468.449	42814.15
468.654	41620.19
468.859	41947.86
469.064	41861.85
