Data from USB4F104151__276__11-20-47-831.txt Node

Date: Wed Feb 26 11:20:47 EST 2025
User: louis
Spectrometer: USB4F10415
Trigger mode: 4
Integration Time (sec): 1.000000E-1
Scans to average: 1
Electric dark correction enabled: true
Nonlinearity correction enabled: false
Boxcar width: 0
XAxis mode: Wavelengths
Number of Pixels in Spectrum: 3648
>>>>>Begin Spectral Data<<<<<
178.204	-393.04
178.424	-393.04
178.644	-393.04
178.864	-399.18
179.084	-366.42
179.304	59.56
179.524	-51.03
179.744	-18.26
179.964	51.37
180.184	22.7
180.404	39.08
180.624	-22.36
180.844	37.03
181.064	-71.51
181.283	-24.4
181.503	-44.88
181.723	22.7
181.943	-120.66
182.163	170.15
182.383	-20.31
182.602	22.7
182.822	211.11
183.042	-40.79
183.262	-12.12
183.482	67.75
183.701	69.8
183.921	57.51
184.141	-149.33
184.361	92.33
184.58	20.65
184.8	55.47
185.02	45.23
185.239	100.52
185.459	-8.02
185.679	143.53
185.898	-108.37
186.118	47.27
186.338	-42.84
186.557	131.24
186.777	-128.85
186.997	-3.93
187.216	18.6
187.436	157.86
187.655	80.04
187.875	98.47
188.095	135.34
188.314	65.71
188.534	90.28
188.753	-87.89
188.973	157.86
189.192	188.58
189.412	-10.07
189.631	12.46
189.851	82.09
190.07	114.86
190.29	-40.79
190.509	-61.27
190.729	-1.88
190.948	123.05
191.168	317.61
191.387	45.23
191.607	61.61
191.826	49.32
192.045	0.17
192.265	-1.88
192.484	-10.07
192.704	55.47
192.923	-26.45
193.142	180.39
193.362	174.25
193.581	157.86
193.8	30.89
194.02	49.32
194.239	20.65
194.458	118.95
194.678	30.89
194.897	2.22
195.116	2.22
195.335	69.8
195.555	39.08
195.774	-48.98
195.993	123.05
196.212	67.75
196.432	20.65
196.651	-40.79
196.87	-59.22
197.089	262.31
197.308	49.32
197.528	131.24
197.747	-57.17
197.966	73.9
198.185	118.95
198.404	-73.56
198.623	94.38
198.842	125.1
199.062	110.76
199.281	16.55
199.5	6.31
199.719	61.61
199.938	71.85
200.157	88.23
200.376	75.95
200.595	71.85
200.814	55.47
201.033	4.27
201.252	129.19
201.471	114.86
201.69	149.67
201.909	-5.97
202.128	114.86
202.347	112.81
202.566	51.37
202.785	-3.93
203.004	-53.08
203.223	237.74
203.442	37.03
203.661	-34.64
203.879	90.28
204.098	131.24
204.317	-96.08
204.536	112.81
204.755	123.05
204.974	125.1
205.193	-28.5
205.411	182.44
205.63	108.71
205.849	12.46
206.068	57.51
206.287	41.13
206.505	65.71
206.724	-114.52
206.943	2.22
207.162	86.19
207.381	143.53
207.599	8.36
207.818	34.99
208.037	-8.02
208.255	30.89
208.474	8.36
208.693	55.47
208.911	63.66
209.13	196.78
209.349	116.9
209.567	84.14
209.786	45.23
210.005	57.51
210.223	-5.97
210.442	-104.28
210.661	12.46
210.879	8.36
211.098	37.03
211.316	30.89
211.535	53.42
211.753	104.62
211.972	61.61
212.191	90.28
212.409	100.52
212.628	125.1
212.846	-8.02
213.065	47.27
213.283	149.67
213.502	-12.12
213.72	116.9
213.938	-3.93
214.157	34.99
214.375	123.05
214.594	-44.88
214.812	108.71
215.031	4.27
215.249	98.47
215.467	0.17
215.686	2.22
215.904	92.33
216.122	-1.88
216.341	114.86
216.559	14.51
216.778	94.38
216.996	118.95
217.214	-55.12
217.432	18.6
217.651	-48.98
217.869	-20.31
218.087	75.95
218.306	-65.36
218.524	49.32
218.742	47.27
218.96	92.33
219.179	49.32
219.397	4.27
219.615	237.74
219.833	147.62
220.051	32.94
220.27	100.52
220.488	155.82
220.706	69.8
220.924	20.65
221.142	-16.21
221.36	-5.97
221.578	61.61
221.796	12.46
222.015	-1.88
222.233	41.13
222.451	194.73
222.669	-91.99
222.887	88.23
223.105	14.51
223.323	63.66
223.541	-94.04
223.759	34.99
223.977	-38.74
224.195	141.48
224.413	45.23
224.631	10.41
224.849	125.1
225.067	164.01
225.285	-85.84
225.503	65.71
225.721	-65.36
225.939	6.31
226.157	-30.55
226.375	241.83
226.592	6.31
226.81	22.7
227.028	75.95
227.246	127.14
227.464	125.1
227.682	112.81
227.9	41.13
228.117	37.03
228.335	88.23
228.553	57.51
228.771	82.09
228.989	67.75
229.206	90.28
229.424	10.41
229.642	-26.45
229.86	-40.79
230.077	147.62
230.295	55.47
230.513	88.23
230.731	-16.21
230.948	92.33
231.166	159.91
231.384	2.22
231.601	-32.6
231.819	100.52
232.037	-67.41
232.254	-44.88
232.472	22.7
232.689	-12.12
232.907	84.14
233.125	39.08
233.342	-108.37
233.56	-5.97
233.777	-24.4
233.995	-3.93
234.213	73.9
234.43	141.48
234.648	-10.07
234.865	49.32
235.083	-1.88
235.3	0.17
235.518	106.67
235.735	194.73
235.953	98.47
236.17	45.23
236.388	6.31
236.605	104.62
236.822	129.19
237.04	77.99
237.257	30.89
237.475	-79.7
237.692	39.08
237.909	131.24
238.127	57.51
238.344	24.75
238.562	43.18
238.779	-61.27
238.996	-83.8
239.214	-8.02
239.431	57.51
239.648	43.18
239.865	112.81
240.083	86.19
240.3	-71.51
240.517	10.41
240.735	98.47
240.952	145.58
241.169	65.71
241.386	131.24
241.603	80.04
241.821	-20.31
242.038	41.13
242.255	112.81
242.472	-26.45
242.689	135.34
242.907	69.8
243.124	77.99
243.341	-18.26
243.558	45.23
243.775	-63.32
243.992	4.27
244.209	30.89
244.426	223.4
244.643	133.29
244.86	10.41
245.078	116.9
245.295	137.38
245.512	49.32
245.729	-26.45
245.946	65.71
246.163	69.8
246.38	43.18
246.597	80.04
246.814	24.75
247.031	49.32
247.248	47.27
247.464	94.38
247.681	108.71
247.898	127.14
248.115	-22.36
248.332	-51.03
248.549	139.43
248.766	96.43
248.983	125.1
249.2	39.08
249.417	118.95
249.633	16.55
249.85	96.43
250.067	114.86
250.284	98.47
250.501	8.36
250.717	69.8
250.934	-48.98
251.151	32.94
251.368	18.6
251.585	69.8
251.801	2.22
252.018	-22.36
252.235	135.34
252.451	-48.98
252.668	59.56
252.885	147.62
253.102	63.66
253.318	-30.55
253.535	37.03
253.752	10.41
253.968	92.33
254.185	-67.41
254.401	47.27
254.618	71.85
254.835	4.27
255.051	145.58
255.268	75.95
255.484	32.94
255.701	-1.88
255.917	123.05
256.134	-14.17
256.351	57.51
256.567	-32.6
256.784	4.27
257	-71.51
257.217	145.58
257.433	96.43
257.65	45.23
257.866	94.38
258.082	-34.64
258.299	-57.17
258.515	67.75
258.732	59.56
258.948	20.65
259.165	18.6
259.381	49.32
259.597	12.46
259.814	20.65
260.03	24.75
260.246	22.7
260.463	182.44
260.679	53.42
260.895	69.8
261.112	67.75
261.328	69.8
261.544	-67.41
261.761	223.4
261.977	10.41
262.193	-73.56
262.409	55.47
262.626	24.75
262.842	53.42
263.058	-55.12
263.274	100.52
263.49	26.79
263.707	82.09
263.923	10.41
264.139	-96.08
264.355	4.27
264.571	49.32
264.787	73.9
265.004	186.54
265.22	14.51
265.436	-63.32
265.652	82.09
265.868	24.75
266.084	8.36
266.3	61.61
266.516	-38.74
266.732	86.19
266.948	30.89
267.164	6.31
267.38	125.1
267.596	61.61
267.812	178.34
268.028	16.55
268.244	10.41
268.46	55.47
268.676	14.51
268.892	96.43
269.108	-63.32
269.324	-26.45
269.54	-40.79
269.756	139.43
269.972	-63.32
270.188	-18.26
270.403	6.31
270.619	-5.97
270.835	94.38
271.051	10.41
271.267	-22.36
271.483	-46.93
271.698	90.28
271.914	69.8
272.13	63.66
272.346	22.7
272.562	51.37
272.777	125.1
272.993	10.41
273.209	-24.4
273.425	26.79
273.64	-79.7
273.856	71.85
274.072	100.52
274.287	-18.26
274.503	45.23
274.719	180.39
274.934	-40.79
275.15	0.17
275.366	12.46
275.581	-20.31
275.797	-12.12
276.012	30.89
276.228	-34.64
276.444	2.22
276.659	166.06
276.875	-3.93
277.09	45.23
277.306	-5.97
277.521	59.56
277.737	65.71
277.952	133.29
278.168	8.36
278.383	116.9
278.599	26.79
278.814	-1.88
279.03	10.41
279.245	131.24
279.461	26.79
279.676	86.19
279.892	-22.36
280.107	-85.84
280.322	-61.27
280.538	123.05
280.753	-28.5
280.969	67.75
281.184	16.55
281.399	108.71
281.615	14.51
281.83	69.8
282.045	-108.37
282.26	-40.79
282.476	-40.79
282.691	98.47
282.906	102.57
283.122	153.77
283.337	-12.12
283.552	67.75
283.767	-40.79
283.983	118.95
284.198	37.03
284.413	12.46
284.628	-34.64
284.843	18.6
285.058	114.86
285.274	10.41
285.489	-32.6
285.704	84.14
285.919	-8.02
286.134	55.47
286.349	41.13
286.564	37.03
286.779	131.24
286.995	84.14
287.21	-55.12
287.425	98.47
287.64	-24.4
287.855	65.71
288.07	-55.12
288.285	57.51
288.5	121
288.715	57.51
288.93	-22.36
289.145	2.22
289.36	182.44
289.575	18.6
289.79	41.13
290.004	47.27
290.219	84.14
290.434	34.99
290.649	-55.12
290.864	-40.79
291.079	30.89
291.294	-30.55
291.509	112.81
291.724	41.13
291.938	14.51
292.153	65.71
292.368	45.23
292.583	49.32
292.798	12.46
293.012	96.43
293.227	6.31
293.442	37.03
293.657	133.29
293.871	114.86
294.086	118.95
294.301	196.78
294.516	133.29
294.73	-14.17
294.945	-55.12
295.16	12.46
295.374	49.32
295.589	104.62
295.804	-42.84
296.018	104.62
296.233	123.05
296.447	-8.02
296.662	45.23
296.877	186.54
297.091	131.24
297.306	18.6
297.52	80.04
297.735	96.43
297.949	22.7
298.164	59.56
298.378	6.31
298.593	-40.79
298.807	-8.02
299.022	18.6
299.236	112.81
299.451	-96.08
299.665	24.75
299.88	65.71
300.094	55.47
300.309	0.17
300.523	139.43
300.737	-20.31
300.952	82.09
301.166	47.27
301.381	-10.07
301.595	-42.84
301.809	-1.88
302.024	49.32
302.238	-91.99
302.452	194.73
302.667	20.65
302.881	149.67
303.095	110.76
303.309	143.53
303.524	45.23
303.738	63.66
303.952	-18.26
304.166	57.51
304.381	-100.18
304.595	133.29
304.809	-8.02
305.023	57.51
305.237	4.27
305.452	77.99
305.666	104.62
305.88	6.31
306.094	32.94
306.308	104.62
306.522	45.23
306.736	18.6
306.95	69.8
307.164	53.42
307.379	63.66
307.593	104.62
307.807	135.34
308.021	51.37
308.235	18.6
308.449	-12.12
308.663	32.94
308.877	299.17
309.091	14.51
309.305	51.37
309.519	-100.18
309.733	94.38
309.947	-67.41
310.161	114.86
310.374	71.85
310.588	166.06
310.802	-1.88
311.016	20.65
311.23	45.23
311.444	-5.97
311.658	39.08
311.872	61.61
312.085	47.27
312.299	108.71
312.513	131.24
312.727	53.42
312.941	-98.13
313.154	59.56
313.368	-10.07
313.582	34.99
313.796	28.84
314.009	-5.97
314.223	121
314.437	86.19
314.651	59.56
314.864	8.36
315.078	-104.28
315.292	-55.12
315.505	49.32
315.719	71.85
315.933	41.13
316.146	-67.41
316.36	-18.26
316.573	110.76
316.787	12.46
317.001	59.56
317.214	-30.55
317.428	-1.88
317.641	-51.03
317.855	73.9
318.068	86.19
318.282	75.95
318.495	133.29
318.709	88.23
318.922	-14.17
319.136	137.38
319.349	47.27
319.563	10.41
319.776	86.19
319.99	0.17
320.203	10.41
320.417	30.89
320.63	86.19
320.843	207.02
321.057	112.81
321.27	-26.45
321.483	96.43
321.697	200.87
321.91	59.56
322.124	104.62
322.337	108.71
322.55	-16.21
322.763	6.31
322.977	-48.98
323.19	10.41
323.403	69.8
323.617	22.7
323.83	82.09
324.043	-10.07
324.256	98.47
324.469	-22.36
324.683	153.77
324.896	26.79
325.109	96.43
325.322	-79.7
325.535	16.55
325.748	102.57
325.962	37.03
326.175	116.9
326.388	118.95
326.601	198.82
326.814	18.6
327.027	71.85
327.24	178.34
327.453	-108.37
327.666	92.33
327.879	207.02
328.092	43.18
328.305	84.14
328.518	-83.8
328.731	-26.45
328.944	30.89
329.157	-22.36
329.37	-75.6
329.583	129.19
329.796	147.62
330.009	-8.02
330.222	47.27
330.435	184.49
330.648	65.71
330.861	4.27
331.073	28.84
331.286	104.62
331.499	43.18
331.712	98.47
331.925	6.31
332.138	30.89
332.35	168.1
332.563	34.99
332.776	102.57
332.989	18.6
333.202	55.47
333.414	71.85
333.627	100.52
333.84	10.41
334.053	63.66
334.265	-12.12
334.478	71.85
334.691	0.17
334.903	55.47
335.116	26.79
335.329	8.36
335.541	-14.17
335.754	164.01
335.966	-3.93
336.179	80.04
336.392	18.6
336.604	-81.75
336.817	47.27
337.029	110.76
337.242	49.32
337.454	127.14
337.667	12.46
337.88	123.05
338.092	73.9
338.305	125.1
338.517	63.66
338.729	114.86
338.942	98.47
339.154	-32.6
339.367	12.46
339.579	108.71
339.792	-44.88
340.004	51.37
340.217	63.66
340.429	96.43
340.641	-22.36
340.854	-61.27
341.066	26.79
341.278	67.75
341.491	209.06
341.703	168.1
341.915	-44.88
342.128	92.33
342.34	80.04
342.552	-77.65
342.764	49.32
342.977	53.42
343.189	82.09
343.401	67.75
343.613	-26.45
343.826	28.84
344.038	18.6
344.25	129.19
344.462	-46.93
344.674	139.43
344.886	43.18
345.099	116.9
345.311	30.89
345.523	-36.69
345.735	-79.7
345.947	51.37
346.159	4.27
346.371	37.03
346.583	-57.17
346.795	147.62
347.007	12.46
347.219	73.9
347.431	133.29
347.643	106.67
347.855	59.56
348.067	65.71
348.279	18.6
348.491	-1.88
348.703	69.8
348.915	-26.45
349.127	-34.64
349.339	18.6
349.551	-5.97
349.763	98.47
349.975	-26.45
350.187	82.09
350.399	84.14
350.61	47.27
350.822	0.17
351.034	49.32
351.246	0.17
351.458	98.47
351.669	34.99
351.881	77.99
352.093	88.23
352.305	161.96
352.517	104.62
352.728	104.62
352.94	121
353.152	59.56
353.363	-61.27
353.575	-12.12
353.787	141.48
353.999	112.81
354.21	190.63
354.422	-8.02
354.633	30.89
354.845	82.09
355.057	53.42
355.268	-14.17
355.48	73.9
355.692	4.27
355.903	24.75
356.115	-69.46
356.326	-51.03
356.538	219.3
356.749	112.81
356.961	207.02
357.172	77.99
357.384	-51.03
357.595	186.54
357.807	4.27
358.018	30.89
358.23	8.36
358.441	131.24
358.653	108.71
358.864	45.23
359.075	-38.74
359.287	80.04
359.498	69.8
359.709	32.94
359.921	0.17
360.132	28.84
360.344	6.31
360.555	-12.12
360.766	-30.55
360.977	-36.69
361.189	133.29
361.4	4.27
361.611	65.71
361.823	118.95
362.034	49.32
362.245	-73.56
362.456	0.17
362.667	94.38
362.879	51.37
363.09	80.04
363.301	18.6
363.512	86.19
363.723	10.41
363.935	-28.5
364.146	104.62
364.357	-12.12
364.568	57.51
364.779	8.36
364.99	71.85
365.201	-10.07
365.412	153.77
365.623	-71.51
365.834	71.85
366.045	39.08
366.256	88.23
366.467	104.62
366.678	-46.93
366.889	90.28
367.1	-22.36
367.311	112.81
367.522	10.41
367.733	133.29
367.944	139.43
368.155	53.42
368.366	63.66
368.577	94.38
368.788	118.95
368.999	26.79
369.209	37.03
369.42	266.41
369.631	260.26
369.842	123.05
370.053	32.94
370.264	110.76
370.474	-36.69
370.685	104.62
370.896	14.51
371.107	123.05
371.317	106.67
371.528	59.56
371.739	131.24
371.95	110.76
372.16	127.14
372.371	-42.84
372.582	-46.93
372.792	86.19
373.003	18.6
373.214	49.32
373.424	71.85
373.635	-26.45
373.846	159.91
374.056	20.65
374.267	88.23
374.477	108.71
374.688	-36.69
374.898	151.72
375.109	75.95
375.319	22.7
375.53	161.96
375.74	88.23
375.951	49.32
376.161	14.51
376.372	116.9
376.582	-20.31
376.793	84.14
377.003	16.55
377.214	2.22
377.424	51.37
377.635	4.27
377.845	45.23
378.055	170.15
378.266	22.7
378.476	10.41
378.686	47.27
378.897	-18.26
379.107	67.75
379.317	73.9
379.528	55.47
379.738	147.62
379.948	0.17
380.158	80.04
380.369	137.38
380.579	22.7
380.789	53.42
380.999	69.8
381.21	102.57
381.42	155.82
381.63	47.27
381.84	75.95
382.05	-3.93
382.261	110.76
382.471	145.58
382.681	-28.5
382.891	108.71
383.101	90.28
383.311	-110.42
383.521	12.46
383.731	143.53
383.941	114.86
384.151	-18.26
384.361	-1.88
384.571	102.57
384.781	-12.12
384.991	82.09
385.201	153.77
385.411	118.95
385.621	69.8
385.831	100.52
386.041	141.48
386.251	26.79
386.461	145.58
386.671	0.17
386.881	26.79
387.091	106.67
387.301	30.89
387.511	14.51
387.72	65.71
387.93	61.61
388.14	-73.56
388.35	114.86
388.56	96.43
388.769	116.9
388.979	61.61
389.189	-63.32
389.399	98.47
389.609	104.62
389.818	159.91
390.028	10.41
390.238	49.32
390.447	55.47
390.657	59.56
390.867	-12.12
391.076	-40.79
391.286	73.9
391.496	96.43
391.705	-32.6
391.915	194.73
392.125	110.76
392.334	37.03
392.544	127.14
392.753	2.22
392.963	-8.02
393.172	10.41
393.382	-3.93
393.591	166.06
393.801	22.7
394.01	139.43
394.22	67.75
394.429	2.22
394.639	20.65
394.848	-1.88
395.058	-71.51
395.267	53.42
395.477	80.04
395.686	-22.36
395.895	186.54
396.105	73.9
396.314	98.47
396.524	37.03
396.733	26.79
396.942	104.62
397.152	88.23
397.361	47.27
397.57	34.99
397.78	77.99
397.989	84.14
398.198	116.9
398.407	100.52
398.617	80.04
398.826	106.67
399.035	-8.02
399.244	73.9
399.453	114.86
399.663	28.84
399.872	73.9
400.081	10.41
400.29	47.27
400.499	16.55
400.708	121
400.917	12.46
401.127	45.23
401.336	45.23
401.545	161.96
401.754	116.9
401.963	28.84
402.172	-28.5
402.381	-14.17
402.59	0.17
402.799	32.94
403.008	98.47
403.217	30.89
403.426	116.9
403.635	-32.6
403.844	73.9
404.053	-5.97
404.262	12.46
404.471	149.67
404.68	73.9
404.888	49.32
405.097	84.14
405.306	-14.17
405.515	108.71
405.724	16.55
405.933	34.99
406.142	57.51
406.35	198.82
406.559	-12.12
406.768	98.47
406.977	75.95
407.185	116.9
407.394	75.95
407.603	-77.65
407.812	16.55
408.02	127.14
408.229	-20.31
408.438	30.89
408.646	-59.22
408.855	-12.12
409.064	80.04
409.272	51.37
409.481	75.95
409.69	-79.7
409.898	-42.84
410.107	69.8
410.315	143.53
410.524	34.99
410.733	43.18
410.941	4.27
411.15	141.48
411.358	116.9
411.567	86.19
411.775	47.27
411.984	67.75
412.192	104.62
412.401	-1.88
412.609	63.66
412.818	147.62
413.026	67.75
413.234	39.08
413.443	-10.07
413.651	6.31
413.86	135.34
414.068	135.34
414.276	188.58
414.485	22.7
414.693	139.43
414.901	155.82
415.11	39.08
415.318	-10.07
415.526	80.04
415.734	116.9
415.943	65.71
416.151	127.14
416.359	34.99
416.567	10.41
416.776	63.66
416.984	73.9
417.192	178.34
417.4	-14.17
417.608	12.46
417.817	-8.02
418.025	71.85
418.233	172.2
418.441	14.51
418.649	-20.31
418.857	26.79
419.065	153.77
419.273	69.8
419.481	98.47
419.689	-5.97
419.897	26.79
420.105	-46.93
420.313	141.48
420.521	159.91
420.729	157.86
420.937	-1.88
421.145	2.22
421.353	129.19
421.561	155.82
421.769	121
421.977	57.51
422.185	45.23
422.393	4.27
422.601	125.1
422.809	6.31
423.017	90.28
423.224	106.67
423.432	94.38
423.64	2.22
423.848	231.59
424.056	-10.07
424.263	129.19
424.471	-28.5
424.679	147.62
424.887	-18.26
425.094	90.28
425.302	90.28
425.51	32.94
425.718	39.08
425.925	98.47
426.133	18.6
426.341	217.26
426.548	127.14
426.756	12.46
426.964	94.38
427.171	8.36
427.379	143.53
427.586	28.84
427.794	180.39
428.001	63.66
428.209	94.38
428.417	196.78
428.624	190.63
428.832	86.19
429.039	47.27
429.247	75.95
429.454	63.66
429.662	276.65
429.869	80.04
430.076	157.86
430.284	125.1
430.491	217.26
430.699	141.48
430.906	217.26
431.114	184.49
431.321	149.67
431.528	112.81
431.736	86.19
431.943	147.62
432.15	178.34
432.358	157.86
432.565	299.17
432.772	-3.93
432.979	176.3
433.187	123.05
433.394	200.87
433.601	172.2
433.808	190.63
434.016	182.44
434.223	207.02
434.43	159.91
434.637	223.4
434.844	188.58
435.052	178.34
435.259	301.22
435.466	284.84
435.673	211.11
435.88	174.25
436.087	266.41
436.294	272.55
436.501	338.09
436.708	272.55
436.915	301.22
437.122	329.89
437.329	202.92
437.537	315.56
437.743	270.5
437.95	452.77
438.157	286.89
438.364	252.07
438.571	368.81
438.778	446.63
438.985	344.23
439.192	321.7
439.399	364.71
439.606	358.57
439.813	372.9
440.02	452.77
440.227	536.74
440.433	411.81
440.64	430.24
440.847	350.37
441.054	477.35
441.261	569.51
441.467	522.4
441.674	436.39
441.881	663.71
442.088	485.54
442.294	600.23
442.501	700.58
442.708	669.86
442.914	727.2
443.121	669.86
443.328	743.58
443.534	753.82
443.741	778.4
443.948	747.68
444.154	774.3
444.361	970.91
444.568	868.51
444.774	929.95
444.981	784.54
445.187	1130.65
445.394	878.75
445.6	975
445.807	1136.79
446.013	1075.35
446.22	1042.59
446.426	1249.43
446.633	1206.42
446.839	1484.95
447.046	1153.18
447.252	1560.72
447.459	1357.97
447.665	1351.83
447.871	1583.25
448.078	1618.07
448.284	1646.74
448.491	1689.74
448.697	1872.01
448.903	1925.26
449.11	1968.27
449.316	1923.21
449.522	2009.23
449.728	2160.78
449.935	2183.31
450.141	2287.75
450.347	2406.53
450.553	2363.53
450.76	2341
450.966	2429.06
451.172	2527.36
451.378	2693.25
451.584	2742.4
451.791	2945.15
451.997	3162.23
452.203	2996.35
452.409	3229.82
452.615	3391.61
452.821	3264.63
453.027	3311.74
453.233	3723.38
453.44	3743.86
453.646	3760.24
453.852	3995.76
454.058	4130.92
454.264	4175.98
454.47	4485.22
454.676	4479.08
454.882	4954.21
455.088	4716.64
455.294	5042.27
455.5	5257.31
455.705	5603.41
455.911	5673.04
456.117	5742.68
456.323	6023.25
456.529	6047.82
456.735	6551.62
456.941	6713.41
457.147	6922.31
457.352	7104.57
457.558	7401.53
457.764	7755.83
457.97	7921.71
458.176	8448.04
458.381	8597.54
458.587	8880.16
458.793	9316.38
458.999	9191.45
459.204	10430.48
459.41	10700.81
459.616	10575.88
459.821	11112.45
460.027	11892.73
460.233	12173.3
460.438	12277.74
460.644	12939.24
460.85	13228
461.055	13643.74
461.261	14292.94
461.466	13850.58
461.672	14270.42
461.878	15964.09
462.083	15669.18
462.289	16277.43
462.494	16893.86
462.7	16836.52
462.905	16990.12
463.111	18270.1
463.316	19480.45
463.522	19619.71
463.727	20258.68
463.932	21231.46
464.138	21843.81
464.343	22691.66
464.549	22794.06
464.754	24807.22
464.959	25259.82
465.165	25614.12
465.37	25265.96
465.575	25642.79
465.781	26883.86
465.986	27979.52
466.191	27868.93
466.397	28114.69
466.602	27301.64
466.807	28712.69
467.012	29322.99
467.218	29644.52
467.423	29769.44
467.628	30457.56
467.833	31878.85
468.038	31786.69
468.244	31100.62
468.449	32681.66
468.654	31938.24
