Data from USB4F104151__143__11-04-16-640.txt Node

Date: Wed Feb 26 11:04:16 EST 2025
User: louis
Spectrometer: USB4F10415
Trigger mode: 4
Integration Time (sec): 1.000000E-1
Scans to average: 1
Electric dark correction enabled: true
Nonlinearity correction enabled: false
Boxcar width: 0
XAxis mode: Wavelengths
Number of Pixels in Spectrum: 3648
>>>>>Begin Spectral Data<<<<<
178.204	-348.33
178.424	-348.33
178.644	-348.33
178.864	-450.72
179.084	-329.89
179.304	-61.61
179.524	10.07
179.744	-0.17
179.964	-12.46
180.184	-32.94
180.404	51.03
180.624	-43.18
180.844	-10.41
181.064	14.17
181.283	22.36
181.503	-22.7
181.723	85.84
181.943	-14.51
182.163	126.8
182.383	-18.6
182.602	-47.27
182.822	141.14
183.042	87.89
183.262	-53.42
183.482	73.56
183.701	14.17
183.921	44.88
184.141	-55.47
184.361	26.45
184.58	87.89
184.8	26.45
185.02	14.17
185.239	106.32
185.459	81.75
185.679	149.33
185.898	-51.37
186.118	32.6
186.338	100.18
186.557	161.62
186.777	-59.56
186.997	-22.7
187.216	81.75
187.436	173.91
187.655	14.17
187.875	104.28
188.095	24.4
188.314	104.28
188.534	163.67
188.753	-8.36
188.973	73.56
189.192	202.58
189.412	40.79
189.631	104.28
189.851	132.95
190.07	169.81
190.29	18.26
190.509	-4.27
190.729	63.32
190.948	69.46
191.168	274.26
191.387	106.32
191.607	-6.31
191.826	59.22
192.045	106.32
192.265	81.75
192.484	108.37
192.704	14.17
192.923	-41.13
193.142	137.04
193.362	151.38
193.581	100.18
193.8	48.98
194.02	149.33
194.239	89.94
194.458	147.28
194.678	96.08
194.897	63.32
195.116	65.36
195.335	106.32
195.555	83.8
195.774	51.03
195.993	124.76
196.212	-18.6
196.432	-22.7
196.651	24.4
196.87	-24.75
197.089	237.39
197.308	83.8
197.528	104.28
197.747	-57.51
197.966	75.6
198.185	202.58
198.404	-80.04
198.623	75.6
198.842	122.71
199.062	151.38
199.281	135
199.5	89.94
199.719	100.18
199.938	106.32
200.157	73.56
200.376	91.99
200.595	53.08
200.814	81.75
201.033	36.69
201.252	198.48
201.471	81.75
201.69	71.51
201.909	30.55
202.128	77.65
202.347	100.18
202.566	128.85
202.785	28.5
203.004	-34.99
203.223	270.16
203.442	51.03
203.661	59.22
203.879	114.52
204.098	139.09
204.317	-92.33
204.536	110.42
204.755	171.86
204.974	149.33
205.193	12.12
205.411	186.19
205.63	157.52
205.849	77.65
206.068	94.04
206.287	-69.8
206.505	157.52
206.724	104.28
206.943	-8.36
207.162	51.03
207.381	110.42
207.599	46.93
207.818	108.37
208.037	-20.65
208.255	36.69
208.474	77.65
208.693	-8.36
208.911	61.27
209.13	182.1
209.349	135
209.567	153.43
209.786	79.7
210.005	143.19
210.223	120.66
210.442	-4.27
210.661	30.55
210.879	79.7
211.098	102.23
211.316	36.69
211.535	100.18
211.753	65.36
211.972	67.41
212.191	36.69
212.409	-82.09
212.628	89.94
212.846	61.27
213.065	46.93
213.283	53.08
213.502	44.88
213.72	100.18
213.938	128.85
214.157	-2.22
214.375	153.43
214.594	57.17
214.812	53.08
215.031	-49.32
215.249	100.18
215.467	77.65
215.686	5.97
215.904	157.52
216.122	81.75
216.341	143.19
216.559	91.99
216.778	38.74
216.996	157.52
217.214	-57.51
217.432	20.31
217.651	-2.22
217.869	65.36
218.087	-10.41
218.306	34.64
218.524	73.56
218.742	44.88
218.96	130.9
219.179	63.32
219.397	122.71
219.615	171.86
219.833	159.57
220.051	-10.41
220.27	81.75
220.488	124.76
220.706	14.17
220.924	55.12
221.142	42.84
221.36	32.6
221.578	147.28
221.796	18.26
222.015	91.99
222.233	145.24
222.451	165.71
222.669	-41.13
222.887	120.66
223.105	-20.65
223.323	91.99
223.541	-22.7
223.759	55.12
223.977	34.64
224.195	153.43
224.413	57.17
224.631	18.26
224.849	10.07
225.067	192.34
225.285	67.41
225.503	42.84
225.721	-53.42
225.939	73.56
226.157	100.18
226.375	259.92
226.592	85.84
226.81	-61.61
227.028	98.13
227.246	100.18
227.464	118.61
227.682	89.94
227.9	135
228.117	132.95
228.335	75.6
228.553	104.28
228.771	20.31
228.989	87.89
229.206	98.13
229.424	5.97
229.642	-55.47
229.86	61.27
230.077	126.8
230.295	89.94
230.513	141.14
230.731	79.7
230.948	151.38
231.166	264.02
231.384	61.27
231.601	-16.55
231.819	180.05
232.037	18.26
232.254	1.88
232.472	1.88
232.689	69.46
232.907	186.19
233.125	137.04
233.342	26.45
233.56	-0.17
233.777	53.08
233.995	16.21
234.213	147.28
234.43	85.84
234.648	87.89
234.865	-30.89
235.083	77.65
235.3	67.41
235.518	91.99
235.735	163.67
235.953	51.03
236.17	-57.51
236.388	-26.79
236.605	91.99
236.822	79.7
237.04	108.37
237.257	65.36
237.475	5.97
237.692	48.98
237.909	96.08
238.127	85.84
238.344	53.08
238.562	139.09
238.779	-65.71
238.996	1.88
239.214	91.99
239.431	85.84
239.648	20.31
239.865	85.84
240.083	63.32
240.3	79.7
240.517	8.02
240.735	-8.36
240.952	89.94
241.169	38.74
241.386	63.32
241.603	120.66
241.821	-86.19
242.038	91.99
242.255	102.23
242.472	-2.22
242.689	55.12
242.907	98.13
243.124	20.31
243.341	61.27
243.558	48.98
243.775	-73.9
243.992	-45.23
244.209	120.66
244.426	210.77
244.643	18.26
244.86	28.5
245.078	132.95
245.295	73.56
245.512	24.4
245.729	48.98
245.946	132.95
246.163	96.08
246.38	63.32
246.597	110.42
246.814	89.94
247.031	24.4
247.248	-22.7
247.464	141.14
247.681	108.37
247.898	98.13
248.115	89.94
248.332	3.93
248.549	157.52
248.766	153.43
248.983	94.04
249.2	167.76
249.417	171.86
249.633	38.74
249.85	65.36
250.067	114.52
250.284	102.23
250.501	1.88
250.717	141.14
250.934	53.08
251.151	96.08
251.368	38.74
251.585	108.37
251.801	122.71
252.018	20.31
252.235	182.1
252.451	38.74
252.668	63.32
252.885	159.57
253.102	40.79
253.318	71.51
253.535	28.5
253.752	18.26
253.968	-14.51
254.185	-106.67
254.401	135
254.618	124.76
254.835	18.26
255.051	161.62
255.268	81.75
255.484	48.98
255.701	53.08
255.917	51.03
256.134	14.17
256.351	63.32
256.567	-26.79
256.784	91.99
257	-37.03
257.217	257.87
257.433	126.8
257.65	108.37
257.866	153.43
258.082	53.08
258.299	24.4
258.515	71.51
258.732	42.84
258.948	22.36
259.165	81.75
259.381	14.17
259.597	75.6
259.814	44.88
260.03	22.36
260.246	5.97
260.463	151.38
260.679	79.7
260.895	98.13
261.112	96.08
261.328	83.8
261.544	-30.89
261.761	153.43
261.977	42.84
262.193	-39.08
262.409	169.81
262.626	173.91
262.842	18.26
263.058	14.17
263.274	118.61
263.49	40.79
263.707	59.22
263.923	48.98
264.139	-47.27
264.355	26.45
264.571	128.85
264.787	94.04
265.004	73.56
265.22	34.64
265.436	-32.94
265.652	110.42
265.868	96.08
266.084	-4.27
266.3	57.17
266.516	-28.84
266.732	36.69
266.948	53.08
267.164	-18.6
267.38	126.8
267.596	147.28
267.812	216.91
268.028	81.75
268.244	-63.66
268.46	96.08
268.676	40.79
268.892	73.56
269.108	-18.6
269.324	20.31
269.54	-80.04
269.756	143.19
269.972	-28.84
270.188	61.27
270.403	16.21
270.619	112.47
270.835	157.52
271.051	12.12
271.267	-0.17
271.483	5.97
271.698	108.37
271.914	59.22
272.13	-10.41
272.346	22.36
272.562	5.97
272.777	91.99
272.993	-4.27
273.209	-43.18
273.425	53.08
273.64	-77.99
273.856	169.81
274.072	36.69
274.287	12.12
274.503	122.71
274.719	122.71
274.934	14.17
275.15	-2.22
275.366	-28.84
275.581	-18.6
275.797	98.13
276.012	59.22
276.228	1.88
276.444	53.08
276.659	85.84
276.875	22.36
277.09	106.32
277.306	-73.9
277.521	120.66
277.737	73.56
277.952	81.75
278.168	190.29
278.383	51.03
278.599	53.08
278.814	104.28
279.03	91.99
279.245	194.39
279.461	55.12
279.676	194.39
279.892	-6.31
280.107	-32.94
280.322	26.45
280.538	89.94
280.753	63.32
280.969	79.7
281.184	75.6
281.399	196.43
281.615	42.84
281.83	212.82
282.045	-71.85
282.26	46.93
282.476	46.93
282.691	44.88
282.906	108.37
283.122	96.08
283.337	-6.31
283.552	120.66
283.767	55.12
283.983	118.61
284.198	38.74
284.413	46.93
284.628	-14.51
284.843	89.94
285.058	108.37
285.274	124.76
285.489	-6.31
285.704	65.36
285.919	-0.17
286.134	-28.84
286.349	14.17
286.564	38.74
286.779	102.23
286.995	69.46
287.21	14.17
287.425	155.47
287.64	18.26
287.855	-18.6
288.07	-71.85
288.285	128.85
288.5	163.67
288.715	116.56
288.93	51.03
289.145	-14.51
289.36	188.24
289.575	61.27
289.79	126.8
290.004	85.84
290.219	157.52
290.434	-88.23
290.649	-41.13
290.864	55.12
291.079	16.21
291.294	94.04
291.509	85.84
291.724	91.99
291.938	63.32
292.153	83.8
292.368	57.17
292.583	100.18
292.798	91.99
293.012	61.27
293.227	130.9
293.442	91.99
293.657	114.52
293.871	175.95
294.086	87.89
294.301	130.9
294.516	196.43
294.73	71.51
294.945	12.12
295.16	102.23
295.374	141.14
295.589	28.5
295.804	24.4
296.018	79.7
296.233	169.81
296.447	110.42
296.662	-47.27
296.877	104.28
297.091	12.12
297.306	16.21
297.52	71.51
297.735	83.8
297.949	16.21
298.164	32.6
298.378	-53.42
298.593	24.4
298.807	16.21
299.022	-22.7
299.236	266.07
299.451	18.26
299.665	16.21
299.88	46.93
300.094	116.56
300.309	-22.7
300.523	85.84
300.737	69.46
300.952	118.61
301.166	77.65
301.381	-22.7
301.595	-69.8
301.809	69.46
302.024	122.71
302.238	-45.23
302.452	124.76
302.667	8.02
302.881	175.95
303.095	89.94
303.309	120.66
303.524	42.84
303.738	48.98
303.952	16.21
304.166	69.46
304.381	-37.03
304.595	241.49
304.809	-14.51
305.023	51.03
305.237	5.97
305.452	48.98
305.666	65.36
305.88	38.74
306.094	137.04
306.308	182.1
306.522	57.17
306.736	130.9
306.95	71.51
307.164	16.21
307.379	22.36
307.593	128.85
307.807	182.1
308.021	132.95
308.235	128.85
308.449	-47.27
308.663	40.79
308.877	163.67
309.091	106.32
309.305	71.51
309.519	-118.95
309.733	204.63
309.947	-32.94
310.161	89.94
310.374	151.38
310.588	163.67
310.802	-2.22
311.016	16.21
311.23	57.17
311.444	-2.22
311.658	55.12
311.872	141.14
312.085	141.14
312.299	132.95
312.513	159.57
312.727	100.18
312.941	-12.46
313.154	32.6
313.368	69.46
313.582	20.31
313.796	42.84
314.009	108.37
314.223	132.95
314.437	155.47
314.651	102.23
314.864	-28.84
315.078	14.17
315.292	-24.75
315.505	63.32
315.719	69.46
315.933	112.47
316.146	-16.55
316.36	16.21
316.573	135
316.787	22.36
317.001	-10.41
317.214	16.21
317.428	48.98
317.641	-82.09
317.855	46.93
318.068	57.17
318.282	85.84
318.495	202.58
318.709	173.91
318.922	28.5
319.136	167.76
319.349	89.94
319.563	94.04
319.776	85.84
319.99	-34.99
320.203	59.22
320.417	53.08
320.63	104.28
320.843	206.67
321.057	75.6
321.27	61.27
321.483	79.7
321.697	184.15
321.91	100.18
322.124	51.03
322.337	91.99
322.55	57.17
322.763	26.45
322.977	42.84
323.19	38.74
323.403	24.4
323.617	163.67
323.83	106.32
324.043	61.27
324.256	42.84
324.469	-28.84
324.683	178
324.896	14.17
325.109	73.56
325.322	-55.47
325.535	94.04
325.748	108.37
325.962	-12.46
326.175	120.66
326.388	69.46
326.601	149.33
326.814	20.31
327.027	36.69
327.24	208.72
327.453	-32.94
327.666	91.99
327.879	112.47
328.092	159.57
328.305	63.32
328.518	44.88
328.731	69.46
328.944	26.45
329.157	102.23
329.37	48.98
329.583	167.76
329.796	135
330.009	-63.66
330.222	128.85
330.435	110.42
330.648	124.76
330.861	34.64
331.073	98.13
331.286	114.52
331.499	18.26
331.712	20.31
331.925	38.74
332.138	32.6
332.35	73.56
332.563	61.27
332.776	153.43
332.989	18.26
333.202	83.8
333.414	118.61
333.627	46.93
333.84	71.51
334.053	124.76
334.265	75.6
334.478	73.56
334.691	30.55
334.903	130.9
335.116	18.26
335.329	-37.03
335.541	106.32
335.754	137.04
335.966	24.4
336.179	40.79
336.392	57.17
336.604	18.26
336.817	100.18
337.029	83.8
337.242	8.02
337.454	157.52
337.667	73.56
337.88	190.29
338.092	98.13
338.305	159.57
338.517	-22.7
338.729	57.17
338.942	151.38
339.154	3.93
339.367	20.31
339.579	116.56
339.792	-12.46
340.004	124.76
340.217	12.12
340.429	118.61
340.641	-18.6
340.854	-12.46
341.066	12.12
341.278	130.9
341.491	173.91
341.703	30.55
341.915	-69.8
342.128	57.17
342.34	48.98
342.552	-69.8
342.764	-24.75
342.977	61.27
343.189	79.7
343.401	69.46
343.613	-67.75
343.826	130.9
344.038	-22.7
344.25	126.8
344.462	89.94
344.674	85.84
344.886	36.69
345.099	57.17
345.311	75.6
345.523	61.27
345.735	-24.75
345.947	53.08
346.159	65.36
346.371	16.21
346.583	132.95
346.795	212.82
347.007	83.8
347.219	157.52
347.431	-2.22
347.643	157.52
347.855	34.64
348.067	135
348.279	12.12
348.491	67.41
348.703	104.28
348.915	98.13
349.127	-24.75
349.339	48.98
349.551	42.84
349.763	173.91
349.975	75.6
350.187	223.06
350.399	106.32
350.61	77.65
350.822	28.5
351.034	100.18
351.246	65.36
351.458	118.61
351.669	98.13
351.881	124.76
352.093	163.67
352.305	106.32
352.517	73.56
352.728	161.62
352.94	46.93
353.152	108.37
353.363	-67.75
353.575	94.04
353.787	130.9
353.999	16.21
354.21	173.91
354.422	22.36
354.633	-4.27
354.845	59.22
355.057	188.24
355.268	26.45
355.48	208.72
355.692	-14.51
355.903	79.7
356.115	18.26
356.326	-59.56
356.538	122.71
356.749	135
356.961	137.04
357.172	20.31
357.384	-30.89
357.595	202.58
357.807	-24.75
358.018	28.5
358.23	14.17
358.441	208.72
358.653	110.42
358.864	8.02
359.075	122.71
359.287	81.75
359.498	91.99
359.709	89.94
359.921	-16.55
360.132	163.67
360.344	-6.31
360.555	8.02
360.766	1.88
360.977	89.94
361.189	89.94
361.4	20.31
361.611	186.19
361.823	169.81
362.034	120.66
362.245	-32.94
362.456	116.56
362.667	216.91
362.879	-10.41
363.09	55.12
363.301	57.17
363.512	26.45
363.723	12.12
363.935	16.21
364.146	104.28
364.357	-6.31
364.568	53.08
364.779	30.55
364.99	167.76
365.201	18.26
365.412	118.61
365.623	-34.99
365.834	96.08
366.045	89.94
366.256	96.08
366.467	91.99
366.678	-8.36
366.889	-6.31
367.1	-6.31
367.311	210.77
367.522	-61.61
367.733	91.99
367.944	110.42
368.155	20.31
368.366	155.47
368.577	180.05
368.788	153.43
368.999	-39.08
369.209	110.42
369.42	227.15
369.631	257.87
369.842	126.8
370.053	63.32
370.264	132.95
370.474	-16.55
370.685	83.8
370.896	34.64
371.107	100.18
371.317	30.55
371.528	42.84
371.739	85.84
371.95	91.99
372.16	59.22
372.371	-32.94
372.582	-28.84
372.792	124.76
373.003	87.89
373.214	85.84
373.424	167.76
373.635	-34.99
373.846	223.06
374.056	36.69
374.267	73.56
374.477	38.74
374.688	10.07
374.898	81.75
375.109	18.26
375.319	98.13
375.53	149.33
375.74	186.19
375.951	38.74
376.161	112.47
376.372	91.99
376.582	18.26
376.793	79.7
377.003	-43.18
377.214	-37.03
377.424	38.74
377.635	61.27
377.845	3.93
378.055	141.14
378.266	-61.61
378.476	75.6
378.686	-2.22
378.897	63.32
379.107	155.47
379.317	102.23
379.528	10.07
379.738	180.05
379.948	-0.17
380.158	139.09
380.369	24.4
380.579	73.56
380.789	44.88
380.999	46.93
381.21	108.37
381.42	153.43
381.63	75.6
381.84	94.04
382.05	-2.22
382.261	175.95
382.471	153.43
382.681	63.32
382.891	155.47
383.101	94.04
383.311	-24.75
383.521	26.45
383.731	67.41
383.941	167.76
384.151	59.22
384.361	98.13
384.571	130.9
384.781	65.36
384.991	270.16
385.201	87.89
385.411	120.66
385.621	81.75
385.831	137.04
386.041	61.27
386.251	116.56
386.461	153.43
386.671	34.64
386.881	40.79
387.091	77.65
387.301	118.61
387.511	-2.22
387.72	167.76
387.93	32.6
388.14	32.6
388.35	48.98
388.56	51.03
388.769	61.27
388.979	67.41
389.189	40.79
389.399	34.64
389.609	120.66
389.818	153.43
390.028	22.36
390.238	100.18
390.447	-0.17
390.657	147.28
390.867	102.23
391.076	16.21
391.286	98.13
391.496	48.98
391.705	120.66
391.915	182.1
392.125	147.28
392.334	22.36
392.544	130.9
392.753	61.27
392.963	-30.89
393.172	55.12
393.382	-6.31
393.591	135
393.801	1.88
394.01	175.95
394.22	151.38
394.429	53.08
394.639	81.75
394.848	-0.17
395.058	1.88
395.267	61.27
395.477	118.61
395.686	89.94
395.895	167.76
396.105	210.77
396.314	73.56
396.524	79.7
396.733	61.27
396.942	81.75
397.152	126.8
397.361	83.8
397.57	71.51
397.78	124.76
397.989	130.9
398.198	192.34
398.407	59.22
398.617	48.98
398.826	116.56
399.035	63.32
399.244	69.46
399.453	63.32
399.663	79.7
399.872	130.9
400.081	22.36
400.29	161.62
400.499	24.4
400.708	98.13
400.917	65.36
401.127	40.79
401.336	-28.84
401.545	161.62
401.754	145.24
401.963	227.15
402.172	-43.18
402.381	26.45
402.59	22.36
402.799	5.97
403.008	178
403.217	112.47
403.426	122.71
403.635	-22.7
403.844	94.04
404.053	81.75
404.262	53.08
404.471	204.63
404.68	137.04
404.888	51.03
405.097	53.08
405.306	57.17
405.515	122.71
405.724	85.84
405.933	149.33
406.142	91.99
406.35	120.66
406.559	71.51
406.768	42.84
406.977	194.39
407.185	57.17
407.394	122.71
407.603	16.21
407.812	94.04
408.02	175.95
408.229	98.13
408.438	5.97
408.646	-39.08
408.855	124.76
409.064	73.56
409.272	75.6
409.481	98.13
409.69	18.26
409.898	34.64
410.107	149.33
410.315	118.61
410.524	-8.36
410.733	98.13
410.941	112.47
411.15	112.47
411.358	188.24
411.567	216.91
411.775	83.8
411.984	22.36
412.192	85.84
412.401	65.36
412.609	130.9
412.818	53.08
413.026	102.23
413.234	98.13
413.443	1.88
413.651	12.12
413.86	89.94
414.068	120.66
414.276	241.49
414.485	48.98
414.693	194.39
414.901	261.97
415.11	63.32
415.318	55.12
415.526	96.08
415.734	147.28
415.943	67.41
416.151	143.19
416.359	104.28
416.567	153.43
416.776	106.32
416.984	171.86
417.192	85.84
417.4	51.03
417.608	40.79
417.817	69.46
418.025	67.41
418.233	171.86
418.441	-55.47
418.649	73.56
418.857	128.85
419.065	184.15
419.273	-12.46
419.481	57.17
419.689	77.65
419.897	77.65
420.105	44.88
420.313	157.52
420.521	141.14
420.729	153.43
420.937	-4.27
421.145	14.17
421.353	108.37
421.561	155.47
421.769	38.74
421.977	53.08
422.185	147.28
422.393	114.52
422.601	182.1
422.809	77.65
423.017	79.7
423.224	75.6
423.432	192.34
423.64	26.45
423.848	153.43
424.056	67.41
424.263	108.37
424.471	132.95
424.679	184.15
424.887	46.93
425.094	196.43
425.302	69.46
425.51	124.76
425.718	163.67
425.925	87.89
426.133	28.5
426.341	202.58
426.548	118.61
426.756	118.61
426.964	130.9
427.171	79.7
427.379	128.85
427.586	110.42
427.794	110.42
428.001	184.15
428.209	106.32
428.417	171.86
428.624	118.61
428.832	87.89
429.039	40.79
429.247	116.56
429.454	171.86
429.662	241.49
429.869	137.04
430.076	161.62
430.284	208.72
430.491	208.72
430.699	135
430.906	169.81
431.114	167.76
431.321	143.19
431.528	135
431.736	175.95
431.943	145.24
432.15	161.62
432.358	178
432.565	327.5
432.772	42.84
432.979	264.02
433.187	159.57
433.394	292.69
433.601	192.34
433.808	192.34
434.016	259.92
434.223	239.44
434.43	300.88
434.637	296.78
434.844	317.26
435.052	288.59
435.259	319.31
435.466	384.85
435.673	218.96
435.88	298.83
436.087	409.42
436.294	386.9
436.501	388.94
436.708	266.07
436.915	307.02
437.122	376.66
437.329	251.73
437.537	309.07
437.743	196.43
437.95	495.44
438.157	403.28
438.364	466.77
438.571	431.95
438.778	436.05
438.985	501.58
439.192	505.68
439.399	544.59
439.606	528.21
439.813	577.36
440.02	665.42
440.227	634.7
440.433	603.98
440.64	491.34
440.847	468.81
441.054	710.47
441.261	786.25
441.467	669.52
441.674	587.6
441.881	753.48
442.088	700.23
442.294	831.3
442.501	847.69
442.708	847.69
442.914	810.82
443.121	894.79
443.328	939.85
443.534	1025.86
443.741	945.99
443.948	950.09
444.154	1111.88
444.361	1271.62
444.568	991.05
444.774	1066.82
444.981	1099.59
445.187	1333.06
445.394	1247.04
445.6	1275.71
445.807	1335.1
446.013	1335.1
446.22	1431.36
446.426	1488.7
446.633	1611.58
446.839	1756.99
447.046	1562.43
447.252	1691.45
447.459	1679.16
447.665	1607.48
447.871	1935.16
448.078	2047.8
448.284	2006.84
448.491	2127.67
448.697	2289.46
448.903	2219.83
449.11	2320.18
449.316	2336.56
449.522	2555.69
449.728	2584.37
449.935	2713.39
450.141	2713.39
450.347	3024.68
450.553	2969.38
450.76	3006.25
450.966	3041.06
451.172	3215.14
451.378	3362.59
451.584	3430.18
451.791	3589.92
451.997	3614.49
452.203	3675.93
452.409	3944.22
452.615	4222.74
452.821	4077.34
453.027	4093.72
453.233	4638.48
453.44	4624.14
453.646	4736.78
453.852	4898.57
454.058	5084.94
454.264	5203.72
454.47	5596.93
454.676	5527.3
454.882	6162.17
455.088	5846.78
455.294	6133.5
455.5	6520.56
455.705	6997.74
455.911	6893.29
456.117	7177.96
456.323	7257.83
456.529	7491.3
456.735	8025.82
456.941	8220.38
457.147	8574.67
457.352	8883.92
457.558	9086.67
457.764	9582.28
457.97	9778.88
458.176	10186.43
458.381	10888.88
458.587	10915.5
458.793	11468.45
458.999	11493.03
459.204	13008.53
459.41	13446.79
459.616	13158.03
459.821	13983.36
460.027	14564.98
460.233	15132.27
460.438	15470.19
460.644	16205.41
460.85	16213.6
461.055	17000.02
461.261	17917.51
461.466	17481.29
461.672	18032.19
461.878	20121.12
462.083	19678.76
462.289	20186.66
462.494	20491.8
462.7	20870.68
462.905	21308.94
463.111	23133.68
463.316	24202.72
463.522	24604.13
463.727	25052.63
463.932	26215.88
464.138	27252.15
464.343	28517.79
464.549	28425.64
464.754	30717.31
464.959	31135.1
465.165	31712.63
465.37	31180.15
465.575	31384.95
465.781	33647.96
465.986	34590.02
466.191	33951.06
466.397	34643.27
466.602	33824.08
466.807	35554.61
467.012	36222.25
467.218	36721.96
467.423	36650.28
467.628	37711.13
467.833	39789.81
468.038	39183.62
