Data from USB4F104151__77__10-44-16-471.txt Node

Date: Wed Feb 26 10:44:16 EST 2025
User: louis
Spectrometer: USB4F10415
Trigger mode: 4
Integration Time (sec): 1.000000E-1
Scans to average: 1
Electric dark correction enabled: true
Nonlinearity correction enabled: false
Boxcar width: 0
XAxis mode: Wavelengths
Number of Pixels in Spectrum: 3648
>>>>>Begin Spectral Data<<<<<
178.204	-383.99
178.424	-383.99
178.644	-383.99
178.864	-427
179.084	-363.51
179.304	-52.22
179.524	-60.42
179.744	-7.17
179.964	82.94
180.184	25.6
180.404	-7.17
180.624	5.12
180.844	9.22
181.064	-80.89
181.283	17.41
181.503	-39.94
181.723	107.52
181.943	-58.37
182.163	115.71
182.383	15.36
182.602	113.66
182.822	166.91
183.042	15.36
183.262	91.13
183.482	-5.12
183.701	56.32
183.921	23.55
184.141	-70.65
184.361	121.85
184.58	87.04
184.8	33.79
185.02	5.12
185.239	156.67
185.459	35.84
185.679	29.7
185.898	21.5
186.118	-1.02
186.338	33.79
186.557	123.9
186.777	-54.27
186.997	23.55
187.216	46.08
187.436	189.44
187.655	91.13
187.875	128
188.095	27.65
188.314	144.38
188.534	185.34
188.753	-97.28
188.973	173.05
189.192	201.72
189.412	39.94
189.631	35.84
189.851	78.85
190.07	193.53
190.29	13.31
190.509	13.31
190.729	97.28
190.948	134.14
191.168	250.88
191.387	103.42
191.607	-3.07
191.826	107.52
192.045	162.81
192.265	35.84
192.484	68.61
192.704	123.9
192.923	21.5
193.142	191.49
193.362	113.66
193.581	111.61
193.8	37.89
194.02	64.51
194.239	50.18
194.458	101.37
194.678	11.26
194.897	29.7
195.116	1.02
195.335	87.04
195.555	56.32
195.774	-9.22
195.993	144.38
196.212	117.76
196.432	-13.31
196.651	17.41
196.87	19.46
197.089	205.82
197.308	58.37
197.528	72.7
197.747	48.13
197.966	80.89
198.185	142.33
198.404	33.79
198.623	209.92
198.842	181.25
199.062	119.81
199.281	168.96
199.5	-5.12
199.719	68.61
199.938	87.04
200.157	109.57
200.376	99.33
200.595	103.42
200.814	44.03
201.033	-39.94
201.252	173.05
201.471	54.27
201.69	146.43
201.909	74.75
202.128	160.77
202.347	72.7
202.566	27.65
202.785	-27.65
203.004	11.26
203.223	197.63
203.442	-21.5
203.661	27.65
203.879	87.04
204.098	148.48
204.317	-7.17
204.536	44.03
204.755	97.28
204.974	142.33
205.193	78.85
205.411	138.24
205.63	128
205.849	132.09
206.068	70.65
206.287	-62.46
206.505	179.2
206.724	93.18
206.943	56.32
207.162	-31.74
207.381	115.71
207.599	54.27
207.818	78.85
208.037	21.5
208.255	9.22
208.474	76.8
208.693	99.33
208.911	-3.07
209.13	64.51
209.349	138.24
209.567	142.33
209.786	152.57
210.005	136.19
210.223	-11.26
210.442	-35.84
210.661	52.22
210.879	89.09
211.098	35.84
211.316	52.22
211.535	76.8
211.753	115.71
211.972	62.46
212.191	31.74
212.409	37.89
212.628	121.85
212.846	9.22
213.065	62.46
213.283	87.04
213.502	50.18
213.72	84.99
213.938	54.27
214.157	-27.65
214.375	181.25
214.594	-9.22
214.812	160.77
215.031	11.26
215.249	76.8
215.467	144.38
215.686	13.31
215.904	119.81
216.122	140.29
216.341	181.25
216.559	74.75
216.778	97.28
216.996	101.37
217.214	54.27
217.432	29.7
217.651	-3.07
217.869	29.7
218.087	72.7
218.306	25.6
218.524	54.27
218.742	113.66
218.96	103.42
219.179	-11.26
219.397	-48.13
219.615	244.73
219.833	103.42
220.051	-11.26
220.27	121.85
220.488	64.51
220.706	128
220.924	19.46
221.142	-35.84
221.36	62.46
221.578	105.47
221.796	58.37
222.015	54.27
222.233	115.71
222.451	142.33
222.669	-70.65
222.887	70.65
223.105	66.56
223.323	52.22
223.541	-103.42
223.759	95.23
223.977	89.09
224.195	224.25
224.413	72.7
224.631	29.7
224.849	46.08
225.067	287.74
225.285	11.26
225.503	66.56
225.721	-111.61
225.939	60.42
226.157	168.96
226.375	281.6
226.592	52.22
226.81	87.04
227.028	91.13
227.246	123.9
227.464	74.75
227.682	146.43
227.9	78.85
228.117	62.46
228.335	107.52
228.553	74.75
228.771	84.99
228.989	138.24
229.206	31.74
229.424	64.51
229.642	52.22
229.86	-25.6
230.077	150.53
230.295	95.23
230.513	175.1
230.731	78.85
230.948	175.1
231.166	183.29
231.384	25.6
231.601	-3.07
231.819	222.2
232.037	5.12
232.254	-23.55
232.472	17.41
232.689	70.65
232.907	187.39
233.125	1.02
233.342	-66.56
233.56	19.46
233.777	-27.65
233.995	80.89
234.213	148.48
234.43	37.89
234.648	95.23
234.865	64.51
235.083	132.09
235.3	23.55
235.518	78.85
235.735	111.61
235.953	162.81
236.17	84.99
236.388	68.61
236.605	74.75
236.822	121.85
237.04	89.09
237.257	62.46
237.475	-11.26
237.692	62.46
237.909	82.94
238.127	48.13
238.344	68.61
238.562	54.27
238.779	-9.22
238.996	-9.22
239.214	46.08
239.431	103.42
239.648	21.5
239.865	111.61
240.083	91.13
240.3	44.03
240.517	113.66
240.735	142.33
240.952	123.9
241.169	46.08
241.386	134.14
241.603	54.27
241.821	25.6
242.038	99.33
242.255	93.18
242.472	-17.41
242.689	130.05
242.907	103.42
243.124	146.43
243.341	68.61
243.558	27.65
243.775	-25.6
243.992	-74.75
244.209	25.6
244.426	244.73
244.643	70.65
244.86	54.27
245.078	107.52
245.295	62.46
245.512	76.8
245.729	15.36
245.946	107.52
246.163	160.77
246.38	48.13
246.597	5.12
246.814	17.41
247.031	48.13
247.248	25.6
247.464	89.09
247.681	-7.17
247.898	68.61
248.115	-19.46
248.332	56.32
248.549	66.56
248.766	134.14
248.983	91.13
249.2	46.08
249.417	152.57
249.633	74.75
249.85	39.94
250.067	62.46
250.284	50.18
250.501	111.61
250.717	91.13
250.934	-21.5
251.151	78.85
251.368	58.37
251.585	52.22
251.801	91.13
252.018	-9.22
252.235	109.57
252.451	-41.98
252.668	23.55
252.885	156.67
253.102	84.99
253.318	19.46
253.535	23.55
253.752	-23.55
253.968	5.12
254.185	-60.42
254.401	97.28
254.618	130.05
254.835	-25.6
255.051	166.91
255.268	80.89
255.484	15.36
255.701	25.6
255.917	84.99
256.134	-19.46
256.351	19.46
256.567	66.56
256.784	15.36
257	-27.65
257.217	130.05
257.433	164.86
257.65	50.18
257.866	158.72
258.082	3.07
258.299	15.36
258.515	44.03
258.732	72.7
258.948	148.48
259.165	80.89
259.381	-56.32
259.597	78.85
259.814	35.84
260.03	62.46
260.246	23.55
260.463	158.72
260.679	166.91
260.895	123.9
261.112	107.52
261.328	56.32
261.544	-29.7
261.761	197.63
261.977	-5.12
262.193	29.7
262.409	164.86
262.626	13.31
262.842	-5.12
263.058	5.12
263.274	89.09
263.49	109.57
263.707	134.14
263.923	82.94
264.139	-33.79
264.355	89.09
264.571	130.05
264.787	132.09
265.004	80.89
265.22	-39.94
265.436	37.89
265.652	-17.41
265.868	41.98
266.084	39.94
266.3	48.13
266.516	-1.02
266.732	121.85
266.948	113.66
267.164	41.98
267.38	148.48
267.596	144.38
267.812	173.05
268.028	52.22
268.244	-21.5
268.46	66.56
268.676	58.37
268.892	68.61
269.108	-19.46
269.324	27.65
269.54	-84.99
269.756	123.9
269.972	15.36
270.188	29.7
270.403	-19.46
270.619	31.74
270.835	46.08
271.051	48.13
271.267	74.75
271.483	82.94
271.698	105.47
271.914	84.99
272.13	74.75
272.346	-31.74
272.562	68.61
272.777	70.65
272.993	31.74
273.209	41.98
273.425	113.66
273.64	1.02
273.856	103.42
274.072	41.98
274.287	17.41
274.503	117.76
274.719	107.52
274.934	54.27
275.15	39.94
275.366	39.94
275.581	-35.84
275.797	103.42
276.012	87.04
276.228	54.27
276.444	80.89
276.659	205.82
276.875	21.5
277.09	76.8
277.306	70.65
277.521	29.7
277.737	3.07
277.952	109.57
278.168	3.07
278.383	128
278.599	-1.02
278.814	99.33
279.03	-1.02
279.245	142.33
279.461	-5.12
279.676	175.1
279.892	-11.26
280.107	-15.36
280.322	19.46
280.538	89.09
280.753	15.36
280.969	84.99
281.184	68.61
281.399	209.92
281.615	101.37
281.83	31.74
282.045	1.02
282.26	39.94
282.476	113.66
282.691	109.57
282.906	197.63
283.122	54.27
283.337	-13.31
283.552	95.23
283.767	15.36
283.983	132.09
284.198	58.37
284.413	132.09
284.628	-3.07
284.843	62.46
285.058	113.66
285.274	29.7
285.489	-48.13
285.704	162.81
285.919	37.89
286.134	82.94
286.349	91.13
286.564	48.13
286.779	138.24
286.995	78.85
287.21	-23.55
287.425	76.8
287.64	-39.94
287.855	97.28
288.07	-25.6
288.285	199.68
288.5	138.24
288.715	95.23
288.93	19.46
289.145	-41.98
289.36	173.05
289.575	93.18
289.79	103.42
290.004	23.55
290.219	125.95
290.434	97.28
290.649	25.6
290.864	5.12
291.079	11.26
291.294	46.08
291.509	128
291.724	13.31
291.938	80.89
292.153	74.75
292.368	23.55
292.583	52.22
292.798	82.94
293.012	107.52
293.227	93.18
293.442	-3.07
293.657	80.89
293.871	138.24
294.086	99.33
294.301	158.72
294.516	148.48
294.73	111.61
294.945	-5.12
295.16	58.37
295.374	89.09
295.589	62.46
295.804	-15.36
296.018	37.89
296.233	183.29
296.447	109.57
296.662	37.89
296.877	99.33
297.091	162.81
297.306	74.75
297.52	48.13
297.735	136.19
297.949	70.65
298.164	-27.65
298.378	89.09
298.593	-19.46
298.807	56.32
299.022	66.56
299.236	144.38
299.451	29.7
299.665	27.65
299.88	37.89
300.094	62.46
300.309	87.04
300.523	29.7
300.737	128
300.952	105.47
301.166	82.94
301.381	50.18
301.595	-3.07
301.809	164.86
302.024	21.5
302.238	13.31
302.452	87.04
302.667	99.33
302.881	201.72
303.095	52.22
303.309	115.71
303.524	9.22
303.738	27.65
303.952	19.46
304.166	130.05
304.381	-56.32
304.595	128
304.809	66.56
305.023	160.77
305.237	46.08
305.452	-3.07
305.666	113.66
305.88	23.55
306.094	193.53
306.308	205.82
306.522	62.46
306.736	109.57
306.95	60.42
307.164	13.31
307.379	70.65
307.593	89.09
307.807	173.05
308.021	84.99
308.235	70.65
308.449	-13.31
308.663	91.13
308.877	179.2
309.091	82.94
309.305	119.81
309.519	-70.65
309.733	158.72
309.947	-54.27
310.161	95.23
310.374	105.47
310.588	99.33
310.802	37.89
311.016	39.94
311.23	72.7
311.444	-9.22
311.658	103.42
311.872	84.99
312.085	195.58
312.299	113.66
312.513	154.62
312.727	82.94
312.941	7.17
313.154	183.29
313.368	44.03
313.582	66.56
313.796	93.18
314.009	82.94
314.223	207.87
314.437	50.18
314.651	226.3
314.864	-31.74
315.078	48.13
315.292	-17.41
315.505	35.84
315.719	70.65
315.933	80.89
316.146	-76.8
316.36	15.36
316.573	152.57
316.787	76.8
317.001	111.61
317.214	-64.51
317.428	7.17
317.641	29.7
317.855	-46.08
318.068	115.71
318.282	19.46
318.495	185.34
318.709	111.61
318.922	103.42
319.136	128
319.349	154.62
319.563	44.03
319.776	111.61
319.99	-33.79
320.203	60.42
320.417	74.75
320.63	132.09
320.843	185.34
321.057	168.96
321.27	130.05
321.483	82.94
321.697	179.2
321.91	-7.17
322.124	39.94
322.337	105.47
322.55	-58.37
322.763	113.66
322.977	11.26
323.19	64.51
323.403	87.04
323.617	185.34
323.83	193.53
324.043	15.36
324.256	74.75
324.469	48.13
324.683	91.13
324.896	119.81
325.109	91.13
325.322	-21.5
325.535	109.57
325.748	119.81
325.962	87.04
326.175	142.33
326.388	117.76
326.601	107.52
326.814	58.37
327.027	105.47
327.24	158.72
327.453	-103.42
327.666	134.14
327.879	168.96
328.092	146.43
328.305	121.85
328.518	52.22
328.731	-27.65
328.944	103.42
329.157	13.31
329.37	64.51
329.583	234.49
329.796	207.87
330.009	29.7
330.222	130.05
330.435	50.18
330.648	41.98
330.861	70.65
331.073	54.27
331.286	123.9
331.499	23.55
331.712	-44.03
331.925	76.8
332.138	132.09
332.35	35.84
332.563	17.41
332.776	93.18
332.989	74.75
333.202	44.03
333.414	56.32
333.627	11.26
333.84	48.13
334.053	41.98
334.265	3.07
334.478	58.37
334.691	25.6
334.903	80.89
335.116	25.6
335.329	-35.84
335.541	187.39
335.754	138.24
335.966	50.18
336.179	31.74
336.392	70.65
336.604	128
336.817	123.9
337.029	103.42
337.242	50.18
337.454	132.09
337.667	70.65
337.88	193.53
338.092	78.85
338.305	54.27
338.517	23.55
338.729	95.23
338.942	103.42
339.154	5.12
339.367	-39.94
339.579	130.05
339.792	17.41
340.004	101.37
340.217	119.81
340.429	80.89
340.641	62.46
340.854	-15.36
341.066	50.18
341.278	80.89
341.491	244.73
341.703	121.85
341.915	-44.03
342.128	103.42
342.34	115.71
342.552	-5.12
342.764	82.94
342.977	115.71
343.189	117.76
343.401	27.65
343.613	-13.31
343.826	-1.02
344.038	-37.89
344.25	87.04
344.462	15.36
344.674	105.47
344.886	80.89
345.099	111.61
345.311	93.18
345.523	-11.26
345.735	19.46
345.947	60.42
346.159	41.98
346.371	13.31
346.583	25.6
346.795	183.29
347.007	91.13
347.219	142.33
347.431	31.74
347.643	195.58
347.855	7.17
348.067	160.77
348.279	27.65
348.491	82.94
348.703	105.47
348.915	50.18
349.127	-84.99
349.339	27.65
349.551	-31.74
349.763	56.32
349.975	72.7
350.187	123.9
350.399	211.96
350.61	21.5
350.822	142.33
351.034	107.52
351.246	72.7
351.458	82.94
351.669	33.79
351.881	156.67
352.093	148.48
352.305	82.94
352.517	89.09
352.728	93.18
352.94	-1.02
353.152	66.56
353.363	78.85
353.575	132.09
353.787	78.85
353.999	31.74
354.21	150.53
354.422	56.32
354.633	93.18
354.845	48.13
355.057	68.61
355.268	66.56
355.48	78.85
355.692	11.26
355.903	78.85
356.115	-13.31
356.326	-9.22
356.538	162.81
356.749	160.77
356.961	185.34
357.172	44.03
357.384	62.46
357.595	287.74
357.807	29.7
358.018	-33.79
358.23	72.7
358.441	144.38
358.653	111.61
358.864	136.19
359.075	54.27
359.287	23.55
359.498	140.29
359.709	76.8
359.921	93.18
360.132	111.61
360.344	15.36
360.555	25.6
360.766	58.37
360.977	-5.12
361.189	193.53
361.4	41.98
361.611	39.94
361.823	171.01
362.034	111.61
362.245	-15.36
362.456	70.65
362.667	84.99
362.879	13.31
363.09	103.42
363.301	25.6
363.512	107.52
363.723	44.03
363.935	23.55
364.146	185.34
364.357	68.61
364.568	21.5
364.779	-46.08
364.99	173.05
365.201	64.51
365.412	148.48
365.623	-7.17
365.834	84.99
366.045	89.09
366.256	72.7
366.467	91.13
366.678	76.8
366.889	78.85
367.1	19.46
367.311	156.67
367.522	3.07
367.733	113.66
367.944	33.79
368.155	44.03
368.366	31.74
368.577	105.47
368.788	52.22
368.999	76.8
369.209	125.95
369.42	220.16
369.631	236.54
369.842	144.38
370.053	17.41
370.264	121.85
370.474	-23.55
370.685	-3.07
370.896	35.84
371.107	156.67
371.317	97.28
371.528	23.55
371.739	195.58
371.95	99.33
372.16	138.24
372.371	-11.26
372.582	31.74
372.792	107.52
373.003	115.71
373.214	97.28
373.424	123.9
373.635	29.7
373.846	156.67
374.056	27.65
374.267	125.95
374.477	54.27
374.688	27.65
374.898	115.71
375.109	121.85
375.319	76.8
375.53	162.81
375.74	74.75
375.951	62.46
376.161	111.61
376.372	158.72
376.582	70.65
376.793	82.94
377.003	23.55
377.214	27.65
377.424	66.56
377.635	66.56
377.845	54.27
378.055	160.77
378.266	58.37
378.476	-48.13
378.686	148.48
378.897	70.65
379.107	123.9
379.317	130.05
379.528	13.31
379.738	119.81
379.948	-52.22
380.158	140.29
380.369	46.08
380.579	101.37
380.789	-15.36
380.999	87.04
381.21	171.01
381.42	181.25
381.63	62.46
381.84	125.95
382.05	99.33
382.261	257.02
382.471	99.33
382.681	56.32
382.891	160.77
383.101	84.99
383.311	-33.79
383.521	5.12
383.731	84.99
383.941	134.14
384.151	46.08
384.361	66.56
384.571	50.18
384.781	33.79
384.991	275.45
385.201	154.62
385.411	82.94
385.621	99.33
385.831	82.94
386.041	44.03
386.251	25.6
386.461	179.2
386.671	97.28
386.881	70.65
387.091	46.08
387.301	103.42
387.511	103.42
387.72	72.7
387.93	142.33
388.14	-39.94
388.35	44.03
388.56	82.94
388.769	154.62
388.979	39.94
389.189	35.84
389.399	193.53
389.609	115.71
389.818	134.14
390.028	68.61
390.238	44.03
390.447	105.47
390.657	50.18
390.867	-48.13
391.076	5.12
391.286	76.8
391.496	76.8
391.705	35.84
391.915	111.61
392.125	132.09
392.334	-7.17
392.544	162.81
392.753	72.7
392.963	-11.26
393.172	76.8
393.382	31.74
393.591	158.72
393.801	-17.41
394.01	189.44
394.22	168.96
394.429	82.94
394.639	84.99
394.848	35.84
395.058	-19.46
395.267	5.12
395.477	103.42
395.686	123.9
395.895	218.11
396.105	193.53
396.314	68.61
396.524	54.27
396.733	74.75
396.942	168.96
397.152	31.74
397.361	171.01
397.57	-3.07
397.78	50.18
397.989	242.68
398.198	148.48
398.407	89.09
398.617	103.42
398.826	58.37
399.035	21.5
399.244	191.49
399.453	80.89
399.663	46.08
399.872	60.42
400.081	52.22
400.29	109.57
400.499	-3.07
400.708	164.86
400.917	128
401.127	50.18
401.336	97.28
401.545	152.57
401.754	158.72
401.963	125.95
402.172	29.7
402.381	64.51
402.59	89.09
402.799	35.84
403.008	103.42
403.217	111.61
403.426	29.7
403.635	-11.26
403.844	107.52
404.053	29.7
404.262	89.09
404.471	205.82
404.68	17.41
404.888	35.84
405.097	-39.94
405.306	107.52
405.515	156.67
405.724	56.32
405.933	97.28
406.142	82.94
406.35	146.43
406.559	41.98
406.768	95.23
406.977	113.66
407.185	66.56
407.394	80.89
407.603	25.6
407.812	115.71
408.02	156.67
408.229	56.32
408.438	54.27
408.646	-21.5
408.855	105.47
409.064	78.85
409.272	87.04
409.481	162.81
409.69	68.61
409.898	-31.74
410.107	95.23
410.315	171.01
410.524	74.75
410.733	-19.46
410.941	62.46
411.15	105.47
411.358	111.61
411.567	162.81
411.775	87.04
411.984	76.8
412.192	91.13
412.401	84.99
412.609	158.72
412.818	201.72
413.026	95.23
413.234	29.7
413.443	46.08
413.651	68.61
413.86	39.94
414.068	128
414.276	154.62
414.485	50.18
414.693	119.81
414.901	238.59
415.11	80.89
415.318	82.94
415.526	56.32
415.734	89.09
415.943	107.52
416.151	166.91
416.359	62.46
416.567	78.85
416.776	117.76
416.984	138.24
417.192	160.77
417.4	117.76
417.608	78.85
417.817	72.7
418.025	121.85
418.233	201.72
418.441	9.22
418.649	44.03
418.857	82.94
419.065	123.9
419.273	91.13
419.481	148.48
419.689	72.7
419.897	46.08
420.105	1.02
420.313	156.67
420.521	181.25
420.729	218.11
420.937	66.56
421.145	25.6
421.353	48.13
421.561	154.62
421.769	162.81
421.977	87.04
422.185	168.96
422.393	29.7
422.601	84.99
422.809	181.25
423.017	48.13
423.224	91.13
423.432	113.66
423.64	46.08
423.848	199.68
424.056	50.18
424.263	160.77
424.471	111.61
424.679	168.96
424.887	76.8
425.094	150.53
425.302	97.28
425.51	25.6
425.718	138.24
425.925	103.42
426.133	44.03
426.341	209.92
426.548	142.33
426.756	68.61
426.964	125.95
427.171	97.28
427.379	111.61
427.586	140.29
427.794	105.47
428.001	189.44
428.209	23.55
428.417	84.99
428.624	142.33
428.832	173.05
429.039	173.05
429.247	84.99
429.454	160.77
429.662	252.92
429.869	93.18
430.076	136.19
430.284	193.53
430.491	173.05
430.699	214.01
430.906	220.16
431.114	171.01
431.321	177.15
431.528	173.05
431.736	130.05
431.943	209.92
432.15	144.38
432.358	199.68
432.565	175.1
432.772	48.13
432.979	193.53
433.187	148.48
433.394	181.25
433.601	164.86
433.808	171.01
434.016	293.88
434.223	312.32
434.43	218.11
434.637	365.56
434.844	314.36
435.052	189.44
435.259	332.79
435.466	308.22
435.673	252.92
435.88	220.16
436.087	297.98
436.294	349.18
436.501	265.21
436.708	271.36
436.915	351.23
437.122	379.9
437.329	246.78
437.537	275.45
437.743	345.08
437.95	494.58
438.157	435.19
438.364	377.85
438.571	334.84
438.778	449.53
438.985	457.72
439.192	523.26
439.399	404.47
439.606	564.22
439.813	508.92
440.02	652.28
440.227	660.47
440.433	685.05
440.64	566.26
440.847	519.16
441.054	539.64
441.261	678.9
441.467	570.36
441.674	508.92
441.881	707.57
442.088	596.98
442.294	699.38
442.501	762.87
442.708	879.6
442.914	726
443.121	762.87
443.328	863.22
443.534	883.7
443.741	889.84
443.948	711.67
444.154	914.42
444.361	1076.21
444.568	941.04
444.774	951.28
444.981	953.33
445.187	1078.26
445.394	1096.69
445.6	1039.34
445.807	1176.56
446.013	1174.51
446.22	1166.32
446.426	1293.29
446.633	1450.99
446.839	1618.92
447.046	1332.2
447.252	1514.47
447.459	1410.03
447.665	1522.66
447.871	1797.09
448.078	1774.56
448.284	1774.56
448.491	1790.95
448.697	1799.14
448.903	1946.59
449.11	2034.66
449.316	1991.65
449.522	2368.48
449.728	2438.11
449.935	2417.63
450.141	2278.37
450.347	2515.93
450.553	2540.51
450.76	2532.31
450.966	2726.87
451.172	2853.84
451.378	2878.42
451.584	3015.63
451.791	3126.22
451.997	3290.06
452.203	3167.18
452.409	3576.78
452.615	3554.25
452.821	3587.02
453.027	3728.33
453.233	4068.29
453.44	3865.54
453.646	3965.89
453.852	4398.01
454.058	4248.51
454.264	4412.35
454.47	4965.3
454.676	4860.85
454.882	5307.31
455.088	4975.54
455.294	5311.41
455.5	5680.04
455.705	5893.03
455.911	5983.14
456.117	6026.15
456.323	6392.73
456.529	6368.16
456.735	6927.25
456.941	7240.59
457.147	7437.2
457.352	7824.26
457.558	7803.78
457.764	8354.69
457.97	8670.08
458.176	8915.83
458.381	9171.83
458.587	9466.74
458.793	9898.86
458.999	9956.2
459.204	11215.7
459.41	11705.17
459.616	11443.03
459.821	12204.87
460.027	12593.98
460.233	13198.13
460.438	13243.19
460.644	14000.94
460.85	14089
461.055	14471.97
461.261	15242.01
461.466	15057.69
461.672	15315.73
461.878	17361.66
462.083	16802.56
462.289	17586.93
462.494	18260.71
462.7	18139.88
462.905	18313.96
463.111	19794.64
463.316	20759.24
463.522	21375.67
463.727	21897.91
463.932	22719.14
464.138	23448.22
464.343	24597.13
464.549	24504.97
464.754	26339.95
464.959	27103.84
465.165	27429.47
465.37	27437.66
465.575	27638.36
465.781	29522.49
465.986	29712.95
466.191	29512.25
466.397	30020.15
466.602	29366.85
466.807	30507.57
467.012	31687.2
467.218	31910.43
467.423	32133.65
467.628	32895.5
467.833	34251.25
468.038	34130.42
468.244	33567.23
468.449	35095.02
