Data from USB4F104151__43__10-43-05-979.txt Node

Date: Wed Feb 26 10:43:05 EST 2025
User: louis
Spectrometer: USB4F10415
Trigger mode: 4
Integration Time (sec): 1.000000E-1
Scans to average: 1
Electric dark correction enabled: true
Nonlinearity correction enabled: false
Boxcar width: 0
XAxis mode: Wavelengths
Number of Pixels in Spectrum: 3648
>>>>>Begin Spectral Data<<<<<
178.204	-306.51
178.424	-306.51
178.644	-306.51
178.864	-329.04
179.084	-355.66
179.304	76.46
179.524	43.69
179.744	8.87
179.964	-50.52
180.184	76.46
180.404	21.16
180.624	-75.09
180.844	33.45
181.064	-109.91
181.283	29.35
181.503	-52.56
181.723	-1.37
181.943	-52.56
182.163	254.63
182.383	-23.89
182.602	66.22
182.822	164.52
183.042	144.04
183.262	-56.66
183.482	47.79
183.701	27.31
183.921	0.68
184.141	-30.04
184.361	94.89
184.58	49.83
184.8	72.36
185.02	0.68
185.239	164.52
185.459	41.64
185.679	117.42
185.898	-62.8
186.118	39.59
186.338	103.08
186.557	115.37
186.777	53.93
186.997	49.83
187.216	78.51
187.436	197.29
187.655	90.79
187.875	84.65
188.095	72.36
188.314	88.75
188.534	111.27
188.753	-15.7
188.973	74.41
189.192	178.86
189.412	39.59
189.631	68.27
189.851	141.99
190.07	178.86
190.29	-11.61
190.509	17.07
190.729	43.69
190.948	195.24
191.168	219.82
191.387	76.46
191.607	0.68
191.826	92.84
192.045	-13.65
192.265	-3.41
192.484	70.31
192.704	15.02
192.923	-71
193.142	166.57
193.362	82.6
193.581	103.08
193.8	58.03
194.02	109.22
194.239	62.12
194.458	119.46
194.678	72.36
194.897	-58.71
195.116	78.51
195.335	78.51
195.555	191.14
195.774	25.26
195.993	74.41
196.212	45.74
196.432	68.27
196.651	12.97
196.87	76.46
197.089	219.82
197.308	101.03
197.528	45.74
197.747	2.73
197.966	60.07
198.185	115.37
198.404	-11.61
198.623	101.03
198.842	131.75
199.062	158.38
199.281	96.94
199.5	86.7
199.719	154.28
199.938	156.33
200.157	123.56
200.376	131.75
200.595	121.51
200.814	60.07
201.033	68.27
201.252	262.82
201.471	86.7
201.69	29.35
201.909	70.31
202.128	113.32
202.347	131.75
202.566	88.75
202.785	-40.28
203.004	53.93
203.223	277.16
203.442	94.89
203.661	-58.71
203.879	98.99
204.098	141.99
204.317	-91.48
204.536	66.22
204.755	109.22
204.974	131.75
205.193	15.02
205.411	121.51
205.63	219.82
205.849	82.6
206.068	66.22
206.287	66.22
206.505	123.56
206.724	12.97
206.943	-71
207.162	0.68
207.381	68.27
207.599	51.88
207.818	60.07
208.037	-5.46
208.255	84.65
208.474	178.86
208.693	21.16
208.911	60.07
209.13	31.4
209.349	80.55
209.567	139.94
209.786	78.51
210.005	41.64
210.223	94.89
210.442	-32.08
210.661	19.11
210.879	55.98
211.098	-17.75
211.316	41.64
211.535	82.6
211.753	84.65
211.972	109.22
212.191	25.26
212.409	31.4
212.628	58.03
212.846	-3.41
213.065	10.92
213.283	137.9
213.502	60.07
213.72	109.22
213.938	41.64
214.157	33.45
214.375	117.42
214.594	53.93
214.812	90.79
215.031	31.4
215.249	31.4
215.467	105.13
215.686	53.93
215.904	101.03
216.122	88.75
216.341	115.37
216.559	111.27
216.778	162.47
216.996	242.34
217.214	-1.37
217.432	-15.7
217.651	-107.86
217.869	90.79
218.087	98.99
218.306	-9.56
218.524	133.8
218.742	64.17
218.96	98.99
219.179	-38.23
219.397	21.16
219.615	182.95
219.833	115.37
220.051	33.45
220.27	96.94
220.488	129.7
220.706	119.46
220.924	-1.37
221.142	35.5
221.36	49.83
221.578	131.75
221.796	86.7
222.015	88.75
222.233	27.31
222.451	141.99
222.669	33.45
222.887	146.09
223.105	27.31
223.323	47.79
223.541	51.88
223.759	82.6
223.977	45.74
224.195	144.04
224.413	41.64
224.631	180.9
224.849	4.78
225.067	211.62
225.285	43.69
225.503	47.79
225.721	-99.67
225.939	86.7
226.157	49.83
226.375	268.97
226.592	-13.65
226.81	37.55
227.028	109.22
227.246	185
227.464	35.5
227.682	146.09
227.9	92.84
228.117	94.89
228.335	70.31
228.553	133.8
228.771	21.16
228.989	64.17
229.206	141.99
229.424	25.26
229.642	72.36
229.86	76.46
230.077	125.61
230.295	74.41
230.513	72.36
230.731	76.46
230.948	256.68
231.166	164.52
231.384	43.69
231.601	-34.13
231.819	182.95
232.037	25.26
232.254	-1.37
232.472	-15.7
232.689	39.59
232.907	201.38
233.125	17.07
233.342	27.31
233.56	41.64
233.777	29.35
233.995	25.26
234.213	121.51
234.43	117.42
234.648	21.16
234.865	55.98
235.083	68.27
235.3	19.11
235.518	88.75
235.735	119.46
235.953	64.17
236.17	43.69
236.388	-42.32
236.605	60.07
236.822	117.42
237.04	166.57
237.257	84.65
237.475	-7.51
237.692	70.31
237.909	86.7
238.127	4.78
238.344	84.65
238.562	72.36
238.779	78.51
238.996	-13.65
239.214	86.7
239.431	164.52
239.648	-21.85
239.865	53.93
240.083	117.42
240.3	78.51
240.517	45.74
240.735	96.94
240.952	107.18
241.169	51.88
241.386	55.98
241.603	41.64
241.821	-15.7
242.038	96.94
242.255	113.32
242.472	-38.23
242.689	119.46
242.907	148.14
243.124	80.55
243.341	82.6
243.558	25.26
243.775	-13.65
243.992	-5.46
244.209	174.76
244.426	172.71
244.643	72.36
244.86	-5.46
245.078	70.31
245.295	101.03
245.512	-36.18
245.729	21.16
245.946	82.6
246.163	66.22
246.38	55.98
246.597	74.41
246.814	51.88
247.031	37.55
247.248	58.03
247.464	68.27
247.681	45.74
247.898	94.89
248.115	115.37
248.332	10.92
248.549	185
248.766	131.75
248.983	129.7
249.2	80.55
249.417	55.98
249.633	-9.56
249.85	111.27
250.067	35.5
250.284	-3.41
250.501	51.88
250.717	101.03
250.934	-15.7
251.151	49.83
251.368	111.27
251.585	66.22
251.801	-21.85
252.018	-13.65
252.235	209.58
252.451	-103.76
252.668	80.55
252.885	170.66
253.102	107.18
253.318	76.46
253.535	-38.23
253.752	-30.04
253.968	6.83
254.185	-3.41
254.401	90.79
254.618	135.85
254.835	-54.61
255.051	74.41
255.268	82.6
255.484	103.08
255.701	66.22
255.917	45.74
256.134	-9.56
256.351	37.55
256.567	21.16
256.784	64.17
257	39.59
257.217	90.79
257.433	150.18
257.65	53.93
257.866	117.42
258.082	-54.61
258.299	-66.9
258.515	121.51
258.732	-46.42
258.948	10.92
259.165	66.22
259.381	-36.18
259.597	109.22
259.814	84.65
260.03	62.12
260.246	84.65
260.463	101.03
260.679	162.47
260.895	84.65
261.112	121.51
261.328	23.21
261.544	-75.09
261.761	195.24
261.977	-5.46
262.193	-11.61
262.409	105.13
262.626	25.26
262.842	53.93
263.058	27.31
263.274	98.99
263.49	39.59
263.707	111.27
263.923	84.65
264.139	-34.13
264.355	84.65
264.571	121.51
264.787	49.83
265.004	176.81
265.22	47.79
265.436	-21.85
265.652	8.87
265.868	88.75
266.084	8.87
266.3	-11.61
266.516	-64.85
266.732	60.07
266.948	27.31
267.164	39.59
267.38	178.86
267.596	162.47
267.812	154.28
268.028	39.59
268.244	-38.23
268.46	92.84
268.676	33.45
268.892	-1.37
269.108	74.41
269.324	29.35
269.54	-60.76
269.756	76.46
269.972	-89.43
270.188	8.87
270.403	-19.8
270.619	19.11
270.835	105.13
271.051	31.4
271.267	-50.52
271.483	49.83
271.698	96.94
271.914	131.75
272.13	12.97
272.346	55.98
272.562	148.14
272.777	111.27
272.993	37.55
273.209	82.6
273.425	121.51
273.64	-42.32
273.856	98.99
274.072	41.64
274.287	-30.04
274.503	158.38
274.719	62.12
274.934	31.4
275.15	-44.37
275.366	55.98
275.581	2.73
275.797	58.03
276.012	55.98
276.228	15.02
276.444	158.38
276.659	178.86
276.875	-30.04
277.09	-44.37
277.306	53.93
277.521	115.37
277.737	127.66
277.952	146.09
278.168	-3.41
278.383	43.69
278.599	141.99
278.814	146.09
279.03	15.02
279.245	166.57
279.461	111.27
279.676	154.28
279.892	-60.76
280.107	-3.41
280.322	21.16
280.538	74.41
280.753	-36.18
280.969	43.69
281.184	74.41
281.399	121.51
281.615	90.79
281.83	113.32
282.045	2.73
282.26	-23.89
282.476	84.65
282.691	137.9
282.906	125.61
283.122	27.31
283.337	-48.47
283.552	51.88
283.767	31.4
283.983	129.7
284.198	6.83
284.413	31.4
284.628	-42.32
284.843	19.11
285.058	92.84
285.274	45.74
285.489	6.83
285.704	139.94
285.919	-56.66
286.134	98.99
286.349	82.6
286.564	19.11
286.779	113.32
286.995	49.83
287.21	55.98
287.425	105.13
287.64	-5.46
287.855	29.35
288.07	-81.24
288.285	119.46
288.5	170.66
288.715	45.74
288.93	90.79
289.145	25.26
289.36	117.42
289.575	0.68
289.79	172.71
290.004	62.12
290.219	199.34
290.434	45.74
290.649	4.78
290.864	64.17
291.079	10.92
291.294	51.88
291.509	43.69
291.724	146.09
291.938	70.31
292.153	58.03
292.368	41.64
292.583	35.5
292.798	78.51
293.012	66.22
293.227	113.32
293.442	49.83
293.657	45.74
293.871	133.8
294.086	76.46
294.301	180.9
294.516	178.86
294.73	29.35
294.945	15.02
295.16	29.35
295.374	215.72
295.589	105.13
295.804	-15.7
296.018	74.41
296.233	144.04
296.447	127.66
296.662	35.5
296.877	86.7
297.091	121.51
297.306	43.69
297.52	-62.8
297.735	90.79
297.949	135.85
298.164	51.88
298.378	47.79
298.593	37.55
298.807	6.83
299.022	80.55
299.236	170.66
299.451	29.35
299.665	-62.8
299.88	6.83
300.094	146.09
300.309	31.4
300.523	84.65
300.737	4.78
300.952	29.35
301.166	137.9
301.381	45.74
301.595	-34.13
301.809	74.41
302.024	-15.7
302.238	-15.7
302.452	98.99
302.667	51.88
302.881	135.85
303.095	109.22
303.309	146.09
303.524	76.46
303.738	51.88
303.952	47.79
304.166	133.8
304.381	-95.57
304.595	199.34
304.809	-27.99
305.023	76.46
305.237	55.98
305.452	-5.46
305.666	113.32
305.88	107.18
306.094	101.03
306.308	17.07
306.522	76.46
306.736	64.17
306.95	156.33
307.164	51.88
307.379	43.69
307.593	211.62
307.807	189.1
308.021	148.14
308.235	156.33
308.449	-99.67
308.663	80.55
308.877	225.96
309.091	19.11
309.305	103.08
309.519	-36.18
309.733	125.61
309.947	-40.28
310.161	86.7
310.374	164.52
310.588	84.65
310.802	70.31
311.016	27.31
311.23	82.6
311.444	-9.56
311.658	-42.32
311.872	82.6
312.085	82.6
312.299	180.9
312.513	187.05
312.727	58.03
312.941	-21.85
313.154	168.62
313.368	49.83
313.582	55.98
313.796	-11.61
314.009	12.97
314.223	154.28
314.437	53.93
314.651	135.85
314.864	35.5
315.078	6.83
315.292	-3.41
315.505	12.97
315.719	191.14
315.933	131.75
316.146	55.98
316.36	-23.89
316.573	191.14
316.787	76.46
317.001	70.31
317.214	-32.08
317.428	103.08
317.641	19.11
317.855	68.27
318.068	58.03
318.282	82.6
318.495	217.77
318.709	78.51
318.922	64.17
319.136	166.57
319.349	123.56
319.563	6.83
319.776	62.12
319.99	-91.48
320.203	76.46
320.417	41.64
320.63	51.88
320.843	248.49
321.057	49.83
321.27	49.83
321.483	105.13
321.697	88.75
321.91	121.51
322.124	62.12
322.337	17.07
322.55	23.21
322.763	51.88
322.977	72.36
323.19	107.18
323.403	127.66
323.617	74.41
323.83	187.05
324.043	2.73
324.256	31.4
324.469	-5.46
324.683	187.05
324.896	17.07
325.109	4.78
325.322	-79.19
325.535	133.8
325.748	66.22
325.962	62.12
326.175	19.11
326.388	49.83
326.601	49.83
326.814	-19.8
327.027	62.12
327.24	170.66
327.453	2.73
327.666	53.93
327.879	66.22
328.092	131.75
328.305	29.35
328.518	62.12
328.731	-15.7
328.944	4.78
329.157	66.22
329.37	78.51
329.583	160.42
329.796	109.22
330.009	-71
330.222	103.08
330.435	103.08
330.648	105.13
330.861	78.51
331.073	64.17
331.286	170.66
331.499	78.51
331.712	-11.61
331.925	88.75
332.138	162.47
332.35	90.79
332.563	-15.7
332.776	135.85
332.989	-21.85
333.202	49.83
333.414	15.02
333.627	70.31
333.84	74.41
334.053	131.75
334.265	51.88
334.478	17.07
334.691	12.97
334.903	72.36
335.116	29.35
335.329	64.17
335.541	168.62
335.754	207.53
335.966	-7.51
336.179	105.13
336.392	21.16
336.604	92.84
336.817	103.08
337.029	23.21
337.242	68.27
337.454	2.73
337.667	23.21
337.88	197.29
338.092	82.6
338.305	86.7
338.517	17.07
338.729	96.94
338.942	139.94
339.154	45.74
339.367	-1.37
339.579	129.7
339.792	-9.56
340.004	107.18
340.217	31.4
340.429	103.08
340.641	21.16
340.854	-3.41
341.066	-50.52
341.278	94.89
341.491	197.29
341.703	27.31
341.915	58.03
342.128	33.45
342.34	107.18
342.552	-48.47
342.764	53.93
342.977	84.65
343.189	162.47
343.401	168.62
343.613	-27.99
343.826	66.22
344.038	45.74
344.25	76.46
344.462	29.35
344.674	53.93
344.886	-5.46
345.099	64.17
345.311	137.9
345.523	64.17
345.735	-77.14
345.947	70.31
346.159	72.36
346.371	-1.37
346.583	45.74
346.795	156.33
347.007	-64.85
347.219	60.07
347.431	64.17
347.643	209.58
347.855	72.36
348.067	187.05
348.279	-54.61
348.491	80.55
348.703	162.47
348.915	-5.46
349.127	6.83
349.339	121.51
349.551	-7.51
349.763	111.27
349.975	84.65
350.187	111.27
350.399	174.76
350.61	80.55
350.822	43.69
351.034	64.17
351.246	51.88
351.458	94.89
351.669	64.17
351.881	141.99
352.093	127.66
352.305	113.32
352.517	21.16
352.728	144.04
352.94	58.03
353.152	47.79
353.363	-32.08
353.575	66.22
353.787	162.47
353.999	96.94
354.21	170.66
354.422	41.64
354.633	21.16
354.845	148.14
355.057	170.66
355.268	119.46
355.48	117.42
355.692	-17.75
355.903	53.93
356.115	-21.85
356.326	-54.61
356.538	240.3
356.749	51.88
356.961	215.72
357.172	-15.7
357.384	-34.13
357.595	189.1
357.807	31.4
358.018	-9.56
358.23	117.42
358.441	174.76
358.653	156.33
358.864	15.02
359.075	41.64
359.287	88.75
359.498	86.7
359.709	152.23
359.921	84.65
360.132	58.03
360.344	107.18
360.555	43.69
360.766	193.19
360.977	82.6
361.189	60.07
361.4	-11.61
361.611	152.23
361.823	146.09
362.034	55.98
362.245	-87.38
362.456	47.79
362.667	86.7
362.879	8.87
363.09	146.09
363.301	86.7
363.512	66.22
363.723	-30.04
363.935	-38.23
364.146	74.41
364.357	29.35
364.568	113.32
364.779	-25.94
364.99	146.09
365.201	66.22
365.412	78.51
365.623	-7.51
365.834	68.27
366.045	-46.42
366.256	109.22
366.467	74.41
366.678	15.02
366.889	68.27
367.1	-9.56
367.311	60.07
367.522	60.07
367.733	129.7
367.944	84.65
368.155	6.83
368.366	96.94
368.577	96.94
368.788	172.71
368.999	-50.52
369.209	94.89
369.42	199.34
369.631	283.3
369.842	164.52
370.053	-27.99
370.264	96.94
370.474	12.97
370.685	35.5
370.896	-17.75
371.107	164.52
371.317	92.84
371.528	39.59
371.739	90.79
371.95	64.17
372.16	88.75
372.371	-38.23
372.582	58.03
372.792	62.12
373.003	148.14
373.214	101.03
373.424	88.75
373.635	17.07
373.846	182.95
374.056	74.41
374.267	74.41
374.477	62.12
374.688	72.36
374.898	78.51
375.109	84.65
375.319	115.37
375.53	158.38
375.74	82.6
375.951	6.83
376.161	62.12
376.372	160.42
376.582	33.45
376.793	68.27
377.003	-46.42
377.214	-44.37
377.424	154.28
377.635	109.22
377.845	19.11
378.055	105.13
378.266	-101.72
378.476	17.07
378.686	86.7
378.897	-15.7
379.107	62.12
379.317	49.83
379.528	21.16
379.738	35.5
379.948	-36.18
380.158	150.18
380.369	74.41
380.579	109.22
380.789	43.69
380.999	125.61
381.21	74.41
381.42	158.38
381.63	23.21
381.84	96.94
382.05	137.9
382.261	137.9
382.471	141.99
382.681	58.03
382.891	144.04
383.101	141.99
383.311	55.98
383.521	86.7
383.731	62.12
383.941	111.27
384.151	45.74
384.361	88.75
384.571	70.31
384.781	115.37
384.991	262.82
385.201	244.39
385.411	178.86
385.621	51.88
385.831	39.59
386.041	101.03
386.251	39.59
386.461	156.33
386.671	58.03
386.881	-7.51
387.091	74.41
387.301	139.94
387.511	-34.13
387.72	146.09
387.93	49.83
388.14	-56.66
388.35	127.66
388.56	193.19
388.769	185
388.979	29.35
389.189	4.78
389.399	43.69
389.609	146.09
389.818	74.41
390.028	121.51
390.238	166.57
390.447	29.35
390.657	101.03
390.867	4.78
391.076	12.97
391.286	133.8
391.496	55.98
391.705	74.41
391.915	133.8
392.125	180.9
392.334	55.98
392.544	174.76
392.753	105.13
392.963	23.21
393.172	37.55
393.382	49.83
393.591	174.76
393.801	78.51
394.01	178.86
394.22	70.31
394.429	12.97
394.639	92.84
394.848	96.94
395.058	117.42
395.267	58.03
395.477	131.75
395.686	107.18
395.895	133.8
396.105	197.29
396.314	92.84
396.524	41.64
396.733	66.22
396.942	146.09
397.152	45.74
397.361	193.19
397.57	139.94
397.78	74.41
397.989	125.61
398.198	168.62
398.407	33.45
398.617	17.07
398.826	84.65
399.035	80.55
399.244	107.18
399.453	80.55
399.663	107.18
399.872	119.46
400.081	0.68
400.29	170.66
400.499	21.16
400.708	113.32
400.917	43.69
401.127	88.75
401.336	8.87
401.545	185
401.754	160.42
401.963	111.27
402.172	74.41
402.381	37.55
402.59	-25.94
402.799	76.46
403.008	168.62
403.217	133.8
403.426	92.84
403.635	15.02
403.844	133.8
404.053	4.78
404.262	35.5
404.471	195.24
404.68	92.84
404.888	113.32
405.097	107.18
405.306	72.36
405.515	203.43
405.724	15.02
405.933	133.8
406.142	64.17
406.35	92.84
406.559	-3.41
406.768	90.79
406.977	109.22
407.185	70.31
407.394	168.62
407.603	10.92
407.812	148.14
408.02	131.75
408.229	131.75
408.438	80.55
408.646	-56.66
408.855	49.83
409.064	86.7
409.272	80.55
409.481	170.66
409.69	-1.37
409.898	0.68
410.107	109.22
410.315	135.85
410.524	21.16
410.733	103.08
410.941	113.32
411.15	135.85
411.358	45.74
411.567	211.62
411.775	107.18
411.984	70.31
412.192	98.99
412.401	115.37
412.609	178.86
412.818	125.61
413.026	103.08
413.234	45.74
413.443	88.75
413.651	39.59
413.86	72.36
414.068	144.04
414.276	211.62
414.485	62.12
414.693	185
414.901	244.39
415.11	107.18
415.318	-9.56
415.526	80.55
415.734	141.99
415.943	111.27
416.151	148.14
416.359	15.02
416.567	84.65
416.776	209.58
416.984	144.04
417.192	127.66
417.4	21.16
417.608	23.21
417.817	21.16
418.025	125.61
418.233	203.43
418.441	23.21
418.649	2.73
418.857	105.13
419.065	141.99
419.273	113.32
419.481	35.5
419.689	105.13
419.897	62.12
420.105	-64.85
420.313	88.75
420.521	185
420.729	180.9
420.937	62.12
421.145	96.94
421.353	193.19
421.561	146.09
421.769	96.94
421.977	96.94
422.185	205.48
422.393	156.33
422.601	187.05
422.809	133.8
423.017	84.65
423.224	98.99
423.432	238.25
423.64	92.84
423.848	170.66
424.056	31.4
424.263	137.9
424.471	86.7
424.679	219.82
424.887	-5.46
425.094	178.86
425.302	117.42
425.51	103.08
425.718	66.22
425.925	78.51
426.133	-9.56
426.341	297.64
426.548	4.78
426.756	94.89
426.964	96.94
427.171	74.41
427.379	62.12
427.586	90.79
427.794	172.71
428.001	178.86
428.209	146.09
428.417	252.58
428.624	180.9
428.832	117.42
429.039	221.86
429.247	141.99
429.454	148.14
429.662	219.82
429.869	191.14
430.076	154.28
430.284	191.14
430.491	363.17
430.699	137.9
430.906	254.63
431.114	242.34
431.321	180.9
431.528	133.8
431.736	176.81
431.943	191.14
432.15	236.2
432.358	273.06
432.565	322.21
432.772	25.26
432.979	277.16
433.187	170.66
433.394	320.17
433.601	187.05
433.808	283.3
434.016	324.26
434.223	311.97
434.43	385.7
434.637	379.56
434.844	400.04
435.052	215.72
435.259	260.77
435.466	389.8
435.673	340.65
435.88	432.8
436.087	389.8
436.294	410.28
436.501	406.18
436.708	357.03
436.915	436.9
437.122	451.24
437.329	381.6
437.537	379.56
437.743	486.05
437.95	565.92
438.157	572.07
438.364	492.2
438.571	484
438.778	625.31
438.985	518.82
439.192	592.55
439.399	547.49
439.606	682.66
439.813	629.41
440.02	791.2
440.227	887.45
440.433	703.14
440.64	754.34
440.847	649.89
441.054	752.29
441.261	1002.14
441.467	735.9
441.674	778.91
441.881	922.27
442.088	869.02
442.294	996
442.501	1077.91
442.708	1036.95
442.914	1034.91
443.121	1116.83
443.328	1116.83
443.534	1301.14
443.741	1188.5
443.948	1188.5
444.154	1268.38
444.361	1475.22
444.568	1368.73
444.774	1325.72
444.981	1295
445.187	1548.95
445.394	1534.61
445.6	1483.41
445.807	1731.22
446.013	1829.52
446.22	1657.49
446.426	1798.8
446.633	2001.55
446.839	2183.82
447.046	1964.68
447.252	2054.8
447.459	2138.76
447.665	2144.91
447.871	2296.46
448.078	2515.59
448.284	2556.55
448.491	2699.91
448.697	2720.39
448.903	2744.96
449.11	2896.51
449.316	2847.36
449.522	3113.6
449.728	3203.71
449.935	3283.58
450.141	3324.54
450.347	3605.11
450.553	3512.95
450.76	3684.98
450.966	3715.7
451.172	4008.56
451.378	4141.68
451.584	4178.54
451.791	4549.22
451.997	4524.65
452.203	4749.92
452.409	4872.8
452.615	5347.93
452.821	5048.93
453.027	5096.03
453.233	5747.28
453.44	5601.88
453.646	5812.82
453.852	5980.75
454.058	6216.27
454.264	6586.95
454.47	6904.39
454.676	7105.09
454.882	7389.75
455.088	7299.64
455.294	7789.11
455.5	8122.93
455.705	8579.62
455.911	8671.78
456.117	8778.28
456.323	9234.97
456.529	8960.55
456.735	9980.43
456.941	10177.04
457.147	10619.4
457.352	10902.02
457.558	11100.67
457.764	12059.12
457.97	12208.62
458.176	12702.18
458.381	13406.69
458.587	13638.11
458.793	14315.98
458.999	14170.58
459.204	15942.07
459.41	16660.91
459.616	16124.34
459.821	17381.79
460.027	17910.17
460.233	18762.12
460.438	18854.28
460.644	19747.2
460.85	20367.73
461.055	20980.07
461.261	21956.96
461.466	21408.1
461.672	22090.07
461.878	24758.58
462.083	24217.91
462.289	24777.01
462.494	25817.38
462.7	26192.15
462.905	26671.38
463.111	28625.14
463.316	30130.4
463.522	30183.65
463.727	31117.52
463.932	32297.15
464.138	33767.59
464.343	34928.79
464.549	34865.3
464.754	37531.76
464.959	38387.81
465.165	39235.67
465.37	38975.58
465.575	38793.31
465.781	41453.62
465.986	42674.21
466.191	41992.23
466.397	42252.33
466.602	41769.01
466.807	43792.4
467.012	44718.08
467.218	44914.69
467.423	45199.35
467.628	46634.98
467.833	49170.36
468.038	47931.34
468.244	47247.32
