Data from USB4F104151__116__10-46-03-759.txt Node

Date: Wed Feb 26 10:46:03 EST 2025
User: louis
Spectrometer: USB4F10415
Trigger mode: 4
Integration Time (sec): 1.000000E-1
Scans to average: 1
Electric dark correction enabled: true
Nonlinearity correction enabled: false
Boxcar width: 0
XAxis mode: Wavelengths
Number of Pixels in Spectrum: 3648
>>>>>Begin Spectral Data<<<<<
178.204	-369.66
178.424	-369.66
178.644	-369.66
178.864	-396.28
179.084	-461.82
179.304	-29.7
179.524	-84.99
179.744	-13.31
179.964	37.89
180.184	33.79
180.404	58.37
180.624	15.36
180.844	-5.12
181.064	-113.66
181.283	58.37
181.503	-35.84
181.723	78.85
181.943	-107.52
182.163	193.53
182.383	-7.17
182.602	119.81
182.822	87.04
183.042	46.08
183.262	-74.75
183.482	31.74
183.701	54.27
183.921	76.8
184.141	52.22
184.361	115.71
184.58	54.27
184.8	-21.5
185.02	35.84
185.239	171.01
185.459	46.08
185.679	168.96
185.898	-97.28
186.118	41.98
186.338	-74.75
186.557	121.85
186.777	-15.36
186.997	50.18
187.216	-1.02
187.436	117.76
187.655	103.42
187.875	162.81
188.095	-44.03
188.314	54.27
188.534	82.94
188.753	21.5
188.973	123.9
189.192	144.38
189.412	7.17
189.631	87.04
189.851	121.85
190.07	197.63
190.29	-80.89
190.509	33.79
190.729	19.46
190.948	171.01
191.168	297.98
191.387	115.71
191.607	-33.79
191.826	1.02
192.045	17.41
192.265	-37.89
192.484	64.51
192.704	80.89
192.923	-164.86
193.142	154.62
193.362	52.22
193.581	70.65
193.8	84.99
194.02	89.09
194.239	82.94
194.458	95.23
194.678	1.02
194.897	-62.46
195.116	19.46
195.335	62.46
195.555	48.13
195.774	44.03
195.993	154.62
196.212	-23.55
196.432	-17.41
196.651	-58.37
196.87	11.26
197.089	211.96
197.308	76.8
197.528	37.89
197.747	7.17
197.966	17.41
198.185	160.77
198.404	3.07
198.623	132.09
198.842	166.91
199.062	70.65
199.281	132.09
199.5	44.03
199.719	95.23
199.938	78.85
200.157	48.13
200.376	103.42
200.595	130.05
200.814	105.47
201.033	-27.65
201.252	130.05
201.471	74.75
201.69	107.52
201.909	46.08
202.128	130.05
202.347	89.09
202.566	68.61
202.785	-62.46
203.004	-25.6
203.223	234.49
203.442	46.08
203.661	-23.55
203.879	78.85
204.098	152.57
204.317	19.46
204.536	125.95
204.755	93.18
204.974	138.24
205.193	5.12
205.411	142.33
205.63	41.98
205.849	109.57
206.068	1.02
206.287	19.46
206.505	179.2
206.724	91.13
206.943	-46.08
207.162	41.98
207.381	66.56
207.599	15.36
207.818	41.98
208.037	-84.99
208.255	-48.13
208.474	39.94
208.693	41.98
208.911	-9.22
209.13	105.47
209.349	54.27
209.567	56.32
209.786	56.32
210.005	3.07
210.223	13.31
210.442	-181.25
210.661	-56.32
210.879	99.33
211.098	17.41
211.316	58.37
211.535	35.84
211.753	82.94
211.972	93.18
212.191	39.94
212.409	46.08
212.628	82.94
212.846	-1.02
213.065	27.65
213.283	72.7
213.502	58.37
213.72	29.7
213.938	-7.17
214.157	39.94
214.375	80.89
214.594	-13.31
214.812	105.47
215.031	-44.03
215.249	7.17
215.467	91.13
215.686	21.5
215.904	144.38
216.122	95.23
216.341	76.8
216.559	72.7
216.778	187.39
216.996	101.37
217.214	1.02
217.432	-9.22
217.651	-9.22
217.869	80.89
218.087	7.17
218.306	72.7
218.524	52.22
218.742	-31.74
218.96	123.9
219.179	84.99
219.397	111.61
219.615	234.49
219.833	193.53
220.051	11.26
220.27	50.18
220.488	101.37
220.706	84.99
220.924	3.07
221.142	39.94
221.36	93.18
221.578	121.85
221.796	-19.46
222.015	70.65
222.233	70.65
222.451	177.15
222.669	11.26
222.887	134.14
223.105	-21.5
223.323	27.65
223.541	33.79
223.759	50.18
223.977	23.55
224.195	177.15
224.413	54.27
224.631	21.5
224.849	41.98
225.067	263.16
225.285	21.5
225.503	-31.74
225.721	-31.74
225.939	-27.65
226.157	50.18
226.375	171.01
226.592	-29.7
226.81	-21.5
227.028	109.57
227.246	154.62
227.464	21.5
227.682	74.75
227.9	70.65
228.117	84.99
228.335	95.23
228.553	15.36
228.771	-13.31
228.989	52.22
229.206	117.76
229.424	23.55
229.642	74.75
229.86	-33.79
230.077	189.44
230.295	39.94
230.513	146.43
230.731	82.94
230.948	164.86
231.166	158.72
231.384	-52.22
231.601	5.12
231.819	222.2
232.037	-78.85
232.254	-46.08
232.472	60.42
232.689	19.46
232.907	101.37
233.125	9.22
233.342	-9.22
233.56	58.37
233.777	11.26
233.995	15.36
234.213	109.57
234.43	142.33
234.648	44.03
234.865	39.94
235.083	31.74
235.3	7.17
235.518	80.89
235.735	160.77
235.953	115.71
236.17	-25.6
236.388	-50.18
236.605	154.62
236.822	64.51
237.04	150.53
237.257	29.7
237.475	21.5
237.692	64.51
237.909	15.36
238.127	-50.18
238.344	54.27
238.562	17.41
238.779	-60.42
238.996	-39.94
239.214	105.47
239.431	119.81
239.648	-15.36
239.865	128
240.083	70.65
240.3	35.84
240.517	48.13
240.735	54.27
240.952	113.66
241.169	21.5
241.386	76.8
241.603	39.94
241.821	-15.36
242.038	66.56
242.255	89.09
242.472	-58.37
242.689	46.08
242.907	-13.31
243.124	117.76
243.341	56.32
243.558	-76.8
243.775	-66.56
243.992	-9.22
244.209	84.99
244.426	158.72
244.643	27.65
244.86	-5.12
245.078	87.04
245.295	29.7
245.512	119.81
245.729	19.46
245.946	17.41
246.163	33.79
246.38	19.46
246.597	80.89
246.814	72.7
247.031	44.03
247.248	-5.12
247.464	78.85
247.681	23.55
247.898	97.28
248.115	41.98
248.332	27.65
248.549	74.75
248.766	181.25
248.983	33.79
249.2	152.57
249.417	76.8
249.633	-25.6
249.85	60.42
250.067	78.85
250.284	105.47
250.501	76.8
250.717	-23.55
250.934	25.6
251.151	15.36
251.368	60.42
251.585	130.05
251.801	56.32
252.018	-48.13
252.235	99.33
252.451	5.12
252.668	-46.08
252.885	105.47
253.102	72.7
253.318	87.04
253.535	-72.7
253.752	80.89
253.968	3.07
254.185	-41.98
254.401	23.55
254.618	80.89
254.835	-19.46
255.051	101.37
255.268	46.08
255.484	17.41
255.701	13.31
255.917	33.79
256.134	9.22
256.351	50.18
256.567	-1.02
256.784	87.04
257	-29.7
257.217	119.81
257.433	105.47
257.65	101.37
257.866	205.82
258.082	-21.5
258.299	-74.75
258.515	80.89
258.732	-13.31
258.948	17.41
259.165	89.09
259.381	-39.94
259.597	56.32
259.814	33.79
260.03	17.41
260.246	64.51
260.463	72.7
260.679	119.81
260.895	80.89
261.112	68.61
261.328	1.02
261.544	-27.65
261.761	175.1
261.977	9.22
262.193	-78.85
262.409	111.61
262.626	-31.74
262.842	-1.02
263.058	-29.7
263.274	132.09
263.49	46.08
263.707	46.08
263.923	76.8
264.139	31.74
264.355	64.51
264.571	154.62
264.787	146.43
265.004	113.66
265.22	-19.46
265.436	29.7
265.652	-29.7
265.868	84.99
266.084	-91.13
266.3	5.12
266.516	-9.22
266.732	9.22
266.948	101.37
267.164	33.79
267.38	117.76
267.596	115.71
267.812	140.29
268.028	25.6
268.244	23.55
268.46	58.37
268.676	-29.7
268.892	76.8
269.108	33.79
269.324	97.28
269.54	-62.46
269.756	138.24
269.972	-31.74
270.188	15.36
270.403	-48.13
270.619	72.7
270.835	142.33
271.051	60.42
271.267	-46.08
271.483	-15.36
271.698	58.37
271.914	97.28
272.13	60.42
272.346	5.12
272.562	62.46
272.777	99.33
272.993	44.03
273.209	48.13
273.425	99.33
273.64	-62.46
273.856	113.66
274.072	-60.42
274.287	-41.98
274.503	50.18
274.719	27.65
274.934	1.02
275.15	3.07
275.366	29.7
275.581	-68.61
275.797	13.31
276.012	5.12
276.228	-48.13
276.444	72.7
276.659	44.03
276.875	7.17
277.09	162.81
277.306	54.27
277.521	62.46
277.737	91.13
277.952	103.42
278.168	-7.17
278.383	82.94
278.599	17.41
278.814	21.5
279.03	-56.32
279.245	197.63
279.461	-7.17
279.676	19.46
279.892	-58.37
280.107	37.89
280.322	60.42
280.538	29.7
280.753	-9.22
280.969	136.19
281.184	70.65
281.399	128
281.615	70.65
281.83	33.79
282.045	-13.31
282.26	-7.17
282.476	84.99
282.691	89.09
282.906	52.22
283.122	11.26
283.337	-130.05
283.552	52.22
283.767	-19.46
283.983	70.65
284.198	-46.08
284.413	64.51
284.628	-44.03
284.843	52.22
285.058	48.13
285.274	23.55
285.489	-33.79
285.704	84.99
285.919	9.22
286.134	64.51
286.349	37.89
286.564	5.12
286.779	95.23
286.995	62.46
287.21	-74.75
287.425	87.04
287.64	-31.74
287.855	74.75
288.07	-37.89
288.285	97.28
288.5	91.13
288.715	130.05
288.93	46.08
289.145	-15.36
289.36	-3.07
289.575	29.7
289.79	119.81
290.004	-33.79
290.219	123.9
290.434	23.55
290.649	-44.03
290.864	37.89
291.079	-35.84
291.294	33.79
291.509	46.08
291.724	15.36
291.938	-29.7
292.153	27.65
292.368	31.74
292.583	23.55
292.798	-3.07
293.012	177.15
293.227	99.33
293.442	37.89
293.657	41.98
293.871	70.65
294.086	23.55
294.301	203.77
294.516	93.18
294.73	66.56
294.945	-62.46
295.16	52.22
295.374	162.81
295.589	140.29
295.804	-7.17
296.018	17.41
296.233	93.18
296.447	76.8
296.662	101.37
296.877	121.85
297.091	113.66
297.306	48.13
297.52	41.98
297.735	11.26
297.949	56.32
298.164	56.32
298.378	70.65
298.593	23.55
298.807	33.79
299.022	-44.03
299.236	297.98
299.451	-19.46
299.665	62.46
299.88	15.36
300.094	72.7
300.309	54.27
300.523	52.22
300.737	33.79
300.952	93.18
301.166	99.33
301.381	-7.17
301.595	13.31
301.809	19.46
302.024	-3.07
302.238	58.37
302.452	168.96
302.667	150.53
302.881	181.25
303.095	89.09
303.309	31.74
303.524	-11.26
303.738	5.12
303.952	62.46
304.166	97.28
304.381	-168.96
304.595	150.53
304.809	15.36
305.023	54.27
305.237	1.02
305.452	23.55
305.666	91.13
305.88	48.13
306.094	140.29
306.308	27.65
306.522	-7.17
306.736	72.7
306.95	105.47
307.164	39.94
307.379	17.41
307.593	95.23
307.807	66.56
308.021	132.09
308.235	91.13
308.449	-97.28
308.663	41.98
308.877	119.81
309.091	93.18
309.305	89.09
309.519	-78.85
309.733	78.85
309.947	-72.7
310.161	138.24
310.374	117.76
310.588	109.57
310.802	-82.94
311.016	23.55
311.23	78.85
311.444	19.46
311.658	37.89
311.872	123.9
312.085	148.48
312.299	166.91
312.513	164.86
312.727	-27.65
312.941	-44.03
313.154	44.03
313.368	48.13
313.582	62.46
313.796	29.7
314.009	3.07
314.223	103.42
314.437	15.36
314.651	82.94
314.864	-9.22
315.078	-3.07
315.292	-66.56
315.505	-3.07
315.719	66.56
315.933	54.27
316.146	35.84
316.36	-5.12
316.573	99.33
316.787	121.85
317.001	39.94
317.214	13.31
317.428	7.17
317.641	39.94
317.855	27.65
318.068	33.79
318.282	64.51
318.495	95.23
318.709	35.84
318.922	95.23
319.136	117.76
319.349	113.66
319.563	39.94
319.776	-62.46
319.99	5.12
320.203	142.33
320.417	3.07
320.63	144.38
320.843	160.77
321.057	76.8
321.27	87.04
321.483	132.09
321.697	107.52
321.91	56.32
322.124	37.89
322.337	125.95
322.55	-17.41
322.763	93.18
322.977	-15.36
323.19	41.98
323.403	31.74
323.617	123.9
323.83	66.56
324.043	56.32
324.256	66.56
324.469	-78.85
324.683	101.37
324.896	80.89
325.109	52.22
325.322	-46.08
325.535	84.99
325.748	144.38
325.962	91.13
326.175	105.47
326.388	56.32
326.601	121.85
326.814	13.31
327.027	37.89
327.24	97.28
327.453	-66.56
327.666	78.85
327.879	136.19
328.092	91.13
328.305	7.17
328.518	-37.89
328.731	11.26
328.944	-7.17
329.157	27.65
329.37	60.42
329.583	224.25
329.796	101.37
330.009	-46.08
330.222	189.44
330.435	95.23
330.648	46.08
330.861	3.07
331.073	39.94
331.286	111.61
331.499	-21.5
331.712	-31.74
331.925	97.28
332.138	62.46
332.35	95.23
332.563	74.75
332.776	82.94
332.989	-35.84
333.202	-41.98
333.414	17.41
333.627	-52.22
333.84	7.17
334.053	113.66
334.265	46.08
334.478	25.6
334.691	3.07
334.903	48.13
335.116	-35.84
335.329	37.89
335.541	41.98
335.754	109.57
335.966	-52.22
336.179	-62.46
336.392	23.55
336.604	-3.07
336.817	25.6
337.029	50.18
337.242	76.8
337.454	89.09
337.667	76.8
337.88	70.65
338.092	29.7
338.305	33.79
338.517	-29.7
338.729	39.94
338.942	93.18
339.154	-62.46
339.367	-62.46
339.579	76.8
339.792	-107.52
340.004	23.55
340.217	44.03
340.429	52.22
340.641	-23.55
340.854	19.46
341.066	-1.02
341.278	136.19
341.491	140.29
341.703	39.94
341.915	19.46
342.128	158.72
342.34	56.32
342.552	-13.31
342.764	21.5
342.977	5.12
343.189	50.18
343.401	23.55
343.613	-37.89
343.826	117.76
344.038	37.89
344.25	54.27
344.462	3.07
344.674	117.76
344.886	17.41
345.099	19.46
345.311	89.09
345.523	-33.79
345.735	-89.09
345.947	87.04
346.159	58.37
346.371	27.65
346.583	7.17
346.795	242.68
347.007	39.94
347.219	54.27
347.431	-62.46
347.643	162.81
347.855	-21.5
348.067	187.39
348.279	-3.07
348.491	7.17
348.703	84.99
348.915	1.02
349.127	5.12
349.339	95.23
349.551	-17.41
349.763	99.33
349.975	56.32
350.187	158.72
350.399	162.81
350.61	58.37
350.822	-56.32
351.034	23.55
351.246	82.94
351.458	-60.42
351.669	121.85
351.881	97.28
352.093	152.57
352.305	117.76
352.517	50.18
352.728	140.29
352.94	134.14
353.152	25.6
353.363	3.07
353.575	123.9
353.787	121.85
353.999	97.28
354.21	130.05
354.422	27.65
354.633	-1.02
354.845	21.5
355.057	60.42
355.268	41.98
355.48	132.09
355.692	-82.94
355.903	-17.41
356.115	-84.99
356.326	-97.28
356.538	111.61
356.749	41.98
356.961	138.24
357.172	3.07
357.384	19.46
357.595	160.77
357.807	39.94
358.018	19.46
358.23	31.74
358.441	205.82
358.653	70.65
358.864	33.79
359.075	44.03
359.287	103.42
359.498	17.41
359.709	89.09
359.921	70.65
360.132	-5.12
360.344	50.18
360.555	-25.6
360.766	48.13
360.977	48.13
361.189	84.99
361.4	13.31
361.611	89.09
361.823	62.46
362.034	54.27
362.245	-101.37
362.456	-17.41
362.667	39.94
362.879	-82.94
363.09	115.71
363.301	58.37
363.512	23.55
363.723	21.5
363.935	19.46
364.146	109.57
364.357	48.13
364.568	23.55
364.779	-17.41
364.99	115.71
365.201	-11.26
365.412	80.89
365.623	-52.22
365.834	70.65
366.045	17.41
366.256	113.66
366.467	101.37
366.678	76.8
366.889	23.55
367.1	-17.41
367.311	50.18
367.522	44.03
367.733	78.85
367.944	136.19
368.155	31.74
368.366	105.47
368.577	66.56
368.788	39.94
368.999	-3.07
369.209	-15.36
369.42	193.53
369.631	259.07
369.842	82.94
370.053	35.84
370.264	193.53
370.474	-27.65
370.685	50.18
370.896	3.07
371.107	99.33
371.317	99.33
371.528	-37.89
371.739	154.62
371.95	68.61
372.16	82.94
372.371	-37.89
372.582	19.46
372.792	56.32
373.003	-44.03
373.214	-19.46
373.424	125.95
373.635	-9.22
373.846	166.91
374.056	68.61
374.267	60.42
374.477	52.22
374.688	-5.12
374.898	27.65
375.109	50.18
375.319	107.52
375.53	121.85
375.74	37.89
375.951	-74.75
376.161	39.94
376.372	95.23
376.582	-17.41
376.793	109.57
377.003	-3.07
377.214	-3.07
377.424	58.37
377.635	-17.41
377.845	7.17
378.055	70.65
378.266	-82.94
378.476	107.52
378.686	111.61
378.897	41.98
379.107	105.47
379.317	52.22
379.528	-39.94
379.738	179.2
379.948	-66.56
380.158	107.52
380.369	62.46
380.579	66.56
380.789	60.42
380.999	121.85
381.21	144.38
381.42	166.91
381.63	-56.32
381.84	119.81
382.05	125.95
382.261	115.71
382.471	144.38
382.681	-1.02
382.891	134.14
383.101	89.09
383.311	17.41
383.521	-48.13
383.731	144.38
383.941	185.34
384.151	58.37
384.361	29.7
384.571	7.17
384.781	23.55
384.991	166.91
385.201	109.57
385.411	76.8
385.621	117.76
385.831	89.09
386.041	-15.36
386.251	35.84
386.461	142.33
386.671	87.04
386.881	136.19
387.091	70.65
387.301	144.38
387.511	66.56
387.72	138.24
387.93	101.37
388.14	-33.79
388.35	35.84
388.56	144.38
388.769	46.08
388.979	54.27
389.189	13.31
389.399	56.32
389.609	68.61
389.818	76.8
390.028	84.99
390.238	41.98
390.447	-33.79
390.657	-23.55
390.867	56.32
391.076	-21.5
391.286	64.51
391.496	27.65
391.705	27.65
391.915	144.38
392.125	109.57
392.334	72.7
392.544	189.44
392.753	23.55
392.963	-60.42
393.172	-19.46
393.382	64.51
393.591	199.68
393.801	70.65
394.01	177.15
394.22	99.33
394.429	-15.36
394.639	1.02
394.848	123.9
395.058	60.42
395.267	48.13
395.477	44.03
395.686	9.22
395.895	207.87
396.105	209.92
396.314	89.09
396.524	48.13
396.733	46.08
396.942	132.09
397.152	82.94
397.361	80.89
397.57	72.7
397.78	3.07
397.989	68.61
398.198	228.35
398.407	54.27
398.617	91.13
398.826	54.27
399.035	37.89
399.244	205.82
399.453	23.55
399.663	-17.41
399.872	7.17
400.081	-52.22
400.29	74.75
400.499	11.26
400.708	82.94
400.917	-21.5
401.127	64.51
401.336	44.03
401.545	128
401.754	130.05
401.963	31.74
402.172	-25.6
402.381	-21.5
402.59	52.22
402.799	89.09
403.008	109.57
403.217	82.94
403.426	82.94
403.635	-15.36
403.844	80.89
404.053	21.5
404.262	3.07
404.471	228.35
404.68	91.13
404.888	68.61
405.097	52.22
405.306	50.18
405.515	80.89
405.724	52.22
405.933	158.72
406.142	68.61
406.35	78.85
406.559	-27.65
406.768	64.51
406.977	218.11
407.185	44.03
407.394	162.81
407.603	25.6
407.812	62.46
408.02	224.25
408.229	52.22
408.438	7.17
408.646	9.22
408.855	-33.79
409.064	29.7
409.272	39.94
409.481	84.99
409.69	-50.18
409.898	-3.07
410.107	44.03
410.315	222.2
410.524	50.18
410.733	80.89
410.941	66.56
411.15	136.19
411.358	74.75
411.567	140.29
411.775	39.94
411.984	37.89
412.192	66.56
412.401	89.09
412.609	191.49
412.818	130.05
413.026	97.28
413.234	-25.6
413.443	35.84
413.651	56.32
413.86	84.99
414.068	103.42
414.276	177.15
414.485	76.8
414.693	246.78
414.901	238.59
415.11	11.26
415.318	54.27
415.526	60.42
415.734	144.38
415.943	136.19
416.151	156.67
416.359	82.94
416.567	99.33
416.776	134.14
416.984	89.09
417.192	207.87
417.4	21.5
417.608	25.6
417.817	21.5
418.025	119.81
418.233	175.1
418.441	3.07
418.649	13.31
418.857	29.7
419.065	183.29
419.273	66.56
419.481	56.32
419.689	105.47
419.897	31.74
420.105	39.94
420.313	117.76
420.521	117.76
420.729	52.22
420.937	33.79
421.145	-31.74
421.353	162.81
421.561	214.01
421.769	60.42
421.977	66.56
422.185	103.42
422.393	111.61
422.601	128
422.809	74.75
423.017	144.38
423.224	115.71
423.432	150.53
423.64	93.18
423.848	130.05
424.056	19.46
424.263	259.07
424.471	33.79
424.679	187.39
424.887	7.17
425.094	218.11
425.302	140.29
425.51	-35.84
425.718	76.8
425.925	93.18
426.133	23.55
426.341	291.84
426.548	138.24
426.756	35.84
426.964	160.77
427.171	-39.94
427.379	97.28
427.586	87.04
427.794	171.01
428.001	152.57
428.209	119.81
428.417	203.77
428.624	130.05
428.832	156.67
429.039	142.33
429.247	175.1
429.454	142.33
429.662	177.15
429.869	164.86
430.076	140.29
430.284	150.53
430.491	244.73
430.699	134.14
430.906	209.92
431.114	109.57
431.321	281.6
431.528	193.53
431.736	119.81
431.943	171.01
432.15	312.32
432.358	275.45
432.565	254.97
432.772	-3.07
432.979	224.25
433.187	158.72
433.394	326.65
433.601	236.54
433.808	254.97
434.016	293.88
434.223	246.78
434.43	267.26
434.637	365.56
434.844	334.84
435.052	269.31
435.259	330.75
435.466	312.32
435.673	297.98
435.88	371.71
436.087	418.81
436.294	363.51
436.501	359.42
436.708	306.17
436.915	396.28
437.122	486.39
437.329	347.13
437.537	351.23
437.743	513.02
437.95	527.35
438.157	433.15
438.364	443.39
438.571	498.68
438.778	478.2
438.985	529.4
439.192	646.13
439.399	627.7
439.606	646.13
439.813	717.81
440.02	689.14
440.227	855.03
440.433	762.87
440.64	625.65
440.847	699.38
441.054	814.07
441.261	924.66
441.467	838.64
441.674	754.68
441.881	1006.58
442.088	848.88
442.294	982
442.501	965.62
442.708	1141.74
442.914	971.76
443.121	1072.11
443.328	1111.02
443.534	1098.74
443.741	1078.26
443.948	1094.64
444.154	1352.68
444.361	1459.18
444.568	1330.16
444.774	1346.54
444.981	1283.05
445.187	1682.41
445.394	1514.47
445.6	1547.24
445.807	1690.6
446.013	1641.45
446.22	1706.98
446.426	1801.19
446.633	1973.22
446.839	2149.34
447.046	1967.07
447.252	2085.86
447.459	2243.55
447.665	2010.08
447.871	2360.28
448.078	2507.74
448.284	2397.15
448.491	2554.84
448.697	2669.53
448.903	2765.78
449.11	2747.35
449.316	2802.65
449.522	3169.23
449.728	3167.18
449.935	3341.26
450.141	3304.4
450.347	3601.35
450.553	3617.74
450.76	3607.5
450.966	3742.66
451.172	3904.45
451.378	4268.99
451.584	4201.41
451.791	4422.59
451.997	4467.64
452.203	4715.45
452.409	4873.14
452.615	5053.36
452.821	4893.62
453.027	5122.99
453.233	5718.95
453.44	5409.71
453.646	5786.54
453.852	5960.61
454.058	6095.78
454.264	6476.7
454.47	6962.07
454.676	6790.04
454.882	7457.68
455.088	7185.3
455.294	7500.69
455.5	8039.3
455.705	8438.66
455.911	8516.48
456.117	8854.39
456.323	9145.2
456.529	9046.9
456.735	9958.25
456.941	10249.06
457.147	10677.09
457.352	10935.13
457.558	11182.93
457.764	12045.13
457.97	12018.5
458.176	12708.67
458.381	13120.31
458.587	13271.86
458.793	14381.86
458.999	14093.1
459.204	16155.4
459.41	16540.42
459.616	16395.01
459.821	17300.22
460.027	17910.51
460.233	18793.19
460.438	18731.75
460.644	20032.21
460.85	20232.91
461.055	21004.99
461.261	21803.7
461.466	21363.39
461.672	21838.51
461.878	24509.07
462.083	23747.22
462.289	24697.48
462.494	25494.14
462.7	26002.04
462.905	26397.29
463.111	28385.87
463.316	29192.77
463.522	30333.49
463.727	31195.68
463.932	32440.85
464.138	33530.37
464.343	34636.27
464.549	34566.64
464.754	37589.44
464.959	38140.35
465.165	38814.13
465.37	38691.25
465.575	38703.54
465.781	41062.8
465.986	42639.73
466.191	41877.89
466.397	42527.1
466.602	41310.6
466.807	43512.17
467.012	44499.29
467.218	45142.35
467.423	45506.89
467.628	46319.93
467.833	48685.34
468.038	47444.27
468.244	47104.31
468.449	49371.41
