Data from USB4F104151__131__10-46-26-756.txt Node

Date: Wed Feb 26 10:46:26 EST 2025
User: louis
Spectrometer: USB4F10415
Trigger mode: 4
Integration Time (sec): 1.000000E-1
Scans to average: 1
Electric dark correction enabled: true
Nonlinearity correction enabled: false
Boxcar width: 0
XAxis mode: Wavelengths
Number of Pixels in Spectrum: 3648
>>>>>Begin Spectral Data<<<<<
178.204	-460.62
178.424	-460.62
178.644	-460.62
178.864	-448.33
179.084	-405.33
179.304	-8.02
179.524	24.75
179.744	-22.36
179.964	32.94
180.184	34.99
180.404	-32.6
180.624	-34.64
180.844	6.31
181.064	-89.94
181.283	18.6
181.503	-32.6
181.723	102.57
181.943	-89.94
182.163	178.34
182.383	-24.4
182.602	39.08
182.822	123.05
183.042	67.75
183.262	-26.45
183.482	71.85
183.701	59.56
183.921	-32.6
184.141	-79.7
184.361	49.32
184.58	75.95
184.8	37.03
185.02	-8.02
185.239	10.41
185.459	98.47
185.679	180.39
185.898	-83.8
186.118	22.7
186.338	67.75
186.557	135.34
186.777	22.7
186.997	34.99
187.216	47.27
187.436	233.64
187.655	71.85
187.875	84.14
188.095	39.08
188.314	147.62
188.534	143.53
188.753	-28.5
188.973	108.71
189.192	200.87
189.412	12.46
189.631	37.03
189.851	18.6
190.07	170.15
190.29	-53.08
190.509	20.65
190.729	-32.6
190.948	121
191.168	252.07
191.387	73.9
191.607	-1.88
191.826	147.62
192.045	-14.17
192.265	-18.26
192.484	71.85
192.704	-3.93
192.923	-42.84
193.142	153.77
193.362	84.14
193.581	182.44
193.8	39.08
194.02	71.85
194.239	-3.93
194.458	45.23
194.678	39.08
194.897	-32.6
195.116	118.95
195.335	34.99
195.555	51.37
195.774	-16.21
195.993	102.57
196.212	59.56
196.432	-3.93
196.651	-12.12
196.87	-10.07
197.089	192.68
197.308	77.99
197.528	94.38
197.747	-12.12
197.966	34.99
198.185	92.33
198.404	-1.88
198.623	61.61
198.842	61.61
199.062	164.01
199.281	145.58
199.5	32.94
199.719	106.67
199.938	110.76
200.157	43.18
200.376	28.84
200.595	155.82
200.814	71.85
201.033	-22.36
201.252	135.34
201.471	92.33
201.69	100.52
201.909	32.94
202.128	135.34
202.347	37.03
202.566	20.65
202.785	-57.17
203.004	-53.08
203.223	219.3
203.442	30.89
203.661	-75.6
203.879	59.56
204.098	108.71
204.317	51.37
204.536	168.1
204.755	147.62
204.974	90.28
205.193	43.18
205.411	137.38
205.63	69.8
205.849	47.27
206.068	-108.37
206.287	6.31
206.505	141.48
206.724	90.28
206.943	2.22
207.162	-53.08
207.381	100.52
207.599	-14.17
207.818	104.62
208.037	-22.36
208.255	104.62
208.474	100.52
208.693	-5.97
208.911	16.55
209.13	121
209.349	71.85
209.567	61.61
209.786	110.76
210.005	45.23
210.223	112.81
210.442	39.08
210.661	6.31
210.879	61.61
211.098	90.28
211.316	47.27
211.535	121
211.753	32.94
211.972	37.03
212.191	2.22
212.409	57.51
212.628	71.85
212.846	-3.93
213.065	106.67
213.283	80.04
213.502	108.71
213.72	73.9
213.938	26.79
214.157	-18.26
214.375	172.2
214.594	16.55
214.812	84.14
215.031	53.42
215.249	92.33
215.467	37.03
215.686	34.99
215.904	75.95
216.122	-14.17
216.341	161.96
216.559	88.23
216.778	20.65
216.996	123.05
217.214	10.41
217.432	-3.93
217.651	-22.36
217.869	51.37
218.087	82.09
218.306	67.75
218.524	34.99
218.742	98.47
218.96	121
219.179	41.13
219.397	104.62
219.615	176.3
219.833	157.86
220.051	-55.12
220.27	161.96
220.488	143.53
220.706	96.43
220.924	-30.55
221.142	-12.12
221.36	43.18
221.578	86.19
221.796	-10.07
222.015	84.14
222.233	-1.88
222.451	92.33
222.669	-16.21
222.887	106.67
223.105	-3.93
223.323	32.94
223.541	-12.12
223.759	10.41
223.977	26.79
224.195	180.39
224.413	37.03
224.631	100.52
224.849	114.86
225.067	102.57
225.285	-32.6
225.503	-26.45
225.721	-91.99
225.939	112.81
226.157	80.04
226.375	254.12
226.592	-63.32
226.81	-18.26
227.028	90.28
227.246	170.15
227.464	51.37
227.682	155.82
227.9	69.8
228.117	24.75
228.335	161.96
228.553	155.82
228.771	-48.98
228.989	73.9
229.206	-38.74
229.424	26.79
229.642	47.27
229.86	-98.13
230.077	180.39
230.295	-20.31
230.513	125.1
230.731	61.61
230.948	219.3
231.166	180.39
231.384	-14.17
231.601	-10.07
231.819	123.05
232.037	8.36
232.254	-5.97
232.472	45.23
232.689	69.8
232.907	69.8
233.125	108.71
233.342	-85.84
233.56	14.51
233.777	24.75
233.995	-38.74
234.213	104.62
234.43	71.85
234.648	88.23
234.865	-3.93
235.083	-1.88
235.3	53.42
235.518	49.32
235.735	135.34
235.953	22.7
236.17	28.84
236.388	37.03
236.605	16.55
236.822	65.71
237.04	92.33
237.257	59.56
237.475	-59.22
237.692	92.33
237.909	108.71
238.127	55.47
238.344	114.86
238.562	45.23
238.779	-75.6
238.996	-42.84
239.214	43.18
239.431	92.33
239.648	4.27
239.865	34.99
240.083	123.05
240.3	53.42
240.517	16.55
240.735	8.36
240.952	172.2
241.169	59.56
241.386	55.47
241.603	59.56
241.821	-1.88
242.038	159.91
242.255	159.91
242.472	-98.13
242.689	121
242.907	59.56
243.124	96.43
243.341	55.47
243.558	2.22
243.775	-51.03
243.992	-69.46
244.209	71.85
244.426	178.34
244.643	22.7
244.86	118.95
245.078	170.15
245.295	71.85
245.512	69.8
245.729	-34.64
245.946	61.61
246.163	61.61
246.38	-28.5
246.597	170.15
246.814	10.41
247.031	-24.4
247.248	24.75
247.464	196.78
247.681	102.57
247.898	100.52
248.115	159.91
248.332	37.03
248.549	67.75
248.766	112.81
248.983	53.42
249.2	96.43
249.417	104.62
249.633	-1.88
249.85	131.24
250.067	22.7
250.284	71.85
250.501	41.13
250.717	118.95
250.934	-59.22
251.151	39.08
251.368	-40.79
251.585	51.37
251.801	63.66
252.018	20.65
252.235	92.33
252.451	4.27
252.668	39.08
252.885	227.5
253.102	37.03
253.318	28.84
253.535	51.37
253.752	57.51
253.968	32.94
254.185	-48.98
254.401	80.04
254.618	37.03
254.835	49.32
255.051	131.24
255.268	168.1
255.484	57.51
255.701	67.75
255.917	88.23
256.134	-46.93
256.351	116.9
256.567	2.22
256.784	43.18
257	-26.45
257.217	-8.02
257.433	92.33
257.65	73.9
257.866	118.95
258.082	43.18
258.299	22.7
258.515	55.47
258.732	10.41
258.948	-8.02
259.165	121
259.381	-26.45
259.597	118.95
259.814	34.99
260.03	63.66
260.246	0.17
260.463	88.23
260.679	129.19
260.895	6.31
261.112	82.09
261.328	39.08
261.544	-26.45
261.761	121
261.977	39.08
262.193	-94.04
262.409	53.42
262.626	59.56
262.842	37.03
263.058	22.7
263.274	121
263.49	118.95
263.707	127.14
263.923	114.86
264.139	-94.04
264.355	92.33
264.571	141.48
264.787	129.19
265.004	123.05
265.22	-8.02
265.436	-79.7
265.652	28.84
265.868	141.48
266.084	0.17
266.3	59.56
266.516	-51.03
266.732	90.28
266.948	22.7
267.164	2.22
267.38	135.34
267.596	34.99
267.812	180.39
268.028	-3.93
268.244	86.19
268.46	61.61
268.676	41.13
268.892	131.24
269.108	4.27
269.324	16.55
269.54	-75.6
269.756	161.96
269.972	-59.22
270.188	69.8
270.403	-40.79
270.619	49.32
270.835	55.47
271.051	84.14
271.267	-3.93
271.483	22.7
271.698	86.19
271.914	65.71
272.13	55.47
272.346	-14.17
272.562	2.22
272.777	157.86
272.993	28.84
273.209	-3.93
273.425	139.43
273.64	-36.69
273.856	110.76
274.072	-48.98
274.287	45.23
274.503	73.9
274.719	129.19
274.934	41.13
275.15	-100.18
275.366	47.27
275.581	-65.36
275.797	49.32
276.012	-14.17
276.228	-34.64
276.444	-46.93
276.659	198.82
276.875	43.18
277.09	63.66
277.306	82.09
277.521	121
277.737	92.33
277.952	77.99
278.168	-53.08
278.383	92.33
278.599	82.09
278.814	51.37
279.03	61.61
279.245	67.75
279.461	22.7
279.676	69.8
279.892	32.94
280.107	-77.65
280.322	6.31
280.538	108.71
280.753	-44.88
280.969	75.95
281.184	39.08
281.399	207.02
281.615	71.85
281.83	43.18
282.045	-87.89
282.26	-69.46
282.476	98.47
282.691	88.23
282.906	88.23
283.122	77.99
283.337	51.37
283.552	28.84
283.767	39.08
283.983	84.14
284.198	-18.26
284.413	94.38
284.628	-12.12
284.843	22.7
285.058	67.75
285.274	-38.74
285.489	32.94
285.704	49.32
285.919	-26.45
286.134	55.47
286.349	65.71
286.564	73.9
286.779	116.9
286.995	84.14
287.21	-38.74
287.425	127.14
287.64	-73.56
287.855	41.13
288.07	-34.64
288.285	110.76
288.5	157.86
288.715	112.81
288.93	51.37
289.145	43.18
289.36	121
289.575	-30.55
289.79	102.57
290.004	6.31
290.219	37.03
290.434	-12.12
290.649	61.61
290.864	59.56
291.079	8.36
291.294	43.18
291.509	6.31
291.724	-38.74
291.938	61.61
292.153	63.66
292.368	26.79
292.583	14.51
292.798	108.71
293.012	123.05
293.227	110.76
293.442	39.08
293.657	112.81
293.871	96.43
294.086	90.28
294.301	96.43
294.516	67.75
294.73	123.05
294.945	-30.55
295.16	43.18
295.374	108.71
295.589	20.65
295.804	10.41
296.018	59.56
296.233	100.52
296.447	32.94
296.662	-16.21
296.877	94.38
297.091	84.14
297.306	18.6
297.52	73.9
297.735	114.86
297.949	24.75
298.164	75.95
298.378	57.51
298.593	2.22
298.807	-44.88
299.022	14.51
299.236	147.62
299.451	8.36
299.665	26.79
299.88	63.66
300.094	59.56
300.309	92.33
300.523	47.27
300.737	55.47
300.952	45.23
301.166	98.47
301.381	-40.79
301.595	-14.17
301.809	47.27
302.024	-32.6
302.238	-38.74
302.452	196.78
302.667	6.31
302.881	110.76
303.095	121
303.309	0.17
303.524	16.55
303.738	39.08
303.952	-12.12
304.166	-10.07
304.381	-42.84
304.595	223.4
304.809	-1.88
305.023	65.71
305.237	37.03
305.452	-44.88
305.666	41.13
305.88	172.2
306.094	127.14
306.308	59.56
306.522	84.14
306.736	65.71
306.95	98.47
307.164	69.8
307.379	22.7
307.593	104.62
307.807	127.14
308.021	43.18
308.235	153.77
308.449	-32.6
308.663	2.22
308.877	266.41
309.091	-81.75
309.305	39.08
309.519	-51.03
309.733	151.72
309.947	-118.61
310.161	116.9
310.374	86.19
310.588	182.44
310.802	-46.93
311.016	-16.21
311.23	96.43
311.444	14.51
311.658	45.23
311.872	47.27
312.085	141.48
312.299	174.25
312.513	153.77
312.727	20.65
312.941	20.65
313.154	34.99
313.368	82.09
313.582	-12.12
313.796	102.57
314.009	39.08
314.223	125.1
314.437	94.38
314.651	100.52
314.864	-5.97
315.078	94.38
315.292	14.51
315.505	108.71
315.719	137.38
315.933	82.09
316.146	14.51
316.36	-5.97
316.573	133.29
316.787	-5.97
317.001	145.58
317.214	26.79
317.428	77.99
317.641	-26.45
317.855	22.7
318.068	73.9
318.282	-10.07
318.495	129.19
318.709	49.32
318.922	6.31
319.136	166.06
319.349	86.19
319.563	-5.97
319.776	90.28
319.99	-106.32
320.203	114.86
320.417	2.22
320.63	49.32
320.843	202.92
321.057	14.51
321.27	8.36
321.483	137.38
321.697	88.23
321.91	4.27
322.124	77.99
322.337	-1.88
322.55	26.79
322.763	96.43
322.977	-61.27
323.19	14.51
323.403	-5.97
323.617	143.53
323.83	53.42
324.043	28.84
324.256	16.55
324.469	2.22
324.683	137.38
324.896	110.76
325.109	-3.93
325.322	-65.36
325.535	131.24
325.748	127.14
325.962	39.08
326.175	-12.12
326.388	39.08
326.601	219.3
326.814	4.27
327.027	2.22
327.24	200.87
327.453	-126.8
327.666	133.29
327.879	106.67
328.092	84.14
328.305	100.52
328.518	-42.84
328.731	8.36
328.944	63.66
329.157	18.6
329.37	4.27
329.583	211.11
329.796	157.86
330.009	14.51
330.222	92.33
330.435	16.55
330.648	22.7
330.861	32.94
331.073	16.55
331.286	-14.17
331.499	12.46
331.712	18.6
331.925	34.99
332.138	37.03
332.35	145.58
332.563	51.37
332.776	104.62
332.989	-59.22
333.202	10.41
333.414	14.51
333.627	45.23
333.84	-1.88
334.053	16.55
334.265	112.81
334.478	20.65
334.691	14.51
334.903	0.17
335.116	-10.07
335.329	59.56
335.541	88.23
335.754	190.63
335.966	43.18
336.179	88.23
336.392	28.84
336.604	-10.07
336.817	102.57
337.029	110.76
337.242	53.42
337.454	135.34
337.667	75.95
337.88	178.34
338.092	121
338.305	34.99
338.517	28.84
338.729	6.31
338.942	207.02
339.154	-16.21
339.367	-94.04
339.579	106.67
339.792	-5.97
340.004	125.1
340.217	-14.17
340.429	26.79
340.641	-26.45
340.854	-53.08
341.066	-40.79
341.278	90.28
341.491	63.66
341.703	16.55
341.915	-20.31
342.128	149.67
342.34	-8.02
342.552	22.7
342.764	65.71
342.977	-10.07
343.189	41.13
343.401	80.04
343.613	-26.45
343.826	-8.02
344.038	-12.12
344.25	80.04
344.462	-12.12
344.674	88.23
344.886	20.65
345.099	10.41
345.311	121
345.523	-42.84
345.735	-20.31
345.947	61.61
346.159	100.52
346.371	63.66
346.583	-20.31
346.795	182.44
347.007	94.38
347.219	49.32
347.431	49.32
347.643	182.44
347.855	39.08
348.067	110.76
348.279	-42.84
348.491	49.32
348.703	135.34
348.915	104.62
349.127	-8.02
349.339	80.04
349.551	-16.21
349.763	143.53
349.975	73.9
350.187	100.52
350.399	98.47
350.61	53.42
350.822	80.04
351.034	92.33
351.246	24.75
351.458	43.18
351.669	71.85
351.881	2.22
352.093	127.14
352.305	153.77
352.517	65.71
352.728	110.76
352.94	106.67
353.152	82.09
353.363	24.75
353.575	104.62
353.787	104.62
353.999	63.66
354.21	164.01
354.422	-46.93
354.633	18.6
354.845	37.03
355.057	45.23
355.268	67.75
355.48	53.42
355.692	37.03
355.903	67.75
356.115	14.51
356.326	-141.14
356.538	196.78
356.749	75.95
356.961	73.9
357.172	47.27
357.384	10.41
357.595	149.67
357.807	0.17
358.018	65.71
358.23	34.99
358.441	209.06
358.653	65.71
358.864	22.7
359.075	49.32
359.287	43.18
359.498	149.67
359.709	94.38
359.921	6.31
360.132	51.37
360.344	102.57
360.555	2.22
360.766	100.52
360.977	22.7
361.189	104.62
361.4	49.32
361.611	94.38
361.823	84.14
362.034	53.42
362.245	-122.71
362.456	12.46
362.667	75.95
362.879	-20.31
363.09	137.38
363.301	67.75
363.512	55.47
363.723	-22.36
363.935	-26.45
364.146	137.38
364.357	6.31
364.568	116.9
364.779	-53.08
364.99	39.08
365.201	6.31
365.412	225.45
365.623	-83.8
365.834	41.13
366.045	20.65
366.256	45.23
366.467	86.19
366.678	49.32
366.889	-26.45
367.1	30.89
367.311	149.67
367.522	32.94
367.733	94.38
367.944	53.42
368.155	67.75
368.366	94.38
368.577	102.57
368.788	100.52
368.999	-14.17
369.209	133.29
369.42	186.54
369.631	219.3
369.842	121
370.053	-8.02
370.264	-8.02
370.474	39.08
370.685	-26.45
370.896	65.71
371.107	110.76
371.317	59.56
371.528	-34.64
371.739	153.77
371.95	43.18
372.16	73.9
372.371	45.23
372.582	-106.32
372.792	108.71
373.003	86.19
373.214	41.13
373.424	63.66
373.635	0.17
373.846	112.81
374.056	49.32
374.267	30.89
374.477	129.19
374.688	4.27
374.898	77.99
375.109	45.23
375.319	135.34
375.53	157.86
375.74	110.76
375.951	-14.17
376.161	55.47
376.372	151.72
376.582	-16.21
376.793	102.57
377.003	-26.45
377.214	-46.93
377.424	65.71
377.635	59.56
377.845	-46.93
378.055	215.21
378.266	-63.32
378.476	84.14
378.686	129.19
378.897	43.18
379.107	63.66
379.317	26.79
379.528	-14.17
379.738	90.28
379.948	-79.7
380.158	102.57
380.369	51.37
380.579	65.71
380.789	32.94
380.999	170.15
381.21	170.15
381.42	196.78
381.63	0.17
381.84	63.66
382.05	84.14
382.261	116.9
382.471	168.1
382.681	2.22
382.891	188.58
383.101	39.08
383.311	10.41
383.521	-126.8
383.731	16.55
383.941	123.05
384.151	2.22
384.361	24.75
384.571	30.89
384.781	39.08
384.991	215.21
385.201	88.23
385.411	114.86
385.621	75.95
385.831	18.6
386.041	53.42
386.251	-8.02
386.461	129.19
386.671	4.27
386.881	63.66
387.091	-14.17
387.301	57.51
387.511	153.77
387.72	49.32
387.93	71.85
388.14	-26.45
388.35	145.58
388.56	77.99
388.769	196.78
388.979	45.23
389.189	41.13
389.399	41.13
389.609	104.62
389.818	47.27
390.028	129.19
390.238	22.7
390.447	-1.88
390.657	116.9
390.867	57.51
391.076	-36.69
391.286	141.48
391.496	-10.07
391.705	61.61
391.915	149.67
392.125	90.28
392.334	61.61
392.544	192.68
392.753	75.95
392.963	-22.36
393.172	-10.07
393.382	26.79
393.591	231.59
393.801	22.7
394.01	186.54
394.22	41.13
394.429	82.09
394.639	32.94
394.848	86.19
395.058	96.43
395.267	-1.88
395.477	110.76
395.686	59.56
395.895	186.54
396.105	164.01
396.314	45.23
396.524	12.46
396.733	59.56
396.942	77.99
397.152	88.23
397.361	98.47
397.57	86.19
397.78	86.19
397.989	94.38
398.198	215.21
398.407	96.43
398.617	61.61
398.826	18.6
399.035	34.99
399.244	28.84
399.453	-16.21
399.663	14.51
399.872	63.66
400.081	-14.17
400.29	184.49
400.499	-51.03
400.708	100.52
400.917	37.03
401.127	32.94
401.336	4.27
401.545	202.92
401.754	110.76
401.963	73.9
402.172	32.94
402.381	-55.12
402.59	39.08
402.799	20.65
403.008	149.67
403.217	102.57
403.426	-10.07
403.635	-51.03
403.844	16.55
404.053	14.51
404.262	12.46
404.471	135.34
404.68	114.86
404.888	16.55
405.097	20.65
405.306	118.95
405.515	73.9
405.724	24.75
405.933	90.28
406.142	69.8
406.35	73.9
406.559	20.65
406.768	73.9
406.977	207.02
407.185	-20.31
407.394	135.34
407.603	-22.36
407.812	49.32
408.02	112.81
408.229	63.66
408.438	-14.17
408.646	-42.84
408.855	71.85
409.064	118.95
409.272	2.22
409.481	123.05
409.69	22.7
409.898	20.65
410.107	178.34
410.315	149.67
410.524	32.94
410.733	43.18
410.941	39.08
411.15	51.37
411.358	127.14
411.567	186.54
411.775	94.38
411.984	47.27
412.192	141.48
412.401	34.99
412.609	153.77
412.818	108.71
413.026	209.06
413.234	69.8
413.443	59.56
413.651	18.6
413.86	59.56
414.068	209.06
414.276	198.82
414.485	-20.31
414.693	121
414.901	184.49
415.11	112.81
415.318	96.43
415.526	133.29
415.734	108.71
415.943	51.37
416.151	215.21
416.359	20.65
416.567	149.67
416.776	51.37
416.984	39.08
417.192	137.38
417.4	65.71
417.608	10.41
417.817	77.99
418.025	139.43
418.233	182.44
418.441	10.41
418.649	-24.4
418.857	98.47
419.065	174.25
419.273	-1.88
419.481	114.86
419.689	18.6
419.897	-38.74
420.105	-18.26
420.313	137.38
420.521	207.02
420.729	202.92
420.937	-79.7
421.145	-26.45
421.353	100.52
421.561	213.16
421.769	135.34
421.977	53.42
422.185	133.29
422.393	34.99
422.601	88.23
422.809	57.51
423.017	96.43
423.224	28.84
423.432	149.67
423.64	53.42
423.848	153.77
424.056	39.08
424.263	145.58
424.471	71.85
424.679	127.14
424.887	-12.12
425.094	121
425.302	59.56
425.51	82.09
425.718	135.34
425.925	32.94
426.133	18.6
426.341	227.5
426.548	80.04
426.756	18.6
426.964	141.48
427.171	53.42
427.379	65.71
427.586	75.95
427.794	133.29
428.001	166.06
428.209	123.05
428.417	174.25
428.624	217.26
428.832	151.72
429.039	121
429.247	114.86
429.454	174.25
429.662	147.62
429.869	108.71
430.076	112.81
430.284	180.39
430.491	264.36
430.699	204.97
430.906	170.15
431.114	80.04
431.321	129.19
431.528	147.62
431.736	100.52
431.943	182.44
432.15	301.22
432.358	252.07
432.565	286.89
432.772	20.65
432.979	268.45
433.187	178.34
433.394	229.54
433.601	178.34
433.808	217.26
434.016	241.83
434.223	231.59
434.43	219.3
434.637	284.84
434.844	282.79
435.052	182.44
435.259	286.89
435.466	237.74
435.673	301.22
435.88	231.59
436.087	315.56
436.294	364.71
436.501	377
436.708	221.35
436.915	370.85
437.122	366.76
437.329	209.06
437.537	323.75
437.743	276.65
437.95	372.9
438.157	424.1
438.364	450.72
438.571	430.24
438.778	446.63
438.985	473.25
439.192	428.2
439.399	489.64
439.606	450.72
439.813	485.54
440.02	632.99
440.227	706.72
440.433	583.84
440.64	553.12
440.847	530.59
441.054	618.66
441.261	714.91
441.467	686.24
441.674	612.51
441.881	755.87
442.088	688.29
442.294	694.43
442.501	772.25
442.708	874.65
442.914	858.27
443.121	850.08
443.328	895.13
443.534	868.51
443.741	850.08
443.948	829.6
444.154	1048.73
444.361	1192.09
444.568	975
444.774	1028.25
444.981	956.57
445.187	1239.19
445.394	1171.61
445.6	1040.54
445.807	1337.49
446.013	1300.63
446.22	1374.36
446.426	1409.17
446.633	1515.67
446.839	1740.94
447.046	1443.99
447.252	1628.31
447.459	1689.74
447.665	1679.51
447.871	1812.62
448.078	1951.88
448.284	1919.12
448.491	1996.94
448.697	2035.85
448.903	2205.83
449.11	2121.87
449.316	2185.35
449.522	2338.95
449.728	2545.8
449.935	2519.17
450.141	2515.08
450.347	2883.71
450.553	2609.28
450.76	2760.83
450.966	2861.18
451.172	3086.46
451.378	3209.34
451.584	3301.5
451.791	3481.72
451.997	3481.72
452.203	3582.07
452.409	3786.86
452.615	3942.51
452.821	3715.19
453.027	3856.5
453.233	4460.65
453.44	4245.61
453.646	4421.74
453.852	4575.33
454.058	4816.99
454.264	5009.5
454.47	5191.77
454.676	5220.44
454.882	5857.36
455.088	5445.72
455.294	5765.2
455.5	6101.07
455.705	6641.73
455.911	6508.62
456.117	6774.85
456.323	7090.24
456.529	7059.52
456.735	7628.85
456.941	7718.96
457.147	8198.19
457.352	8323.12
457.558	8525.86
457.764	9175.07
457.97	9076.77
458.176	9523.23
458.381	10254.35
458.587	10313.74
458.793	10889.22
458.999	10756.1
459.204	12126.19
459.41	12703.72
459.616	12445.68
459.821	13246.43
460.027	13707.23
460.233	14446.54
460.438	14200.79
460.644	15220.67
460.85	15202.24
461.055	16158.64
461.261	16816.04
461.466	16566.19
461.672	16967.59
461.878	18720.65
462.083	18280.34
462.289	18761.61
462.494	19470.21
462.7	19787.64
462.905	20047.74
463.111	21839.71
463.316	22898.51
463.522	23209.8
463.727	23924.54
463.932	24715.06
464.138	25524.01
464.343	26656.53
464.549	26793.75
464.754	28868.34
464.959	29392.62
465.165	30009.06
465.37	29621.99
465.575	29908.71
465.781	31807.17
465.986	32831.16
466.191	32233.15
466.397	32286.4
466.602	31813.32
466.807	33593
467.012	33849
467.218	34807.45
467.423	34641.56
467.628	35819.14
467.833	37693.04
468.038	36927.1
468.244	36433.53
468.449	38131.3
468.654	37428.85
