Data from USB4F104151__215__11-05-54-828.txt Node

Date: Wed Feb 26 11:05:54 EST 2025
User: louis
Spectrometer: USB4F10415
Trigger mode: 4
Integration Time (sec): 1.000000E-1
Scans to average: 1
Electric dark correction enabled: true
Nonlinearity correction enabled: false
Boxcar width: 0
XAxis mode: Wavelengths
Number of Pixels in Spectrum: 3648
>>>>>Begin Spectral Data<<<<<
178.204	-354.98
178.424	-354.98
178.644	-354.98
178.864	-352.93
179.084	-434.85
179.304	-2.73
179.524	-45.74
179.744	-84.65
179.964	-10.92
180.184	27.99
180.404	25.94
180.624	-25.26
180.844	23.89
181.064	25.94
181.283	46.42
181.503	30.04
181.723	-10.92
181.943	-72.36
182.163	175.44
182.383	-4.78
182.602	21.85
182.822	103.76
183.042	114
183.262	-35.5
183.482	-25.26
183.701	1.37
183.921	107.86
184.141	-96.94
184.361	23.89
184.58	52.56
184.8	5.46
185.02	38.23
185.239	165.2
185.459	36.18
185.679	83.28
185.898	-49.83
186.118	11.61
186.338	50.52
186.557	111.96
186.777	-31.4
186.997	52.56
187.216	73.04
187.436	181.59
187.655	9.56
187.875	87.38
188.095	91.48
188.314	122.2
188.534	120.15
188.753	21.85
188.973	107.86
189.192	249.17
189.412	77.14
189.631	23.89
189.851	128.34
190.07	202.07
190.29	-113.32
190.509	68.95
190.729	19.8
190.948	107.86
191.168	224.59
191.387	56.66
191.607	-6.83
191.826	95.57
192.045	62.8
192.265	50.52
192.484	77.14
192.704	118.1
192.923	-29.35
193.142	146.77
193.362	91.48
193.581	195.92
193.8	107.86
194.02	58.71
194.239	54.61
194.458	116.05
194.678	9.56
194.897	11.61
195.116	77.14
195.335	148.82
195.555	91.48
195.774	3.41
195.993	109.91
196.212	34.13
196.432	5.46
196.651	9.56
196.87	54.61
197.089	243.03
197.308	73.04
197.528	36.18
197.747	-64.17
197.966	114
198.185	111.96
198.404	-25.26
198.623	30.04
198.842	148.82
199.062	124.24
199.281	107.86
199.5	77.14
199.719	27.99
199.938	81.24
200.157	91.48
200.376	58.71
200.595	138.58
200.814	46.42
201.033	11.61
201.252	197.97
201.471	138.58
201.69	73.04
201.909	46.42
202.128	107.86
202.347	5.46
202.566	89.43
202.785	-80.55
203.004	21.85
203.223	251.22
203.442	118.1
203.661	-33.45
203.879	-12.97
204.098	154.96
204.317	-23.21
204.536	183.63
204.755	120.15
204.974	150.87
205.193	7.51
205.411	138.58
205.63	44.37
205.849	68.95
206.068	79.19
206.287	7.51
206.505	138.58
206.724	56.66
206.943	-68.27
207.162	-4.78
207.381	-4.78
207.599	-45.74
207.818	11.61
208.037	5.46
208.255	99.67
208.474	99.67
208.693	27.99
208.911	75.09
209.13	79.19
209.349	62.8
209.567	136.53
209.786	64.85
210.005	38.23
210.223	21.85
210.442	-70.31
210.661	44.37
210.879	132.44
211.098	68.95
211.316	54.61
211.535	148.82
211.753	38.23
211.972	27.99
212.191	54.61
212.409	15.7
212.628	120.15
212.846	-23.21
213.065	124.24
213.283	99.67
213.502	58.71
213.72	21.85
213.938	-10.92
214.157	38.23
214.375	142.68
214.594	-6.83
214.812	30.04
215.031	-113.32
215.249	79.19
215.467	38.23
215.686	64.85
215.904	83.28
216.122	91.48
216.341	169.3
216.559	124.24
216.778	140.63
216.996	177.49
217.214	77.14
217.432	42.32
217.651	60.76
217.869	83.28
218.087	-2.73
218.306	21.85
218.524	66.9
218.742	54.61
218.96	19.8
219.179	15.7
219.397	-31.4
219.615	228.69
219.833	27.99
220.051	73.04
220.27	114
220.488	148.82
220.706	71
220.924	-10.92
221.142	13.65
221.36	95.57
221.578	13.65
221.796	-12.97
222.015	91.48
222.233	-49.83
222.451	234.83
222.669	19.8
222.887	111.96
223.105	-29.35
223.323	42.32
223.541	21.85
223.759	56.66
223.977	79.19
224.195	152.91
224.413	91.48
224.631	19.8
224.849	40.28
225.067	251.22
225.285	-17.07
225.503	17.75
225.721	-117.42
225.939	73.04
226.157	91.48
226.375	195.92
226.592	34.13
226.81	-33.45
227.028	232.79
227.246	206.16
227.464	79.19
227.682	85.33
227.9	111.96
228.117	99.67
228.335	89.43
228.553	44.37
228.771	99.67
228.989	81.24
229.206	167.25
229.424	34.13
229.642	91.48
229.86	-51.88
230.077	193.87
230.295	1.37
230.513	138.58
230.731	148.82
230.948	185.68
231.166	175.44
231.384	23.89
231.601	64.85
231.819	197.97
232.037	-10.92
232.254	5.46
232.472	62.8
232.689	3.41
232.907	101.72
233.125	36.18
233.342	89.43
233.56	-27.31
233.777	21.85
233.995	7.51
234.213	36.18
234.43	73.04
234.648	27.99
234.865	-45.74
235.083	118.1
235.3	73.04
235.518	163.15
235.735	124.24
235.953	167.25
236.17	-8.87
236.388	34.13
236.605	79.19
236.822	152.91
237.04	134.48
237.257	89.43
237.475	-29.35
237.692	7.51
237.909	97.62
238.127	-37.55
238.344	91.48
238.562	44.37
238.779	-15.02
238.996	7.51
239.214	21.85
239.431	107.86
239.648	25.94
239.865	101.72
240.083	134.48
240.3	71
240.517	21.85
240.735	99.67
240.952	144.72
241.169	58.71
241.386	97.62
241.603	89.43
241.821	-10.92
242.038	89.43
242.255	23.89
242.472	-15.02
242.689	79.19
242.907	140.63
243.124	91.48
243.341	36.18
243.558	-35.5
243.775	73.04
243.992	46.42
244.209	93.52
244.426	132.44
244.643	134.48
244.86	19.8
245.078	126.29
245.295	95.57
245.512	30.04
245.729	93.52
245.946	101.72
246.163	-2.73
246.38	30.04
246.597	85.33
246.814	81.24
247.031	-10.92
247.248	54.61
247.464	124.24
247.681	60.76
247.898	116.05
248.115	-6.83
248.332	-88.75
248.549	99.67
248.766	200.02
248.983	93.52
249.2	95.57
249.417	75.09
249.633	32.08
249.85	7.51
250.067	83.28
250.284	17.75
250.501	38.23
250.717	157.01
250.934	38.23
251.151	-49.83
251.368	-17.07
251.585	73.04
251.801	91.48
252.018	-19.11
252.235	62.8
252.451	-53.93
252.668	11.61
252.885	109.91
253.102	50.52
253.318	-29.35
253.535	-0.68
253.752	5.46
253.968	42.32
254.185	-43.69
254.401	85.33
254.618	46.42
254.835	1.37
255.051	73.04
255.268	62.8
255.484	81.24
255.701	15.7
255.917	3.41
256.134	40.28
256.351	95.57
256.567	-21.16
256.784	30.04
257	-19.11
257.217	122.2
257.433	64.85
257.65	105.81
257.866	85.33
258.082	-33.45
258.299	-43.69
258.515	-35.5
258.732	-39.59
258.948	-53.93
259.165	38.23
259.381	-133.8
259.597	79.19
259.814	17.75
260.03	77.14
260.246	46.42
260.463	91.48
260.679	91.48
260.895	7.51
261.112	114
261.328	-29.35
261.544	-2.73
261.761	167.25
261.977	21.85
262.193	-12.97
262.409	99.67
262.626	15.7
262.842	73.04
263.058	-51.88
263.274	7.51
263.49	97.62
263.707	58.71
263.923	126.29
264.139	-80.55
264.355	64.85
264.571	148.82
264.787	46.42
265.004	107.86
265.22	68.95
265.436	-15.02
265.652	54.61
265.868	40.28
266.084	9.56
266.3	21.85
266.516	-29.35
266.732	99.67
266.948	17.75
267.164	56.66
267.38	73.04
267.596	48.47
267.812	171.35
268.028	83.28
268.244	-35.5
268.46	-23.21
268.676	38.23
268.892	50.52
269.108	27.99
269.324	15.7
269.54	19.8
269.756	157.01
269.972	-12.97
270.188	3.41
270.403	-58.03
270.619	75.09
270.835	120.15
271.051	30.04
271.267	17.75
271.483	46.42
271.698	62.8
271.914	126.29
272.13	58.71
272.346	58.71
272.562	46.42
272.777	140.63
272.993	40.28
273.209	-2.73
273.425	148.82
273.64	-29.35
273.856	48.47
274.072	9.56
274.287	34.13
274.503	101.72
274.719	118.1
274.934	11.61
275.15	-51.88
275.366	54.61
275.581	-78.51
275.797	62.8
276.012	91.48
276.228	89.43
276.444	17.75
276.659	132.44
276.875	-17.07
277.09	-12.97
277.306	-33.45
277.521	77.14
277.737	62.8
277.952	120.15
278.168	25.94
278.383	124.24
278.599	144.72
278.814	130.39
279.03	50.52
279.245	105.81
279.461	54.61
279.676	118.1
279.892	-96.94
280.107	-47.79
280.322	-41.64
280.538	79.19
280.753	46.42
280.969	1.37
281.184	48.47
281.399	97.62
281.615	54.61
281.83	7.51
282.045	-60.07
282.26	50.52
282.476	13.65
282.691	107.86
282.906	42.32
283.122	85.33
283.337	-29.35
283.552	50.52
283.767	13.65
283.983	101.72
284.198	40.28
284.413	124.24
284.628	-49.83
284.843	66.9
285.058	95.57
285.274	99.67
285.489	-10.92
285.704	130.39
285.919	23.89
286.134	52.56
286.349	15.7
286.564	-29.35
286.779	210.26
286.995	-0.68
287.21	-12.97
287.425	19.8
287.64	34.13
287.855	120.15
288.07	-101.03
288.285	68.95
288.5	171.35
288.715	52.56
288.93	-15.02
289.145	-10.92
289.36	118.1
289.575	-23.21
289.79	144.72
290.004	-35.5
290.219	120.15
290.434	-49.83
290.649	-41.64
290.864	44.37
291.079	60.76
291.294	132.44
291.509	-15.02
291.724	-33.45
291.938	-29.35
292.153	87.38
292.368	48.47
292.583	-8.87
292.798	93.52
293.012	7.51
293.227	97.62
293.442	25.94
293.657	128.34
293.871	105.81
294.086	50.52
294.301	191.83
294.516	107.86
294.73	-4.78
294.945	-51.88
295.16	71
295.374	183.63
295.589	91.48
295.804	-45.74
296.018	103.76
296.233	114
296.447	56.66
296.662	-21.16
296.877	206.16
297.091	109.91
297.306	30.04
297.52	-17.07
297.735	50.52
297.949	1.37
298.164	75.09
298.378	97.62
298.593	-92.84
298.807	44.37
299.022	38.23
299.236	169.3
299.451	15.7
299.665	1.37
299.88	-2.73
300.094	97.62
300.309	9.56
300.523	150.87
300.737	21.85
300.952	116.05
301.166	85.33
301.381	21.85
301.595	-39.59
301.809	25.94
302.024	32.08
302.238	-21.16
302.452	118.1
302.667	27.99
302.881	120.15
303.095	48.47
303.309	50.52
303.524	36.18
303.738	-39.59
303.952	-12.97
304.166	75.09
304.381	-154.28
304.595	187.73
304.809	7.51
305.023	3.41
305.237	71
305.452	87.38
305.666	85.33
305.88	54.61
306.094	101.72
306.308	71
306.522	95.57
306.736	120.15
306.95	93.52
307.164	42.32
307.379	36.18
307.593	165.2
307.807	161.11
308.021	109.91
308.235	124.24
308.449	-41.64
308.663	-10.92
308.877	243.03
309.091	30.04
309.305	89.43
309.519	-60.07
309.733	97.62
309.947	9.56
310.161	150.87
310.374	54.61
310.588	52.56
310.802	-21.16
311.016	7.51
311.23	58.71
311.444	-51.88
311.658	75.09
311.872	148.82
312.085	107.86
312.299	136.53
312.513	120.15
312.727	9.56
312.941	-82.6
313.154	52.56
313.368	73.04
313.582	32.08
313.796	97.62
314.009	23.89
314.223	87.38
314.437	93.52
314.651	103.76
314.864	-45.74
315.078	-51.88
315.292	-58.03
315.505	30.04
315.719	42.32
315.933	38.23
316.146	-17.07
316.36	-35.5
316.573	93.52
316.787	130.39
317.001	30.04
317.214	-60.07
317.428	9.56
317.641	-66.22
317.855	44.37
318.068	50.52
318.282	46.42
318.495	208.21
318.709	83.28
318.922	58.71
319.136	152.91
319.349	118.1
319.563	46.42
319.776	71
319.99	-70.31
320.203	99.67
320.417	7.51
320.63	105.81
320.843	265.55
321.057	60.76
321.27	-8.87
321.483	38.23
321.697	157.01
321.91	52.56
322.124	50.52
322.337	97.62
322.55	25.94
322.763	111.96
322.977	-12.97
323.19	-29.35
323.403	17.75
323.617	79.19
323.83	120.15
324.043	-0.68
324.256	23.89
324.469	-17.07
324.683	140.63
324.896	116.05
325.109	83.28
325.322	-66.22
325.535	89.43
325.748	136.53
325.962	-10.92
326.175	42.32
326.388	58.71
326.601	142.68
326.814	-23.21
327.027	38.23
327.24	83.28
327.453	-15.02
327.666	91.48
327.879	134.48
328.092	77.14
328.305	19.8
328.518	7.51
328.731	-41.64
328.944	9.56
329.157	44.37
329.37	109.91
329.583	183.63
329.796	230.74
330.009	-51.88
330.222	91.48
330.435	116.05
330.648	95.57
330.861	75.09
331.073	32.08
331.286	179.54
331.499	152.91
331.712	-49.83
331.925	60.76
332.138	56.66
332.35	187.73
332.563	-33.45
332.776	97.62
332.989	11.61
333.202	77.14
333.414	87.38
333.627	30.04
333.84	40.28
334.053	52.56
334.265	30.04
334.478	9.56
334.691	62.8
334.903	42.32
335.116	-37.55
335.329	-15.02
335.541	13.65
335.754	189.78
335.966	87.38
336.179	120.15
336.392	-47.79
336.604	75.09
336.817	146.77
337.029	103.76
337.242	40.28
337.454	83.28
337.667	130.39
337.88	75.09
338.092	73.04
338.305	105.81
338.517	30.04
338.729	34.13
338.942	138.58
339.154	-60.07
339.367	-33.45
339.579	68.95
339.792	-15.02
340.004	128.34
340.217	7.51
340.429	71
340.641	-15.02
340.854	-80.55
341.066	44.37
341.278	154.96
341.491	175.44
341.703	81.24
341.915	27.99
342.128	50.52
342.34	95.57
342.552	-29.35
342.764	87.38
342.977	97.62
343.189	-17.07
343.401	64.85
343.613	-62.12
343.826	-31.4
344.038	-0.68
344.25	130.39
344.462	-72.36
344.674	-43.69
344.886	5.46
345.099	107.86
345.311	91.48
345.523	79.19
345.735	-39.59
345.947	-12.97
346.159	87.38
346.371	19.8
346.583	-8.87
346.795	157.01
347.007	52.56
347.219	144.72
347.431	101.72
347.643	15.7
347.855	-107.18
348.067	140.63
348.279	-29.35
348.491	89.43
348.703	99.67
348.915	25.94
349.127	27.99
349.339	11.61
349.551	27.99
349.763	99.67
349.975	109.91
350.187	118.1
350.399	58.71
350.61	75.09
350.822	36.18
351.034	32.08
351.246	50.52
351.458	142.68
351.669	144.72
351.881	25.94
352.093	128.34
352.305	89.43
352.517	134.48
352.728	140.63
352.94	89.43
353.152	9.56
353.363	-15.02
353.575	124.24
353.787	146.77
353.999	71
354.21	175.44
354.422	-31.4
354.633	11.61
354.845	32.08
355.057	111.96
355.268	56.66
355.48	169.3
355.692	-55.98
355.903	71
356.115	71
356.326	-115.37
356.538	224.59
356.749	91.48
356.961	179.54
357.172	32.08
357.384	19.8
357.595	240.98
357.807	13.65
358.018	27.99
358.23	116.05
358.441	118.1
358.653	17.75
358.864	62.8
359.075	-78.51
359.287	64.85
359.498	138.58
359.709	73.04
359.921	-2.73
360.132	62.8
360.344	-12.97
360.555	-47.79
360.766	19.8
360.977	-33.45
361.189	128.34
361.4	42.32
361.611	73.04
361.823	150.87
362.034	68.95
362.245	5.46
362.456	38.23
362.667	36.18
362.879	-2.73
363.09	152.91
363.301	46.42
363.512	58.71
363.723	19.8
363.935	-49.83
364.146	204.11
364.357	32.08
364.568	79.19
364.779	-25.26
364.99	154.96
365.201	-64.17
365.412	138.58
365.623	-189.1
365.834	83.28
366.045	120.15
366.256	48.47
366.467	89.43
366.678	30.04
366.889	62.8
367.1	23.89
367.311	134.48
367.522	60.76
367.733	71
367.944	30.04
368.155	89.43
368.366	138.58
368.577	148.82
368.788	197.97
368.999	-0.68
369.209	134.48
369.42	245.07
369.631	234.83
369.842	130.39
370.053	19.8
370.264	120.15
370.474	-0.68
370.685	118.1
370.896	-0.68
371.107	152.91
371.317	71
371.528	-29.35
371.739	150.87
371.95	34.13
372.16	152.91
372.371	58.71
372.582	87.38
372.792	138.58
373.003	107.86
373.214	105.81
373.424	73.04
373.635	17.75
373.846	124.24
374.056	25.94
374.267	120.15
374.477	124.24
374.688	-4.78
374.898	101.72
375.109	44.37
375.319	62.8
375.53	163.15
375.74	81.24
375.951	71
376.161	134.48
376.372	169.3
376.582	99.67
376.793	79.19
377.003	1.37
377.214	46.42
377.424	58.71
377.635	38.23
377.845	9.56
378.055	140.63
378.266	27.99
378.476	73.04
378.686	46.42
378.897	103.76
379.107	183.63
379.317	36.18
379.528	36.18
379.738	134.48
379.948	-10.92
380.158	191.83
380.369	91.48
380.579	42.32
380.789	-6.83
380.999	56.66
381.21	148.82
381.42	208.21
381.63	99.67
381.84	105.81
382.05	128.34
382.261	114
382.471	175.44
382.681	-72.36
382.891	204.11
383.101	40.28
383.311	-0.68
383.521	23.89
383.731	97.62
383.941	64.85
384.151	114
384.361	48.47
384.571	38.23
384.781	87.38
384.991	183.63
385.201	185.68
385.411	109.91
385.621	120.15
385.831	114
386.041	13.65
386.251	58.71
386.461	148.82
386.671	23.89
386.881	122.2
387.091	-51.88
387.301	62.8
387.511	66.9
387.72	71
387.93	144.72
388.14	-23.21
388.35	40.28
388.56	142.68
388.769	175.44
388.979	116.05
389.189	7.51
389.399	58.71
389.609	-47.79
389.818	144.72
390.028	15.7
390.238	75.09
390.447	32.08
390.657	118.1
390.867	13.65
391.076	-98.99
391.286	71
391.496	34.13
391.705	-29.35
391.915	171.35
392.125	114
392.334	-10.92
392.544	128.34
392.753	83.28
392.963	-12.97
393.172	83.28
393.382	-10.92
393.591	232.79
393.801	21.85
394.01	142.68
394.22	103.76
394.429	75.09
394.639	81.24
394.848	54.61
395.058	3.41
395.267	40.28
395.477	30.04
395.686	122.2
395.895	214.35
396.105	120.15
396.314	111.96
396.524	42.32
396.733	-2.73
396.942	126.29
397.152	71
397.361	126.29
397.57	85.33
397.78	1.37
397.989	206.16
398.198	154.96
398.407	68.95
398.617	48.47
398.826	34.13
399.035	36.18
399.244	107.86
399.453	107.86
399.663	32.08
399.872	52.56
400.081	34.13
400.29	130.39
400.499	-53.93
400.708	126.29
400.917	1.37
401.127	68.95
401.336	36.18
401.545	142.68
401.754	126.29
401.963	95.57
402.172	68.95
402.381	-55.98
402.59	36.18
402.799	1.37
403.008	122.2
403.217	130.39
403.426	177.49
403.635	-2.73
403.844	9.56
404.053	-10.92
404.262	13.65
404.471	103.76
404.68	60.76
404.888	44.37
405.097	7.51
405.306	56.66
405.515	150.87
405.724	-0.68
405.933	128.34
406.142	71
406.35	79.19
406.559	23.89
406.768	77.14
406.977	118.1
407.185	130.39
407.394	89.43
407.603	15.7
407.812	42.32
408.02	144.72
408.229	13.65
408.438	111.96
408.646	-47.79
408.855	19.8
409.064	126.29
409.272	38.23
409.481	144.72
409.69	7.51
409.898	30.04
410.107	95.57
410.315	81.24
410.524	-27.31
410.733	99.67
410.941	38.23
411.15	120.15
411.358	146.77
411.567	87.38
411.775	34.13
411.984	79.19
412.192	126.29
412.401	-10.92
412.609	150.87
412.818	167.25
413.026	148.82
413.234	7.51
413.443	58.71
413.651	34.13
413.86	36.18
414.068	202.07
414.276	210.26
414.485	36.18
414.693	183.63
414.901	120.15
415.11	87.38
415.318	40.28
415.526	85.33
415.734	148.82
415.943	118.1
416.151	144.72
416.359	124.24
416.567	91.48
416.776	66.9
416.984	95.57
417.192	234.83
417.4	77.14
417.608	21.85
417.817	-51.88
418.025	179.54
418.233	210.26
418.441	30.04
418.649	77.14
418.857	60.76
419.065	144.72
419.273	97.62
419.481	122.2
419.689	75.09
419.897	32.08
420.105	7.51
420.313	167.25
420.521	208.21
420.729	163.15
420.937	17.75
421.145	-21.16
421.353	114
421.561	204.11
421.769	114
421.977	-0.68
422.185	116.05
422.393	91.48
422.601	152.91
422.809	77.14
423.017	77.14
423.224	103.76
423.432	118.1
423.64	91.48
423.848	134.48
424.056	79.19
424.263	140.63
424.471	23.89
424.679	140.63
424.887	1.37
425.094	144.72
425.302	152.91
425.51	38.23
425.718	148.82
425.925	101.72
426.133	62.8
426.341	249.17
426.548	62.8
426.756	23.89
426.964	148.82
427.171	27.99
427.379	111.96
427.586	171.35
427.794	50.52
428.001	83.28
428.209	101.72
428.417	200.02
428.624	200.02
428.832	105.81
429.039	73.04
429.247	54.61
429.454	263.51
429.662	277.84
429.869	91.48
430.076	177.49
430.284	181.59
430.491	267.6
430.699	130.39
430.906	222.55
431.114	126.29
431.321	154.96
431.528	150.87
431.736	134.48
431.943	146.77
432.15	146.77
432.358	222.55
432.565	259.41
432.772	142.68
432.979	273.75
433.187	200.02
433.394	261.46
433.601	212.31
433.808	228.69
434.016	357.71
434.223	240.98
434.43	251.22
434.637	286.03
434.844	331.09
435.052	277.84
435.259	253.27
435.466	304.46
435.673	345.42
435.88	308.56
436.087	404.82
436.294	382.29
436.501	380.24
436.708	306.51
436.915	365.9
437.122	402.77
437.329	314.7
437.537	402.77
437.743	427.34
437.95	509.26
438.157	361.81
438.364	472.4
438.571	417.1
438.778	558.41
438.985	582.99
439.192	511.31
439.399	505.17
439.606	521.55
439.813	640.33
440.02	666.96
440.227	798.03
440.433	718.15
440.64	632.14
440.847	564.56
441.054	691.53
441.261	847.18
441.467	714.06
441.674	623.95
441.881	871.75
442.088	730.44
442.294	830.79
442.501	955.72
442.708	855.37
442.914	955.72
443.121	1035.59
443.328	1017.16
443.534	1037.64
443.741	1105.22
443.948	871.75
444.154	1113.41
444.361	1283.39
444.568	1156.42
444.774	1226.05
444.981	1080.64
445.187	1383.74
445.394	1459.52
445.6	1287.49
445.807	1449.28
446.013	1520.96
446.22	1320.26
446.426	1518.91
446.633	1725.75
446.839	1844.54
447.046	1553.73
447.252	1832.25
447.459	1908.02
447.665	1828.15
447.871	2123.06
448.078	2151.73
448.284	2172.21
448.491	2198.84
448.697	2338.1
448.903	2432.3
449.11	2532.65
449.316	2284.85
449.522	2735.4
449.728	2782.51
449.935	2839.85
450.141	2934.06
450.347	3220.77
450.553	3142.95
450.76	3163.43
450.966	3226.92
451.172	3427.62
451.378	3536.16
451.584	3722.52
451.791	4035.86
451.997	3935.51
452.203	4191.51
452.409	4363.54
452.615	4601.1
452.821	4381.97
453.027	4435.22
453.233	5127.43
453.44	4977.93
453.646	5076.23
453.852	5217.54
454.058	5491.97
454.264	5510.4
454.47	6128.89
454.676	6212.85
454.882	6710.51
455.088	6276.34
455.294	6700.27
455.5	7046.38
455.705	7415.01
455.911	7763.17
456.117	7761.12
456.323	8209.62
456.529	8051.93
456.735	8799.44
456.941	9016.52
457.147	9311.43
457.352	9710.79
457.558	9843.9
457.764	10652.85
457.97	10753.2
458.176	11084.97
458.381	11652.26
458.587	11695.27
458.793	12575.89
458.999	12293.27
459.204	14226.56
459.41	14675.06
459.616	14523.51
459.821	15467.63
460.027	16010.34
460.233	16698.45
460.438	16575.58
460.644	17626.18
460.85	17728.58
461.055	18588.73
461.261	19356.72
461.466	18983.99
461.672	19207.22
461.878	21715.98
462.083	21546
462.289	21724.17
462.494	22930.42
462.7	23204.85
462.905	23161.84
463.111	25209.81
463.316	26260.42
463.522	26547.14
463.727	27737.01
463.932	28773.28
464.138	29834.13
464.343	30661.51
464.549	30944.13
464.754	32951.13
464.959	34003.79
465.165	34526.02
465.37	34376.52
465.575	34556.74
465.781	36723.49
465.986	37573.4
466.191	36954.91
466.397	37366.56
466.602	36829.99
466.807	38581
467.012	39279.36
467.218	39824.12
467.423	40241.9
467.628	41089.76
467.833	42781.38
468.038	42359.5
468.244	41609.95
468.449	43850.42
468.654	43141.83
