Data from USB4F104151__304__11-22-53-217.txt Node

Date: Wed Feb 26 11:22:53 EST 2025
User: louis
Spectrometer: USB4F10415
Trigger mode: 4
Integration Time (sec): 1.000000E-1
Scans to average: 1
Electric dark correction enabled: true
Nonlinearity correction enabled: false
Boxcar width: 0
XAxis mode: Wavelengths
Number of Pixels in Spectrum: 3648
>>>>>Begin Spectral Data<<<<<
178.204	-400.04
178.424	-400.04
178.644	-400.04
178.864	-359.08
179.084	-422.56
179.304	11.61
179.524	-23.21
179.744	-29.35
179.964	30.04
180.184	46.42
180.404	-8.87
180.624	-4.78
180.844	27.99
181.064	-21.16
181.283	-23.21
181.503	-84.65
181.723	79.19
181.943	-92.84
182.163	142.68
182.383	23.89
182.602	38.23
182.822	159.06
183.042	75.09
183.262	-15.02
183.482	9.56
183.701	71
183.921	95.57
184.141	-41.64
184.361	126.29
184.58	48.47
184.8	30.04
185.02	-37.55
185.239	103.76
185.459	30.04
185.679	222.55
185.898	-84.65
186.118	87.38
186.338	23.89
186.557	91.48
186.777	11.61
186.997	54.61
187.216	48.47
187.436	169.3
187.655	60.76
187.875	85.33
188.095	111.96
188.314	122.2
188.534	189.78
188.753	-27.31
188.973	81.24
189.192	103.76
189.412	68.95
189.631	40.28
189.851	21.85
190.07	169.3
190.29	-51.88
190.509	5.46
190.729	87.38
190.948	216.4
191.168	240.98
191.387	56.66
191.607	27.99
191.826	144.72
192.045	75.09
192.265	-21.16
192.484	68.95
192.704	46.42
192.923	19.8
193.142	175.44
193.362	179.54
193.581	58.71
193.8	97.62
194.02	107.86
194.239	42.32
194.458	54.61
194.678	27.99
194.897	38.23
195.116	79.19
195.335	83.28
195.555	60.76
195.774	34.13
195.993	122.2
196.212	34.13
196.432	11.61
196.651	23.89
196.87	32.08
197.089	261.46
197.308	1.37
197.528	134.48
197.747	-17.07
197.966	44.37
198.185	157.01
198.404	68.95
198.623	144.72
198.842	169.3
199.062	128.34
199.281	134.48
199.5	73.04
199.719	77.14
199.938	15.7
200.157	54.61
200.376	89.43
200.595	136.53
200.814	60.76
201.033	99.67
201.252	218.45
201.471	175.44
201.69	46.42
201.909	21.85
202.128	34.13
202.347	89.43
202.566	124.24
202.785	27.99
203.004	1.37
203.223	316.75
203.442	44.37
203.661	-12.97
203.879	105.81
204.098	134.48
204.317	73.04
204.536	101.72
204.755	124.24
204.974	150.87
205.193	-39.59
205.411	116.05
205.63	58.71
205.849	54.61
206.068	48.47
206.287	13.65
206.505	118.1
206.724	-0.68
206.943	30.04
207.162	7.51
207.381	77.14
207.599	-10.92
207.818	52.56
208.037	23.89
208.255	83.28
208.474	159.06
208.693	87.38
208.911	83.28
209.13	140.63
209.349	87.38
209.567	50.52
209.786	60.76
210.005	93.52
210.223	212.31
210.442	-103.08
210.661	101.72
210.879	68.95
211.098	23.89
211.316	66.9
211.535	109.91
211.753	42.32
211.972	109.91
212.191	21.85
212.409	38.23
212.628	132.44
212.846	42.32
213.065	56.66
213.283	124.24
213.502	-12.97
213.72	7.51
213.938	91.48
214.157	13.65
214.375	134.48
214.594	-21.16
214.812	124.24
215.031	19.8
215.249	15.7
215.467	154.96
215.686	116.05
215.904	122.2
216.122	3.41
216.341	210.26
216.559	21.85
216.778	85.33
216.996	183.63
217.214	66.9
217.432	-23.21
217.651	-2.73
217.869	85.33
218.087	66.9
218.306	42.32
218.524	77.14
218.742	50.52
218.96	101.72
219.179	11.61
219.397	36.18
219.615	157.01
219.833	134.48
220.051	25.94
220.27	128.34
220.488	122.2
220.706	44.37
220.924	-25.26
221.142	-8.87
221.36	42.32
221.578	66.9
221.796	21.85
222.015	44.37
222.233	77.14
222.451	171.35
222.669	-43.69
222.887	81.24
223.105	30.04
223.323	42.32
223.541	5.46
223.759	85.33
223.977	23.89
224.195	165.2
224.413	87.38
224.631	30.04
224.849	68.95
225.067	259.41
225.285	30.04
225.503	11.61
225.721	-109.23
225.939	95.57
226.157	103.76
226.375	222.55
226.592	15.7
226.81	-4.78
227.028	142.68
227.246	95.57
227.464	138.58
227.682	142.68
227.9	64.85
228.117	30.04
228.335	-2.73
228.553	66.9
228.771	17.75
228.989	71
229.206	101.72
229.424	25.94
229.642	-6.83
229.86	-39.59
230.077	146.77
230.295	40.28
230.513	68.95
230.731	118.1
230.948	193.87
231.166	148.82
231.384	19.8
231.601	32.08
231.819	185.68
232.037	-31.4
232.254	21.85
232.472	19.8
232.689	60.76
232.907	79.19
233.125	-35.5
233.342	-29.35
233.56	62.8
233.777	-33.45
233.995	83.28
234.213	144.72
234.43	34.13
234.648	56.66
234.865	21.85
235.083	66.9
235.3	71
235.518	163.15
235.735	118.1
235.953	120.15
236.17	34.13
236.388	62.8
236.605	25.94
236.822	148.82
237.04	54.61
237.257	71
237.475	13.65
237.692	52.56
237.909	107.86
238.127	30.04
238.344	138.58
238.562	58.71
238.779	-47.79
238.996	-45.74
239.214	38.23
239.431	95.57
239.648	40.28
239.865	134.48
240.083	148.82
240.3	42.32
240.517	23.89
240.735	97.62
240.952	245.07
241.169	-10.92
241.386	64.85
241.603	120.15
241.821	-51.88
242.038	103.76
242.255	114
242.472	-55.98
242.689	54.61
242.907	81.24
243.124	54.61
243.341	30.04
243.558	1.37
243.775	-41.64
243.992	-12.97
244.209	85.33
244.426	159.06
244.643	73.04
244.86	3.41
245.078	138.58
245.295	54.61
245.512	83.28
245.729	11.61
245.946	109.91
246.163	9.56
246.38	-8.87
246.597	52.56
246.814	56.66
247.031	44.37
247.248	11.61
247.464	93.52
247.681	120.15
247.898	81.24
248.115	17.75
248.332	52.56
248.549	263.51
248.766	208.21
248.983	68.95
249.2	134.48
249.417	77.14
249.633	-29.35
249.85	56.66
250.067	64.85
250.284	109.91
250.501	44.37
250.717	136.53
250.934	17.75
251.151	15.7
251.368	58.71
251.585	101.72
251.801	85.33
252.018	75.09
252.235	87.38
252.451	5.46
252.668	21.85
252.885	159.06
253.102	116.05
253.318	-6.83
253.535	87.38
253.752	89.43
253.968	-45.74
254.185	3.41
254.401	3.41
254.618	85.33
254.835	-72.36
255.051	157.01
255.268	109.91
255.484	19.8
255.701	91.48
255.917	161.11
256.134	-27.31
256.351	54.61
256.567	-72.36
256.784	58.71
257	17.75
257.217	87.38
257.433	30.04
257.65	79.19
257.866	103.76
258.082	-10.92
258.299	21.85
258.515	101.72
258.732	40.28
258.948	5.46
259.165	5.46
259.381	19.8
259.597	114
259.814	-0.68
260.03	54.61
260.246	62.8
260.463	132.44
260.679	122.2
260.895	142.68
261.112	93.52
261.328	109.91
261.544	79.19
261.761	197.97
261.977	13.65
262.193	-68.27
262.409	-0.68
262.626	15.7
262.842	-12.97
263.058	13.65
263.274	44.37
263.49	128.34
263.707	73.04
263.923	142.68
264.139	-82.6
264.355	85.33
264.571	161.11
264.787	36.18
265.004	81.24
265.22	122.2
265.436	27.99
265.652	15.7
265.868	116.05
266.084	-76.46
266.3	46.42
266.516	32.08
266.732	13.65
266.948	38.23
267.164	-27.31
267.38	87.38
267.596	5.46
267.812	175.44
268.028	-2.73
268.244	9.56
268.46	15.7
268.676	17.75
268.892	87.38
269.108	-53.93
269.324	11.61
269.54	-4.78
269.756	58.71
269.972	-21.16
270.188	40.28
270.403	-49.83
270.619	-12.97
270.835	122.2
271.051	44.37
271.267	-27.31
271.483	23.89
271.698	99.67
271.914	77.14
272.13	138.58
272.346	58.71
272.562	56.66
272.777	71
272.993	3.41
273.209	-76.46
273.425	111.96
273.64	-25.26
273.856	91.48
274.072	-8.87
274.287	-6.83
274.503	93.52
274.719	140.63
274.934	52.56
275.15	-84.65
275.366	42.32
275.581	-45.74
275.797	48.47
276.012	136.53
276.228	11.61
276.444	120.15
276.659	134.48
276.875	17.75
277.09	77.14
277.306	62.8
277.521	93.52
277.737	32.08
277.952	150.87
278.168	42.32
278.383	134.48
278.599	52.56
278.814	105.81
279.03	91.48
279.245	212.31
279.461	46.42
279.676	171.35
279.892	30.04
280.107	-12.97
280.322	1.37
280.538	34.13
280.753	-23.21
280.969	19.8
281.184	81.24
281.399	138.58
281.615	83.28
281.83	111.96
282.045	-64.17
282.26	5.46
282.476	48.47
282.691	77.14
282.906	79.19
283.122	17.75
283.337	-23.21
283.552	122.2
283.767	73.04
283.983	134.48
284.198	-10.92
284.413	150.87
284.628	-51.88
284.843	34.13
285.058	71
285.274	3.41
285.489	17.75
285.704	54.61
285.919	44.37
286.134	64.85
286.349	77.14
286.564	13.65
286.779	128.34
286.995	50.52
287.21	-76.46
287.425	107.86
287.64	66.9
287.855	77.14
288.07	-82.6
288.285	116.05
288.5	111.96
288.715	42.32
288.93	58.71
289.145	-74.41
289.36	114
289.575	56.66
289.79	132.44
290.004	93.52
290.219	66.9
290.434	-23.21
290.649	34.13
290.864	54.61
291.079	73.04
291.294	83.28
291.509	134.48
291.724	89.43
291.938	91.48
292.153	103.76
292.368	5.46
292.583	75.09
292.798	99.67
293.012	93.52
293.227	122.2
293.442	46.42
293.657	154.96
293.871	122.2
294.086	97.62
294.301	175.44
294.516	87.38
294.73	1.37
294.945	7.51
295.16	38.23
295.374	116.05
295.589	111.96
295.804	62.8
296.018	11.61
296.233	191.83
296.447	99.67
296.662	42.32
296.877	77.14
297.091	148.82
297.306	38.23
297.52	-10.92
297.735	50.52
297.949	52.56
298.164	97.62
298.378	132.44
298.593	-35.5
298.807	19.8
299.022	56.66
299.236	111.96
299.451	27.99
299.665	44.37
299.88	81.24
300.094	38.23
300.309	36.18
300.523	87.38
300.737	48.47
300.952	40.28
301.166	42.32
301.381	-37.55
301.595	-17.07
301.809	38.23
302.024	40.28
302.238	7.51
302.452	124.24
302.667	79.19
302.881	62.8
303.095	97.62
303.309	46.42
303.524	-8.87
303.738	83.28
303.952	54.61
304.166	124.24
304.381	-39.59
304.595	132.44
304.809	83.28
305.023	146.77
305.237	13.65
305.452	58.71
305.666	138.58
305.88	105.81
306.094	75.09
306.308	42.32
306.522	146.77
306.736	79.19
306.95	118.1
307.164	38.23
307.379	81.24
307.593	157.01
307.807	114
308.021	64.85
308.235	79.19
308.449	-117.42
308.663	21.85
308.877	296.27
309.091	83.28
309.305	114
309.519	11.61
309.733	144.72
309.947	-41.64
310.161	75.09
310.374	68.95
310.588	173.39
310.802	-39.59
311.016	30.04
311.23	99.67
311.444	1.37
311.658	46.42
311.872	124.24
312.085	144.72
312.299	118.1
312.513	73.04
312.727	95.57
312.941	1.37
313.154	58.71
313.368	46.42
313.582	42.32
313.796	62.8
314.009	-2.73
314.223	103.76
314.437	62.8
314.651	38.23
314.864	13.65
315.078	17.75
315.292	-35.5
315.505	52.56
315.719	79.19
315.933	34.13
316.146	-6.83
316.36	-80.55
316.573	134.48
316.787	64.85
317.001	71
317.214	-41.64
317.428	32.08
317.641	-17.07
317.855	58.71
318.068	19.8
318.282	46.42
318.495	124.24
318.709	66.9
318.922	116.05
319.136	99.67
319.349	62.8
319.563	-19.11
319.776	138.58
319.99	-29.35
320.203	142.68
320.417	77.14
320.63	85.33
320.843	181.59
321.057	95.57
321.27	27.99
321.483	99.67
321.697	181.59
321.91	54.61
322.124	50.52
322.337	97.62
322.55	17.75
322.763	13.65
322.977	-0.68
323.19	-2.73
323.403	17.75
323.617	66.9
323.83	95.57
324.043	-17.07
324.256	62.8
324.469	-51.88
324.683	93.52
324.896	79.19
325.109	-6.83
325.322	-8.87
325.535	81.24
325.748	116.05
325.962	48.47
326.175	15.7
326.388	81.24
326.601	165.2
326.814	46.42
327.027	50.52
327.24	152.91
327.453	-47.79
327.666	95.57
327.879	42.32
328.092	111.96
328.305	109.91
328.518	21.85
328.731	56.66
328.944	58.71
329.157	124.24
329.37	46.42
329.583	157.01
329.796	163.15
330.009	21.85
330.222	58.71
330.435	140.63
330.648	44.37
330.861	101.72
331.073	-12.97
331.286	146.77
331.499	150.87
331.712	64.85
331.925	130.39
332.138	38.23
332.35	101.72
332.563	21.85
332.776	154.96
332.989	40.28
333.202	-29.35
333.414	52.56
333.627	62.8
333.84	52.56
334.053	81.24
334.265	-10.92
334.478	66.9
334.691	32.08
334.903	109.91
335.116	34.13
335.329	79.19
335.541	107.86
335.754	126.29
335.966	54.61
336.179	32.08
336.392	48.47
336.604	11.61
336.817	93.52
337.029	54.61
337.242	81.24
337.454	87.38
337.667	56.66
337.88	226.64
338.092	75.09
338.305	21.85
338.517	46.42
338.729	111.96
338.942	197.97
339.154	-47.79
339.367	-15.02
339.579	52.56
339.792	5.46
340.004	73.04
340.217	79.19
340.429	56.66
340.641	-27.31
340.854	-76.46
341.066	11.61
341.278	118.1
341.491	79.19
341.703	38.23
341.915	-43.69
342.128	71
342.34	30.04
342.552	-17.07
342.764	64.85
342.977	36.18
343.189	107.86
343.401	21.85
343.613	-21.16
343.826	81.24
344.038	-70.31
344.25	85.33
344.462	-2.73
344.674	46.42
344.886	-17.07
345.099	71
345.311	-4.78
345.523	40.28
345.735	-10.92
345.947	75.09
346.159	120.15
346.371	17.75
346.583	44.37
346.795	251.22
347.007	79.19
347.219	-15.02
347.431	11.61
347.643	140.63
347.855	50.52
348.067	214.35
348.279	-10.92
348.491	77.14
348.703	56.66
348.915	-8.87
349.127	7.51
349.339	73.04
349.551	13.65
349.763	68.95
349.975	52.56
350.187	87.38
350.399	62.8
350.61	152.91
350.822	46.42
351.034	120.15
351.246	85.33
351.458	148.82
351.669	99.67
351.881	157.01
352.093	93.52
352.305	161.11
352.517	167.25
352.728	142.68
352.94	62.8
353.152	93.52
353.363	-92.84
353.575	83.28
353.787	167.25
353.999	118.1
354.21	191.83
354.422	-45.74
354.633	36.18
354.845	77.14
355.057	75.09
355.268	83.28
355.48	83.28
355.692	-21.16
355.903	-33.45
356.115	13.65
356.326	-76.46
356.538	255.31
356.749	111.96
356.961	161.11
357.172	38.23
357.384	40.28
357.595	228.69
357.807	54.61
358.018	1.37
358.23	21.85
358.441	169.3
358.653	114
358.864	-12.97
359.075	-29.35
359.287	73.04
359.498	114
359.709	95.57
359.921	93.52
360.132	68.95
360.344	62.8
360.555	9.56
360.766	38.23
360.977	66.9
361.189	118.1
361.4	9.56
361.611	185.68
361.823	73.04
362.034	68.95
362.245	-72.36
362.456	23.89
362.667	107.86
362.879	-8.87
363.09	91.48
363.301	134.48
363.512	103.76
363.723	-23.21
363.935	71
364.146	130.39
364.357	-0.68
364.568	87.38
364.779	-27.31
364.99	230.74
365.201	58.71
365.412	157.01
365.623	-80.55
365.834	81.24
366.045	79.19
366.256	71
366.467	48.47
366.678	97.62
366.889	3.41
367.1	64.85
367.311	116.05
367.522	36.18
367.733	93.52
367.944	95.57
368.155	-33.45
368.366	165.2
368.577	50.52
368.788	154.96
368.999	87.38
369.209	13.65
369.42	275.79
369.631	249.17
369.842	60.76
370.053	42.32
370.264	36.18
370.474	-31.4
370.685	157.01
370.896	34.13
371.107	195.92
371.317	159.06
371.528	56.66
371.739	220.5
371.95	134.48
372.16	95.57
372.371	7.51
372.582	103.76
372.792	52.56
373.003	17.75
373.214	75.09
373.424	89.43
373.635	5.46
373.846	171.35
374.056	40.28
374.267	81.24
374.477	38.23
374.688	-27.31
374.898	114
375.109	79.19
375.319	77.14
375.53	97.62
375.74	114
375.951	62.8
376.161	66.9
376.372	105.81
376.582	85.33
376.793	71
377.003	-17.07
377.214	56.66
377.424	58.71
377.635	167.25
377.845	54.61
378.055	101.72
378.266	-55.98
378.476	60.76
378.686	79.19
378.897	38.23
379.107	175.44
379.317	126.29
379.528	9.56
379.738	15.7
379.948	25.94
380.158	193.87
380.369	62.8
380.579	128.34
380.789	-17.07
380.999	64.85
381.21	93.52
381.42	218.45
381.63	42.32
381.84	42.32
382.05	32.08
382.261	111.96
382.471	204.11
382.681	66.9
382.891	200.02
383.101	167.25
383.311	-33.45
383.521	1.37
383.731	105.81
383.941	109.91
384.151	87.38
384.361	-29.35
384.571	77.14
384.781	13.65
384.991	249.17
385.201	249.17
385.411	136.53
385.621	140.63
385.831	1.37
386.041	83.28
386.251	-12.97
386.461	181.59
386.671	-6.83
386.881	73.04
387.091	38.23
387.301	97.62
387.511	62.8
387.72	140.63
387.93	99.67
388.14	-80.55
388.35	34.13
388.56	138.58
388.769	148.82
388.979	15.7
389.189	-47.79
389.399	46.42
389.609	85.33
389.818	73.04
390.028	111.96
390.238	85.33
390.447	42.32
390.657	105.81
390.867	-17.07
391.076	-6.83
391.286	81.24
391.496	30.04
391.705	75.09
391.915	193.87
392.125	107.86
392.334	-15.02
392.544	226.64
392.753	91.48
392.963	-8.87
393.172	120.15
393.382	-37.55
393.591	206.16
393.801	27.99
394.01	109.91
394.22	77.14
394.429	50.52
394.639	15.7
394.848	77.14
395.058	91.48
395.267	36.18
395.477	77.14
395.686	34.13
395.895	159.06
396.105	228.69
396.314	97.62
396.524	27.99
396.733	120.15
396.942	93.52
397.152	75.09
397.361	95.57
397.57	71
397.78	79.19
397.989	111.96
398.198	200.02
398.407	19.8
398.617	17.75
398.826	99.67
399.035	42.32
399.244	114
399.453	48.47
399.663	44.37
399.872	122.2
400.081	32.08
400.29	243.03
400.499	3.41
400.708	122.2
400.917	79.19
401.127	36.18
401.336	3.41
401.545	152.91
401.754	185.68
401.963	148.82
402.172	77.14
402.381	-29.35
402.59	38.23
402.799	32.08
403.008	83.28
403.217	46.42
403.426	5.46
403.635	-4.78
403.844	54.61
404.053	62.8
404.262	73.04
404.471	152.91
404.68	42.32
404.888	-0.68
405.097	52.56
405.306	13.65
405.515	114
405.724	34.13
405.933	126.29
406.142	89.43
406.35	124.24
406.559	91.48
406.768	5.46
406.977	126.29
407.185	21.85
407.394	130.39
407.603	9.56
407.812	132.44
408.02	105.81
408.229	32.08
408.438	101.72
408.646	-17.07
408.855	46.42
409.064	85.33
409.272	79.19
409.481	132.44
409.69	-17.07
409.898	-19.11
410.107	60.76
410.315	161.11
410.524	40.28
410.733	126.29
410.941	46.42
411.15	183.63
411.358	85.33
411.567	167.25
411.775	103.76
411.984	83.28
412.192	93.52
412.401	-10.92
412.609	103.76
412.818	130.39
413.026	44.37
413.234	30.04
413.443	23.89
413.651	7.51
413.86	95.57
414.068	130.39
414.276	210.26
414.485	-12.97
414.693	154.96
414.901	169.3
415.11	85.33
415.318	34.13
415.526	93.52
415.734	111.96
415.943	165.2
416.151	126.29
416.359	-23.21
416.567	93.52
416.776	189.78
416.984	122.2
417.192	208.21
417.4	42.32
417.608	81.24
417.817	-39.59
418.025	97.62
418.233	251.22
418.441	-76.46
418.649	15.7
418.857	34.13
419.065	144.72
419.273	99.67
419.481	103.76
419.689	30.04
419.897	21.85
420.105	-31.4
420.313	107.86
420.521	148.82
420.729	179.54
420.937	19.8
421.145	-35.5
421.353	101.72
421.561	210.26
421.769	73.04
421.977	34.13
422.185	87.38
422.393	116.05
422.601	206.16
422.809	30.04
423.017	58.71
423.224	85.33
423.432	142.68
423.64	9.56
423.848	87.38
424.056	7.51
424.263	116.05
424.471	62.8
424.679	157.01
424.887	7.51
425.094	116.05
425.302	116.05
425.51	38.23
425.718	165.2
425.925	81.24
426.133	21.85
426.341	222.55
426.548	34.13
426.756	48.47
426.964	154.96
427.171	7.51
427.379	136.53
427.586	85.33
427.794	91.48
428.001	99.67
428.209	202.07
428.417	171.35
428.624	120.15
428.832	128.34
429.039	124.24
429.247	138.58
429.454	128.34
429.662	187.73
429.869	185.68
430.076	25.94
430.284	234.83
430.491	240.98
430.699	126.29
430.906	232.79
431.114	126.29
431.321	144.72
431.528	218.45
431.736	163.15
431.943	132.44
432.15	222.55
432.358	234.83
432.565	253.27
432.772	118.1
432.979	226.64
433.187	122.2
433.394	208.21
433.601	128.34
433.808	167.25
434.016	208.21
434.223	300.37
434.43	197.97
434.637	275.79
434.844	269.65
435.052	265.55
435.259	253.27
435.466	290.13
435.673	189.78
435.88	294.22
436.087	335.18
436.294	290.13
436.501	322.9
436.708	240.98
436.915	339.28
437.122	367.95
437.329	275.79
437.537	367.95
437.743	372.05
437.95	376.14
438.157	337.23
438.364	329.04
438.571	388.43
438.778	400.72
438.985	447.82
439.192	472.4
439.399	394.58
439.606	427.34
439.813	554.32
440.02	509.26
440.227	511.31
440.433	550.22
440.64	492.88
440.847	484.69
441.054	566.6
441.261	722.25
441.467	615.76
441.674	560.46
441.881	621.9
442.088	556.36
442.294	714.06
442.501	732.49
442.708	732.49
442.914	775.5
443.121	755.02
443.328	900.42
443.534	824.65
443.741	812.36
443.948	775.5
444.154	965.96
444.361	1148.23
444.568	984.39
444.774	931.14
444.981	976.2
445.187	1164.61
445.394	1113.41
445.6	1099.08
445.807	1230.15
446.013	1176.9
446.22	1172.8
446.426	1365.31
446.633	1273.15
446.839	1654.08
447.046	1402.18
447.252	1457.47
447.459	1496.38
447.665	1455.42
447.871	1647.93
448.078	1862.97
448.284	1756.47
448.491	1871.16
448.697	1895.74
448.903	2088.25
449.11	2035
449.316	1987.89
449.522	2221.36
449.728	2340.15
449.935	2370.87
450.141	2387.25
450.347	2680.11
450.553	2655.53
450.76	2610.48
450.966	2776.36
451.172	2772.27
451.378	2903.34
451.584	2936.1
451.791	3314.98
451.997	3294.5
452.203	3343.65
452.409	3487.01
452.615	3558.69
452.821	3513.63
453.027	3575.07
453.233	4001.05
453.44	3818.78
453.646	4308.24
453.852	4257.04
454.058	4320.53
454.264	4572.43
454.47	4988.17
454.676	4840.72
454.882	5231.88
455.088	5041.42
455.294	5442.82
455.5	5633.28
455.705	6190.33
455.911	6132.98
456.117	6155.51
456.323	6460.66
456.529	6409.46
456.735	7034.09
456.941	7232.74
457.147	7623.9
457.352	7671.01
457.558	8002.78
457.764	8455.38
457.97	8594.64
458.176	8977.61
458.381	9297.1
458.587	9493.7
458.793	10097.85
458.999	9958.59
459.204	11330.73
459.41	11627.68
459.616	11562.15
459.821	12407.96
460.027	12774.55
460.233	13290.63
460.438	13354.12
460.644	13970.56
460.85	14109.82
461.055	14738.55
461.261	15502.44
461.466	15096.94
461.672	15465.58
461.878	17718.34
462.083	17189.97
462.289	17620.04
462.494	18254.91
462.7	18455.61
462.905	18279.49
463.111	20087.84
463.316	20962.33
463.522	21230.61
463.727	22381.57
463.932	23024.63
464.138	23940.07
464.343	24644.57
464.549	24845.27
464.754	26500.03
464.959	27110.33
465.165	27767.73
465.37	27728.81
465.575	27517.87
465.781	29209.5
465.986	30034.83
466.191	29928.33
466.397	30407.56
466.602	29541.27
466.807	31175.55
467.012	31665.01
467.218	32197.48
467.423	32516.97
467.628	33346.39
467.833	34988.86
468.038	34292.55
468.244	33381.21
468.449	35496.76
468.654	34339.66
468.859	34958.14
469.064	34515.78
469.269	33659.73
469.474	34200.4
