Data from USB4F104151__204__11-05-38-830.txt Node

Date: Wed Feb 26 11:05:38 EST 2025
User: louis
Spectrometer: USB4F10415
Trigger mode: 4
Integration Time (sec): 1.000000E-1
Scans to average: 1
Electric dark correction enabled: true
Nonlinearity correction enabled: false
Boxcar width: 0
XAxis mode: Wavelengths
Number of Pixels in Spectrum: 3648
>>>>>Begin Spectral Data<<<<<
178.204	-425.64
178.424	-425.64
178.644	-425.64
178.864	-423.59
179.084	-446.12
179.304	-40.62
179.524	0.34
179.744	100.69
179.964	22.87
180.184	18.77
180.404	-36.52
180.624	-7.85
180.844	26.96
181.064	-32.43
181.283	57.68
181.503	-143.02
181.723	33.11
181.943	-73.39
182.163	239.95
182.383	55.64
182.602	61.78
182.822	209.23
183.042	108.88
183.262	-9.9
183.482	12.63
183.701	39.25
183.921	67.92
184.141	-83.63
184.361	88.4
184.58	76.12
184.8	24.92
185.02	-16.04
185.239	33.11
185.459	74.07
185.679	168.27
185.898	0.34
186.118	80.21
186.338	112.98
186.557	117.08
186.777	-20.14
186.997	-13.99
187.216	12.63
187.436	221.52
187.655	2.39
187.875	123.22
188.095	31.06
188.314	127.32
188.534	67.92
188.753	-63.15
188.973	137.56
189.192	61.78
189.412	45.4
189.631	-28.33
189.851	43.35
190.07	135.51
190.29	-16.04
190.509	-26.28
190.729	-22.19
190.948	129.36
191.168	266.58
191.387	106.84
191.607	-16.04
191.826	106.84
192.045	-13.99
192.265	-1.71
192.484	82.26
192.704	51.54
192.923	-73.39
193.142	141.65
193.362	57.68
193.581	137.56
193.8	96.6
194.02	65.88
194.239	35.16
194.458	43.35
194.678	-71.34
194.897	2.39
195.116	63.83
195.335	45.4
195.555	76.12
195.774	-3.75
195.993	127.32
196.212	59.73
196.432	33.11
196.651	-22.19
196.87	-22.19
197.089	274.77
197.308	22.87
197.528	133.46
197.747	6.49
197.966	106.84
198.185	43.35
198.404	-40.62
198.623	162.13
198.842	90.45
199.062	119.12
199.281	112.98
199.5	47.44
199.719	14.68
199.938	16.73
200.157	110.93
200.376	135.51
200.595	74.07
200.814	20.82
201.033	20.82
201.252	129.36
201.471	49.49
201.69	121.17
201.909	37.2
202.128	149.84
202.347	10.58
202.566	2.39
202.785	-24.23
203.004	-59.05
203.223	252.24
203.442	84.31
203.661	-110.25
203.879	78.16
204.098	123.22
204.317	-77.48
204.536	41.3
204.755	55.64
204.974	72.02
205.193	31.06
205.411	125.27
205.63	119.12
205.849	72.02
206.068	55.64
206.287	-54.95
206.505	227.67
206.724	41.3
206.943	2.39
207.162	-3.75
207.381	121.17
207.599	-28.33
207.818	55.64
208.037	35.16
208.255	84.31
208.474	24.92
208.693	115.03
208.911	-36.52
209.13	92.5
209.349	147.8
209.567	47.44
209.786	51.54
210.005	147.8
210.223	72.02
210.442	-63.15
210.661	-9.9
210.879	-16.04
211.098	8.53
211.316	106.84
211.535	-3.75
211.753	31.06
211.972	49.49
212.191	-13.99
212.409	-38.57
212.628	37.2
212.846	-46.76
213.065	24.92
213.283	41.3
213.502	45.4
213.72	26.96
213.938	22.87
214.157	-24.23
214.375	51.54
214.594	72.02
214.812	43.35
215.031	26.96
215.249	92.5
215.467	10.58
215.686	33.11
215.904	137.56
216.122	20.82
216.341	178.51
216.559	59.73
216.778	174.42
216.996	178.51
217.214	12.63
217.432	-7.85
217.651	-83.63
217.869	74.07
218.087	29.01
218.306	-3.75
218.524	57.68
218.742	33.11
218.96	149.84
219.179	24.92
219.397	121.17
219.615	205.14
219.833	155.99
220.051	-38.57
220.27	121.17
220.488	133.46
220.706	108.88
220.924	-20.14
221.142	-54.95
221.36	10.58
221.578	47.44
221.796	-38.57
222.015	-7.85
222.233	37.2
222.451	182.61
222.669	55.64
222.887	102.74
223.105	-63.15
223.323	80.21
223.541	-65.19
223.759	45.4
223.977	2.39
224.195	135.51
224.413	139.6
224.631	18.77
224.849	-1.71
225.067	256.34
225.285	6.49
225.503	37.2
225.721	-100.01
225.939	20.82
226.157	74.07
226.375	203.09
226.592	-54.95
226.81	-100.01
227.028	102.74
227.246	43.35
227.464	90.45
227.682	67.92
227.9	67.92
228.117	78.16
228.335	0.34
228.553	55.64
228.771	6.49
228.989	96.6
229.206	106.84
229.424	10.58
229.642	22.87
229.86	-38.57
230.077	201.04
230.295	12.63
230.513	121.17
230.731	-48.81
230.948	201.04
231.166	176.47
231.384	-32.43
231.601	10.58
231.819	151.89
232.037	41.3
232.254	-48.81
232.472	117.08
232.689	18.77
232.907	74.07
233.125	-5.8
233.342	-36.52
233.56	8.53
233.777	55.64
233.995	-26.28
234.213	94.55
234.43	55.64
234.648	2.39
234.865	-11.95
235.083	47.44
235.3	26.96
235.518	53.59
235.735	133.46
235.953	112.98
236.17	37.2
236.388	41.3
236.605	33.11
236.822	125.27
237.04	180.56
237.257	-7.85
237.475	-71.34
237.692	78.16
237.909	67.92
238.127	16.73
238.344	43.35
238.562	22.87
238.779	20.82
238.996	24.92
239.214	45.4
239.431	115.03
239.648	6.49
239.865	149.84
240.083	110.93
240.3	-3.75
240.517	-20.14
240.735	51.54
240.952	135.51
241.169	43.35
241.386	82.26
241.603	110.93
241.821	0.34
242.038	168.27
242.255	115.03
242.472	-13.99
242.689	39.25
242.907	43.35
243.124	-24.23
243.341	55.64
243.558	-16.04
243.775	-30.38
243.992	-81.58
244.209	164.18
244.426	205.14
244.643	76.12
244.86	-30.38
245.078	125.27
245.295	39.25
245.512	10.58
245.729	-9.9
245.946	31.06
246.163	18.77
246.38	108.88
246.597	80.21
246.814	76.12
247.031	88.4
247.248	39.25
247.464	39.25
247.681	65.88
247.898	72.02
248.115	80.21
248.332	-3.75
248.549	106.84
248.766	106.84
248.983	98.64
249.2	24.92
249.417	98.64
249.633	-26.28
249.85	69.97
250.067	90.45
250.284	82.26
250.501	69.97
250.717	31.06
250.934	-85.67
251.151	69.97
251.368	-11.95
251.585	92.5
251.801	22.87
252.018	-71.34
252.235	102.74
252.451	-1.71
252.668	6.49
252.885	84.31
253.102	33.11
253.318	18.77
253.535	63.83
253.752	-1.71
253.968	72.02
254.185	-28.33
254.401	29.01
254.618	92.5
254.835	-34.47
255.051	164.18
255.268	133.46
255.484	45.4
255.701	84.31
255.917	57.68
256.134	10.58
256.351	74.07
256.567	-20.14
256.784	35.16
257	-5.8
257.217	57.68
257.433	72.02
257.65	33.11
257.866	135.51
258.082	-104.11
258.299	8.53
258.515	-13.99
258.732	-36.52
258.948	10.58
259.165	29.01
259.381	-7.85
259.597	98.64
259.814	61.78
260.03	57.68
260.246	57.68
260.463	53.59
260.679	108.88
260.895	14.68
261.112	137.56
261.328	-24.23
261.544	8.53
261.761	137.56
261.977	6.49
262.193	-38.57
262.409	139.6
262.626	94.55
262.842	-3.75
263.058	33.11
263.274	155.99
263.49	117.08
263.707	74.07
263.923	106.84
264.139	-36.52
264.355	39.25
264.571	215.38
264.787	59.73
265.004	115.03
265.22	63.83
265.436	-9.9
265.652	-38.57
265.868	51.54
266.084	-50.86
266.3	26.96
266.516	-44.71
266.732	96.6
266.948	98.64
267.164	-57
267.38	78.16
267.596	125.27
267.812	244.05
268.028	4.44
268.244	31.06
268.46	31.06
268.676	2.39
268.892	45.4
269.108	20.82
269.324	-44.71
269.54	-22.19
269.756	76.12
269.972	-79.53
270.188	4.44
270.403	-79.53
270.619	33.11
270.835	57.68
271.051	53.59
271.267	10.58
271.483	67.92
271.698	35.16
271.914	102.74
272.13	51.54
272.346	-16.04
272.562	80.21
272.777	112.98
272.993	-26.28
273.209	43.35
273.425	92.5
273.64	26.96
273.856	125.27
274.072	-106.15
274.287	20.82
274.503	125.27
274.719	88.4
274.934	-11.95
275.15	-28.33
275.366	16.73
275.581	-128.68
275.797	-9.9
276.012	43.35
276.228	69.97
276.444	-54.95
276.659	182.61
276.875	0.34
277.09	-13.99
277.306	10.58
277.521	39.25
277.737	47.44
277.952	112.98
278.168	39.25
278.383	117.08
278.599	0.34
278.814	65.88
279.03	-48.81
279.245	143.7
279.461	67.92
279.676	115.03
279.892	-79.53
280.107	-18.09
280.322	-42.67
280.538	22.87
280.753	24.92
280.969	69.97
281.184	47.44
281.399	90.45
281.615	53.59
281.83	147.8
282.045	-32.43
282.26	-44.71
282.476	106.84
282.691	80.21
282.906	76.12
283.122	43.35
283.337	14.68
283.552	92.5
283.767	-7.85
283.983	96.6
284.198	26.96
284.413	112.98
284.628	8.53
284.843	24.92
285.058	63.83
285.274	18.77
285.489	-16.04
285.704	129.36
285.919	-5.8
286.134	-9.9
286.349	-44.71
286.564	-18.09
286.779	86.36
286.995	-48.81
287.21	-11.95
287.425	57.68
287.64	39.25
287.855	31.06
288.07	-24.23
288.285	80.21
288.5	94.55
288.715	74.07
288.93	55.64
289.145	-59.05
289.36	69.97
289.575	29.01
289.79	127.32
290.004	-9.9
290.219	55.64
290.434	-24.23
290.649	39.25
290.864	98.64
291.079	31.06
291.294	55.64
291.509	125.27
291.724	29.01
291.938	-44.71
292.153	33.11
292.368	121.17
292.583	96.6
292.798	76.12
293.012	106.84
293.227	59.73
293.442	47.44
293.657	92.5
293.871	47.44
294.086	108.88
294.301	211.28
294.516	94.55
294.73	72.02
294.945	-102.06
295.16	-30.38
295.374	125.27
295.589	51.54
295.804	-22.19
296.018	131.41
296.233	49.49
296.447	94.55
296.662	-69.29
296.877	141.65
297.091	26.96
297.306	-9.9
297.52	59.73
297.735	117.08
297.949	65.88
298.164	35.16
298.378	53.59
298.593	-11.95
298.807	26.96
299.022	-57
299.236	158.03
299.451	-30.38
299.665	-13.99
299.88	39.25
300.094	39.25
300.309	57.68
300.523	102.74
300.737	26.96
300.952	88.4
301.166	33.11
301.381	10.58
301.595	-40.62
301.809	39.25
302.024	-22.19
302.238	31.06
302.452	121.17
302.667	22.87
302.881	115.03
303.095	205.14
303.309	39.25
303.524	47.44
303.738	76.12
303.952	-75.43
304.166	123.22
304.381	-97.96
304.595	106.84
304.809	2.39
305.023	61.78
305.237	59.73
305.452	4.44
305.666	102.74
305.88	98.64
306.094	112.98
306.308	26.96
306.522	88.4
306.736	61.78
306.95	147.8
307.164	2.39
307.379	-93.87
307.593	176.47
307.807	125.27
308.021	63.83
308.235	94.55
308.449	-91.82
308.663	-22.19
308.877	201.04
309.091	45.4
309.305	78.16
309.519	-140.97
309.733	186.71
309.947	-16.04
310.161	174.42
310.374	76.12
310.588	108.88
310.802	-16.04
311.016	-63.15
311.23	127.32
311.444	0.34
311.658	33.11
311.872	108.88
312.085	121.17
312.299	158.03
312.513	65.88
312.727	37.2
312.941	-11.95
313.154	26.96
313.368	-44.71
313.582	-1.71
313.796	31.06
314.009	47.44
314.223	133.46
314.437	110.93
314.651	125.27
314.864	35.16
315.078	-67.24
315.292	-48.81
315.505	16.73
315.719	84.31
315.933	84.31
316.146	-71.34
316.36	-85.67
316.573	188.75
316.787	86.36
317.001	49.49
317.214	-7.85
317.428	33.11
317.641	31.06
317.855	37.2
318.068	29.01
318.282	63.83
318.495	192.85
318.709	57.68
318.922	63.83
319.136	100.69
319.349	92.5
319.563	-13.99
319.776	65.88
319.99	-85.67
320.203	84.31
320.417	6.49
320.63	188.75
320.843	80.21
321.057	55.64
321.27	31.06
321.483	186.71
321.697	92.5
321.91	2.39
322.124	69.97
322.337	41.3
322.55	-5.8
322.763	-18.09
322.977	72.02
323.19	55.64
323.403	104.79
323.617	43.35
323.83	61.78
324.043	4.44
324.256	98.64
324.469	-97.96
324.683	94.55
324.896	14.68
325.109	51.54
325.322	-79.53
325.535	14.68
325.748	26.96
325.962	-9.9
326.175	10.58
326.388	106.84
326.601	117.08
326.814	4.44
327.027	55.64
327.24	102.74
327.453	-36.52
327.666	108.88
327.879	186.71
328.092	92.5
328.305	92.5
328.518	26.96
328.731	31.06
328.944	26.96
329.157	82.26
329.37	20.82
329.583	149.84
329.796	125.27
330.009	-26.28
330.222	117.08
330.435	94.55
330.648	82.26
330.861	67.92
331.073	-11.95
331.286	51.54
331.499	18.77
331.712	2.39
331.925	-46.76
332.138	53.59
332.35	69.97
332.563	-26.28
332.776	74.07
332.989	-85.67
333.202	10.58
333.414	4.44
333.627	-13.99
333.84	-13.99
334.053	41.3
334.265	-46.76
334.478	4.44
334.691	41.3
334.903	106.84
335.116	10.58
335.329	74.07
335.541	153.94
335.754	188.75
335.966	-34.47
336.179	43.35
336.392	14.68
336.604	-7.85
336.817	31.06
337.029	53.59
337.242	59.73
337.454	139.6
337.667	-16.04
337.88	53.59
338.092	108.88
338.305	63.83
338.517	-38.57
338.729	49.49
338.942	98.64
339.154	-13.99
339.367	-13.99
339.579	39.25
339.792	-46.76
340.004	90.45
340.217	92.5
340.429	0.34
340.641	-48.81
340.854	-13.99
341.066	-5.8
341.278	115.03
341.491	186.71
341.703	-9.9
341.915	4.44
342.128	80.21
342.34	22.87
342.552	51.54
342.764	-3.75
342.977	8.53
343.189	76.12
343.401	41.3
343.613	-9.9
343.826	22.87
344.038	-102.06
344.25	22.87
344.462	-42.67
344.674	49.49
344.886	53.59
345.099	82.26
345.311	160.08
345.523	10.58
345.735	-136.87
345.947	76.12
346.159	119.12
346.371	53.59
346.583	61.78
346.795	203.09
347.007	-57
347.219	61.78
347.431	61.78
347.643	94.55
347.855	-40.62
348.067	158.03
348.279	0.34
348.491	55.64
348.703	129.36
348.915	78.16
349.127	14.68
349.339	4.44
349.551	41.3
349.763	24.92
349.975	-9.9
350.187	102.74
350.399	164.18
350.61	43.35
350.822	47.44
351.034	41.3
351.246	162.13
351.458	92.5
351.669	-11.95
351.881	69.97
352.093	-9.9
352.305	100.69
352.517	78.16
352.728	78.16
352.94	102.74
353.152	61.78
353.363	2.39
353.575	14.68
353.787	194.9
353.999	53.59
354.21	119.12
354.422	-79.53
354.633	22.87
354.845	43.35
355.057	104.79
355.268	24.92
355.48	94.55
355.692	-28.33
355.903	78.16
356.115	-28.33
356.326	47.44
356.538	135.51
356.749	41.3
356.961	106.84
357.172	55.64
357.384	-71.34
357.595	209.23
357.807	14.68
358.018	-24.23
358.23	-24.23
358.441	186.71
358.653	57.68
358.864	0.34
359.075	-20.14
359.287	26.96
359.498	90.45
359.709	133.46
359.921	39.25
360.132	74.07
360.344	72.02
360.555	6.49
360.766	82.26
360.977	-38.57
361.189	22.87
361.4	-24.23
361.611	102.74
361.823	80.21
362.034	-32.43
362.245	-61.1
362.456	39.25
362.667	82.26
362.879	-102.06
363.09	-9.9
363.301	16.73
363.512	33.11
363.723	-79.53
363.935	59.73
364.146	35.16
364.357	-18.09
364.568	-3.75
364.779	-57
364.99	94.55
365.201	-1.71
365.412	100.69
365.623	-97.96
365.834	67.92
366.045	86.36
366.256	53.59
366.467	110.93
366.678	4.44
366.889	31.06
367.1	8.53
367.311	158.03
367.522	-11.95
367.733	47.44
367.944	57.68
368.155	43.35
368.366	82.26
368.577	172.37
368.788	74.07
368.999	-22.19
369.209	49.49
369.42	186.71
369.631	260.43
369.842	137.56
370.053	-7.85
370.264	137.56
370.474	41.3
370.685	35.16
370.896	16.73
371.107	96.6
371.317	41.3
371.528	47.44
371.739	112.98
371.95	141.65
372.16	74.07
372.371	-1.71
372.582	31.06
372.792	84.31
373.003	65.88
373.214	100.69
373.424	61.78
373.635	2.39
373.846	57.68
374.056	-11.95
374.267	24.92
374.477	41.3
374.688	20.82
374.898	106.84
375.109	20.82
375.319	72.02
375.53	92.5
375.74	100.69
375.951	92.5
376.161	67.92
376.372	143.7
376.582	24.92
376.793	92.5
377.003	4.44
377.214	18.77
377.424	53.59
377.635	80.21
377.845	6.49
378.055	217.43
378.266	-95.91
378.476	26.96
378.686	76.12
378.897	84.31
379.107	158.03
379.317	55.64
379.528	-18.09
379.738	18.77
379.948	-30.38
380.158	147.8
380.369	131.41
380.579	43.35
380.789	67.92
380.999	-1.71
381.21	119.12
381.42	143.7
381.63	74.07
381.84	96.6
382.05	123.22
382.261	119.12
382.471	121.17
382.681	24.92
382.891	162.13
383.101	104.79
383.311	-34.47
383.521	-9.9
383.731	100.69
383.941	88.4
384.151	-42.67
384.361	-48.81
384.571	86.36
384.781	90.45
384.991	201.04
385.201	211.28
385.411	100.69
385.621	106.84
385.831	51.54
386.041	0.34
386.251	24.92
386.461	115.03
386.671	55.64
386.881	69.97
387.091	39.25
387.301	72.02
387.511	12.63
387.72	76.12
387.93	168.27
388.14	-46.76
388.35	20.82
388.56	131.41
388.769	151.89
388.979	84.31
389.189	-54.95
389.399	-32.43
389.609	166.23
389.818	153.94
390.028	82.26
390.238	45.4
390.447	-65.19
390.657	55.64
390.867	6.49
391.076	-52.91
391.286	59.73
391.496	-100.01
391.705	31.06
391.915	205.14
392.125	61.78
392.334	14.68
392.544	125.27
392.753	123.22
392.963	76.12
393.172	33.11
393.382	-28.33
393.591	237.91
393.801	33.11
394.01	139.6
394.22	100.69
394.429	115.03
394.639	65.88
394.848	47.44
395.058	6.49
395.267	39.25
395.477	65.88
395.686	8.53
395.895	244.05
396.105	227.67
396.314	39.25
396.524	-28.33
396.733	10.58
396.942	143.7
397.152	112.98
397.361	94.55
397.57	72.02
397.78	67.92
397.989	166.23
398.198	145.75
398.407	-26.28
398.617	129.36
398.826	63.83
399.035	8.53
399.244	166.23
399.453	-40.62
399.663	10.58
399.872	16.73
400.081	-24.23
400.29	88.4
400.499	31.06
400.708	72.02
400.917	131.41
401.127	12.63
401.336	-40.62
401.545	180.56
401.754	104.79
401.963	0.34
402.172	22.87
402.381	-42.67
402.59	45.4
402.799	-18.09
403.008	115.03
403.217	45.4
403.426	82.26
403.635	-5.8
403.844	43.35
404.053	2.39
404.262	45.4
404.471	139.6
404.68	59.73
404.888	6.49
405.097	20.82
405.306	61.78
405.515	108.88
405.724	4.44
405.933	145.75
406.142	26.96
406.35	53.59
406.559	8.53
406.768	-1.71
406.977	160.08
407.185	145.75
407.394	129.36
407.603	-3.75
407.812	18.77
408.02	155.99
408.229	20.82
408.438	29.01
408.646	-9.9
408.855	-32.43
409.064	123.22
409.272	67.92
409.481	125.27
409.69	-34.47
409.898	33.11
410.107	45.4
410.315	164.18
410.524	18.77
410.733	49.49
410.941	59.73
411.15	92.5
411.358	92.5
411.567	115.03
411.775	6.49
411.984	63.83
412.192	84.31
412.401	-69.29
412.609	211.28
412.818	172.37
413.026	94.55
413.234	33.11
413.443	104.79
413.651	8.53
413.86	33.11
414.068	98.64
414.276	215.38
414.485	-18.09
414.693	225.62
414.901	170.32
415.11	117.08
415.318	24.92
415.526	39.25
415.734	61.78
415.943	63.83
416.151	153.94
416.359	12.63
416.567	65.88
416.776	127.32
416.984	92.5
417.192	158.03
417.4	47.44
417.608	59.73
417.817	43.35
418.025	80.21
418.233	182.61
418.441	33.11
418.649	-1.71
418.857	-3.75
419.065	164.18
419.273	10.58
419.481	88.4
419.689	55.64
419.897	10.58
420.105	-50.86
420.313	160.08
420.521	180.56
420.729	82.26
420.937	53.59
421.145	-81.58
421.353	94.55
421.561	137.56
421.769	53.59
421.977	16.73
422.185	63.83
422.393	29.01
422.601	129.36
422.809	35.16
423.017	55.64
423.224	137.56
423.432	147.8
423.64	80.21
423.848	59.73
424.056	0.34
424.263	176.47
424.471	80.21
424.679	104.79
424.887	-30.38
425.094	192.85
425.302	174.42
425.51	-5.8
425.718	145.75
425.925	90.45
426.133	-24.23
426.341	213.33
426.548	24.92
426.756	59.73
426.964	112.98
427.171	-26.28
427.379	164.18
427.586	106.84
427.794	184.66
428.001	172.37
428.209	133.46
428.417	153.94
428.624	100.69
428.832	141.65
429.039	86.36
429.247	72.02
429.454	145.75
429.662	268.63
429.869	172.37
430.076	98.64
430.284	160.08
430.491	166.23
430.699	123.22
430.906	151.89
431.114	194.9
431.321	149.84
431.528	145.75
431.736	188.75
431.943	123.22
432.15	168.27
432.358	266.58
432.565	231.76
432.772	53.59
432.979	155.99
433.187	180.56
433.394	223.57
433.601	100.69
433.808	264.53
434.016	248.15
434.223	225.62
434.43	231.76
434.637	311.63
434.844	256.34
435.052	145.75
435.259	285.01
435.466	344.4
435.673	368.98
435.88	352.59
436.087	438.61
436.294	344.4
436.501	416.08
436.708	297.3
436.915	313.68
437.122	401.74
437.329	348.5
437.537	350.54
437.743	385.36
437.95	594.25
438.157	485.71
438.364	389.46
438.571	495.95
438.778	565.58
438.985	565.58
439.192	506.19
439.399	463.18
439.606	579.92
439.813	590.16
440.02	739.66
440.227	721.23
440.433	590.16
440.64	674.12
440.847	618.83
441.054	729.42
441.261	778.57
441.467	788.81
441.674	770.38
441.881	833.86
442.088	723.27
442.294	762.19
442.501	864.58
442.708	936.26
442.914	905.54
443.121	1071.43
443.328	1040.71
443.534	1046.85
443.741	1069.38
443.948	1032.52
444.154	1157.44
444.361	1370.43
444.568	1157.44
444.774	1251.65
444.981	1169.73
445.187	1280.32
445.394	1386.82
445.6	1343.81
445.807	1689.92
446.013	1440.06
446.22	1509.69
446.426	1655.1
446.633	1710.4
446.839	1886.52
447.046	1665.34
447.252	2021.69
447.459	1855.8
447.665	1829.18
447.871	2040.12
448.078	2263.35
448.284	2251.06
448.491	2263.35
448.697	2410.8
448.903	2492.72
449.11	2611.5
449.316	2572.59
449.522	2824.49
449.728	2838.83
449.935	2986.28
450.141	3021.1
450.347	3277.09
450.553	3203.36
450.76	3246.37
450.966	3447.07
451.172	3580.19
451.378	3672.35
451.584	3553.57
451.791	3883.29
451.997	4071.7
452.203	4188.44
452.409	4354.32
452.615	4563.22
452.821	4620.56
453.027	4591.89
453.233	5126.41
453.44	4864.27
453.646	5167.37
453.852	5482.75
454.058	5826.81
454.264	5587.2
454.47	6177.02
454.676	6181.11
454.882	6754.54
455.088	6365.43
455.294	6779.12
455.5	7346.41
455.705	7782.62
455.911	7710.94
456.117	8055
456.323	8145.11
456.529	8194.26
456.735	9068.75
456.941	9220.3
457.147	9584.84
457.352	9568.45
457.558	9889.98
457.764	10961.07
457.97	10836.14
458.176	11477.16
458.381	11964.57
458.587	12114.08
458.793	12955.79
458.999	12753.04
459.204	14215.29
459.41	14903.41
459.616	14534.78
459.821	15509.61
460.027	16105.57
460.233	16980.05
460.438	16808.02
460.644	17977.41
460.85	18090.05
461.055	18888.76
461.261	19968.04
461.466	19187.76
461.672	19824.68
461.878	22087.68
462.083	21680.14
462.289	22138.88
462.494	23103.48
462.7	23066.61
462.905	23574.51
463.111	25339.86
463.316	26591.17
463.522	27330.48
463.727	27748.27
463.932	28897.18
464.138	30017.42
464.343	31453.05
464.549	31367.03
464.754	33378.14
464.959	34418.5
465.165	35170.11
465.37	35362.62
465.575	35112.77
465.781	37084.96
465.986	38326.03
466.191	37730.07
466.397	38315.79
466.602	37330.72
466.807	39278.33
467.012	39814.9
467.218	40287.98
467.423	40738.54
467.628	41993.94
467.833	44099.25
468.038	43019.97
468.244	42381.01
468.449	44564.14
