Data from USB4F104151__86__10-44-27-969.txt Node

Date: Wed Feb 26 10:44:27 EST 2025
User: louis
Spectrometer: USB4F10415
Trigger mode: 4
Integration Time (sec): 1.000000E-1
Scans to average: 1
Electric dark correction enabled: true
Nonlinearity correction enabled: false
Boxcar width: 0
XAxis mode: Wavelengths
Number of Pixels in Spectrum: 3648
>>>>>Begin Spectral Data<<<<<
178.204	-373.24
178.424	-373.24
178.644	-373.24
178.864	-299.52
179.084	-438.78
179.304	3.58
179.524	-35.33
179.744	54.78
179.964	-12.8
180.184	-2.56
180.404	26.11
180.624	-78.33
180.844	46.59
181.064	-37.38
181.283	36.35
181.503	-33.28
181.723	32.26
181.943	-68.09
182.163	175.61
182.383	-25.09
182.602	17.92
182.822	153.09
183.042	79.36
183.262	-4.61
183.482	5.63
183.701	32.26
183.921	73.21
184.141	-66.05
184.361	146.94
184.58	87.55
184.8	-18.94
185.02	13.82
185.239	42.5
185.459	71.17
185.679	122.37
185.898	-152.06
186.118	46.59
186.338	120.32
186.557	101.89
186.777	-49.66
186.997	-18.94
187.216	30.21
187.436	148.99
187.655	62.98
187.875	108.03
188.095	62.98
188.314	155.13
188.534	69.12
188.753	-10.75
188.973	99.84
189.192	171.52
189.412	-12.8
189.631	24.06
189.851	81.41
190.07	187.9
190.29	-8.7
190.509	1.54
190.729	87.55
190.948	105.98
191.168	261.63
191.387	101.89
191.607	32.26
191.826	126.46
192.045	24.06
192.265	32.26
192.484	77.31
192.704	85.5
192.923	13.82
193.142	243.2
193.362	136.7
193.581	22.02
193.8	105.98
194.02	114.17
194.239	75.26
194.458	-20.99
194.678	-14.85
194.897	7.68
195.116	65.02
195.335	148.99
195.555	153.09
195.774	17.92
195.993	69.12
196.212	36.35
196.432	-0.51
196.651	-68.09
196.87	7.68
197.089	216.57
197.308	60.93
197.528	110.08
197.747	-47.62
197.966	73.21
198.185	120.32
198.404	5.63
198.623	255.48
198.842	189.95
199.062	81.41
199.281	93.69
199.5	40.45
199.719	69.12
199.938	58.88
200.157	85.5
200.376	134.65
200.595	101.89
200.814	99.84
201.033	81.41
201.252	169.47
201.471	108.03
201.69	44.54
201.909	87.55
202.128	48.64
202.347	71.17
202.566	114.17
202.785	-18.94
203.004	28.16
203.223	220.67
203.442	24.06
203.661	-18.94
203.879	124.41
204.098	189.95
204.317	13.82
204.536	91.65
204.755	42.5
204.974	79.36
205.193	44.54
205.411	118.27
205.63	169.47
205.849	67.07
206.068	22.02
206.287	1.54
206.505	192
206.724	56.83
206.943	-0.51
207.162	32.26
207.381	75.26
207.599	34.3
207.818	101.89
208.037	22.02
208.255	-25.09
208.474	48.64
208.693	46.59
208.911	-45.57
209.13	87.55
209.349	101.89
209.567	101.89
209.786	108.03
210.005	58.88
210.223	95.74
210.442	-55.81
210.661	60.93
210.879	138.75
211.098	67.07
211.316	56.83
211.535	26.11
211.753	81.41
211.972	138.75
212.191	5.63
212.409	87.55
212.628	7.68
212.846	5.63
213.065	87.55
213.283	151.04
213.502	108.03
213.72	67.07
213.938	48.64
214.157	19.97
214.375	83.45
214.594	103.93
214.812	126.46
215.031	28.16
215.249	5.63
215.467	44.54
215.686	48.64
215.904	153.09
216.122	73.21
216.341	153.09
216.559	65.02
216.778	146.94
216.996	243.2
217.214	5.63
217.432	24.06
217.651	-49.66
217.869	120.32
218.087	30.21
218.306	-53.76
218.524	69.12
218.742	42.5
218.96	114.17
219.179	-33.28
219.397	89.6
219.615	173.57
219.833	130.56
220.051	-27.14
220.27	108.03
220.488	99.84
220.706	7.68
220.924	-4.61
221.142	73.21
221.36	71.17
221.578	99.84
221.796	17.92
222.015	38.4
222.233	48.64
222.451	222.72
222.669	54.78
222.887	83.45
223.105	30.21
223.323	110.08
223.541	11.78
223.759	75.26
223.977	99.84
224.195	73.21
224.413	97.79
224.631	77.31
224.849	77.31
225.067	212.48
225.285	56.83
225.503	30.21
225.721	-25.09
225.939	40.45
226.157	73.21
226.375	216.57
226.592	-41.47
226.81	85.5
227.028	157.18
227.246	208.38
227.464	32.26
227.682	138.75
227.9	81.41
228.117	50.69
228.335	105.98
228.553	144.89
228.771	38.4
228.989	15.87
229.206	120.32
229.424	-8.7
229.642	24.06
229.86	11.78
230.077	79.36
230.295	-8.7
230.513	52.74
230.731	93.69
230.948	112.13
231.166	169.47
231.384	-10.75
231.601	-31.23
231.819	255.48
232.037	-61.95
232.254	-84.48
232.472	44.54
232.689	-12.8
232.907	93.69
233.125	75.26
233.342	32.26
233.56	-66.05
233.777	1.54
233.995	-0.51
234.213	95.74
234.43	153.09
234.648	-6.66
234.865	93.69
235.083	93.69
235.3	83.45
235.518	65.02
235.735	136.7
235.953	93.69
236.17	87.55
236.388	93.69
236.605	56.83
236.822	126.46
237.04	101.89
237.257	118.27
237.475	-14.85
237.692	9.73
237.909	69.12
238.127	65.02
238.344	157.18
238.562	79.36
238.779	54.78
238.996	-27.14
239.214	24.06
239.431	44.54
239.648	17.92
239.865	77.31
240.083	62.98
240.3	-51.71
240.517	-35.33
240.735	77.31
240.952	118.27
241.169	105.98
241.386	44.54
241.603	3.58
241.821	38.4
242.038	136.7
242.255	73.21
242.472	-53.76
242.689	73.21
242.907	120.32
243.124	114.17
243.341	22.02
243.558	116.22
243.775	-2.56
243.992	-10.75
244.209	99.84
244.426	185.85
244.643	42.5
244.86	62.98
245.078	165.37
245.295	11.78
245.512	38.4
245.729	-41.47
245.946	95.74
246.163	44.54
246.38	38.4
246.597	73.21
246.814	65.02
247.031	75.26
247.248	-45.57
247.464	75.26
247.681	65.02
247.898	60.93
248.115	52.74
248.332	38.4
248.549	83.45
248.766	212.48
248.983	95.74
249.2	48.64
249.417	54.78
249.633	-16.9
249.85	56.83
250.067	9.73
250.284	15.87
250.501	-23.04
250.717	108.03
250.934	-20.99
251.151	30.21
251.368	73.21
251.585	67.07
251.801	60.93
252.018	75.26
252.235	161.28
252.451	-51.71
252.668	-29.18
252.885	114.17
253.102	34.3
253.318	89.6
253.535	30.21
253.752	36.35
253.968	-12.8
254.185	-25.09
254.401	52.74
254.618	65.02
254.835	1.54
255.051	140.8
255.268	161.28
255.484	-2.56
255.701	34.3
255.917	71.17
256.134	65.02
256.351	34.3
256.567	22.02
256.784	28.16
257	-88.57
257.217	126.46
257.433	128.51
257.65	69.12
257.866	118.27
258.082	-39.42
258.299	-39.42
258.515	75.26
258.732	-31.23
258.948	-20.99
259.165	34.3
259.381	54.78
259.597	77.31
259.814	-8.7
260.03	-8.7
260.246	22.02
260.463	79.36
260.679	91.65
260.895	108.03
261.112	56.83
261.328	22.02
261.544	71.17
261.761	122.37
261.977	-53.76
262.193	-78.33
262.409	83.45
262.626	58.88
262.842	50.69
263.058	-8.7
263.274	148.99
263.49	83.45
263.707	134.65
263.923	114.17
264.139	-27.14
264.355	50.69
264.571	-0.51
264.787	155.13
265.004	163.33
265.22	50.69
265.436	-31.23
265.652	28.16
265.868	56.83
266.084	-8.7
266.3	30.21
266.516	-41.47
266.732	108.03
266.948	114.17
267.164	-16.9
267.38	112.13
267.596	85.5
267.812	118.27
268.028	-6.66
268.244	36.35
268.46	50.69
268.676	34.3
268.892	99.84
269.108	3.58
269.324	19.97
269.54	-20.99
269.756	146.94
269.972	-39.42
270.188	34.3
270.403	-41.47
270.619	89.6
270.835	112.13
271.051	48.64
271.267	-70.14
271.483	13.82
271.698	79.36
271.914	42.5
272.13	58.88
272.346	87.55
272.562	103.93
272.777	155.13
272.993	44.54
273.209	36.35
273.425	19.97
273.64	1.54
273.856	56.83
274.072	-18.94
274.287	17.92
274.503	112.13
274.719	81.41
274.934	42.5
275.15	-47.62
275.366	15.87
275.581	13.82
275.797	99.84
276.012	48.64
276.228	93.69
276.444	3.58
276.659	161.28
276.875	3.58
277.09	36.35
277.306	46.59
277.521	85.5
277.737	-10.75
277.952	101.89
278.168	52.74
278.383	48.64
278.599	110.08
278.814	118.27
279.03	17.92
279.245	163.33
279.461	-12.8
279.676	77.31
279.892	75.26
280.107	15.87
280.322	75.26
280.538	105.98
280.753	28.16
280.969	48.64
281.184	118.27
281.399	157.18
281.615	65.02
281.83	50.69
282.045	19.97
282.26	-25.09
282.476	36.35
282.691	85.5
282.906	40.45
283.122	32.26
283.337	5.63
283.552	67.07
283.767	5.63
283.983	142.85
284.198	67.07
284.413	69.12
284.628	-57.86
284.843	83.45
285.058	69.12
285.274	-39.42
285.489	-47.62
285.704	112.13
285.919	17.92
286.134	13.82
286.349	60.93
286.564	26.11
286.779	114.17
286.995	62.98
287.21	-53.76
287.425	34.3
287.64	48.64
287.855	110.08
288.07	15.87
288.285	153.09
288.5	148.99
288.715	71.17
288.93	30.21
289.145	-18.94
289.36	73.21
289.575	19.97
289.79	46.59
290.004	24.06
290.219	159.23
290.434	79.36
290.649	9.73
290.864	56.83
291.079	-12.8
291.294	75.26
291.509	56.83
291.724	17.92
291.938	22.02
292.153	52.74
292.368	24.06
292.583	42.5
292.798	22.02
293.012	60.93
293.227	69.12
293.442	34.3
293.657	105.98
293.871	146.94
294.086	122.37
294.301	192
294.516	120.32
294.73	60.93
294.945	-20.99
295.16	22.02
295.374	128.51
295.589	120.32
295.804	26.11
296.018	54.78
296.233	85.5
296.447	89.6
296.662	-41.47
296.877	132.61
297.091	50.69
297.306	42.5
297.52	48.64
297.735	9.73
297.949	75.26
298.164	85.5
298.378	89.6
298.593	5.63
298.807	-8.7
299.022	40.45
299.236	159.23
299.451	-0.51
299.665	7.68
299.88	52.74
300.094	44.54
300.309	56.83
300.523	13.82
300.737	5.63
300.952	132.61
301.166	89.6
301.381	-100.86
301.595	17.92
301.809	26.11
302.024	44.54
302.238	34.3
302.452	128.51
302.667	11.78
302.881	124.41
303.095	185.85
303.309	91.65
303.524	34.3
303.738	-14.85
303.952	-33.28
304.166	110.08
304.381	-53.76
304.595	173.57
304.809	24.06
305.023	30.21
305.237	62.98
305.452	95.74
305.666	5.63
305.88	50.69
306.094	93.69
306.308	103.93
306.522	9.73
306.736	124.41
306.95	136.7
307.164	3.58
307.379	30.21
307.593	69.12
307.807	148.99
308.021	65.02
308.235	52.74
308.449	-29.18
308.663	130.56
308.877	247.29
309.091	-12.8
309.305	15.87
309.519	-100.86
309.733	134.65
309.947	-47.62
310.161	87.55
310.374	73.21
310.588	151.04
310.802	3.58
311.016	17.92
311.23	81.41
311.444	-64
311.658	60.93
311.872	128.51
312.085	151.04
312.299	46.59
312.513	192
312.727	19.97
312.941	-20.99
313.154	50.69
313.368	36.35
313.582	118.27
313.796	19.97
314.009	36.35
314.223	148.99
314.437	48.64
314.651	169.47
314.864	-20.99
315.078	-33.28
315.292	-27.14
315.505	13.82
315.719	71.17
315.933	79.36
316.146	46.59
316.36	-6.66
316.573	140.8
316.787	87.55
317.001	69.12
317.214	-16.9
317.428	136.7
317.641	19.97
317.855	-78.33
318.068	91.65
318.282	32.26
318.495	200.19
318.709	48.64
318.922	112.13
319.136	75.26
319.349	161.28
319.563	79.36
319.776	69.12
319.99	-98.81
320.203	105.98
320.417	91.65
320.63	151.04
320.843	148.99
321.057	134.65
321.27	71.17
321.483	134.65
321.697	142.85
321.91	52.74
322.124	58.88
322.337	75.26
322.55	19.97
322.763	79.36
322.977	44.54
323.19	-10.75
323.403	15.87
323.617	101.89
323.83	124.41
324.043	38.4
324.256	93.69
324.469	-25.09
324.683	157.18
324.896	73.21
325.109	85.5
325.322	-39.42
325.535	118.27
325.748	118.27
325.962	3.58
326.175	140.8
326.388	112.13
326.601	126.46
326.814	15.87
327.027	85.5
327.24	228.86
327.453	-47.62
327.666	79.36
327.879	138.75
328.092	189.95
328.305	81.41
328.518	75.26
328.731	91.65
328.944	40.45
329.157	142.85
329.37	50.69
329.583	194.05
329.796	101.89
330.009	-86.53
330.222	89.6
330.435	75.26
330.648	44.54
330.861	91.65
331.073	36.35
331.286	136.7
331.499	7.68
331.712	52.74
331.925	17.92
332.138	48.64
332.35	206.33
332.563	9.73
332.776	75.26
332.989	-20.99
333.202	5.63
333.414	5.63
333.627	9.73
333.84	1.54
334.053	50.69
334.265	71.17
334.478	-18.94
334.691	32.26
334.903	65.02
335.116	-45.57
335.329	-29.18
335.541	108.03
335.754	179.71
335.966	22.02
336.179	58.88
336.392	65.02
336.604	108.03
336.817	110.08
337.029	71.17
337.242	128.51
337.454	138.75
337.667	50.69
337.88	83.45
338.092	22.02
338.305	54.78
338.517	11.78
338.729	112.13
338.942	239.1
339.154	-18.94
339.367	-43.52
339.579	97.79
339.792	-29.18
340.004	105.98
340.217	40.45
340.429	46.59
340.641	34.3
340.854	-33.28
341.066	40.45
341.278	161.28
341.491	194.05
341.703	44.54
341.915	13.82
342.128	42.5
342.34	42.5
342.552	75.26
342.764	-45.57
342.977	62.98
343.189	112.13
343.401	85.5
343.613	-84.48
343.826	146.94
344.038	24.06
344.25	42.5
344.462	9.73
344.674	73.21
344.886	-27.14
345.099	87.55
345.311	89.6
345.523	30.21
345.735	-47.62
345.947	58.88
346.159	34.3
346.371	130.56
346.583	-33.28
346.795	157.18
347.007	-49.66
347.219	97.79
347.431	-16.9
347.643	91.65
347.855	36.35
348.067	118.27
348.279	-12.8
348.491	50.69
348.703	73.21
348.915	60.93
349.127	-55.81
349.339	19.97
349.551	-6.66
349.763	91.65
349.975	97.79
350.187	54.78
350.399	196.09
350.61	108.03
350.822	46.59
351.034	40.45
351.246	91.65
351.458	87.55
351.669	75.26
351.881	44.54
352.093	73.21
352.305	146.94
352.517	79.36
352.728	136.7
352.94	38.4
353.152	75.26
353.363	11.78
353.575	79.36
353.787	153.09
353.999	26.11
354.21	169.47
354.422	83.45
354.633	1.54
354.845	114.17
355.057	128.51
355.268	81.41
355.48	128.51
355.692	-31.23
355.903	32.26
356.115	15.87
356.326	-57.86
356.538	114.17
356.749	-16.9
356.961	185.85
357.172	-29.18
357.384	-80.38
357.595	183.81
357.807	22.02
358.018	58.88
358.23	118.27
358.441	273.92
358.653	67.07
358.864	42.5
359.075	-111.1
359.287	95.74
359.498	79.36
359.709	85.5
359.921	54.78
360.132	50.69
360.344	120.32
360.555	-41.47
360.766	179.71
360.977	-2.56
361.189	136.7
361.4	-66.05
361.611	169.47
361.823	93.69
362.034	44.54
362.245	-0.51
362.456	93.69
362.667	93.69
362.879	-31.23
363.09	177.66
363.301	42.5
363.512	22.02
363.723	52.74
363.935	-16.9
364.146	148.99
364.357	69.12
364.568	116.22
364.779	-64
364.99	118.27
365.201	-80.38
365.412	118.27
365.623	-94.72
365.834	93.69
366.045	7.68
366.256	128.51
366.467	77.31
366.678	44.54
366.889	69.12
367.1	28.16
367.311	130.56
367.522	48.64
367.733	136.7
367.944	105.98
368.155	75.26
368.366	46.59
368.577	108.03
368.788	132.61
368.999	44.54
369.209	151.04
369.42	196.09
369.631	210.43
369.842	95.74
370.053	54.78
370.264	161.28
370.474	-53.76
370.685	101.89
370.896	24.06
371.107	126.46
371.317	-23.04
371.528	9.73
371.739	163.33
371.95	69.12
372.16	151.04
372.371	-6.66
372.582	-61.95
372.792	83.45
373.003	114.17
373.214	50.69
373.424	56.83
373.635	-20.99
373.846	73.21
374.056	32.26
374.267	87.55
374.477	67.07
374.688	-14.85
374.898	118.27
375.109	52.74
375.319	71.17
375.53	140.8
375.74	105.98
375.951	42.5
376.161	60.93
376.372	157.18
376.582	11.78
376.793	140.8
377.003	-0.51
377.214	26.11
377.424	101.89
377.635	93.69
377.845	17.92
378.055	126.46
378.266	-29.18
378.476	22.02
378.686	69.12
378.897	95.74
379.107	134.65
379.317	132.61
379.528	32.26
379.738	179.71
379.948	-27.14
380.158	105.98
380.369	13.82
380.579	120.32
380.789	62.98
380.999	103.93
381.21	65.02
381.42	271.87
381.63	48.64
381.84	95.74
382.05	146.94
382.261	105.98
382.471	204.28
382.681	13.82
382.891	134.65
383.101	95.74
383.311	-64
383.521	52.74
383.731	148.99
383.941	62.98
384.151	56.83
384.361	54.78
384.571	114.17
384.781	56.83
384.991	210.43
385.201	173.57
385.411	85.5
385.621	54.78
385.831	26.11
386.041	71.17
386.251	56.83
386.461	89.6
386.671	54.78
386.881	26.11
387.091	3.58
387.301	175.61
387.511	108.03
387.72	56.83
387.93	116.22
388.14	5.63
388.35	32.26
388.56	112.13
388.769	99.84
388.979	52.74
389.189	-53.76
389.399	105.98
389.609	-20.99
389.818	146.94
390.028	40.45
390.238	134.65
390.447	9.73
390.657	146.94
390.867	32.26
391.076	26.11
391.286	28.16
391.496	79.36
391.705	50.69
391.915	200.19
392.125	151.04
392.334	65.02
392.544	187.9
392.753	-14.85
392.963	13.82
393.172	71.17
393.382	-6.66
393.591	183.81
393.801	22.02
394.01	169.47
394.22	142.85
394.429	89.6
394.639	-8.7
394.848	19.97
395.058	99.84
395.267	81.41
395.477	148.99
395.686	28.16
395.895	263.68
396.105	232.96
396.314	122.37
396.524	48.64
396.733	7.68
396.942	30.21
397.152	167.42
397.361	83.45
397.57	79.36
397.78	54.78
397.989	40.45
398.198	200.19
398.407	42.5
398.617	67.07
398.826	75.26
399.035	79.36
399.244	161.28
399.453	50.69
399.663	69.12
399.872	87.55
400.081	-43.52
400.29	116.22
400.499	17.92
400.708	118.27
400.917	69.12
401.127	19.97
401.336	-6.66
401.545	208.38
401.754	169.47
401.963	89.6
402.172	32.26
402.381	48.64
402.59	58.88
402.799	67.07
403.008	101.89
403.217	108.03
403.426	13.82
403.635	-18.94
403.844	146.94
404.053	36.35
404.262	-23.04
404.471	208.38
404.68	48.64
404.888	120.32
405.097	-0.51
405.306	71.17
405.515	95.74
405.724	79.36
405.933	167.42
406.142	24.06
406.35	159.23
406.559	85.5
406.768	67.07
406.977	204.28
407.185	79.36
407.394	122.37
407.603	-43.52
407.812	15.87
408.02	108.03
408.229	71.17
408.438	67.07
408.646	-70.14
408.855	50.69
409.064	52.74
409.272	48.64
409.481	93.69
409.69	9.73
409.898	60.93
410.107	118.27
410.315	110.08
410.524	-14.85
410.733	44.54
410.941	122.37
411.15	114.17
411.358	146.94
411.567	169.47
411.775	71.17
411.984	93.69
412.192	136.7
412.401	89.6
412.609	183.81
412.818	126.46
413.026	116.22
413.234	114.17
413.443	44.54
413.651	1.54
413.86	-14.85
414.068	116.22
414.276	198.14
414.485	46.59
414.693	140.8
414.901	146.94
415.11	101.89
415.318	67.07
415.526	85.5
415.734	97.79
415.943	52.74
416.151	210.43
416.359	34.3
416.567	83.45
416.776	54.78
416.984	220.67
417.192	200.19
417.4	95.74
417.608	46.59
417.817	13.82
418.025	177.66
418.233	202.24
418.441	24.06
418.649	-8.7
418.857	120.32
419.065	206.33
419.273	108.03
419.481	22.02
419.689	-10.75
419.897	83.45
420.105	-6.66
420.313	155.13
420.521	163.33
420.729	140.8
420.937	3.58
421.145	-12.8
421.353	136.7
421.561	200.19
421.769	52.74
421.977	-8.7
422.185	130.56
422.393	38.4
422.601	99.84
422.809	103.93
423.017	103.93
423.224	101.89
423.432	112.13
423.64	87.55
423.848	148.99
424.056	-2.56
424.263	112.13
424.471	40.45
424.679	153.09
424.887	75.26
425.094	142.85
425.302	120.32
425.51	40.45
425.718	140.8
425.925	83.45
426.133	9.73
426.341	179.71
426.548	7.68
426.756	69.12
426.964	112.13
427.171	71.17
427.379	40.45
427.586	136.7
427.794	95.74
428.001	126.46
428.209	101.89
428.417	200.19
428.624	222.72
428.832	93.69
429.039	110.08
429.247	120.32
429.454	165.37
429.662	261.63
429.869	138.75
430.076	112.13
430.284	222.72
430.491	280.06
430.699	110.08
430.906	239.1
431.114	163.33
431.321	118.27
431.528	124.41
431.736	183.81
431.943	167.42
432.15	171.52
432.358	202.24
432.565	257.53
432.772	13.82
432.979	224.76
433.187	89.6
433.394	198.14
433.601	132.61
433.808	206.33
434.016	296.44
434.223	235
434.43	167.42
434.637	259.58
434.844	275.96
435.052	232.96
435.259	290.3
435.466	253.44
435.673	235
435.88	247.29
436.087	415.23
436.294	302.59
436.501	273.92
436.708	316.92
436.915	413.18
437.122	341.5
437.329	247.29
437.537	357.88
437.743	357.88
437.95	476.66
438.157	425.47
438.364	351.74
438.571	386.55
438.778	450.04
438.985	478.71
439.192	507.38
439.399	402.94
439.606	447.99
439.813	478.71
440.02	613.88
440.227	605.69
440.433	599.54
440.64	458.23
440.847	568.82
441.054	517.62
441.261	695.8
441.467	658.93
441.674	701.94
441.881	699.89
442.088	574.97
442.294	675.32
442.501	787.96
442.708	847.35
442.914	783.86
443.121	747
443.328	900.59
443.534	925.17
443.741	943.6
443.948	787.96
444.154	992.75
444.361	1123.82
444.568	1060.34
444.774	978.42
444.981	871.92
445.187	1140.21
445.394	1037.81
445.6	1213.93
445.807	1177.07
446.013	1240.56
446.22	1220.08
446.426	1371.63
446.633	1459.69
446.839	1531.37
447.046	1390.06
447.252	1562.09
447.459	1609.19
447.665	1521.13
447.871	1752.55
448.078	1811.94
448.284	1744.36
448.491	2020.83
448.697	2074.08
448.903	2082.27
449.11	2125.28
449.316	2115.04
449.522	2389.47
449.728	2299.36
449.935	2518.49
450.141	2518.49
450.347	2678.23
450.553	2655.7
450.76	2665.94
450.966	2850.26
451.172	3112.4
451.378	3075.54
451.584	3141.07
451.791	3431.88
451.997	3401.16
452.203	3509.71
452.409	3513.8
452.615	3818.95
452.821	3724.74
453.027	3673.54
453.233	4263.36
453.44	4025.79
453.646	4449.72
453.852	4683.19
454.058	4631.99
454.264	4769.21
454.47	5121.46
454.676	5246.38
454.882	5707.18
455.088	5488.04
455.294	5655.98
455.5	6098.34
455.705	6305.18
455.911	6426.01
456.117	6712.73
456.323	6655.39
456.529	6854.04
456.735	7441.81
456.941	7437.71
457.147	7992.71
457.352	8310.15
457.558	8304
457.764	8895.86
457.97	9104.76
458.176	9475.44
458.381	9753.96
458.587	10163.56
458.793	10540.38
458.999	10655.07
459.204	11631.95
459.41	12352.84
459.616	12232.01
459.821	12889.4
460.027	13344.05
460.233	13966.63
460.438	14167.34
460.644	14832.93
460.85	14855.45
461.055	15611.15
461.261	16366.85
461.466	16094.47
461.672	16370.95
461.878	18228.46
462.083	17994.99
462.289	18169.07
462.494	19012.83
462.7	19414.23
462.905	19514.58
463.111	21081.28
463.316	22346.92
463.522	22785.19
463.727	23131.3
463.932	24376.46
464.138	24822.92
464.343	25918.58
464.549	26326.13
464.754	28261.46
464.959	28853.32
465.165	29234.24
465.37	29183.04
465.575	29146.18
465.781	30932.01
465.986	32072.73
466.191	31568.93
466.397	32005.14
466.602	31110.18
466.807	32924.68
467.012	33412.1
467.218	34182.13
467.423	33999.87
467.628	34976.75
467.833	36981.71
468.038	36561.87
468.244	35511.27
468.449	37202.89
468.654	36520.91
468.859	36520.91
