Data from USB4F104151__246__11-19-55-836.txt Node

Date: Wed Feb 26 11:19:55 EST 2025
User: louis
Spectrometer: USB4F10415
Trigger mode: 4
Integration Time (sec): 1.000000E-1
Scans to average: 1
Electric dark correction enabled: true
Nonlinearity correction enabled: false
Boxcar width: 0
XAxis mode: Wavelengths
Number of Pixels in Spectrum: 3648
>>>>>Begin Spectral Data<<<<<
178.204	-367.27
178.424	-367.27
178.644	-367.27
178.864	-391.84
179.084	-412.32
179.304	-25.26
179.524	40.28
179.744	15.7
179.964	177.49
180.184	34.13
180.404	-2.73
180.624	-80.55
180.844	-19.11
181.064	-49.83
181.283	27.99
181.503	-98.99
181.723	-19.11
181.943	-64.17
182.163	240.98
182.383	52.56
182.602	152.91
182.822	165.2
183.042	64.85
183.262	-25.26
183.482	-17.07
183.701	109.91
183.921	-33.45
184.141	11.61
184.361	64.85
184.58	91.48
184.8	62.8
185.02	-2.73
185.239	105.81
185.459	62.8
185.679	146.77
185.898	13.65
186.118	40.28
186.338	122.2
186.557	91.48
186.777	36.18
186.997	-43.69
187.216	-2.73
187.436	279.89
187.655	93.52
187.875	120.15
188.095	25.94
188.314	126.29
188.534	52.56
188.753	-51.88
188.973	122.2
189.192	161.11
189.412	79.19
189.631	103.76
189.851	56.66
190.07	142.68
190.29	3.41
190.509	1.37
190.729	-37.55
190.948	107.86
191.168	240.98
191.387	120.15
191.607	48.47
191.826	144.72
192.045	58.71
192.265	87.38
192.484	103.76
192.704	46.42
192.923	-62.12
193.142	187.73
193.362	216.4
193.581	120.15
193.8	62.8
194.02	169.3
194.239	66.9
194.458	150.87
194.678	75.09
194.897	11.61
195.116	36.18
195.335	66.9
195.555	50.52
195.774	46.42
195.993	91.48
196.212	120.15
196.432	91.48
196.651	5.46
196.87	19.8
197.089	236.88
197.308	52.56
197.528	114
197.747	23.89
197.966	107.86
198.185	124.24
198.404	50.52
198.623	144.72
198.842	214.35
199.062	107.86
199.281	126.29
199.5	3.41
199.719	109.91
199.938	93.52
200.157	128.34
200.376	79.19
200.595	130.39
200.814	114
201.033	-21.16
201.252	142.68
201.471	38.23
201.69	114
201.909	77.14
202.128	75.09
202.347	93.52
202.566	83.28
202.785	-15.02
203.004	-68.27
203.223	331.09
203.442	-29.35
203.661	-39.59
203.879	116.05
204.098	128.34
204.317	3.41
204.536	130.39
204.755	132.44
204.974	134.48
205.193	-45.74
205.411	167.25
205.63	54.61
205.849	77.14
206.068	85.33
206.287	-4.78
206.505	146.77
206.724	11.61
206.943	32.08
207.162	7.51
207.381	144.72
207.599	-15.02
207.818	62.8
208.037	13.65
208.255	30.04
208.474	83.28
208.693	116.05
208.911	-55.98
209.13	87.38
209.349	79.19
209.567	97.62
209.786	130.39
210.005	75.09
210.223	81.24
210.442	-43.69
210.661	-4.78
210.879	73.04
211.098	81.24
211.316	79.19
211.535	7.51
211.753	175.44
211.972	40.28
212.191	-0.68
212.409	62.8
212.628	99.67
212.846	-70.31
213.065	146.77
213.283	144.72
213.502	50.52
213.72	5.46
213.938	56.66
214.157	42.32
214.375	134.48
214.594	77.14
214.812	77.14
215.031	11.61
215.249	81.24
215.467	81.24
215.686	25.94
215.904	97.62
216.122	19.8
216.341	152.91
216.559	75.09
216.778	159.06
216.996	128.34
217.214	-8.87
217.432	11.61
217.651	-45.74
217.869	9.56
218.087	38.23
218.306	-103.08
218.524	54.61
218.742	46.42
218.96	79.19
219.179	5.46
219.397	1.37
219.615	263.51
219.833	159.06
220.051	-8.87
220.27	128.34
220.488	118.1
220.706	126.29
220.924	-17.07
221.142	52.56
221.36	54.61
221.578	140.63
221.796	-0.68
222.015	3.41
222.233	91.48
222.451	171.35
222.669	-43.69
222.887	193.87
223.105	34.13
223.323	118.1
223.541	-39.59
223.759	103.76
223.977	105.81
224.195	146.77
224.413	144.72
224.631	46.42
224.849	27.99
225.067	189.78
225.285	-2.73
225.503	19.8
225.721	-62.12
225.939	38.23
226.157	116.05
226.375	177.49
226.592	89.43
226.81	32.08
227.028	159.06
227.246	120.15
227.464	77.14
227.682	132.44
227.9	56.66
228.117	105.81
228.335	159.06
228.553	138.58
228.771	64.85
228.989	-8.87
229.206	144.72
229.424	-33.45
229.642	15.7
229.86	-2.73
230.077	169.3
230.295	68.95
230.513	134.48
230.731	154.96
230.948	210.26
231.166	240.98
231.384	7.51
231.601	48.47
231.819	163.15
232.037	40.28
232.254	-27.31
232.472	46.42
232.689	-47.79
232.907	122.2
233.125	1.37
233.342	-113.32
233.56	66.9
233.777	13.65
233.995	50.52
234.213	81.24
234.43	85.33
234.648	75.09
234.865	9.56
235.083	66.9
235.3	62.8
235.518	161.11
235.735	177.49
235.953	89.43
236.17	91.48
236.388	1.37
236.605	30.04
236.822	103.76
237.04	138.58
237.257	50.52
237.475	-17.07
237.692	87.38
237.909	181.59
238.127	60.76
238.344	114
238.562	68.95
238.779	21.85
238.996	32.08
239.214	15.7
239.431	97.62
239.648	-0.68
239.865	77.14
240.083	111.96
240.3	15.7
240.517	5.46
240.735	52.56
240.952	173.39
241.169	36.18
241.386	138.58
241.603	58.71
241.821	54.61
242.038	62.8
242.255	120.15
242.472	9.56
242.689	118.1
242.907	50.52
243.124	42.32
243.341	64.85
243.558	56.66
243.775	1.37
243.992	-2.73
244.209	197.97
244.426	232.79
244.643	128.34
244.86	9.56
245.078	89.43
245.295	60.76
245.512	116.05
245.729	23.89
245.946	40.28
246.163	32.08
246.38	122.2
246.597	7.51
246.814	85.33
247.031	58.71
247.248	73.04
247.464	34.13
247.681	50.52
247.898	46.42
248.115	40.28
248.332	-53.93
248.549	152.91
248.766	187.73
248.983	89.43
249.2	140.63
249.417	122.2
249.633	36.18
249.85	132.44
250.067	93.52
250.284	50.52
250.501	25.94
250.717	93.52
250.934	-68.27
251.151	62.8
251.368	3.41
251.585	91.48
251.801	25.94
252.018	52.56
252.235	91.48
252.451	30.04
252.668	58.71
252.885	134.48
253.102	73.04
253.318	77.14
253.535	68.95
253.752	-8.87
253.968	-25.26
254.185	-23.21
254.401	107.86
254.618	111.96
254.835	-55.98
255.051	144.72
255.268	64.85
255.484	58.71
255.701	25.94
255.917	95.57
256.134	5.46
256.351	83.28
256.567	-17.07
256.784	105.81
257	-55.98
257.217	122.2
257.433	101.72
257.65	-6.83
257.866	81.24
258.082	-37.55
258.299	-8.87
258.515	58.71
258.732	27.99
258.948	-35.5
259.165	93.52
259.381	-15.02
259.597	103.76
259.814	52.56
260.03	52.56
260.246	91.48
260.463	109.91
260.679	154.96
260.895	50.52
261.112	114
261.328	46.42
261.544	-10.92
261.761	210.26
261.977	1.37
262.193	-41.64
262.409	140.63
262.626	114
262.842	66.9
263.058	-6.83
263.274	116.05
263.49	30.04
263.707	118.1
263.923	146.77
264.139	44.37
264.355	83.28
264.571	128.34
264.787	134.48
265.004	228.69
265.22	36.18
265.436	15.7
265.652	1.37
265.868	44.37
266.084	-29.35
266.3	79.19
266.516	-21.16
266.732	87.38
266.948	32.08
267.164	7.51
267.38	157.01
267.596	42.32
267.812	140.63
268.028	75.09
268.244	1.37
268.46	40.28
268.676	58.71
268.892	3.41
269.108	-27.31
269.324	36.18
269.54	-29.35
269.756	107.86
269.972	-35.5
270.188	32.08
270.403	-84.65
270.619	58.71
270.835	79.19
271.051	99.67
271.267	5.46
271.483	21.85
271.698	75.09
271.914	64.85
272.13	44.37
272.346	40.28
272.562	21.85
272.777	165.2
272.993	83.28
273.209	87.38
273.425	148.82
273.64	32.08
273.856	75.09
274.072	7.51
274.287	-19.11
274.503	128.34
274.719	77.14
274.934	-45.74
275.15	-78.51
275.366	73.04
275.581	9.56
275.797	66.9
276.012	34.13
276.228	32.08
276.444	30.04
276.659	130.39
276.875	-8.87
277.09	44.37
277.306	11.61
277.521	99.67
277.737	73.04
277.952	71
278.168	44.37
278.383	71
278.599	79.19
278.814	73.04
279.03	23.89
279.245	144.72
279.461	97.62
279.676	136.53
279.892	-27.31
280.107	34.13
280.322	-15.02
280.538	126.29
280.753	-23.21
280.969	193.87
281.184	122.2
281.399	171.35
281.615	91.48
281.83	54.61
282.045	-19.11
282.26	46.42
282.476	19.8
282.691	34.13
282.906	150.87
283.122	150.87
283.337	66.9
283.552	66.9
283.767	34.13
283.983	66.9
284.198	52.56
284.413	42.32
284.628	21.85
284.843	71
285.058	79.19
285.274	-0.68
285.489	3.41
285.704	75.09
285.919	79.19
286.134	5.46
286.349	46.42
286.564	68.95
286.779	161.11
286.995	7.51
287.21	19.8
287.425	105.81
287.64	34.13
287.855	114
288.07	9.56
288.285	89.43
288.5	150.87
288.715	116.05
288.93	71
289.145	5.46
289.36	48.47
289.575	64.85
289.79	134.48
290.004	1.37
290.219	101.72
290.434	126.29
290.649	38.23
290.864	38.23
291.079	13.65
291.294	68.95
291.509	48.47
291.724	-8.87
291.938	62.8
292.153	75.09
292.368	87.38
292.583	89.43
292.798	73.04
293.012	46.42
293.227	27.99
293.442	56.66
293.657	23.89
293.871	91.48
294.086	75.09
294.301	228.69
294.516	114
294.73	68.95
294.945	-53.93
295.16	44.37
295.374	144.72
295.589	105.81
295.804	13.65
296.018	120.15
296.233	134.48
296.447	56.66
296.662	75.09
296.877	187.73
297.091	79.19
297.306	95.57
297.52	32.08
297.735	126.29
297.949	103.76
298.164	52.56
298.378	89.43
298.593	19.8
298.807	44.37
299.022	103.76
299.236	161.11
299.451	32.08
299.665	21.85
299.88	83.28
300.094	48.47
300.309	3.41
300.523	44.37
300.737	-58.03
300.952	7.51
301.166	60.76
301.381	48.47
301.595	36.18
301.809	107.86
302.024	-8.87
302.238	-55.98
302.452	136.53
302.667	89.43
302.881	103.76
303.095	111.96
303.309	89.43
303.524	68.95
303.738	56.66
303.952	-2.73
304.166	52.56
304.381	-109.23
304.595	144.72
304.809	56.66
305.023	52.56
305.237	9.56
305.452	111.96
305.666	107.86
305.88	36.18
306.094	161.11
306.308	58.71
306.522	62.8
306.736	95.57
306.95	93.52
307.164	73.04
307.379	154.96
307.593	208.21
307.807	161.11
308.021	71
308.235	77.14
308.449	52.56
308.663	42.32
308.877	197.97
309.091	77.14
309.305	81.24
309.519	-10.92
309.733	128.34
309.947	5.46
310.161	85.33
310.374	124.24
310.588	118.1
310.802	32.08
311.016	-41.64
311.23	103.76
311.444	17.75
311.658	58.71
311.872	169.3
312.085	103.76
312.299	216.4
312.513	105.81
312.727	73.04
312.941	-15.02
313.154	32.08
313.368	50.52
313.582	103.76
313.796	15.7
314.009	52.56
314.223	150.87
314.437	71
314.651	111.96
314.864	-19.11
315.078	85.33
315.292	-43.69
315.505	81.24
315.719	93.52
315.933	93.52
316.146	79.19
316.36	13.65
316.573	99.67
316.787	154.96
317.001	99.67
317.214	-39.59
317.428	58.71
317.641	15.7
317.855	50.52
318.068	95.57
318.282	144.72
318.495	161.11
318.709	109.91
318.922	114
319.136	95.57
319.349	62.8
319.563	-41.64
319.776	11.61
319.99	-15.02
320.203	87.38
320.417	46.42
320.63	68.95
320.843	226.64
321.057	42.32
321.27	44.37
321.483	177.49
321.697	161.11
321.91	87.38
322.124	118.1
322.337	161.11
322.55	93.52
322.763	62.8
322.977	1.37
323.19	38.23
323.403	77.14
323.617	107.86
323.83	120.15
324.043	17.75
324.256	48.47
324.469	54.61
324.683	77.14
324.896	7.51
325.109	52.56
325.322	-68.27
325.535	40.28
325.748	189.78
325.962	89.43
326.175	116.05
326.388	109.91
326.601	126.29
326.814	66.9
327.027	73.04
327.24	161.11
327.453	-19.11
327.666	105.81
327.879	193.87
328.092	36.18
328.305	79.19
328.518	44.37
328.731	62.8
328.944	46.42
329.157	132.44
329.37	-55.98
329.583	167.25
329.796	193.87
330.009	-29.35
330.222	54.61
330.435	128.34
330.648	46.42
330.861	93.52
331.073	73.04
331.286	154.96
331.499	79.19
331.712	30.04
331.925	30.04
332.138	23.89
332.35	68.95
332.563	25.94
332.776	107.86
332.989	-49.83
333.202	5.46
333.414	5.46
333.627	54.61
333.84	11.61
334.053	77.14
334.265	-23.21
334.478	54.61
334.691	105.81
334.903	56.66
335.116	27.99
335.329	30.04
335.541	107.86
335.754	161.11
335.966	5.46
336.179	5.46
336.392	58.71
336.604	-8.87
336.817	144.72
337.029	105.81
337.242	95.57
337.454	99.67
337.667	38.23
337.88	169.3
338.092	95.57
338.305	126.29
338.517	-0.68
338.729	40.28
338.942	122.2
339.154	-29.35
339.367	-15.02
339.579	101.72
339.792	13.65
340.004	138.58
340.217	73.04
340.429	66.9
340.641	-45.74
340.854	-25.26
341.066	21.85
341.278	136.53
341.491	130.39
341.703	27.99
341.915	-15.02
342.128	97.62
342.34	9.56
342.552	-33.45
342.764	101.72
342.977	30.04
343.189	56.66
343.401	120.15
343.613	-45.74
343.826	11.61
344.038	-10.92
344.25	3.41
344.462	34.13
344.674	105.81
344.886	46.42
345.099	58.71
345.311	97.62
345.523	95.57
345.735	-62.12
345.947	23.89
346.159	85.33
346.371	46.42
346.583	42.32
346.795	234.83
347.007	30.04
347.219	111.96
347.431	75.09
347.643	83.28
347.855	66.9
348.067	191.83
348.279	50.52
348.491	116.05
348.703	50.52
348.915	169.3
349.127	75.09
349.339	-17.07
349.551	-27.31
349.763	126.29
349.975	32.08
350.187	130.39
350.399	120.15
350.61	95.57
350.822	46.42
351.034	120.15
351.246	27.99
351.458	93.52
351.669	68.95
351.881	114
352.093	163.15
352.305	140.63
352.517	23.89
352.728	204.11
352.94	107.86
353.152	27.99
353.363	3.41
353.575	56.66
353.787	218.45
353.999	138.58
354.21	175.44
354.422	-27.31
354.633	23.89
354.845	116.05
355.057	19.8
355.268	64.85
355.48	157.01
355.692	-37.55
355.903	130.39
356.115	-49.83
356.326	23.89
356.538	101.72
356.749	95.57
356.961	273.75
357.172	91.48
357.384	23.89
357.595	216.4
357.807	75.09
358.018	-39.59
358.23	58.71
358.441	208.21
358.653	73.04
358.864	73.04
359.075	-6.83
359.287	79.19
359.498	85.33
359.709	138.58
359.921	107.86
360.132	101.72
360.344	120.15
360.555	68.95
360.766	-2.73
360.977	101.72
361.189	126.29
361.4	60.76
361.611	159.06
361.823	257.36
362.034	66.9
362.245	36.18
362.456	77.14
362.667	116.05
362.879	48.47
363.09	87.38
363.301	73.04
363.512	71
363.723	60.76
363.935	-4.78
364.146	103.76
364.357	75.09
364.568	132.44
364.779	-92.84
364.99	157.01
365.201	9.56
365.412	154.96
365.623	-33.45
365.834	68.95
366.045	58.71
366.256	54.61
366.467	66.9
366.678	144.72
366.889	48.47
367.1	-33.45
367.311	95.57
367.522	36.18
367.733	97.62
367.944	173.39
368.155	71
368.366	144.72
368.577	44.37
368.788	122.2
368.999	11.61
369.209	87.38
369.42	161.11
369.631	281.94
369.842	116.05
370.053	54.61
370.264	124.24
370.474	32.08
370.685	132.44
370.896	75.09
371.107	132.44
371.317	128.34
371.528	-41.64
371.739	148.82
371.95	128.34
372.16	50.52
372.371	-43.69
372.582	32.08
372.792	77.14
373.003	85.33
373.214	60.76
373.424	159.06
373.635	-39.59
373.846	169.3
374.056	73.04
374.267	58.71
374.477	120.15
374.688	5.46
374.898	103.76
375.109	140.63
375.319	-10.92
375.53	77.14
375.74	157.01
375.951	15.7
376.161	87.38
376.372	120.15
376.582	27.99
376.793	73.04
377.003	52.56
377.214	42.32
377.424	200.02
377.635	62.8
377.845	60.76
378.055	175.44
378.266	11.61
378.476	56.66
378.686	44.37
378.897	66.9
379.107	101.72
379.317	81.24
379.528	5.46
379.738	71
379.948	-64.17
380.158	134.48
380.369	40.28
380.579	111.96
380.789	54.61
380.999	191.83
381.21	163.15
381.42	259.41
381.63	42.32
381.84	77.14
382.05	99.67
382.261	138.58
382.471	128.34
382.681	-8.87
382.891	163.15
383.101	62.8
383.311	7.51
383.521	36.18
383.731	107.86
383.941	75.09
384.151	71
384.361	83.28
384.571	25.94
384.781	134.48
384.991	142.68
385.201	177.49
385.411	134.48
385.621	68.95
385.831	189.78
386.041	21.85
386.251	95.57
386.461	165.2
386.671	68.95
386.881	77.14
387.091	-10.92
387.301	132.44
387.511	64.85
387.72	179.54
387.93	73.04
388.14	19.8
388.35	116.05
388.56	163.15
388.769	97.62
388.979	64.85
389.189	11.61
389.399	64.85
389.609	54.61
389.818	118.1
390.028	56.66
390.238	52.56
390.447	48.47
390.657	173.39
390.867	95.57
391.076	-135.85
391.286	140.63
391.496	52.56
391.705	77.14
391.915	105.81
392.125	77.14
392.334	-4.78
392.544	185.68
392.753	111.96
392.963	-21.16
393.172	32.08
393.382	40.28
393.591	195.92
393.801	-10.92
394.01	210.26
394.22	111.96
394.429	15.7
394.639	19.8
394.848	71
395.058	83.28
395.267	13.65
395.477	81.24
395.686	124.24
395.895	247.12
396.105	183.63
396.314	107.86
396.524	15.7
396.733	30.04
396.942	79.19
397.152	118.1
397.361	126.29
397.57	97.62
397.78	27.99
397.989	163.15
398.198	269.65
398.407	52.56
398.617	3.41
398.826	36.18
399.035	40.28
399.244	179.54
399.453	1.37
399.663	111.96
399.872	152.91
400.081	-86.7
400.29	150.87
400.499	-8.87
400.708	185.68
400.917	87.38
401.127	27.99
401.336	-41.64
401.545	146.77
401.754	101.72
401.963	114
402.172	42.32
402.381	21.85
402.59	93.52
402.799	27.99
403.008	132.44
403.217	130.39
403.426	130.39
403.635	-51.88
403.844	73.04
404.053	52.56
404.262	27.99
404.471	218.45
404.68	132.44
404.888	103.76
405.097	85.33
405.306	75.09
405.515	66.9
405.724	93.52
405.933	150.87
406.142	48.47
406.35	118.1
406.559	77.14
406.768	58.71
406.977	212.31
407.185	75.09
407.394	124.24
407.603	9.56
407.812	105.81
408.02	185.68
408.229	77.14
408.438	105.81
408.646	-4.78
408.855	95.57
409.064	75.09
409.272	87.38
409.481	150.87
409.69	-60.07
409.898	9.56
410.107	134.48
410.315	95.57
410.524	3.41
410.733	118.1
410.941	-2.73
411.15	97.62
411.358	150.87
411.567	142.68
411.775	128.34
411.984	128.34
412.192	81.24
412.401	38.23
412.609	294.22
412.818	202.07
413.026	134.48
413.234	36.18
413.443	111.96
413.651	7.51
413.86	146.77
414.068	171.35
414.276	179.54
414.485	-8.87
414.693	132.44
414.901	216.4
415.11	85.33
415.318	25.94
415.526	50.52
415.734	165.2
415.943	60.76
416.151	138.58
416.359	97.62
416.567	93.52
416.776	75.09
416.984	103.76
417.192	167.25
417.4	52.56
417.608	46.42
417.817	-37.55
418.025	165.2
418.233	189.78
418.441	56.66
418.649	25.94
418.857	89.43
419.065	175.44
419.273	17.75
419.481	36.18
419.689	52.56
419.897	38.23
420.105	-29.35
420.313	202.07
420.521	146.77
420.729	157.01
420.937	46.42
421.145	38.23
421.353	152.91
421.561	243.03
421.769	75.09
421.977	73.04
422.185	122.2
422.393	77.14
422.601	228.69
422.809	144.72
423.017	148.82
423.224	95.57
423.432	218.45
423.64	87.38
423.848	95.57
424.056	-10.92
424.263	52.56
424.471	95.57
424.679	148.82
424.887	-0.68
425.094	154.96
425.302	91.48
425.51	58.71
425.718	159.06
425.925	77.14
426.133	-58.03
426.341	181.59
426.548	9.56
426.756	95.57
426.964	118.1
427.171	97.62
427.379	118.1
427.586	126.29
427.794	218.45
428.001	134.48
428.209	140.63
428.417	234.83
428.624	157.01
428.832	173.39
429.039	150.87
429.247	105.81
429.454	126.29
429.662	263.51
429.869	116.05
430.076	130.39
430.284	140.63
430.491	157.01
430.699	216.4
430.906	208.21
431.114	187.73
431.321	95.57
431.528	175.44
431.736	146.77
431.943	249.17
432.15	232.79
432.358	214.35
432.565	290.13
432.772	54.61
432.979	279.89
433.187	212.31
433.394	310.61
433.601	167.25
433.808	193.87
434.016	279.89
434.223	263.51
434.43	306.51
434.637	275.79
434.844	331.09
435.052	269.65
435.259	335.18
435.466	333.14
435.673	257.36
435.88	275.79
436.087	361.81
436.294	392.53
436.501	300.37
436.708	329.04
436.915	308.56
437.122	384.34
437.329	271.7
437.537	384.34
437.743	451.92
437.95	492.88
438.157	480.59
438.364	402.77
438.571	470.35
438.778	447.82
438.985	587.08
439.192	533.84
439.399	490.83
439.606	499.02
439.813	599.37
440.02	722.25
440.227	724.3
440.433	646.48
440.64	607.56
440.847	488.78
441.054	580.94
441.261	785.74
441.467	734.54
441.674	675.15
441.881	695.63
442.088	777.55
442.294	830.79
442.501	873.8
442.708	900.42
442.914	910.66
443.121	963.91
443.328	1033.54
443.534	1068.36
443.741	1101.12
443.948	884.04
444.154	1168.71
444.361	1242.43
444.568	1115.46
444.774	1346.88
444.981	1092.93
445.187	1365.31
445.394	1338.69
445.6	1398.08
445.807	1510.72
446.013	1428.8
446.22	1350.98
446.426	1639.74
446.633	1582.4
446.839	1789.24
447.046	1654.08
447.252	1838.39
447.459	1908.02
447.665	1836.35
447.871	2125.11
448.078	2129.2
448.284	2231.6
448.491	2301.23
448.697	2411.82
448.903	2510.13
449.11	2506.03
449.316	2530.61
449.522	2790.7
449.728	2698.54
449.935	2891.05
450.141	2805.03
450.347	3065.13
450.553	3085.61
450.76	3147.05
450.966	3409.19
451.172	3448.1
451.378	3525.92
451.584	3691.81
451.791	3878.17
451.997	4017.43
452.203	4107.54
452.409	4240.66
452.615	4279.57
452.821	4281.62
453.027	4435.22
453.233	4900.11
453.44	4934.92
453.646	5121.29
453.852	5289.22
454.058	5506.31
454.264	5782.78
454.47	6094.07
454.676	6110.46
454.882	6583.54
455.088	6411.51
455.294	6655.22
455.5	7240.93
455.705	7337.19
455.911	7324.9
456.117	7609.57
456.323	7898.33
456.529	7718.11
456.735	8651.99
456.941	8901.84
457.147	9178.31
457.352	9567.43
457.558	9739.46
457.764	10263.74
457.97	10585.27
458.176	10833.07
458.381	11381.93
458.587	11998.37
458.793	12192.92
458.999	12293.27
459.204	14046.33
459.41	14326.91
459.616	14259.32
459.821	14941.3
460.027	15811.68
460.233	16512.09
460.438	16575.58
460.644	17550.41
460.85	17654.86
461.055	17951.81
461.261	19176.5
461.466	18881.59
461.672	18902.07
461.878	21611.53
462.083	21290
462.289	21619.72
462.494	22455.29
462.7	22602.75
462.905	22868.98
463.111	24722.4
463.316	25813.96
463.522	26422.21
463.727	27143.1
463.932	28418.98
464.138	29076.38
464.343	30364.55
464.549	30608.26
464.754	32752.48
464.959	33475.41
465.165	34388.81
465.37	33823.57
465.575	33954.64
465.781	36358.95
465.986	37274.4
466.191	36713.25
466.397	37151.52
466.602	36266.8
466.807	38431.5
467.012	38738.69
467.218	39535.35
467.423	39848.69
467.628	40725.22
467.833	42773.19
468.038	42101.46
468.244	41380.57
468.449	43098.82
468.654	42398.41
