Data from USB4F104151__128__10-46-24-257.txt Node

Date: Wed Feb 26 10:46:24 EST 2025
User: louis
Spectrometer: USB4F10415
Trigger mode: 4
Integration Time (sec): 1.000000E-1
Scans to average: 1
Electric dark correction enabled: true
Nonlinearity correction enabled: false
Boxcar width: 0
XAxis mode: Wavelengths
Number of Pixels in Spectrum: 3648
>>>>>Begin Spectral Data<<<<<
178.204	-342.18
178.424	-342.18
178.644	-342.18
178.864	-362.66
179.084	-372.9
179.304	-100.52
179.524	-20.65
179.744	69.46
179.964	-12.46
180.184	16.21
180.404	120.66
180.624	-45.23
180.844	-61.61
181.064	-147.62
181.283	36.69
181.503	83.8
181.723	61.27
181.943	-34.99
182.163	194.39
182.383	-24.75
182.602	77.65
182.822	171.86
183.042	53.08
183.262	8.02
183.482	20.31
183.701	87.89
183.921	38.74
184.141	-12.46
184.361	61.27
184.58	77.65
184.8	36.69
185.02	-63.66
185.239	110.42
185.459	32.6
185.679	75.6
185.898	-92.33
186.118	44.88
186.338	75.6
186.557	161.62
186.777	-39.08
186.997	61.27
187.216	3.93
187.436	159.57
187.655	124.76
187.875	-12.46
188.095	67.41
188.314	100.18
188.534	214.87
188.753	-24.75
188.973	116.56
189.192	196.43
189.412	77.65
189.631	83.8
189.851	112.47
190.07	206.67
190.29	-100.52
190.509	16.21
190.729	5.97
190.948	210.77
191.168	251.73
191.387	59.22
191.607	-10.41
191.826	32.6
192.045	-14.51
192.265	24.4
192.484	69.46
192.704	57.17
192.923	-98.47
193.142	128.85
193.362	147.28
193.581	137.04
193.8	36.69
194.02	98.13
194.239	69.46
194.458	28.5
194.678	34.64
194.897	53.08
195.116	42.84
195.335	94.04
195.555	116.56
195.774	-28.84
195.993	182.1
196.212	-8.36
196.432	-6.31
196.651	-24.75
196.87	5.97
197.089	208.72
197.308	63.32
197.528	96.08
197.747	-32.94
197.966	36.69
198.185	132.95
198.404	-61.61
198.623	124.76
198.842	169.81
199.062	128.85
199.281	169.81
199.5	73.56
199.719	145.24
199.938	38.74
200.157	110.42
200.376	116.56
200.595	116.56
200.814	94.04
201.033	-26.79
201.252	161.62
201.471	38.74
201.69	87.89
201.909	3.93
202.128	126.8
202.347	69.46
202.566	-4.27
202.785	-80.04
203.004	10.07
203.223	208.72
203.442	71.51
203.661	3.93
203.879	3.93
204.098	67.41
204.317	-84.14
204.536	108.37
204.755	114.52
204.974	212.82
205.193	24.4
205.411	147.28
205.63	42.84
205.849	81.75
206.068	16.21
206.287	-47.27
206.505	186.19
206.724	-4.27
206.943	-18.6
207.162	-39.08
207.381	-6.31
207.599	12.12
207.818	75.6
208.037	28.5
208.255	59.22
208.474	30.55
208.693	22.36
208.911	44.88
209.13	48.98
209.349	87.89
209.567	59.22
209.786	106.32
210.005	153.43
210.223	44.88
210.442	-186.54
210.661	-18.6
210.879	104.28
211.098	-18.6
211.316	71.51
211.535	135
211.753	77.65
211.972	98.13
212.191	20.31
212.409	-34.99
212.628	44.88
212.846	14.17
213.065	8.02
213.283	132.95
213.502	61.27
213.72	22.36
213.938	-16.55
214.157	96.08
214.375	91.99
214.594	-32.94
214.812	34.64
215.031	40.79
215.249	55.12
215.467	91.99
215.686	-28.84
215.904	89.94
216.122	91.99
216.341	87.89
216.559	36.69
216.778	108.37
216.996	89.94
217.214	24.4
217.432	-18.6
217.651	-71.85
217.869	53.08
218.087	-18.6
218.306	55.12
218.524	20.31
218.742	-4.27
218.96	67.41
219.179	-4.27
219.397	-61.61
219.615	130.9
219.833	87.89
220.051	-24.75
220.27	126.8
220.488	94.04
220.706	44.88
220.924	-65.71
221.142	-12.46
221.36	100.18
221.578	98.13
221.796	34.64
222.015	-47.27
222.233	98.13
222.451	173.91
222.669	-28.84
222.887	-0.17
223.105	-69.8
223.323	44.88
223.541	-6.31
223.759	124.76
223.977	98.13
224.195	104.28
224.413	26.45
224.631	18.26
224.849	53.08
225.067	239.44
225.285	-28.84
225.503	-71.85
225.721	-141.48
225.939	48.98
226.157	98.13
226.375	194.39
226.592	48.98
226.81	55.12
227.028	130.9
227.246	122.71
227.464	-32.94
227.682	106.32
227.9	69.46
228.117	40.79
228.335	91.99
228.553	40.79
228.771	40.79
228.989	151.38
229.206	91.99
229.424	46.93
229.642	-6.31
229.86	-59.56
230.077	163.67
230.295	12.12
230.513	108.37
230.731	59.22
230.948	143.19
231.166	194.39
231.384	63.32
231.601	18.26
231.819	173.91
232.037	48.98
232.254	-18.6
232.472	3.93
232.689	-2.22
232.907	143.19
233.125	18.26
233.342	-63.66
233.56	8.02
233.777	5.97
233.995	42.84
234.213	69.46
234.43	12.12
234.648	44.88
234.865	-45.23
235.083	44.88
235.3	-37.03
235.518	59.22
235.735	139.09
235.953	73.56
236.17	77.65
236.388	73.56
236.605	94.04
236.822	48.98
237.04	73.56
237.257	87.89
237.475	26.45
237.692	112.47
237.909	153.43
238.127	48.98
238.344	77.65
238.562	38.74
238.779	-108.71
238.996	14.17
239.214	18.26
239.431	89.94
239.648	-18.6
239.865	130.9
240.083	135
240.3	-28.84
240.517	12.12
240.735	44.88
240.952	130.9
241.169	73.56
241.386	69.46
241.603	14.17
241.821	42.84
242.038	94.04
242.255	149.33
242.472	-28.84
242.689	89.94
242.907	67.41
243.124	16.21
243.341	-26.79
243.558	16.21
243.775	-59.56
243.992	-22.7
244.209	53.08
244.426	126.8
244.643	71.51
244.86	-20.65
245.078	137.04
245.295	106.32
245.512	34.64
245.729	-61.61
245.946	63.32
246.163	40.79
246.38	40.79
246.597	81.75
246.814	114.52
247.031	55.12
247.248	55.12
247.464	77.65
247.681	-6.31
247.898	53.08
248.115	73.56
248.332	-0.17
248.549	143.19
248.766	159.57
248.983	100.18
249.2	34.64
249.417	106.32
249.633	-30.89
249.85	124.76
250.067	-22.7
250.284	-18.6
250.501	40.79
250.717	8.02
250.934	-34.99
251.151	-32.94
251.368	44.88
251.585	75.6
251.801	53.08
252.018	-34.99
252.235	108.37
252.451	-22.7
252.668	8.02
252.885	63.32
253.102	98.13
253.318	46.93
253.535	-22.7
253.752	24.4
253.968	-28.84
254.185	-16.55
254.401	44.88
254.618	28.5
254.835	-16.55
255.051	130.9
255.268	51.03
255.484	71.51
255.701	-28.84
255.917	3.93
256.134	36.69
256.351	-49.32
256.567	-55.47
256.784	87.89
257	-86.19
257.217	-2.22
257.433	42.84
257.65	71.51
257.866	151.38
258.082	14.17
258.299	30.55
258.515	73.56
258.732	48.98
258.948	53.08
259.165	63.32
259.381	51.03
259.597	79.7
259.814	-6.31
260.03	14.17
260.246	44.88
260.463	155.47
260.679	104.28
260.895	79.7
261.112	81.75
261.328	-26.79
261.544	32.6
261.761	182.1
261.977	-51.37
262.193	-125.1
262.409	91.99
262.626	18.26
262.842	61.27
263.058	-43.18
263.274	159.57
263.49	73.56
263.707	1.88
263.923	65.36
264.139	36.69
264.355	85.84
264.571	87.89
264.787	53.08
265.004	94.04
265.22	22.36
265.436	-10.41
265.652	-12.46
265.868	34.64
266.084	-24.75
266.3	28.5
266.516	-88.23
266.732	91.99
266.948	51.03
267.164	63.32
267.38	147.28
267.596	53.08
267.812	194.39
268.028	3.93
268.244	1.88
268.46	22.36
268.676	-2.22
268.892	44.88
269.108	-6.31
269.324	26.45
269.54	-8.36
269.756	184.15
269.972	-24.75
270.188	38.74
270.403	-45.23
270.619	34.64
270.835	55.12
271.051	67.41
271.267	102.23
271.483	16.21
271.698	108.37
271.914	85.84
272.13	-24.75
272.346	71.51
272.562	51.03
272.777	159.57
272.993	44.88
273.209	-102.57
273.425	59.22
273.64	-20.65
273.856	137.04
274.072	14.17
274.287	-10.41
274.503	-4.27
274.719	55.12
274.934	-51.37
275.15	-69.8
275.366	73.56
275.581	-2.22
275.797	61.27
276.012	55.12
276.228	-0.17
276.444	42.84
276.659	122.71
276.875	-20.65
277.09	28.5
277.306	-8.36
277.521	87.89
277.737	89.94
277.952	83.8
278.168	14.17
278.383	61.27
278.599	10.07
278.814	96.08
279.03	-18.6
279.245	118.61
279.461	55.12
279.676	98.13
279.892	-30.89
280.107	38.74
280.322	40.79
280.538	96.08
280.753	32.6
280.969	16.21
281.184	-30.89
281.399	184.15
281.615	20.31
281.83	53.08
282.045	-18.6
282.26	-102.57
282.476	3.93
282.691	126.8
282.906	100.18
283.122	10.07
283.337	-34.99
283.552	157.52
283.767	30.55
283.983	32.6
284.198	-24.75
284.413	116.56
284.628	10.07
284.843	98.13
285.058	87.89
285.274	20.31
285.489	-53.42
285.704	48.98
285.919	-65.71
286.134	-6.31
286.349	-32.94
286.564	12.12
286.779	225.11
286.995	46.93
287.21	-53.42
287.425	38.74
287.64	-20.65
287.855	-4.27
288.07	-8.36
288.285	114.52
288.5	120.66
288.715	46.93
288.93	26.45
289.145	-51.37
289.36	65.36
289.575	53.08
289.79	114.52
290.004	3.93
290.219	44.88
290.434	-12.46
290.649	32.6
290.864	-30.89
291.079	34.64
291.294	53.08
291.509	85.84
291.724	24.4
291.938	30.55
292.153	34.64
292.368	-22.7
292.583	110.42
292.798	55.12
293.012	69.46
293.227	44.88
293.442	-26.79
293.657	65.36
293.871	65.36
294.086	65.36
294.301	98.13
294.516	132.95
294.73	12.12
294.945	-6.31
295.16	46.93
295.374	161.62
295.589	48.98
295.804	-39.08
296.018	-4.27
296.233	83.8
296.447	81.75
296.662	-100.52
296.877	73.56
297.091	139.09
297.306	-47.27
297.52	81.75
297.735	120.66
297.949	38.74
298.164	55.12
298.378	135
298.593	12.12
298.807	-39.08
299.022	-20.65
299.236	116.56
299.451	1.88
299.665	-26.79
299.88	22.36
300.094	34.64
300.309	-2.22
300.523	77.65
300.737	28.5
300.952	81.75
301.166	46.93
301.381	-55.47
301.595	44.88
301.809	65.36
302.024	18.26
302.238	-0.17
302.452	137.04
302.667	48.98
302.881	175.95
303.095	108.37
303.309	100.18
303.524	-73.9
303.738	44.88
303.952	48.98
304.166	77.65
304.381	-53.42
304.595	130.9
304.809	-57.51
305.023	24.4
305.237	34.64
305.452	-18.6
305.666	91.99
305.88	79.7
306.094	59.22
306.308	165.71
306.522	30.55
306.736	61.27
306.95	53.08
307.164	-24.75
307.379	44.88
307.593	128.85
307.807	182.1
308.021	130.9
308.235	118.61
308.449	-67.75
308.663	48.98
308.877	225.11
309.091	71.51
309.305	42.84
309.519	-67.75
309.733	67.41
309.947	-67.75
310.161	128.85
310.374	112.47
310.588	157.52
310.802	-98.47
311.016	-39.08
311.23	38.74
311.444	-59.56
311.658	46.93
311.872	98.13
312.085	130.9
312.299	163.67
312.513	-18.6
312.727	94.04
312.941	30.55
313.154	112.47
313.368	28.5
313.582	51.03
313.796	48.98
314.009	89.94
314.223	59.22
314.437	94.04
314.651	63.32
314.864	10.07
315.078	38.74
315.292	-116.9
315.505	-26.79
315.719	-2.22
315.933	71.51
316.146	32.6
316.36	-98.47
316.573	165.71
316.787	65.36
317.001	91.99
317.214	-32.94
317.428	48.98
317.641	-45.23
317.855	71.51
318.068	100.18
318.282	44.88
318.495	190.29
318.709	120.66
318.922	75.6
319.136	102.23
319.349	83.8
319.563	-22.7
319.776	110.42
319.99	8.02
320.203	190.29
320.417	-41.13
320.63	141.14
320.843	94.04
321.057	175.95
321.27	-12.46
321.483	12.12
321.697	57.17
321.91	67.41
322.124	28.5
322.337	42.84
322.55	-55.47
322.763	40.79
322.977	10.07
323.19	-22.7
323.403	71.51
323.617	-4.27
323.83	102.23
324.043	-4.27
324.256	12.12
324.469	-71.85
324.683	139.09
324.896	-6.31
325.109	81.75
325.322	-77.99
325.535	118.61
325.748	46.93
325.962	10.07
326.175	57.17
326.388	-30.89
326.601	124.76
326.814	112.47
327.027	24.4
327.24	85.84
327.453	-14.51
327.666	61.27
327.879	108.37
328.092	94.04
328.305	104.28
328.518	20.31
328.731	22.36
328.944	-37.03
329.157	116.56
329.37	1.88
329.583	153.43
329.796	153.43
330.009	-32.94
330.222	143.19
330.435	112.47
330.648	77.65
330.861	71.51
331.073	18.26
331.286	126.8
331.499	-8.36
331.712	16.21
331.925	30.55
332.138	73.56
332.35	65.36
332.563	48.98
332.776	132.95
332.989	8.02
333.202	36.69
333.414	102.23
333.627	-32.94
333.84	-14.51
334.053	75.6
334.265	5.97
334.478	-4.27
334.691	36.69
334.903	59.22
335.116	12.12
335.329	51.03
335.541	61.27
335.754	184.15
335.966	-4.27
336.179	-67.75
336.392	32.6
336.604	1.88
336.817	126.8
337.029	98.13
337.242	100.18
337.454	83.8
337.667	55.12
337.88	112.47
338.092	65.36
338.305	124.76
338.517	34.64
338.729	38.74
338.942	169.81
339.154	-14.51
339.367	-10.41
339.579	126.8
339.792	-12.46
340.004	81.75
340.217	65.36
340.429	26.45
340.641	-34.99
340.854	-8.36
341.066	30.55
341.278	155.47
341.491	198.48
341.703	40.79
341.915	-30.89
342.128	48.98
342.34	120.66
342.552	-8.36
342.764	-4.27
342.977	18.26
343.189	87.89
343.401	55.12
343.613	-43.18
343.826	96.08
344.038	5.97
344.25	20.31
344.462	28.5
344.674	44.88
344.886	32.6
345.099	130.9
345.311	96.08
345.523	-49.32
345.735	-110.76
345.947	12.12
346.159	36.69
346.371	96.08
346.583	51.03
346.795	118.61
347.007	26.45
347.219	40.79
347.431	8.02
347.643	83.8
347.855	10.07
348.067	55.12
348.279	-53.42
348.491	83.8
348.703	87.89
348.915	-43.18
349.127	-16.55
349.339	137.04
349.551	-16.55
349.763	75.6
349.975	67.41
350.187	55.12
350.399	139.09
350.61	57.17
350.822	12.12
351.034	44.88
351.246	36.69
351.458	85.84
351.669	1.88
351.881	91.99
352.093	128.85
352.305	44.88
352.517	-2.22
352.728	137.04
352.94	85.84
353.152	32.6
353.363	3.93
353.575	126.8
353.787	106.32
353.999	102.23
354.21	188.24
354.422	-45.23
354.633	61.27
354.845	69.46
355.057	85.84
355.268	1.88
355.48	124.76
355.692	-28.84
355.903	57.17
356.115	3.93
356.326	-69.8
356.538	155.47
356.749	116.56
356.961	94.04
357.172	-14.51
357.384	-26.79
357.595	241.49
357.807	59.22
358.018	22.36
358.23	30.55
358.441	153.43
358.653	126.8
358.864	-10.41
359.075	-12.46
359.287	59.22
359.498	145.24
359.709	130.9
359.921	57.17
360.132	91.99
360.344	73.56
360.555	-6.31
360.766	-18.6
360.977	53.08
361.189	108.37
361.4	-2.22
361.611	89.94
361.823	112.47
362.034	18.26
362.245	-61.61
362.456	51.03
362.667	143.19
362.879	-57.51
363.09	98.13
363.301	67.41
363.512	32.6
363.723	-30.89
363.935	-0.17
364.146	141.14
364.357	44.88
364.568	46.93
364.779	-26.79
364.99	96.08
365.201	22.36
365.412	135
365.623	38.74
365.834	132.95
366.045	67.41
366.256	104.28
366.467	55.12
366.678	30.55
366.889	44.88
367.1	-16.55
367.311	83.8
367.522	-2.22
367.733	85.84
367.944	63.32
368.155	34.64
368.366	145.24
368.577	149.33
368.788	73.56
368.999	32.6
369.209	28.5
369.42	196.43
369.631	169.81
369.842	100.18
370.053	-8.36
370.264	130.9
370.474	-57.51
370.685	14.17
370.896	28.5
371.107	141.14
371.317	61.27
371.528	-10.41
371.739	42.84
371.95	69.46
372.16	83.8
372.371	-55.47
372.582	-43.18
372.792	118.61
373.003	126.8
373.214	91.99
373.424	89.94
373.635	38.74
373.846	188.24
374.056	-2.22
374.267	65.36
374.477	32.6
374.688	-30.89
374.898	18.26
375.109	22.36
375.319	81.75
375.53	135
375.74	184.15
375.951	48.98
376.161	46.93
376.372	145.24
376.582	40.79
376.793	53.08
377.003	57.17
377.214	10.07
377.424	63.32
377.635	18.26
377.845	71.51
378.055	163.67
378.266	-75.95
378.476	18.26
378.686	75.6
378.897	71.51
379.107	153.43
379.317	85.84
379.528	-73.9
379.738	-8.36
379.948	-43.18
380.158	161.62
380.369	53.08
380.579	108.37
380.789	73.56
380.999	48.98
381.21	59.22
381.42	206.67
381.63	30.55
381.84	151.38
382.05	141.14
382.261	171.86
382.471	120.66
382.681	1.88
382.891	182.1
383.101	83.8
383.311	-6.31
383.521	-67.75
383.731	155.47
383.941	198.48
384.151	48.98
384.361	44.88
384.571	34.64
384.781	51.03
384.991	210.77
385.201	161.62
385.411	89.94
385.621	132.95
385.831	124.76
386.041	5.97
386.251	71.51
386.461	194.39
386.671	34.64
386.881	73.56
387.091	18.26
387.301	55.12
387.511	67.41
387.72	67.41
387.93	59.22
388.14	-96.43
388.35	61.27
388.56	161.62
388.769	161.62
388.979	55.12
389.189	-65.71
389.399	120.66
389.609	16.21
389.818	124.76
390.028	16.21
390.238	114.52
390.447	3.93
390.657	34.64
390.867	18.26
391.076	-18.6
391.286	67.41
391.496	71.51
391.705	110.42
391.915	104.28
392.125	65.36
392.334	-18.6
392.544	192.34
392.753	165.71
392.963	-28.84
393.172	53.08
393.382	10.07
393.591	198.48
393.801	22.36
394.01	175.95
394.22	65.36
394.429	130.9
394.639	18.26
394.848	112.47
395.058	73.56
395.267	-4.27
395.477	141.14
395.686	100.18
395.895	171.86
396.105	282.45
396.314	71.51
396.524	63.32
396.733	57.17
396.942	87.89
397.152	96.08
397.361	110.42
397.57	61.27
397.78	77.65
397.989	67.41
398.198	135
398.407	34.64
398.617	98.13
398.826	110.42
399.035	36.69
399.244	135
399.453	40.79
399.663	28.5
399.872	69.46
400.081	10.07
400.29	104.28
400.499	63.32
400.708	104.28
400.917	10.07
401.127	120.66
401.336	8.02
401.545	237.39
401.754	171.86
401.963	81.75
402.172	-22.7
402.381	-18.6
402.59	16.21
402.799	73.56
403.008	120.66
403.217	63.32
403.426	153.43
403.635	-45.23
403.844	22.36
404.053	36.69
404.262	48.98
404.471	159.57
404.68	-4.27
404.888	83.8
405.097	-6.31
405.306	46.93
405.515	159.57
405.724	65.36
405.933	83.8
406.142	24.4
406.35	130.9
406.559	40.79
406.768	3.93
406.977	98.13
407.185	110.42
407.394	81.75
407.603	-12.46
407.812	16.21
408.02	128.85
408.229	-20.65
408.438	67.41
408.646	-59.56
408.855	67.41
409.064	161.62
409.272	38.74
409.481	61.27
409.69	-34.99
409.898	34.64
410.107	108.37
410.315	165.71
410.524	12.12
410.733	98.13
410.941	3.93
411.15	167.76
411.358	30.55
411.567	159.57
411.775	65.36
411.984	44.88
412.192	149.33
412.401	65.36
412.609	128.85
412.818	159.57
413.026	12.12
413.234	26.45
413.443	34.64
413.651	-2.22
413.86	116.56
414.068	218.96
414.276	202.58
414.485	73.56
414.693	165.71
414.901	221.01
415.11	32.6
415.318	22.36
415.526	16.21
415.734	145.24
415.943	104.28
416.151	104.28
416.359	83.8
416.567	114.52
416.776	61.27
416.984	165.71
417.192	153.43
417.4	55.12
417.608	14.17
417.817	22.36
418.025	94.04
418.233	171.86
418.441	5.97
418.649	14.17
418.857	75.6
419.065	132.95
419.273	46.93
419.481	59.22
419.689	51.03
419.897	18.26
420.105	18.26
420.313	59.22
420.521	98.13
420.729	169.81
420.937	14.17
421.145	10.07
421.353	141.14
421.561	167.76
421.769	81.75
421.977	18.26
422.185	67.41
422.393	55.12
422.601	87.89
422.809	57.17
423.017	16.21
423.224	118.61
423.432	153.43
423.64	155.47
423.848	200.53
424.056	38.74
424.263	126.8
424.471	20.31
424.679	165.71
424.887	108.37
425.094	61.27
425.302	145.24
425.51	44.88
425.718	161.62
425.925	91.99
426.133	22.36
426.341	182.1
426.548	46.93
426.756	75.6
426.964	63.32
427.171	44.88
427.379	81.75
427.586	110.42
427.794	180.05
428.001	122.71
428.209	116.56
428.417	124.76
428.624	216.91
428.832	126.8
429.039	106.32
429.247	81.75
429.454	180.05
429.662	196.43
429.869	110.42
430.076	210.77
430.284	143.19
430.491	212.82
430.699	149.33
430.906	302.93
431.114	120.66
431.321	153.43
431.528	104.28
431.736	126.8
431.943	194.39
432.15	206.67
432.358	167.76
432.565	257.87
432.772	-32.94
432.979	169.81
433.187	106.32
433.394	139.09
433.601	98.13
433.808	208.72
434.016	239.44
434.223	173.91
434.43	132.95
434.637	208.72
434.844	288.59
435.052	243.54
435.259	249.68
435.466	241.49
435.673	327.5
435.88	366.42
436.087	347.98
436.294	325.46
436.501	292.69
436.708	300.88
436.915	413.52
437.122	319.31
437.329	249.68
437.537	388.94
437.743	317.26
437.95	511.82
438.157	388.94
438.364	321.36
438.571	401.23
438.778	384.85
438.985	354.13
439.192	450.38
439.399	563.02
439.606	382.8
439.813	560.97
440.02	597.84
440.227	714.57
440.433	579.4
440.64	511.82
440.847	575.31
441.054	470.86
441.261	730.95
441.467	634.7
441.674	587.6
441.881	722.76
442.088	636.75
442.294	743.24
442.501	843.59
442.708	749.39
442.914	796.49
443.121	743.24
443.328	798.54
443.534	849.74
443.741	827.21
443.948	819.02
444.154	1070.92
444.361	1195.84
444.568	1113.92
444.774	1077.06
444.981	968.52
445.187	1240.9
445.394	1197.89
445.6	1210.18
445.807	1339.2
446.013	1253.19
446.22	1357.63
446.426	1445.7
446.633	1384.26
446.839	1699.64
447.046	1455.94
447.252	1636.16
447.459	1609.53
447.665	1660.73
447.871	1769.27
448.078	2017.08
448.284	1935.16
448.491	1933.11
448.697	2058.04
448.903	2293.55
449.11	2268.98
449.316	2135.86
449.522	2449.2
449.728	2434.86
449.935	2641.71
450.141	2443.06
450.347	2764.59
450.553	2707.24
450.76	2869.03
450.966	2918.18
451.172	3036.97
451.378	3082.02
451.584	3254.05
451.791	3477.28
451.997	3524.38
452.203	3571.49
452.409	3710.75
452.615	4011.8
452.821	3835.67
453.027	3827.48
453.233	4503.31
453.44	4265.75
453.646	4384.53
453.852	4650.77
454.058	4755.21
454.264	4960.01
454.47	5443.33
454.676	5252.87
454.882	5662.46
455.088	5639.94
455.294	5926.65
455.5	6309.62
455.705	6551.28
455.911	6649.58
456.117	6708.97
456.323	7091.95
456.529	7036.65
456.735	7601.89
456.941	7802.59
457.147	8089.31
457.352	8363.73
457.558	8662.74
457.764	9121.48
457.97	9418.44
458.176	9844.42
458.381	10186.43
458.587	10313.4
458.793	10778.29
458.999	10800.82
459.204	12209.82
459.41	12551.83
459.616	12547.73
459.821	13147.79
460.027	13803.14
460.233	14325.37
460.438	14284.41
460.644	15160.94
460.85	15392.36
461.055	16100.96
461.261	16963.15
461.466	16436.83
461.672	16789.08
461.878	18585.15
462.083	18376.25
462.289	18845.24
462.494	19822.12
462.7	19783.21
462.905	19672.62
463.111	21763.59
463.316	22584.83
463.522	23225.84
463.727	23809.51
463.932	24903.13
464.138	25652.69
464.343	26691.01
464.549	26865.08
464.754	28634.53
464.959	29496.72
465.165	30066.06
465.37	29703.57
465.575	29445.52
465.781	31413.62
465.986	32863.58
466.191	31964.53
466.397	32613.73
466.602	31829.36
466.807	33607
467.012	34002.25
467.218	34749.76
467.423	34667.84
467.628	35812.66
467.833	37506.33
468.038	36885.79
468.244	36244.78
468.449	38014.23
