Data from USB4F104151__193__11-05-23-432.txt Node

Date: Wed Feb 26 11:05:23 EST 2025
User: louis
Spectrometer: USB4F10415
Trigger mode: 4
Integration Time (sec): 1.000000E-1
Scans to average: 1
Electric dark correction enabled: true
Nonlinearity correction enabled: false
Boxcar width: 0
XAxis mode: Wavelengths
Number of Pixels in Spectrum: 3648
>>>>>Begin Spectral Data<<<<<
178.204	-410.28
178.424	-410.28
178.644	-410.28
178.864	-426.66
179.084	-406.18
179.304	-64.17
179.524	5.46
179.744	9.56
179.964	79.19
180.184	-21.16
180.404	13.65
180.624	-12.97
180.844	9.56
181.064	-86.7
181.283	77.14
181.503	-17.07
181.723	7.51
181.943	11.61
182.163	144.72
182.383	-37.55
182.602	103.76
182.822	126.29
183.042	101.72
183.262	11.61
183.482	-10.92
183.701	15.7
183.921	-25.26
184.141	-17.07
184.361	50.52
184.58	120.15
184.8	23.89
185.02	11.61
185.239	95.57
185.459	91.48
185.679	124.24
185.898	-51.88
186.118	56.66
186.338	83.28
186.557	157.01
186.777	19.8
186.997	32.08
187.216	105.81
187.436	251.22
187.655	130.39
187.875	52.56
188.095	32.08
188.314	116.05
188.534	64.85
188.753	-10.92
188.973	105.81
189.192	200.02
189.412	52.56
189.631	111.96
189.851	83.28
190.07	157.01
190.29	17.75
190.509	-74.41
190.729	48.47
190.948	206.16
191.168	255.31
191.387	95.57
191.607	17.75
191.826	87.38
192.045	25.94
192.265	-33.45
192.484	52.56
192.704	134.48
192.923	3.41
193.142	189.78
193.362	126.29
193.581	116.05
193.8	68.95
194.02	83.28
194.239	19.8
194.458	128.34
194.678	7.51
194.897	-43.69
195.116	46.42
195.335	77.14
195.555	83.28
195.774	23.89
195.993	56.66
196.212	19.8
196.432	-4.78
196.651	-6.83
196.87	95.57
197.089	177.49
197.308	107.86
197.528	56.66
197.747	-17.07
197.966	40.28
198.185	107.86
198.404	-29.35
198.623	99.67
198.842	120.15
199.062	81.24
199.281	136.53
199.5	30.04
199.719	154.96
199.938	48.47
200.157	89.43
200.376	15.7
200.595	114
200.814	89.43
201.033	-21.16
201.252	142.68
201.471	62.8
201.69	150.87
201.909	77.14
202.128	148.82
202.347	3.41
202.566	58.71
202.785	-113.32
203.004	-8.87
203.223	195.92
203.442	40.28
203.661	-17.07
203.879	132.44
204.098	271.7
204.317	-80.55
204.536	87.38
204.755	34.13
204.974	154.96
205.193	-29.35
205.411	109.91
205.63	105.81
205.849	71
206.068	-31.4
206.287	-27.31
206.505	136.53
206.724	79.19
206.943	19.8
207.162	-43.69
207.381	32.08
207.599	111.96
207.818	21.85
208.037	-49.83
208.255	30.04
208.474	44.37
208.693	66.9
208.911	21.85
209.13	99.67
209.349	116.05
209.567	136.53
209.786	77.14
210.005	68.95
210.223	71
210.442	-60.07
210.661	34.13
210.879	-10.92
211.098	46.42
211.316	50.52
211.535	32.08
211.753	62.8
211.972	120.15
212.191	7.51
212.409	-8.87
212.628	120.15
212.846	-8.87
213.065	93.52
213.283	75.09
213.502	128.34
213.72	56.66
213.938	19.8
214.157	7.51
214.375	228.69
214.594	19.8
214.812	171.35
215.031	13.65
215.249	5.46
215.467	46.42
215.686	50.52
215.904	89.43
216.122	21.85
216.341	197.97
216.559	-8.87
216.778	185.68
216.996	138.58
217.214	36.18
217.432	34.13
217.651	-55.98
217.869	109.91
218.087	46.42
218.306	-35.5
218.524	-8.87
218.742	66.9
218.96	111.96
219.179	30.04
219.397	-47.79
219.615	163.15
219.833	118.1
220.051	25.94
220.27	134.48
220.488	165.2
220.706	52.56
220.924	54.61
221.142	-88.75
221.36	30.04
221.578	79.19
221.796	52.56
222.015	42.32
222.233	128.34
222.451	120.15
222.669	-8.87
222.887	91.48
223.105	34.13
223.323	95.57
223.541	-37.55
223.759	64.85
223.977	25.94
224.195	243.03
224.413	-35.5
224.631	73.04
224.849	179.54
225.067	261.46
225.285	101.72
225.503	60.76
225.721	-107.18
225.939	71
226.157	68.95
226.375	167.25
226.592	-88.75
226.81	79.19
227.028	195.92
227.246	189.78
227.464	122.2
227.682	71
227.9	30.04
228.117	56.66
228.335	17.75
228.553	9.56
228.771	62.8
228.989	130.39
229.206	142.68
229.424	27.99
229.642	54.61
229.86	7.51
230.077	165.2
230.295	62.8
230.513	111.96
230.731	81.24
230.948	167.25
231.166	216.4
231.384	9.56
231.601	-4.78
231.819	138.58
232.037	-12.97
232.254	-43.69
232.472	75.09
232.689	3.41
232.907	189.78
233.125	-6.83
233.342	-58.03
233.56	99.67
233.777	36.18
233.995	1.37
234.213	136.53
234.43	79.19
234.648	52.56
234.865	-70.31
235.083	116.05
235.3	87.38
235.518	161.11
235.735	175.44
235.953	75.09
236.17	9.56
236.388	21.85
236.605	-10.92
236.822	99.67
237.04	68.95
237.257	44.37
237.475	40.28
237.692	130.39
237.909	71
238.127	15.7
238.344	50.52
238.562	79.19
238.779	-29.35
238.996	-25.26
239.214	34.13
239.431	50.52
239.648	15.7
239.865	132.44
240.083	138.58
240.3	32.08
240.517	58.71
240.735	116.05
240.952	138.58
241.169	71
241.386	83.28
241.603	60.76
241.821	-51.88
242.038	146.77
242.255	146.77
242.472	-4.78
242.689	120.15
242.907	159.06
243.124	81.24
243.341	-15.02
243.558	58.71
243.775	-62.12
243.992	-2.73
244.209	62.8
244.426	232.79
244.643	77.14
244.86	40.28
245.078	87.38
245.295	34.13
245.512	54.61
245.729	34.13
245.946	68.95
246.163	21.85
246.38	-10.92
246.597	42.32
246.814	79.19
247.031	46.42
247.248	-8.87
247.464	150.87
247.681	81.24
247.898	111.96
248.115	120.15
248.332	-76.46
248.549	165.2
248.766	142.68
248.983	95.57
249.2	97.62
249.417	105.81
249.633	-12.97
249.85	23.89
250.067	38.23
250.284	32.08
250.501	99.67
250.717	120.15
250.934	-23.21
251.151	15.7
251.368	-15.02
251.585	15.7
251.801	77.14
252.018	-8.87
252.235	163.15
252.451	-27.31
252.668	54.61
252.885	64.85
253.102	136.53
253.318	25.94
253.535	75.09
253.752	44.37
253.968	-60.07
254.185	3.41
254.401	44.37
254.618	85.33
254.835	5.46
255.051	107.86
255.268	36.18
255.484	5.46
255.701	32.08
255.917	111.96
256.134	-58.03
256.351	79.19
256.567	-31.4
256.784	21.85
257	-74.41
257.217	91.48
257.433	79.19
257.65	116.05
257.866	148.82
258.082	-0.68
258.299	13.65
258.515	44.37
258.732	52.56
258.948	-8.87
259.165	89.43
259.381	-6.83
259.597	56.66
259.814	95.57
260.03	34.13
260.246	15.7
260.463	142.68
260.679	81.24
260.895	83.28
261.112	52.56
261.328	36.18
261.544	1.37
261.761	183.63
261.977	-47.79
262.193	95.57
262.409	216.4
262.626	27.99
262.842	15.7
263.058	3.41
263.274	152.91
263.49	40.28
263.707	64.85
263.923	73.04
264.139	-80.55
264.355	89.43
264.571	210.26
264.787	99.67
265.004	206.16
265.22	81.24
265.436	-25.26
265.652	17.75
265.868	40.28
266.084	-17.07
266.3	11.61
266.516	-0.68
266.732	114
266.948	64.85
267.164	19.8
267.38	122.2
267.596	107.86
267.812	144.72
268.028	62.8
268.244	75.09
268.46	83.28
268.676	-17.07
268.892	30.04
269.108	-29.35
269.324	75.09
269.54	79.19
269.756	87.38
269.972	27.99
270.188	46.42
270.403	36.18
270.619	38.23
270.835	77.14
271.051	7.51
271.267	73.04
271.483	48.47
271.698	173.39
271.914	60.76
272.13	60.76
272.346	-4.78
272.562	-2.73
272.777	89.43
272.993	30.04
273.209	64.85
273.425	34.13
273.64	-39.59
273.856	95.57
274.072	60.76
274.287	-70.31
274.503	89.43
274.719	36.18
274.934	-8.87
275.15	-41.64
275.366	64.85
275.581	-23.21
275.797	111.96
276.012	58.71
276.228	19.8
276.444	58.71
276.659	118.1
276.875	-41.64
277.09	23.89
277.306	34.13
277.521	30.04
277.737	15.7
277.952	122.2
278.168	79.19
278.383	77.14
278.599	93.52
278.814	62.8
279.03	54.61
279.245	132.44
279.461	36.18
279.676	95.57
279.892	-66.22
280.107	9.56
280.322	58.71
280.538	60.76
280.753	-27.31
280.969	75.09
281.184	40.28
281.399	130.39
281.615	9.56
281.83	120.15
282.045	-21.16
282.26	-2.73
282.476	64.85
282.691	85.33
282.906	25.94
283.122	-31.4
283.337	7.51
283.552	36.18
283.767	75.09
283.983	134.48
284.198	-51.88
284.413	97.62
284.628	-31.4
284.843	111.96
285.058	77.14
285.274	68.95
285.489	-10.92
285.704	97.62
285.919	42.32
286.134	-0.68
286.349	68.95
286.564	13.65
286.779	142.68
286.995	25.94
287.21	-45.74
287.425	89.43
287.64	-0.68
287.855	66.9
288.07	-72.36
288.285	93.52
288.5	154.96
288.715	83.28
288.93	73.04
289.145	-23.21
289.36	126.29
289.575	21.85
289.79	118.1
290.004	-15.02
290.219	116.05
290.434	13.65
290.649	3.41
290.864	42.32
291.079	-15.02
291.294	23.89
291.509	36.18
291.724	75.09
291.938	30.04
292.153	21.85
292.368	50.52
292.583	68.95
292.798	79.19
293.012	42.32
293.227	140.63
293.442	50.52
293.657	189.78
293.871	181.59
294.086	36.18
294.301	171.35
294.516	89.43
294.73	56.66
294.945	-70.31
295.16	5.46
295.374	154.96
295.589	54.61
295.804	42.32
296.018	89.43
296.233	169.3
296.447	116.05
296.662	-72.36
296.877	109.91
297.091	128.34
297.306	75.09
297.52	-17.07
297.735	40.28
297.949	17.75
298.164	77.14
298.378	142.68
298.593	40.28
298.807	-10.92
299.022	27.99
299.236	105.81
299.451	-2.73
299.665	-10.92
299.88	-0.68
300.094	101.72
300.309	97.62
300.523	64.85
300.737	32.08
300.952	116.05
301.166	116.05
301.381	58.71
301.595	7.51
301.809	120.15
302.024	52.56
302.238	5.46
302.452	161.11
302.667	-8.87
302.881	142.68
303.095	68.95
303.309	64.85
303.524	73.04
303.738	62.8
303.952	9.56
304.166	99.67
304.381	-156.33
304.595	152.91
304.809	-31.4
305.023	62.8
305.237	79.19
305.452	91.48
305.666	56.66
305.88	109.91
306.094	150.87
306.308	128.34
306.522	40.28
306.736	44.37
306.95	183.63
307.164	21.85
307.379	97.62
307.593	171.35
307.807	126.29
308.021	25.94
308.235	71
308.449	-141.99
308.663	93.52
308.877	269.65
309.091	68.95
309.305	79.19
309.519	-43.69
309.733	130.39
309.947	-76.46
310.161	128.34
310.374	183.63
310.588	134.48
310.802	-8.87
311.016	1.37
311.23	56.66
311.444	-25.26
311.658	52.56
311.872	111.96
312.085	120.15
312.299	173.39
312.513	152.91
312.727	64.85
312.941	56.66
313.154	85.33
313.368	54.61
313.582	75.09
313.796	97.62
314.009	46.42
314.223	19.8
314.437	5.46
314.651	71
314.864	-8.87
315.078	15.7
315.292	-131.75
315.505	68.95
315.719	77.14
315.933	46.42
316.146	40.28
316.36	-84.65
316.573	161.11
316.787	171.35
317.001	32.08
317.214	15.7
317.428	48.47
317.641	-10.92
317.855	109.91
318.068	60.76
318.282	50.52
318.495	163.15
318.709	5.46
318.922	99.67
319.136	200.02
319.349	32.08
319.563	73.04
319.776	140.63
319.99	-29.35
320.203	101.72
320.417	30.04
320.63	132.44
320.843	177.49
321.057	52.56
321.27	111.96
321.483	128.34
321.697	173.39
321.91	40.28
322.124	30.04
322.337	126.29
322.55	3.41
322.763	3.41
322.977	-19.11
323.19	54.61
323.403	77.14
323.617	71
323.83	77.14
324.043	-29.35
324.256	85.33
324.469	27.99
324.683	150.87
324.896	38.23
325.109	7.51
325.322	-8.87
325.535	204.11
325.748	138.58
325.962	99.67
326.175	9.56
326.388	56.66
326.601	150.87
326.814	21.85
327.027	-29.35
327.24	167.25
327.453	-70.31
327.666	54.61
327.879	210.26
328.092	42.32
328.305	-2.73
328.518	15.7
328.731	13.65
328.944	-55.98
329.157	11.61
329.37	40.28
329.583	161.11
329.796	142.68
330.009	-66.22
330.222	83.28
330.435	85.33
330.648	81.24
330.861	107.86
331.073	109.91
331.286	114
331.499	-49.83
331.712	-21.16
331.925	46.42
332.138	58.71
332.35	85.33
332.563	23.89
332.776	165.2
332.989	-29.35
333.202	38.23
333.414	89.43
333.627	-4.78
333.84	-0.68
334.053	111.96
334.265	21.85
334.478	7.51
334.691	120.15
334.903	62.8
335.116	-10.92
335.329	46.42
335.541	25.94
335.754	161.11
335.966	-31.4
336.179	79.19
336.392	75.09
336.604	44.37
336.817	56.66
337.029	116.05
337.242	-27.31
337.454	171.35
337.667	116.05
337.88	140.63
338.092	101.72
338.305	138.58
338.517	62.8
338.729	83.28
338.942	97.62
339.154	-62.12
339.367	42.32
339.579	79.19
339.792	46.42
340.004	109.91
340.217	27.99
340.429	36.18
340.641	42.32
340.854	-144.04
341.066	50.52
341.278	105.81
341.491	128.34
341.703	52.56
341.915	-8.87
342.128	128.34
342.34	87.38
342.552	-12.97
342.764	-10.92
342.977	-51.88
343.189	85.33
343.401	5.46
343.613	-4.78
343.826	-4.78
344.038	-62.12
344.25	64.85
344.462	56.66
344.674	46.42
344.886	23.89
345.099	62.8
345.311	97.62
345.523	46.42
345.735	-25.26
345.947	15.7
346.159	161.11
346.371	44.37
346.583	11.61
346.795	165.2
347.007	-4.78
347.219	175.44
347.431	1.37
347.643	163.15
347.855	38.23
348.067	136.53
348.279	-51.88
348.491	40.28
348.703	101.72
348.915	73.04
349.127	-86.7
349.339	56.66
349.551	-21.16
349.763	81.24
349.975	38.23
350.187	144.72
350.399	177.49
350.61	134.48
350.822	3.41
351.034	122.2
351.246	89.43
351.458	99.67
351.669	134.48
351.881	134.48
352.093	21.85
352.305	114
352.517	60.76
352.728	109.91
352.94	58.71
353.152	142.68
353.363	13.65
353.575	23.89
353.787	202.07
353.999	56.66
354.21	157.01
354.422	11.61
354.633	-33.45
354.845	54.61
355.057	93.52
355.268	116.05
355.48	64.85
355.692	23.89
355.903	13.65
356.115	-4.78
356.326	-12.97
356.538	103.76
356.749	154.96
356.961	126.29
357.172	66.9
357.384	-4.78
357.595	185.68
357.807	23.89
358.018	148.82
358.23	42.32
358.441	138.58
358.653	118.1
358.864	62.8
359.075	-51.88
359.287	163.15
359.498	71
359.709	89.43
359.921	11.61
360.132	66.9
360.344	46.42
360.555	-37.55
360.766	48.47
360.977	-4.78
361.189	130.39
361.4	9.56
361.611	138.58
361.823	95.57
362.034	58.71
362.245	-84.65
362.456	48.47
362.667	101.72
362.879	-23.21
363.09	56.66
363.301	40.28
363.512	77.14
363.723	-0.68
363.935	122.2
364.146	54.61
364.357	75.09
364.568	89.43
364.779	7.51
364.99	154.96
365.201	-68.27
365.412	75.09
365.623	7.51
365.834	95.57
366.045	77.14
366.256	89.43
366.467	103.76
366.678	21.85
366.889	60.76
367.1	107.86
367.311	157.01
367.522	-86.7
367.733	150.87
367.944	68.95
368.155	68.95
368.366	120.15
368.577	85.33
368.788	85.33
368.999	19.8
369.209	60.76
369.42	273.75
369.631	304.46
369.842	54.61
370.053	36.18
370.264	124.24
370.474	38.23
370.685	107.86
370.896	-43.69
371.107	159.06
371.317	27.99
371.528	107.86
371.739	71
371.95	32.08
372.16	171.35
372.371	-78.51
372.582	34.13
372.792	34.13
373.003	50.52
373.214	83.28
373.424	103.76
373.635	-51.88
373.846	177.49
374.056	99.67
374.267	75.09
374.477	91.48
374.688	97.62
374.898	64.85
375.109	-15.02
375.319	107.86
375.53	146.77
375.74	54.61
375.951	17.75
376.161	130.39
376.372	150.87
376.582	-15.02
376.793	99.67
377.003	-4.78
377.214	-70.31
377.424	161.11
377.635	40.28
377.845	-41.64
378.055	25.94
378.266	-6.83
378.476	81.24
378.686	68.95
378.897	99.67
379.107	150.87
379.317	175.44
379.528	-6.83
379.738	134.48
379.948	23.89
380.158	87.38
380.369	-4.78
380.579	138.58
380.789	32.08
380.999	71
381.21	124.24
381.42	204.11
381.63	9.56
381.84	105.81
382.05	120.15
382.261	200.02
382.471	120.15
382.681	73.04
382.891	165.2
383.101	124.24
383.311	-0.68
383.521	48.47
383.731	103.76
383.941	105.81
384.151	126.29
384.361	23.89
384.571	1.37
384.781	87.38
384.991	191.83
385.201	183.63
385.411	111.96
385.621	97.62
385.831	64.85
386.041	105.81
386.251	32.08
386.461	136.53
386.671	85.33
386.881	46.42
387.091	85.33
387.301	142.68
387.511	23.89
387.72	73.04
387.93	44.37
388.14	-8.87
388.35	68.95
388.56	159.06
388.769	99.67
388.979	38.23
389.189	-4.78
389.399	95.57
389.609	138.58
389.818	120.15
390.028	21.85
390.238	187.73
390.447	-19.11
390.657	77.14
390.867	5.46
391.076	11.61
391.286	85.33
391.496	7.51
391.705	103.76
391.915	146.77
392.125	163.15
392.334	-31.4
392.544	187.73
392.753	105.81
392.963	13.65
393.172	109.91
393.382	-2.73
393.591	204.11
393.801	54.61
394.01	163.15
394.22	118.1
394.429	-4.78
394.639	7.51
394.848	75.09
395.058	54.61
395.267	30.04
395.477	111.96
395.686	60.76
395.895	224.59
396.105	247.12
396.314	79.19
396.524	32.08
396.733	56.66
396.942	197.97
397.152	105.81
397.361	114
397.57	99.67
397.78	-29.35
397.989	191.83
398.198	238.93
398.407	44.37
398.617	38.23
398.826	66.9
399.035	-0.68
399.244	171.35
399.453	-2.73
399.663	107.86
399.872	97.62
400.081	77.14
400.29	200.02
400.499	-21.16
400.708	122.2
400.917	103.76
401.127	77.14
401.336	-35.5
401.545	193.87
401.754	87.38
401.963	97.62
402.172	-33.45
402.381	25.94
402.59	30.04
402.799	48.47
403.008	134.48
403.217	52.56
403.426	91.48
403.635	-37.55
403.844	21.85
404.053	36.18
404.262	-10.92
404.471	159.06
404.68	48.47
404.888	64.85
405.097	83.28
405.306	75.09
405.515	122.2
405.724	-10.92
405.933	175.44
406.142	60.76
406.35	132.44
406.559	56.66
406.768	130.39
406.977	179.54
407.185	44.37
407.394	136.53
407.603	3.41
407.812	66.9
408.02	200.02
408.229	44.37
408.438	85.33
408.646	36.18
408.855	50.52
409.064	85.33
409.272	111.96
409.481	73.04
409.69	46.42
409.898	17.75
410.107	44.37
410.315	95.57
410.524	-25.26
410.733	60.76
410.941	60.76
411.15	52.56
411.358	50.52
411.567	138.58
411.775	64.85
411.984	38.23
412.192	122.2
412.401	101.72
412.609	189.78
412.818	81.24
413.026	193.87
413.234	48.47
413.443	30.04
413.651	42.32
413.86	95.57
414.068	64.85
414.276	191.83
414.485	5.46
414.693	181.59
414.901	126.29
415.11	87.38
415.318	56.66
415.526	97.62
415.734	140.63
415.943	79.19
416.151	167.25
416.359	62.8
416.567	50.52
416.776	134.48
416.984	136.53
417.192	167.25
417.4	73.04
417.608	40.28
417.817	68.95
418.025	101.72
418.233	140.63
418.441	-0.68
418.649	-4.78
418.857	17.75
419.065	148.82
419.273	11.61
419.481	87.38
419.689	21.85
419.897	15.7
420.105	-33.45
420.313	81.24
420.521	179.54
420.729	101.72
420.937	17.75
421.145	-41.64
421.353	171.35
421.561	148.82
421.769	99.67
421.977	75.09
422.185	173.39
422.393	38.23
422.601	144.72
422.809	142.68
423.017	27.99
423.224	169.3
423.432	103.76
423.64	21.85
423.848	50.52
424.056	-82.6
424.263	208.21
424.471	87.38
424.679	111.96
424.887	-10.92
425.094	130.39
425.302	144.72
425.51	40.28
425.718	118.1
425.925	40.28
426.133	-0.68
426.341	286.03
426.548	52.56
426.756	101.72
426.964	134.48
427.171	13.65
427.379	120.15
427.586	136.53
427.794	167.25
428.001	144.72
428.209	132.44
428.417	175.44
428.624	58.71
428.832	161.11
429.039	220.5
429.247	97.62
429.454	134.48
429.662	236.88
429.869	181.59
430.076	214.35
430.284	220.5
430.491	185.68
430.699	179.54
430.906	265.55
431.114	148.82
431.321	163.15
431.528	62.8
431.736	142.68
431.943	138.58
432.15	165.2
432.358	216.4
432.565	271.7
432.772	71
432.979	173.39
433.187	146.77
433.394	216.4
433.601	220.5
433.808	302.42
434.016	267.6
434.223	277.84
434.43	189.78
434.637	236.88
434.844	230.74
435.052	240.98
435.259	281.94
435.466	308.56
435.673	322.9
435.88	386.38
436.087	320.85
436.294	378.19
436.501	324.94
436.708	316.75
436.915	365.9
437.122	357.71
437.329	302.42
437.537	353.62
437.743	410.96
437.95	488.78
438.157	429.39
438.364	380.24
438.571	468.3
438.778	421.2
438.985	490.83
439.192	566.6
439.399	539.98
439.606	548.17
439.813	626
440.02	699.72
440.227	705.87
440.433	634.19
440.64	689.48
440.847	539.98
441.054	597.32
441.261	851.27
441.467	619.85
441.674	654.67
441.881	826.7
442.088	669
442.294	820.55
442.501	820.55
442.708	898.38
442.914	808.27
443.121	1043.78
443.328	1037.64
443.534	1115.46
443.741	1072.45
443.948	859.46
444.154	1054.02
444.361	1295.68
444.568	1068.36
444.774	1205.57
444.981	1107.27
445.187	1344.83
445.394	1322.31
445.6	1332.54
445.807	1449.28
446.013	1451.33
446.22	1418.56
446.426	1613.12
446.633	1658.17
446.839	1781.05
447.046	1600.83
447.252	1918.26
447.459	1940.79
447.665	1940.79
447.871	1940.79
448.078	2190.64
448.284	2174.26
448.491	2247.99
448.697	2223.41
448.903	2561.33
449.11	2594.09
449.316	2424.11
449.522	2657.58
449.728	2731.31
449.935	2915.62
450.141	2753.84
450.347	3130.66
450.553	3046.69
450.76	3177.76
450.966	3142.95
451.172	3329.31
451.378	3503.39
451.584	3568.93
451.791	3845.4
451.997	3806.49
452.203	3994.9
452.409	4125.97
452.615	4386.07
452.821	4222.23
453.027	4523.28
453.233	4924.68
453.44	4746.51
453.646	5018.89
453.852	5375.24
454.058	5303.56
454.264	5741.82
454.47	5795.07
454.676	5856.51
454.882	6499.57
455.088	6223.09
455.294	6575.34
455.5	7062.76
455.705	7466.21
455.911	7353.57
456.117	7496.93
456.323	7734.5
456.529	7976.16
456.735	8641.75
456.941	8627.41
457.147	9084.11
457.352	9370.82
457.558	9542.85
457.764	10177.72
457.97	10529.97
458.176	10906.8
458.381	11402.41
458.587	11781.28
458.793	12270.75
458.999	12135.58
459.204	13718.66
459.41	14394.49
459.616	14075.01
459.821	14812.28
460.027	15342.7
460.233	16233.57
460.438	16297.05
460.644	16999.51
460.85	17402.96
461.055	17980.48
461.261	18715.7
461.466	18408.51
461.672	18912.31
461.878	20941.85
462.083	20722.71
462.289	21148.69
462.494	22125.57
462.7	21945.35
462.905	22502.4
463.111	24298.47
463.316	25566.16
463.522	26287.04
463.727	26778.56
463.932	27943.85
464.138	28777.37
464.343	29834.13
464.549	30120.84
464.754	32072.56
464.959	32897.89
465.165	33567.57
465.37	33213.27
465.575	33590.1
465.781	35681.08
465.986	36541.22
466.191	35947.31
466.397	36518.7
466.602	35580.73
466.807	37473.05
467.012	38308.62
467.218	38793.99
467.423	38994.69
467.628	39912.18
467.833	41433.82
468.038	41177.82
468.244	40327.92
468.449	42767.05
468.654	41802.46
