Data from USB4F104151__277__11-20-51-730.txt Node

Date: Wed Feb 26 11:20:51 EST 2025
User: louis
Spectrometer: USB4F10415
Trigger mode: 4
Integration Time (sec): 1.000000E-1
Scans to average: 1
Electric dark correction enabled: true
Nonlinearity correction enabled: false
Boxcar width: 0
XAxis mode: Wavelengths
Number of Pixels in Spectrum: 3648
>>>>>Begin Spectral Data<<<<<
178.204	-405.84
178.424	-405.84
178.644	-405.84
178.864	-424.27
179.084	-323.92
179.304	93.87
179.524	83.63
179.744	-24.92
179.964	11.95
180.184	50.86
180.404	-26.96
180.624	-92.5
180.844	-29.01
181.064	-90.45
181.283	52.91
181.503	3.75
181.723	-33.11
181.943	-123.22
182.163	140.97
182.383	-8.53
182.602	57
182.822	151.21
183.042	46.76
183.262	-43.35
183.482	-12.63
183.701	-45.4
183.921	36.52
184.141	30.38
184.361	95.91
184.58	36.52
184.8	44.71
185.02	-0.34
185.239	106.15
185.459	59.05
185.679	108.2
185.898	-76.12
186.118	110.25
186.338	77.48
186.557	44.71
186.777	13.99
186.997	32.43
187.216	20.14
187.436	167.59
187.655	120.49
187.875	77.48
188.095	81.58
188.314	75.43
188.534	114.34
188.753	-69.97
188.973	97.96
189.192	93.87
189.412	-35.16
189.631	40.62
189.851	30.38
190.07	171.69
190.29	34.47
190.509	-10.58
190.729	9.9
190.948	89.77
191.168	247.46
191.387	87.72
191.607	32.43
191.826	40.62
192.045	22.19
192.265	24.23
192.484	130.73
192.704	-0.34
192.923	-72.02
193.142	190.12
193.362	34.47
193.581	75.43
193.8	50.86
194.02	112.3
194.239	73.39
194.458	63.15
194.678	-2.39
194.897	59.05
195.116	77.48
195.335	36.52
195.555	26.28
195.774	-29.01
195.993	122.54
196.212	20.14
196.432	13.99
196.651	9.9
196.87	46.76
197.089	218.79
197.308	18.09
197.528	34.47
197.747	-102.74
197.966	77.48
198.185	108.2
198.404	-20.82
198.623	81.58
198.842	36.52
199.062	124.58
199.281	112.3
199.5	11.95
199.719	69.29
199.938	81.58
200.157	52.91
200.376	102.06
200.595	87.72
200.814	22.19
201.033	-45.4
201.252	93.87
201.471	93.87
201.69	50.86
201.909	-6.49
202.128	136.87
202.347	30.38
202.566	18.09
202.785	-37.2
203.004	11.95
203.223	263.85
203.442	110.25
203.661	-4.44
203.879	175.78
204.098	130.73
204.317	-29.01
204.536	71.34
204.755	22.19
204.974	116.39
205.193	-51.54
205.411	200.36
205.63	179.88
205.849	97.96
206.068	59.05
206.287	-33.11
206.505	69.29
206.724	-47.44
206.943	1.71
207.162	-37.2
207.381	140.97
207.599	93.87
207.818	69.29
208.037	-59.73
208.255	40.62
208.474	75.43
208.693	7.85
208.911	-4.44
209.13	87.72
209.349	-20.82
209.567	26.28
209.786	95.91
210.005	73.39
210.223	-6.49
210.442	-172.37
210.661	18.09
210.879	106.15
211.098	16.04
211.316	26.28
211.535	192.17
211.753	30.38
211.972	114.34
212.191	44.71
212.409	26.28
212.628	87.72
212.846	57
213.065	52.91
213.283	69.29
213.502	54.95
213.72	63.15
213.938	7.85
214.157	-29.01
214.375	116.39
214.594	48.81
214.812	40.62
215.031	42.67
215.249	16.04
215.467	40.62
215.686	-33.11
215.904	50.86
216.122	7.85
216.341	104.11
216.559	59.05
216.778	1.71
216.996	198.31
217.214	11.95
217.432	-51.54
217.651	-96.6
217.869	24.23
218.087	54.95
218.306	44.71
218.524	-18.77
218.742	57
218.96	57
219.179	-14.68
219.397	-35.16
219.615	235.18
219.833	118.44
220.051	-14.68
220.27	24.23
220.488	89.77
220.706	44.71
220.924	50.86
221.142	28.33
221.36	18.09
221.578	89.77
221.796	30.38
222.015	77.48
222.233	20.14
222.451	120.49
222.669	-31.06
222.887	67.24
223.105	-20.82
223.323	13.99
223.541	-53.59
223.759	-16.73
223.977	110.25
224.195	93.87
224.413	75.43
224.631	50.86
224.849	204.46
225.067	163.5
225.285	71.34
225.503	57
225.721	-29.01
225.939	89.77
226.157	32.43
226.375	235.18
226.592	54.95
226.81	-35.16
227.028	40.62
227.246	140.97
227.464	54.95
227.682	179.88
227.9	38.57
228.117	18.09
228.335	73.39
228.553	36.52
228.771	67.24
228.989	65.19
229.206	69.29
229.424	-67.92
229.642	9.9
229.86	-8.53
230.077	200.36
230.295	48.81
230.513	159.4
230.731	106.15
230.948	54.95
231.166	143.02
231.384	9.9
231.601	-14.68
231.819	155.3
232.037	67.24
232.254	-24.92
232.472	-20.82
232.689	38.57
232.907	100.01
233.125	24.23
233.342	-41.3
233.56	-16.73
233.777	26.28
233.995	22.19
234.213	226.98
234.43	116.39
234.648	48.81
234.865	30.38
235.083	63.15
235.3	93.87
235.518	104.11
235.735	104.11
235.953	120.49
236.17	5.8
236.388	44.71
236.605	34.47
236.822	93.87
237.04	143.02
237.257	77.48
237.475	-65.88
237.692	32.43
237.909	79.53
238.127	24.23
238.344	116.39
238.562	34.47
238.779	-31.06
238.996	-55.64
239.214	100.01
239.431	91.82
239.648	-37.2
239.865	122.54
240.083	102.06
240.3	-61.78
240.517	-82.26
240.735	-0.34
240.952	102.06
241.169	18.09
241.386	-2.39
241.603	-4.44
241.821	-63.83
242.038	118.44
242.255	34.47
242.472	9.9
242.689	40.62
242.907	63.15
243.124	1.71
243.341	9.9
243.558	-6.49
243.775	-31.06
243.992	3.75
244.209	126.63
244.426	177.83
244.643	44.71
244.86	42.67
245.078	77.48
245.295	13.99
245.512	-8.53
245.729	61.1
245.946	147.11
246.163	157.35
246.38	32.43
246.597	106.15
246.814	34.47
247.031	-22.87
247.248	-0.34
247.464	122.54
247.681	22.19
247.898	26.28
248.115	100.01
248.332	-29.01
248.549	93.87
248.766	212.65
248.983	104.11
249.2	110.25
249.417	132.78
249.633	24.23
249.85	40.62
250.067	48.81
250.284	102.06
250.501	61.1
250.717	65.19
250.934	-10.58
251.151	71.34
251.368	-4.44
251.585	22.19
251.801	40.62
252.018	-37.2
252.235	177.83
252.451	-6.49
252.668	16.04
252.885	108.2
253.102	54.95
253.318	-22.87
253.535	-29.01
253.752	-18.77
253.968	26.28
254.185	-63.83
254.401	79.53
254.618	97.96
254.835	-82.26
255.051	89.77
255.268	52.91
255.484	73.39
255.701	-6.49
255.917	79.53
256.134	-22.87
256.351	67.24
256.567	13.99
256.784	44.71
257	-63.83
257.217	169.64
257.433	32.43
257.65	-12.63
257.866	149.16
258.082	-67.92
258.299	22.19
258.515	61.1
258.732	28.33
258.948	-8.53
259.165	71.34
259.381	-12.63
259.597	36.52
259.814	63.15
260.03	52.91
260.246	-14.68
260.463	140.97
260.679	122.54
260.895	3.75
261.112	36.52
261.328	32.43
261.544	-20.82
261.761	159.4
261.977	13.99
262.193	-57.68
262.409	104.11
262.626	59.05
262.842	100.01
263.058	-33.11
263.274	126.63
263.49	159.4
263.707	22.19
263.923	97.96
264.139	-35.16
264.355	81.58
264.571	65.19
264.787	1.71
265.004	116.39
265.22	69.29
265.436	-4.44
265.652	22.19
265.868	36.52
266.084	-53.59
266.3	7.85
266.516	-41.3
266.732	118.44
266.948	65.19
267.164	46.76
267.38	126.63
267.596	95.91
267.812	120.49
268.028	73.39
268.244	-6.49
268.46	69.29
268.676	38.57
268.892	114.34
269.108	-33.11
269.324	-37.2
269.54	61.1
269.756	104.11
269.972	-0.34
270.188	28.33
270.403	-20.82
270.619	28.33
270.835	79.53
271.051	28.33
271.267	3.75
271.483	9.9
271.698	81.58
271.914	75.43
272.13	-6.49
272.346	-10.58
272.562	52.91
272.777	163.5
272.993	18.09
273.209	18.09
273.425	104.11
273.64	-57.68
273.856	106.15
274.072	52.91
274.287	-33.11
274.503	120.49
274.719	102.06
274.934	28.33
275.15	-55.64
275.366	69.29
275.581	40.62
275.797	-33.11
276.012	-0.34
276.228	59.05
276.444	57
276.659	161.45
276.875	24.23
277.09	-31.06
277.306	7.85
277.521	73.39
277.737	40.62
277.952	36.52
278.168	7.85
278.383	71.34
278.599	40.62
278.814	79.53
279.03	28.33
279.245	95.91
279.461	52.91
279.676	77.48
279.892	-65.88
280.107	-49.49
280.322	-16.73
280.538	138.92
280.753	13.99
280.969	108.2
281.184	20.14
281.399	100.01
281.615	-69.97
281.83	134.82
282.045	-37.2
282.26	-37.2
282.476	69.29
282.691	122.54
282.906	114.34
283.122	57
283.337	-51.54
283.552	63.15
283.767	42.67
283.983	106.15
284.198	11.95
284.413	106.15
284.628	-76.12
284.843	124.58
285.058	61.1
285.274	-45.4
285.489	11.95
285.704	54.95
285.919	9.9
286.134	7.85
286.349	81.58
286.564	24.23
286.779	108.2
286.995	3.75
287.21	-67.92
287.425	7.85
287.64	-18.77
287.855	36.52
288.07	-94.55
288.285	132.78
288.5	149.16
288.715	34.47
288.93	28.33
289.145	-20.82
289.36	85.67
289.575	79.53
289.79	155.3
290.004	-57.68
290.219	83.63
290.434	-47.44
290.649	1.71
290.864	-14.68
291.079	52.91
291.294	40.62
291.509	36.52
291.724	22.19
291.938	36.52
292.153	67.24
292.368	1.71
292.583	54.95
292.798	102.06
293.012	161.45
293.227	42.67
293.442	-18.77
293.657	95.91
293.871	181.93
294.086	65.19
294.301	130.73
294.516	147.11
294.73	59.05
294.945	-33.11
295.16	87.72
295.374	85.67
295.589	130.73
295.804	-65.88
296.018	40.62
296.233	136.87
296.447	18.09
296.662	-35.16
296.877	122.54
297.091	145.06
297.306	42.67
297.52	-0.34
297.735	97.96
297.949	65.19
298.164	9.9
298.378	100.01
298.593	-24.92
298.807	-24.92
299.022	73.39
299.236	183.98
299.451	77.48
299.665	-20.82
299.88	9.9
300.094	65.19
300.309	65.19
300.523	1.71
300.737	28.33
300.952	75.43
301.166	63.15
301.381	-43.35
301.595	5.8
301.809	52.91
302.024	16.04
302.238	48.81
302.452	167.59
302.667	-49.49
302.881	108.2
303.095	102.06
303.309	9.9
303.524	-57.68
303.738	-12.63
303.952	13.99
304.166	13.99
304.381	-47.44
304.595	112.3
304.809	36.52
305.023	116.39
305.237	-24.92
305.452	26.28
305.666	100.01
305.88	61.1
306.094	130.73
306.308	67.24
306.522	52.91
306.736	59.05
306.95	157.35
307.164	11.95
307.379	-4.44
307.593	169.64
307.807	175.78
308.021	79.53
308.235	89.77
308.449	-51.54
308.663	3.75
308.877	247.46
309.091	57
309.305	50.86
309.519	-158.03
309.733	106.15
309.947	-78.16
310.161	102.06
310.374	89.77
310.588	77.48
310.802	13.99
311.016	-12.63
311.23	93.87
311.444	-0.34
311.658	85.67
311.872	155.3
312.085	122.54
312.299	163.5
312.513	97.96
312.727	50.86
312.941	20.14
313.154	118.44
313.368	75.43
313.582	-14.68
313.796	57
314.009	-12.63
314.223	153.26
314.437	73.39
314.651	112.3
314.864	28.33
315.078	-0.34
315.292	-61.78
315.505	54.95
315.719	59.05
315.933	91.82
316.146	5.8
316.36	5.8
316.573	116.39
316.787	95.91
317.001	153.26
317.214	-59.73
317.428	-10.58
317.641	28.33
317.855	83.63
318.068	48.81
318.282	26.28
318.495	183.98
318.709	18.09
318.922	-4.44
319.136	81.58
319.349	128.68
319.563	54.95
319.776	108.2
319.99	-55.64
320.203	83.63
320.417	61.1
320.63	77.48
320.843	163.5
321.057	95.91
321.27	3.75
321.483	16.04
321.697	208.55
321.91	52.91
322.124	36.52
322.337	63.15
322.55	-24.92
322.763	114.34
322.977	-6.49
323.19	-12.63
323.403	-6.49
323.617	69.29
323.83	87.72
324.043	42.67
324.256	65.19
324.469	-115.03
324.683	65.19
324.896	38.57
325.109	44.71
325.322	-61.78
325.535	112.3
325.748	167.59
325.962	13.99
326.175	93.87
326.388	100.01
326.601	71.34
326.814	-39.25
327.027	3.75
327.24	50.86
327.453	-145.75
327.666	69.29
327.879	169.64
328.092	122.54
328.305	112.3
328.518	-22.87
328.731	-41.3
328.944	20.14
329.157	95.91
329.37	65.19
329.583	171.69
329.796	130.73
330.009	-65.88
330.222	102.06
330.435	102.06
330.648	-20.82
330.861	44.71
331.073	77.48
331.286	63.15
331.499	42.67
331.712	-90.45
331.925	44.71
332.138	22.19
332.35	110.25
332.563	18.09
332.776	177.83
332.989	-41.3
333.202	1.71
333.414	83.63
333.627	42.67
333.84	-0.34
334.053	50.86
334.265	-20.82
334.478	-18.77
334.691	108.2
334.903	100.01
335.116	-6.49
335.329	50.86
335.541	81.58
335.754	145.06
335.966	11.95
336.179	24.23
336.392	28.33
336.604	61.1
336.817	32.43
337.029	34.47
337.242	16.04
337.454	44.71
337.667	-53.59
337.88	128.68
338.092	48.81
338.305	114.34
338.517	5.8
338.729	87.72
338.942	114.34
339.154	-76.12
339.367	-143.7
339.579	106.15
339.792	-31.06
340.004	50.86
340.217	57
340.429	-18.77
340.641	83.63
340.854	32.43
341.066	-20.82
341.278	165.54
341.491	161.45
341.703	75.43
341.915	-20.82
342.128	11.95
342.34	42.67
342.552	-0.34
342.764	16.04
342.977	13.99
343.189	104.11
343.401	147.11
343.613	-29.01
343.826	28.33
344.038	61.1
344.25	46.76
344.462	22.19
344.674	5.8
344.886	-0.34
345.099	118.44
345.311	89.77
345.523	-6.49
345.735	-84.31
345.947	-6.49
346.159	95.91
346.371	18.09
346.583	3.75
346.795	202.41
347.007	9.9
347.219	122.54
347.431	67.24
347.643	122.54
347.855	42.67
348.067	77.48
348.279	-65.88
348.491	91.82
348.703	97.96
348.915	-12.63
349.127	11.95
349.339	38.57
349.551	32.43
349.763	118.44
349.975	46.76
350.187	59.05
350.399	130.73
350.61	67.24
350.822	-16.73
351.034	106.15
351.246	93.87
351.458	77.48
351.669	102.06
351.881	81.58
352.093	57
352.305	130.73
352.517	87.72
352.728	75.43
352.94	69.29
353.152	30.38
353.363	-12.63
353.575	89.77
353.787	177.83
353.999	57
354.21	140.97
354.422	-63.83
354.633	7.85
354.845	42.67
355.057	-45.4
355.268	3.75
355.48	95.91
355.692	-12.63
355.903	85.67
356.115	-84.31
356.326	-67.92
356.538	190.12
356.749	77.48
356.961	159.4
357.172	44.71
357.384	9.9
357.595	255.65
357.807	-20.82
358.018	-41.3
358.23	73.39
358.441	118.44
358.653	106.15
358.864	9.9
359.075	-98.64
359.287	-26.96
359.498	79.53
359.709	110.25
359.921	3.75
360.132	46.76
360.344	-41.3
360.555	-63.83
360.766	18.09
360.977	40.62
361.189	126.63
361.4	20.14
361.611	163.5
361.823	83.63
362.034	26.28
362.245	-45.4
362.456	-53.59
362.667	50.86
362.879	-33.11
363.09	61.1
363.301	61.1
363.512	118.44
363.723	-74.07
363.935	44.71
364.146	91.82
364.357	69.29
364.568	75.43
364.779	-18.77
364.99	108.2
365.201	-74.07
365.412	165.54
365.623	-0.34
365.834	89.77
366.045	13.99
366.256	110.25
366.467	13.99
366.678	30.38
366.889	5.8
367.1	-51.54
367.311	85.67
367.522	-24.92
367.733	81.58
367.944	67.24
368.155	-43.35
368.366	16.04
368.577	118.44
368.788	77.48
368.999	-51.54
369.209	5.8
369.42	194.22
369.631	233.13
369.842	16.04
370.053	22.19
370.264	38.57
370.474	-45.4
370.685	57
370.896	75.43
371.107	120.49
371.317	-4.44
371.528	85.67
371.739	165.54
371.95	63.15
372.16	24.23
372.371	-2.39
372.582	-0.34
372.792	77.48
373.003	5.8
373.214	83.63
373.424	77.48
373.635	-45.4
373.846	120.49
374.056	36.52
374.267	126.63
374.477	11.95
374.688	-49.49
374.898	67.24
375.109	1.71
375.319	32.43
375.53	100.01
375.74	134.82
375.951	7.85
376.161	147.11
376.372	93.87
376.582	3.75
376.793	16.04
377.003	44.71
377.214	-45.4
377.424	85.67
377.635	73.39
377.845	32.43
378.055	122.54
378.266	-72.02
378.476	75.43
378.686	79.53
378.897	26.28
379.107	128.68
379.317	65.19
379.528	-24.92
379.738	171.69
379.948	-98.64
380.158	16.04
380.369	34.47
380.579	114.34
380.789	63.15
380.999	110.25
381.21	16.04
381.42	138.92
381.63	83.63
381.84	97.96
382.05	83.63
382.261	81.58
382.471	130.73
382.681	-6.49
382.891	208.55
383.101	52.91
383.311	-26.96
383.521	-2.39
383.731	122.54
383.941	118.44
384.151	-53.59
384.361	48.81
384.571	28.33
384.781	26.28
384.991	169.64
385.201	194.22
385.411	83.63
385.621	155.3
385.831	32.43
386.041	-57.68
386.251	44.71
386.461	128.68
386.671	11.95
386.881	46.76
387.091	-8.53
387.301	71.34
387.511	163.5
387.72	87.72
387.93	89.77
388.14	-90.45
388.35	120.49
388.56	145.06
388.769	95.91
388.979	-45.4
389.189	-22.87
389.399	36.52
389.609	116.39
389.818	128.68
390.028	83.63
390.238	32.43
390.447	-24.92
390.657	87.72
390.867	93.87
391.076	-86.36
391.286	106.15
391.496	-6.49
391.705	42.67
391.915	179.88
392.125	132.78
392.334	-37.2
392.544	147.11
392.753	26.28
392.963	9.9
393.172	46.76
393.382	-12.63
393.591	171.69
393.801	24.23
394.01	194.22
394.22	81.58
394.429	91.82
394.639	63.15
394.848	48.81
395.058	36.52
395.267	5.8
395.477	87.72
395.686	57
395.895	114.34
396.105	214.7
396.314	50.86
396.524	38.57
396.733	-10.58
396.942	194.22
397.152	102.06
397.361	52.91
397.57	63.15
397.78	13.99
397.989	100.01
398.198	192.17
398.407	77.48
398.617	54.95
398.826	46.76
399.035	-41.3
399.244	67.24
399.453	65.19
399.663	18.09
399.872	67.24
400.081	-35.16
400.29	177.83
400.499	-43.35
400.708	100.01
400.917	-6.49
401.127	36.52
401.336	-51.54
401.545	163.5
401.754	87.72
401.963	91.82
402.172	-39.25
402.381	-6.49
402.59	67.24
402.799	-18.77
403.008	97.96
403.217	9.9
403.426	79.53
403.635	-47.44
403.844	7.85
404.053	-35.16
404.262	34.47
404.471	73.39
404.68	38.57
404.888	52.91
405.097	63.15
405.306	36.52
405.515	136.87
405.724	32.43
405.933	163.5
406.142	20.14
406.35	138.92
406.559	18.09
406.768	48.81
406.977	206.5
407.185	81.58
407.394	87.72
407.603	-8.53
407.812	65.19
408.02	89.77
408.229	42.67
408.438	18.09
408.646	5.8
408.855	20.14
409.064	118.44
409.272	-31.06
409.481	89.77
409.69	-0.34
409.898	-82.26
410.107	128.68
410.315	128.68
410.524	-14.68
410.733	52.91
410.941	38.57
411.15	159.4
411.358	155.3
411.567	79.53
411.775	46.76
411.984	153.26
412.192	112.3
412.401	16.04
412.609	161.45
412.818	44.71
413.026	87.72
413.234	16.04
413.443	46.76
413.651	-29.01
413.86	38.57
414.068	165.54
414.276	229.03
414.485	7.85
414.693	161.45
414.901	204.46
415.11	77.48
415.318	-10.58
415.526	46.76
415.734	106.15
415.943	67.24
416.151	128.68
416.359	13.99
416.567	-51.54
416.776	69.29
416.984	95.91
417.192	165.54
417.4	-4.44
417.608	-43.35
417.817	-53.59
418.025	110.25
418.233	208.55
418.441	7.85
418.649	-6.49
418.857	118.44
419.065	120.49
419.273	-26.96
419.481	40.62
419.689	50.86
419.897	-0.34
420.105	-6.49
420.313	120.49
420.521	106.15
420.729	91.82
420.937	-35.16
421.145	-20.82
421.353	30.38
421.561	112.3
421.769	87.72
421.977	-4.44
422.185	83.63
422.393	77.48
422.601	128.68
422.809	151.21
423.017	30.38
423.224	36.52
423.432	59.05
423.64	26.28
423.848	124.58
424.056	61.1
424.263	122.54
424.471	42.67
424.679	196.26
424.887	-51.54
425.094	169.64
425.302	85.67
425.51	-16.73
425.718	128.68
425.925	57
426.133	36.52
426.341	222.89
426.548	59.05
426.756	73.39
426.964	108.2
427.171	-12.63
427.379	106.15
427.586	110.25
427.794	110.25
428.001	153.26
428.209	102.06
428.417	157.35
428.624	138.92
428.832	69.29
429.039	95.91
429.247	40.62
429.454	93.87
429.662	251.56
429.869	67.24
430.076	120.49
430.284	167.59
430.491	233.13
430.699	167.59
430.906	274.09
431.114	188.07
431.321	93.87
431.528	118.44
431.736	132.78
431.943	183.98
432.15	151.21
432.358	288.42
432.565	313
432.772	24.23
432.979	206.5
433.187	196.26
433.394	151.21
433.601	128.68
433.808	261.8
434.016	249.51
434.223	212.65
434.43	136.87
434.637	253.61
434.844	249.51
435.052	190.12
435.259	315.05
435.466	235.18
435.673	339.62
435.88	280.23
436.087	341.67
436.294	325.29
436.501	286.37
436.708	280.23
436.915	292.52
437.122	384.68
437.329	222.89
437.537	339.62
437.743	378.53
437.95	439.97
438.157	353.96
438.364	429.73
438.571	374.44
438.778	403.11
438.985	442.02
439.192	435.88
439.399	427.68
439.606	478.88
439.813	394.92
440.02	607.91
440.227	663.2
440.433	562.85
440.64	513.7
440.847	464.55
441.054	546.47
441.261	568.99
441.467	519.84
441.674	589.47
441.881	657.06
442.088	556.71
442.294	609.95
442.501	757.41
442.708	716.45
442.914	712.35
443.121	691.87
443.328	790.17
443.534	779.93
443.741	822.94
443.948	763.55
444.154	831.13
444.361	1078.94
444.568	939.68
444.774	904.86
444.981	911
445.187	1068.7
445.394	1134.23
445.6	1052.31
445.807	1183.38
446.013	1162.9
446.22	1144.47
446.426	1271.45
446.633	1320.6
446.839	1584.79
447.046	1285.78
447.252	1470.1
447.459	1480.34
447.665	1461.91
447.871	1685.14
448.078	1756.82
448.284	1734.29
448.491	1953.42
448.697	1785.49
448.903	1969.8
449.11	1941.13
449.316	2049.68
449.522	2178.7
449.728	2287.24
449.935	2340.49
450.141	2363.01
450.347	2594.44
450.553	2393.73
450.76	2551.43
450.966	2717.31
451.172	2809.47
451.378	2829.95
451.584	2942.59
451.791	3196.54
451.997	3190.39
452.203	3374.71
452.409	3620.47
452.615	3604.08
452.821	3507.83
453.027	3563.12
453.233	3964.53
453.44	3837.55
453.646	4073.07
453.852	4367.98
454.058	4359.78
454.264	4646.5
454.47	4886.11
454.676	4865.63
454.882	5357.14
455.088	4988.51
455.294	5510.74
455.5	5717.59
455.705	6016.59
455.911	6043.21
456.117	6260.3
456.323	6413.9
456.529	6325.83
456.735	6991.42
456.941	7091.77
457.147	7458.36
457.352	7593.53
457.558	7786.04
457.764	8349.23
457.97	8519.21
458.176	8779.3
458.381	9127.46
458.587	9358.88
458.793	9895.44
458.999	10022.42
459.204	11101.7
459.41	11488.76
459.616	11503.1
459.821	11904.5
460.027	12652.01
460.233	13166.05
460.438	13426.14
460.644	13944.28
460.85	13948.37
461.055	14470.61
461.261	15340.99
461.466	14829
461.672	15269.31
461.878	17173.92
462.083	17081.77
462.289	17272.23
462.494	18130.33
462.7	18513.3
462.905	18673.04
463.111	19791.23
463.316	21022.06
463.522	21132.65
463.727	22064.47
463.932	22844.75
464.138	23397.7
464.343	24507.7
464.549	24745.27
464.754	26320.15
464.959	26752.27
465.165	27559.17
465.37	27088.14
465.575	27409.67
465.781	29138.16
465.986	29879.52
466.191	29570.28
466.397	29754.6
466.602	29074.67
466.807	30971.09
467.012	31433.93
467.218	31919.3
467.423	32130.24
467.628	32924.85
467.833	34610.33
468.038	34090.15
468.244	33154.22
468.449	35081.36
468.654	34358.43
468.859	34393.25
469.064	34421.92
