Data from USB4F104151__46__10-43-16-777.txt Node

Date: Wed Feb 26 10:43:16 EST 2025
User: louis
Spectrometer: USB4F10415
Trigger mode: 4
Integration Time (sec): 1.000000E-1
Scans to average: 1
Electric dark correction enabled: true
Nonlinearity correction enabled: false
Boxcar width: 0
XAxis mode: Wavelengths
Number of Pixels in Spectrum: 3648
>>>>>Begin Spectral Data<<<<<
178.204	-417.79
178.424	-417.79
178.644	-417.79
178.864	-425.98
179.084	-331.77
179.304	12.29
179.524	10.24
179.744	-8.19
179.964	79.87
180.184	32.77
180.404	49.15
180.624	-36.86
180.844	67.58
181.064	-90.11
181.283	6.14
181.503	-65.54
181.723	-57.34
181.943	-36.86
182.163	157.69
182.383	24.58
182.602	67.58
182.822	165.89
183.042	94.21
183.262	-16.38
183.482	18.43
183.701	75.77
183.921	2.05
184.141	-2.05
184.361	120.83
184.58	59.39
184.8	51.2
185.02	-10.24
185.239	108.54
185.459	116.73
185.679	180.22
185.898	-79.87
186.118	2.05
186.338	86.01
186.557	102.4
186.777	24.58
186.997	12.29
187.216	81.92
187.436	231.42
187.655	96.25
187.875	118.78
188.095	26.62
188.314	149.5
188.534	200.7
188.753	-53.25
188.973	147.45
189.192	182.27
189.412	-30.72
189.631	26.62
189.851	178.17
190.07	149.5
190.29	-28.67
190.509	69.63
190.729	65.53
190.948	122.88
191.168	296.96
191.387	143.36
191.607	34.82
191.826	88.06
192.045	79.87
192.265	20.48
192.484	104.45
192.704	79.87
192.923	-26.62
193.142	155.65
193.362	145.41
193.581	200.7
193.8	73.73
194.02	86.01
194.239	92.16
194.458	206.84
194.678	-14.34
194.897	104.45
195.116	-26.62
195.335	4.1
195.555	86.01
195.774	49.15
195.993	145.41
196.212	26.62
196.432	-14.34
196.651	92.16
196.87	79.87
197.089	256
197.308	-20.48
197.528	104.45
197.747	-100.35
197.966	-18.43
198.185	178.17
198.404	-32.77
198.623	204.8
198.842	98.3
199.062	96.25
199.281	59.39
199.5	137.21
199.719	133.12
199.938	98.3
200.157	32.77
200.376	143.36
200.595	180.22
200.814	114.69
201.033	-118.78
201.252	92.16
201.471	112.64
201.69	32.77
201.909	59.39
202.128	90.11
202.347	135.17
202.566	-61.44
202.785	-63.49
203.004	-34.82
203.223	233.47
203.442	75.77
203.661	-75.77
203.879	110.59
204.098	161.79
204.317	-36.86
204.536	77.82
204.755	153.6
204.974	2.05
205.193	30.72
205.411	157.69
205.63	120.83
205.849	88.06
206.068	34.82
206.287	-94.21
206.505	206.84
206.724	-47.1
206.943	53.25
207.162	-14.34
207.381	92.16
207.599	32.77
207.818	16.38
208.037	-28.67
208.255	57.34
208.474	141.31
208.693	65.53
208.911	53.25
209.13	139.26
209.349	110.59
209.567	102.4
209.786	83.97
210.005	118.78
210.223	53.25
210.442	-102.4
210.661	22.53
210.879	67.58
211.098	61.44
211.316	30.72
211.535	137.21
211.753	65.53
211.972	81.92
212.191	71.68
212.409	55.3
212.628	116.73
212.846	12.29
213.065	137.21
213.283	118.78
213.502	6.14
213.72	83.97
213.938	34.82
214.157	-18.43
214.375	141.31
214.594	2.05
214.812	79.87
215.031	-6.14
215.249	100.35
215.467	53.25
215.686	73.73
215.904	120.83
216.122	73.73
216.341	182.27
216.559	28.67
216.778	65.53
216.996	122.88
217.214	36.86
217.432	12.29
217.651	-73.73
217.869	63.49
218.087	14.34
218.306	-36.86
218.524	14.34
218.742	106.49
218.96	151.55
219.179	63.49
219.397	-32.77
219.615	268.28
219.833	26.62
220.051	-32.77
220.27	67.58
220.488	94.21
220.706	124.93
220.924	-12.29
221.142	90.11
221.36	112.64
221.578	2.05
221.796	28.67
222.015	106.49
222.233	75.77
222.451	153.6
222.669	14.34
222.887	65.53
223.105	49.15
223.323	86.01
223.541	30.72
223.759	106.49
223.977	114.69
224.195	131.07
224.413	102.4
224.631	30.72
224.849	120.83
225.067	163.84
225.285	-10.24
225.503	-12.29
225.721	-45.06
225.939	90.11
226.157	133.12
226.375	231.42
226.592	30.72
226.81	71.68
227.028	143.36
227.246	83.97
227.464	112.64
227.682	137.21
227.9	92.16
228.117	106.49
228.335	92.16
228.553	28.67
228.771	55.3
228.989	163.84
229.206	112.64
229.424	51.2
229.642	36.86
229.86	-47.1
230.077	176.13
230.295	32.77
230.513	65.53
230.731	61.44
230.948	212.99
231.166	178.17
231.384	34.82
231.601	-45.06
231.819	163.84
232.037	47.1
232.254	-53.25
232.472	75.77
232.689	69.63
232.907	86.01
233.125	4.1
233.342	10.24
233.56	40.96
233.777	53.25
233.995	4.1
234.213	88.06
234.43	137.21
234.648	49.15
234.865	26.62
235.083	32.77
235.3	94.21
235.518	112.64
235.735	100.35
235.953	92.16
236.17	65.53
236.388	79.87
236.605	45.06
236.822	112.64
237.04	169.98
237.257	30.72
237.475	-45.06
237.692	47.1
237.909	116.73
238.127	24.58
238.344	133.12
238.562	73.73
238.779	-75.77
238.996	-22.53
239.214	61.44
239.431	180.22
239.648	53.25
239.865	165.89
240.083	133.12
240.3	77.82
240.517	20.48
240.735	88.06
240.952	212.99
241.169	49.15
241.386	69.63
241.603	28.67
241.821	-14.34
242.038	86.01
242.255	104.45
242.472	-6.14
242.689	51.2
242.907	30.72
243.124	69.63
243.341	100.35
243.558	-30.72
243.775	2.05
243.992	-18.43
244.209	73.73
244.426	184.32
244.643	79.87
244.86	100.35
245.078	169.98
245.295	53.25
245.512	8.19
245.729	-61.44
245.946	77.82
246.163	-8.19
246.38	4.1
246.597	108.54
246.814	94.21
247.031	75.77
247.248	14.34
247.464	129.02
247.681	51.2
247.898	116.73
248.115	38.91
248.332	20.48
248.549	145.41
248.766	165.89
248.983	110.59
249.2	59.39
249.417	75.77
249.633	24.58
249.85	28.67
250.067	57.34
250.284	65.53
250.501	18.43
250.717	83.97
250.934	-16.38
251.151	24.58
251.368	24.58
251.585	8.19
251.801	73.73
252.018	-8.19
252.235	102.4
252.451	26.62
252.668	-8.19
252.885	112.64
253.102	104.45
253.318	12.29
253.535	51.2
253.752	-18.43
253.968	47.1
254.185	10.24
254.401	100.35
254.618	75.77
254.835	38.91
255.051	180.22
255.268	96.25
255.484	73.73
255.701	79.87
255.917	71.68
256.134	20.48
256.351	-24.58
256.567	-24.58
256.784	49.15
257	-67.58
257.217	98.3
257.433	104.45
257.65	-4.1
257.866	92.16
258.082	20.48
258.299	53.25
258.515	49.15
258.732	61.44
258.948	-63.49
259.165	51.2
259.381	-8.19
259.597	133.12
259.814	47.1
260.03	59.39
260.246	55.3
260.463	118.78
260.679	145.41
260.895	30.72
261.112	45.06
261.328	26.62
261.544	12.29
261.761	188.41
261.977	-8.19
262.193	-34.82
262.409	126.97
262.626	55.3
262.842	16.38
263.058	49.15
263.274	151.55
263.49	53.25
263.707	141.31
263.923	59.39
264.139	-118.78
264.355	53.25
264.571	139.26
264.787	110.59
265.004	167.93
265.22	114.69
265.436	57.34
265.652	120.83
265.868	43.01
266.084	2.05
266.3	69.63
266.516	-12.29
266.732	67.58
266.948	77.82
267.164	57.34
267.38	88.06
267.596	77.82
267.812	223.23
268.028	124.93
268.244	-45.06
268.46	83.97
268.676	67.58
268.892	51.2
269.108	40.96
269.324	-10.24
269.54	14.34
269.756	116.73
269.972	30.72
270.188	20.48
270.403	-32.77
270.619	147.45
270.835	61.44
271.051	24.58
271.267	-12.29
271.483	10.24
271.698	106.49
271.914	110.59
272.13	38.91
272.346	12.29
272.562	32.77
272.777	131.07
272.993	18.43
273.209	43.01
273.425	118.78
273.64	14.34
273.856	182.27
274.072	18.43
274.287	22.53
274.503	45.06
274.719	151.55
274.934	34.82
275.15	-8.19
275.366	67.58
275.581	-49.15
275.797	92.16
276.012	81.92
276.228	4.1
276.444	83.97
276.659	172.03
276.875	-43.01
277.09	61.44
277.306	24.58
277.521	94.21
277.737	47.1
277.952	88.06
278.168	-40.96
278.383	71.68
278.599	88.06
278.814	108.54
279.03	8.19
279.245	96.25
279.461	165.89
279.676	63.49
279.892	6.14
280.107	-79.87
280.322	30.72
280.538	49.15
280.753	-57.34
280.969	176.13
281.184	20.48
281.399	172.03
281.615	75.77
281.83	118.78
282.045	-120.83
282.26	8.19
282.476	79.87
282.691	92.16
282.906	63.49
283.122	126.97
283.337	36.86
283.552	67.58
283.767	32.77
283.983	149.5
284.198	6.14
284.413	108.54
284.628	-18.43
284.843	83.97
285.058	69.63
285.274	20.48
285.489	28.67
285.704	149.5
285.919	-0
286.134	-0
286.349	22.53
286.564	18.43
286.779	120.83
286.995	32.77
287.21	2.05
287.425	53.25
287.64	38.91
287.855	100.35
288.07	43.01
288.285	112.64
288.5	88.06
288.715	100.35
288.93	38.91
289.145	-2.05
289.36	96.25
289.575	18.43
289.79	120.83
290.004	40.96
290.219	182.27
290.434	-36.86
290.649	30.72
290.864	120.83
291.079	-10.24
291.294	8.19
291.509	69.63
291.724	61.44
291.938	-6.14
292.153	157.69
292.368	65.53
292.583	92.16
292.798	133.12
293.012	57.34
293.227	88.06
293.442	45.06
293.657	90.11
293.871	151.55
294.086	14.34
294.301	96.25
294.516	167.93
294.73	32.77
294.945	6.14
295.16	8.19
295.374	124.93
295.589	126.97
295.804	61.44
296.018	49.15
296.233	100.35
296.447	81.92
296.662	34.82
296.877	79.87
297.091	83.97
297.306	24.58
297.52	24.58
297.735	24.58
297.949	59.39
298.164	129.02
298.378	100.35
298.593	16.38
298.807	-14.34
299.022	86.01
299.236	108.54
299.451	-24.58
299.665	88.06
299.88	92.16
300.094	38.91
300.309	-14.34
300.523	61.44
300.737	-38.91
300.952	172.03
301.166	110.59
301.381	28.67
301.595	18.43
301.809	51.2
302.024	43.01
302.238	6.14
302.452	159.74
302.667	20.48
302.881	200.7
303.095	98.3
303.309	90.11
303.524	-0
303.738	18.43
303.952	-2.05
304.166	124.93
304.381	-75.77
304.595	219.13
304.809	-16.38
305.023	38.91
305.237	-90.11
305.452	18.43
305.666	57.34
305.88	69.63
306.094	178.17
306.308	90.11
306.522	98.3
306.736	106.49
306.95	98.3
307.164	81.92
307.379	30.72
307.593	151.55
307.807	176.13
308.021	118.78
308.235	75.77
308.449	-71.68
308.663	51.2
308.877	229.37
309.091	92.16
309.305	71.68
309.519	-51.2
309.733	159.74
309.947	-26.62
310.161	51.2
310.374	108.54
310.588	108.54
310.802	2.05
311.016	-22.53
311.23	96.25
311.444	12.29
311.658	38.91
311.872	98.3
312.085	149.5
312.299	114.69
312.513	174.08
312.727	16.38
312.941	-40.96
313.154	32.77
313.368	40.96
313.582	112.64
313.796	98.3
314.009	110.59
314.223	202.75
314.437	104.45
314.651	165.89
314.864	28.67
315.078	47.1
315.292	-63.49
315.505	34.82
315.719	114.69
315.933	77.82
316.146	16.38
316.36	-65.54
316.573	155.65
316.787	124.93
317.001	45.06
317.214	-47.1
317.428	51.2
317.641	30.72
317.855	73.73
318.068	61.44
318.282	59.39
318.495	204.8
318.709	124.93
318.922	32.77
319.136	169.98
319.349	133.12
319.563	16.38
319.776	79.87
319.99	-96.25
320.203	75.77
320.417	-14.34
320.63	71.68
320.843	157.69
321.057	172.03
321.27	71.68
321.483	71.68
321.697	149.5
321.91	65.53
322.124	43.01
322.337	51.2
322.55	-55.3
322.763	57.34
322.977	-6.14
323.19	-22.53
323.403	116.73
323.617	59.39
323.83	153.6
324.043	88.06
324.256	122.88
324.469	-47.1
324.683	143.36
324.896	112.64
325.109	73.73
325.322	-55.3
325.535	112.64
325.748	104.45
325.962	32.77
326.175	145.41
326.388	100.35
326.601	186.37
326.814	-59.39
327.027	24.58
327.24	178.17
327.453	-30.72
327.666	69.63
327.879	163.84
328.092	157.69
328.305	45.06
328.518	40.96
328.731	-24.58
328.944	63.49
329.157	30.72
329.37	-0
329.583	98.3
329.796	137.21
330.009	-36.86
330.222	155.65
330.435	100.35
330.648	94.21
330.861	55.3
331.073	135.17
331.286	102.4
331.499	79.87
331.712	12.29
331.925	65.53
332.138	-18.43
332.35	98.3
332.563	-47.1
332.776	176.13
332.989	20.48
333.202	20.48
333.414	55.3
333.627	92.16
333.84	16.38
334.053	126.97
334.265	20.48
334.478	77.82
334.691	63.49
334.903	110.59
335.116	77.82
335.329	20.48
335.541	67.58
335.754	174.08
335.966	34.82
336.179	51.2
336.392	104.45
336.604	-2.05
336.817	112.64
337.029	96.25
337.242	32.77
337.454	98.3
337.667	49.15
337.88	124.93
338.092	83.97
338.305	45.06
338.517	-10.24
338.729	79.87
338.942	79.87
339.154	16.38
339.367	-4.1
339.579	155.65
339.792	-0
340.004	96.25
340.217	69.63
340.429	124.93
340.641	-28.67
340.854	-24.58
341.066	79.87
341.278	194.56
341.491	208.89
341.703	106.49
341.915	-57.34
342.128	53.25
342.34	16.38
342.552	-38.91
342.764	79.87
342.977	88.06
343.189	108.54
343.401	53.25
343.613	12.29
343.826	20.48
344.038	49.15
344.25	-2.05
344.462	24.58
344.674	47.1
344.886	79.87
345.099	147.45
345.311	77.82
345.523	-12.29
345.735	-79.87
345.947	88.06
346.159	59.39
346.371	61.44
346.583	36.86
346.795	219.13
347.007	77.82
347.219	94.21
347.431	10.24
347.643	122.88
347.855	-40.96
348.067	114.69
348.279	8.19
348.491	45.06
348.703	71.68
348.915	65.53
349.127	-12.29
349.339	32.77
349.551	49.15
349.763	51.2
349.975	-6.14
350.187	190.46
350.399	120.83
350.61	122.88
350.822	12.29
351.034	26.62
351.246	83.97
351.458	67.58
351.669	124.93
351.881	96.25
352.093	108.54
352.305	153.6
352.517	126.97
352.728	165.89
352.94	49.15
353.152	-6.14
353.363	65.53
353.575	51.2
353.787	196.6
353.999	71.68
354.21	163.84
354.422	2.05
354.633	14.34
354.845	38.91
355.057	16.38
355.268	-14.34
355.48	129.02
355.692	-22.53
355.903	53.25
356.115	34.82
356.326	-71.68
356.538	188.41
356.749	81.92
356.961	147.45
357.172	100.35
357.384	40.96
357.595	217.08
357.807	-6.14
358.018	92.16
358.23	18.43
358.441	217.08
358.653	118.78
358.864	67.58
359.075	4.1
359.287	83.97
359.498	155.65
359.709	167.93
359.921	43.01
360.132	67.58
360.344	26.62
360.555	53.25
360.766	65.53
360.977	88.06
361.189	124.93
361.4	24.58
361.611	100.35
361.823	167.93
362.034	126.97
362.245	8.19
362.456	12.29
362.667	83.97
362.879	-43.01
363.09	55.3
363.301	40.96
363.512	124.93
363.723	-57.34
363.935	-0
364.146	110.59
364.357	49.15
364.568	143.36
364.779	-83.97
364.99	131.07
365.201	79.87
365.412	165.89
365.623	-118.78
365.834	131.07
366.045	-2.05
366.256	96.25
366.467	75.77
366.678	81.92
366.889	36.86
367.1	34.82
367.311	124.93
367.522	73.73
367.733	153.6
367.944	106.49
368.155	-32.77
368.366	112.64
368.577	165.89
368.788	88.06
368.999	-67.58
369.209	47.1
369.42	301.05
369.631	245.76
369.842	135.17
370.053	71.68
370.264	157.69
370.474	-6.14
370.685	75.77
370.896	86.01
371.107	65.53
371.317	104.45
371.528	6.14
371.739	147.45
371.95	106.49
372.16	153.6
372.371	-22.53
372.582	18.43
372.792	139.26
373.003	83.97
373.214	100.35
373.424	188.41
373.635	38.91
373.846	143.36
374.056	51.2
374.267	65.53
374.477	34.82
374.688	18.43
374.898	92.16
375.109	151.55
375.319	53.25
375.53	149.5
375.74	129.02
375.951	24.58
376.161	83.97
376.372	141.31
376.582	10.24
376.793	75.77
377.003	-47.1
377.214	-8.19
377.424	81.92
377.635	126.97
377.845	49.15
378.055	77.82
378.266	-2.05
378.476	96.25
378.686	-4.1
378.897	77.82
379.107	139.26
379.317	69.63
379.528	96.25
379.738	122.88
379.948	-59.39
380.158	176.13
380.369	88.06
380.579	38.91
380.789	67.58
380.999	55.3
381.21	90.11
381.42	149.5
381.63	61.44
381.84	141.31
382.05	83.97
382.261	61.44
382.471	151.55
382.681	57.34
382.891	231.42
383.101	65.53
383.311	-14.34
383.521	-0
383.731	102.4
383.941	129.02
384.151	65.53
384.361	-12.29
384.571	55.3
384.781	100.35
384.991	124.93
385.201	165.89
385.411	120.83
385.621	65.53
385.831	79.87
386.041	73.73
386.251	-18.43
386.461	30.72
386.671	30.72
386.881	86.01
387.091	-14.34
387.301	137.21
387.511	6.14
387.72	118.78
387.93	145.41
388.14	-16.38
388.35	4.1
388.56	159.74
388.769	176.13
388.979	65.53
389.189	98.3
389.399	34.82
389.609	51.2
389.818	169.98
390.028	47.1
390.238	165.89
390.447	-10.24
390.657	114.69
390.867	63.49
391.076	-79.87
391.286	45.06
391.496	40.96
391.705	108.54
391.915	249.85
392.125	182.27
392.334	40.96
392.544	161.79
392.753	51.2
392.963	-40.96
393.172	90.11
393.382	-4.1
393.591	184.32
393.801	-16.38
394.01	174.08
394.22	38.91
394.429	57.34
394.639	18.43
394.848	90.11
395.058	100.35
395.267	79.87
395.477	157.69
395.686	139.26
395.895	196.6
396.105	196.6
396.314	61.44
396.524	14.34
396.733	38.91
396.942	161.79
397.152	38.91
397.361	122.88
397.57	106.49
397.78	-12.29
397.989	57.34
398.198	192.51
398.407	55.3
398.617	67.58
398.826	88.06
399.035	18.43
399.244	100.35
399.453	24.58
399.663	67.58
399.872	-6.14
400.081	28.67
400.29	133.12
400.499	4.1
400.708	165.89
400.917	12.29
401.127	43.01
401.336	88.06
401.545	165.89
401.754	47.1
401.963	69.63
402.172	-18.43
402.381	26.62
402.59	-14.34
402.799	57.34
403.008	143.36
403.217	88.06
403.426	106.49
403.635	-26.62
403.844	131.07
404.053	38.91
404.262	-20.48
404.471	129.02
404.68	114.69
404.888	69.63
405.097	38.91
405.306	112.64
405.515	120.83
405.724	24.58
405.933	155.65
406.142	126.97
406.35	153.6
406.559	63.49
406.768	131.07
406.977	141.31
407.185	120.83
407.394	149.5
407.603	8.19
407.812	67.58
408.02	200.7
408.229	32.77
408.438	59.39
408.646	-100.35
408.855	88.06
409.064	73.73
409.272	28.67
409.481	81.92
409.69	-65.54
409.898	-22.53
410.107	126.97
410.315	133.12
410.524	36.86
410.733	63.49
410.941	120.83
411.15	61.44
411.358	141.31
411.567	139.26
411.775	6.14
411.984	94.21
412.192	161.79
412.401	24.58
412.609	210.94
412.818	129.02
413.026	172.03
413.234	6.14
413.443	30.72
413.651	-16.38
413.86	-6.14
414.068	174.08
414.276	264.19
414.485	65.53
414.693	180.22
414.901	167.93
415.11	182.27
415.318	49.15
415.526	43.01
415.734	131.07
415.943	116.73
416.151	122.88
416.359	45.06
416.567	59.39
416.776	108.54
416.984	92.16
417.192	243.71
417.4	118.78
417.608	4.1
417.817	-4.1
418.025	75.77
418.233	235.52
418.441	36.86
418.649	73.73
418.857	77.82
419.065	194.56
419.273	90.11
419.481	92.16
419.689	126.97
419.897	38.91
420.105	14.34
420.313	159.74
420.521	141.31
420.729	133.12
420.937	77.82
421.145	-43.01
421.353	86.01
421.561	192.51
421.769	110.59
421.977	26.62
422.185	118.78
422.393	83.97
422.601	24.58
422.809	112.64
423.017	36.86
423.224	81.92
423.432	186.37
423.64	-18.43
423.848	141.31
424.056	55.3
424.263	102.4
424.471	43.01
424.679	120.83
424.887	55.3
425.094	98.3
425.302	102.4
425.51	92.16
425.718	83.97
425.925	96.25
426.133	53.25
426.341	280.57
426.548	92.16
426.756	49.15
426.964	141.31
427.171	12.29
427.379	94.21
427.586	28.67
427.794	153.6
428.001	167.93
428.209	129.02
428.417	186.37
428.624	143.36
428.832	176.13
429.039	104.45
429.247	180.22
429.454	118.78
429.662	169.98
429.869	155.65
430.076	141.31
430.284	288.76
430.491	301.05
430.699	208.89
430.906	198.65
431.114	229.37
431.321	126.97
431.528	139.26
431.736	139.26
431.943	215.04
432.15	186.37
432.358	237.56
432.565	315.39
432.772	26.62
432.979	245.76
433.187	129.02
433.394	196.6
433.601	186.37
433.808	315.39
434.016	280.57
434.223	317.44
434.43	305.15
434.637	274.43
434.844	292.86
435.052	256
435.259	337.91
435.466	290.81
435.673	325.63
435.88	331.77
436.087	380.92
436.294	395.26
436.501	342.01
436.708	319.48
436.915	346.11
437.122	419.83
437.329	335.87
437.537	464.89
437.743	372.73
437.95	448.51
438.157	458.74
438.364	382.97
438.571	511.99
438.778	491.51
438.985	536.57
439.192	612.34
439.399	468.98
439.606	497.66
439.813	555
440.02	716.79
440.227	716.79
440.433	622.58
440.64	624.63
440.847	534.52
441.054	567.29
441.261	804.85
441.467	729.08
441.674	712.69
441.881	854
442.088	696.31
442.294	919.54
442.501	935.92
442.708	944.11
442.914	813.04
443.121	954.35
443.328	968.69
443.534	1103.86
443.741	989.17
443.948	1007.6
444.154	1173.49
444.361	1347.56
444.568	1269.74
444.774	1204.21
444.981	1093.62
445.187	1474.54
445.394	1290.22
445.6	1310.7
445.807	1503.21
446.013	1431.53
446.22	1425.39
446.426	1542.12
446.633	1787.88
446.839	1859.56
447.046	1708.01
447.252	1949.67
447.459	1869.8
447.665	1841.12
447.871	2002.91
448.078	2385.88
448.284	2199.52
448.491	2265.05
448.697	2240.48
448.903	2459.61
449.11	2533.34
449.316	2570.2
449.522	2856.92
449.728	2906.07
449.935	2998.23
450.141	2922.45
450.347	3227.6
450.553	3037.14
450.76	3311.57
450.966	3430.35
451.172	3518.41
451.378	3624.9
451.584	3651.53
451.791	3811.27
451.997	4032.45
452.203	4061.12
452.409	4341.69
452.615	4454.33
452.821	4429.76
453.027	4534.2
453.233	5060.53
453.44	4796.34
453.646	5085.11
453.852	5357.49
454.058	5550
454.264	5638.06
454.47	6033.32
454.676	6051.75
454.882	6606.75
455.088	6281.12
455.294	6803.35
455.5	7110.55
455.705	7675.79
455.911	7544.72
456.117	7878.54
456.323	8015.75
456.529	8132.48
456.735	8836.99
456.941	8992.63
457.147	9406.32
457.352	9535.34
457.558	9836.39
457.764	10465.12
457.97	10835.8
458.176	10968.92
458.381	11583.31
458.587	11931.47
458.793	12320.58
458.999	12322.63
459.204	14096.17
459.41	14403.36
459.616	14233.38
459.821	15208.22
460.027	15740.69
460.233	16289.54
460.438	16563.97
460.644	17325.82
460.85	17569.52
461.055	18507.49
461.261	19091.16
461.466	18808.54
461.672	19269.34
461.878	21569.21
462.083	21368.51
462.289	21954.22
462.494	22611.62
462.7	22881.95
462.905	22918.82
463.111	24667.78
463.316	26142.32
463.522	26515.05
463.727	27569.76
463.932	28526.16
464.138	29347.39
464.343	30387.76
464.549	30524.97
464.754	32876.04
464.959	34311.67
465.165	34217.46
465.37	34174.45
465.575	34061.82
465.781	36369.88
465.986	37506.5
466.191	36726.22
466.397	37451.2
466.602	36378.07
466.807	38409.65
467.012	38985.13
467.218	39779.75
467.423	40002.97
467.628	41141.64
467.833	42767.73
468.038	41862.53
