Data from USB4F104151__22__10-42-00-486.txt Node

Date: Wed Feb 26 10:42:00 EST 2025
User: louis
Spectrometer: USB4F10415
Trigger mode: 4
Integration Time (sec): 1.000000E-1
Scans to average: 1
Electric dark correction enabled: true
Nonlinearity correction enabled: false
Boxcar width: 0
XAxis mode: Wavelengths
Number of Pixels in Spectrum: 3648
>>>>>Begin Spectral Data<<<<<
178.204	-388.43
178.424	-388.43
178.644	-388.43
178.864	-423.25
179.084	-355.66
179.304	82.6
179.524	-11.61
179.744	-54.61
179.964	0.68
180.184	35.5
180.404	66.22
180.624	-64.85
180.844	-25.94
181.064	-66.9
181.283	15.02
181.503	17.07
181.723	6.83
181.943	-105.81
182.163	168.62
182.383	4.78
182.602	94.89
182.822	131.75
183.042	33.45
183.262	-9.56
183.482	-25.94
183.701	55.98
183.921	-3.41
184.141	-44.37
184.361	144.04
184.58	82.6
184.8	160.42
185.02	-48.47
185.239	123.56
185.459	76.46
185.679	166.57
185.898	-46.42
186.118	51.88
186.338	80.55
186.557	64.17
186.777	-71
186.997	-19.8
187.216	58.03
187.436	174.76
187.655	86.7
187.875	113.32
188.095	111.27
188.314	129.7
188.534	168.62
188.753	-3.41
188.973	144.04
189.192	156.33
189.412	55.98
189.631	-1.37
189.851	84.65
190.07	146.09
190.29	-66.9
190.509	29.35
190.729	45.74
190.948	174.76
191.168	252.58
191.387	53.93
191.607	39.59
191.826	-11.61
192.045	58.03
192.265	-15.7
192.484	109.23
192.704	105.13
192.923	-85.33
193.142	131.75
193.362	66.22
193.581	156.33
193.8	101.03
194.02	66.22
194.239	82.6
194.458	15.02
194.678	-3.41
194.897	29.35
195.116	88.75
195.335	27.31
195.555	72.36
195.774	-64.85
195.993	164.52
196.212	58.03
196.432	-27.99
196.651	-60.76
196.87	72.36
197.089	316.07
197.308	105.13
197.528	12.97
197.747	-32.08
197.966	70.31
198.185	166.57
198.404	-71
198.623	141.99
198.842	121.51
199.062	148.14
199.281	55.98
199.5	-25.94
199.719	103.08
199.938	133.8
200.157	43.69
200.376	107.18
200.595	168.62
200.814	86.7
201.033	17.07
201.252	148.14
201.471	60.07
201.69	12.97
201.909	55.98
202.128	164.52
202.347	101.03
202.566	29.35
202.785	-62.8
203.004	51.88
203.223	250.53
203.442	-17.75
203.661	-79.19
203.879	107.18
204.098	168.62
204.317	-9.56
204.536	125.61
204.755	72.36
204.974	101.03
205.193	15.02
205.411	172.71
205.63	158.38
205.849	33.45
206.068	66.22
206.287	-64.85
206.505	141.99
206.724	35.5
206.943	6.83
207.162	-25.94
207.381	78.51
207.599	37.55
207.818	49.83
208.037	-32.08
208.255	146.09
208.474	51.88
208.693	133.8
208.911	-21.84
209.13	47.79
209.349	35.5
209.567	33.45
209.786	107.18
210.005	148.14
210.223	19.11
210.442	-32.08
210.661	55.98
210.879	113.32
211.098	-30.04
211.316	111.27
211.535	51.88
211.753	31.4
211.972	21.16
212.191	-3.41
212.409	29.35
212.628	45.74
212.846	17.07
213.065	70.31
213.283	37.55
213.502	78.51
213.72	92.84
213.938	70.31
214.157	10.92
214.375	45.74
214.594	58.03
214.812	39.59
215.031	-9.56
215.249	72.36
215.467	90.79
215.686	47.79
215.904	58.03
216.122	117.42
216.341	166.57
216.559	66.22
216.778	137.9
216.996	133.8
217.214	-11.61
217.432	0.68
217.651	-25.94
217.869	96.94
218.087	-1.37
218.306	-9.56
218.524	139.94
218.742	35.5
218.96	68.27
219.179	8.87
219.397	33.45
219.615	258.73
219.833	23.21
220.051	21.16
220.27	111.27
220.488	98.99
220.706	68.27
220.924	-7.51
221.142	72.36
221.36	23.21
221.578	64.17
221.796	62.12
222.015	90.79
222.233	49.83
222.451	234.15
222.669	-52.56
222.887	74.41
223.105	6.83
223.323	-7.51
223.541	-13.65
223.759	74.41
223.977	70.31
224.195	135.85
224.413	84.65
224.631	152.23
224.849	117.42
225.067	180.9
225.285	66.22
225.503	2.73
225.721	-114
225.939	84.65
226.157	15.02
226.375	271.01
226.592	6.83
226.81	-5.46
227.028	160.42
227.246	139.94
227.464	53.93
227.682	117.42
227.9	103.08
228.117	72.36
228.335	74.41
228.553	-1.37
228.771	51.88
228.989	19.11
229.206	29.35
229.424	53.93
229.642	35.5
229.86	-95.57
230.077	166.57
230.295	-11.61
230.513	166.57
230.731	58.03
230.948	150.18
231.166	191.14
231.384	-30.04
231.601	0.68
231.819	242.34
232.037	6.83
232.254	-17.75
232.472	66.22
232.689	-19.8
232.907	103.08
233.125	-40.28
233.342	17.07
233.56	35.5
233.777	31.4
233.995	-21.84
234.213	80.55
234.43	101.03
234.648	-1.37
234.865	43.69
235.083	21.16
235.3	31.4
235.518	123.56
235.735	119.46
235.953	80.55
236.17	72.36
236.388	80.55
236.605	80.55
236.822	98.99
237.04	107.18
237.257	76.46
237.475	62.12
237.692	55.98
237.909	189.1
238.127	8.87
238.344	35.5
238.562	139.94
238.779	-91.48
238.996	-21.84
239.214	-1.37
239.431	15.02
239.648	29.35
239.865	70.31
240.083	49.83
240.3	-11.61
240.517	-32.08
240.735	4.78
240.952	133.8
241.169	62.12
241.386	35.5
241.603	82.6
241.821	-85.33
242.038	111.27
242.255	152.23
242.472	-25.94
242.689	103.08
242.907	72.36
243.124	111.27
243.341	-44.37
243.558	21.16
243.775	-66.9
243.992	6.83
244.209	144.04
244.426	139.94
244.643	148.14
244.86	45.74
245.078	88.75
245.295	105.13
245.512	-17.75
245.729	10.92
245.946	64.17
246.163	-11.61
246.38	21.16
246.597	60.07
246.814	80.55
247.031	49.83
247.248	-3.41
247.464	33.45
247.681	35.5
247.898	53.93
248.115	43.69
248.332	-15.7
248.549	105.13
248.766	174.76
248.983	15.02
249.2	68.27
249.417	74.41
249.633	29.35
249.85	113.32
250.067	58.03
250.284	78.51
250.501	88.75
250.717	29.35
250.934	-3.41
251.151	-17.75
251.368	6.83
251.585	78.51
251.801	17.07
252.018	-32.08
252.235	170.66
252.451	-27.99
252.668	37.55
252.885	101.03
253.102	64.17
253.318	15.02
253.535	-15.7
253.752	-60.76
253.968	4.78
254.185	-25.94
254.401	94.89
254.618	96.94
254.835	58.03
255.051	121.51
255.268	58.03
255.484	152.23
255.701	92.84
255.917	123.56
256.134	33.45
256.351	-9.56
256.567	-36.18
256.784	78.51
257	-73.04
257.217	33.45
257.433	58.03
257.65	121.51
257.866	123.56
258.082	-58.71
258.299	-3.41
258.515	58.03
258.732	2.73
258.948	-34.13
259.165	58.03
259.381	2.73
259.597	68.27
259.814	31.4
260.03	39.59
260.246	4.78
260.463	144.04
260.679	115.37
260.895	31.4
261.112	12.97
261.328	31.4
261.544	23.21
261.761	185
261.977	51.88
262.193	-54.61
262.409	58.03
262.626	35.5
262.842	33.45
263.058	-19.8
263.274	123.56
263.49	12.97
263.707	168.62
263.923	111.27
264.139	-118.1
264.355	23.21
264.571	125.61
264.787	131.75
265.004	94.89
265.22	94.89
265.436	-36.18
265.652	78.51
265.868	47.79
266.084	-52.56
266.3	51.88
266.516	-19.8
266.732	17.07
266.948	12.97
267.164	19.11
267.38	94.89
267.596	125.61
267.812	195.24
268.028	39.59
268.244	88.75
268.46	66.22
268.676	72.36
268.892	84.65
269.108	-109.91
269.324	0.68
269.54	-34.13
269.756	25.26
269.972	-46.42
270.188	12.97
270.403	-11.61
270.619	74.41
270.835	84.65
271.051	76.46
271.267	6.83
271.483	-13.65
271.698	72.36
271.914	86.7
272.13	-42.32
272.346	49.83
272.562	94.89
272.777	80.55
272.993	21.16
273.209	-52.56
273.425	133.8
273.64	-42.32
273.856	156.33
274.072	-27.99
274.287	47.79
274.503	88.75
274.719	158.38
274.934	2.73
275.15	-101.72
275.366	-15.7
275.581	-23.89
275.797	12.97
276.012	10.92
276.228	-34.13
276.444	80.55
276.659	58.03
276.875	-27.99
277.09	84.65
277.306	47.79
277.521	70.31
277.737	39.59
277.952	51.88
278.168	64.17
278.383	2.73
278.599	0.68
278.814	45.74
279.03	90.79
279.245	162.47
279.461	21.16
279.676	103.08
279.892	-1.37
280.107	80.55
280.322	-1.37
280.538	119.46
280.753	-11.61
280.969	55.98
281.184	74.41
281.399	172.71
281.615	64.17
281.83	29.35
282.045	-7.51
282.26	-68.95
282.476	37.55
282.691	53.93
282.906	64.17
283.122	23.21
283.337	31.4
283.552	131.75
283.767	41.64
283.983	90.79
284.198	60.07
284.413	168.62
284.628	-34.13
284.843	31.4
285.058	58.03
285.274	47.79
285.489	10.92
285.704	133.8
285.919	17.07
286.134	41.64
286.349	45.74
286.564	-1.37
286.779	182.95
286.995	19.11
287.21	-60.76
287.425	70.31
287.64	37.55
287.855	72.36
288.07	-54.61
288.285	127.66
288.5	27.31
288.715	150.18
288.93	101.03
289.145	39.59
289.36	49.83
289.575	90.79
289.79	127.66
290.004	41.64
290.219	70.31
290.434	-44.37
290.649	-19.8
290.864	-52.56
291.079	-1.37
291.294	-3.41
291.509	25.26
291.724	-48.47
291.938	-5.46
292.153	45.74
292.368	55.98
292.583	121.51
292.798	172.71
293.012	105.13
293.227	84.65
293.442	-15.7
293.657	60.07
293.871	109.23
294.086	127.66
294.301	195.24
294.516	160.42
294.73	90.79
294.945	-44.37
295.16	82.6
295.374	125.61
295.589	103.08
295.804	-73.04
296.018	-40.28
296.233	119.46
296.447	64.17
296.662	-38.23
296.877	123.56
297.091	66.22
297.306	62.12
297.52	41.64
297.735	107.18
297.949	123.56
298.164	33.45
298.378	113.32
298.593	-50.52
298.807	-66.9
299.022	82.6
299.236	176.81
299.451	-7.51
299.665	-36.18
299.88	60.07
300.094	60.07
300.309	47.79
300.523	47.79
300.737	47.79
300.952	27.31
301.166	129.7
301.381	6.83
301.595	6.83
301.809	55.98
302.024	23.21
302.238	-34.13
302.452	113.32
302.667	66.22
302.881	37.55
303.095	121.51
303.309	86.7
303.524	43.69
303.738	47.79
303.952	90.79
304.166	84.65
304.381	-44.37
304.595	174.76
304.809	90.79
305.023	-34.13
305.237	55.98
305.452	115.37
305.666	150.18
305.88	76.46
306.094	131.75
306.308	135.85
306.522	58.03
306.736	72.36
306.95	135.85
307.164	55.98
307.379	25.26
307.593	144.04
307.807	205.48
308.021	41.64
308.235	82.6
308.449	-13.65
308.663	105.13
308.877	258.73
309.091	74.41
309.305	33.45
309.519	-85.33
309.733	154.28
309.947	-89.43
310.161	64.17
310.374	111.27
310.588	152.23
310.802	-75.09
311.016	-15.7
311.23	10.92
311.444	8.87
311.658	25.26
311.872	66.22
312.085	146.09
312.299	127.66
312.513	129.7
312.727	105.13
312.941	-21.84
313.154	19.11
313.368	29.35
313.582	109.23
313.796	58.03
314.009	33.45
314.223	141.99
314.437	-19.8
314.651	156.33
314.864	-32.08
315.078	4.78
315.292	-42.32
315.505	-42.32
315.719	33.45
315.933	8.87
316.146	21.16
316.36	-11.61
316.573	146.09
316.787	109.23
317.001	-13.65
317.214	33.45
317.428	49.83
317.641	-60.76
317.855	-23.89
318.068	92.84
318.282	51.88
318.495	228.01
318.709	72.36
318.922	53.93
319.136	137.9
319.349	27.31
319.563	80.55
319.776	25.26
319.99	-1.37
320.203	47.79
320.417	37.55
320.63	101.03
320.843	172.71
321.057	94.89
321.27	68.27
321.483	58.03
321.697	125.61
321.91	51.88
322.124	111.27
322.337	94.89
322.55	15.02
322.763	82.6
322.977	70.31
323.19	-27.99
323.403	107.18
323.617	123.56
323.83	176.81
324.043	53.93
324.256	43.69
324.469	-85.33
324.683	47.79
324.896	111.27
325.109	25.26
325.322	-38.23
325.535	135.85
325.748	113.32
325.962	-7.51
326.175	33.45
326.388	47.79
326.601	117.42
326.814	86.7
327.027	103.08
327.24	182.95
327.453	-56.66
327.666	68.27
327.879	146.09
328.092	-1.37
328.305	70.31
328.518	158.38
328.731	-60.76
328.944	-30.04
329.157	35.5
329.37	15.02
329.583	152.23
329.796	113.32
330.009	-48.47
330.222	74.41
330.435	31.4
330.648	2.73
330.861	154.28
331.073	31.4
331.286	51.88
331.499	29.35
331.712	-73.04
331.925	17.07
332.138	23.21
332.35	101.03
332.563	10.92
332.776	195.24
332.989	-48.47
333.202	15.02
333.414	86.7
333.627	-81.24
333.84	33.45
334.053	103.08
334.265	8.87
334.478	25.26
334.691	10.92
334.903	29.35
335.116	-38.23
335.329	19.11
335.541	62.12
335.754	162.47
335.966	21.16
336.179	-7.51
336.392	27.31
336.604	74.41
336.817	78.51
337.029	121.51
337.242	98.99
337.454	94.89
337.667	17.07
337.88	135.85
338.092	21.16
338.305	12.97
338.517	-19.8
338.729	103.08
338.942	133.8
339.154	-25.94
339.367	29.35
339.579	70.31
339.792	-17.75
340.004	90.79
340.217	0.68
340.429	111.27
340.641	0.68
340.854	35.5
341.066	78.51
341.278	60.07
341.491	152.23
341.703	41.64
341.915	39.59
342.128	150.18
342.34	60.07
342.552	33.45
342.764	-19.8
342.977	-81.24
343.189	141.99
343.401	12.97
343.613	-27.99
343.826	70.31
344.038	-85.33
344.25	60.07
344.462	51.88
344.674	119.46
344.886	21.16
345.099	96.94
345.311	76.46
345.523	10.92
345.735	-3.41
345.947	60.07
346.159	105.13
346.371	76.46
346.583	-64.85
346.795	131.75
347.007	31.4
347.219	103.08
347.431	2.73
347.643	123.56
347.855	27.31
348.067	80.55
348.279	41.64
348.491	35.5
348.703	107.18
348.915	-27.99
349.127	39.59
349.339	78.51
349.551	-44.37
349.763	55.98
349.975	64.17
350.187	68.27
350.399	185
350.61	98.99
350.822	80.55
351.034	78.51
351.246	-7.51
351.458	74.41
351.669	98.99
351.881	82.6
352.093	113.32
352.305	135.85
352.517	55.98
352.728	197.29
352.94	43.69
353.152	53.93
353.363	0.68
353.575	6.83
353.787	115.37
353.999	107.18
354.21	223.91
354.422	-9.56
354.633	-17.75
354.845	66.22
355.057	74.41
355.268	19.11
355.48	160.42
355.692	-52.56
355.903	70.31
356.115	29.35
356.326	-120.15
356.538	125.61
356.749	103.08
356.961	84.65
357.172	10.92
357.384	41.64
357.595	221.86
357.807	-11.61
358.018	-23.89
358.23	82.6
358.441	160.42
358.653	64.17
358.864	12.97
359.075	-83.28
359.287	66.22
359.498	121.51
359.709	92.84
359.921	84.65
360.132	82.6
360.344	53.93
360.555	90.79
360.766	101.03
360.977	-5.46
361.189	193.19
361.4	119.46
361.611	86.7
361.823	86.7
362.034	150.18
362.245	-140.63
362.456	-40.28
362.667	76.46
362.879	-34.13
363.09	39.59
363.301	23.21
363.512	35.5
363.723	60.07
363.935	8.87
364.146	72.36
364.357	35.5
364.568	92.84
364.779	-48.47
364.99	176.81
365.201	29.35
365.412	154.28
365.623	-75.09
365.834	119.46
366.045	33.45
366.256	74.41
366.467	70.31
366.678	51.88
366.889	-7.51
367.1	-25.94
367.311	160.42
367.522	25.26
367.733	68.27
367.944	90.79
368.155	68.27
368.366	148.14
368.577	152.23
368.788	156.33
368.999	-5.46
369.209	82.6
369.42	244.39
369.631	213.67
369.842	133.8
370.053	-9.56
370.264	117.42
370.474	-46.42
370.685	158.38
370.896	-23.89
371.107	160.42
371.317	19.11
371.528	53.93
371.739	156.33
371.95	86.7
372.16	68.27
372.371	21.16
372.582	72.36
372.792	43.69
373.003	66.22
373.214	60.07
373.424	80.55
373.635	23.21
373.846	101.03
374.056	135.85
374.267	29.35
374.477	49.83
374.688	6.83
374.898	160.42
375.109	-11.61
375.319	103.08
375.53	164.52
375.74	127.66
375.951	2.73
376.161	123.56
376.372	185
376.582	-5.46
376.793	45.74
377.003	-19.8
377.214	41.64
377.424	47.79
377.635	29.35
377.845	-30.04
378.055	160.42
378.266	-38.23
378.476	4.78
378.686	133.8
378.897	101.03
379.107	111.27
379.317	60.07
379.528	117.42
379.738	135.85
379.948	-103.76
380.158	152.23
380.369	51.88
380.579	88.75
380.789	68.27
380.999	170.66
381.21	33.45
381.42	180.9
381.63	113.32
381.84	121.51
382.05	43.69
382.261	133.8
382.471	178.86
382.681	-38.23
382.891	199.34
383.101	78.51
383.311	-19.8
383.521	0.68
383.731	96.94
383.941	123.56
384.151	98.99
384.361	-7.51
384.571	66.22
384.781	31.4
384.991	111.27
385.201	205.48
385.411	72.36
385.621	43.69
385.831	68.27
386.041	2.73
386.251	-17.75
386.461	117.42
386.671	37.55
386.881	101.03
387.091	8.87
387.301	78.51
387.511	49.83
387.72	84.65
387.93	107.18
388.14	-89.43
388.35	111.27
388.56	154.28
388.769	123.56
388.979	115.37
389.189	29.35
389.399	41.64
389.609	131.75
389.818	23.21
390.028	10.92
390.238	74.41
390.447	-44.37
390.657	162.47
390.867	86.7
391.076	-11.61
391.286	47.79
391.496	19.11
391.705	146.09
391.915	160.42
392.125	105.13
392.334	25.26
392.544	144.04
392.753	78.51
392.963	-93.52
393.172	39.59
393.382	17.07
393.591	158.38
393.801	53.93
394.01	174.76
394.22	88.75
394.429	72.36
394.639	74.41
394.848	98.99
395.058	25.26
395.267	25.26
395.477	162.47
395.686	80.55
395.895	199.34
396.105	213.67
396.314	123.56
396.524	39.59
396.733	49.83
396.942	103.08
397.152	105.13
397.361	74.41
397.57	4.78
397.78	78.51
397.989	141.99
398.198	129.7
398.407	39.59
398.617	64.17
398.826	41.64
399.035	60.07
399.244	80.55
399.453	12.97
399.663	70.31
399.872	72.36
400.081	-36.18
400.29	127.66
400.499	31.4
400.708	78.51
400.917	-1.37
401.127	101.03
401.336	4.78
401.545	197.29
401.754	78.51
401.963	96.94
402.172	-62.8
402.381	-60.76
402.59	2.73
402.799	-7.51
403.008	88.75
403.217	139.94
403.426	53.93
403.635	-101.72
403.844	-44.37
404.053	27.31
404.262	23.21
404.471	164.52
404.68	107.18
404.888	90.79
405.097	53.93
405.306	39.59
405.515	109.23
405.724	72.36
405.933	193.19
406.142	94.89
406.35	131.75
406.559	53.93
406.768	37.55
406.977	133.8
407.185	107.18
407.394	10.92
407.603	-9.56
407.812	146.09
408.02	156.33
408.229	43.69
408.438	72.36
408.646	12.97
408.855	82.6
409.064	168.62
409.272	55.98
409.481	135.85
409.69	29.35
409.898	27.31
410.107	74.41
410.315	105.13
410.524	27.31
410.733	98.99
410.941	-19.8
411.15	82.6
411.358	115.37
411.567	221.86
411.775	127.66
411.984	94.89
412.192	113.32
412.401	0.68
412.609	127.66
412.818	144.04
413.026	94.89
413.234	90.79
413.443	23.21
413.651	-52.56
413.86	53.93
414.068	160.42
414.276	203.43
414.485	35.5
414.693	133.8
414.901	223.91
415.11	131.75
415.318	94.89
415.526	45.74
415.734	139.94
415.943	123.56
416.151	152.23
416.359	72.36
416.567	27.31
416.776	182.95
416.984	107.18
417.192	195.24
417.4	43.69
417.608	12.97
417.817	29.35
418.025	105.13
418.233	174.76
418.441	84.65
418.649	17.07
418.857	47.79
419.065	107.18
419.273	15.02
419.481	66.22
419.689	35.5
419.897	-1.37
420.105	-56.66
420.313	53.93
420.521	119.46
420.729	168.62
420.937	70.31
421.145	-32.08
421.353	125.61
421.561	174.76
421.769	96.94
421.977	31.4
422.185	55.98
422.393	31.4
422.601	115.37
422.809	55.98
423.017	115.37
423.224	88.75
423.432	139.94
423.64	94.89
423.848	160.42
424.056	68.27
424.263	133.8
424.471	68.27
424.679	123.56
424.887	-27.99
425.094	156.33
425.302	170.66
425.51	45.74
425.718	103.08
425.925	119.46
426.133	72.36
426.341	195.24
426.548	53.93
426.756	88.75
426.964	109.23
427.171	37.55
427.379	152.23
427.586	121.51
427.794	64.17
428.001	70.31
428.209	158.38
428.417	191.14
428.624	182.95
428.832	70.31
429.039	217.77
429.247	78.51
429.454	164.52
429.662	250.53
429.869	221.86
430.076	170.66
430.284	240.3
430.491	180.9
430.699	223.91
430.906	197.29
431.114	139.94
431.321	262.82
431.528	191.14
431.736	111.27
431.943	189.1
432.15	209.58
432.358	211.62
432.565	240.3
432.772	107.18
432.979	283.3
433.187	146.09
433.394	273.06
433.601	172.71
433.808	357.03
434.016	260.77
434.223	228.01
434.43	275.11
434.637	287.4
434.844	305.83
435.052	258.73
435.259	291.49
435.466	436.9
435.673	271.01
435.88	299.69
436.087	404.13
436.294	365.22
436.501	320.17
436.708	213.67
436.915	363.17
437.122	451.24
437.329	363.17
437.537	383.65
437.743	402.08
437.95	531.11
438.157	397.99
438.364	512.67
438.571	484
438.778	527.01
438.985	533.15
439.192	543.39
439.399	563.87
439.606	559.78
439.813	578.21
440.02	678.56
440.227	662.18
440.433	676.51
440.64	701.09
440.847	541.35
441.054	778.91
441.261	856.73
441.467	711.33
441.674	795.29
441.881	852.64
442.088	801.44
442.294	950.94
442.501	866.97
442.708	996
442.914	993.95
443.121	1026.71
443.328	1006.24
443.534	1122.97
443.741	1030.81
443.948	1004.19
444.154	1180.31
444.361	1417.88
444.568	1276.57
444.774	1333.91
444.981	1168.02
445.187	1469.08
445.394	1383.06
445.6	1417.88
445.807	1538.71
446.013	1563.28
446.22	1587.86
446.426	1751.7
446.633	1913.49
446.839	1915.53
447.046	1655.44
447.252	2022.03
447.459	1876.62
447.665	1966.73
447.871	2165.39
448.078	2343.56
448.284	2273.93
448.491	2433.67
448.697	2505.35
448.903	2644.61
449.11	2634.37
449.316	2689.67
449.522	2937.47
449.728	3033.72
449.935	3158.65
450.141	2982.53
450.347	3318.39
450.553	3302.01
450.76	3381.88
450.966	3601.01
451.172	3627.64
451.378	3857.01
451.584	4067.95
451.791	4239.98
451.997	4227.69
452.203	4254.31
452.409	4575.84
452.615	4788.83
452.821	4668
453.027	4741.73
453.233	5259.87
453.44	5044.83
453.646	5388.89
453.852	5612.12
454.058	5933.65
454.264	6029.9
454.47	6320.71
454.676	6455.88
454.882	7000.64
455.088	6752.84
455.294	6992.45
455.5	7526.97
455.705	8008.24
455.911	7932.47
456.117	8159.79
456.323	8370.73
456.529	8489.51
456.735	9396.76
456.941	9513.5
457.147	9921.04
457.352	10191.38
457.558	10367.5
457.764	11026.95
457.97	11448.83
458.176	11803.13
458.381	12122.61
458.587	12538.35
458.793	13265.38
458.999	13273.57
459.204	14944.71
459.41	15520.19
459.616	14936.52
459.821	16023.99
460.027	16775.59
460.233	17426.85
460.438	17441.18
460.644	18647.44
460.85	18516.37
461.055	19706.24
461.261	20590.96
461.466	20212.09
461.672	20345.2
461.878	22864.21
462.083	22466.9
462.289	22987.08
462.494	24369.46
462.7	24090.94
462.905	24369.46
463.111	26716.43
463.316	27724.04
463.522	28393.72
463.727	29311.21
463.932	30355.68
464.138	31258.83
464.343	32577.72
464.549	32858.29
464.754	34965.65
464.959	35477.65
465.165	36796.54
465.37	35944.58
465.575	36561.02
465.781	38637.66
465.986	39786.57
466.191	39329.87
466.397	39565.39
466.602	38772.83
466.807	40720.45
467.012	41054.26
467.218	42043.43
467.423	42123.3
467.628	43667.47
467.833	45778.93
468.038	44851.2
