Data from USB4F104151__66__10-43-56-473.txt Node

Date: Wed Feb 26 10:43:56 EST 2025
User: louis
Spectrometer: USB4F10415
Trigger mode: 4
Integration Time (sec): 1.000000E-1
Scans to average: 1
Electric dark correction enabled: true
Nonlinearity correction enabled: false
Boxcar width: 0
XAxis mode: Wavelengths
Number of Pixels in Spectrum: 3648
>>>>>Begin Spectral Data<<<<<
178.204	-439.8
178.424	-439.8
178.644	-439.8
178.864	-472.57
179.084	-435.71
179.304	-32.26
179.524	-19.97
179.744	25.09
179.964	43.52
180.184	-30.21
180.404	61.95
180.624	-75.26
180.844	14.85
181.064	-24.06
181.283	31.23
181.503	-79.36
181.723	84.48
181.943	-42.5
182.163	180.73
182.383	-81.41
182.602	41.47
182.822	117.25
183.042	18.94
183.262	0.51
183.482	45.57
183.701	-36.35
183.921	-5.63
184.141	8.7
184.361	104.96
184.58	-7.68
184.8	-22.02
185.02	-26.11
185.239	84.48
185.459	51.71
185.679	31.23
185.898	-69.12
186.118	109.05
186.338	115.2
186.557	76.29
186.777	-108.03
186.997	-48.64
187.216	49.66
187.436	176.64
187.655	27.14
187.875	43.52
188.095	-1.54
188.314	104.96
188.534	57.86
188.753	-11.78
188.973	137.73
189.192	135.68
189.412	-22.02
189.631	-28.16
189.851	25.09
190.07	150.01
190.29	-73.21
190.509	0.51
190.729	-22.02
190.948	55.81
191.168	242.17
191.387	74.24
191.607	-1.54
191.826	-1.54
192.045	20.99
192.265	88.57
192.484	86.53
192.704	45.57
192.923	-34.3
193.142	84.48
193.362	23.04
193.581	135.68
193.8	76.29
194.02	76.29
194.239	4.61
194.458	143.87
194.678	-24.06
194.897	-3.58
195.116	57.86
195.335	102.91
195.555	49.66
195.774	-26.11
195.993	31.23
196.212	23.04
196.432	-48.64
196.651	-5.63
196.87	51.71
197.089	274.94
197.308	76.29
197.528	154.11
197.747	-24.06
197.966	33.28
198.185	184.83
198.404	-5.63
198.623	115.2
198.842	53.76
199.062	80.38
199.281	72.19
199.5	55.81
199.719	117.25
199.938	61.95
200.157	80.38
200.376	137.73
200.595	51.71
200.814	107.01
201.033	18.94
201.252	88.57
201.471	96.77
201.69	61.95
201.909	25.09
202.128	115.2
202.347	92.67
202.566	80.38
202.785	-50.69
203.004	-42.5
203.223	281.08
203.442	0.51
203.661	-24.06
203.879	57.86
204.098	109.05
204.317	-73.21
204.536	78.33
204.755	51.71
204.974	117.25
205.193	-48.64
205.411	133.63
205.63	100.86
205.849	76.29
206.068	25.09
206.287	-7.68
206.505	107.01
206.724	74.24
206.943	8.7
207.162	-3.58
207.381	74.24
207.599	53.76
207.818	-44.54
208.037	-15.87
208.255	14.85
208.474	76.29
208.693	86.53
208.911	35.33
209.13	107.01
209.349	31.23
209.567	55.81
209.786	90.62
210.005	115.2
210.223	88.57
210.442	-58.88
210.661	-17.92
210.879	-46.59
211.098	14.85
211.316	12.8
211.535	76.29
211.753	-15.87
211.972	119.29
212.191	2.56
212.409	-32.26
212.628	113.15
212.846	-60.93
213.065	121.34
213.283	45.57
213.502	20.99
213.72	61.95
213.938	51.71
214.157	-7.68
214.375	-26.11
214.594	-38.4
214.812	61.95
215.031	-42.5
215.249	20.99
215.467	59.9
215.686	49.66
215.904	57.86
216.122	-32.26
216.341	100.86
216.559	61.95
216.778	-9.73
216.996	92.67
217.214	49.66
217.432	-17.92
217.651	-77.31
217.869	2.56
218.087	29.18
218.306	-3.58
218.524	-3.58
218.742	-44.54
218.96	100.86
219.179	-5.63
219.397	57.86
219.615	123.39
219.833	107.01
220.051	-11.78
220.27	86.53
220.488	104.96
220.706	72.19
220.924	-24.06
221.142	-52.74
221.36	-13.82
221.578	84.48
221.796	96.77
222.015	8.7
222.233	27.14
222.451	152.06
222.669	-34.3
222.887	12.8
223.105	-65.02
223.323	39.42
223.541	-54.78
223.759	117.25
223.977	37.38
224.195	137.73
224.413	74.24
224.631	25.09
224.849	-15.87
225.067	184.83
225.285	-22.02
225.503	37.38
225.721	-142.85
225.939	66.05
226.157	-13.82
226.375	225.79
226.592	33.28
226.81	41.47
227.028	41.47
227.246	72.19
227.464	47.62
227.682	33.28
227.9	55.81
228.117	12.8
228.335	74.24
228.553	-26.11
228.771	-19.97
228.989	-11.78
229.206	98.81
229.424	2.56
229.642	23.04
229.86	-81.41
230.077	33.28
230.295	27.14
230.513	90.62
230.731	66.05
230.948	156.16
231.166	121.34
231.384	-40.45
231.601	-24.06
231.819	195.07
232.037	-44.54
232.254	-36.35
232.472	41.47
232.689	-54.78
232.907	96.77
233.125	-32.26
233.342	-26.11
233.56	14.85
233.777	-36.35
233.995	59.9
234.213	102.91
234.43	2.56
234.648	8.7
234.865	-32.26
235.083	23.04
235.3	4.61
235.518	35.33
235.735	51.71
235.953	43.52
236.17	29.18
236.388	23.04
236.605	10.75
236.822	86.53
237.04	80.38
237.257	31.23
237.475	-65.02
237.692	55.81
237.909	37.38
238.127	14.85
238.344	39.42
238.562	8.7
238.779	-89.6
238.996	-62.98
239.214	129.53
239.431	59.9
239.648	53.76
239.865	76.29
240.083	111.1
240.3	2.56
240.517	29.18
240.735	-32.26
240.952	119.29
241.169	16.9
241.386	168.45
241.603	16.9
241.821	-1.54
242.038	66.05
242.255	135.68
242.472	-52.74
242.689	104.96
242.907	88.57
243.124	27.14
243.341	25.09
243.558	2.56
243.775	-30.21
243.992	-97.79
244.209	47.62
244.426	184.83
244.643	90.62
244.86	-48.64
245.078	51.71
245.295	82.43
245.512	53.76
245.729	-48.64
245.946	2.56
246.163	82.43
246.38	45.57
246.597	57.86
246.814	-7.68
247.031	-62.98
247.248	82.43
247.464	82.43
247.681	35.33
247.898	35.33
248.115	115.2
248.332	18.94
248.549	180.73
248.766	182.78
248.983	51.71
249.2	152.06
249.417	18.94
249.633	-24.06
249.85	53.76
250.067	-3.58
250.284	123.39
250.501	47.62
250.717	35.33
250.934	2.56
251.151	86.53
251.368	86.53
251.585	0.51
251.801	16.9
252.018	-5.63
252.235	10.75
252.451	-24.06
252.668	31.23
252.885	133.63
253.102	-11.78
253.318	43.52
253.535	4.61
253.752	10.75
253.968	-42.5
254.185	-120.32
254.401	53.76
254.618	16.9
254.835	68.09
255.051	117.25
255.268	41.47
255.484	-9.73
255.701	35.33
255.917	90.62
256.134	-19.97
256.351	102.91
256.567	-75.26
256.784	90.62
257	-58.88
257.217	64
257.433	43.52
257.65	25.09
257.866	178.69
258.082	-128.51
258.299	-95.74
258.515	45.57
258.732	-26.11
258.948	-19.97
259.165	64
259.381	-65.02
259.597	74.24
259.814	84.48
260.03	-69.12
260.246	47.62
260.463	107.01
260.679	154.11
260.895	-7.68
261.112	88.57
261.328	59.9
261.544	-32.26
261.761	197.12
261.977	-58.88
262.193	-19.97
262.409	111.1
262.626	41.47
262.842	80.38
263.058	45.57
263.274	70.14
263.49	20.99
263.707	76.29
263.923	53.76
264.139	-44.54
264.355	51.71
264.571	121.34
264.787	74.24
265.004	135.68
265.22	51.71
265.436	43.52
265.652	-13.82
265.868	23.04
266.084	12.8
266.3	90.62
266.516	-79.36
266.732	70.14
266.948	41.47
267.164	-85.5
267.38	88.57
267.596	20.99
267.812	143.87
268.028	64
268.244	-38.4
268.46	-32.26
268.676	-13.82
268.892	-7.68
269.108	-87.55
269.324	-28.16
269.54	-42.5
269.756	37.38
269.972	-118.27
270.188	-48.64
270.403	-97.79
270.619	6.66
270.835	59.9
271.051	-34.3
271.267	-3.58
271.483	-60.93
271.698	72.19
271.914	68.09
272.13	33.28
272.346	-50.69
272.562	152.06
272.777	119.29
272.993	49.66
273.209	-5.63
273.425	100.86
273.64	-46.59
273.856	33.28
274.072	-50.69
274.287	-13.82
274.503	74.24
274.719	98.81
274.934	18.94
275.15	-42.5
275.366	-5.63
275.581	4.61
275.797	41.47
276.012	37.38
276.228	14.85
276.444	39.42
276.659	64
276.875	-60.93
277.09	-77.31
277.306	-32.26
277.521	49.66
277.737	49.66
277.952	158.21
278.168	-38.4
278.383	57.86
278.599	-11.78
278.814	27.14
279.03	47.62
279.245	55.81
279.461	98.81
279.676	8.7
279.892	-34.3
280.107	-15.87
280.322	68.09
280.538	70.14
280.753	41.47
280.969	-32.26
281.184	-13.82
281.399	133.63
281.615	27.14
281.83	43.52
282.045	-42.5
282.26	-40.45
282.476	76.29
282.691	64
282.906	113.15
283.122	-5.63
283.337	31.23
283.552	76.29
283.767	-11.78
283.983	98.81
284.198	45.57
284.413	74.24
284.628	-58.88
284.843	61.95
285.058	-30.21
285.274	72.19
285.489	29.18
285.704	117.25
285.919	41.47
286.134	51.71
286.349	-3.58
286.564	2.56
286.779	162.3
286.995	80.38
287.21	-105.98
287.425	66.05
287.64	-62.98
287.855	45.57
288.07	-65.02
288.285	168.45
288.5	123.39
288.715	88.57
288.93	-15.87
289.145	-19.97
289.36	150.01
289.575	-19.97
289.79	86.53
290.004	-28.16
290.219	64
290.434	-87.55
290.649	6.66
290.864	10.75
291.079	-75.26
291.294	96.77
291.509	29.18
291.724	20.99
291.938	-79.36
292.153	80.38
292.368	-52.74
292.583	76.29
292.798	96.77
293.012	51.71
293.227	111.1
293.442	-44.54
293.657	61.95
293.871	90.62
294.086	43.52
294.301	158.21
294.516	137.73
294.73	39.42
294.945	-15.87
295.16	29.18
295.374	119.29
295.589	125.44
295.804	-9.73
296.018	70.14
296.233	127.49
296.447	-11.78
296.662	8.7
296.877	104.96
297.091	84.48
297.306	-13.82
297.52	4.61
297.735	-11.78
297.949	43.52
298.164	35.33
298.378	-26.11
298.593	10.75
298.807	10.75
299.022	-9.73
299.236	115.2
299.451	-44.54
299.665	8.7
299.88	12.8
300.094	100.86
300.309	33.28
300.523	41.47
300.737	33.28
300.952	29.18
301.166	104.96
301.381	-40.45
301.595	-36.35
301.809	53.76
302.024	61.95
302.238	16.9
302.452	109.05
302.667	-26.11
302.881	72.19
303.095	25.09
303.309	51.71
303.524	-65.02
303.738	10.75
303.952	-38.4
304.166	115.2
304.381	-36.35
304.595	209.4
304.809	-13.82
305.023	2.56
305.237	57.86
305.452	33.28
305.666	-11.78
305.88	20.99
306.094	113.15
306.308	131.58
306.522	25.09
306.736	20.99
306.95	102.91
307.164	61.95
307.379	-5.63
307.593	78.33
307.807	80.38
308.021	86.53
308.235	41.47
308.449	16.9
308.663	100.86
308.877	238.08
309.091	123.39
309.305	55.81
309.519	-40.45
309.733	168.45
309.947	-134.65
310.161	29.18
310.374	104.96
310.588	133.63
310.802	-30.21
311.016	4.61
311.23	107.01
311.444	-44.54
311.658	70.14
311.872	100.86
312.085	147.97
312.299	29.18
312.513	176.64
312.727	-40.45
312.941	27.14
313.154	137.73
313.368	20.99
313.582	27.14
313.796	80.38
314.009	-81.41
314.223	131.58
314.437	4.61
314.651	176.64
314.864	-11.78
315.078	12.8
315.292	-108.03
315.505	4.61
315.719	96.77
315.933	57.86
316.146	16.9
316.36	-24.06
316.573	96.77
316.787	147.97
317.001	74.24
317.214	4.61
317.428	12.8
317.641	-22.02
317.855	-38.4
318.068	-15.87
318.282	74.24
318.495	123.39
318.709	104.96
318.922	51.71
319.136	90.62
319.349	86.53
319.563	-3.58
319.776	107.01
319.99	-11.78
320.203	125.44
320.417	39.42
320.63	102.91
320.843	119.29
321.057	121.34
321.27	14.85
321.483	74.24
321.697	125.44
321.91	-15.87
322.124	66.05
322.337	82.43
322.55	-69.12
322.763	41.47
322.977	-30.21
323.19	0.51
323.403	-11.78
323.617	6.66
323.83	113.15
324.043	41.47
324.256	-1.54
324.469	-105.98
324.683	100.86
324.896	31.23
325.109	23.04
325.322	-48.64
325.535	31.23
325.748	96.77
325.962	-50.69
326.175	4.61
326.388	76.29
326.601	104.96
326.814	-24.06
327.027	-17.92
327.24	172.54
327.453	-87.55
327.666	76.29
327.879	119.29
328.092	53.76
328.305	98.81
328.518	41.47
328.731	-19.97
328.944	18.94
329.157	35.33
329.37	-15.87
329.583	207.36
329.796	182.78
330.009	-110.08
330.222	59.9
330.435	92.67
330.648	49.66
330.861	86.53
331.073	39.42
331.286	129.53
331.499	66.05
331.712	-60.93
331.925	35.33
332.138	51.71
332.35	115.2
332.563	-54.78
332.776	86.53
332.989	-38.4
333.202	2.56
333.414	20.99
333.627	51.71
333.84	-15.87
334.053	80.38
334.265	-26.11
334.478	-28.16
334.691	51.71
334.903	49.66
335.116	-5.63
335.329	12.8
335.541	8.7
335.754	170.49
335.966	12.8
336.179	-11.78
336.392	-105.98
336.604	-1.54
336.817	121.34
337.029	10.75
337.242	86.53
337.454	37.38
337.667	14.85
337.88	145.92
338.092	12.8
338.305	127.49
338.517	0.51
338.729	25.09
338.942	176.64
339.154	12.8
339.367	2.56
339.579	109.05
339.792	-128.51
340.004	20.99
340.217	41.47
340.429	14.85
340.641	12.8
340.854	4.61
341.066	6.66
341.278	72.19
341.491	193.02
341.703	82.43
341.915	18.94
342.128	107.01
342.34	80.38
342.552	-52.74
342.764	55.81
342.977	55.81
343.189	111.1
343.401	37.38
343.613	-81.41
343.826	27.14
344.038	-28.16
344.25	98.81
344.462	53.76
344.674	-17.92
344.886	-22.02
345.099	4.61
345.311	37.38
345.523	45.57
345.735	-99.84
345.947	29.18
346.159	12.8
346.371	33.28
346.583	-56.83
346.795	107.01
347.007	49.66
347.219	109.05
347.431	-32.26
347.643	78.33
347.855	59.9
348.067	205.31
348.279	-32.26
348.491	18.94
348.703	51.71
348.915	14.85
349.127	6.66
349.339	41.47
349.551	6.66
349.763	115.2
349.975	-24.06
350.187	113.15
350.399	121.34
350.61	57.86
350.822	14.85
351.034	16.9
351.246	84.48
351.458	55.81
351.669	35.33
351.881	72.19
352.093	90.62
352.305	78.33
352.517	6.66
352.728	74.24
352.94	104.96
353.152	137.73
353.363	-60.93
353.575	68.09
353.787	137.73
353.999	102.91
354.21	178.69
354.422	-36.35
354.633	-40.45
354.845	25.09
355.057	47.62
355.268	-40.45
355.48	88.57
355.692	-48.64
355.903	41.47
356.115	39.42
356.326	-79.36
356.538	125.44
356.749	129.53
356.961	135.68
357.172	59.9
357.384	6.66
357.595	145.92
357.807	-30.21
358.018	61.95
358.23	-40.45
358.441	186.88
358.653	2.56
358.864	41.47
359.075	-24.06
359.287	-7.68
359.498	72.19
359.709	39.42
359.921	-52.74
360.132	37.38
360.344	-46.59
360.555	4.61
360.766	102.91
360.977	82.43
361.189	90.62
361.4	-48.64
361.611	164.35
361.823	121.34
362.034	68.09
362.245	-77.31
362.456	12.8
362.667	78.33
362.879	-13.82
363.09	51.71
363.301	29.18
363.512	35.33
363.723	-116.22
363.935	-30.21
364.146	104.96
364.357	6.66
364.568	76.29
364.779	-77.31
364.99	143.87
365.201	-52.74
365.412	107.01
365.623	-28.16
365.834	-5.63
366.045	-22.02
366.256	29.18
366.467	100.86
366.678	59.9
366.889	-9.73
367.1	-56.83
367.311	133.63
367.522	-32.26
367.733	53.76
367.944	53.76
368.155	-32.26
368.366	115.2
368.577	115.2
368.788	74.24
368.999	-36.35
369.209	37.38
369.42	168.45
369.631	203.26
369.842	113.15
370.053	72.19
370.264	57.86
370.474	0.51
370.685	64
370.896	20.99
371.107	64
371.317	80.38
371.528	55.81
371.739	188.93
371.95	41.47
372.16	92.67
372.371	25.09
372.582	-19.97
372.792	98.81
373.003	31.23
373.214	25.09
373.424	107.01
373.635	-7.68
373.846	68.09
374.056	135.68
374.267	92.67
374.477	59.9
374.688	10.75
374.898	55.81
375.109	39.42
375.319	23.04
375.53	119.29
375.74	47.62
375.951	25.09
376.161	70.14
376.372	113.15
376.582	2.56
376.793	111.1
377.003	14.85
377.214	37.38
377.424	25.09
377.635	10.75
377.845	-38.4
378.055	176.64
378.266	-11.78
378.476	0.51
378.686	96.77
378.897	88.57
379.107	131.58
379.317	49.66
379.528	43.52
379.738	119.29
379.948	47.62
380.158	113.15
380.369	29.18
380.579	41.47
380.789	74.24
380.999	10.75
381.21	139.77
381.42	141.82
381.63	23.04
381.84	121.34
382.05	66.05
382.261	137.73
382.471	125.44
382.681	43.52
382.891	217.6
383.101	-36.35
383.311	35.33
383.521	-7.68
383.731	86.53
383.941	64
384.151	152.06
384.361	43.52
384.571	55.81
384.781	39.42
384.991	186.88
385.201	168.45
385.411	61.95
385.621	92.67
385.831	66.05
386.041	-38.4
386.251	14.85
386.461	43.52
386.671	39.42
386.881	74.24
387.091	29.18
387.301	133.63
387.511	35.33
387.72	76.29
387.93	80.38
388.14	-54.78
388.35	51.71
388.56	145.92
388.769	104.96
388.979	35.33
389.189	14.85
389.399	33.28
389.609	117.25
389.818	94.72
390.028	35.33
390.238	16.9
390.447	0.51
390.657	0.51
390.867	-48.64
391.076	-110.08
391.286	-13.82
391.496	-44.54
391.705	-67.07
391.915	125.44
392.125	115.2
392.334	-5.63
392.544	133.63
392.753	18.94
392.963	-11.78
393.172	37.38
393.382	-34.3
393.591	260.6
393.801	53.76
394.01	121.34
394.22	94.72
394.429	-7.68
394.639	27.14
394.848	68.09
395.058	35.33
395.267	-17.92
395.477	68.09
395.686	66.05
395.895	131.58
396.105	152.06
396.314	72.19
396.524	-48.64
396.733	16.9
396.942	104.96
397.152	72.19
397.361	100.86
397.57	72.19
397.78	-42.5
397.989	55.81
398.198	201.21
398.407	25.09
398.617	55.81
398.826	59.9
399.035	59.9
399.244	115.2
399.453	86.53
399.663	45.57
399.872	82.43
400.081	-65.02
400.29	109.05
400.499	10.75
400.708	190.97
400.917	-28.16
401.127	104.96
401.336	-34.3
401.545	221.69
401.754	88.57
401.963	-11.78
402.172	6.66
402.381	-48.64
402.59	-7.68
402.799	29.18
403.008	100.86
403.217	109.05
403.426	76.29
403.635	-38.4
403.844	51.71
404.053	4.61
404.262	31.23
404.471	176.64
404.68	82.43
404.888	96.77
405.097	33.28
405.306	84.48
405.515	80.38
405.724	147.97
405.933	94.72
406.142	41.47
406.35	102.91
406.559	-46.59
406.768	64
406.977	186.88
407.185	29.18
407.394	100.86
407.603	2.56
407.812	84.48
408.02	119.29
408.229	92.67
408.438	51.71
408.646	-24.06
408.855	-11.78
409.064	90.62
409.272	78.33
409.481	139.77
409.69	-103.93
409.898	-42.5
410.107	90.62
410.315	68.09
410.524	98.81
410.733	10.75
410.941	90.62
411.15	35.33
411.358	119.29
411.567	147.97
411.775	-5.63
411.984	82.43
412.192	107.01
412.401	-17.92
412.609	229.88
412.818	98.81
413.026	80.38
413.234	2.56
413.443	33.28
413.651	53.76
413.86	49.66
414.068	55.81
414.276	174.59
414.485	51.71
414.693	178.69
414.901	193.02
415.11	10.75
415.318	104.96
415.526	43.52
415.734	100.86
415.943	41.47
416.151	115.2
416.359	-26.11
416.567	84.48
416.776	10.75
416.984	64
417.192	178.69
417.4	-50.69
417.608	53.76
417.817	-91.65
418.025	125.44
418.233	227.84
418.441	-36.35
418.649	18.94
418.857	47.62
419.065	178.69
419.273	-42.5
419.481	76.29
419.689	45.57
419.897	47.62
420.105	57.86
420.313	23.04
420.521	111.1
420.729	125.44
420.937	-30.21
421.145	-81.41
421.353	37.38
421.561	182.78
421.769	53.76
421.977	16.9
422.185	29.18
422.393	-58.88
422.601	121.34
422.809	107.01
423.017	39.42
423.224	-34.3
423.432	141.82
423.64	70.14
423.848	96.77
424.056	-24.06
424.263	186.88
424.471	29.18
424.679	84.48
424.887	-11.78
425.094	109.05
425.302	70.14
425.51	33.28
425.718	109.05
425.925	80.38
426.133	66.05
426.341	229.88
426.548	35.33
426.756	84.48
426.964	160.25
427.171	31.23
427.379	96.77
427.586	66.05
427.794	104.96
428.001	162.3
428.209	102.91
428.417	152.06
428.624	184.83
428.832	184.83
429.039	104.96
429.247	102.91
429.454	119.29
429.662	215.55
429.869	190.97
430.076	166.4
430.284	92.67
430.491	276.99
430.699	139.77
430.906	238.08
431.114	45.57
431.321	78.33
431.528	141.82
431.736	107.01
431.943	111.1
432.15	137.73
432.358	193.02
432.565	281.08
432.772	-28.16
432.979	111.1
433.187	172.54
433.394	213.5
433.601	98.81
433.808	217.6
434.016	252.41
434.223	213.5
434.43	227.84
434.637	246.27
434.844	223.74
435.052	186.88
435.259	231.93
435.466	317.95
435.673	320
435.88	254.46
436.087	279.04
436.294	260.6
436.501	334.33
436.708	229.88
436.915	238.08
437.122	363
437.329	233.98
437.537	322.04
437.743	371.19
437.95	403.96
438.157	395.77
438.364	326.14
438.571	406.01
438.778	422.39
438.985	401.91
439.192	451.07
439.399	418.3
439.606	403.96
439.813	498.17
440.02	598.52
440.227	674.29
440.433	461.3
440.64	504.31
440.847	449.02
441.054	575.99
441.261	643.57
441.467	567.8
441.674	477.69
441.881	707.06
442.088	612.85
442.294	674.29
442.501	721.4
442.708	678.39
442.914	715.25
443.121	848.37
443.328	776.69
443.534	801.27
443.741	848.37
443.948	756.21
444.154	918
444.361	1122.8
444.568	1010.16
444.774	963.06
444.981	997.87
445.187	1063.41
445.394	1081.84
445.6	1012.21
445.807	1270.25
446.013	1253.87
446.22	1163.76
446.426	1384.94
446.633	1450.47
446.839	1526.25
447.046	1339.88
447.252	1597.93
447.459	1571.3
447.665	1376.75
447.871	1753.57
448.078	1802.72
448.284	1812.96
448.491	1890.79
448.697	2019.81
448.903	2126.3
449.11	2083.3
449.316	1999.33
449.522	2259.42
449.728	2277.85
449.935	2476.51
450.141	2372.06
450.347	2585.05
450.553	2693.59
450.76	2728.41
450.966	2775.51
451.172	2965.97
451.378	3109.33
451.584	3127.76
451.791	3367.37
451.997	3373.52
452.203	3475.91
452.409	3580.36
452.615	3764.68
452.821	3504.59
453.027	3635.66
453.233	4313.53
453.44	3967.43
453.646	4319.68
453.852	4473.28
454.058	4481.47
454.264	4725.18
454.47	5011.89
454.676	4923.83
454.882	5536.17
455.088	5282.22
455.294	5515.69
455.5	5904.81
455.705	6351.26
455.911	6416.8
456.117	6422.94
456.323	6594.97
456.529	6687.13
456.735	7147.92
456.941	7416.21
457.147	7793.03
457.352	7897.48
457.558	8075.65
457.764	8642.94
457.97	8915.32
458.176	9193.84
458.381	9673.07
458.587	9757.04
458.793	10166.63
458.999	10479.97
459.204	11753.8
459.41	12149.06
459.616	12024.14
459.821	12722.49
460.027	13138.23
460.233	13685.04
460.438	13924.65
460.644	14780.7
460.85	14735.65
461.055	15255.83
461.261	15915.28
461.466	15827.21
461.672	15880.46
461.878	17907.95
462.083	17791.22
462.289	18278.63
462.494	18632.93
462.7	18876.64
462.905	19171.55
463.111	20928.7
463.316	21778.61
463.522	22218.92
463.727	22988.96
463.932	23775.38
464.138	24529.03
464.343	25225.34
464.549	25829.49
464.754	27545.69
464.959	28317.78
465.165	28694.6
465.37	28295.25
465.575	28579.92
465.781	30550.06
465.986	31285.28
466.191	30949.42
466.397	31115.3
466.602	30322.74
466.807	32507.92
467.012	32872.46
467.218	33331.2
467.423	33452.03
467.628	33906.68
467.833	35727.33
468.038	35469.28
468.244	34820.08
468.449	36440.02
468.654	35860.44
