Data from USB4F104151__216__11-05-55-628.txt Node

Date: Wed Feb 26 11:05:55 EST 2025
User: louis
Spectrometer: USB4F10415
Trigger mode: 4
Integration Time (sec): 1.000000E-1
Scans to average: 1
Electric dark correction enabled: true
Nonlinearity correction enabled: false
Boxcar width: 0
XAxis mode: Wavelengths
Number of Pixels in Spectrum: 3648
>>>>>Begin Spectral Data<<<<<
178.204	-362.32
178.424	-362.32
178.644	-362.32
178.864	-384.85
179.084	-384.85
179.304	-22.36
179.524	-46.93
179.744	-1.88
179.964	41.13
180.184	6.31
180.404	61.61
180.624	8.36
180.844	-18.26
181.064	-85.84
181.283	51.37
181.503	-46.93
181.723	53.42
181.943	-145.24
182.163	164.01
182.383	-1.88
182.602	65.71
182.822	123.05
183.042	65.71
183.262	-77.65
183.482	41.13
183.701	43.18
183.921	28.84
184.141	12.46
184.361	129.19
184.58	37.03
184.8	80.04
185.02	-22.36
185.239	22.7
185.459	75.95
185.679	123.05
185.898	-85.84
186.118	57.51
186.338	55.47
186.557	104.62
186.777	10.41
186.997	82.09
187.216	-53.08
187.436	155.82
187.655	90.28
187.875	63.66
188.095	65.71
188.314	155.82
188.534	133.29
188.753	-5.97
188.973	176.3
189.192	178.34
189.412	100.52
189.631	41.13
189.851	84.14
190.07	125.1
190.29	-112.47
190.509	-5.97
190.729	26.79
190.948	118.95
191.168	190.63
191.387	6.31
191.607	51.37
191.826	41.13
192.045	63.66
192.265	71.85
192.484	139.43
192.704	14.51
192.923	-18.26
193.142	155.82
193.362	67.75
193.581	209.06
193.8	86.19
194.02	192.68
194.239	34.99
194.458	102.57
194.678	-8.02
194.897	-16.21
195.116	69.8
195.335	14.51
195.555	16.55
195.774	12.46
195.993	96.43
196.212	10.41
196.432	8.36
196.651	14.51
196.87	57.51
197.089	288.93
197.308	110.76
197.528	106.67
197.747	-24.4
197.966	157.86
198.185	127.14
198.404	22.7
198.623	32.94
198.842	118.95
199.062	73.9
199.281	139.43
199.5	67.75
199.719	55.47
199.938	47.27
200.157	65.71
200.376	57.51
200.595	133.29
200.814	75.95
201.033	-75.6
201.252	159.91
201.471	34.99
201.69	147.62
201.909	61.61
202.128	121
202.347	86.19
202.566	37.03
202.785	-14.17
203.004	-1.88
203.223	256.17
203.442	61.61
203.661	-1.88
203.879	20.65
204.098	258.21
204.317	-36.69
204.536	112.81
204.755	73.9
204.974	114.86
205.193	41.13
205.411	139.43
205.63	102.57
205.849	39.08
206.068	-42.84
206.287	22.7
206.505	164.01
206.724	57.51
206.943	-36.69
207.162	-20.31
207.381	110.76
207.599	159.91
207.818	82.09
208.037	10.41
208.255	55.47
208.474	71.85
208.693	98.47
208.911	6.31
209.13	123.05
209.349	24.75
209.567	98.47
209.786	43.18
210.005	131.24
210.223	73.9
210.442	-149.33
210.661	20.65
210.879	129.19
211.098	32.94
211.316	-20.31
211.535	49.32
211.753	102.57
211.972	39.08
212.191	90.28
212.409	-10.07
212.628	92.33
212.846	37.03
213.065	6.31
213.283	129.19
213.502	28.84
213.72	-24.4
213.938	88.23
214.157	45.23
214.375	133.29
214.594	59.56
214.812	108.71
215.031	28.84
215.249	53.42
215.467	143.53
215.686	147.62
215.904	67.75
216.122	55.47
216.341	86.19
216.559	55.47
216.778	96.43
216.996	190.63
217.214	188.58
217.432	71.85
217.651	-69.46
217.869	129.19
218.087	63.66
218.306	-30.55
218.524	131.24
218.742	131.24
218.96	114.86
219.179	57.51
219.397	41.13
219.615	227.5
219.833	67.75
220.051	28.84
220.27	96.43
220.488	53.42
220.706	155.82
220.924	8.36
221.142	30.89
221.36	151.72
221.578	55.47
221.796	77.99
222.015	55.47
222.233	12.46
222.451	196.78
222.669	-5.97
222.887	80.04
223.105	14.51
223.323	45.23
223.541	18.6
223.759	41.13
223.977	75.95
224.195	131.24
224.413	147.62
224.631	45.23
224.849	104.62
225.067	207.02
225.285	-51.03
225.503	75.95
225.721	-42.84
225.939	22.7
226.157	135.34
226.375	239.78
226.592	16.55
226.81	63.66
227.028	151.72
227.246	133.29
227.464	12.46
227.682	125.1
227.9	155.82
228.117	63.66
228.335	94.38
228.553	-5.97
228.771	-3.93
228.989	39.08
229.206	37.03
229.424	4.27
229.642	22.7
229.86	-24.4
230.077	137.38
230.295	118.95
230.513	43.18
230.731	51.37
230.948	215.21
231.166	198.82
231.384	-30.55
231.601	-18.26
231.819	102.57
232.037	0.17
232.254	-61.27
232.472	121
232.689	-61.27
232.907	116.9
233.125	69.8
233.342	30.89
233.56	14.51
233.777	24.75
233.995	39.08
234.213	172.2
234.43	129.19
234.648	32.94
234.865	-42.84
235.083	96.43
235.3	12.46
235.518	159.91
235.735	90.28
235.953	86.19
236.17	22.7
236.388	106.67
236.605	118.95
236.822	82.09
237.04	141.48
237.257	24.75
237.475	-63.32
237.692	96.43
237.909	32.94
238.127	24.75
238.344	51.37
238.562	77.99
238.779	-22.36
238.996	-16.21
239.214	108.71
239.431	166.06
239.648	-18.26
239.865	86.19
240.083	57.51
240.3	39.08
240.517	-8.02
240.735	-12.12
240.952	139.43
241.169	39.08
241.386	53.42
241.603	63.66
241.821	-20.31
242.038	80.04
242.255	131.24
242.472	-51.03
242.689	145.58
242.907	80.04
243.124	127.14
243.341	63.66
243.558	-42.84
243.775	10.41
243.992	-57.17
244.209	176.3
244.426	145.58
244.643	63.66
244.86	47.27
245.078	90.28
245.295	34.99
245.512	104.62
245.729	-26.45
245.946	82.09
246.163	37.03
246.38	10.41
246.597	98.47
246.814	4.27
247.031	30.89
247.248	39.08
247.464	182.44
247.681	71.85
247.898	10.41
248.115	43.18
248.332	-51.03
248.549	157.86
248.766	141.48
248.983	121
249.2	127.14
249.417	118.95
249.633	61.61
249.85	133.29
250.067	94.38
250.284	69.8
250.501	114.86
250.717	110.76
250.934	-51.03
251.151	57.51
251.368	20.65
251.585	32.94
251.801	65.71
252.018	-71.51
252.235	137.38
252.451	-12.12
252.668	18.6
252.885	164.01
253.102	80.04
253.318	51.37
253.535	55.47
253.752	10.41
253.968	10.41
254.185	-32.6
254.401	43.18
254.618	112.81
254.835	34.99
255.051	176.3
255.268	67.75
255.484	80.04
255.701	28.84
255.917	45.23
256.134	10.41
256.351	98.47
256.567	-14.17
256.784	80.04
257	-5.97
257.217	143.53
257.433	118.95
257.65	100.52
257.866	69.8
258.082	-77.65
258.299	22.7
258.515	49.32
258.732	92.33
258.948	22.7
259.165	73.9
259.381	-32.6
259.597	139.43
259.814	39.08
260.03	102.57
260.246	-16.21
260.463	157.86
260.679	184.49
260.895	86.19
261.112	51.37
261.328	75.95
261.544	8.36
261.761	211.11
261.977	-24.4
262.193	-38.74
262.409	96.43
262.626	75.95
262.842	22.7
263.058	8.36
263.274	94.38
263.49	39.08
263.707	110.76
263.923	98.47
264.139	-65.36
264.355	34.99
264.571	125.1
264.787	61.61
265.004	174.25
265.22	22.7
265.436	-10.07
265.652	84.14
265.868	47.27
266.084	14.51
266.3	51.37
266.516	4.27
266.732	47.27
266.948	10.41
267.164	-46.93
267.38	90.28
267.596	90.28
267.812	159.91
268.028	73.9
268.244	26.79
268.46	75.95
268.676	8.36
268.892	127.14
269.108	-24.4
269.324	-51.03
269.54	-44.88
269.756	116.9
269.972	-8.02
270.188	14.51
270.403	-8.02
270.619	147.62
270.835	170.15
271.051	47.27
271.267	6.31
271.483	-16.21
271.698	121
271.914	125.1
272.13	30.89
272.346	30.89
272.562	43.18
272.777	141.48
272.993	-65.36
273.209	-51.03
273.425	131.24
273.64	-18.26
273.856	104.62
274.072	-8.02
274.287	-42.84
274.503	118.95
274.719	121
274.934	65.71
275.15	-38.74
275.366	18.6
275.581	-55.12
275.797	6.31
276.012	69.8
276.228	30.89
276.444	106.67
276.659	131.24
276.875	-5.97
277.09	10.41
277.306	-26.45
277.521	125.1
277.737	-8.02
277.952	88.23
278.168	37.03
278.383	102.57
278.599	37.03
278.814	157.86
279.03	6.31
279.245	145.58
279.461	-14.17
279.676	88.23
279.892	2.22
280.107	-24.4
280.322	24.75
280.538	151.72
280.753	-34.64
280.969	57.51
281.184	41.13
281.399	84.14
281.615	80.04
281.83	-14.17
282.045	-61.27
282.26	18.6
282.476	24.75
282.691	133.29
282.906	47.27
283.122	6.31
283.337	-1.88
283.552	151.72
283.767	-14.17
283.983	145.58
284.198	67.75
284.413	51.37
284.628	-85.84
284.843	26.79
285.058	51.37
285.274	49.32
285.489	6.31
285.704	188.58
285.919	49.32
286.134	-5.97
286.349	-44.88
286.564	55.47
286.779	102.57
286.995	-8.02
287.21	-46.93
287.425	104.62
287.64	8.36
287.855	67.75
288.07	-87.89
288.285	96.43
288.5	75.95
288.715	88.23
288.93	-14.17
289.145	-34.64
289.36	71.85
289.575	49.32
289.79	180.39
290.004	-1.88
290.219	106.67
290.434	47.27
290.649	22.7
290.864	53.42
291.079	63.66
291.294	67.75
291.509	82.09
291.724	-22.36
291.938	28.84
292.153	49.32
292.368	-51.03
292.583	49.32
292.798	80.04
293.012	90.28
293.227	102.57
293.442	14.51
293.657	41.13
293.871	151.72
294.086	53.42
294.301	202.92
294.516	112.81
294.73	82.09
294.945	-3.93
295.16	14.51
295.374	82.09
295.589	170.15
295.804	16.55
296.018	-3.93
296.233	94.38
296.447	96.43
296.662	-10.07
296.877	182.44
297.091	90.28
297.306	77.99
297.52	90.28
297.735	49.32
297.949	102.57
298.164	94.38
298.378	133.29
298.593	47.27
298.807	-83.8
299.022	71.85
299.236	141.48
299.451	22.7
299.665	80.04
299.88	96.43
300.094	98.47
300.309	96.43
300.523	43.18
300.737	8.36
300.952	157.86
301.166	57.51
301.381	37.03
301.595	53.42
301.809	41.13
302.024	14.51
302.238	-40.79
302.452	98.47
302.667	-10.07
302.881	100.52
303.095	121
303.309	41.13
303.524	34.99
303.738	63.66
303.952	-18.26
304.166	67.75
304.381	-18.26
304.595	192.68
304.809	32.94
305.023	114.86
305.237	4.27
305.452	-46.93
305.666	37.03
305.88	88.23
306.094	116.9
306.308	84.14
306.522	67.75
306.736	94.38
306.95	88.23
307.164	4.27
307.379	86.19
307.593	88.23
307.807	137.38
308.021	45.23
308.235	114.86
308.449	-63.32
308.663	51.37
308.877	225.45
309.091	18.6
309.305	116.9
309.519	-65.36
309.733	63.66
309.947	-28.5
310.161	37.03
310.374	231.59
310.588	57.51
310.802	24.75
311.016	-32.6
311.23	34.99
311.444	14.51
311.658	41.13
311.872	112.81
312.085	96.43
312.299	88.23
312.513	63.66
312.727	-10.07
312.941	34.99
313.154	39.08
313.368	45.23
313.582	71.85
313.796	61.61
314.009	16.55
314.223	184.49
314.437	164.01
314.651	131.24
314.864	12.46
315.078	41.13
315.292	-34.64
315.505	86.19
315.719	155.82
315.933	-32.6
316.146	30.89
316.36	-24.4
316.573	102.57
316.787	96.43
317.001	112.81
317.214	-65.36
317.428	51.37
317.641	-1.88
317.855	34.99
318.068	49.32
318.282	104.62
318.495	262.31
318.709	-1.88
318.922	57.51
319.136	77.99
319.349	131.24
319.563	104.62
319.776	104.62
319.99	-94.04
320.203	145.58
320.417	14.51
320.63	131.24
320.843	250.02
321.057	65.71
321.27	57.51
321.483	131.24
321.697	135.34
321.91	51.37
322.124	104.62
322.337	22.7
322.55	0.17
322.763	96.43
322.977	10.41
323.19	53.42
323.403	67.75
323.617	82.09
323.83	80.04
324.043	-59.22
324.256	-44.88
324.469	-65.36
324.683	147.62
324.896	71.85
325.109	45.23
325.322	22.7
325.535	141.48
325.748	139.43
325.962	-22.36
326.175	114.86
326.388	59.56
326.601	172.2
326.814	57.51
327.027	184.49
327.24	110.76
327.453	-98.13
327.666	77.99
327.879	157.86
328.092	125.1
328.305	63.66
328.518	-12.12
328.731	18.6
328.944	45.23
329.157	73.9
329.37	65.71
329.583	123.05
329.796	139.43
330.009	-108.37
330.222	22.7
330.435	145.58
330.648	6.31
330.861	98.47
331.073	131.24
331.286	151.72
331.499	82.09
331.712	0.17
331.925	51.37
332.138	39.08
332.35	88.23
332.563	69.8
332.776	127.14
332.989	-30.55
333.202	82.09
333.414	16.55
333.627	61.61
333.84	67.75
334.053	14.51
334.265	-3.93
334.478	-44.88
334.691	100.52
334.903	71.85
335.116	-38.74
335.329	63.66
335.541	94.38
335.754	159.91
335.966	10.41
336.179	0.17
336.392	32.94
336.604	63.66
336.817	147.62
337.029	125.1
337.242	51.37
337.454	55.47
337.667	53.42
337.88	176.3
338.092	88.23
338.305	108.71
338.517	73.9
338.729	118.95
338.942	94.38
339.154	-3.93
339.367	-51.03
339.579	153.77
339.792	69.8
340.004	71.85
340.217	28.84
340.429	8.36
340.641	-20.31
340.854	-16.21
341.066	88.23
341.278	88.23
341.491	176.3
341.703	88.23
341.915	-30.55
342.128	112.81
342.34	47.27
342.552	34.99
342.764	69.8
342.977	16.55
343.189	30.89
343.401	53.42
343.613	-38.74
343.826	73.9
344.038	-59.22
344.25	75.95
344.462	32.94
344.674	59.56
344.886	-12.12
345.099	102.57
345.311	118.95
345.523	39.08
345.735	14.51
345.947	112.81
346.159	131.24
346.371	-10.07
346.583	77.99
346.795	153.77
347.007	51.37
347.219	125.1
347.431	67.75
347.643	133.29
347.855	75.95
348.067	88.23
348.279	-59.22
348.491	94.38
348.703	125.1
348.915	61.61
349.127	-81.75
349.339	125.1
349.551	4.27
349.763	106.67
349.975	6.31
350.187	75.95
350.399	174.25
350.61	116.9
350.822	0.17
351.034	82.09
351.246	98.47
351.458	65.71
351.669	133.29
351.881	121
352.093	143.53
352.305	131.24
352.517	92.33
352.728	196.78
352.94	104.62
353.152	53.42
353.363	-51.03
353.575	90.28
353.787	145.58
353.999	61.61
354.21	143.53
354.422	-61.27
354.633	20.65
354.845	106.67
355.057	102.57
355.268	57.51
355.48	80.04
355.692	-81.75
355.903	73.9
356.115	-16.21
356.326	-73.56
356.538	184.49
356.749	114.86
356.961	133.29
357.172	8.36
357.384	-34.64
357.595	223.4
357.807	22.7
358.018	-8.02
358.23	55.47
358.441	174.25
358.653	45.23
358.864	51.37
359.075	-57.17
359.287	57.51
359.498	164.01
359.709	4.27
359.921	67.75
360.132	184.49
360.344	75.95
360.555	49.32
360.766	55.47
360.977	90.28
361.189	100.52
361.4	51.37
361.611	80.04
361.823	135.34
362.034	110.76
362.245	-8.02
362.456	-10.07
362.667	131.24
362.879	-1.88
363.09	55.47
363.301	108.71
363.512	-28.5
363.723	55.47
363.935	-28.5
364.146	188.58
364.357	94.38
364.568	45.23
364.779	6.31
364.99	215.21
365.201	10.41
365.412	84.14
365.623	-46.93
365.834	30.89
366.045	4.27
366.256	104.62
366.467	102.57
366.678	86.19
366.889	-24.4
367.1	39.08
367.311	63.66
367.522	4.27
367.733	127.14
367.944	67.75
368.155	20.65
368.366	129.19
368.577	47.27
368.788	47.27
368.999	-1.88
369.209	43.18
369.42	284.84
369.631	196.78
369.842	127.14
370.053	100.52
370.264	102.57
370.474	8.36
370.685	32.94
370.896	-28.5
371.107	133.29
371.317	61.61
371.528	-26.45
371.739	172.2
371.95	51.37
372.16	84.14
372.371	-65.36
372.582	-10.07
372.792	88.23
373.003	28.84
373.214	61.61
373.424	59.56
373.635	-77.65
373.846	118.95
374.056	28.84
374.267	123.05
374.477	90.28
374.688	2.22
374.898	125.1
375.109	84.14
375.319	145.58
375.53	82.09
375.74	145.58
375.951	-10.07
376.161	86.19
376.372	155.82
376.582	22.7
376.793	90.28
377.003	-3.93
377.214	-8.02
377.424	84.14
377.635	16.55
377.845	24.75
378.055	161.96
378.266	-24.4
378.476	53.42
378.686	118.95
378.897	45.23
379.107	77.99
379.317	69.8
379.528	-75.6
379.738	55.47
379.948	-51.03
380.158	137.38
380.369	75.95
380.579	98.47
380.789	28.84
380.999	217.26
381.21	149.67
381.42	200.87
381.63	41.13
381.84	198.82
382.05	129.19
382.261	100.52
382.471	106.67
382.681	41.13
382.891	204.97
383.101	67.75
383.311	-26.45
383.521	32.94
383.731	57.51
383.941	57.51
384.151	92.33
384.361	-12.12
384.571	133.29
384.781	59.56
384.991	264.36
385.201	207.02
385.411	139.43
385.621	84.14
385.831	37.03
386.041	86.19
386.251	26.79
386.461	131.24
386.671	84.14
386.881	53.42
387.091	12.46
387.301	34.99
387.511	18.6
387.72	88.23
387.93	114.86
388.14	-85.84
388.35	-12.12
388.56	80.04
388.769	161.96
388.979	2.22
389.189	10.41
389.399	63.66
389.609	102.57
389.818	112.81
390.028	67.75
390.238	164.01
390.447	28.84
390.657	92.33
390.867	2.22
391.076	2.22
391.286	96.43
391.496	53.42
391.705	84.14
391.915	137.38
392.125	135.34
392.334	-53.08
392.544	96.43
392.753	172.2
392.963	-1.88
393.172	32.94
393.382	-53.08
393.591	174.25
393.801	73.9
394.01	141.48
394.22	182.44
394.429	-3.93
394.639	37.03
394.848	86.19
395.058	82.09
395.267	49.32
395.477	88.23
395.686	80.04
395.895	293.03
396.105	198.82
396.314	133.29
396.524	159.91
396.733	-10.07
396.942	86.19
397.152	159.91
397.361	151.72
397.57	55.47
397.78	98.47
397.989	106.67
398.198	190.63
398.407	37.03
398.617	61.61
398.826	159.91
399.035	45.23
399.244	92.33
399.453	88.23
399.663	63.66
399.872	61.61
400.081	67.75
400.29	155.82
400.499	45.23
400.708	168.1
400.917	51.37
401.127	10.41
401.336	-36.69
401.545	221.35
401.754	207.02
401.963	55.47
402.172	-55.12
402.381	22.7
402.59	47.27
402.799	-32.6
403.008	125.1
403.217	59.56
403.426	149.67
403.635	-65.36
403.844	16.55
404.053	39.08
404.262	59.56
404.471	184.49
404.68	86.19
404.888	8.36
405.097	53.42
405.306	73.9
405.515	135.34
405.724	88.23
405.933	41.13
406.142	43.18
406.35	161.96
406.559	98.47
406.768	80.04
406.977	217.26
407.185	90.28
407.394	118.95
407.603	-46.93
407.812	116.9
408.02	145.58
408.229	37.03
408.438	88.23
408.646	-53.08
408.855	75.95
409.064	39.08
409.272	22.7
409.481	71.85
409.69	-51.03
409.898	-42.84
410.107	34.99
410.315	43.18
410.524	47.27
410.733	100.52
410.941	-16.21
411.15	104.62
411.358	106.67
411.567	155.82
411.775	94.38
411.984	94.38
412.192	116.9
412.401	-22.36
412.609	166.06
412.818	194.73
413.026	63.66
413.234	100.52
413.443	39.08
413.651	18.6
413.86	47.27
414.068	239.78
414.276	221.35
414.485	-16.21
414.693	110.76
414.901	161.96
415.11	47.27
415.318	82.09
415.526	18.6
415.734	75.95
415.943	102.57
416.151	250.02
416.359	75.95
416.567	102.57
416.776	88.23
416.984	106.67
417.192	161.96
417.4	37.03
417.608	90.28
417.817	18.6
418.025	90.28
418.233	188.58
418.441	92.33
418.649	-12.12
418.857	149.67
419.065	59.56
419.273	59.56
419.481	82.09
419.689	51.37
419.897	12.46
420.105	73.9
420.313	69.8
420.521	188.58
420.729	116.9
420.937	65.71
421.145	53.42
421.353	135.34
421.561	180.39
421.769	141.48
421.977	26.79
422.185	159.91
422.393	73.9
422.601	53.42
422.809	114.86
423.017	125.1
423.224	98.47
423.432	57.51
423.64	0.17
423.848	145.58
424.056	51.37
424.263	204.97
424.471	129.19
424.679	200.87
424.887	69.8
425.094	235.69
425.302	121
425.51	121
425.718	180.39
425.925	71.85
426.133	0.17
426.341	215.21
426.548	133.29
426.756	30.89
426.964	135.34
427.171	-14.17
427.379	137.38
427.586	104.62
427.794	161.96
428.001	204.97
428.209	129.19
428.417	180.39
428.624	174.25
428.832	153.77
429.039	137.38
429.247	114.86
429.454	110.76
429.662	202.92
429.869	108.71
430.076	198.82
430.284	168.1
430.491	268.45
430.699	159.91
430.906	188.58
431.114	178.34
431.321	180.39
431.528	153.77
431.736	221.35
431.943	182.44
432.15	170.15
432.358	182.44
432.565	272.55
432.772	55.47
432.979	303.27
433.187	104.62
433.394	254.12
433.601	176.3
433.808	280.74
434.016	264.36
434.223	301.22
434.43	194.73
434.637	258.21
434.844	313.51
435.052	219.3
435.259	245.93
435.466	381.09
435.673	254.12
435.88	340.13
436.087	424.1
436.294	381.09
436.501	338.09
436.708	346.28
436.915	352.42
437.122	372.9
437.329	340.13
437.537	383.14
437.743	362.66
437.95	508.07
438.157	377
438.364	499.88
438.571	420
438.778	454.82
438.985	514.21
439.192	585.89
439.399	460.96
439.606	544.93
439.813	594.08
440.02	686.24
440.227	665.76
440.433	620.71
440.64	635.04
440.847	618.66
441.054	690.34
441.261	725.15
441.467	749.73
441.674	626.85
441.881	819.36
442.088	712.86
442.294	878.75
442.501	958.62
442.708	917.66
442.914	845.98
443.121	956.57
443.328	999.58
443.534	979.1
443.741	1118.36
443.948	1003.68
444.154	1183.9
444.361	1300.63
444.568	1233.05
444.774	1161.37
444.981	1253.53
445.187	1429.65
445.394	1441.94
445.6	1319.06
445.807	1515.67
446.013	1548.44
446.22	1394.84
446.426	1679.51
446.633	1781.9
446.839	1921.17
447.046	1712.27
447.252	1955.98
447.459	1937.55
447.665	1921.17
447.871	2087.05
448.078	2310.28
448.284	2068.62
448.491	2330.76
448.697	2369.67
448.903	2457.73
449.11	2592.9
449.316	2582.66
449.522	2742.4
449.728	2848.9
449.935	2959.49
450.141	2918.53
450.347	3176.57
450.553	3172.47
450.76	3197.05
450.966	3364.98
451.172	3471.48
451.378	3577.97
451.584	3766.39
451.791	4003.95
451.997	3979.37
452.203	4184.17
452.409	4380.78
452.615	4569.19
452.821	4333.67
453.027	4561
453.233	4946.02
453.44	4950.11
453.646	5148.76
453.852	5267.55
454.058	5470.3
454.264	5820.5
454.47	6064.21
454.676	6109.26
454.882	6525
455.088	6340.68
455.294	6637.64
455.5	7112.77
455.705	7721.01
455.911	7594.04
456.117	7759.92
456.323	7919.67
456.529	8204.33
456.735	8953.89
456.941	9041.95
457.147	9445.4
457.352	9723.93
457.558	9787.41
457.764	10600.46
457.97	10725.38
458.176	11278.33
458.381	11808.76
458.587	11986.93
458.793	12552.17
458.999	12605.42
459.204	13891.54
459.41	14579.66
459.616	14211.03
459.821	15347.65
460.027	15714.23
460.233	16641.96
460.438	16471.98
460.644	17594.27
460.85	17813.4
461.055	18499.47
461.261	19488.64
461.466	19259.27
461.672	19519.36
461.878	21555.04
462.083	21315.43
462.289	22054.75
462.494	22796.11
462.7	22861.65
462.905	23246.66
463.111	25145.13
463.316	26613.52
463.522	26584.85
463.727	27408.14
463.932	28962.54
464.138	29755.11
464.343	30693.08
464.549	30682.84
464.754	33189.55
464.959	34027.17
465.165	34526.88
465.37	34264.74
465.575	34234.02
465.781	36923
465.986	37607.02
466.191	36931.19
466.397	37635.69
466.602	36841.08
466.807	38856.28
467.012	39368.27
467.218	40158.79
467.423	40379.97
467.628	40799.8
467.833	43193.88
468.038	42567.2
468.244	41520.69
