Data from USB4F104151__85__10-44-26-969.txt Node

Date: Wed Feb 26 10:44:26 EST 2025
User: louis
Spectrometer: USB4F10415
Trigger mode: 4
Integration Time (sec): 1.000000E-1
Scans to average: 1
Electric dark correction enabled: true
Nonlinearity correction enabled: false
Boxcar width: 0
XAxis mode: Wavelengths
Number of Pixels in Spectrum: 3648
>>>>>Begin Spectral Data<<<<<
178.204	-319.48
178.424	-319.48
178.644	-319.48
178.864	-315.39
179.084	-364.54
179.304	-28.67
179.524	-34.82
179.744	-10.24
179.964	-40.96
180.184	69.63
180.404	55.3
180.624	-65.53
180.844	16.38
181.064	-24.58
181.283	28.67
181.503	-36.86
181.723	71.68
181.943	-51.2
182.163	141.31
182.383	-94.21
182.602	4.1
182.822	53.25
183.042	122.88
183.262	-65.53
183.482	-26.62
183.701	59.39
183.921	32.77
184.141	-77.82
184.361	34.82
184.58	51.2
184.8	-28.67
185.02	83.97
185.239	67.58
185.459	178.17
185.679	145.41
185.898	-96.25
186.118	94.21
186.338	75.77
186.557	24.58
186.777	-24.58
186.997	63.49
187.216	49.15
187.436	169.98
187.655	86.01
187.875	24.58
188.095	81.92
188.314	90.11
188.534	165.89
188.753	-6.14
188.973	131.07
189.192	233.47
189.412	24.58
189.631	12.29
189.851	71.68
190.07	141.31
190.29	-14.34
190.509	-63.49
190.729	83.97
190.948	139.26
191.168	217.08
191.387	124.93
191.607	51.2
191.826	40.96
192.045	-18.43
192.265	24.58
192.484	61.44
192.704	139.26
192.923	-38.91
193.142	120.83
193.362	79.87
193.581	77.82
193.8	47.1
194.02	55.3
194.239	-20.48
194.458	79.87
194.678	20.48
194.897	-49.15
195.116	34.82
195.335	65.54
195.555	43.01
195.774	-51.2
195.993	92.16
196.212	2.05
196.432	-20.48
196.651	61.44
196.87	28.67
197.089	219.13
197.308	59.39
197.528	131.07
197.747	-47.1
197.966	67.58
198.185	92.16
198.404	-10.24
198.623	141.31
198.842	86.01
199.062	49.15
199.281	32.77
199.5	32.77
199.719	104.45
199.938	165.89
200.157	38.91
200.376	116.73
200.595	71.68
200.814	40.96
201.033	65.54
201.252	188.41
201.471	104.45
201.69	34.82
201.909	73.73
202.128	83.97
202.347	77.82
202.566	47.1
202.785	-165.89
203.004	30.72
203.223	245.76
203.442	45.06
203.661	-8.19
203.879	92.16
204.098	174.08
204.317	-12.29
204.536	133.12
204.755	131.07
204.974	30.72
205.193	-61.44
205.411	155.65
205.63	102.4
205.849	49.15
206.068	-2.05
206.287	-57.34
206.505	196.61
206.724	83.97
206.943	-6.14
207.162	-4.1
207.381	90.11
207.599	98.3
207.818	32.77
208.037	-77.82
208.255	22.53
208.474	30.72
208.693	59.39
208.911	24.58
209.13	120.83
209.349	20.48
209.567	75.77
209.786	71.68
210.005	135.17
210.223	18.43
210.442	-77.82
210.661	57.34
210.879	67.58
211.098	0
211.316	18.43
211.535	131.07
211.753	12.29
211.972	34.82
212.191	-30.72
212.409	38.91
212.628	161.79
212.846	-32.77
213.065	40.96
213.283	159.74
213.502	86.01
213.72	55.3
213.938	90.11
214.157	32.77
214.375	124.93
214.594	24.58
214.812	96.25
215.031	-49.15
215.249	83.97
215.467	108.54
215.686	81.92
215.904	45.06
216.122	100.35
216.341	139.26
216.559	94.21
216.778	88.06
216.996	110.59
217.214	0
217.432	-28.67
217.651	-34.82
217.869	94.21
218.087	43.01
218.306	28.67
218.524	59.39
218.742	108.54
218.96	40.96
219.179	12.29
219.397	2.05
219.615	204.8
219.833	83.97
220.051	-40.96
220.27	155.65
220.488	147.45
220.706	45.06
220.924	-20.48
221.142	6.14
221.36	47.1
221.578	43.01
221.796	2.05
222.015	73.73
222.233	135.17
222.451	143.36
222.669	-18.43
222.887	24.58
223.105	61.44
223.323	106.49
223.541	0
223.759	57.34
223.977	59.39
224.195	139.26
224.413	71.68
224.631	-8.19
224.849	38.91
225.067	286.72
225.285	38.91
225.503	-12.29
225.721	-69.63
225.939	59.39
226.157	86.01
226.375	215.04
226.592	-4.1
226.81	-2.05
227.028	137.21
227.246	178.17
227.464	83.97
227.682	126.97
227.9	129.02
228.117	57.34
228.335	86.01
228.553	-38.91
228.771	16.38
228.989	36.86
229.206	98.3
229.424	61.44
229.642	65.54
229.86	-69.63
230.077	159.74
230.295	81.92
230.513	83.97
230.731	45.06
230.948	172.03
231.166	143.36
231.384	14.34
231.601	4.1
231.819	190.46
232.037	28.67
232.254	-18.43
232.472	4.1
232.689	43.01
232.907	0
233.125	-32.77
233.342	-59.39
233.56	-14.34
233.777	-10.24
233.995	90.11
234.213	55.3
234.43	159.74
234.648	61.44
234.865	12.29
235.083	40.96
235.3	18.43
235.518	65.54
235.735	65.54
235.953	116.73
236.17	67.58
236.388	24.58
236.605	51.2
236.822	106.49
237.04	167.93
237.257	51.2
237.475	-53.25
237.692	51.2
237.909	69.63
238.127	-6.14
238.344	100.35
238.562	55.3
238.779	-92.16
238.996	-24.58
239.214	43.01
239.431	92.16
239.648	36.86
239.865	67.58
240.083	51.2
240.3	-28.67
240.517	-6.14
240.735	63.49
240.952	67.58
241.169	14.34
241.386	-6.14
241.603	14.34
241.821	61.44
242.038	30.72
242.255	131.07
242.472	-6.14
242.689	61.44
242.907	90.11
243.124	49.15
243.341	63.49
243.558	18.43
243.775	-71.68
243.992	-36.86
244.209	106.49
244.426	200.7
244.643	81.92
244.86	26.62
245.078	-18.43
245.295	-2.05
245.512	49.15
245.729	32.77
245.946	43.01
246.163	63.49
246.38	32.77
246.597	-26.62
246.814	49.15
247.031	71.68
247.248	118.78
247.464	178.17
247.681	102.4
247.898	71.68
248.115	88.06
248.332	30.72
248.549	98.3
248.766	186.37
248.983	151.55
249.2	28.67
249.417	147.45
249.633	67.58
249.85	118.78
250.067	40.96
250.284	65.54
250.501	38.91
250.717	34.82
250.934	-28.67
251.151	-12.29
251.368	0
251.585	102.4
251.801	88.06
252.018	40.96
252.235	110.59
252.451	-20.48
252.668	-53.25
252.885	133.12
253.102	75.77
253.318	102.4
253.535	-53.25
253.752	-26.62
253.968	-40.96
254.185	-16.38
254.401	110.59
254.618	77.82
254.835	-26.62
255.051	129.02
255.268	53.25
255.484	22.53
255.701	38.91
255.917	96.25
256.134	-6.14
256.351	-30.72
256.567	-45.06
256.784	67.58
257	-63.49
257.217	120.83
257.433	147.45
257.65	12.29
257.866	167.93
258.082	-18.43
258.299	-86.01
258.515	83.97
258.732	30.72
258.948	-63.49
259.165	118.78
259.381	-10.24
259.597	96.25
259.814	-8.19
260.03	83.97
260.246	77.82
260.463	61.44
260.679	88.06
260.895	45.06
261.112	110.59
261.328	77.82
261.544	-22.53
261.761	204.8
261.977	0
262.193	-94.21
262.409	153.6
262.626	30.72
262.842	38.91
263.058	-30.72
263.274	69.63
263.49	61.44
263.707	86.01
263.923	112.64
264.139	-73.73
264.355	100.35
264.571	90.11
264.787	100.35
265.004	153.6
265.22	26.62
265.436	-51.2
265.652	59.39
265.868	90.11
266.084	-59.39
266.3	4.1
266.516	-8.19
266.732	12.29
266.948	40.96
267.164	18.43
267.38	104.45
267.596	112.64
267.812	120.83
268.028	75.77
268.244	2.05
268.46	24.58
268.676	18.43
268.892	47.1
269.108	-36.86
269.324	-47.1
269.54	-38.91
269.756	106.49
269.972	-57.34
270.188	-10.24
270.403	-81.92
270.619	-51.2
270.835	106.49
271.051	0
271.267	-6.14
271.483	12.29
271.698	53.25
271.914	61.44
272.13	4.1
272.346	34.82
272.562	40.96
272.777	124.93
272.993	24.58
273.209	26.62
273.425	61.44
273.64	8.19
273.856	65.54
274.072	-40.96
274.287	-24.58
274.503	108.54
274.719	108.54
274.934	57.34
275.15	-90.11
275.366	47.1
275.581	-73.73
275.797	-32.77
276.012	-24.58
276.228	-28.67
276.444	67.58
276.659	94.21
276.875	-32.77
277.09	-38.91
277.306	59.39
277.521	96.25
277.737	77.82
277.952	53.25
278.168	16.38
278.383	-8.19
278.599	49.15
278.814	120.83
279.03	36.86
279.245	108.54
279.461	94.21
279.676	182.27
279.892	-61.44
280.107	-2.05
280.322	36.86
280.538	110.59
280.753	-24.58
280.969	32.77
281.184	-8.19
281.399	110.59
281.615	12.29
281.83	71.68
282.045	-36.86
282.26	40.96
282.476	0
282.691	139.26
282.906	24.58
283.122	14.34
283.337	-12.29
283.552	129.02
283.767	-8.19
283.983	16.38
284.198	-14.34
284.413	40.96
284.628	-6.14
284.843	-22.53
285.058	-4.1
285.274	-55.3
285.489	-38.91
285.704	75.77
285.919	4.1
286.134	47.1
286.349	114.69
286.564	-6.14
286.779	102.4
286.995	45.06
287.21	-120.83
287.425	149.5
287.64	-34.82
287.855	104.45
288.07	-100.35
288.285	49.15
288.5	108.54
288.715	94.21
288.93	-30.72
289.145	-2.05
289.36	184.32
289.575	-90.11
289.79	139.26
290.004	-57.34
290.219	126.97
290.434	-28.67
290.649	-8.19
290.864	6.14
291.079	0
291.294	40.96
291.509	104.45
291.724	4.1
291.938	-16.38
292.153	104.45
292.368	116.73
292.583	122.88
292.798	69.63
293.012	79.87
293.227	141.31
293.442	57.34
293.657	71.68
293.871	96.25
294.086	47.1
294.301	167.93
294.516	36.86
294.73	122.88
294.945	47.1
295.16	26.62
295.374	165.89
295.589	79.87
295.804	20.48
296.018	71.68
296.233	161.79
296.447	43.01
296.662	22.53
296.877	165.89
297.091	112.64
297.306	57.34
297.52	-67.58
297.735	20.48
297.949	86.01
298.164	26.62
298.378	110.59
298.593	4.1
298.807	4.1
299.022	65.54
299.236	129.02
299.451	36.86
299.665	16.38
299.88	-26.62
300.094	67.58
300.309	47.1
300.523	38.91
300.737	0
300.952	-49.15
301.166	24.58
301.381	-18.43
301.595	4.1
301.809	45.06
302.024	32.77
302.238	-20.48
302.452	65.54
302.667	-2.05
302.881	225.28
303.095	67.58
303.309	45.06
303.524	-8.19
303.738	28.67
303.952	2.05
304.166	88.06
304.381	-114.69
304.595	147.45
304.809	34.82
305.023	34.82
305.237	38.91
305.452	40.96
305.666	26.62
305.88	73.73
306.094	83.97
306.308	94.21
306.522	38.91
306.736	49.15
306.95	79.87
307.164	-40.96
307.379	55.3
307.593	174.08
307.807	196.61
308.021	131.07
308.235	180.22
308.449	-47.1
308.663	-61.44
308.877	182.27
309.091	34.82
309.305	71.68
309.519	-96.25
309.733	106.49
309.947	-40.96
310.161	102.4
310.374	120.83
310.588	172.03
310.802	-38.91
311.016	40.96
311.23	69.63
311.444	-86.01
311.658	102.4
311.872	124.93
312.085	196.61
312.299	108.54
312.513	104.45
312.727	47.1
312.941	-24.58
313.154	122.88
313.368	55.3
313.582	30.72
313.796	94.21
314.009	32.77
314.223	174.08
314.437	153.6
314.651	151.55
314.864	30.72
315.078	-69.63
315.292	-59.39
315.505	4.1
315.719	83.97
315.933	61.44
316.146	-59.39
316.36	-61.44
316.573	110.59
316.787	108.54
317.001	120.83
317.214	-8.19
317.428	4.1
317.641	-73.73
317.855	71.68
318.068	88.06
318.282	55.3
318.495	110.59
318.709	63.49
318.922	59.39
319.136	124.93
319.349	159.74
319.563	49.15
319.776	59.39
319.99	28.67
320.203	90.11
320.417	51.2
320.63	81.92
320.843	159.74
321.057	83.97
321.27	32.77
321.483	98.3
321.697	120.83
321.91	38.91
322.124	116.73
322.337	122.88
322.55	-32.77
322.763	45.06
322.977	45.06
323.19	16.38
323.403	59.39
323.617	-45.06
323.83	157.69
324.043	-61.44
324.256	30.72
324.469	-53.25
324.683	81.92
324.896	12.29
325.109	38.91
325.322	-131.07
325.535	94.21
325.748	102.4
325.962	-18.43
326.175	2.05
326.388	55.3
326.601	165.89
326.814	63.49
327.027	-32.77
327.24	147.45
327.453	-106.49
327.666	167.93
327.879	143.36
328.092	122.88
328.305	59.39
328.518	-20.48
328.731	4.1
328.944	28.67
329.157	45.06
329.37	77.82
329.583	129.02
329.796	98.3
330.009	2.05
330.222	73.73
330.435	51.2
330.648	139.26
330.861	102.4
331.073	28.67
331.286	63.49
331.499	14.34
331.712	-20.48
331.925	-40.96
332.138	10.24
332.35	137.21
332.563	73.73
332.776	151.55
332.989	14.34
333.202	-63.49
333.414	14.34
333.627	30.72
333.84	110.59
334.053	16.38
334.265	20.48
334.478	57.34
334.691	4.1
334.903	22.53
335.116	-81.92
335.329	83.97
335.541	69.63
335.754	77.82
335.966	51.2
336.179	-34.82
336.392	2.05
336.604	-2.05
336.817	129.02
337.029	-4.1
337.242	43.01
337.454	98.3
337.667	69.63
337.88	161.79
338.092	94.21
338.305	110.59
338.517	-14.34
338.729	57.34
338.942	104.45
339.154	-86.01
339.367	6.14
339.579	40.96
339.792	-61.44
340.004	34.82
340.217	83.97
340.429	32.77
340.641	98.3
340.854	-22.53
341.066	8.19
341.278	135.17
341.491	182.27
341.703	67.58
341.915	18.43
342.128	16.38
342.34	38.91
342.552	-79.87
342.764	38.91
342.977	-10.24
343.189	106.49
343.401	55.3
343.613	-38.91
343.826	116.73
344.038	-122.88
344.25	83.97
344.462	-12.29
344.674	65.54
344.886	65.54
345.099	16.38
345.311	88.06
345.523	36.86
345.735	-38.91
345.947	10.24
346.159	79.87
346.371	88.06
346.583	86.01
346.795	182.27
347.007	-79.87
347.219	65.54
347.431	43.01
347.643	200.7
347.855	-49.15
348.067	225.28
348.279	22.53
348.491	-8.19
348.703	118.78
348.915	38.91
349.127	38.91
349.339	-2.05
349.551	6.14
349.763	112.64
349.975	83.97
350.187	143.36
350.399	122.88
350.61	174.08
350.822	161.79
351.034	49.15
351.246	92.16
351.458	79.87
351.669	98.3
351.881	155.65
352.093	118.78
352.305	110.59
352.517	73.73
352.728	90.11
352.94	102.4
353.152	116.73
353.363	43.01
353.575	22.53
353.787	186.37
353.999	79.87
354.21	94.21
354.422	-67.58
354.633	65.54
354.845	-30.72
355.057	22.53
355.268	20.48
355.48	147.45
355.692	-20.48
355.903	20.48
356.115	12.29
356.326	-61.44
356.538	180.22
356.749	96.25
356.961	98.3
357.172	65.54
357.384	-57.34
357.595	198.65
357.807	24.58
358.018	20.48
358.23	24.58
358.441	124.93
358.653	53.25
358.864	71.68
359.075	16.38
359.287	90.11
359.498	122.88
359.709	110.59
359.921	32.77
360.132	36.86
360.344	20.48
360.555	24.58
360.766	77.82
360.977	10.24
361.189	112.64
361.4	30.72
361.611	106.49
361.823	120.83
362.034	67.58
362.245	104.45
362.456	-32.77
362.667	61.44
362.879	0
363.09	61.44
363.301	61.44
363.512	26.62
363.723	-36.86
363.935	53.25
364.146	59.39
364.357	-2.05
364.568	14.34
364.779	-30.72
364.99	118.78
365.201	28.67
365.412	86.01
365.623	-32.77
365.834	81.92
366.045	8.19
366.256	120.83
366.467	108.54
366.678	28.67
366.889	-43.01
367.1	12.29
367.311	88.06
367.522	47.1
367.733	30.72
367.944	98.3
368.155	20.48
368.366	79.87
368.577	112.64
368.788	69.63
368.999	-32.77
369.209	-12.29
369.42	149.5
369.631	256
369.842	92.16
370.053	83.97
370.264	104.45
370.474	-6.14
370.685	88.06
370.896	-106.49
371.107	114.69
371.317	83.97
371.528	49.15
371.739	81.92
371.95	102.4
372.16	116.73
372.371	20.48
372.582	-45.06
372.792	30.72
373.003	24.58
373.214	55.3
373.424	71.68
373.635	-43.01
373.846	102.4
374.056	81.92
374.267	90.11
374.477	110.59
374.688	-36.86
374.898	172.03
375.109	45.06
375.319	61.44
375.53	90.11
375.74	106.49
375.951	36.86
376.161	67.58
376.372	131.07
376.582	-34.82
376.793	69.63
377.003	59.39
377.214	0
377.424	122.88
377.635	131.07
377.845	22.53
378.055	122.88
378.266	-65.53
378.476	36.86
378.686	67.58
378.897	47.1
379.107	36.86
379.317	86.01
379.528	63.49
379.738	96.25
379.948	8.19
380.158	32.77
380.369	28.67
380.579	137.21
380.789	28.67
380.999	129.02
381.21	53.25
381.42	245.76
381.63	90.11
381.84	81.92
382.05	104.45
382.261	51.2
382.471	141.31
382.681	-30.72
382.891	176.13
383.101	-8.19
383.311	-55.3
383.521	53.25
383.731	67.58
383.941	133.12
384.151	22.53
384.361	-16.38
384.571	98.3
384.781	63.49
384.991	182.27
385.201	178.17
385.411	188.41
385.621	129.02
385.831	81.92
386.041	51.2
386.251	10.24
386.461	81.92
386.671	-8.19
386.881	55.3
387.091	26.62
387.301	73.73
387.511	36.86
387.72	81.92
387.93	69.63
388.14	-14.34
388.35	131.07
388.56	208.89
388.769	63.49
388.979	-2.05
389.189	2.05
389.399	90.11
389.609	79.87
389.818	108.54
390.028	40.96
390.238	98.3
390.447	12.29
390.657	65.54
390.867	-38.91
391.076	-79.87
391.286	126.97
391.496	32.77
391.705	47.1
391.915	186.37
392.125	24.58
392.334	38.91
392.544	176.13
392.753	-14.34
392.963	-67.58
393.172	69.63
393.382	-18.43
393.591	217.08
393.801	-30.72
394.01	86.01
394.22	139.26
394.429	26.62
394.639	10.24
394.848	-10.24
395.058	63.49
395.267	69.63
395.477	124.93
395.686	86.01
395.895	233.47
396.105	180.22
396.314	30.72
396.524	-45.06
396.733	71.68
396.942	133.12
397.152	100.35
397.361	131.07
397.57	116.73
397.78	53.25
397.989	151.55
398.198	227.32
398.407	126.97
398.617	14.34
398.826	51.2
399.035	77.82
399.244	143.36
399.453	12.29
399.663	67.58
399.872	108.54
400.081	-63.49
400.29	71.68
400.499	49.15
400.708	69.63
400.917	-8.19
401.127	-22.53
401.336	65.54
401.545	188.41
401.754	120.83
401.963	116.73
402.172	20.48
402.381	-57.34
402.59	-47.1
402.799	40.96
403.008	102.4
403.217	51.2
403.426	59.39
403.635	-40.96
403.844	-6.14
404.053	90.11
404.262	28.67
404.471	147.45
404.68	92.16
404.888	100.35
405.097	36.86
405.306	131.07
405.515	131.07
405.724	-40.96
405.933	129.02
406.142	49.15
406.35	139.26
406.559	28.67
406.768	30.72
406.977	180.22
407.185	69.63
407.394	36.86
407.603	-67.58
407.812	92.16
408.02	110.59
408.229	51.2
408.438	104.45
408.646	-81.92
408.855	-12.29
409.064	24.58
409.272	-32.77
409.481	10.24
409.69	14.34
409.898	14.34
410.107	24.58
410.315	190.46
410.524	26.62
410.733	102.4
410.941	49.15
411.15	57.34
411.358	88.06
411.567	210.94
411.775	10.24
411.984	110.59
412.192	155.65
412.401	118.78
412.609	122.88
412.818	94.21
413.026	-4.1
413.234	-32.77
413.443	14.34
413.651	38.91
413.86	43.01
414.068	169.98
414.276	163.84
414.485	16.38
414.693	145.41
414.901	135.17
415.11	96.25
415.318	20.48
415.526	110.59
415.734	120.83
415.943	122.88
416.151	165.89
416.359	81.92
416.567	-6.14
416.776	96.25
416.984	131.07
417.192	176.13
417.4	26.62
417.608	71.68
417.817	-34.82
418.025	137.21
418.233	180.22
418.441	26.62
418.649	14.34
418.857	131.07
419.065	208.89
419.273	47.1
419.481	129.02
419.689	67.58
419.897	4.1
420.105	-47.1
420.313	122.88
420.521	165.89
420.729	147.45
420.937	14.34
421.145	-14.34
421.353	116.73
421.561	221.18
421.769	106.49
421.977	-6.14
422.185	110.59
422.393	8.19
422.601	159.74
422.809	47.1
423.017	12.29
423.224	77.82
423.432	106.49
423.64	32.77
423.848	129.02
424.056	51.2
424.263	131.07
424.471	75.77
424.679	149.5
424.887	-2.05
425.094	178.17
425.302	124.93
425.51	34.82
425.718	124.93
425.925	36.86
426.133	26.62
426.341	190.46
426.548	24.58
426.756	32.77
426.964	165.89
427.171	32.77
427.379	90.11
427.586	114.69
427.794	178.17
428.001	135.17
428.209	180.22
428.417	212.99
428.624	174.08
428.832	75.77
429.039	26.62
429.247	100.35
429.454	172.03
429.662	212.99
429.869	178.17
430.076	100.35
430.284	120.83
430.491	169.98
430.699	194.56
430.906	229.37
431.114	239.61
431.321	198.65
431.528	104.45
431.736	198.65
431.943	94.21
432.15	135.17
432.358	243.71
432.565	278.52
432.772	65.54
432.979	215.04
433.187	81.92
433.394	182.27
433.601	57.34
433.808	163.84
434.016	247.8
434.223	260.09
434.43	237.56
434.637	317.44
434.844	270.33
435.052	264.19
435.259	309.24
435.466	382.97
435.673	161.79
435.88	307.2
436.087	382.97
436.294	479.22
436.501	292.86
436.708	331.77
436.915	256
437.122	366.59
437.329	348.15
437.537	360.44
437.743	278.52
437.95	421.88
438.157	350.2
438.364	346.11
438.571	376.83
438.778	395.26
438.985	493.56
439.192	473.08
439.399	380.92
439.606	481.27
439.813	518.14
440.02	579.58
440.227	692.21
440.433	524.28
440.64	563.19
440.847	421.88
441.054	575.48
441.261	724.98
441.467	561.14
441.674	585.72
441.881	747.51
442.088	579.58
442.294	686.07
442.501	804.85
442.708	778.23
442.914	712.69
443.121	770.04
443.328	821.24
443.534	974.83
443.741	892.91
443.948	823.28
444.154	929.78
444.361	1099.76
444.568	1003.5
444.774	1056.75
444.981	1023.98
445.187	1116.14
445.394	1114.1
445.6	1146.86
445.807	1347.56
446.013	1189.87
446.22	1114.1
446.426	1357.8
446.633	1437.67
446.839	1601.51
447.046	1316.84
447.252	1542.12
447.459	1581.03
447.665	1568.74
447.871	1779.68
448.078	1849.32
448.284	1789.92
448.491	1957.86
448.697	2002.91
448.903	2093.02
449.11	2179.04
449.316	2090.98
449.522	2451.42
449.728	2398.17
449.935	2357.21
450.141	2506.71
450.347	2594.78
450.553	2619.35
450.76	2830.29
450.966	2893.78
451.172	2949.08
451.378	3121.1
451.584	3082.19
451.791	3389.39
451.997	3381.2
452.203	3438.54
452.409	3760.07
452.615	3874.76
452.821	3727.3
453.027	3805.13
453.233	4337.6
453.44	4132.8
453.646	4349.89
453.852	4526.01
454.058	4693.94
454.264	4876.21
454.47	5248.94
454.676	5095.35
454.882	5636.01
455.088	5535.66
455.294	5576.62
455.5	6047.65
455.705	6416.29
455.911	6420.38
456.117	6490.01
456.323	6784.92
456.529	6858.65
456.735	7430.03
456.941	7470.99
457.147	7899.02
457.352	8222.59
457.558	8298.37
457.764	8877.94
457.97	8910.71
458.176	9414.51
458.381	9875.31
458.587	9971.56
458.793	10588
458.999	10569.57
459.204	12044.1
459.41	12457.79
459.616	12093.26
459.821	12875.58
460.027	13442.87
460.233	13936.43
460.438	14008.11
460.644	15009.56
460.85	15130.39
461.055	15650.58
461.261	16682.75
461.466	16267.02
461.672	16215.82
461.878	18198.25
462.083	18106.09
462.289	18534.12
462.494	19062.49
462.7	19320.54
462.905	19711.7
463.111	21264.06
463.316	22470.31
463.522	22726.31
463.727	23211.68
463.932	24325.77
464.138	25060.99
464.343	25958
464.549	26095.22
464.754	28167.76
464.959	28847.69
465.165	29220.42
465.37	29066.82
465.575	28931.65
465.781	31217.19
465.986	32069.14
466.191	31512.1
466.397	32149.01
466.602	31036.97
466.807	33060.36
467.012	33537.54
467.218	34063.86
467.423	34366.96
467.628	35358.18
467.833	36808.14
468.038	36330.97
468.244	35565.03
468.449	37101
468.654	36683.22
