Data from USB4F104151__264__11-20-27-832.txt Node

Date: Wed Feb 26 11:20:27 EST 2025
User: louis
Spectrometer: USB4F10415
Trigger mode: 4
Integration Time (sec): 1.000000E-1
Scans to average: 1
Electric dark correction enabled: true
Nonlinearity correction enabled: false
Boxcar width: 0
XAxis mode: Wavelengths
Number of Pixels in Spectrum: 3648
>>>>>Begin Spectral Data<<<<<
178.204	-477.86
178.424	-477.86
178.644	-477.86
178.864	-385.7
179.084	-467.62
179.304	-23.21
179.524	25.94
179.744	-8.87
179.964	111.96
180.184	54.61
180.404	34.13
180.624	-4.78
180.844	-4.78
181.064	-115.37
181.283	11.61
181.503	-60.07
181.723	-21.16
181.943	-121.51
182.163	159.06
182.383	-92.84
182.602	38.23
182.822	75.09
183.042	66.9
183.262	-66.22
183.482	-72.36
183.701	-19.11
183.921	36.18
184.141	1.37
184.361	81.24
184.58	116.05
184.8	-45.74
185.02	-74.41
185.239	71
185.459	52.56
185.679	116.05
185.898	-70.31
186.118	132.44
186.338	17.75
186.557	161.11
186.777	-39.59
186.997	1.37
187.216	-15.02
187.436	175.44
187.655	50.52
187.875	93.52
188.095	-10.92
188.314	95.57
188.534	103.76
188.753	-72.36
188.973	27.99
189.192	152.91
189.412	-41.64
189.631	-62.12
189.851	87.38
190.07	142.68
190.29	21.85
190.509	-29.35
190.729	46.42
190.948	64.85
191.168	230.74
191.387	62.8
191.607	38.23
191.826	44.37
192.045	54.61
192.265	-29.35
192.484	103.76
192.704	15.7
192.923	-96.94
193.142	150.87
193.362	73.04
193.581	71
193.8	13.65
194.02	38.23
194.239	48.47
194.458	62.8
194.678	-47.79
194.897	-88.75
195.116	58.71
195.335	68.95
195.555	91.48
195.774	-53.93
195.993	83.28
196.212	-10.92
196.432	5.46
196.651	32.08
196.87	-47.79
197.089	169.3
197.308	-10.92
197.528	134.48
197.747	-62.12
197.966	48.47
198.185	142.68
198.404	-6.83
198.623	32.08
198.842	44.37
199.062	34.13
199.281	75.09
199.5	-41.64
199.719	130.39
199.938	95.57
200.157	-21.16
200.376	154.96
200.595	77.14
200.814	11.61
201.033	36.18
201.252	107.86
201.471	17.75
201.69	64.85
201.909	19.8
202.128	73.04
202.347	-39.59
202.566	71
202.785	-92.84
203.004	-45.74
203.223	222.55
203.442	83.28
203.661	-90.79
203.879	44.37
204.098	93.52
204.317	-72.36
204.536	3.41
204.755	87.38
204.974	118.1
205.193	23.89
205.411	73.04
205.63	107.86
205.849	52.56
206.068	-64.17
206.287	-29.35
206.505	103.76
206.724	54.61
206.943	-64.17
207.162	-2.73
207.381	-0.68
207.599	-43.69
207.818	34.13
208.037	-27.31
208.255	25.94
208.474	23.89
208.693	54.61
208.911	44.37
209.13	-2.73
209.349	50.52
209.567	25.94
209.786	68.95
210.005	56.66
210.223	54.61
210.442	-125.61
210.661	42.32
210.879	50.52
211.098	21.85
211.316	13.65
211.535	77.14
211.753	23.89
211.972	-23.21
212.191	-47.79
212.409	9.56
212.628	66.9
212.846	-29.35
213.065	48.47
213.283	107.86
213.502	-47.79
213.72	-23.21
213.938	-8.87
214.157	-107.18
214.375	83.28
214.594	-64.17
214.812	73.04
215.031	-49.83
215.249	25.94
215.467	62.8
215.686	3.41
215.904	52.56
216.122	-47.79
216.341	193.87
216.559	-33.45
216.778	40.28
216.996	171.35
217.214	21.85
217.432	-21.16
217.651	-98.99
217.869	-35.5
218.087	32.08
218.306	40.28
218.524	11.61
218.742	-4.78
218.96	42.32
219.179	54.61
219.397	27.99
219.615	218.45
219.833	89.43
220.051	-55.98
220.27	54.61
220.488	114
220.706	73.04
220.924	-0.68
221.142	-39.59
221.36	109.91
221.578	40.28
221.796	15.7
222.015	7.51
222.233	-39.59
222.451	165.2
222.669	-4.78
222.887	83.28
223.105	-8.87
223.323	27.99
223.541	-8.87
223.759	38.23
223.977	56.66
224.195	118.1
224.413	85.33
224.631	52.56
224.849	19.8
225.067	109.91
225.285	-37.55
225.503	-21.16
225.721	-94.89
225.939	25.94
226.157	13.65
226.375	210.26
226.592	-47.79
226.81	1.37
227.028	97.62
227.246	34.13
227.464	19.8
227.682	132.44
227.9	83.28
228.117	-12.97
228.335	25.94
228.553	9.56
228.771	36.18
228.989	46.42
229.206	136.53
229.424	15.7
229.642	-82.6
229.86	-15.02
230.077	77.14
230.295	36.18
230.513	101.72
230.731	130.39
230.948	89.43
231.166	85.33
231.384	-4.78
231.601	-19.11
231.819	71
232.037	1.37
232.254	-84.65
232.472	-6.83
232.689	-43.69
232.907	116.05
233.125	42.32
233.342	-41.64
233.56	-76.46
233.777	23.89
233.995	44.37
234.213	85.33
234.43	83.28
234.648	48.47
234.865	-27.31
235.083	54.61
235.3	54.61
235.518	68.95
235.735	46.42
235.953	-0.68
236.17	3.41
236.388	23.89
236.605	-21.16
236.822	71
237.04	89.43
237.257	7.51
237.475	-92.84
237.692	34.13
237.909	71
238.127	-29.35
238.344	52.56
238.562	34.13
238.779	-64.17
238.996	-68.27
239.214	1.37
239.431	58.71
239.648	-8.87
239.865	77.14
240.083	54.61
240.3	54.61
240.517	-66.22
240.735	46.42
240.952	126.29
241.169	3.41
241.386	62.8
241.603	-31.4
241.821	-66.22
242.038	40.28
242.255	83.28
242.472	-70.31
242.689	93.52
242.907	3.41
243.124	42.32
243.341	-10.92
243.558	-2.73
243.775	-80.55
243.992	-41.64
244.209	60.76
244.426	44.37
244.643	44.37
244.86	-15.02
245.078	71
245.295	46.42
245.512	15.7
245.729	-43.69
245.946	15.7
246.163	13.65
246.38	-39.59
246.597	-4.78
246.814	66.9
247.031	-51.88
247.248	27.99
247.464	54.61
247.681	23.89
247.898	75.09
248.115	42.32
248.332	-47.79
248.549	62.8
248.766	212.31
248.983	83.28
249.2	3.41
249.417	48.47
249.633	-49.83
249.85	36.18
250.067	-4.78
250.284	99.67
250.501	32.08
250.717	-12.97
250.934	-43.69
251.151	-86.7
251.368	17.75
251.585	-4.78
251.801	-35.5
252.018	-39.59
252.235	91.48
252.451	-92.84
252.668	40.28
252.885	44.37
253.102	-12.97
253.318	-8.87
253.535	50.52
253.752	11.61
253.968	-64.17
254.185	-86.7
254.401	9.56
254.618	-58.03
254.835	-23.21
255.051	91.48
255.268	56.66
255.484	152.91
255.701	-8.87
255.917	85.33
256.134	-119.46
256.351	1.37
256.567	-74.41
256.784	-15.02
257	-88.75
257.217	99.67
257.433	132.44
257.65	50.52
257.866	75.09
258.082	-53.93
258.299	-27.31
258.515	25.94
258.732	-19.11
258.948	-62.12
259.165	7.51
259.381	-60.07
259.597	15.7
259.814	38.23
260.03	-33.45
260.246	-37.55
260.463	87.38
260.679	144.72
260.895	13.65
261.112	5.46
261.328	-10.92
261.544	-45.74
261.761	157.01
261.977	-43.69
262.193	9.56
262.409	54.61
262.626	5.46
262.842	-12.97
263.058	-8.87
263.274	64.85
263.49	66.9
263.707	60.76
263.923	79.19
264.139	-37.55
264.355	-33.45
264.571	109.91
264.787	44.37
265.004	68.95
265.22	66.9
265.436	-117.42
265.652	-88.75
265.868	25.94
266.084	-23.21
266.3	9.56
266.516	-84.65
266.732	50.52
266.948	-27.31
267.164	-70.31
267.38	85.33
267.596	77.14
267.812	173.39
268.028	-10.92
268.244	-47.79
268.46	-70.31
268.676	-33.45
268.892	9.56
269.108	7.51
269.324	-51.88
269.54	-96.94
269.756	13.65
269.972	-35.5
270.188	-29.35
270.403	-66.22
270.619	32.08
270.835	9.56
271.051	38.23
271.267	-31.4
271.483	-62.12
271.698	40.28
271.914	64.85
272.13	-23.21
272.346	30.04
272.562	62.8
272.777	58.71
272.993	3.41
273.209	-53.93
273.425	91.48
273.64	-76.46
273.856	136.53
274.072	48.47
274.287	-64.17
274.503	79.19
274.719	1.37
274.934	-12.97
275.15	-72.36
275.366	21.85
275.581	-49.83
275.797	40.28
276.012	44.37
276.228	-72.36
276.444	42.32
276.659	56.66
276.875	3.41
277.09	38.23
277.306	-29.35
277.521	3.41
277.737	-2.73
277.952	64.85
278.168	-10.92
278.383	56.66
278.599	34.13
278.814	75.09
279.03	71
279.245	107.86
279.461	21.85
279.676	54.61
279.892	-103.08
280.107	-25.26
280.322	-43.69
280.538	36.18
280.753	46.42
280.969	77.14
281.184	3.41
281.399	81.24
281.615	-8.87
281.83	-51.88
282.045	-72.36
282.26	-76.46
282.476	17.75
282.691	99.67
282.906	79.19
283.122	17.75
283.337	-2.73
283.552	-39.59
283.767	-113.32
283.983	13.65
284.198	5.46
284.413	66.9
284.628	-105.13
284.843	44.37
285.058	79.19
285.274	3.41
285.489	-43.69
285.704	89.43
285.919	-2.73
286.134	64.85
286.349	13.65
286.564	-35.5
286.779	134.48
286.995	40.28
287.21	-96.94
287.425	5.46
287.64	-43.69
287.855	66.9
288.07	-4.78
288.285	91.48
288.5	38.23
288.715	71
288.93	40.28
289.145	-27.31
289.36	54.61
289.575	77.14
289.79	101.72
290.004	-37.55
290.219	144.72
290.434	15.7
290.649	-21.16
290.864	-23.21
291.079	-4.78
291.294	27.99
291.509	42.32
291.724	-17.07
291.938	19.8
292.153	85.33
292.368	-84.65
292.583	111.96
292.798	58.71
293.012	-6.83
293.227	9.56
293.442	40.28
293.657	62.8
293.871	79.19
294.086	64.85
294.301	200.02
294.516	116.05
294.73	32.08
294.945	-78.51
295.16	1.37
295.374	103.76
295.589	75.09
295.804	-51.88
296.018	3.41
296.233	83.28
296.447	21.85
296.662	-8.87
296.877	52.56
297.091	126.29
297.306	25.94
297.52	-58.03
297.735	23.89
297.949	-41.64
298.164	54.61
298.378	-49.83
298.593	-45.74
298.807	30.04
299.022	-10.92
299.236	140.63
299.451	-10.92
299.665	-8.87
299.88	44.37
300.094	73.04
300.309	-12.97
300.523	73.04
300.737	-39.59
300.952	58.71
301.166	34.13
301.381	-4.78
301.595	-84.65
301.809	34.13
302.024	23.89
302.238	-109.22
302.452	114
302.667	15.7
302.881	107.86
303.095	71
303.309	40.28
303.524	-47.79
303.738	-25.26
303.952	-58.03
304.166	71
304.381	-129.7
304.595	148.82
304.809	-66.22
305.023	15.7
305.237	-31.4
305.452	-21.16
305.666	58.71
305.88	44.37
306.094	107.86
306.308	34.13
306.522	21.85
306.736	40.28
306.95	34.13
307.164	-10.92
307.379	19.8
307.593	144.72
307.807	95.57
308.021	134.48
308.235	17.75
308.449	-47.79
308.663	27.99
308.877	275.79
309.091	-39.59
309.305	48.47
309.519	-111.27
309.733	60.76
309.947	-101.03
310.161	23.89
310.374	97.62
310.588	97.62
310.802	-31.4
311.016	27.99
311.23	25.94
311.444	-72.36
311.658	-6.83
311.872	87.38
312.085	85.33
312.299	97.62
312.513	101.72
312.727	3.41
312.941	54.61
313.154	30.04
313.368	38.23
313.582	-2.73
313.796	-27.31
314.009	19.8
314.223	111.96
314.437	-2.73
314.651	120.15
314.864	-82.6
315.078	17.75
315.292	-49.83
315.505	-31.4
315.719	85.33
315.933	-39.59
316.146	-0.68
316.36	-23.21
316.573	107.86
316.787	46.42
317.001	91.48
317.214	-37.55
317.428	36.18
317.641	-51.88
317.855	-19.11
318.068	30.04
318.282	64.85
318.495	150.87
318.709	54.61
318.922	-31.4
319.136	107.86
319.349	91.48
319.563	-37.55
319.776	13.65
319.99	-98.99
320.203	19.8
320.417	-15.02
320.63	-4.78
320.843	103.76
321.057	46.42
321.27	-10.92
321.483	58.71
321.697	161.11
321.91	7.51
322.124	58.71
322.337	13.65
322.55	-82.6
322.763	-10.92
322.977	46.42
323.19	-92.84
323.403	-55.98
323.617	68.95
323.83	62.8
324.043	13.65
324.256	13.65
324.469	-72.36
324.683	105.81
324.896	36.18
325.109	-47.79
325.322	-31.4
325.535	64.85
325.748	54.61
325.962	-12.97
326.175	15.7
326.388	128.34
326.601	66.9
326.814	38.23
327.027	-21.16
327.24	204.11
327.453	-117.42
327.666	40.28
327.879	152.91
328.092	58.71
328.305	19.8
328.518	7.51
328.731	-39.59
328.944	1.37
329.157	64.85
329.37	-27.31
329.583	167.25
329.796	181.59
330.009	-125.61
330.222	124.24
330.435	107.86
330.648	1.37
330.861	79.19
331.073	38.23
331.286	73.04
331.499	7.51
331.712	-51.88
331.925	44.37
332.138	-6.83
332.35	83.28
332.563	13.65
332.776	97.62
332.989	-33.45
333.202	64.85
333.414	-45.74
333.627	34.13
333.84	-10.92
334.053	34.13
334.265	-53.93
334.478	-21.16
334.691	25.94
334.903	-10.92
335.116	-27.31
335.329	60.76
335.541	40.28
335.754	118.1
335.966	1.37
336.179	11.61
336.392	3.41
336.604	21.85
336.817	62.8
337.029	58.71
337.242	27.99
337.454	58.71
337.667	15.7
337.88	165.2
338.092	17.75
338.305	140.63
338.517	-45.74
338.729	130.39
338.942	140.63
339.154	-43.69
339.367	-43.69
339.579	56.66
339.792	-92.84
340.004	122.2
340.217	-19.11
340.429	50.52
340.641	-35.5
340.854	-0.68
341.066	15.7
341.278	111.96
341.491	68.95
341.703	-2.73
341.915	-43.69
342.128	87.38
342.34	9.56
342.552	-39.59
342.764	-15.02
342.977	38.23
343.189	46.42
343.401	23.89
343.613	-78.51
343.826	17.75
344.038	-70.31
344.25	-31.4
344.462	-72.36
344.674	9.56
344.886	-39.59
345.099	66.9
345.311	34.13
345.523	27.99
345.735	-131.75
345.947	-43.69
346.159	73.04
346.371	27.99
346.583	5.46
346.795	185.68
347.007	-6.83
347.219	68.95
347.431	5.46
347.643	109.91
347.855	-47.79
348.067	79.19
348.279	-80.55
348.491	54.61
348.703	93.52
348.915	5.46
349.127	-45.74
349.339	-4.78
349.551	21.85
349.763	81.24
349.975	-45.74
350.187	87.38
350.399	107.86
350.61	34.13
350.822	73.04
351.034	32.08
351.246	11.61
351.458	103.76
351.669	79.19
351.881	38.23
352.093	46.42
352.305	120.15
352.517	-8.87
352.728	118.1
352.94	105.81
353.152	-0.68
353.363	-86.7
353.575	44.37
353.787	103.76
353.999	77.14
354.21	150.87
354.422	-10.92
354.633	15.7
354.845	30.04
355.057	60.76
355.268	17.75
355.48	54.61
355.692	-58.03
355.903	-39.59
356.115	-47.79
356.326	-33.45
356.538	128.34
356.749	77.14
356.961	107.86
357.172	25.94
357.384	-10.92
357.595	197.97
357.807	56.66
358.018	48.47
358.23	62.8
358.441	161.11
358.653	124.24
358.864	-39.59
359.075	-96.94
359.287	85.33
359.498	79.19
359.709	-2.73
359.921	15.7
360.132	-15.02
360.344	1.37
360.555	-2.73
360.766	89.43
360.977	-10.92
361.189	54.61
361.4	75.09
361.611	23.89
361.823	46.42
362.034	-27.31
362.245	-101.03
362.456	60.76
362.667	97.62
362.879	25.94
363.09	32.08
363.301	17.75
363.512	62.8
363.723	-17.07
363.935	-29.35
364.146	140.63
364.357	3.41
364.568	-0.68
364.779	-78.51
364.99	173.39
365.201	-12.97
365.412	111.96
365.623	-49.83
365.834	-10.92
366.045	-15.02
366.256	13.65
366.467	5.46
366.678	1.37
366.889	17.75
367.1	-19.11
367.311	105.81
367.522	-0.68
367.733	134.48
367.944	66.9
368.155	48.47
368.366	52.56
368.577	91.48
368.788	126.29
368.999	-53.93
369.209	-4.78
369.42	189.78
369.631	187.73
369.842	17.75
370.053	-45.74
370.264	99.67
370.474	-49.83
370.685	-2.73
370.896	5.46
371.107	44.37
371.317	54.61
371.528	32.08
371.739	111.96
371.95	66.9
372.16	58.71
372.371	7.51
372.582	-37.55
372.792	52.56
373.003	-17.07
373.214	54.61
373.424	99.67
373.635	-6.83
373.846	208.21
374.056	95.57
374.267	-17.07
374.477	-31.4
374.688	-31.4
374.898	71
375.109	77.14
375.319	1.37
375.53	81.24
375.74	46.42
375.951	19.8
376.161	93.52
376.372	111.96
376.582	-39.59
376.793	97.62
377.003	-35.5
377.214	-60.07
377.424	17.75
377.635	48.47
377.845	3.41
378.055	111.96
378.266	-64.17
378.476	38.23
378.686	95.57
378.897	75.09
379.107	124.24
379.317	85.33
379.528	-51.88
379.738	89.43
379.948	-98.99
380.158	109.91
380.369	-8.87
380.579	56.66
380.789	5.46
380.999	36.18
381.21	34.13
381.42	142.68
381.63	85.33
381.84	87.38
382.05	48.47
382.261	93.52
382.471	91.48
382.681	-41.64
382.891	99.67
383.101	62.8
383.311	-47.79
383.521	-80.55
383.731	32.08
383.941	46.42
384.151	42.32
384.361	-35.5
384.571	-15.02
384.781	36.18
384.991	243.03
385.201	79.19
385.411	130.39
385.621	25.94
385.831	-43.69
386.041	15.7
386.251	40.28
386.461	126.29
386.671	50.52
386.881	77.14
387.091	-2.73
387.301	13.65
387.511	46.42
387.72	52.56
387.93	93.52
388.14	-101.03
388.35	5.46
388.56	52.56
388.769	-2.73
388.979	9.56
389.189	1.37
389.399	-39.59
389.609	73.04
389.818	44.37
390.028	60.76
390.238	87.38
390.447	-86.7
390.657	124.24
390.867	44.37
391.076	-23.21
391.286	3.41
391.496	-12.97
391.705	-37.55
391.915	126.29
392.125	40.28
392.334	-10.92
392.544	111.96
392.753	-21.16
392.963	23.89
393.172	1.37
393.382	-39.59
393.591	140.63
393.801	-33.45
394.01	136.53
394.22	34.13
394.429	30.04
394.639	11.61
394.848	75.09
395.058	15.7
395.267	13.65
395.477	140.63
395.686	99.67
395.895	124.24
396.105	161.11
396.314	-29.35
396.524	32.08
396.733	21.85
396.942	62.8
397.152	21.85
397.361	91.48
397.57	83.28
397.78	87.38
397.989	30.04
398.198	103.76
398.407	32.08
398.617	21.85
398.826	-23.21
399.035	-47.79
399.244	71
399.453	-10.92
399.663	-4.78
399.872	48.47
400.081	-60.07
400.29	185.68
400.499	-10.92
400.708	111.96
400.917	-43.69
401.127	-33.45
401.336	-35.5
401.545	134.48
401.754	64.85
401.963	42.32
402.172	-49.83
402.381	-84.65
402.59	23.89
402.799	-15.02
403.008	68.95
403.217	-27.31
403.426	107.86
403.635	-137.9
403.844	79.19
404.053	-23.21
404.262	-10.92
404.471	134.48
404.68	107.86
404.888	-8.87
405.097	5.46
405.306	-49.83
405.515	50.52
405.724	-10.92
405.933	34.13
406.142	3.41
406.35	75.09
406.559	46.42
406.768	81.24
406.977	85.33
407.185	95.57
407.394	30.04
407.603	-8.87
407.812	58.71
408.02	128.34
408.229	42.32
408.438	9.56
408.646	-45.74
408.855	-0.68
409.064	52.56
409.272	23.89
409.481	44.37
409.69	-6.83
409.898	-47.79
410.107	105.81
410.315	126.29
410.524	17.75
410.733	-0.68
410.941	71
411.15	21.85
411.358	116.05
411.567	99.67
411.775	89.43
411.984	48.47
412.192	68.95
412.401	73.04
412.609	130.39
412.818	34.13
413.026	157.01
413.234	9.56
413.443	68.95
413.651	-39.59
413.86	17.75
414.068	130.39
414.276	81.24
414.485	-33.45
414.693	136.53
414.901	140.63
415.11	48.47
415.318	66.9
415.526	19.8
415.734	150.87
415.943	-27.31
416.151	95.57
416.359	7.51
416.567	-37.55
416.776	56.66
416.984	105.81
417.192	81.24
417.4	7.51
417.608	15.7
417.817	-23.21
418.025	91.48
418.233	138.58
418.441	-72.36
418.649	-68.27
418.857	32.08
419.065	193.87
419.273	11.61
419.481	-15.02
419.689	-0.68
419.897	19.8
420.105	11.61
420.313	120.15
420.521	103.76
420.729	132.44
420.937	-27.31
421.145	-29.35
421.353	114
421.561	132.44
421.769	50.52
421.977	19.8
422.185	124.24
422.393	30.04
422.601	30.04
422.809	7.51
423.017	-37.55
423.224	111.96
423.432	83.28
423.64	52.56
423.848	81.24
424.056	32.08
424.263	81.24
424.471	54.61
424.679	124.24
424.887	-37.55
425.094	253.27
425.302	66.9
425.51	3.41
425.718	120.15
425.925	54.61
426.133	-25.26
426.341	159.06
426.548	62.8
426.756	19.8
426.964	73.04
427.171	-62.12
427.379	101.72
427.586	103.76
427.794	95.57
428.001	148.82
428.209	66.9
428.417	71
428.624	195.92
428.832	71
429.039	54.61
429.247	38.23
429.454	183.63
429.662	228.69
429.869	216.4
430.076	83.28
430.284	187.73
430.491	234.83
430.699	146.77
430.906	183.63
431.114	152.91
431.321	111.96
431.528	107.86
431.736	140.63
431.943	150.87
432.15	175.44
432.358	220.5
432.565	216.4
432.772	48.47
432.979	220.5
433.187	191.83
433.394	197.97
433.601	105.81
433.808	261.46
434.016	251.22
434.223	216.4
434.43	195.92
434.637	263.51
434.844	265.55
435.052	265.55
435.259	308.56
435.466	267.6
435.673	300.37
435.88	283.98
436.087	337.23
436.294	306.51
436.501	402.77
436.708	243.03
436.915	292.18
437.122	372.05
437.329	308.56
437.537	308.56
437.743	316.75
437.95	435.53
438.157	361.81
438.364	443.73
438.571	453.97
438.778	431.44
438.985	480.59
439.192	517.45
439.399	415.06
439.606	607.56
439.813	578.89
440.02	677.19
440.227	695.63
440.433	517.45
440.64	552.27
440.847	523.6
441.054	697.67
441.261	693.58
441.467	576.84
441.674	709.96
441.881	628.04
442.088	619.85
442.294	810.31
442.501	867.66
442.708	908.62
442.914	824.65
443.121	937.29
443.328	906.57
443.534	1021.25
443.741	976.2
443.948	859.46
444.154	1066.31
444.361	1293.63
444.568	1203.52
444.774	1060.17
444.981	1117.51
445.187	1240.39
445.394	1232.19
445.6	1195.33
445.807	1451.33
446.013	1496.38
446.22	1350.98
446.426	1543.49
446.633	1668.41
446.839	1697.08
447.046	1609.02
447.252	1879.35
447.459	1920.31
447.665	1762.62
447.871	1920.31
448.078	2110.77
448.284	2084.15
448.491	2143.54
448.697	2313.52
448.903	2503.98
449.11	2456.88
449.316	2395.44
449.522	2637.1
449.728	2635.05
449.935	2725.16
450.141	2831.66
450.347	3163.43
450.553	3028.26
450.76	2999.59
450.966	3192.1
451.172	3456.29
451.378	3530.02
451.584	3560.73
451.791	3915.03
451.997	3851.55
452.203	3783.96
452.409	4140.31
452.615	4271.38
452.821	4257.04
453.027	4334.87
453.233	4732.17
453.44	4668.69
453.646	5018.89
453.852	5082.38
454.058	5238.02
454.264	5348.61
454.47	5614.85
454.676	5766.4
454.882	6264.05
455.088	5995.77
455.294	6421.75
455.5	6946.03
455.705	7210.22
455.911	7236.84
456.117	7488.74
456.323	7763.17
456.529	7607.52
456.735	8445.14
456.941	8549.59
457.147	9028.81
457.352	9235.66
457.558	9362.63
457.764	10034.36
457.97	10032.32
458.176	10622.13
458.381	11039.92
458.587	11377.83
458.793	12035.23
458.999	11947.17
459.204	13464.71
459.41	13788.29
459.616	13571.21
459.821	14406.78
460.027	15225.96
460.233	15754.34
460.438	15828.07
460.644	16518.23
460.85	16905.3
461.055	17167.44
461.261	18568.25
461.466	17962.05
461.672	18525.24
461.878	20470.81
462.083	20268.06
462.289	20835.35
462.494	21515.28
462.7	21715.98
462.905	21980.17
463.111	24079.33
463.316	24832.99
463.522	25197.52
463.727	26178.5
463.932	27577.26
464.138	28244.9
464.343	29649.81
464.549	29754.26
464.754	31771.5
464.959	32287.59
465.165	32961.37
465.37	32840.54
465.575	32729.95
465.781	35132.22
465.986	35951.41
466.191	35865.39
466.397	36156.21
466.602	35162.94
466.807	36838.18
467.012	38028.05
467.218	38146.83
467.423	38468.36
467.628	39187.2
467.833	41427.68
468.038	40649.45
468.244	40018.67
468.449	41915.09
468.654	41171.68
468.859	40897.25
