Data from USB4F104151__248__11-19-58-936.txt Node

Date: Wed Feb 26 11:19:58 EST 2025
User: louis
Spectrometer: USB4F10415
Trigger mode: 4
Integration Time (sec): 1.000000E-1
Scans to average: 1
Electric dark correction enabled: true
Nonlinearity correction enabled: false
Boxcar width: 0
XAxis mode: Wavelengths
Number of Pixels in Spectrum: 3648
>>>>>Begin Spectral Data<<<<<
178.204	-400.55
178.424	-400.55
178.644	-400.55
178.864	-435.36
179.084	-404.64
179.304	56.15
179.524	-56.49
179.744	-29.87
179.964	27.48
180.184	13.14
180.404	52.05
180.624	70.48
180.844	-48.3
181.064	-70.83
181.283	-9.39
181.503	-56.49
181.723	52.05
181.943	-19.63
182.163	121.68
182.383	37.72
182.602	80.72
182.822	152.4
183.042	109.4
183.262	19.29
183.482	17.24
183.701	37.72
183.921	13.14
184.141	-64.68
184.361	33.62
184.58	78.68
184.8	76.63
185.02	47.96
185.239	121.68
185.459	136.02
185.679	84.82
185.898	-29.87
186.118	86.87
186.338	68.44
186.557	105.3
186.777	17.24
186.997	-50.35
187.216	54.1
187.436	271.19
187.655	78.68
187.875	90.96
188.095	43.86
188.314	176.98
188.534	127.83
188.753	-52.39
188.973	17.24
189.192	242.51
189.412	27.48
189.631	66.39
189.851	84.82
190.07	148.31
190.29	-58.54
190.509	62.29
190.729	70.48
190.948	127.83
191.168	301.9
191.387	39.76
191.607	35.67
191.826	170.83
192.045	7
192.265	-5.29
192.484	95.06
192.704	19.29
192.923	52.05
193.142	226.13
193.362	113.49
193.581	129.88
193.8	60.24
194.02	119.64
194.239	95.06
194.458	78.68
194.678	-40.11
194.897	-17.58
195.116	187.22
195.335	95.06
195.555	82.77
195.774	-3.24
195.993	144.21
196.212	25.43
196.432	29.52
196.651	17.24
196.87	-17.58
197.089	369.49
197.308	62.29
197.528	127.83
197.747	-46.25
197.966	47.96
198.185	136.02
198.404	21.33
198.623	138.07
198.842	142.16
199.062	174.93
199.281	148.31
199.5	45.91
199.719	74.58
199.938	19.29
200.157	68.44
200.376	93.01
200.595	121.68
200.814	80.72
201.033	27.48
201.252	166.74
201.471	119.64
201.69	123.73
201.909	-3.24
202.128	123.73
202.347	76.63
202.566	80.72
202.785	-83.11
203.004	-15.53
203.223	279.38
203.442	-5.29
203.661	2.9
203.879	76.63
204.098	152.4
204.317	-66.73
204.536	125.78
204.755	146.26
204.974	99.16
205.193	23.38
205.411	211.79
205.63	189.27
205.849	29.52
206.068	37.72
206.287	9.05
206.505	158.55
206.724	39.76
206.943	17.24
207.162	45.91
207.381	86.87
207.599	93.01
207.818	0.85
208.037	35.67
208.255	25.43
208.474	17.24
208.693	107.35
208.911	50
209.13	13.14
209.349	123.73
209.567	99.16
209.786	2.9
210.005	164.69
210.223	99.16
210.442	-44.2
210.661	33.62
210.879	62.29
211.098	43.86
211.316	74.58
211.535	19.29
211.753	138.07
211.972	129.88
212.191	68.44
212.409	68.44
212.628	109.4
212.846	27.48
213.065	111.44
213.283	174.93
213.502	70.48
213.72	45.91
213.938	60.24
214.157	19.29
214.375	101.2
214.594	27.48
214.812	107.35
215.031	13.14
215.249	105.3
215.467	60.24
215.686	31.57
215.904	125.78
216.122	47.96
216.341	160.59
216.559	50
216.778	62.29
216.996	121.68
217.214	23.38
217.432	7
217.651	-23.72
217.869	99.16
218.087	4.95
218.306	82.77
218.524	9.05
218.742	74.58
218.96	142.16
219.179	37.72
219.397	41.81
219.615	252.75
219.833	62.29
220.051	-33.96
220.27	76.63
220.488	103.25
220.706	33.62
220.924	84.82
221.142	31.57
221.36	123.73
221.578	99.16
221.796	117.59
222.015	58.2
222.233	99.16
222.451	160.59
222.669	-21.67
222.887	129.88
223.105	-9.39
223.323	62.29
223.541	-15.53
223.759	84.82
223.977	47.96
224.195	176.98
224.413	88.92
224.631	84.82
224.849	15.19
225.067	199.51
225.285	27.48
225.503	121.68
225.721	-70.83
225.939	123.73
226.157	95.06
226.375	240.47
226.592	13.14
226.81	119.64
227.028	142.16
227.246	140.12
227.464	103.25
227.682	111.44
227.9	150.36
228.117	56.15
228.335	111.44
228.553	86.87
228.771	0.85
228.989	4.95
229.206	113.49
229.424	45.91
229.642	-54.44
229.86	27.48
230.077	187.22
230.295	84.82
230.513	62.29
230.731	33.62
230.948	240.47
231.166	150.36
231.384	64.34
231.601	21.33
231.819	144.21
232.037	19.29
232.254	-40.11
232.472	50
232.689	-48.3
232.907	113.49
233.125	23.38
233.342	-5.29
233.56	-48.3
233.777	78.68
233.995	119.64
234.213	205.65
234.43	45.91
234.648	45.91
234.865	39.76
235.083	99.16
235.3	-19.63
235.518	66.39
235.735	195.41
235.953	88.92
236.17	2.9
236.388	58.2
236.605	72.53
236.822	113.49
237.04	142.16
237.257	58.2
237.475	17.24
237.692	74.58
237.909	50
238.127	13.14
238.344	66.39
238.562	52.05
238.779	45.91
238.996	-7.34
239.214	56.15
239.431	109.4
239.648	-31.91
239.865	103.25
240.083	93.01
240.3	39.76
240.517	-42.15
240.735	80.72
240.952	219.99
241.169	152.4
241.386	129.88
241.603	78.68
241.821	-97.45
242.038	123.73
242.255	74.58
242.472	-46.25
242.689	121.68
242.907	113.49
243.124	23.38
243.341	43.86
243.558	60.24
243.775	76.63
243.992	-48.3
244.209	72.53
244.426	197.46
244.643	58.2
244.86	93.01
245.078	203.6
245.295	117.59
245.512	78.68
245.729	76.63
245.946	99.16
246.163	127.83
246.38	9.05
246.597	105.3
246.814	80.72
247.031	123.73
247.248	54.1
247.464	176.98
247.681	-13.48
247.898	50
248.115	99.16
248.332	105.3
248.549	191.31
248.766	244.56
248.983	56.15
249.2	76.63
249.417	142.16
249.633	31.57
249.85	74.58
250.067	117.59
250.284	52.05
250.501	58.2
250.717	166.74
250.934	7
251.151	95.06
251.368	29.52
251.585	15.19
251.801	72.53
252.018	25.43
252.235	58.2
252.451	-81.07
252.668	66.39
252.885	129.88
253.102	107.35
253.318	47.96
253.535	47.96
253.752	50
253.968	29.52
254.185	-23.72
254.401	31.57
254.618	-25.77
254.835	50
255.051	199.51
255.268	107.35
255.484	107.35
255.701	99.16
255.917	101.2
256.134	76.63
256.351	97.11
256.567	-3.24
256.784	41.81
257	-42.15
257.217	140.12
257.433	72.53
257.65	17.24
257.866	117.59
258.082	37.72
258.299	23.38
258.515	101.2
258.732	50
258.948	-13.48
259.165	111.44
259.381	-3.24
259.597	88.92
259.814	-25.77
260.03	70.48
260.246	31.57
260.463	86.87
260.679	187.22
260.895	11.09
261.112	93.01
261.328	17.24
261.544	-9.39
261.761	140.12
261.977	19.29
262.193	-54.44
262.409	58.2
262.626	93.01
262.842	-5.29
263.058	-1.19
263.274	172.88
263.49	127.83
263.707	107.35
263.923	140.12
264.139	-21.67
264.355	66.39
264.571	127.83
264.787	181.07
265.004	115.54
265.22	62.29
265.436	-19.63
265.652	4.95
265.868	58.2
266.084	-7.34
266.3	52.05
266.516	-9.39
266.732	39.76
266.948	45.91
267.164	41.81
267.38	72.53
267.596	76.63
267.812	246.61
268.028	97.11
268.244	103.25
268.46	66.39
268.676	37.72
268.892	58.2
269.108	-27.82
269.324	11.09
269.54	-11.43
269.756	43.86
269.972	-48.3
270.188	70.48
270.403	-15.53
270.619	72.53
270.835	142.16
271.051	-9.39
271.267	97.11
271.483	47.96
271.698	189.27
271.914	70.48
272.13	54.1
272.346	9.05
272.562	47.96
272.777	101.2
272.993	97.11
273.209	21.33
273.425	113.49
273.64	-56.49
273.856	99.16
274.072	62.29
274.287	-25.77
274.503	138.07
274.719	150.36
274.934	0.85
275.15	-23.72
275.366	41.81
275.581	35.67
275.797	47.96
276.012	107.35
276.228	-7.34
276.444	29.52
276.659	99.16
276.875	-56.49
277.09	25.43
277.306	35.67
277.521	47.96
277.737	37.72
277.952	95.06
278.168	88.92
278.383	11.09
278.599	90.96
278.814	150.36
279.03	90.96
279.245	101.2
279.461	50
279.676	99.16
279.892	-25.77
280.107	-5.29
280.322	62.29
280.538	133.97
280.753	-52.39
280.969	86.87
281.184	29.52
281.399	97.11
281.615	64.34
281.83	60.24
282.045	-54.44
282.26	-50.35
282.476	27.48
282.691	138.07
282.906	41.81
283.122	58.2
283.337	47.96
283.552	152.4
283.767	-3.24
283.983	107.35
284.198	-19.63
284.413	52.05
284.628	-46.25
284.843	66.39
285.058	62.29
285.274	0.85
285.489	-11.43
285.704	99.16
285.919	41.81
286.134	33.62
286.349	93.01
286.564	70.48
286.779	187.22
286.995	-62.63
287.21	-81.07
287.425	-7.34
287.64	21.33
287.855	84.82
288.07	-38.06
288.285	136.02
288.5	47.96
288.715	142.16
288.93	58.2
289.145	-15.53
289.36	72.53
289.575	60.24
289.79	127.83
290.004	-31.91
290.219	164.69
290.434	-7.34
290.649	19.29
290.864	25.43
291.079	41.81
291.294	103.25
291.509	103.25
291.724	117.59
291.938	39.76
292.153	29.52
292.368	58.2
292.583	58.2
292.798	105.3
293.012	111.44
293.227	78.68
293.442	62.29
293.657	93.01
293.871	99.16
294.086	31.57
294.301	156.5
294.516	193.36
294.73	78.68
294.945	-52.39
295.16	41.81
295.374	88.92
295.589	154.45
295.804	11.09
296.018	41.81
296.233	111.44
296.447	68.44
296.662	27.48
296.877	74.58
297.091	25.43
297.306	47.96
297.52	74.58
297.735	72.53
297.949	105.3
298.164	29.52
298.378	35.67
298.593	-21.67
298.807	45.91
299.022	52.05
299.236	219.99
299.451	88.92
299.665	17.24
299.88	33.62
300.094	164.69
300.309	93.01
300.523	121.68
300.737	47.96
300.952	107.35
301.166	107.35
301.381	29.52
301.595	21.33
301.809	93.01
302.024	76.63
302.238	-54.44
302.452	97.11
302.667	64.34
302.881	115.54
303.095	174.93
303.309	138.07
303.524	-1.19
303.738	84.82
303.952	39.76
304.166	90.96
304.381	-33.96
304.595	84.82
304.809	43.86
305.023	4.95
305.237	27.48
305.452	19.29
305.666	90.96
305.88	105.3
306.094	154.45
306.308	113.49
306.522	93.01
306.736	115.54
306.95	95.06
307.164	58.2
307.379	45.91
307.593	185.17
307.807	140.12
308.021	56.15
308.235	95.06
308.449	-124.07
308.663	19.29
308.877	273.23
309.091	78.68
309.305	154.45
309.519	-36.01
309.733	168.79
309.947	-48.3
310.161	131.92
310.374	88.92
310.588	125.78
310.802	-64.68
311.016	-5.29
311.23	68.44
311.444	-56.49
311.658	58.2
311.872	78.68
312.085	193.36
312.299	162.64
312.513	136.02
312.727	86.87
312.941	19.29
313.154	50
313.368	52.05
313.582	41.81
313.796	47.96
314.009	-21.67
314.223	80.72
314.437	103.25
314.651	230.23
314.864	-9.39
315.078	47.96
315.292	13.14
315.505	117.59
315.719	64.34
315.933	109.4
316.146	11.09
316.36	39.76
316.573	131.92
316.787	146.26
317.001	109.4
317.214	0.85
317.428	9.05
317.641	-7.34
317.855	56.15
318.068	105.3
318.282	121.68
318.495	193.36
318.709	93.01
318.922	68.44
319.136	181.07
319.349	142.16
319.563	60.24
319.776	121.68
319.99	35.67
320.203	148.31
320.417	31.57
320.63	131.92
320.843	150.36
321.057	97.11
321.27	78.68
321.483	162.64
321.697	203.6
321.91	117.59
322.124	117.59
322.337	33.62
322.55	0.85
322.763	97.11
322.977	45.91
323.19	31.57
323.403	127.83
323.617	27.48
323.83	162.64
324.043	27.48
324.256	95.06
324.469	-101.55
324.683	105.3
324.896	27.48
325.109	107.35
325.322	-1.19
325.535	107.35
325.748	111.44
325.962	60.24
326.175	56.15
326.388	84.82
326.601	144.21
326.814	27.48
327.027	74.58
327.24	179.03
327.453	-54.44
327.666	47.96
327.879	129.88
328.092	70.48
328.305	-9.39
328.518	31.57
328.731	-7.34
328.944	50
329.157	62.29
329.37	17.24
329.583	256.85
329.796	162.64
330.009	-31.91
330.222	97.11
330.435	78.68
330.648	17.24
330.861	88.92
331.073	37.72
331.286	127.83
331.499	97.11
331.712	-5.29
331.925	103.25
332.138	70.48
332.35	146.26
332.563	4.95
332.776	189.27
332.989	15.19
333.202	-3.24
333.414	13.14
333.627	113.49
333.84	47.96
334.053	138.07
334.265	80.72
334.478	47.96
334.691	19.29
334.903	23.38
335.116	19.29
335.329	4.95
335.541	172.88
335.754	103.25
335.966	0.85
336.179	107.35
336.392	-27.82
336.604	86.87
336.817	144.21
337.029	105.3
337.242	66.39
337.454	111.44
337.667	60.24
337.88	144.21
338.092	45.91
338.305	84.82
338.517	74.58
338.729	56.15
338.942	150.36
339.154	-21.67
339.367	21.33
339.579	107.35
339.792	-85.16
340.004	68.44
340.217	-33.96
340.429	148.31
340.641	-38.06
340.854	2.9
341.066	37.72
341.278	183.12
341.491	160.59
341.703	31.57
341.915	9.05
342.128	105.3
342.34	66.39
342.552	-5.29
342.764	27.48
342.977	66.39
343.189	47.96
343.401	105.3
343.613	-81.07
343.826	64.34
344.038	17.24
344.25	176.98
344.462	21.33
344.674	74.58
344.886	86.87
345.099	127.83
345.311	62.29
345.523	45.91
345.735	-38.06
345.947	74.58
346.159	-1.19
346.371	80.72
346.583	-17.58
346.795	168.79
347.007	117.59
347.219	78.68
347.431	13.14
347.643	129.88
347.855	-31.91
348.067	172.88
348.279	-7.34
348.491	47.96
348.703	191.31
348.915	-1.19
349.127	-25.77
349.339	60.24
349.551	47.96
349.763	107.35
349.975	-7.34
350.187	131.92
350.399	140.12
350.61	66.39
350.822	29.52
351.034	99.16
351.246	101.2
351.458	66.39
351.669	181.07
351.881	127.83
352.093	105.3
352.305	156.5
352.517	72.53
352.728	158.55
352.94	74.58
353.152	152.4
353.363	-15.53
353.575	179.03
353.787	160.59
353.999	66.39
354.21	160.59
354.422	35.67
354.633	23.38
354.845	78.68
355.057	31.57
355.268	45.91
355.48	125.78
355.692	-38.06
355.903	50
356.115	-7.34
356.326	-52.39
356.538	172.88
356.749	105.3
356.961	193.36
357.172	80.72
357.384	-1.19
357.595	176.98
357.807	72.53
358.018	11.09
358.23	58.2
358.441	144.21
358.653	154.45
358.864	80.72
359.075	-103.59
359.287	64.34
359.498	129.88
359.709	70.48
359.921	80.72
360.132	168.79
360.344	93.01
360.555	58.2
360.766	127.83
360.977	90.96
361.189	125.78
361.4	39.76
361.611	205.65
361.823	164.69
362.034	125.78
362.245	62.29
362.456	2.9
362.667	50
362.879	52.05
363.09	50
363.301	103.25
363.512	93.01
363.723	-74.92
363.935	99.16
364.146	4.95
364.357	97.11
364.568	84.82
364.779	13.14
364.99	64.34
365.201	56.15
365.412	101.2
365.623	-74.92
365.834	47.96
366.045	95.06
366.256	144.21
366.467	144.21
366.678	19.29
366.889	-9.39
367.1	11.09
367.311	127.83
367.522	-11.43
367.733	25.43
367.944	64.34
368.155	-5.29
368.366	152.4
368.577	82.77
368.788	166.74
368.999	-29.87
369.209	52.05
369.42	131.92
369.631	176.98
369.842	150.36
370.053	15.19
370.264	129.88
370.474	45.91
370.685	168.79
370.896	15.19
371.107	131.92
371.317	105.3
371.528	70.48
371.739	226.13
371.95	113.49
372.16	111.44
372.371	-3.24
372.582	11.09
372.792	119.64
373.003	121.68
373.214	86.87
373.424	76.63
373.635	17.24
373.846	129.88
374.056	31.57
374.267	52.05
374.477	50
374.688	78.68
374.898	41.81
375.109	56.15
375.319	0.85
375.53	201.55
375.74	95.06
375.951	43.86
376.161	11.09
376.372	109.4
376.582	9.05
376.793	88.92
377.003	-9.39
377.214	-3.24
377.424	54.1
377.635	74.58
377.845	-21.67
378.055	158.55
378.266	-21.67
378.476	82.77
378.686	52.05
378.897	25.43
379.107	152.4
379.317	103.25
379.528	76.63
379.738	29.52
379.948	-7.34
380.158	129.88
380.369	80.72
380.579	166.74
380.789	39.76
380.999	93.01
381.21	103.25
381.42	179.03
381.63	35.67
381.84	80.72
382.05	23.38
382.261	127.83
382.471	125.78
382.681	72.53
382.891	133.97
383.101	97.11
383.311	80.72
383.521	84.82
383.731	86.87
383.941	158.55
384.151	88.92
384.361	-3.24
384.571	39.76
384.781	82.77
384.991	209.75
385.201	156.5
385.411	199.51
385.621	140.12
385.831	111.44
386.041	86.87
386.251	72.53
386.461	115.54
386.671	-25.77
386.881	70.48
387.091	121.68
387.301	144.21
387.511	82.77
387.72	125.78
387.93	72.53
388.14	23.38
388.35	21.33
388.56	170.83
388.769	74.58
388.979	47.96
389.189	-17.58
389.399	27.48
389.609	133.97
389.818	148.31
390.028	136.02
390.238	80.72
390.447	15.19
390.657	121.68
390.867	33.62
391.076	-66.73
391.286	31.57
391.496	127.83
391.705	37.72
391.915	131.92
392.125	133.97
392.334	56.15
392.544	103.25
392.753	70.48
392.963	4.95
393.172	107.35
393.382	90.96
393.591	205.65
393.801	45.91
394.01	164.69
394.22	121.68
394.429	29.52
394.639	37.72
394.848	121.68
395.058	41.81
395.267	29.52
395.477	58.2
395.686	148.31
395.895	213.84
396.105	219.99
396.314	113.49
396.524	144.21
396.733	58.2
396.942	170.83
397.152	70.48
397.361	136.02
397.57	99.16
397.78	111.44
397.989	74.58
398.198	183.12
398.407	56.15
398.617	78.68
398.826	11.09
399.035	7
399.244	140.12
399.453	47.96
399.663	70.48
399.872	82.77
400.081	23.38
400.29	131.92
400.499	29.52
400.708	205.65
400.917	7
401.127	-7.34
401.336	58.2
401.545	289.62
401.754	133.97
401.963	183.12
402.172	-81.07
402.381	35.67
402.59	56.15
402.799	45.91
403.008	164.69
403.217	35.67
403.426	119.64
403.635	-25.77
403.844	95.06
404.053	21.33
404.262	15.19
404.471	226.13
404.68	31.57
404.888	27.48
405.097	31.57
405.306	88.92
405.515	131.92
405.724	95.06
405.933	109.4
406.142	215.89
406.35	119.64
406.559	35.67
406.768	54.1
406.977	136.02
407.185	99.16
407.394	43.86
407.603	13.14
407.812	127.83
408.02	209.75
408.229	52.05
408.438	82.77
408.646	-56.49
408.855	158.55
409.064	136.02
409.272	88.92
409.481	80.72
409.69	19.29
409.898	0.85
410.107	119.64
410.315	97.11
410.524	-21.67
410.733	103.25
410.941	84.82
411.15	90.96
411.358	62.29
411.567	150.36
411.775	29.52
411.984	86.87
412.192	95.06
412.401	47.96
412.609	109.4
412.818	193.36
413.026	136.02
413.234	64.34
413.443	84.82
413.651	29.52
413.86	31.57
414.068	211.79
414.276	185.17
414.485	43.86
414.693	187.22
414.901	166.74
415.11	47.96
415.318	70.48
415.526	95.06
415.734	148.31
415.943	123.73
416.151	107.35
416.359	105.3
416.567	56.15
416.776	88.92
416.984	82.77
417.192	219.99
417.4	43.86
417.608	72.53
417.817	31.57
418.025	133.97
418.233	199.51
418.441	-25.77
418.649	47.96
418.857	113.49
419.065	217.94
419.273	-33.96
419.481	93.01
419.689	62.29
419.897	58.2
420.105	66.39
420.313	168.79
420.521	185.17
420.729	168.79
420.937	2.9
421.145	97.11
421.353	125.78
421.561	172.88
421.769	39.76
421.977	86.87
422.185	123.73
422.393	88.92
422.601	123.73
422.809	121.68
423.017	80.72
423.224	152.4
423.432	160.59
423.64	164.69
423.848	56.15
424.056	9.05
424.263	119.64
424.471	115.54
424.679	168.79
424.887	37.72
425.094	148.31
425.302	152.4
425.51	60.24
425.718	144.21
425.925	7
426.133	9.05
426.341	273.23
426.548	99.16
426.756	86.87
426.964	146.26
427.171	64.34
427.379	78.68
427.586	82.77
427.794	78.68
428.001	222.03
428.209	111.44
428.417	183.12
428.624	121.68
428.832	176.98
429.039	107.35
429.247	172.88
429.454	115.54
429.662	275.28
429.869	109.4
430.076	111.44
430.284	133.97
430.491	217.94
430.699	228.18
430.906	222.03
431.114	158.55
431.321	160.59
431.528	107.35
431.736	207.7
431.943	185.17
432.15	209.75
432.358	320.34
432.565	359.25
432.772	37.72
432.979	262.99
433.187	156.5
433.394	201.55
433.601	246.61
433.808	303.95
434.016	250.71
434.223	265.04
434.43	211.79
434.637	250.71
434.844	316.24
435.052	213.84
435.259	318.29
435.466	275.28
435.673	260.95
435.88	355.15
436.087	230.23
436.294	416.59
436.501	389.97
436.708	328.53
436.915	281.43
437.122	398.16
437.329	297.81
437.537	394.06
437.743	432.97
437.95	598.86
438.157	465.74
438.364	426.83
438.571	410.45
438.778	430.93
438.985	527.18
439.192	627.53
439.399	549.71
439.606	480.08
439.813	607.05
440.02	656.2
440.227	715.59
440.433	590.67
440.64	568.14
440.847	432.97
441.054	570.19
441.261	791.37
441.467	652.11
441.674	602.96
441.881	820.04
442.088	650.06
442.294	840.52
442.501	764.75
442.708	830.28
442.914	783.18
443.121	951.11
443.328	938.82
443.534	1037.13
443.741	1012.55
443.948	910.15
444.154	1147.72
444.361	1239.87
444.568	1065.8
444.774	1076.04
444.981	1041.22
445.187	1274.69
445.394	1225.54
445.6	1311.55
445.807	1418.05
446.013	1379.14
446.22	1360.7
446.426	1598.27
446.633	1596.22
446.839	1682.24
447.046	1571.65
447.252	1790.78
447.459	1704.76
447.665	1672
447.871	1831.74
448.078	2177.84
448.284	1975.1
448.491	2229.04
448.697	2306.87
448.903	2339.63
449.11	2370.35
449.316	2380.59
449.522	2515.76
449.728	2511.66
449.935	2687.79
450.141	2751.28
450.347	2904.87
450.553	2886.44
450.76	2999.08
450.966	3064.61
451.172	3191.59
451.378	3408.67
451.584	3431.2
451.791	3744.54
451.997	3756.83
452.203	3855.13
452.409	4027.16
452.615	4342.55
452.821	3996.44
453.027	4166.42
453.233	4709.13
453.44	4619.02
453.646	4682.51
453.852	4967.18
454.058	5151.49
454.264	5210.89
454.47	5591.81
454.676	5690.11
454.882	6114.04
455.088	5878.52
455.294	6222.58
455.5	6636.27
455.705	7158.5
455.911	7070.44
456.117	7320.29
456.323	7543.52
456.529	7441.12
456.735	8168.15
456.941	8325.85
457.147	8618.71
457.352	8970.96
457.558	9198.28
457.764	9796.29
457.97	9943.74
458.176	10203.83
458.381	10783.41
458.587	11027.12
458.793	11780.77
458.999	11618.98
459.204	13017.74
459.41	13445.77
459.616	13386.38
459.821	13867.65
460.027	14756.47
460.233	15245.93
460.438	15403.63
460.644	16443.99
460.85	16622.17
461.055	16874.07
461.261	18055.75
461.466	17621.58
461.672	17932.87
461.878	19886.63
462.083	19630.63
462.289	20476.44
462.494	20869.65
462.7	21182.99
462.905	21522.96
463.111	23312.88
463.316	24379.87
463.522	24760.8
463.727	25504.21
463.932	26419.65
464.138	27523.51
464.343	28424.61
464.549	28426.66
464.754	30208.39
464.959	31902.06
465.165	32057.71
465.37	31682.93
465.575	31721.84
465.781	34179.4
465.986	35117.37
466.191	34527.56
466.397	34677.06
466.602	33868.11
466.807	35871.03
467.012	36405.55
467.218	37009.7
467.423	37146.91
467.628	38557.96
467.833	40583.4
468.038	39528.7
468.244	38742.28
468.449	40732.9
