Data from USB4F104151__142__11-04-15-939.txt Node

Date: Wed Feb 26 11:04:15 EST 2025
User: louis
Spectrometer: USB4F10415
Trigger mode: 4
Integration Time (sec): 1.000000E-1
Scans to average: 1
Electric dark correction enabled: true
Nonlinearity correction enabled: false
Boxcar width: 0
XAxis mode: Wavelengths
Number of Pixels in Spectrum: 3648
>>>>>Begin Spectral Data<<<<<
178.204	-423.93
178.424	-423.93
178.644	-423.93
178.864	-362.49
179.084	-407.55
179.304	28.67
179.524	-61.44
179.744	-16.38
179.964	61.44
180.184	-14.34
180.404	36.86
180.624	-69.63
180.844	55.3
181.064	-32.77
181.283	59.39
181.503	-77.82
181.723	30.72
181.943	-69.63
182.163	163.84
182.383	6.14
182.602	53.25
182.822	161.79
183.042	79.87
183.262	-8.19
183.482	57.34
183.701	67.58
183.921	30.72
184.141	24.58
184.361	126.97
184.58	18.43
184.8	94.21
185.02	69.63
185.239	198.65
185.459	86.01
185.679	126.97
185.898	-55.3
186.118	53.25
186.338	143.36
186.557	133.12
186.777	18.43
186.997	-18.43
187.216	75.77
187.436	239.61
187.655	133.12
187.875	2.05
188.095	18.43
188.314	192.51
188.534	120.83
188.753	-45.06
188.973	120.83
189.192	194.56
189.412	67.58
189.631	108.54
189.851	129.02
190.07	184.32
190.29	-63.49
190.509	45.06
190.729	92.16
190.948	184.32
191.168	202.75
191.387	108.54
191.607	-104.45
191.826	98.3
192.045	26.62
192.265	61.44
192.484	118.78
192.704	38.91
192.923	-12.29
193.142	247.8
193.362	106.49
193.581	112.64
193.8	98.3
194.02	59.39
194.239	73.73
194.458	61.44
194.678	38.91
194.897	2.05
195.116	-12.29
195.335	79.87
195.555	120.83
195.774	16.38
195.993	118.78
196.212	86.01
196.432	26.62
196.651	32.77
196.87	145.41
197.089	229.37
197.308	4.1
197.528	81.92
197.747	-20.48
197.966	12.29
198.185	174.08
198.404	-36.86
198.623	114.69
198.842	143.36
199.062	120.83
199.281	149.5
199.5	22.53
199.719	161.79
199.938	14.34
200.157	100.35
200.376	131.07
200.595	172.03
200.814	69.63
201.033	67.58
201.252	157.69
201.471	98.3
201.69	86.01
201.909	12.29
202.128	112.64
202.347	81.92
202.566	122.88
202.785	-88.06
203.004	-28.67
203.223	319.48
203.442	145.41
203.661	-47.1
203.879	141.31
204.098	217.08
204.317	2.05
204.536	100.35
204.755	77.82
204.974	110.59
205.193	12.29
205.411	182.27
205.63	133.12
205.849	63.49
206.068	8.19
206.287	10.24
206.505	157.69
206.724	-14.34
206.943	4.1
207.162	4.1
207.381	69.63
207.599	14.34
207.818	163.84
208.037	4.1
208.255	49.15
208.474	79.87
208.693	-34.82
208.911	83.97
209.13	149.5
209.349	104.45
209.567	94.21
209.786	135.17
210.005	155.65
210.223	65.53
210.442	-71.68
210.661	14.34
210.879	180.22
211.098	79.87
211.316	40.96
211.535	108.54
211.753	114.69
211.972	114.69
212.191	34.82
212.409	55.3
212.628	102.4
212.846	26.62
213.065	77.82
213.283	143.36
213.502	61.44
213.72	73.73
213.938	81.92
214.157	38.91
214.375	73.73
214.594	149.5
214.812	28.67
215.031	83.97
215.249	96.25
215.467	40.96
215.686	-57.34
215.904	131.07
216.122	71.68
216.341	196.6
216.559	98.3
216.778	118.78
216.996	208.89
217.214	61.44
217.432	120.83
217.651	51.2
217.869	94.21
218.087	24.58
218.306	22.53
218.524	79.87
218.742	45.06
218.96	120.83
219.179	-34.82
219.397	8.19
219.615	262.14
219.833	174.08
220.051	67.58
220.27	112.64
220.488	145.41
220.706	61.44
220.924	-45.06
221.142	55.3
221.36	135.17
221.578	86.01
221.796	12.29
222.015	71.68
222.233	88.06
222.451	180.22
222.669	4.1
222.887	73.73
223.105	32.77
223.323	22.53
223.541	-22.53
223.759	69.63
223.977	71.68
224.195	163.84
224.413	135.17
224.631	57.34
224.849	106.49
225.067	282.62
225.285	16.38
225.503	-10.24
225.721	-61.44
225.939	106.49
226.157	51.2
226.375	266.24
226.592	-8.19
226.81	36.86
227.028	141.31
227.246	167.93
227.464	73.73
227.682	100.35
227.9	67.58
228.117	24.58
228.335	34.82
228.553	36.86
228.771	77.82
228.989	86.01
229.206	147.45
229.424	32.77
229.642	38.91
229.86	28.67
230.077	161.79
230.295	20.48
230.513	61.44
230.731	79.87
230.948	258.04
231.166	159.74
231.384	45.06
231.601	57.34
231.819	204.8
232.037	-32.77
232.254	-32.77
232.472	30.72
232.689	34.82
232.907	149.5
233.125	-8.19
233.342	63.49
233.56	28.67
233.777	55.3
233.995	16.38
234.213	75.77
234.43	235.52
234.648	65.53
234.865	71.68
235.083	145.41
235.3	96.25
235.518	63.49
235.735	81.92
235.953	139.26
236.17	-65.54
236.388	131.07
236.605	14.34
236.822	133.12
237.04	176.13
237.257	92.16
237.475	-34.82
237.692	38.91
237.909	69.63
238.127	73.73
238.344	75.77
238.562	59.39
238.779	-4.1
238.996	-38.91
239.214	22.53
239.431	45.06
239.648	-22.53
239.865	73.73
240.083	96.25
240.3	-16.38
240.517	51.2
240.735	96.25
240.952	237.56
241.169	141.31
241.386	135.17
241.603	28.67
241.821	-16.38
242.038	174.08
242.255	155.65
242.472	-2.05
242.689	77.82
242.907	26.62
243.124	94.21
243.341	61.44
243.558	69.63
243.775	-36.86
243.992	-83.97
244.209	137.21
244.426	256
244.643	120.83
244.86	12.29
245.078	118.78
245.295	114.69
245.512	77.82
245.729	-14.34
245.946	114.69
246.163	59.39
246.38	-6.14
246.597	32.77
246.814	26.62
247.031	55.3
247.248	-18.43
247.464	192.51
247.681	106.49
247.898	38.91
248.115	116.73
248.332	-26.62
248.549	94.21
248.766	190.46
248.983	129.02
249.2	114.69
249.417	200.7
249.633	22.53
249.85	63.49
250.067	8.19
250.284	57.34
250.501	20.48
250.717	43.01
250.934	32.77
251.151	129.02
251.368	79.87
251.585	126.97
251.801	73.73
252.018	-10.24
252.235	110.59
252.451	22.53
252.668	116.73
252.885	126.97
253.102	135.17
253.318	18.43
253.535	-40.96
253.752	-32.77
253.968	-22.53
254.185	10.24
254.401	116.73
254.618	96.25
254.835	38.91
255.051	157.69
255.268	100.35
255.484	61.44
255.701	43.01
255.917	104.45
256.134	8.19
256.351	86.01
256.567	43.01
256.784	53.25
257	-32.77
257.217	133.12
257.433	110.59
257.65	71.68
257.866	145.41
258.082	-18.43
258.299	2.05
258.515	88.06
258.732	-14.34
258.948	-110.59
259.165	57.34
259.381	34.82
259.597	81.92
259.814	65.53
260.03	14.34
260.246	26.62
260.463	110.59
260.679	167.93
260.895	55.3
261.112	59.39
261.328	53.25
261.544	38.91
261.761	186.37
261.977	24.58
262.193	-43.01
262.409	159.74
262.626	88.06
262.842	26.62
263.058	47.1
263.274	40.96
263.49	47.1
263.707	126.97
263.923	90.11
264.139	-40.96
264.355	104.45
264.571	172.03
264.787	116.73
265.004	192.51
265.22	100.35
265.436	6.14
265.652	81.92
265.868	145.41
266.084	24.58
266.3	20.48
266.516	69.63
266.732	24.58
266.948	61.44
267.164	38.91
267.38	120.83
267.596	49.15
267.812	147.45
268.028	38.91
268.244	55.3
268.46	69.63
268.676	57.34
268.892	143.36
269.108	40.96
269.324	10.24
269.54	57.34
269.756	96.25
269.972	-16.38
270.188	45.06
270.403	-22.53
270.619	59.39
270.835	53.25
271.051	131.07
271.267	43.01
271.483	-16.38
271.698	26.62
271.914	67.58
272.13	112.64
272.346	36.86
272.562	-75.77
272.777	131.07
272.993	26.62
273.209	92.16
273.425	126.97
273.64	32.77
273.856	71.68
274.072	30.72
274.287	-45.06
274.503	172.03
274.719	184.32
274.934	14.34
275.15	-57.34
275.366	83.97
275.581	4.1
275.797	20.48
276.012	71.68
276.228	-4.1
276.444	34.82
276.659	81.92
276.875	12.29
277.09	-24.58
277.306	20.48
277.521	79.87
277.737	47.1
277.952	118.78
278.168	90.11
278.383	43.01
278.599	26.62
278.814	71.68
279.03	112.64
279.245	204.8
279.461	49.15
279.676	137.21
279.892	16.38
280.107	118.78
280.322	-4.1
280.538	100.35
280.753	-2.05
280.969	16.38
281.184	57.34
281.399	198.65
281.615	92.16
281.83	92.16
282.045	-43.01
282.26	-32.77
282.476	40.96
282.691	110.59
282.906	71.68
283.122	47.1
283.337	30.72
283.552	172.03
283.767	67.58
283.983	133.12
284.198	57.34
284.413	55.3
284.628	-4.1
284.843	38.91
285.058	176.13
285.274	45.06
285.489	-10.24
285.704	69.63
285.919	26.62
286.134	51.2
286.349	77.82
286.564	67.58
286.779	141.31
286.995	92.16
287.21	-43.01
287.425	118.78
287.64	34.82
287.855	90.11
288.07	-28.67
288.285	157.69
288.5	212.99
288.715	57.34
288.93	59.39
289.145	6.14
289.36	112.64
289.575	32.77
289.79	167.93
290.004	49.15
290.219	174.08
290.434	-22.53
290.649	22.53
290.864	-53.25
291.079	143.36
291.294	69.63
291.509	20.48
291.724	14.34
291.938	141.31
292.153	161.79
292.368	94.21
292.583	143.36
292.798	114.69
293.012	108.54
293.227	106.49
293.442	2.05
293.657	88.06
293.871	163.84
294.086	38.91
294.301	94.21
294.516	71.68
294.73	120.83
294.945	-108.54
295.16	65.53
295.374	81.92
295.589	96.25
295.804	69.63
296.018	26.62
296.233	151.55
296.447	77.82
296.662	4.1
296.877	184.32
297.091	26.62
297.306	88.06
297.52	67.58
297.735	49.15
297.949	96.25
298.164	51.2
298.378	100.35
298.593	2.05
298.807	12.29
299.022	69.63
299.236	190.46
299.451	-30.72
299.665	67.58
299.88	32.77
300.094	67.58
300.309	79.87
300.523	126.97
300.737	116.73
300.952	43.01
301.166	59.39
301.381	-32.77
301.595	-8.19
301.809	67.58
302.024	114.69
302.238	-2.05
302.452	86.01
302.667	75.77
302.881	221.18
303.095	135.17
303.309	79.87
303.524	-20.48
303.738	135.17
303.952	63.49
304.166	104.45
304.381	-73.73
304.595	172.03
304.809	-10.24
305.023	100.35
305.237	59.39
305.452	10.24
305.666	155.65
305.88	155.65
306.094	174.08
306.308	147.45
306.522	139.26
306.736	135.17
306.95	57.34
307.164	55.3
307.379	-4.1
307.593	139.26
307.807	169.98
308.021	112.64
308.235	69.63
308.449	-24.58
308.663	47.1
308.877	190.46
309.091	77.82
309.305	63.49
309.519	-65.54
309.733	102.4
309.947	-24.58
310.161	110.59
310.374	96.25
310.588	124.93
310.802	-88.06
311.016	69.63
311.23	102.4
311.444	63.49
311.658	51.2
311.872	92.16
312.085	106.49
312.299	233.47
312.513	167.93
312.727	53.25
312.941	30.72
313.154	61.44
313.368	73.73
313.582	79.87
313.796	86.01
314.009	36.86
314.223	202.75
314.437	71.68
314.651	90.11
314.864	2.05
315.078	53.25
315.292	2.05
315.505	69.63
315.719	53.25
315.933	77.82
316.146	-40.96
316.36	-28.67
316.573	137.21
316.787	59.39
317.001	24.58
317.214	-26.62
317.428	77.82
317.641	-32.77
317.855	108.54
318.068	22.53
318.282	75.77
318.495	299
318.709	90.11
318.922	20.48
319.136	167.93
319.349	133.12
319.563	38.91
319.776	12.29
319.99	-49.15
320.203	88.06
320.417	94.21
320.63	94.21
320.843	184.32
321.057	129.02
321.27	-53.25
321.483	102.4
321.697	98.3
321.91	32.77
322.124	100.35
322.337	49.15
322.55	34.82
322.763	63.49
322.977	10.24
323.19	57.34
323.403	110.59
323.617	51.2
323.83	157.69
324.043	24.58
324.256	86.01
324.469	-40.96
324.683	94.21
324.896	28.67
325.109	45.06
325.322	-6.14
325.535	137.21
325.748	167.93
325.962	53.25
326.175	94.21
326.388	45.06
326.601	161.79
326.814	61.44
327.027	40.96
327.24	155.65
327.453	-92.16
327.666	2.05
327.879	192.51
328.092	96.25
328.305	73.73
328.518	22.53
328.731	79.87
328.944	77.82
329.157	57.34
329.37	-0
329.583	200.7
329.796	145.41
330.009	34.82
330.222	98.3
330.435	124.93
330.648	90.11
330.861	98.3
331.073	92.16
331.286	172.03
331.499	28.67
331.712	36.86
331.925	88.06
332.138	49.15
332.35	106.49
332.563	36.86
332.776	184.32
332.989	53.25
333.202	43.01
333.414	98.3
333.627	124.93
333.84	-8.19
334.053	118.78
334.265	-26.62
334.478	-20.48
334.691	75.77
334.903	92.16
335.116	-10.24
335.329	104.45
335.541	157.69
335.754	135.17
335.966	43.01
336.179	83.97
336.392	47.1
336.604	45.06
336.817	104.45
337.029	88.06
337.242	65.53
337.454	53.25
337.667	38.91
337.88	239.61
338.092	83.97
338.305	124.93
338.517	-24.58
338.729	137.21
338.942	122.88
339.154	-22.53
339.367	10.24
339.579	61.44
339.792	4.1
340.004	110.59
340.217	43.01
340.429	210.94
340.641	51.2
340.854	-38.91
341.066	79.87
341.278	118.78
341.491	180.22
341.703	-14.34
341.915	30.72
342.128	77.82
342.34	98.3
342.552	-67.58
342.764	143.36
342.977	14.34
343.189	59.39
343.401	88.06
343.613	-100.35
343.826	28.67
344.038	-14.34
344.25	-0
344.462	-20.48
344.674	24.58
344.886	79.87
345.099	120.83
345.311	176.13
345.523	67.58
345.735	-49.15
345.947	51.2
346.159	157.69
346.371	49.15
346.583	43.01
346.795	143.36
347.007	20.48
347.219	153.6
347.431	88.06
347.643	217.08
347.855	-10.24
348.067	141.31
348.279	-30.72
348.491	45.06
348.703	71.68
348.915	65.53
349.127	32.77
349.339	24.58
349.551	-22.53
349.763	51.2
349.975	102.4
350.187	155.65
350.399	215.04
350.61	135.17
350.822	49.15
351.034	90.11
351.246	98.3
351.458	67.58
351.669	67.58
351.881	151.55
352.093	98.3
352.305	65.53
352.517	92.16
352.728	124.93
352.94	133.12
353.152	79.87
353.363	40.96
353.575	90.11
353.787	225.28
353.999	100.35
354.21	233.47
354.422	-18.43
354.633	73.73
354.845	55.3
355.057	61.44
355.268	20.48
355.48	167.93
355.692	10.24
355.903	100.35
356.115	24.58
356.326	-20.48
356.538	96.25
356.749	92.16
356.961	176.13
357.172	94.21
357.384	-10.24
357.595	217.08
357.807	-18.43
358.018	34.82
358.23	2.05
358.441	133.12
358.653	88.06
358.864	14.34
359.075	38.91
359.287	79.87
359.498	79.87
359.709	120.83
359.921	147.45
360.132	59.39
360.344	47.1
360.555	53.25
360.766	40.96
360.977	67.58
361.189	200.7
361.4	157.69
361.611	118.78
361.823	108.54
362.034	108.54
362.245	12.29
362.456	-12.29
362.667	182.27
362.879	10.24
363.09	106.49
363.301	88.06
363.512	131.07
363.723	28.67
363.935	47.1
364.146	163.84
364.357	57.34
364.568	8.19
364.779	-16.38
364.99	180.22
365.201	14.34
365.412	169.98
365.623	-55.3
365.834	51.2
366.045	57.34
366.256	139.26
366.467	63.49
366.678	49.15
366.889	71.68
367.1	6.14
367.311	110.59
367.522	14.34
367.733	86.01
367.944	116.73
368.155	30.72
368.366	141.31
368.577	163.84
368.788	98.3
368.999	16.38
369.209	83.97
369.42	282.62
369.631	280.57
369.842	90.11
370.053	20.48
370.264	198.65
370.474	-12.29
370.685	77.82
370.896	14.34
371.107	165.89
371.317	69.63
371.528	55.3
371.739	180.22
371.95	108.54
372.16	75.77
372.371	26.62
372.582	45.06
372.792	137.21
373.003	81.92
373.214	81.92
373.424	102.4
373.635	22.53
373.846	141.31
374.056	96.25
374.267	122.88
374.477	153.6
374.688	-10.24
374.898	86.01
375.109	65.53
375.319	47.1
375.53	161.79
375.74	79.87
375.951	61.44
376.161	151.55
376.372	94.21
376.582	59.39
376.793	51.2
377.003	-2.05
377.214	28.67
377.424	94.21
377.635	67.58
377.845	20.48
378.055	145.41
378.266	4.1
378.476	65.53
378.686	40.96
378.897	67.58
379.107	147.45
379.317	75.77
379.528	-0
379.738	143.36
379.948	34.82
380.158	94.21
380.369	69.63
380.579	10.24
380.789	53.25
380.999	147.45
381.21	92.16
381.42	262.14
381.63	36.86
381.84	184.32
382.05	159.74
382.261	120.83
382.471	184.32
382.681	26.62
382.891	192.51
383.101	65.53
383.311	49.15
383.521	55.3
383.731	135.17
383.941	10.24
384.151	77.82
384.361	104.45
384.571	12.29
384.781	104.45
384.991	237.56
385.201	180.22
385.411	120.83
385.621	65.53
385.831	79.87
386.041	53.25
386.251	4.1
386.461	163.84
386.671	-36.86
386.881	100.35
387.091	116.73
387.301	106.49
387.511	122.88
387.72	120.83
387.93	176.13
388.14	-20.48
388.35	79.87
388.56	159.74
388.769	163.84
388.979	55.3
389.189	-24.58
389.399	75.77
389.609	186.37
389.818	149.5
390.028	104.45
390.238	104.45
390.447	-34.82
390.657	124.93
390.867	55.3
391.076	-6.14
391.286	36.86
391.496	55.3
391.705	90.11
391.915	192.51
392.125	153.6
392.334	94.21
392.544	120.83
392.753	77.82
392.963	-30.72
393.172	47.1
393.382	26.62
393.591	198.65
393.801	-4.1
394.01	233.47
394.22	129.02
394.429	100.35
394.639	200.7
394.848	110.59
395.058	57.34
395.267	2.05
395.477	36.86
395.686	53.25
395.895	258.04
396.105	251.9
396.314	124.93
396.524	112.64
396.733	47.1
396.942	108.54
397.152	61.44
397.361	229.37
397.57	124.93
397.78	57.34
397.989	122.88
398.198	251.9
398.407	120.83
398.617	61.44
398.826	102.4
399.035	47.1
399.244	129.02
399.453	49.15
399.663	149.5
399.872	112.64
400.081	20.48
400.29	184.32
400.499	-4.1
400.708	163.84
400.917	69.63
401.127	-10.24
401.336	108.54
401.545	233.47
401.754	112.64
401.963	155.65
402.172	26.62
402.381	43.01
402.59	12.29
402.799	112.64
403.008	122.88
403.217	61.44
403.426	86.01
403.635	36.86
403.844	71.68
404.053	94.21
404.262	24.58
404.471	208.89
404.68	114.69
404.888	161.79
405.097	34.82
405.306	28.67
405.515	114.69
405.724	47.1
405.933	71.68
406.142	59.39
406.35	108.54
406.559	114.69
406.768	141.31
406.977	73.73
407.185	90.11
407.394	77.82
407.603	16.38
407.812	98.3
408.02	188.41
408.229	75.77
408.438	139.26
408.646	-6.14
408.855	53.25
409.064	180.22
409.272	118.78
409.481	102.4
409.69	16.38
409.898	32.77
410.107	124.93
410.315	149.5
410.524	63.49
410.733	88.06
410.941	147.45
411.15	98.3
411.358	165.89
411.567	108.54
411.775	139.26
411.984	126.97
412.192	12.29
412.401	-6.14
412.609	129.02
412.818	106.49
413.026	137.21
413.234	53.25
413.443	108.54
413.651	40.96
413.86	32.77
414.068	260.09
414.276	186.37
414.485	26.62
414.693	165.89
414.901	225.28
415.11	-38.91
415.318	86.01
415.526	92.16
415.734	153.6
415.943	110.59
416.151	131.07
416.359	133.12
416.567	184.32
416.776	143.36
416.984	182.27
417.192	208.89
417.4	129.02
417.608	79.87
417.817	118.78
418.025	174.08
418.233	231.42
418.441	-32.77
418.649	-24.58
418.857	92.16
419.065	143.36
419.273	8.19
419.481	108.54
419.689	122.88
419.897	63.49
420.105	-32.77
420.313	94.21
420.521	180.22
420.729	112.64
420.937	-4.1
421.145	28.67
421.353	126.97
421.561	210.94
421.769	92.16
421.977	-20.48
422.185	184.32
422.393	86.01
422.601	141.31
422.809	129.02
423.017	49.15
423.224	143.36
423.432	124.93
423.64	86.01
423.848	184.32
424.056	43.01
424.263	133.12
424.471	32.77
424.679	151.55
424.887	49.15
425.094	202.75
425.302	81.92
425.51	14.34
425.718	106.49
425.925	61.44
426.133	90.11
426.341	206.84
426.548	49.15
426.756	20.48
426.964	110.59
427.171	-38.91
427.379	129.02
427.586	141.31
427.794	165.89
428.001	167.93
428.209	155.65
428.417	196.6
428.624	186.37
428.832	194.56
429.039	116.73
429.247	137.21
429.454	120.83
429.662	225.28
429.869	118.78
430.076	143.36
430.284	192.51
430.491	235.52
430.699	178.17
430.906	303.1
431.114	182.27
431.321	172.03
431.528	100.35
431.736	258.04
431.943	120.83
432.15	231.42
432.358	184.32
432.565	239.61
432.772	63.49
432.979	235.52
433.187	159.74
433.394	243.71
433.601	176.13
433.808	282.62
434.016	288.76
434.223	227.32
434.43	256
434.637	235.52
434.844	309.24
435.052	262.14
435.259	217.08
435.466	342.01
435.673	278.52
435.88	374.78
436.087	305.15
436.294	397.31
436.501	290.81
436.708	309.24
436.915	370.68
437.122	423.93
437.329	299
437.537	376.83
437.743	344.06
437.95	440.31
438.157	362.49
438.364	430.07
438.571	339.96
438.778	421.88
438.985	456.7
439.192	544.76
439.399	454.65
439.606	575.48
439.813	632.82
440.02	624.63
440.227	729.08
440.433	624.63
440.64	516.09
440.847	583.67
441.054	610.29
441.261	727.03
441.467	727.03
441.674	573.43
441.881	811
442.088	659.45
442.294	808.95
442.501	921.59
442.708	886.77
442.914	794.61
443.121	921.59
443.328	856.05
443.534	1005.55
443.741	962.55
443.948	905.2
444.154	1177.58
444.361	1251.31
444.568	1062.9
444.774	1126.38
444.981	1023.98
445.187	1300.46
445.394	1300.46
445.6	1179.63
445.807	1482.73
446.013	1329.13
446.22	1339.37
446.426	1417.19
446.633	1611.75
446.839	1658.85
447.046	1474.54
447.252	1734.63
447.459	1765.35
447.665	1802.21
447.871	1863.65
448.078	2007.01
448.284	2015.2
448.491	2203.61
448.697	2336.73
448.903	2346.97
449.11	2392.03
449.316	2293.72
449.522	2574.3
449.728	2600.92
449.935	2658.26
450.141	2721.75
450.347	2775
450.553	2832.34
450.76	2891.73
450.966	3112.91
451.172	3135.44
451.378	3282.89
451.584	3512.27
451.791	3545.03
451.997	3768.26
452.203	3698.63
452.409	3993.54
452.615	4173.76
452.821	4028.35
453.027	4036.55
453.233	4495.29
453.44	4450.24
453.646	4839.35
453.852	5060.53
454.058	5066.67
454.264	5138.35
454.47	5570.47
454.676	5685.16
454.882	6111.14
455.088	5867.43
455.294	6213.54
455.5	6504.35
455.705	6924.18
455.911	6924.18
456.117	7225.23
456.323	7470.99
456.529	7296.91
456.735	8073.09
456.941	8294.27
457.147	8527.74
457.352	8687.48
457.558	9064.31
457.764	9660.27
457.97	9887.59
458.176	10295.14
458.381	10618.72
458.587	10841.95
458.793	11636.56
458.999	11382.61
459.204	12961.59
459.41	13467.44
459.616	13303.6
459.821	13932.33
460.027	14612.26
460.233	15281.94
460.438	15331.09
460.644	16142.09
460.85	16152.33
461.055	17057.53
461.261	18007.79
461.466	17540.85
461.672	17676.02
461.878	20000.46
462.083	19666.64
462.289	20543.17
462.494	20915.9
462.7	21075.65
462.905	21477.05
463.111	22941.35
463.316	24233.61
463.522	24608.39
463.727	25329.28
463.932	26674.79
464.138	27088.48
464.343	28153.43
464.549	28319.31
464.754	30408.24
464.959	31120.93
465.165	31594.01
465.37	31731.23
465.575	31419.94
465.781	33693.18
465.986	34498.03
466.191	33949.18
466.397	34416.11
466.602	33259.01
466.807	35243.49
467.012	35896.8
467.218	36259.29
467.423	36537.81
467.628	37770.69
