Data from USB4F104151__261__11-20-23-533.txt Node

Date: Wed Feb 26 11:20:23 EST 2025
User: louis
Spectrometer: USB4F10415
Trigger mode: 4
Integration Time (sec): 1.000000E-1
Scans to average: 1
Electric dark correction enabled: true
Nonlinearity correction enabled: false
Boxcar width: 0
XAxis mode: Wavelengths
Number of Pixels in Spectrum: 3648
>>>>>Begin Spectral Data<<<<<
178.204	-359.42
178.424	-359.42
178.644	-359.42
178.864	-394.23
179.084	-338.94
179.304	29.7
179.524	-72.7
179.744	-31.74
179.964	3.07
180.184	41.98
180.404	84.99
180.624	58.37
180.844	17.41
181.064	-60.42
181.283	1.02
181.503	-17.41
181.723	-54.27
181.943	-50.18
182.163	228.35
182.383	-13.31
182.602	84.99
182.822	168.96
183.042	52.22
183.262	50.18
183.482	1.02
183.701	82.94
183.921	23.55
184.141	-31.74
184.361	35.84
184.58	76.8
184.8	50.18
185.02	50.18
185.239	166.91
185.459	97.28
185.679	142.33
185.898	-60.42
186.118	37.89
186.338	46.08
186.557	97.28
186.777	-29.7
186.997	17.41
187.216	19.46
187.436	179.2
187.655	130.05
187.875	156.67
188.095	21.5
188.314	152.57
188.534	109.57
188.753	-3.07
188.973	95.23
189.192	148.48
189.412	7.17
189.631	21.5
189.851	132.09
190.07	150.53
190.29	21.5
190.509	25.6
190.729	72.7
190.948	148.48
191.168	287.74
191.387	130.05
191.607	-48.13
191.826	138.24
192.045	60.42
192.265	33.79
192.484	150.53
192.704	37.89
192.923	-54.27
193.142	138.24
193.362	50.18
193.581	267.26
193.8	117.76
194.02	60.42
194.239	27.65
194.458	107.52
194.678	54.27
194.897	-17.41
195.116	-1.02
195.335	37.89
195.555	119.81
195.774	17.41
195.993	177.15
196.212	78.85
196.432	-17.41
196.651	3.07
196.87	1.02
197.089	293.88
197.308	64.51
197.528	123.9
197.747	-33.79
197.966	7.17
198.185	160.77
198.404	-44.03
198.623	164.86
198.842	142.33
199.062	140.29
199.281	132.09
199.5	41.98
199.719	66.56
199.938	134.14
200.157	33.79
200.376	5.12
200.595	107.52
200.814	113.66
201.033	-46.08
201.252	140.29
201.471	58.37
201.69	27.65
201.909	103.42
202.128	154.62
202.347	11.26
202.566	27.65
202.785	-93.18
203.004	-46.08
203.223	306.17
203.442	15.36
203.661	-9.22
203.879	44.03
204.098	265.21
204.317	-39.94
204.536	39.94
204.755	74.75
204.974	117.76
205.193	44.03
205.411	173.05
205.63	72.7
205.849	95.23
206.068	105.47
206.287	-15.36
206.505	93.18
206.724	31.74
206.943	78.85
207.162	19.46
207.381	117.76
207.599	54.27
207.818	19.46
208.037	-27.65
208.255	64.51
208.474	82.94
208.693	52.22
208.911	25.6
209.13	197.63
209.349	74.75
209.567	95.23
209.786	175.1
210.005	101.37
210.223	87.04
210.442	-54.27
210.661	48.13
210.879	91.13
211.098	87.04
211.316	44.03
211.535	125.95
211.753	68.61
211.972	166.91
212.191	29.7
212.409	-37.89
212.628	154.62
212.846	-44.03
213.065	56.32
213.283	158.72
213.502	72.7
213.72	9.22
213.938	70.65
214.157	5.12
214.375	183.29
214.594	-13.31
214.812	158.72
215.031	64.51
215.249	62.46
215.467	25.6
215.686	78.85
215.904	107.52
216.122	54.27
216.341	117.76
216.559	31.74
216.778	119.81
216.996	121.85
217.214	99.33
217.432	37.89
217.651	-27.65
217.869	-25.6
218.087	33.79
218.306	25.6
218.524	76.8
218.742	93.18
218.96	84.99
219.179	5.12
219.397	52.22
219.615	199.68
219.833	58.37
220.051	1.02
220.27	150.53
220.488	121.85
220.706	117.76
220.924	-21.5
221.142	-1.02
221.36	144.38
221.578	89.09
221.796	64.51
222.015	87.04
222.233	107.52
222.451	150.53
222.669	-17.41
222.887	105.47
223.105	68.61
223.323	25.6
223.541	-50.18
223.759	60.42
223.977	33.79
224.195	203.77
224.413	72.7
224.631	84.99
224.849	136.19
225.067	138.24
225.285	91.13
225.503	11.26
225.721	-101.37
225.939	134.14
226.157	66.56
226.375	197.63
226.592	31.74
226.81	70.65
227.028	95.23
227.246	56.32
227.464	89.09
227.682	154.62
227.9	37.89
228.117	21.5
228.335	66.56
228.553	1.02
228.771	39.94
228.989	41.98
229.206	58.37
229.424	13.31
229.642	-13.31
229.86	29.7
230.077	142.33
230.295	35.84
230.513	111.61
230.731	21.5
230.948	246.78
231.166	146.43
231.384	60.42
231.601	21.5
231.819	271.36
232.037	-31.74
232.254	1.02
232.472	72.7
232.689	7.17
232.907	39.94
233.125	48.13
233.342	-56.32
233.56	-19.46
233.777	50.18
233.995	74.75
234.213	111.61
234.43	123.9
234.648	17.41
234.865	95.23
235.083	111.61
235.3	70.65
235.518	68.61
235.735	62.46
235.953	89.09
236.17	117.76
236.388	21.5
236.605	-21.5
236.822	140.29
237.04	175.1
237.257	103.42
237.475	-9.22
237.692	60.42
237.909	144.38
238.127	72.7
238.344	156.67
238.562	80.89
238.779	-64.51
238.996	-21.5
239.214	5.12
239.431	103.42
239.648	1.02
239.865	99.33
240.083	138.24
240.3	17.41
240.517	31.74
240.735	132.09
240.952	123.9
241.169	87.04
241.386	29.7
241.603	39.94
241.821	-35.84
242.038	39.94
242.255	132.09
242.472	-48.13
242.689	68.61
242.907	171.01
243.124	44.03
243.341	44.03
243.558	-17.41
243.775	17.41
243.992	-33.79
244.209	93.18
244.426	177.15
244.643	48.13
244.86	29.7
245.078	125.95
245.295	76.8
245.512	15.36
245.729	-29.7
245.946	-3.07
246.163	-9.22
246.38	50.18
246.597	72.7
246.814	121.85
247.031	72.7
247.248	142.33
247.464	87.04
247.681	64.51
247.898	107.52
248.115	23.55
248.332	31.74
248.549	93.18
248.766	205.82
248.983	103.42
249.2	111.61
249.417	72.7
249.633	-21.5
249.85	150.53
250.067	19.46
250.284	74.75
250.501	68.61
250.717	-5.12
250.934	-52.22
251.151	58.37
251.368	-41.98
251.585	46.08
251.801	117.76
252.018	7.17
252.235	80.89
252.451	-33.79
252.668	21.5
252.885	189.44
253.102	134.14
253.318	50.18
253.535	23.55
253.752	13.31
253.968	60.42
254.185	-97.28
254.401	23.55
254.618	87.04
254.835	-33.79
255.051	93.18
255.268	97.28
255.484	138.24
255.701	3.07
255.917	39.94
256.134	1.02
256.351	68.61
256.567	23.55
256.784	60.42
257	-64.51
257.217	142.33
257.433	93.18
257.65	54.27
257.866	150.53
258.082	-50.18
258.299	44.03
258.515	19.46
258.732	-41.98
258.948	-74.75
259.165	185.34
259.381	-15.36
259.597	93.18
259.814	9.22
260.03	31.74
260.246	52.22
260.463	207.87
260.679	74.75
260.895	97.28
261.112	134.14
261.328	-3.07
261.544	-1.02
261.761	123.9
261.977	-3.07
262.193	17.41
262.409	89.09
262.626	121.85
262.842	50.18
263.058	84.99
263.274	60.42
263.49	15.36
263.707	109.57
263.923	134.14
264.139	-101.37
264.355	25.6
264.571	162.81
264.787	1.02
265.004	125.95
265.22	113.66
265.436	35.84
265.652	19.46
265.868	103.42
266.084	-19.46
266.3	37.89
266.516	-31.74
266.732	44.03
266.948	97.28
267.164	60.42
267.38	101.37
267.596	89.09
267.812	201.72
268.028	60.42
268.244	-37.89
268.46	93.18
268.676	-35.84
268.892	39.94
269.108	5.12
269.324	1.02
269.54	-5.12
269.756	181.25
269.972	-17.41
270.188	66.56
270.403	-9.22
270.619	74.75
270.835	-50.18
271.051	82.94
271.267	-50.18
271.483	-21.5
271.698	134.14
271.914	101.37
272.13	50.18
272.346	82.94
272.562	142.33
272.777	162.81
272.993	44.03
273.209	-13.31
273.425	132.09
273.64	-35.84
273.856	76.8
274.072	-35.84
274.287	25.6
274.503	93.18
274.719	60.42
274.934	37.89
275.15	-31.74
275.366	97.28
275.581	-27.65
275.797	35.84
276.012	25.6
276.228	-7.17
276.444	89.09
276.659	119.81
276.875	19.46
277.09	-13.31
277.306	74.75
277.521	103.42
277.737	93.18
277.952	72.7
278.168	119.81
278.383	74.75
278.599	50.18
278.814	121.85
279.03	80.89
279.245	107.52
279.461	-13.31
279.676	66.56
279.892	7.17
280.107	-11.26
280.322	-39.94
280.538	117.76
280.753	-3.07
280.969	89.09
281.184	109.57
281.399	148.48
281.615	46.08
281.83	29.7
282.045	-48.13
282.26	-15.36
282.476	-21.5
282.691	93.18
282.906	91.13
283.122	162.81
283.337	82.94
283.552	50.18
283.767	-17.41
283.983	52.22
284.198	46.08
284.413	66.56
284.628	-39.94
284.843	50.18
285.058	109.57
285.274	44.03
285.489	27.65
285.704	105.47
285.919	9.22
286.134	39.94
286.349	99.33
286.564	66.56
286.779	123.9
286.995	78.85
287.21	-68.61
287.425	44.03
287.64	-11.26
287.855	64.51
288.07	-17.41
288.285	164.86
288.5	78.85
288.715	35.84
288.93	78.85
289.145	17.41
289.36	103.42
289.575	-33.79
289.79	154.62
290.004	31.74
290.219	179.2
290.434	50.18
290.649	11.26
290.864	29.7
291.079	-7.17
291.294	76.8
291.509	62.46
291.724	121.85
291.938	-13.31
292.153	82.94
292.368	5.12
292.583	48.13
292.798	164.86
293.012	62.46
293.227	27.65
293.442	31.74
293.657	123.9
293.871	107.52
294.086	130.05
294.301	224.25
294.516	111.61
294.73	23.55
294.945	21.5
295.16	62.46
295.374	99.33
295.589	142.33
295.804	68.61
296.018	-54.27
296.233	89.09
296.447	-13.31
296.662	39.94
296.877	80.89
297.091	158.72
297.306	-1.02
297.52	19.46
297.735	31.74
297.949	93.18
298.164	54.27
298.378	84.99
298.593	48.13
298.807	-21.5
299.022	166.91
299.236	144.38
299.451	1.02
299.665	5.12
299.88	109.57
300.094	128
300.309	87.04
300.523	44.03
300.737	-1.02
300.952	95.23
301.166	105.47
301.381	11.26
301.595	19.46
301.809	13.31
302.024	58.37
302.238	-48.13
302.452	121.85
302.667	50.18
302.881	183.29
303.095	89.09
303.309	68.61
303.524	-54.27
303.738	-58.37
303.952	-11.26
304.166	93.18
304.381	-144.38
304.595	101.37
304.809	-3.07
305.023	76.8
305.237	13.31
305.452	70.65
305.666	125.95
305.88	84.99
306.094	68.61
306.308	134.14
306.522	109.57
306.736	142.33
306.95	130.05
307.164	105.47
307.379	132.09
307.593	121.85
307.807	205.82
308.021	27.65
308.235	105.47
308.449	-29.7
308.663	46.08
308.877	220.16
309.091	50.18
309.305	179.2
309.519	-41.98
309.733	105.47
309.947	-70.65
310.161	82.94
310.374	58.37
310.588	158.72
310.802	-103.42
311.016	-5.12
311.23	74.75
311.444	-15.36
311.658	117.76
311.872	134.14
312.085	84.99
312.299	156.67
312.513	140.29
312.727	58.37
312.941	13.31
313.154	44.03
313.368	25.6
313.582	23.55
313.796	70.65
314.009	9.22
314.223	138.24
314.437	87.04
314.651	121.85
314.864	-29.7
315.078	48.13
315.292	-9.22
315.505	13.31
315.719	113.66
315.933	95.23
316.146	13.31
316.36	3.07
316.573	132.09
316.787	68.61
317.001	84.99
317.214	-27.65
317.428	93.18
317.641	-58.37
317.855	23.55
318.068	-31.74
318.282	39.94
318.495	177.15
318.709	37.89
318.922	134.14
319.136	113.66
319.349	97.28
319.563	97.28
319.776	101.37
319.99	-95.23
320.203	113.66
320.417	50.18
320.63	164.86
320.843	171.01
321.057	175.1
321.27	128
321.483	82.94
321.697	175.1
321.91	78.85
322.124	27.65
322.337	58.37
322.55	33.79
322.763	-15.36
322.977	-13.31
323.19	-41.98
323.403	35.84
323.617	46.08
323.83	113.66
324.043	95.23
324.256	78.85
324.469	-15.36
324.683	134.14
324.896	89.09
325.109	70.65
325.322	-3.07
325.535	140.29
325.748	68.61
325.962	54.27
326.175	84.99
326.388	80.89
326.601	162.81
326.814	56.32
327.027	66.56
327.24	91.13
327.453	-95.23
327.666	121.85
327.879	162.81
328.092	68.61
328.305	72.7
328.518	-50.18
328.731	-9.22
328.944	21.5
329.157	113.66
329.37	3.07
329.583	205.82
329.796	240.64
330.009	-11.26
330.222	58.37
330.435	222.2
330.648	48.13
330.861	72.7
331.073	84.99
331.286	156.67
331.499	76.8
331.712	23.55
331.925	74.75
332.138	9.22
332.35	195.58
332.563	25.6
332.776	44.03
332.989	-58.37
333.202	68.61
333.414	-19.46
333.627	93.18
333.84	68.61
334.053	50.18
334.265	11.26
334.478	41.98
334.691	56.32
334.903	99.33
335.116	-11.26
335.329	13.31
335.541	87.04
335.754	191.49
335.966	33.79
336.179	125.95
336.392	76.8
336.604	11.26
336.817	87.04
337.029	84.99
337.242	46.08
337.454	60.42
337.667	54.27
337.88	113.66
338.092	123.9
338.305	89.09
338.517	-7.17
338.729	72.7
338.942	150.53
339.154	27.65
339.367	15.36
339.579	117.76
339.792	-19.46
340.004	84.99
340.217	103.42
340.429	66.56
340.641	50.18
340.854	-41.98
341.066	54.27
341.278	150.53
341.491	224.25
341.703	58.37
341.915	37.89
342.128	119.81
342.34	119.81
342.552	-11.26
342.764	91.13
342.977	-11.26
343.189	54.27
343.401	99.33
343.613	-48.13
343.826	35.84
344.038	33.79
344.25	23.55
344.462	-33.79
344.674	111.61
344.886	54.27
345.099	121.85
345.311	99.33
345.523	17.41
345.735	-62.46
345.947	152.57
346.159	33.79
346.371	74.75
346.583	105.47
346.795	203.77
347.007	31.74
347.219	54.27
347.431	7.17
347.643	60.42
347.855	33.79
348.067	140.29
348.279	21.5
348.491	123.9
348.703	37.89
348.915	87.04
349.127	-62.46
349.339	17.41
349.551	-33.79
349.763	119.81
349.975	76.8
350.187	107.52
350.399	263.16
350.61	109.57
350.822	64.51
351.034	99.33
351.246	27.65
351.458	23.55
351.669	76.8
351.881	87.04
352.093	134.14
352.305	93.18
352.517	144.38
352.728	164.86
352.94	33.79
353.152	56.32
353.363	19.46
353.575	76.8
353.787	89.09
353.999	87.04
354.21	203.77
354.422	27.65
354.633	93.18
354.845	27.65
355.057	78.85
355.268	39.94
355.48	105.47
355.692	70.65
355.903	80.89
356.115	-3.07
356.326	-21.5
356.538	158.72
356.749	136.19
356.961	132.09
357.172	72.7
357.384	-21.5
357.595	222.2
357.807	13.31
358.018	-13.31
358.23	97.28
358.441	134.14
358.653	46.08
358.864	50.18
359.075	-3.07
359.287	66.56
359.498	140.29
359.709	93.18
359.921	93.18
360.132	31.74
360.344	5.12
360.555	-68.61
360.766	72.7
360.977	9.22
361.189	84.99
361.4	1.02
361.611	132.09
361.823	132.09
362.034	27.65
362.245	-21.5
362.456	87.04
362.667	123.9
362.879	1.02
363.09	150.53
363.301	62.46
363.512	7.17
363.723	-3.07
363.935	56.32
364.146	119.81
364.357	11.26
364.568	103.42
364.779	-33.79
364.99	123.9
365.201	13.31
365.412	156.67
365.623	17.41
365.834	142.33
366.045	93.18
366.256	87.04
366.467	70.65
366.678	56.32
366.889	64.51
367.1	19.46
367.311	162.81
367.522	5.12
367.733	111.61
367.944	84.99
368.155	74.75
368.366	144.38
368.577	144.38
368.788	193.53
368.999	-33.79
369.209	136.19
369.42	297.98
369.631	205.82
369.842	123.9
370.053	76.8
370.264	134.14
370.474	-13.31
370.685	84.99
370.896	33.79
371.107	74.75
371.317	119.81
371.528	60.42
371.739	181.25
371.95	158.72
372.16	70.65
372.371	-35.84
372.582	44.03
372.792	60.42
373.003	113.66
373.214	158.72
373.424	89.09
373.635	-17.41
373.846	177.15
374.056	39.94
374.267	148.48
374.477	113.66
374.688	-7.17
374.898	52.22
375.109	-48.13
375.319	74.75
375.53	158.72
375.74	103.42
375.951	15.36
376.161	93.18
376.372	107.52
376.582	-21.5
376.793	138.24
377.003	-21.5
377.214	-54.27
377.424	154.62
377.635	119.81
377.845	-21.5
378.055	48.13
378.266	-27.65
378.476	64.51
378.686	115.71
378.897	35.84
379.107	162.81
379.317	74.75
379.528	-9.22
379.738	138.24
379.948	-13.31
380.158	78.85
380.369	72.7
380.579	183.29
380.789	46.08
380.999	62.46
381.21	74.75
381.42	166.91
381.63	31.74
381.84	156.67
382.05	111.61
382.261	134.14
382.471	113.66
382.681	-23.55
382.891	109.57
383.101	113.66
383.311	-44.03
383.521	1.02
383.731	166.91
383.941	84.99
384.151	130.05
384.361	1.02
384.571	31.74
384.781	109.57
384.991	175.1
385.201	263.16
385.411	148.48
385.621	66.56
385.831	21.5
386.041	7.17
386.251	89.09
386.461	214.01
386.671	125.95
386.881	37.89
387.091	70.65
387.301	64.51
387.511	76.8
387.72	121.85
387.93	134.14
388.14	3.07
388.35	68.61
388.56	207.87
388.769	164.86
388.979	13.31
389.189	66.56
389.399	39.94
389.609	-21.5
389.818	111.61
390.028	109.57
390.238	156.67
390.447	7.17
390.657	87.04
390.867	97.28
391.076	-56.32
391.286	50.18
391.496	1.02
391.705	23.55
391.915	154.62
392.125	58.37
392.334	-23.55
392.544	142.33
392.753	80.89
392.963	37.89
393.172	29.7
393.382	74.75
393.591	142.33
393.801	-97.28
394.01	136.19
394.22	142.33
394.429	21.5
394.639	-1.02
394.848	136.19
395.058	78.85
395.267	64.51
395.477	142.33
395.686	117.76
395.895	234.49
396.105	162.81
396.314	130.05
396.524	113.66
396.733	125.95
396.942	128
397.152	113.66
397.361	117.76
397.57	113.66
397.78	97.28
397.989	58.37
398.198	250.88
398.407	111.61
398.617	3.07
398.826	89.09
399.035	-54.27
399.244	113.66
399.453	19.46
399.663	72.7
399.872	121.85
400.081	-41.98
400.29	168.96
400.499	89.09
400.708	93.18
400.917	68.61
401.127	101.37
401.336	60.42
401.545	244.73
401.754	80.89
401.963	146.43
402.172	78.85
402.381	-1.02
402.59	41.98
402.799	29.7
403.008	138.24
403.217	111.61
403.426	136.19
403.635	17.41
403.844	-3.07
404.053	60.42
404.262	46.08
404.471	162.81
404.68	48.13
404.888	93.18
405.097	52.22
405.306	101.37
405.515	54.27
405.724	125.95
405.933	121.85
406.142	1.02
406.35	87.04
406.559	58.37
406.768	41.98
406.977	117.76
407.185	111.61
407.394	105.47
407.603	27.65
407.812	52.22
408.02	138.24
408.229	164.86
408.438	93.18
408.646	1.02
408.855	84.99
409.064	76.8
409.272	17.41
409.481	125.95
409.69	17.41
409.898	7.17
410.107	46.08
410.315	64.51
410.524	-13.31
410.733	39.94
410.941	111.61
411.15	111.61
411.358	123.9
411.567	136.19
411.775	3.07
411.984	105.47
412.192	111.61
412.401	48.13
412.609	140.29
412.818	130.05
413.026	109.57
413.234	87.04
413.443	25.6
413.651	50.18
413.86	31.74
414.068	91.13
414.276	246.78
414.485	-21.5
414.693	211.96
414.901	211.96
415.11	13.31
415.318	146.43
415.526	-46.08
415.734	136.19
415.943	197.63
416.151	132.09
416.359	117.76
416.567	93.18
416.776	146.43
416.984	134.14
417.192	166.91
417.4	-11.26
417.608	99.33
417.817	-39.94
418.025	142.33
418.233	199.68
418.441	3.07
418.649	33.79
418.857	91.13
419.065	175.1
419.273	70.65
419.481	72.7
419.689	41.98
419.897	19.46
420.105	-54.27
420.313	179.2
420.521	187.39
420.729	158.72
420.937	78.85
421.145	44.03
421.353	103.42
421.561	177.15
421.769	33.79
421.977	74.75
422.185	128
422.393	3.07
422.601	142.33
422.809	68.61
423.017	72.7
423.224	70.65
423.432	168.96
423.64	93.18
423.848	183.29
424.056	-37.89
424.263	87.04
424.471	-23.55
424.679	199.68
424.887	17.41
425.094	115.71
425.302	203.77
425.51	89.09
425.718	138.24
425.925	89.09
426.133	91.13
426.341	236.54
426.548	113.66
426.756	-5.12
426.964	60.42
427.171	68.61
427.379	109.57
427.586	87.04
427.794	148.48
428.001	203.77
428.209	74.75
428.417	228.35
428.624	177.15
428.832	119.81
429.039	111.61
429.247	189.44
429.454	164.86
429.662	297.98
429.869	111.61
430.076	80.89
430.284	82.94
430.491	226.3
430.699	160.77
430.906	273.4
431.114	185.34
431.321	187.39
431.528	205.82
431.736	121.85
431.943	224.25
432.15	195.58
432.358	240.64
432.565	304.12
432.772	99.33
432.979	252.92
433.187	211.96
433.394	261.12
433.601	156.67
433.808	273.4
434.016	355.32
434.223	271.36
434.43	254.97
434.637	273.4
434.844	304.12
435.052	281.6
435.259	340.99
435.466	248.83
435.673	287.74
435.88	353.27
436.087	408.57
436.294	424.95
436.501	404.47
436.708	408.57
436.915	314.36
437.122	424.95
437.329	349.18
437.537	345.08
437.743	394.23
437.95	547.83
438.157	443.39
438.364	396.28
438.571	488.44
438.778	574.46
438.985	549.88
439.192	586.74
439.399	609.27
439.606	564.22
439.813	599.03
440.02	728.05
440.227	818.16
440.433	613.37
440.64	644.09
440.847	623.61
441.054	785.4
441.261	809.97
441.467	750.58
441.674	680.95
441.881	924.66
442.088	846.84
442.294	857.07
442.501	1014.77
442.708	971.76
442.914	992.24
443.121	992.24
443.328	967.67
443.534	1080.3
443.741	1074.16
443.948	975.86
444.154	1211.37
444.361	1334.25
444.568	1278.96
444.774	1178.61
444.981	1266.67
445.187	1471.47
445.394	1444.84
445.6	1364.97
445.807	1508.33
446.013	1567.72
446.22	1444.84
446.426	1696.74
446.633	1780.71
446.839	1885.16
447.046	1758.18
447.252	1946.59
447.459	1932.26
447.665	1997.79
447.871	2221.02
448.078	2178.01
448.284	2302.94
448.491	2294.75
448.697	2438.11
448.903	2589.66
449.11	2583.51
449.316	2481.11
449.522	2751.45
449.728	2939.86
449.935	3011.54
450.141	3054.55
450.347	3359.69
450.553	2984.91
450.76	3242.96
450.966	3458
451.172	3513.29
451.378	3771.33
451.584	3830.73
451.791	3963.84
451.997	4121.54
452.203	4291.52
452.409	4508.6
452.615	4666.3
452.821	4531.13
453.027	4516.8
453.233	5202.86
453.44	5077.94
453.646	5325.74
453.852	5481.39
454.058	5645.23
454.264	5921.7
454.47	6230.94
454.676	6265.76
454.882	6777.75
455.088	6460.32
455.294	7043.99
455.5	7369.62
455.705	7797.64
455.911	7834.5
456.117	7996.29
456.323	8235.91
456.529	8178.56
456.735	9016.18
456.941	9163.64
457.147	9534.32
457.352	9769.83
457.558	10156.9
457.764	10638.17
457.97	10992.47
458.176	11463.51
458.381	11895.63
458.587	12168.01
458.793	12831.55
458.999	12745.53
459.204	14480.16
459.41	14781.21
459.616	14676.77
459.821	15581.97
460.027	16386.82
460.233	16993.02
460.438	17130.23
460.644	18223.85
460.85	18150.12
461.055	19032.8
461.261	19608.28
461.466	19245.79
461.672	19827.41
461.878	21988.02
462.083	21678.77
462.289	22459.05
462.494	23302.81
462.7	23134.88
462.905	23472.79
463.111	25893.49
463.316	26720.87
463.522	27005.54
463.727	28287.57
463.932	29045.32
464.138	29899.32
464.343	31406.62
464.549	31420.96
464.754	33733.12
464.959	34685.42
465.165	35334.63
465.37	34947.56
465.575	35056.11
465.781	37767.62
465.986	38535.6
466.191	37974.46
466.397	38142.39
466.602	37265.86
466.807	39401.89
467.012	40315.29
467.218	40616.34
467.423	41097.61
467.628	41961.86
467.833	44153.18
