Data from USB4F104151__259__11-20-15-134.txt Node

Date: Wed Feb 26 11:20:15 EST 2025
User: louis
Spectrometer: USB4F10415
Trigger mode: 4
Integration Time (sec): 1.000000E-1
Scans to average: 1
Electric dark correction enabled: true
Nonlinearity correction enabled: false
Boxcar width: 0
XAxis mode: Wavelengths
Number of Pixels in Spectrum: 3648
>>>>>Begin Spectral Data<<<<<
178.204	-443.39
178.424	-443.39
178.644	-443.39
178.864	-375.8
179.084	-437.24
179.304	-19.46
179.524	21.5
179.744	1.02
179.964	46.08
180.184	95.23
180.404	-1.02
180.624	-37.89
180.844	-19.46
181.064	-125.95
181.283	58.37
181.503	-62.46
181.723	44.03
181.943	-103.42
182.163	197.63
182.383	-72.7
182.602	52.22
182.822	138.24
183.042	-64.51
183.262	-35.84
183.482	-1.02
183.701	3.07
183.921	117.76
184.141	-35.84
184.361	62.46
184.58	60.42
184.8	58.37
185.02	11.26
185.239	80.89
185.459	52.22
185.679	39.94
185.898	-72.7
186.118	39.94
186.338	21.5
186.557	119.81
186.777	-15.36
186.997	-3.07
187.216	-33.79
187.436	171.01
187.655	54.27
187.875	164.86
188.095	39.94
188.314	105.47
188.534	52.22
188.753	-95.23
188.973	197.63
189.192	144.38
189.412	27.65
189.631	15.36
189.851	166.91
190.07	95.23
190.29	-62.46
190.509	-64.51
190.729	15.36
190.948	195.58
191.168	244.73
191.387	3.07
191.607	-44.03
191.826	41.98
192.045	-7.17
192.265	-29.7
192.484	41.98
192.704	46.08
192.923	-97.28
193.142	199.68
193.362	95.23
193.581	119.81
193.8	-1.02
194.02	97.28
194.239	31.74
194.458	87.04
194.678	-7.17
194.897	-9.22
195.116	70.65
195.335	78.85
195.555	-9.22
195.774	-35.84
195.993	62.46
196.212	27.65
196.432	-21.5
196.651	-41.98
196.87	11.26
197.089	201.72
197.308	50.18
197.528	11.26
197.747	15.36
197.966	-19.46
198.185	146.43
198.404	-121.85
198.623	105.47
198.842	39.94
199.062	130.05
199.281	101.37
199.5	21.5
199.719	68.61
199.938	-25.6
200.157	105.47
200.376	119.81
200.595	105.47
200.814	70.65
201.033	1.02
201.252	107.52
201.471	5.12
201.69	3.07
201.909	23.55
202.128	78.85
202.347	101.37
202.566	-89.09
202.785	-66.56
203.004	15.36
203.223	189.44
203.442	39.94
203.661	-84.99
203.879	89.09
204.098	105.47
204.317	17.41
204.536	95.23
204.755	13.31
204.974	72.7
205.193	-33.79
205.411	78.85
205.63	109.57
205.849	54.27
206.068	17.41
206.287	-7.17
206.505	101.37
206.724	60.42
206.943	-23.55
207.162	-29.7
207.381	97.28
207.599	11.26
207.818	33.79
208.037	-52.22
208.255	-56.32
208.474	29.7
208.693	78.85
208.911	-11.26
209.13	152.57
209.349	19.46
209.567	44.03
209.786	84.99
210.005	117.76
210.223	13.31
210.442	-140.29
210.661	-1.02
210.879	-7.17
211.098	7.17
211.316	89.09
211.535	80.89
211.753	-39.94
211.972	23.55
212.191	-58.37
212.409	58.37
212.628	121.85
212.846	44.03
213.065	64.51
213.283	95.23
213.502	62.46
213.72	19.46
213.938	-3.07
214.157	-64.51
214.375	80.89
214.594	72.7
214.812	109.57
215.031	68.61
215.249	93.18
215.467	-17.41
215.686	-9.22
215.904	113.66
216.122	-9.22
216.341	189.44
216.559	-7.17
216.778	72.7
216.996	136.19
217.214	44.03
217.432	27.65
217.651	-99.33
217.869	-62.46
218.087	35.84
218.306	-39.94
218.524	23.55
218.742	-41.98
218.96	74.75
219.179	25.6
219.397	27.65
219.615	244.73
219.833	99.33
220.051	-27.65
220.27	97.28
220.488	107.52
220.706	107.52
220.924	58.37
221.142	-60.42
221.36	76.8
221.578	46.08
221.796	93.18
222.015	-9.22
222.233	48.13
222.451	123.9
222.669	-29.7
222.887	31.74
223.105	-7.17
223.323	11.26
223.541	-5.12
223.759	-3.07
223.977	25.6
224.195	140.29
224.413	91.13
224.631	62.46
224.849	-23.55
225.067	259.07
225.285	-13.31
225.503	-39.94
225.721	-115.71
225.939	-3.07
226.157	93.18
226.375	150.53
226.592	37.89
226.81	54.27
227.028	87.04
227.246	123.9
227.464	56.32
227.682	76.8
227.9	99.33
228.117	46.08
228.335	21.5
228.553	41.98
228.771	33.79
228.989	29.7
229.206	52.22
229.424	-60.42
229.642	7.17
229.86	-39.94
230.077	136.19
230.295	64.51
230.513	84.99
230.731	25.6
230.948	189.44
231.166	113.66
231.384	48.13
231.601	17.41
231.819	140.29
232.037	15.36
232.254	-58.37
232.472	11.26
232.689	50.18
232.907	76.8
233.125	50.18
233.342	-19.46
233.56	27.65
233.777	-3.07
233.995	93.18
234.213	56.32
234.43	52.22
234.648	13.31
234.865	-1.02
235.083	56.32
235.3	1.02
235.518	68.61
235.735	39.94
235.953	-13.31
236.17	39.94
236.388	21.5
236.605	48.13
236.822	80.89
237.04	60.42
237.257	35.84
237.475	-125.95
237.692	-9.22
237.909	5.12
238.127	89.09
238.344	66.56
238.562	31.74
238.779	-52.22
238.996	-37.89
239.214	70.65
239.431	37.89
239.648	-93.18
239.865	103.42
240.083	56.32
240.3	11.26
240.517	9.22
240.735	-11.26
240.952	80.89
241.169	95.23
241.386	111.61
241.603	-15.36
241.821	-66.56
242.038	-21.5
242.255	66.56
242.472	-60.42
242.689	97.28
242.907	19.46
243.124	-29.7
243.341	56.32
243.558	-7.17
243.775	-37.89
243.992	11.26
244.209	19.46
244.426	128
244.643	44.03
244.86	29.7
245.078	105.47
245.295	15.36
245.512	58.37
245.729	-1.02
245.946	50.18
246.163	19.46
246.38	39.94
246.597	187.39
246.814	62.46
247.031	37.89
247.248	-29.7
247.464	19.46
247.681	41.98
247.898	62.46
248.115	82.94
248.332	-52.22
248.549	121.85
248.766	87.04
248.983	58.37
249.2	15.36
249.417	125.95
249.633	62.46
249.85	7.17
250.067	31.74
250.284	62.46
250.501	21.5
250.717	-19.46
250.934	-7.17
251.151	-35.84
251.368	54.27
251.585	62.46
251.801	89.09
252.018	-35.84
252.235	130.05
252.451	-1.02
252.668	29.7
252.885	138.24
253.102	105.47
253.318	-66.56
253.535	-39.94
253.752	9.22
253.968	15.36
254.185	-76.8
254.401	35.84
254.618	-19.46
254.835	-74.75
255.051	130.05
255.268	37.89
255.484	99.33
255.701	56.32
255.917	97.28
256.134	-128
256.351	39.94
256.567	-87.04
256.784	-27.65
257	-84.99
257.217	82.94
257.433	101.37
257.65	27.65
257.866	119.81
258.082	-84.99
258.299	-19.46
258.515	29.7
258.732	25.6
258.948	-82.94
259.165	41.98
259.381	-33.79
259.597	101.37
259.814	48.13
260.03	-64.51
260.246	-9.22
260.463	162.81
260.679	162.81
260.895	-15.36
261.112	29.7
261.328	107.52
261.544	-66.56
261.761	136.19
261.977	13.31
262.193	13.31
262.409	78.85
262.626	9.22
262.842	7.17
263.058	-23.55
263.274	136.19
263.49	-15.36
263.707	78.85
263.923	78.85
264.139	-52.22
264.355	7.17
264.571	105.47
264.787	60.42
265.004	109.57
265.22	-15.36
265.436	41.98
265.652	39.94
265.868	29.7
266.084	-62.46
266.3	128
266.516	-76.8
266.732	5.12
266.948	44.03
267.164	31.74
267.38	115.71
267.596	-35.84
267.812	166.91
268.028	50.18
268.244	23.55
268.46	50.18
268.676	3.07
268.892	-84.99
269.108	-44.03
269.324	111.61
269.54	-25.6
269.756	33.79
269.972	-7.17
270.188	-25.6
270.403	-62.46
270.619	-41.98
270.835	95.23
271.051	66.56
271.267	25.6
271.483	39.94
271.698	37.89
271.914	95.23
272.13	21.5
272.346	-29.7
272.562	33.79
272.777	132.09
272.993	93.18
273.209	-9.22
273.425	105.47
273.64	-5.12
273.856	72.7
274.072	-3.07
274.287	62.46
274.503	9.22
274.719	58.37
274.934	19.46
275.15	-9.22
275.366	-50.18
275.581	27.65
275.797	-13.31
276.012	44.03
276.228	3.07
276.444	7.17
276.659	91.13
276.875	-115.71
277.09	-29.7
277.306	-78.85
277.521	58.37
277.737	-46.08
277.952	109.57
278.168	-29.7
278.383	17.41
278.599	70.65
278.814	87.04
279.03	3.07
279.245	95.23
279.461	41.98
279.676	54.27
279.892	-82.94
280.107	-9.22
280.322	-72.7
280.538	39.94
280.753	-72.7
280.969	31.74
281.184	-48.13
281.399	154.62
281.615	9.22
281.83	3.07
282.045	-56.32
282.26	-25.6
282.476	13.31
282.691	76.8
282.906	46.08
283.122	25.6
283.337	-46.08
283.552	-48.13
283.767	21.5
283.983	58.37
284.198	37.89
284.413	52.22
284.628	-64.51
284.843	68.61
285.058	56.32
285.274	-11.26
285.489	11.26
285.704	66.56
285.919	-17.41
286.134	5.12
286.349	-3.07
286.564	-21.5
286.779	201.72
286.995	17.41
287.21	-70.65
287.425	76.8
287.64	52.22
287.855	78.85
288.07	-52.22
288.285	97.28
288.5	84.99
288.715	89.09
288.93	-21.5
289.145	11.26
289.36	91.13
289.575	39.94
289.79	105.47
290.004	-58.37
290.219	64.51
290.434	-80.89
290.649	-1.02
290.864	60.42
291.079	5.12
291.294	72.7
291.509	58.37
291.724	-21.5
291.938	-35.84
292.153	68.61
292.368	-58.37
292.583	136.19
292.798	123.9
293.012	119.81
293.227	62.46
293.442	-19.46
293.657	107.52
293.871	95.23
294.086	95.23
294.301	95.23
294.516	128
294.73	70.65
294.945	31.74
295.16	46.08
295.374	171.01
295.589	99.33
295.804	35.84
296.018	46.08
296.233	109.57
296.447	72.7
296.662	-35.84
296.877	97.28
297.091	107.52
297.306	-3.07
297.52	50.18
297.735	109.57
297.949	17.41
298.164	41.98
298.378	72.7
298.593	-56.32
298.807	-19.46
299.022	-52.22
299.236	91.13
299.451	-62.46
299.665	11.26
299.88	-48.13
300.094	101.37
300.309	-50.18
300.523	11.26
300.737	35.84
300.952	76.8
301.166	39.94
301.381	-15.36
301.595	-15.36
301.809	25.6
302.024	-29.7
302.238	-25.6
302.452	142.33
302.667	3.07
302.881	164.86
303.095	1.02
303.309	72.7
303.524	-48.13
303.738	-25.6
303.952	-21.5
304.166	48.13
304.381	-58.37
304.595	205.82
304.809	-5.12
305.023	-17.41
305.237	74.75
305.452	3.07
305.666	31.74
305.88	60.42
306.094	117.76
306.308	91.13
306.522	11.26
306.736	140.29
306.95	78.85
307.164	-21.5
307.379	31.74
307.593	105.47
307.807	48.13
308.021	140.29
308.235	35.84
308.449	-35.84
308.663	78.85
308.877	183.29
309.091	60.42
309.305	13.31
309.519	-111.61
309.733	97.28
309.947	-68.61
310.161	87.04
310.374	195.58
310.588	142.33
310.802	-25.6
311.016	-50.18
311.23	-21.5
311.444	-15.36
311.658	15.36
311.872	66.56
312.085	146.43
312.299	95.23
312.513	87.04
312.727	64.51
312.941	-1.02
313.154	87.04
313.368	5.12
313.582	-46.08
313.796	31.74
314.009	54.27
314.223	148.48
314.437	-17.41
314.651	44.03
314.864	-11.26
315.078	-80.89
315.292	-17.41
315.505	25.6
315.719	25.6
315.933	60.42
316.146	11.26
316.36	-33.79
316.573	148.48
316.787	5.12
317.001	41.98
317.214	-82.94
317.428	37.89
317.641	-62.46
317.855	-19.46
318.068	80.89
318.282	50.18
318.495	201.72
318.709	29.7
318.922	5.12
319.136	37.89
319.349	115.71
319.563	-11.26
319.776	7.17
319.99	-58.37
320.203	76.8
320.417	11.26
320.63	78.85
320.843	183.29
321.057	56.32
321.27	68.61
321.483	29.7
321.697	134.14
321.91	60.42
322.124	101.37
322.337	37.89
322.55	-27.65
322.763	44.03
322.977	17.41
323.19	5.12
323.403	138.24
323.617	68.61
323.83	103.42
324.043	70.65
324.256	39.94
324.469	-46.08
324.683	101.37
324.896	-37.89
325.109	-5.12
325.322	11.26
325.535	113.66
325.748	95.23
325.962	25.6
326.175	54.27
326.388	119.81
326.601	37.89
326.814	29.7
327.027	15.36
327.24	109.57
327.453	-84.99
327.666	48.13
327.879	82.94
328.092	105.47
328.305	72.7
328.518	-3.07
328.731	-7.17
328.944	93.18
329.157	9.22
329.37	11.26
329.583	175.1
329.796	113.66
330.009	-33.79
330.222	11.26
330.435	115.71
330.648	-3.07
330.861	3.07
331.073	62.46
331.286	72.7
331.499	50.18
331.712	-115.71
331.925	37.89
332.138	-9.22
332.35	140.29
332.563	44.03
332.776	97.28
332.989	-17.41
333.202	31.74
333.414	-1.02
333.627	21.5
333.84	11.26
334.053	134.14
334.265	-31.74
334.478	-39.94
334.691	5.12
334.903	-15.36
335.116	-29.7
335.329	25.6
335.541	-7.17
335.754	168.96
335.966	23.55
336.179	27.65
336.392	7.17
336.604	-29.7
336.817	5.12
337.029	97.28
337.242	78.85
337.454	39.94
337.667	1.02
337.88	125.95
338.092	56.32
338.305	87.04
338.517	-60.42
338.729	103.42
338.942	160.77
339.154	1.02
339.367	9.22
339.579	60.42
339.792	27.65
340.004	128
340.217	17.41
340.429	46.08
340.641	-17.41
340.854	-1.02
341.066	-78.85
341.278	117.76
341.491	121.85
341.703	101.37
341.915	-91.13
342.128	93.18
342.34	5.12
342.552	-54.27
342.764	78.85
342.977	54.27
343.189	76.8
343.401	44.03
343.613	-91.13
343.826	52.22
344.038	56.32
344.25	93.18
344.462	7.17
344.674	25.6
344.886	15.36
345.099	113.66
345.311	93.18
345.523	-35.84
345.735	-37.89
345.947	1.02
346.159	-7.17
346.371	37.89
346.583	27.65
346.795	175.1
347.007	15.36
347.219	97.28
347.431	9.22
347.643	128
347.855	66.56
348.067	185.34
348.279	-31.74
348.491	39.94
348.703	27.65
348.915	21.5
349.127	-62.46
349.339	7.17
349.551	39.94
349.763	80.89
349.975	21.5
350.187	119.81
350.399	140.29
350.61	105.47
350.822	25.6
351.034	27.65
351.246	46.08
351.458	87.04
351.669	60.42
351.881	132.09
352.093	74.75
352.305	-19.46
352.517	84.99
352.728	60.42
352.94	-21.5
353.152	121.85
353.363	23.55
353.575	72.7
353.787	173.05
353.999	35.84
354.21	168.96
354.422	-50.18
354.633	-39.94
354.845	-25.6
355.057	111.61
355.268	-25.6
355.48	48.13
355.692	-46.08
355.903	7.17
356.115	5.12
356.326	-89.09
356.538	99.33
356.749	27.65
356.961	171.01
357.172	39.94
357.384	82.94
357.595	175.1
357.807	37.89
358.018	5.12
358.23	95.23
358.441	152.57
358.653	11.26
358.864	54.27
359.075	-7.17
359.287	105.47
359.498	52.22
359.709	80.89
359.921	66.56
360.132	56.32
360.344	41.98
360.555	52.22
360.766	33.79
360.977	-27.65
361.189	115.71
361.4	41.98
361.611	93.18
361.823	130.05
362.034	46.08
362.245	-39.94
362.456	48.13
362.667	62.46
362.879	37.89
363.09	39.94
363.301	44.03
363.512	-3.07
363.723	-72.7
363.935	44.03
364.146	-11.26
364.357	-113.66
364.568	130.05
364.779	-56.32
364.99	80.89
365.201	-58.37
365.412	76.8
365.623	-87.04
365.834	15.36
366.045	25.6
366.256	76.8
366.467	105.47
366.678	-13.31
366.889	7.17
367.1	-19.46
367.311	142.33
367.522	13.31
367.733	52.22
367.944	134.14
368.155	62.46
368.366	95.23
368.577	70.65
368.788	121.85
368.999	-39.94
369.209	134.14
369.42	158.72
369.631	261.12
369.842	111.61
370.053	-19.46
370.264	162.81
370.474	29.7
370.685	35.84
370.896	-29.7
371.107	70.65
371.317	99.33
371.528	82.94
371.739	113.66
371.95	27.65
372.16	91.13
372.371	-48.13
372.582	-50.18
372.792	70.65
373.003	64.51
373.214	56.32
373.424	95.23
373.635	-44.03
373.846	101.37
374.056	-7.17
374.267	-27.65
374.477	119.81
374.688	35.84
374.898	27.65
375.109	31.74
375.319	115.71
375.53	125.95
375.74	7.17
375.951	-9.22
376.161	54.27
376.372	125.95
376.582	-5.12
376.793	-15.36
377.003	-58.37
377.214	-5.12
377.424	27.65
377.635	35.84
377.845	1.02
378.055	148.48
378.266	7.17
378.476	46.08
378.686	117.76
378.897	52.22
379.107	-3.07
379.317	3.07
379.528	48.13
379.738	185.34
379.948	-9.22
380.158	80.89
380.369	29.7
380.579	62.46
380.789	56.32
380.999	91.13
381.21	107.52
381.42	162.81
381.63	9.22
381.84	19.46
382.05	9.22
382.261	134.14
382.471	162.81
382.681	-54.27
382.891	150.53
383.101	1.02
383.311	21.5
383.521	25.6
383.731	125.95
383.941	130.05
384.151	46.08
384.361	46.08
384.571	107.52
384.781	-3.07
384.991	160.77
385.201	109.57
385.411	111.61
385.621	54.27
385.831	-15.36
386.041	39.94
386.251	33.79
386.461	125.95
386.671	62.46
386.881	74.75
387.091	31.74
387.301	101.37
387.511	95.23
387.72	48.13
387.93	89.09
388.14	9.22
388.35	13.31
388.56	101.37
388.769	91.13
388.979	-29.7
389.189	-35.84
389.399	148.48
389.609	146.43
389.818	84.99
390.028	52.22
390.238	11.26
390.447	3.07
390.657	41.98
390.867	-13.31
391.076	-54.27
391.286	64.51
391.496	113.66
391.705	101.37
391.915	105.47
392.125	136.19
392.334	5.12
392.544	128
392.753	11.26
392.963	-50.18
393.172	125.95
393.382	-13.31
393.591	250.88
393.801	11.26
394.01	148.48
394.22	113.66
394.429	-25.6
394.639	56.32
394.848	52.22
395.058	93.18
395.267	48.13
395.477	158.72
395.686	97.28
395.895	160.77
396.105	205.82
396.314	13.31
396.524	64.51
396.733	-7.17
396.942	97.28
397.152	-11.26
397.361	109.57
397.57	50.18
397.78	60.42
397.989	76.8
398.198	218.11
398.407	13.31
398.617	37.89
398.826	64.51
399.035	-25.6
399.244	132.09
399.453	7.17
399.663	-25.6
399.872	52.22
400.081	-54.27
400.29	117.76
400.499	13.31
400.708	54.27
400.917	5.12
401.127	3.07
401.336	-17.41
401.545	164.86
401.754	115.71
401.963	121.85
402.172	58.37
402.381	52.22
402.59	84.99
402.799	17.41
403.008	76.8
403.217	50.18
403.426	109.57
403.635	-162.81
403.844	29.7
404.053	44.03
404.262	39.94
404.471	80.89
404.68	62.46
404.888	-17.41
405.097	17.41
405.306	95.23
405.515	66.56
405.724	9.22
405.933	134.14
406.142	175.1
406.35	156.67
406.559	46.08
406.768	119.81
406.977	37.89
407.185	87.04
407.394	62.46
407.603	-1.02
407.812	105.47
408.02	103.42
408.229	91.13
408.438	125.95
408.646	-103.42
408.855	1.02
409.064	142.33
409.272	-37.89
409.481	58.37
409.69	39.94
409.898	-27.65
410.107	91.13
410.315	119.81
410.524	-33.79
410.733	89.09
410.941	17.41
411.15	93.18
411.358	113.66
411.567	162.81
411.775	82.94
411.984	70.65
412.192	132.09
412.401	9.22
412.609	179.2
412.818	130.05
413.026	166.91
413.234	-1.02
413.443	-21.5
413.651	-72.7
413.86	58.37
414.068	111.61
414.276	136.19
414.485	-46.08
414.693	146.43
414.901	191.49
415.11	82.94
415.318	60.42
415.526	33.79
415.734	35.84
415.943	31.74
416.151	179.2
416.359	117.76
416.567	62.46
416.776	134.14
416.984	87.04
417.192	142.33
417.4	-39.94
417.608	-17.41
417.817	-23.55
418.025	76.8
418.233	228.35
418.441	13.31
418.649	17.41
418.857	46.08
419.065	66.56
419.273	-23.55
419.481	44.03
419.689	44.03
419.897	-1.02
420.105	-13.31
420.313	87.04
420.521	119.81
420.729	134.14
420.937	-5.12
421.145	-62.46
421.353	95.23
421.561	168.96
421.769	41.98
421.977	9.22
422.185	95.23
422.393	72.7
422.601	121.85
422.809	115.71
423.017	109.57
423.224	91.13
423.432	197.63
423.64	33.79
423.848	64.51
424.056	37.89
424.263	142.33
424.471	13.31
424.679	154.62
424.887	-25.6
425.094	123.9
425.302	173.05
425.51	54.27
425.718	64.51
425.925	91.13
426.133	60.42
426.341	211.96
426.548	87.04
426.756	29.7
426.964	117.76
427.171	23.55
427.379	82.94
427.586	13.31
427.794	144.38
428.001	193.53
428.209	128
428.417	171.01
428.624	97.28
428.832	84.99
429.039	99.33
429.247	142.33
429.454	199.68
429.662	218.11
429.869	128
430.076	117.76
430.284	181.25
430.491	187.39
430.699	183.29
430.906	205.82
431.114	140.29
431.321	123.9
431.528	152.57
431.736	134.14
431.943	144.38
432.15	179.2
432.358	214.01
432.565	285.69
432.772	39.94
432.979	224.25
433.187	140.29
433.394	228.35
433.601	156.67
433.808	248.83
434.016	283.64
434.223	236.54
434.43	232.44
434.637	271.36
434.844	205.82
435.052	287.74
435.259	308.22
435.466	304.12
435.673	222.2
435.88	238.59
436.087	273.4
436.294	293.88
436.501	373.75
436.708	261.12
436.915	357.37
437.122	410.62
437.329	322.56
437.537	310.27
437.743	420.86
437.95	457.72
438.157	412.67
438.364	388.09
438.571	449.53
438.778	441.34
438.985	496.63
439.192	576.5
439.399	506.87
439.606	519.16
439.813	619.51
440.02	668.66
440.227	678.9
440.433	619.51
440.64	687.09
440.847	545.78
441.054	697.33
441.261	834.55
441.467	621.56
441.674	525.3
441.881	775.16
442.088	764.92
442.294	799.73
442.501	855.03
442.708	855.03
442.914	887.79
443.121	889.84
443.328	883.7
443.534	1068.02
443.741	1018.86
443.948	918.51
444.154	1127.41
444.361	1336.3
444.568	1129.45
444.774	1158.13
444.981	1106.93
445.187	1338.35
445.394	1373.16
445.6	1244.14
445.807	1655.78
446.013	1471.47
446.22	1324.01
446.426	1571.82
446.633	1754.09
446.839	1883.11
447.046	1653.73
447.252	1913.83
447.459	1741.8
447.665	1891.3
447.871	1979.36
448.078	2200.54
448.284	2194.4
448.491	2327.52
448.697	2221.02
448.903	2554.84
449.11	2485.21
449.316	2499.55
449.522	2737.11
449.728	2896.85
449.935	2880.47
450.141	2896.85
450.347	3132.37
450.553	3169.23
450.76	3101.65
450.966	3376.08
451.172	3337.17
451.378	3513.29
451.584	3683.27
451.791	4010.95
451.997	3886.02
452.203	4131.78
452.409	4361.15
452.615	4518.84
452.821	4352.96
453.027	4463.55
453.233	5004.21
453.44	4854.71
453.646	5104.56
453.852	5264.3
454.058	5555.12
454.264	5602.22
454.47	6175.65
454.676	6214.56
454.882	6644.63
455.088	6157.22
455.294	6656.92
455.5	7136.15
455.705	7570.32
455.911	7707.53
456.117	7773.07
456.323	8248.19
456.529	8153.99
456.735	8952.7
456.941	9184.12
457.147	9335.67
457.352	9732.97
457.558	9900.9
457.764	10449.76
457.97	10869.59
458.176	11191.13
458.381	11846.48
458.587	11957.07
458.793	12585.79
458.999	12540.74
459.204	14086.95
459.41	14740.26
459.616	14471.97
459.821	15373.08
460.027	15809.29
460.233	16603.91
460.438	16872.19
460.644	17818.35
460.85	17664.75
461.055	18420.45
461.261	19450.58
461.466	18993.89
461.672	19213.02
461.878	21789.36
462.083	21375.67
462.289	22047.41
462.494	22878.88
462.7	23122.59
462.905	23161.5
463.111	24937.09
463.316	26143.35
463.522	26858.09
463.727	27595.35
463.932	28676.68
464.138	29606.46
464.343	30622.25
464.549	30886.44
464.754	33098.25
464.959	34111.99
465.165	35006.95
465.37	34472.43
465.575	34550.26
465.781	36907.47
465.986	38080.95
466.191	37441.99
466.397	37771.71
466.602	36942.28
466.807	38511.03
467.012	39567.78
467.218	40432.02
467.423	40294.81
467.628	41652.61
467.833	43348.33
468.038	42779
468.244	42031.49
468.449	44562.78
468.654	43444.59
468.859	43411.82
