Data from USB4F104151__33__10-42-30-382.txt Node

Date: Wed Feb 26 10:42:30 EST 2025
User: louis
Spectrometer: USB4F10415
Trigger mode: 4
Integration Time (sec): 1.000000E-1
Scans to average: 1
Electric dark correction enabled: true
Nonlinearity correction enabled: false
Boxcar width: 0
XAxis mode: Wavelengths
Number of Pixels in Spectrum: 3648
>>>>>Begin Spectral Data<<<<<
178.204	-356.69
178.424	-356.69
178.644	-356.69
178.864	-391.5
179.084	-465.23
179.304	3.75
179.524	-22.87
179.744	75.43
179.964	-20.82
180.184	-24.92
180.404	24.23
180.624	-41.3
180.844	-76.12
181.064	42.67
181.283	69.29
181.503	-33.11
181.723	3.75
181.943	-51.54
182.163	108.2
182.383	7.85
182.602	93.87
182.822	186.02
183.042	52.91
183.262	-51.54
183.482	11.95
183.701	38.57
183.921	9.9
184.141	69.29
184.361	77.48
184.58	65.19
184.8	116.39
185.02	-16.73
185.239	130.73
185.459	30.38
185.679	157.35
185.898	-63.83
186.118	104.11
186.338	104.11
186.557	81.58
186.777	-4.44
186.997	32.43
187.216	11.95
187.436	265.89
187.655	102.06
187.875	42.67
188.095	-26.96
188.314	77.48
188.534	157.35
188.753	-14.68
188.973	173.74
189.192	171.69
189.412	26.28
189.631	-35.16
189.851	57
190.07	173.74
190.29	-12.63
190.509	11.95
190.729	38.57
190.948	183.98
191.168	214.7
191.387	95.91
191.607	75.43
191.826	128.68
192.045	30.38
192.265	-6.49
192.484	34.47
192.704	38.57
192.923	-51.54
193.142	265.89
193.362	153.26
193.581	104.11
193.8	116.39
194.02	161.45
194.239	85.67
194.458	79.53
194.678	112.3
194.897	5.8
195.116	67.24
195.335	32.43
195.555	134.82
195.774	-20.82
195.993	134.82
196.212	73.39
196.432	1.71
196.651	-59.73
196.87	5.8
197.089	231.08
197.308	16.04
197.528	69.29
197.747	16.04
197.966	-31.06
198.185	132.78
198.404	7.85
198.623	65.19
198.842	22.19
199.062	110.25
199.281	112.3
199.5	102.06
199.719	32.43
199.938	26.28
200.157	69.29
200.376	118.44
200.595	157.35
200.814	83.63
201.033	-8.53
201.252	190.12
201.471	106.15
201.69	42.67
201.909	9.9
202.128	59.05
202.347	32.43
202.566	-12.63
202.785	-74.07
203.004	22.19
203.223	181.93
203.442	3.75
203.661	-63.83
203.879	130.73
204.098	93.87
204.317	-78.16
204.536	48.81
204.755	108.2
204.974	32.43
205.193	28.33
205.411	83.63
205.63	122.54
205.849	120.49
206.068	54.95
206.287	-22.87
206.505	81.58
206.724	13.99
206.943	-24.92
207.162	18.09
207.381	87.72
207.599	71.34
207.818	59.05
208.037	-53.59
208.255	97.96
208.474	69.29
208.693	77.48
208.911	67.24
209.13	100.01
209.349	71.34
209.567	71.34
209.786	16.04
210.005	91.82
210.223	102.06
210.442	-119.12
210.661	34.47
210.879	116.39
211.098	3.75
211.316	67.24
211.535	112.3
211.753	87.72
211.972	46.76
212.191	-0.34
212.409	9.9
212.628	102.06
212.846	-0.34
213.065	5.8
213.283	163.5
213.502	73.39
213.72	145.06
213.938	57
214.157	-0.34
214.375	147.11
214.594	-16.73
214.812	77.48
215.031	5.8
215.249	102.06
215.467	77.48
215.686	13.99
215.904	65.19
216.122	1.71
216.341	200.36
216.559	42.67
216.778	130.73
216.996	247.46
217.214	3.75
217.432	11.95
217.651	-26.96
217.869	116.39
218.087	75.43
218.306	28.33
218.524	73.39
218.742	9.9
218.96	155.3
219.179	52.91
219.397	61.1
219.615	163.5
219.833	54.95
220.051	-41.3
220.27	134.82
220.488	155.3
220.706	112.3
220.924	5.8
221.142	28.33
221.36	-0.34
221.578	87.72
221.796	63.15
222.015	81.58
222.233	134.82
222.451	134.82
222.669	38.57
222.887	132.78
223.105	-2.39
223.323	71.34
223.541	40.62
223.759	34.47
223.977	71.34
224.195	214.7
224.413	87.72
224.631	24.23
224.849	110.25
225.067	255.65
225.285	26.28
225.503	69.29
225.721	-153.94
225.939	95.91
226.157	54.95
226.375	249.51
226.592	-6.49
226.81	32.43
227.028	134.82
227.246	198.31
227.464	83.63
227.682	48.81
227.9	63.15
228.117	118.44
228.335	155.3
228.553	52.91
228.771	63.15
228.989	65.19
229.206	114.34
229.424	-94.55
229.642	65.19
229.86	-45.4
230.077	114.34
230.295	-6.49
230.513	59.05
230.731	143.02
230.948	186.02
231.166	198.31
231.384	52.91
231.601	54.95
231.819	202.41
232.037	11.95
232.254	26.28
232.472	149.16
232.689	30.38
232.907	132.78
233.125	75.43
233.342	18.09
233.56	11.95
233.777	46.76
233.995	93.87
234.213	130.73
234.43	132.78
234.648	75.43
234.865	-59.73
235.083	63.15
235.3	122.54
235.518	75.43
235.735	63.15
235.953	81.58
236.17	42.67
236.388	22.19
236.605	-6.49
236.822	145.06
237.04	122.54
237.257	104.11
237.475	-0.34
237.692	75.43
237.909	71.34
238.127	24.23
238.344	149.16
238.562	9.9
238.779	-2.39
238.996	7.85
239.214	11.95
239.431	108.2
239.648	-37.2
239.865	40.62
240.083	75.43
240.3	3.75
240.517	-31.06
240.735	18.09
240.952	65.19
241.169	71.34
241.386	130.73
241.603	50.86
241.821	-67.92
242.038	116.39
242.255	157.35
242.472	16.04
242.689	102.06
242.907	118.44
243.124	-12.63
243.341	-18.77
243.558	44.71
243.775	-45.4
243.992	-69.97
244.209	77.48
244.426	196.26
244.643	-12.63
244.86	7.85
245.078	124.58
245.295	65.19
245.512	77.48
245.729	-67.92
245.946	30.38
246.163	40.62
246.38	77.48
246.597	118.44
246.814	61.1
247.031	40.62
247.248	87.72
247.464	112.3
247.681	-18.77
247.898	159.4
248.115	104.11
248.332	57
248.549	22.19
248.766	155.3
248.983	116.39
249.2	136.87
249.417	210.6
249.633	22.19
249.85	122.54
250.067	-2.39
250.284	75.43
250.501	22.19
250.717	128.68
250.934	-12.63
251.151	38.57
251.368	-0.34
251.585	93.87
251.801	-24.92
252.018	-78.16
252.235	87.72
252.451	26.28
252.668	11.95
252.885	143.02
253.102	46.76
253.318	57
253.535	-22.87
253.752	20.14
253.968	28.33
254.185	36.52
254.401	24.23
254.618	97.96
254.835	32.43
255.051	77.48
255.268	132.78
255.484	89.77
255.701	73.39
255.917	38.57
256.134	7.85
256.351	73.39
256.567	7.85
256.784	9.9
257	-57.68
257.217	77.48
257.433	198.31
257.65	28.33
257.866	151.21
258.082	-2.39
258.299	11.95
258.515	104.11
258.732	-16.73
258.948	1.71
259.165	59.05
259.381	-39.25
259.597	110.25
259.814	20.14
260.03	11.95
260.246	11.95
260.463	110.25
260.679	110.25
260.895	65.19
261.112	30.38
261.328	91.82
261.544	65.19
261.761	192.17
261.977	-20.82
262.193	-82.26
262.409	175.78
262.626	118.44
262.842	61.1
263.058	75.43
263.274	97.96
263.49	32.43
263.707	167.59
263.923	81.58
264.139	-18.77
264.355	22.19
264.571	89.77
264.787	143.02
265.004	145.06
265.22	54.95
265.436	7.85
265.652	85.67
265.868	87.72
266.084	-45.4
266.3	61.1
266.516	28.33
266.732	69.29
266.948	48.81
267.164	9.9
267.38	143.02
267.596	75.43
267.812	140.97
268.028	124.58
268.244	-6.49
268.46	50.86
268.676	38.57
268.892	54.95
269.108	-39.25
269.324	40.62
269.54	11.95
269.756	91.82
269.972	36.52
270.188	11.95
270.403	26.28
270.619	-22.87
270.835	83.63
271.051	95.91
271.267	46.76
271.483	-57.68
271.698	9.9
271.914	128.68
272.13	89.77
272.346	1.71
272.562	18.09
272.777	140.97
272.993	16.04
273.209	-55.64
273.425	91.82
273.64	-12.63
273.856	59.05
274.072	-10.58
274.287	-0.34
274.503	102.06
274.719	89.77
274.934	22.19
275.15	-80.21
275.366	-18.77
275.581	22.19
275.797	3.75
276.012	42.67
276.228	-10.58
276.444	46.76
276.659	118.44
276.875	24.23
277.09	54.95
277.306	34.47
277.521	108.2
277.737	-43.35
277.952	75.43
278.168	38.57
278.383	46.76
278.599	118.44
278.814	18.09
279.03	67.24
279.245	83.63
279.461	106.15
279.676	161.45
279.892	-47.44
280.107	46.76
280.322	18.09
280.538	95.91
280.753	-78.16
280.969	38.57
281.184	61.1
281.399	140.97
281.615	44.71
281.83	136.87
282.045	-24.92
282.26	34.47
282.476	89.77
282.691	120.49
282.906	118.44
283.122	81.58
283.337	9.9
283.552	38.57
283.767	-33.11
283.983	46.76
284.198	61.1
284.413	102.06
284.628	-39.25
284.843	40.62
285.058	71.34
285.274	3.75
285.489	-6.49
285.704	40.62
285.919	57
286.134	-22.87
286.349	34.47
286.564	40.62
286.779	97.96
286.995	11.95
287.21	-51.54
287.425	95.91
287.64	26.28
287.855	42.67
288.07	-29.01
288.285	95.91
288.5	100.01
288.715	104.11
288.93	81.58
289.145	-31.06
289.36	116.39
289.575	67.24
289.79	206.5
290.004	-4.44
290.219	112.3
290.434	44.71
290.649	13.99
290.864	59.05
291.079	20.14
291.294	46.76
291.509	50.86
291.724	50.86
291.938	-8.53
292.153	69.29
292.368	9.9
292.583	106.15
292.798	69.29
293.012	147.11
293.227	59.05
293.442	-86.36
293.657	75.43
293.871	155.3
294.086	22.19
294.301	151.21
294.516	110.25
294.73	83.63
294.945	-39.25
295.16	87.72
295.374	110.25
295.589	167.59
295.804	32.43
296.018	108.2
296.233	231.08
296.447	75.43
296.662	-49.49
296.877	192.17
297.091	91.82
297.306	-0.34
297.52	-4.44
297.735	95.91
297.949	81.58
298.164	83.63
298.378	24.23
298.593	34.47
298.807	7.85
299.022	26.28
299.236	124.58
299.451	20.14
299.665	54.95
299.88	7.85
300.094	61.1
300.309	83.63
300.523	128.68
300.737	36.52
300.952	87.72
301.166	102.06
301.381	24.23
301.595	9.9
301.809	79.53
302.024	20.14
302.238	-49.49
302.452	122.54
302.667	81.58
302.881	183.98
303.095	130.73
303.309	63.15
303.524	7.85
303.738	120.49
303.952	-16.73
304.166	54.95
304.381	-108.88
304.595	104.11
304.809	-39.25
305.023	7.85
305.237	9.9
305.452	22.19
305.666	79.53
305.88	91.82
306.094	147.11
306.308	67.24
306.522	175.78
306.736	30.38
306.95	63.15
307.164	-12.63
307.379	118.44
307.593	194.22
307.807	104.11
308.021	128.68
308.235	52.91
308.449	-0.34
308.663	32.43
308.877	169.64
309.091	63.15
309.305	100.01
309.519	-47.44
309.733	93.87
309.947	-18.77
310.161	46.76
310.374	106.15
310.588	208.55
310.802	9.9
311.016	-18.77
311.23	75.43
311.444	1.71
311.658	30.38
311.872	52.91
312.085	50.86
312.299	79.53
312.513	128.68
312.727	42.67
312.941	-72.02
313.154	42.67
313.368	95.91
313.582	13.99
313.796	97.96
314.009	173.74
314.223	151.21
314.437	42.67
314.651	157.35
314.864	-57.68
315.078	79.53
315.292	-20.82
315.505	87.72
315.719	104.11
315.933	42.67
316.146	-8.53
316.36	59.05
316.573	124.58
316.787	85.67
317.001	50.86
317.214	-4.44
317.428	69.29
317.641	-29.01
317.855	40.62
318.068	3.75
318.282	36.52
318.495	198.31
318.709	50.86
318.922	1.71
319.136	155.3
319.349	120.49
319.563	-33.11
319.776	155.3
319.99	-65.88
320.203	57
320.417	75.43
320.63	136.87
320.843	196.26
321.057	75.43
321.27	9.9
321.483	163.5
321.697	100.01
321.91	106.15
322.124	97.96
322.337	36.52
322.55	28.33
322.763	24.23
322.977	73.39
323.19	77.48
323.403	89.77
323.617	-2.39
323.83	106.15
324.043	11.95
324.256	91.82
324.469	-78.16
324.683	81.58
324.896	28.33
325.109	9.9
325.322	-51.54
325.535	159.4
325.748	159.4
325.962	-0.34
326.175	61.1
326.388	59.05
326.601	134.82
326.814	28.33
327.027	28.33
327.24	192.17
327.453	-125.27
327.666	36.52
327.879	108.2
328.092	61.1
328.305	63.15
328.518	9.9
328.731	28.33
328.944	83.63
329.157	122.54
329.37	38.57
329.583	226.98
329.796	138.92
330.009	-0.34
330.222	63.15
330.435	61.1
330.648	91.82
330.861	54.95
331.073	42.67
331.286	128.68
331.499	32.43
331.712	87.72
331.925	48.81
332.138	30.38
332.35	231.08
332.563	71.34
332.776	149.16
332.989	-35.16
333.202	48.81
333.414	38.57
333.627	97.96
333.84	-0.34
334.053	63.15
334.265	44.71
334.478	-2.39
334.691	38.57
334.903	100.01
335.116	11.95
335.329	61.1
335.541	65.19
335.754	186.02
335.966	26.28
336.179	71.34
336.392	46.76
336.604	87.72
336.817	143.02
337.029	89.77
337.242	61.1
337.454	136.87
337.667	67.24
337.88	206.5
338.092	116.39
338.305	167.59
338.517	-14.68
338.729	63.15
338.942	177.83
339.154	5.8
339.367	32.43
339.579	48.81
339.792	-0.34
340.004	100.01
340.217	71.34
340.429	118.44
340.641	-2.39
340.854	-2.39
341.066	59.05
341.278	196.26
341.491	198.31
341.703	69.29
341.915	-14.68
342.128	128.68
342.34	89.77
342.552	-2.39
342.764	61.1
342.977	100.01
343.189	108.2
343.401	7.85
343.613	-115.03
343.826	104.11
344.038	-4.44
344.25	104.11
344.462	24.23
344.674	85.67
344.886	52.91
345.099	91.82
345.311	85.67
345.523	-26.96
345.735	-88.4
345.947	16.04
346.159	52.91
346.371	54.95
346.583	-20.82
346.795	138.92
347.007	-12.63
347.219	118.44
347.431	22.19
347.643	112.3
347.855	71.34
348.067	165.54
348.279	-31.06
348.491	85.67
348.703	71.34
348.915	46.76
349.127	34.47
349.339	20.14
349.551	-8.53
349.763	112.3
349.975	7.85
350.187	140.97
350.399	147.11
350.61	5.8
350.822	5.8
351.034	59.05
351.246	97.96
351.458	87.72
351.669	106.15
351.881	69.29
352.093	124.58
352.305	54.95
352.517	1.71
352.728	202.41
352.94	-16.73
353.152	63.15
353.363	34.47
353.575	87.72
353.787	183.98
353.999	79.53
354.21	208.55
354.422	69.29
354.633	38.57
354.845	-20.82
355.057	75.43
355.268	100.01
355.48	118.44
355.692	5.8
355.903	20.14
356.115	40.62
356.326	-63.83
356.538	124.58
356.749	102.06
356.961	52.91
357.172	-35.16
357.384	46.76
357.595	247.46
357.807	38.57
358.018	13.99
358.23	20.14
358.441	169.64
358.653	81.58
358.864	63.15
359.075	-12.63
359.287	38.57
359.498	188.07
359.709	126.63
359.921	81.58
360.132	95.91
360.344	52.91
360.555	7.85
360.766	112.3
360.977	18.09
361.189	108.2
361.4	-24.92
361.611	165.54
361.823	140.97
362.034	38.57
362.245	-4.44
362.456	5.8
362.667	91.82
362.879	-4.44
363.09	114.34
363.301	102.06
363.512	16.04
363.723	-10.58
363.935	83.63
364.146	165.54
364.357	46.76
364.568	114.34
364.779	-14.68
364.99	128.68
365.201	-24.92
365.412	155.3
365.623	-24.92
365.834	32.43
366.045	73.39
366.256	102.06
366.467	73.39
366.678	24.23
366.889	34.47
367.1	1.71
367.311	116.39
367.522	-8.53
367.733	59.05
367.944	42.67
368.155	65.19
368.366	183.98
368.577	112.3
368.788	63.15
368.999	-31.06
369.209	75.43
369.42	181.93
369.631	224.94
369.842	145.06
370.053	57
370.264	24.23
370.474	-31.06
370.685	30.38
370.896	57
371.107	100.01
371.317	71.34
371.528	38.57
371.739	136.87
371.95	81.58
372.16	153.26
372.371	-12.63
372.582	3.75
372.792	108.2
373.003	32.43
373.214	93.87
373.424	95.91
373.635	-10.58
373.846	102.06
374.056	46.76
374.267	44.71
374.477	116.39
374.688	-45.4
374.898	87.72
375.109	116.39
375.319	57
375.53	138.92
375.74	57
375.951	5.8
376.161	106.15
376.372	173.74
376.582	69.29
376.793	134.82
377.003	20.14
377.214	-37.2
377.424	175.78
377.635	38.57
377.845	-29.01
378.055	95.91
378.266	-26.96
378.476	65.19
378.686	85.67
378.897	69.29
379.107	118.44
379.317	108.2
379.528	77.48
379.738	97.96
379.948	-37.2
380.158	149.16
380.369	65.19
380.579	69.29
380.789	18.09
380.999	85.67
381.21	118.44
381.42	181.93
381.63	106.15
381.84	112.3
382.05	134.82
382.261	122.54
382.471	116.39
382.681	3.75
382.891	169.64
383.101	95.91
383.311	3.75
383.521	9.9
383.731	59.05
383.941	134.82
384.151	63.15
384.361	126.63
384.571	9.9
384.781	71.34
384.991	231.08
385.201	83.63
385.411	89.77
385.621	100.01
385.831	87.72
386.041	-24.92
386.251	75.43
386.461	159.4
386.671	-12.63
386.881	87.72
387.091	-22.87
387.301	87.72
387.511	38.57
387.72	167.59
387.93	122.54
388.14	24.23
388.35	44.71
388.56	153.26
388.769	77.48
388.979	77.48
389.189	-86.36
389.399	48.81
389.609	233.13
389.818	120.49
390.028	59.05
390.238	100.01
390.447	22.19
390.657	79.53
390.867	7.85
391.076	44.71
391.286	97.96
391.496	57
391.705	87.72
391.915	194.22
392.125	175.78
392.334	63.15
392.544	118.44
392.753	95.91
392.963	-39.25
393.172	9.9
393.382	-31.06
393.591	155.3
393.801	57
394.01	210.6
394.22	145.06
394.429	42.67
394.639	59.05
394.848	147.11
395.058	46.76
395.267	-0.34
395.477	-14.68
395.686	85.67
395.895	226.98
396.105	188.07
396.314	73.39
396.524	-31.06
396.733	36.52
396.942	175.78
397.152	124.58
397.361	159.4
397.57	91.82
397.78	-31.06
397.989	147.11
398.198	206.5
398.407	38.57
398.617	77.48
398.826	79.53
399.035	69.29
399.244	102.06
399.453	102.06
399.663	81.58
399.872	157.35
400.081	28.33
400.29	161.45
400.499	13.99
400.708	210.6
400.917	57
401.127	32.43
401.336	46.76
401.545	165.54
401.754	147.11
401.963	24.23
402.172	151.21
402.381	11.95
402.59	11.95
402.799	69.29
403.008	106.15
403.217	136.87
403.426	91.82
403.635	-20.82
403.844	85.67
404.053	3.75
404.262	54.95
404.471	231.08
404.68	24.23
404.888	95.91
405.097	83.63
405.306	110.25
405.515	134.82
405.724	7.85
405.933	75.43
406.142	9.9
406.35	118.44
406.559	42.67
406.768	54.95
406.977	204.46
407.185	147.11
407.394	192.17
407.603	-49.49
407.812	192.17
408.02	171.69
408.229	30.38
408.438	28.33
408.646	95.91
408.855	85.67
409.064	106.15
409.272	42.67
409.481	171.69
409.69	-39.25
409.898	48.81
410.107	112.3
410.315	171.69
410.524	67.24
410.733	102.06
410.941	149.16
411.15	61.1
411.358	83.63
411.567	73.39
411.775	36.52
411.984	120.49
412.192	89.77
412.401	13.99
412.609	216.74
412.818	169.64
413.026	79.53
413.234	46.76
413.443	179.88
413.651	-0.34
413.86	-4.44
414.068	188.07
414.276	253.61
414.485	18.09
414.693	204.46
414.901	218.79
415.11	93.87
415.318	50.86
415.526	161.45
415.734	112.3
415.943	87.72
416.151	214.7
416.359	79.53
416.567	122.54
416.776	229.03
416.984	175.78
417.192	165.54
417.4	18.09
417.608	48.81
417.817	52.91
418.025	143.02
418.233	229.03
418.441	-43.35
418.649	57
418.857	59.05
419.065	91.82
419.273	42.67
419.481	75.43
419.689	59.05
419.897	38.57
420.105	-2.39
420.313	161.45
420.521	155.3
420.729	124.58
420.937	69.29
421.145	-20.82
421.353	67.24
421.561	149.16
421.769	93.87
421.977	30.38
422.185	186.02
422.393	108.2
422.601	130.73
422.809	57
423.017	128.68
423.224	36.52
423.432	138.92
423.64	59.05
423.848	169.64
424.056	61.1
424.263	147.11
424.471	79.53
424.679	216.74
424.887	-2.39
425.094	165.54
425.302	87.72
425.51	50.86
425.718	200.36
425.925	177.83
426.133	91.82
426.341	149.16
426.548	87.72
426.756	63.15
426.964	102.06
427.171	50.86
427.379	46.76
427.586	108.2
427.794	173.74
428.001	159.4
428.209	85.67
428.417	249.51
428.624	124.58
428.832	157.35
429.039	81.58
429.247	73.39
429.454	143.02
429.662	263.85
429.869	188.07
430.076	186.02
430.284	198.31
430.491	237.22
430.699	229.03
430.906	257.7
431.114	190.12
431.321	212.65
431.528	102.06
431.736	212.65
431.943	224.94
432.15	224.94
432.358	218.79
432.565	343.72
432.772	40.62
432.979	251.56
433.187	218.79
433.394	194.22
433.601	108.2
433.808	231.08
434.016	325.29
434.223	388.77
434.43	263.85
434.637	317.09
434.844	308.9
435.052	347.81
435.259	331.43
435.466	435.88
435.673	313
435.88	411.3
436.087	450.21
436.294	345.77
436.501	427.68
436.708	304.81
436.915	450.21
437.122	460.45
437.329	265.89
437.537	390.82
437.743	431.78
437.95	534.18
438.157	579.23
438.364	478.88
438.571	460.45
438.778	528.03
438.985	564.9
439.192	558.75
439.399	487.08
439.606	640.67
439.813	683.68
440.02	693.92
440.227	870.05
440.433	652.96
440.64	661.15
440.847	702.11
441.054	634.53
441.261	925.34
441.467	784.03
441.674	781.98
441.881	968.35
442.088	923.29
442.294	1064.6
442.501	1089.18
442.708	990.88
442.914	1031.83
443.121	1011.36
443.328	1185.43
443.534	1152.67
443.741	1171.1
443.948	1160.86
444.154	1328.79
444.361	1466
444.568	1394.33
444.774	1406.61
444.981	1255.06
445.187	1549.97
445.394	1545.88
445.6	1590.93
445.807	1783.44
446.013	1726.1
446.22	1627.79
446.426	1853.07
446.633	1906.32
446.839	2061.96
447.046	1910.41
447.252	2154.12
447.459	2182.79
447.665	2201.23
447.871	2420.36
448.078	2512.52
448.284	2444.93
448.491	2576
448.697	2819.71
448.903	2866.81
449.11	2840.19
449.316	2961.02
449.522	3219.07
449.728	3270.26
449.935	3370.62
450.141	3358.33
450.347	3583.6
450.553	3589.75
450.76	3614.32
450.966	3919.47
451.172	3958.38
451.378	4107.88
451.584	4361.83
451.791	4660.84
451.997	4607.59
452.203	4675.17
452.409	5105.24
452.615	5201.5
452.821	5148.25
453.027	5027.42
453.233	5748.31
453.44	5604.95
453.646	6016.59
453.852	5951.06
454.058	6389.32
454.264	6370.89
454.47	7009.86
454.676	7067.2
454.882	7730.74
455.088	7341.63
455.294	7505.46
455.5	8134.19
455.705	8621.61
455.911	8826.4
456.117	8848.93
456.323	9448.99
456.529	9188.89
456.735	10264.08
456.941	10264.08
457.147	10821.13
457.352	11021.83
457.558	11484.67
457.764	12121.59
457.97	12447.21
458.176	12836.33
458.381	13508.06
458.587	13719
458.793	14351.82
458.999	14509.52
459.204	16401.84
459.41	16680.36
459.616	16569.77
459.821	17427.87
460.027	18308.5
460.233	19107.21
460.438	18883.98
460.644	20319.6
460.85	19873.15
461.055	21099.88
461.261	22480.21
461.466	21683.55
461.672	22689.1
461.878	24851.76
462.083	24384.82
462.289	24911.15
462.494	26209.56
462.7	26434.84
462.905	26795.28
463.111	28759.28
463.316	30256.35
463.522	31167.7
463.727	32003.27
463.932	33260.72
464.138	34346.14
464.343	35394.7
464.549	35339.41
464.754	38294.63
464.959	39259.22
465.165	39543.89
465.37	39148.63
465.575	39603.28
465.781	42191.91
465.986	43142.17
466.191	42814.49
466.397	43375.64
466.602	41944.11
466.807	44176.39
467.012	45468.66
467.218	45992.94
467.423	46234.6
467.628	47277.02
467.833	49570.74
468.038	48489.41
468.244	47731.67
468.449	50013.1
468.654	49408.95
468.859	49458.1
469.064	49673.14
