Data from USB4F104151__41__10-42-51-579.txt Node

Date: Wed Feb 26 10:42:51 EST 2025
User: louis
Spectrometer: USB4F10415
Trigger mode: 4
Integration Time (sec): 1.000000E-1
Scans to average: 1
Electric dark correction enabled: true
Nonlinearity correction enabled: false
Boxcar width: 0
XAxis mode: Wavelengths
Number of Pixels in Spectrum: 3648
>>>>>Begin Spectral Data<<<<<
178.204	-351.4
178.424	-351.4
178.644	-351.4
178.864	-439.46
179.084	-357.54
179.304	-17.58
179.524	-68.78
179.744	-31.91
179.964	-33.96
180.184	68.44
180.404	41.81
180.624	-38.06
180.844	21.33
181.064	-36.01
181.283	56.15
181.503	31.57
181.723	7
181.943	-40.11
182.163	238.42
182.383	64.34
182.602	101.2
182.822	160.59
183.042	66.39
183.262	72.53
183.482	54.1
183.701	27.48
183.921	29.52
184.141	-58.54
184.361	93.01
184.58	189.27
184.8	78.68
185.02	19.29
185.239	125.78
185.459	101.2
185.679	164.69
185.898	19.29
186.118	66.39
186.338	-15.53
186.557	179.03
186.777	-46.25
186.997	-5.29
187.216	62.29
187.436	197.46
187.655	45.91
187.875	105.3
188.095	35.67
188.314	181.07
188.534	117.59
188.753	-17.58
188.973	140.12
189.192	183.12
189.412	-5.29
189.631	-17.58
189.851	70.48
190.07	154.45
190.29	-85.16
190.509	43.86
190.729	35.67
190.948	181.07
191.168	189.27
191.387	101.2
191.607	50
191.826	47.96
192.045	47.96
192.265	27.48
192.484	62.29
192.704	13.14
192.923	-29.87
193.142	205.65
193.362	150.36
193.581	97.11
193.8	66.39
194.02	154.45
194.239	19.29
194.458	13.14
194.678	11.09
194.897	31.57
195.116	74.58
195.335	97.11
195.555	154.45
195.774	58.2
195.993	154.45
196.212	0.85
196.432	-64.68
196.651	-42.15
196.87	-1.19
197.089	258.9
197.308	123.73
197.528	86.87
197.747	-93.35
197.966	74.58
198.185	205.65
198.404	-144.55
198.623	60.24
198.842	76.63
199.062	80.72
199.281	125.78
199.5	60.24
199.719	37.72
199.938	150.36
200.157	99.16
200.376	121.68
200.595	45.91
200.814	43.86
201.033	52.05
201.252	131.92
201.471	131.92
201.69	72.53
201.909	52.05
202.128	29.52
202.347	50
202.566	-11.43
202.785	-7.34
203.004	-17.58
203.223	250.71
203.442	58.2
203.661	-40.11
203.879	21.33
204.098	93.01
204.317	-11.43
204.536	95.06
204.755	117.59
204.974	129.88
205.193	86.87
205.411	156.5
205.63	136.02
205.849	115.54
206.068	-40.11
206.287	72.53
206.505	101.2
206.724	0.85
206.943	-42.15
207.162	-23.72
207.381	62.29
207.599	-5.29
207.818	66.39
208.037	25.43
208.255	-23.72
208.474	88.92
208.693	13.14
208.911	60.24
209.13	127.83
209.349	97.11
209.567	144.21
209.786	125.78
210.005	117.59
210.223	43.86
210.442	-25.77
210.661	43.86
210.879	15.19
211.098	76.63
211.316	27.48
211.535	144.21
211.753	60.24
211.972	103.25
212.191	76.63
212.409	72.53
212.628	74.58
212.846	23.38
213.065	74.58
213.283	109.4
213.502	52.05
213.72	50
213.938	76.63
214.157	86.87
214.375	95.06
214.594	-19.63
214.812	88.92
215.031	0.85
215.249	93.01
215.467	19.29
215.686	68.44
215.904	19.29
216.122	70.48
216.341	127.83
216.559	138.07
216.778	80.72
216.996	195.41
217.214	7
217.432	15.19
217.651	39.76
217.869	68.44
218.087	113.49
218.306	-52.39
218.524	15.19
218.742	35.67
218.96	148.31
219.179	-13.48
219.397	45.91
219.615	195.41
219.833	117.59
220.051	-68.78
220.27	144.21
220.488	70.48
220.706	11.09
220.924	-36.01
221.142	15.19
221.36	62.29
221.578	7
221.796	62.29
222.015	156.5
222.233	107.35
222.451	131.92
222.669	13.14
222.887	60.24
223.105	7
223.323	7
223.541	-31.91
223.759	43.86
223.977	0.85
224.195	236.37
224.413	144.21
224.631	93.01
224.849	60.24
225.067	248.66
225.285	52.05
225.503	-36.01
225.721	-58.54
225.939	95.06
226.157	39.76
226.375	295.76
226.592	33.62
226.81	56.15
227.028	99.16
227.246	154.45
227.464	45.91
227.682	129.88
227.9	4.95
228.117	-7.34
228.335	107.35
228.553	58.2
228.771	45.91
228.989	27.48
229.206	109.4
229.424	43.86
229.642	-19.63
229.86	-5.29
230.077	84.82
230.295	21.33
230.513	140.12
230.731	58.2
230.948	60.24
231.166	195.41
231.384	-29.87
231.601	41.81
231.819	224.08
232.037	4.95
232.254	-17.58
232.472	64.34
232.689	-21.67
232.907	187.22
233.125	11.09
233.342	-36.01
233.56	29.52
233.777	54.1
233.995	17.24
234.213	101.2
234.43	33.62
234.648	72.53
234.865	56.15
235.083	37.72
235.3	70.48
235.518	97.11
235.735	107.35
235.953	125.78
236.17	-3.24
236.388	50
236.605	127.83
236.822	93.01
237.04	117.59
237.257	97.11
237.475	-9.39
237.692	50
237.909	72.53
238.127	11.09
238.344	136.02
238.562	52.05
238.779	-17.58
238.996	-9.39
239.214	9.05
239.431	140.12
239.648	4.95
239.865	115.54
240.083	35.67
240.3	41.81
240.517	84.82
240.735	174.93
240.952	140.12
241.169	78.68
241.386	45.91
241.603	60.24
241.821	-93.35
242.038	97.11
242.255	88.92
242.472	-19.63
242.689	58.2
242.907	72.53
243.124	66.39
243.341	-58.54
243.558	33.62
243.775	-81.07
243.992	-101.55
244.209	64.34
244.426	144.21
244.643	13.14
244.86	23.38
245.078	60.24
245.295	35.67
245.512	29.52
245.729	58.2
245.946	95.06
246.163	58.2
246.38	11.09
246.597	29.52
246.814	-36.01
247.031	29.52
247.248	4.95
247.464	148.31
247.681	39.76
247.898	54.1
248.115	56.15
248.332	15.19
248.549	166.74
248.766	142.16
248.983	168.79
249.2	-7.34
249.417	54.1
249.633	-5.29
249.85	93.01
250.067	95.06
250.284	17.24
250.501	121.68
250.717	86.87
250.934	17.24
251.151	-25.77
251.368	43.86
251.585	45.91
251.801	52.05
252.018	-15.53
252.235	131.92
252.451	-58.54
252.668	-40.11
252.885	107.35
253.102	-7.34
253.318	11.09
253.535	-3.24
253.752	27.48
253.968	-36.01
254.185	-15.53
254.401	99.16
254.618	-9.39
254.835	-33.96
255.051	197.46
255.268	125.78
255.484	62.29
255.701	0.85
255.917	66.39
256.134	13.14
256.351	9.05
256.567	-76.97
256.784	138.07
257	-79.02
257.217	29.52
257.433	138.07
257.65	17.24
257.866	144.21
258.082	-60.59
258.299	15.19
258.515	50
258.732	50
258.948	-15.53
259.165	47.96
259.381	9.05
259.597	131.92
259.814	97.11
260.03	37.72
260.246	86.87
260.463	127.83
260.679	111.44
260.895	123.73
261.112	111.44
261.328	80.72
261.544	54.1
261.761	121.68
261.977	-13.48
262.193	-38.06
262.409	39.76
262.626	33.62
262.842	43.86
263.058	21.33
263.274	84.82
263.49	58.2
263.707	136.02
263.923	60.24
264.139	60.24
264.355	68.44
264.571	142.16
264.787	95.06
265.004	138.07
265.22	105.3
265.436	-15.53
265.652	25.43
265.868	-17.58
266.084	-23.72
266.3	80.72
266.516	25.43
266.732	56.15
266.948	-11.43
267.164	15.19
267.38	148.31
267.596	68.44
267.812	181.07
268.028	82.77
268.244	15.19
268.46	39.76
268.676	4.95
268.892	17.24
269.108	-48.3
269.324	31.57
269.54	-19.63
269.756	138.07
269.972	-21.67
270.188	7
270.403	-11.43
270.619	11.09
270.835	50
271.051	39.76
271.267	68.44
271.483	50
271.698	150.36
271.914	-52.39
272.13	21.33
272.346	39.76
272.562	39.76
272.777	160.59
272.993	35.67
273.209	29.52
273.425	70.48
273.64	13.14
273.856	105.3
274.072	-23.72
274.287	-19.63
274.503	203.6
274.719	66.39
274.934	41.81
275.15	-91.31
275.366	88.92
275.581	-58.54
275.797	88.92
276.012	56.15
276.228	50
276.444	84.82
276.659	123.73
276.875	50
277.09	50
277.306	66.39
277.521	131.92
277.737	41.81
277.952	172.88
278.168	76.63
278.383	66.39
278.599	99.16
278.814	82.77
279.03	-9.39
279.245	95.06
279.461	19.29
279.676	82.77
279.892	-23.72
280.107	4.95
280.322	-31.91
280.538	107.35
280.753	-15.53
280.969	129.88
281.184	99.16
281.399	84.82
281.615	78.68
281.83	103.25
282.045	-27.82
282.26	64.34
282.476	21.33
282.691	109.4
282.906	86.87
283.122	125.78
283.337	11.09
283.552	2.9
283.767	-60.59
283.983	84.82
284.198	70.48
284.413	82.77
284.628	-70.83
284.843	123.73
285.058	154.45
285.274	21.33
285.489	-5.29
285.704	168.79
285.919	-93.35
286.134	78.68
286.349	99.16
286.564	27.48
286.779	207.7
286.995	29.52
287.21	-76.97
287.425	99.16
287.64	-40.11
287.855	80.72
288.07	-7.34
288.285	150.36
288.5	82.77
288.715	58.2
288.93	-9.39
289.145	50
289.36	164.69
289.575	-27.82
289.79	62.29
290.004	56.15
290.219	93.01
290.434	9.05
290.649	60.24
290.864	-15.53
291.079	76.63
291.294	41.81
291.509	113.49
291.724	45.91
291.938	-11.43
292.153	82.77
292.368	-1.19
292.583	58.2
292.798	95.06
293.012	111.44
293.227	111.44
293.442	21.33
293.657	111.44
293.871	33.62
294.086	97.11
294.301	199.51
294.516	109.4
294.73	56.15
294.945	7
295.16	37.72
295.374	162.64
295.589	193.36
295.804	-11.43
296.018	86.87
296.233	142.16
296.447	54.1
296.662	-27.82
296.877	62.29
297.091	95.06
297.306	47.96
297.52	41.81
297.735	58.2
297.949	35.67
298.164	47.96
298.378	72.53
298.593	-23.72
298.807	4.95
299.022	13.14
299.236	150.36
299.451	56.15
299.665	80.72
299.88	27.48
300.094	111.44
300.309	31.57
300.523	39.76
300.737	105.3
300.952	127.83
301.166	154.45
301.381	-15.53
301.595	37.72
301.809	58.2
302.024	50
302.238	-105.64
302.452	160.59
302.667	76.63
302.881	207.7
303.095	119.64
303.309	58.2
303.524	35.67
303.738	25.43
303.952	25.43
304.166	-3.24
304.381	-76.97
304.595	170.83
304.809	7
305.023	41.81
305.237	27.48
305.452	54.1
305.666	58.2
305.88	121.68
306.094	103.25
306.308	52.05
306.522	82.77
306.736	140.12
306.95	136.02
307.164	-11.43
307.379	82.77
307.593	162.64
307.807	164.69
308.021	179.03
308.235	209.75
308.449	-29.87
308.663	74.58
308.877	228.18
309.091	60.24
309.305	125.78
309.519	-93.35
309.733	150.36
309.947	-60.59
310.161	82.77
310.374	23.38
310.588	209.75
310.802	-148.65
311.016	41.81
311.23	95.06
311.444	-48.3
311.658	66.39
311.872	52.05
312.085	148.31
312.299	136.02
312.513	84.82
312.727	93.01
312.941	11.09
313.154	105.3
313.368	60.24
313.582	21.33
313.796	9.05
314.009	109.4
314.223	121.68
314.437	90.96
314.651	52.05
314.864	27.48
315.078	23.38
315.292	-68.78
315.505	54.1
315.719	62.29
315.933	31.57
316.146	35.67
316.36	35.67
316.573	154.45
316.787	140.12
317.001	50
317.214	-5.29
317.428	119.64
317.641	-29.87
317.855	7
318.068	93.01
318.282	29.52
318.495	90.96
318.709	76.63
318.922	15.19
319.136	164.69
319.349	174.93
319.563	4.95
319.776	109.4
319.99	-42.15
320.203	127.83
320.417	76.63
320.63	119.64
320.843	142.16
321.057	95.06
321.27	-23.72
321.483	74.58
321.697	121.68
321.91	39.76
322.124	62.29
322.337	86.87
322.55	-7.34
322.763	37.72
322.977	23.38
323.19	-46.25
323.403	-31.91
323.617	78.68
323.83	29.52
324.043	58.2
324.256	90.96
324.469	-3.24
324.683	207.7
324.896	-3.24
325.109	15.19
325.322	-68.78
325.535	111.44
325.748	111.44
325.962	21.33
326.175	123.73
326.388	86.87
326.601	19.29
326.814	25.43
327.027	72.53
327.24	228.18
327.453	-13.48
327.666	52.05
327.879	127.83
328.092	86.87
328.305	115.54
328.518	-13.48
328.731	17.24
328.944	54.1
329.157	144.21
329.37	-1.19
329.583	262.99
329.796	205.65
330.009	-42.15
330.222	138.07
330.435	86.87
330.648	0.85
330.861	148.31
331.073	50
331.286	105.3
331.499	47.96
331.712	-25.77
331.925	74.58
332.138	90.96
332.35	97.11
332.563	43.86
332.776	203.6
332.989	-44.2
333.202	-56.49
333.414	66.39
333.627	-21.67
333.84	27.48
334.053	76.63
334.265	-60.59
334.478	25.43
334.691	-21.67
334.903	101.2
335.116	-3.24
335.329	-25.77
335.541	25.43
335.754	160.59
335.966	4.95
336.179	-36.01
336.392	-54.44
336.604	0.85
336.817	105.3
337.029	37.72
337.242	-46.25
337.454	66.39
337.667	76.63
337.88	193.36
338.092	54.1
338.305	142.16
338.517	11.09
338.729	37.72
338.942	160.59
339.154	-33.96
339.367	13.14
339.579	41.81
339.792	-15.53
340.004	52.05
340.217	62.29
340.429	15.19
340.641	17.24
340.854	-13.48
341.066	115.54
341.278	187.22
341.491	187.22
341.703	68.44
341.915	23.38
342.128	95.06
342.34	113.49
342.552	-15.53
342.764	17.24
342.977	68.44
343.189	50
343.401	76.63
343.613	37.72
343.826	76.63
344.038	-29.87
344.25	50
344.462	-31.91
344.674	115.54
344.886	45.91
345.099	125.78
345.311	123.73
345.523	17.24
345.735	-128.17
345.947	37.72
346.159	90.96
346.371	62.29
346.583	27.48
346.795	222.03
347.007	29.52
347.219	68.44
347.431	13.14
347.643	97.11
347.855	80.72
348.067	138.07
348.279	-58.54
348.491	99.16
348.703	144.21
348.915	31.57
349.127	13.14
349.339	62.29
349.551	-36.01
349.763	72.53
349.975	0.85
350.187	82.77
350.399	152.4
350.61	123.73
350.822	54.1
351.034	68.44
351.246	140.12
351.458	103.25
351.669	103.25
351.881	78.68
352.093	136.02
352.305	160.59
352.517	86.87
352.728	97.11
352.94	115.54
353.152	82.77
353.363	-19.63
353.575	23.38
353.787	189.27
353.999	78.68
354.21	197.46
354.422	-48.3
354.633	31.57
354.845	17.24
355.057	72.53
355.268	88.92
355.48	72.53
355.692	-27.82
355.903	88.92
356.115	-9.39
356.326	-83.11
356.538	136.02
356.749	129.88
356.961	144.21
357.172	107.35
357.384	56.15
357.595	217.94
357.807	-27.82
358.018	-52.39
358.23	74.58
358.441	152.4
358.653	138.07
358.864	52.05
359.075	17.24
359.287	82.77
359.498	162.64
359.709	52.05
359.921	37.72
360.132	123.73
360.344	47.96
360.555	17.24
360.766	123.73
360.977	-29.87
361.189	90.96
361.4	-62.63
361.611	148.31
361.823	144.21
362.034	35.67
362.245	2.9
362.456	41.81
362.667	144.21
362.879	-1.19
363.09	127.83
363.301	105.3
363.512	62.29
363.723	-68.78
363.935	-13.48
364.146	150.36
364.357	84.82
364.568	101.2
364.779	-95.4
364.99	207.7
365.201	-66.73
365.412	162.64
365.623	35.67
365.834	95.06
366.045	7
366.256	125.78
366.467	154.45
366.678	7
366.889	86.87
367.1	-7.34
367.311	93.01
367.522	-31.91
367.733	80.72
367.944	74.58
368.155	80.72
368.366	74.58
368.577	45.91
368.788	201.55
368.999	35.67
369.209	84.82
369.42	207.7
369.631	222.03
369.842	72.53
370.053	21.33
370.264	138.07
370.474	-25.77
370.685	109.4
370.896	-5.29
371.107	113.49
371.317	58.2
371.528	17.24
371.739	156.5
371.95	133.97
372.16	140.12
372.371	21.33
372.582	-13.48
372.792	107.35
373.003	99.16
373.214	25.43
373.424	23.38
373.635	-58.54
373.846	125.78
374.056	17.24
374.267	15.19
374.477	74.58
374.688	-9.39
374.898	56.15
375.109	33.62
375.319	105.3
375.53	150.36
375.74	88.92
375.951	-5.29
376.161	23.38
376.372	158.55
376.582	86.87
376.793	70.48
377.003	-7.34
377.214	19.29
377.424	164.69
377.635	13.14
377.845	0.85
378.055	160.59
378.266	29.52
378.476	78.68
378.686	86.87
378.897	129.88
379.107	107.35
379.317	72.53
379.528	9.05
379.738	109.4
379.948	11.09
380.158	99.16
380.369	23.38
380.579	156.5
380.789	142.16
380.999	109.4
381.21	88.92
381.42	189.27
381.63	52.05
381.84	176.98
382.05	90.96
382.261	152.4
382.471	80.72
382.681	0.85
382.891	154.45
383.101	27.48
383.311	-7.34
383.521	-48.3
383.731	109.4
383.941	152.4
384.151	60.24
384.361	101.2
384.571	93.01
384.781	152.4
384.991	158.55
385.201	164.69
385.411	88.92
385.621	95.06
385.831	146.26
386.041	45.91
386.251	23.38
386.461	146.26
386.671	68.44
386.881	41.81
387.091	66.39
387.301	144.21
387.511	74.58
387.72	19.29
387.93	209.75
388.14	-11.43
388.35	54.1
388.56	90.96
388.769	78.68
388.979	4.95
389.189	31.57
389.399	31.57
389.609	176.98
389.818	144.21
390.028	76.63
390.238	11.09
390.447	35.67
390.657	80.72
390.867	119.64
391.076	-21.67
391.286	52.05
391.496	62.29
391.705	-1.19
391.915	166.74
392.125	131.92
392.334	84.82
392.544	70.48
392.753	125.78
392.963	-38.06
393.172	31.57
393.382	11.09
393.591	160.59
393.801	41.81
394.01	154.45
394.22	70.48
394.429	9.05
394.639	19.29
394.848	97.11
395.058	62.29
395.267	90.96
395.477	39.76
395.686	93.01
395.895	256.85
396.105	181.07
396.314	31.57
396.524	17.24
396.733	0.85
396.942	117.59
397.152	107.35
397.361	199.51
397.57	99.16
397.78	13.14
397.989	125.78
398.198	205.65
398.407	-11.43
398.617	72.53
398.826	17.24
399.035	17.24
399.244	95.06
399.453	129.88
399.663	68.44
399.872	111.44
400.081	-15.53
400.29	136.02
400.499	7
400.708	123.73
400.917	90.96
401.127	21.33
401.336	-9.39
401.545	209.75
401.754	111.44
401.963	62.29
402.172	35.67
402.381	54.1
402.59	31.57
402.799	9.05
403.008	133.97
403.217	119.64
403.426	131.92
403.635	-21.67
403.844	43.86
404.053	35.67
404.262	-25.77
404.471	160.59
404.68	45.91
404.888	66.39
405.097	68.44
405.306	43.86
405.515	93.01
405.724	-23.72
405.933	97.11
406.142	109.4
406.35	133.97
406.559	50
406.768	15.19
406.977	129.88
407.185	121.68
407.394	142.16
407.603	4.95
407.812	13.14
408.02	76.63
408.229	54.1
408.438	19.29
408.646	-3.24
408.855	66.39
409.064	35.67
409.272	-5.29
409.481	138.07
409.69	-5.29
409.898	41.81
410.107	2.9
410.315	52.05
410.524	56.15
410.733	27.48
410.941	119.64
411.15	111.44
411.358	86.87
411.567	185.17
411.775	80.72
411.984	56.15
412.192	33.62
412.401	9.05
412.609	185.17
412.818	174.93
413.026	33.62
413.234	99.16
413.443	99.16
413.651	29.52
413.86	25.43
414.068	148.31
414.276	164.69
414.485	45.91
414.693	203.6
414.901	207.7
415.11	-42.15
415.318	99.16
415.526	47.96
415.734	119.64
415.943	115.54
416.151	215.89
416.359	27.48
416.567	95.06
416.776	133.97
416.984	121.68
417.192	230.23
417.4	23.38
417.608	41.81
417.817	-46.25
418.025	144.21
418.233	105.3
418.441	41.81
418.649	-74.92
418.857	58.2
419.065	160.59
419.273	72.53
419.481	95.06
419.689	148.31
419.897	-54.44
420.105	41.81
420.313	93.01
420.521	138.07
420.729	168.79
420.937	68.44
421.145	-13.48
421.353	86.87
421.561	140.12
421.769	205.65
421.977	31.57
422.185	111.44
422.393	101.2
422.601	123.73
422.809	115.54
423.017	60.24
423.224	121.68
423.432	119.64
423.64	103.25
423.848	109.4
424.056	-27.82
424.263	197.46
424.471	13.14
424.679	115.54
424.887	60.24
425.094	119.64
425.302	211.79
425.51	54.1
425.718	131.92
425.925	84.82
426.133	88.92
426.341	162.64
426.548	76.63
426.756	97.11
426.964	174.93
427.171	-1.19
427.379	140.12
427.586	74.58
427.794	115.54
428.001	150.36
428.209	84.82
428.417	158.55
428.624	187.22
428.832	156.5
429.039	123.73
429.247	76.63
429.454	203.6
429.662	199.51
429.869	90.96
430.076	119.64
430.284	197.46
430.491	293.71
430.699	160.59
430.906	213.84
431.114	123.73
431.321	222.03
431.528	201.55
431.736	148.31
431.943	197.46
432.15	168.79
432.358	287.57
432.565	283.47
432.772	15.19
432.979	230.23
433.187	152.4
433.394	275.28
433.601	181.07
433.808	199.51
434.016	228.18
434.223	215.89
434.43	164.69
434.637	248.66
434.844	248.66
435.052	217.94
435.259	224.08
435.466	363.34
435.673	238.42
435.88	232.27
436.087	359.25
436.294	373.58
436.501	293.71
436.708	267.09
436.915	306
437.122	387.92
437.329	279.38
437.537	385.87
437.743	269.14
437.95	473.93
438.157	459.6
438.364	340.82
438.571	369.49
438.778	469.84
438.985	463.69
439.192	549.71
439.399	441.17
439.606	406.35
439.813	523.09
440.02	512.85
440.227	621.39
440.433	533.33
440.64	426.83
440.847	490.32
441.054	580.43
441.261	783.18
441.467	664.4
441.674	580.43
441.881	791.37
442.088	613.2
442.294	654.16
442.501	680.78
442.708	856.9
442.914	879.43
443.121	897.86
443.328	848.71
443.534	1012.55
443.741	1004.36
443.948	809.8
444.154	910.15
444.361	1145.67
444.568	963.4
444.774	1112.9
444.981	897.86
445.187	1184.58
445.394	1147.72
445.6	1131.33
445.807	1344.32
446.013	1219.39
446.22	1248.07
446.426	1399.62
446.633	1495.87
446.839	1585.98
447.046	1284.93
447.252	1577.79
447.459	1710.91
447.665	1592.13
447.871	1784.63
448.078	1864.5
448.284	1805.11
448.491	1948.47
448.697	2147.12
448.903	2143.03
449.11	2169.65
449.316	2054.97
449.522	2366.26
449.728	2366.26
449.935	2544.43
450.141	2423.6
450.347	2771.76
450.553	2599.73
450.76	2802.47
450.966	2900.78
451.172	2847.53
451.378	3234.6
451.584	3201.83
451.791	3523.36
451.997	3539.74
452.203	3504.93
452.409	3681.05
452.615	3910.43
452.821	3863.32
453.027	3699.48
453.233	4344.6
453.44	4184.85
453.646	4428.56
453.852	4625.17
454.058	4879.11
454.264	4946.7
454.47	5214.98
454.676	5301
454.882	5927.67
455.088	5458.69
455.294	5880.57
455.5	6181.62
455.705	6486.77
455.911	6591.22
456.117	6681.33
456.323	6714.09
456.529	6853.36
456.735	7631.58
456.941	7625.44
457.147	7949.02
457.352	8221.4
457.558	8600.27
457.764	9036.49
457.97	9257.67
458.176	9388.74
458.381	10132.15
458.587	10173.11
458.793	10676.91
458.999	10721.97
459.204	12233.37
459.41	12651.16
459.616	12257.95
459.821	13003.41
460.027	13564.55
460.233	14514.81
460.438	14283.39
460.644	15110.77
460.85	15454.83
461.055	15825.51
461.261	16751.19
461.466	16081.5
461.672	16757.33
461.878	18629.18
462.083	18174.53
462.289	18483.77
462.494	19526.19
462.7	19819.05
462.905	19976.74
463.111	21447.18
463.316	22536.7
463.522	22903.29
463.727	23757.29
463.932	24556
464.138	25092.57
464.343	26675.65
464.549	26366.4
464.754	28496.29
464.959	29114.78
465.165	29632.91
465.37	29295
465.575	29594
465.781	31570.29
465.986	32389.48
466.191	32102.76
466.397	32399.72
466.602	31320.44
466.807	33513.81
467.012	33691.99
467.218	34511.17
467.423	34341.19
467.628	35526.97
467.833	37257.5
468.038	36577.58
468.244	36266.28
468.449	37765.4
468.654	37290.27
468.859	36991.26
469.064	37067.04
469.269	36354.35
