Data from USB4F104151__273__11-20-45-831.txt Node

Date: Wed Feb 26 11:20:45 EST 2025
User: louis
Spectrometer: USB4F10415
Trigger mode: 4
Integration Time (sec): 1.000000E-1
Scans to average: 1
Electric dark correction enabled: true
Nonlinearity correction enabled: false
Boxcar width: 0
XAxis mode: Wavelengths
Number of Pixels in Spectrum: 3648
>>>>>Begin Spectral Data<<<<<
178.204	-413.86
178.424	-413.86
178.644	-413.86
178.864	-403.62
179.084	-362.66
179.304	-75.95
179.524	-55.47
179.744	22.36
179.964	81.75
180.184	77.65
180.404	-4.27
180.624	-51.37
180.844	34.64
181.064	-96.43
181.283	65.36
181.503	-41.13
181.723	42.84
181.943	-121
182.163	216.91
182.383	20.31
182.602	55.12
182.822	102.23
183.042	106.32
183.262	24.4
183.482	-28.84
183.701	42.84
183.921	-28.84
184.141	-59.56
184.361	81.75
184.58	36.69
184.8	59.22
185.02	3.93
185.239	130.9
185.459	34.64
185.679	227.15
185.898	-137.38
186.118	28.5
186.338	75.6
186.557	104.28
186.777	8.02
186.997	-10.41
187.216	-43.18
187.436	153.43
187.655	89.94
187.875	145.24
188.095	55.12
188.314	112.47
188.534	128.85
188.753	1.88
188.973	85.84
189.192	186.19
189.412	3.93
189.631	10.07
189.851	73.56
190.07	110.42
190.29	-22.7
190.509	-57.51
190.729	24.4
190.948	200.53
191.168	290.64
191.387	63.32
191.607	98.13
191.826	59.22
192.045	51.03
192.265	38.74
192.484	51.03
192.704	63.32
192.923	-49.32
193.142	223.06
193.362	91.99
193.581	196.43
193.8	120.66
194.02	75.6
194.239	-8.36
194.458	48.98
194.678	18.26
194.897	-63.66
195.116	91.99
195.335	44.88
195.555	-2.22
195.774	-8.36
195.993	77.65
196.212	-24.75
196.432	44.88
196.651	20.31
196.87	30.55
197.089	239.44
197.308	14.17
197.528	118.61
197.747	-41.13
197.966	-0.17
198.185	114.52
198.404	-55.47
198.623	98.13
198.842	73.56
199.062	155.47
199.281	182.1
199.5	98.13
199.719	110.42
199.938	34.64
200.157	73.56
200.376	81.75
200.595	94.04
200.814	-0.17
201.033	34.64
201.252	104.28
201.471	40.79
201.69	75.6
201.909	16.21
202.128	51.03
202.347	128.85
202.566	18.26
202.785	-69.8
203.004	-24.75
203.223	200.53
203.442	40.79
203.661	10.07
203.879	36.69
204.098	48.98
204.317	-57.51
204.536	120.66
204.755	48.98
204.974	118.61
205.193	-12.46
205.411	114.52
205.63	48.98
205.849	-14.51
206.068	30.55
206.287	-28.84
206.505	114.52
206.724	-43.18
206.943	-10.41
207.162	12.12
207.381	44.88
207.599	40.79
207.818	3.93
208.037	-43.18
208.255	48.98
208.474	30.55
208.693	73.56
208.911	71.51
209.13	171.86
209.349	169.81
209.567	71.51
209.786	53.08
210.005	59.22
210.223	73.56
210.442	-88.23
210.661	32.6
210.879	28.5
211.098	24.4
211.316	96.08
211.535	91.99
211.753	69.46
211.972	44.88
212.191	42.84
212.409	81.75
212.628	51.03
212.846	12.12
213.065	79.7
213.283	91.99
213.502	3.93
213.72	-16.55
213.938	26.45
214.157	-10.41
214.375	167.76
214.594	-49.32
214.812	34.64
215.031	87.89
215.249	38.74
215.467	83.8
215.686	3.93
215.904	128.85
216.122	26.45
216.341	204.63
216.559	79.7
216.778	110.42
216.996	192.34
217.214	32.6
217.432	-34.99
217.651	1.88
217.869	-0.17
218.087	55.12
218.306	36.69
218.524	-28.84
218.742	59.22
218.96	87.89
219.179	-43.18
219.397	42.84
219.615	257.87
219.833	48.98
220.051	26.45
220.27	55.12
220.488	141.14
220.706	116.56
220.924	-18.6
221.142	-2.22
221.36	149.33
221.578	-43.18
221.796	12.12
222.015	12.12
222.233	18.26
222.451	159.57
222.669	-84.14
222.887	38.74
223.105	-45.23
223.323	42.84
223.541	12.12
223.759	16.21
223.977	30.55
224.195	147.28
224.413	53.08
224.631	38.74
224.849	89.94
225.067	233.3
225.285	-39.08
225.503	-2.22
225.721	-59.56
225.939	8.02
226.157	108.37
226.375	116.56
226.592	18.26
226.81	-12.46
227.028	118.61
227.246	87.89
227.464	-30.89
227.682	104.28
227.9	100.18
228.117	14.17
228.335	51.03
228.553	59.22
228.771	16.21
228.989	8.02
229.206	3.93
229.424	-45.23
229.642	36.69
229.86	-88.23
230.077	147.28
230.295	-32.94
230.513	108.37
230.731	75.6
230.948	184.15
231.166	180.05
231.384	42.84
231.601	-71.85
231.819	206.67
232.037	-10.41
232.254	22.36
232.472	-16.55
232.689	53.08
232.907	81.75
233.125	-30.89
233.342	5.97
233.56	57.17
233.777	-0.17
233.995	24.4
234.213	53.08
234.43	42.84
234.648	53.08
234.865	57.17
235.083	116.56
235.3	55.12
235.518	79.7
235.735	157.52
235.953	104.28
236.17	112.47
236.388	24.4
236.605	94.04
236.822	106.32
237.04	178
237.257	65.36
237.475	-12.46
237.692	40.79
237.909	34.64
238.127	24.4
238.344	61.27
238.562	38.74
238.779	-47.27
238.996	-22.7
239.214	38.74
239.431	94.04
239.648	-10.41
239.865	122.71
240.083	89.94
240.3	55.12
240.517	-45.23
240.735	-6.31
240.952	145.24
241.169	-22.7
241.386	-16.55
241.603	57.17
241.821	-16.55
242.038	139.09
242.255	114.52
242.472	-96.43
242.689	48.98
242.907	71.51
243.124	59.22
243.341	73.56
243.558	-30.89
243.775	-67.75
243.992	-82.09
244.209	110.42
244.426	120.66
244.643	18.26
244.86	24.4
245.078	100.18
245.295	-86.19
245.512	26.45
245.729	-26.79
245.946	94.04
246.163	20.31
246.38	51.03
246.597	63.32
246.814	28.5
247.031	34.64
247.248	28.5
247.464	116.56
247.681	32.6
247.898	132.95
248.115	-30.89
248.332	-30.89
248.549	87.89
248.766	149.33
248.983	110.42
249.2	57.17
249.417	79.7
249.633	-47.27
249.85	100.18
250.067	53.08
250.284	5.97
250.501	18.26
250.717	32.6
250.934	-32.94
251.151	79.7
251.368	-6.31
251.585	108.37
251.801	14.17
252.018	-8.36
252.235	159.57
252.451	-69.8
252.668	44.88
252.885	77.65
253.102	157.52
253.318	91.99
253.535	14.17
253.752	-61.61
253.968	-6.31
254.185	-69.8
254.401	28.5
254.618	30.55
254.835	30.55
255.051	65.36
255.268	96.08
255.484	38.74
255.701	40.79
255.917	28.5
256.134	-8.36
256.351	14.17
256.567	-94.38
256.784	65.36
257	-26.79
257.217	120.66
257.433	145.24
257.65	77.65
257.866	130.9
258.082	-69.8
258.299	10.07
258.515	85.84
258.732	38.74
258.948	-22.7
259.165	44.88
259.381	-77.99
259.597	108.37
259.814	98.13
260.03	-8.36
260.246	42.84
260.463	143.19
260.679	106.32
260.895	87.89
261.112	16.21
261.328	57.17
261.544	-20.65
261.761	118.61
261.977	-28.84
262.193	-28.84
262.409	114.52
262.626	67.41
262.842	44.88
263.058	12.12
263.274	26.45
263.49	12.12
263.707	94.04
263.923	46.93
264.139	-28.84
264.355	83.8
264.571	73.56
264.787	89.94
265.004	118.61
265.22	59.22
265.436	-69.8
265.652	-4.27
265.868	32.6
266.084	-10.41
266.3	38.74
266.516	-45.23
266.732	16.21
266.948	48.98
267.164	-24.75
267.38	112.47
267.596	63.32
267.812	245.59
268.028	85.84
268.244	-14.51
268.46	48.98
268.676	38.74
268.892	116.56
269.108	26.45
269.324	-121
269.54	-80.04
269.756	126.8
269.972	-10.41
270.188	18.26
270.403	-57.51
270.619	38.74
270.835	89.94
271.051	24.4
271.267	22.36
271.483	-43.18
271.698	10.07
271.914	77.65
272.13	57.17
272.346	-12.46
272.562	114.52
272.777	141.14
272.993	-10.41
273.209	22.36
273.425	67.41
273.64	-14.51
273.856	65.36
274.072	-34.99
274.287	-49.32
274.503	67.41
274.719	108.37
274.934	-51.37
275.15	-106.67
275.366	18.26
275.581	-8.36
275.797	-20.65
276.012	75.6
276.228	3.93
276.444	34.64
276.659	91.99
276.875	-39.08
277.09	42.84
277.306	48.98
277.521	110.42
277.737	42.84
277.952	130.9
278.168	108.37
278.383	34.64
278.599	24.4
278.814	87.89
279.03	-30.89
279.245	149.33
279.461	-34.99
279.676	137.04
279.892	-14.51
280.107	14.17
280.322	5.97
280.538	61.27
280.753	-41.13
280.969	61.27
281.184	40.79
281.399	108.37
281.615	69.46
281.83	83.8
282.045	-63.66
282.26	-14.51
282.476	38.74
282.691	104.28
282.906	79.7
283.122	24.4
283.337	-39.08
283.552	94.04
283.767	-2.22
283.983	48.98
284.198	67.41
284.413	28.5
284.628	-55.47
284.843	36.69
285.058	3.93
285.274	63.32
285.489	-4.27
285.704	42.84
285.919	-47.27
286.134	-24.75
286.349	128.85
286.564	-18.6
286.779	192.34
286.995	-14.51
287.21	-16.55
287.425	94.04
287.64	12.12
287.855	77.65
288.07	-69.8
288.285	98.13
288.5	143.19
288.715	89.94
288.93	-18.6
289.145	24.4
289.36	71.51
289.575	-47.27
289.79	61.27
290.004	59.22
290.219	57.17
290.434	-53.42
290.649	-47.27
290.864	36.69
291.079	30.55
291.294	57.17
291.509	46.93
291.724	-26.79
291.938	18.26
292.153	26.45
292.368	-14.51
292.583	83.8
292.798	48.98
293.012	32.6
293.227	126.8
293.442	5.97
293.657	91.99
293.871	108.37
294.086	102.23
294.301	143.19
294.516	98.13
294.73	63.32
294.945	-0.17
295.16	55.12
295.374	85.84
295.589	137.04
295.804	-2.22
296.018	-30.89
296.233	91.99
296.447	122.71
296.662	-100.52
296.877	141.14
297.091	53.08
297.306	75.6
297.52	-4.27
297.735	102.23
297.949	38.74
298.164	89.94
298.378	34.64
298.593	-34.99
298.807	16.21
299.022	-2.22
299.236	171.86
299.451	61.27
299.665	-20.65
299.88	69.46
300.094	67.41
300.309	44.88
300.523	8.02
300.737	8.02
300.952	91.99
301.166	110.42
301.381	57.17
301.595	-24.75
301.809	-43.18
302.024	40.79
302.238	20.31
302.452	102.23
302.667	-14.51
302.881	126.8
303.095	71.51
303.309	55.12
303.524	16.21
303.738	20.31
303.952	-20.65
304.166	48.98
304.381	-131.24
304.595	182.1
304.809	-41.13
305.023	128.85
305.237	-4.27
305.452	-10.41
305.666	114.52
305.88	118.61
306.094	98.13
306.308	34.64
306.522	75.6
306.736	100.18
306.95	110.42
307.164	65.36
307.379	-6.31
307.593	149.33
307.807	175.95
308.021	51.03
308.235	118.61
308.449	-71.85
308.663	75.6
308.877	212.82
309.091	46.93
309.305	108.37
309.519	-127.14
309.733	102.23
309.947	-26.79
310.161	71.51
310.374	55.12
310.588	141.14
310.802	-18.6
311.016	28.5
311.23	57.17
311.444	40.79
311.658	85.84
311.872	110.42
312.085	218.96
312.299	126.8
312.513	132.95
312.727	118.61
312.941	-12.46
313.154	98.13
313.368	44.88
313.582	28.5
313.796	20.31
314.009	10.07
314.223	157.52
314.437	124.76
314.651	157.52
314.864	-22.7
315.078	-0.17
315.292	-47.27
315.505	73.56
315.719	79.7
315.933	116.56
316.146	61.27
316.36	-121
316.573	102.23
316.787	42.84
317.001	24.4
317.214	-86.19
317.428	18.26
317.641	-41.13
317.855	53.08
318.068	36.69
318.282	55.12
318.495	237.39
318.709	40.79
318.922	32.6
319.136	139.09
319.349	169.81
319.563	-12.46
319.776	18.26
319.99	-28.84
320.203	96.08
320.417	53.08
320.63	102.23
320.843	135
321.057	57.17
321.27	14.17
321.483	36.69
321.697	147.28
321.91	14.17
322.124	122.71
322.337	48.98
322.55	-51.37
322.763	65.36
322.977	48.98
323.19	-55.47
323.403	-4.27
323.617	124.76
323.83	149.33
324.043	-43.18
324.256	51.03
324.469	-88.23
324.683	67.41
324.896	-16.55
325.109	104.28
325.322	-28.84
325.535	89.94
325.748	30.55
325.962	46.93
326.175	-6.31
326.388	36.69
326.601	132.95
326.814	110.42
327.027	-34.99
327.24	120.66
327.453	-30.89
327.666	63.32
327.879	110.42
328.092	38.74
328.305	96.08
328.518	18.26
328.731	-28.84
328.944	-8.36
329.157	-8.36
329.37	18.26
329.583	188.24
329.796	231.25
330.009	-96.43
330.222	44.88
330.435	28.5
330.648	77.65
330.861	83.8
331.073	59.22
331.286	151.38
331.499	10.07
331.712	12.12
331.925	75.6
332.138	48.98
332.35	112.47
332.563	30.55
332.776	91.99
332.989	-63.66
333.202	26.45
333.414	71.51
333.627	61.27
333.84	16.21
334.053	38.74
334.265	-98.47
334.478	8.02
334.691	26.45
334.903	40.79
335.116	-47.27
335.329	-12.46
335.541	61.27
335.754	132.95
335.966	-4.27
336.179	14.17
336.392	-22.7
336.604	38.74
336.817	208.72
337.029	28.5
337.242	100.18
337.454	34.64
337.667	-8.36
337.88	106.32
338.092	98.13
338.305	61.27
338.517	34.64
338.729	94.04
338.942	130.9
339.154	-12.46
339.367	-6.31
339.579	94.04
339.792	-34.99
340.004	114.52
340.217	26.45
340.429	83.8
340.641	-67.75
340.854	-55.47
341.066	12.12
341.278	151.38
341.491	188.24
341.703	71.51
341.915	-22.7
342.128	48.98
342.34	79.7
342.552	24.4
342.764	1.88
342.977	42.84
343.189	55.12
343.401	102.23
343.613	-37.03
343.826	3.93
344.038	-90.28
344.25	20.31
344.462	-41.13
344.674	-4.27
344.886	-16.55
345.099	34.64
345.311	124.76
345.523	32.6
345.735	-61.61
345.947	8.02
346.159	112.47
346.371	14.17
346.583	-0.17
346.795	229.2
347.007	-82.09
347.219	59.22
347.431	-14.51
347.643	100.18
347.855	120.66
348.067	77.65
348.279	-104.62
348.491	79.7
348.703	85.84
348.915	-12.46
349.127	-43.18
349.339	-4.27
349.551	71.51
349.763	65.36
349.975	79.7
350.187	94.04
350.399	53.08
350.61	46.93
350.822	-18.6
351.034	102.23
351.246	98.13
351.458	61.27
351.669	91.99
351.881	63.32
352.093	116.56
352.305	57.17
352.517	79.7
352.728	145.24
352.94	57.17
353.152	110.42
353.363	-30.89
353.575	69.46
353.787	247.63
353.999	83.8
354.21	116.56
354.422	-18.6
354.633	-22.7
354.845	-14.51
355.057	42.84
355.268	3.93
355.48	85.84
355.692	-82.09
355.903	18.26
356.115	42.84
356.326	-80.04
356.538	69.46
356.749	75.6
356.961	153.43
357.172	-4.27
357.384	-57.51
357.595	223.06
357.807	36.69
358.018	-4.27
358.23	104.28
358.441	198.48
358.653	42.84
358.864	69.46
359.075	-12.46
359.287	14.17
359.498	106.32
359.709	55.12
359.921	79.7
360.132	-37.03
360.344	-37.03
360.555	-55.47
360.766	98.13
360.977	59.22
361.189	173.91
361.4	10.07
361.611	139.09
361.823	83.8
362.034	77.65
362.245	-82.09
362.456	-10.41
362.667	44.88
362.879	-14.51
363.09	102.23
363.301	-10.41
363.512	28.5
363.723	-98.47
363.935	63.32
364.146	51.03
364.357	59.22
364.568	42.84
364.779	-26.79
364.99	151.38
365.201	32.6
365.412	77.65
365.623	-45.23
365.834	57.17
366.045	-22.7
366.256	126.8
366.467	100.18
366.678	102.23
366.889	83.8
367.1	20.31
367.311	145.24
367.522	-12.46
367.733	141.14
367.944	71.51
368.155	-34.99
368.366	40.79
368.577	104.28
368.788	122.71
368.999	-18.6
369.209	57.17
369.42	161.62
369.631	188.24
369.842	165.71
370.053	20.31
370.264	106.32
370.474	-45.23
370.685	91.99
370.896	36.69
371.107	81.75
371.317	36.69
371.528	42.84
371.739	120.66
371.95	20.31
372.16	20.31
372.371	-41.13
372.582	-8.36
372.792	53.08
373.003	63.32
373.214	79.7
373.424	128.85
373.635	10.07
373.846	118.61
374.056	-14.51
374.267	141.14
374.477	48.98
374.688	-43.18
374.898	87.89
375.109	79.7
375.319	53.08
375.53	137.04
375.74	112.47
375.951	-47.27
376.161	46.93
376.372	122.71
376.582	48.98
376.793	32.6
377.003	51.03
377.214	32.6
377.424	36.69
377.635	87.89
377.845	36.69
378.055	135
378.266	3.93
378.476	-67.75
378.686	114.52
378.897	5.97
379.107	120.66
379.317	91.99
379.528	32.6
379.738	28.5
379.948	-22.7
380.158	98.13
380.369	57.17
380.579	75.6
380.789	63.32
380.999	112.47
381.21	71.51
381.42	112.47
381.63	77.65
381.84	89.94
382.05	75.6
382.261	96.08
382.471	130.9
382.681	-22.7
382.891	200.53
383.101	112.47
383.311	-55.47
383.521	-69.8
383.731	87.89
383.941	63.32
384.151	61.27
384.361	63.32
384.571	-6.31
384.781	-45.23
384.991	141.14
385.201	155.47
385.411	83.8
385.621	71.51
385.831	46.93
386.041	75.6
386.251	-39.08
386.461	137.04
386.671	-20.65
386.881	16.21
387.091	1.88
387.301	20.31
387.511	14.17
387.72	71.51
387.93	110.42
388.14	-37.03
388.35	40.79
388.56	139.09
388.769	114.52
388.979	53.08
389.189	16.21
389.399	20.31
389.609	63.32
389.818	194.39
390.028	75.6
390.238	67.41
390.447	-63.66
390.657	108.37
390.867	-2.22
391.076	-102.57
391.286	71.51
391.496	-45.23
391.705	65.36
391.915	94.04
392.125	104.28
392.334	-0.17
392.544	106.32
392.753	112.47
392.963	12.12
393.172	-30.89
393.382	28.5
393.591	145.24
393.801	-34.99
394.01	130.9
394.22	114.52
394.429	55.12
394.639	-26.79
394.848	75.6
395.058	128.85
395.267	22.36
395.477	40.79
395.686	85.84
395.895	214.87
396.105	147.28
396.314	34.64
396.524	46.93
396.733	63.32
396.942	112.47
397.152	69.46
397.361	57.17
397.57	104.28
397.78	14.17
397.989	83.8
398.198	249.68
398.407	10.07
398.617	53.08
398.826	-6.31
399.035	46.93
399.244	102.23
399.453	3.93
399.663	77.65
399.872	36.69
400.081	-18.6
400.29	124.76
400.499	-47.27
400.708	118.61
400.917	-10.41
401.127	26.45
401.336	-14.51
401.545	135
401.754	116.56
401.963	130.9
402.172	38.74
402.381	-14.51
402.59	55.12
402.799	42.84
403.008	75.6
403.217	63.32
403.426	8.02
403.635	-6.31
403.844	137.04
404.053	38.74
404.262	73.56
404.471	120.66
404.68	96.08
404.888	-47.27
405.097	141.14
405.306	22.36
405.515	83.8
405.724	77.65
405.933	65.36
406.142	139.09
406.35	200.53
406.559	-51.37
406.768	-2.22
406.977	145.24
407.185	81.75
407.394	79.7
407.603	-0.17
407.812	157.52
408.02	120.66
408.229	44.88
408.438	71.51
408.646	10.07
408.855	36.69
409.064	-45.23
409.272	28.5
409.481	69.46
409.69	26.45
409.898	-41.13
410.107	167.76
410.315	24.4
410.524	-51.37
410.733	40.79
410.941	-71.85
411.15	59.22
411.358	65.36
411.567	182.1
411.775	48.98
411.984	51.03
412.192	110.42
412.401	-12.46
412.609	221.01
412.818	104.28
413.026	-8.36
413.234	126.8
413.443	77.65
413.651	-4.27
413.86	32.6
414.068	198.48
414.276	98.13
414.485	-67.75
414.693	155.47
414.901	210.77
415.11	38.74
415.318	-4.27
415.526	26.45
415.734	112.47
415.943	-20.65
416.151	167.76
416.359	3.93
416.567	135
416.776	73.56
416.984	106.32
417.192	116.56
417.4	38.74
417.608	61.27
417.817	30.55
418.025	130.9
418.233	151.38
418.441	-0.17
418.649	-24.75
418.857	83.8
419.065	139.09
419.273	-12.46
419.481	34.64
419.689	94.04
419.897	-12.46
420.105	-4.27
420.313	139.09
420.521	114.52
420.729	96.08
420.937	40.79
421.145	-14.51
421.353	83.8
421.561	116.56
421.769	57.17
421.977	14.17
422.185	98.13
422.393	32.6
422.601	26.45
422.809	126.8
423.017	83.8
423.224	83.8
423.432	114.52
423.64	38.74
423.848	161.62
424.056	-12.46
424.263	114.52
424.471	48.98
424.679	200.53
424.887	12.12
425.094	124.76
425.302	55.12
425.51	48.98
425.718	216.91
425.925	112.47
426.133	1.88
426.341	225.11
426.548	55.12
426.756	34.64
426.964	77.65
427.171	3.93
427.379	87.89
427.586	67.41
427.794	202.58
428.001	104.28
428.209	128.85
428.417	112.47
428.624	130.9
428.832	143.19
429.039	94.04
429.247	118.61
429.454	73.56
429.662	147.28
429.869	108.37
430.076	110.42
430.284	77.65
430.491	126.8
430.699	173.91
430.906	221.01
431.114	65.36
431.321	120.66
431.528	126.8
431.736	130.9
431.943	44.88
432.15	182.1
432.358	112.47
432.565	137.04
432.772	34.64
432.979	169.81
433.187	159.57
433.394	159.57
433.601	124.76
433.808	157.52
434.016	296.78
434.223	241.49
434.43	161.62
434.637	270.16
434.844	225.11
435.052	208.72
435.259	249.68
435.466	178
435.673	182.1
435.88	264.02
436.087	268.11
436.294	356.18
436.501	206.67
436.708	288.59
436.915	208.72
437.122	335.7
437.329	141.14
437.537	245.59
437.743	325.46
437.95	403.28
438.157	309.07
438.364	302.93
438.571	354.13
438.778	403.28
438.985	411.47
439.192	393.04
439.399	347.98
439.606	333.65
439.813	419.66
440.02	577.36
440.227	614.22
440.433	413.52
440.64	444.24
440.847	436.05
441.054	505.68
441.261	628.56
441.467	485.2
441.674	503.63
441.881	683.85
442.088	540.49
442.294	599.88
442.501	653.13
442.708	739.15
442.914	579.4
443.121	761.67
443.328	700.23
443.534	806.73
443.741	839.5
443.948	706.38
444.154	935.75
444.361	1052.49
444.568	792.39
444.774	872.26
444.981	745.29
445.187	1056.58
445.394	1021.77
445.6	970.57
445.807	1091.4
446.013	1075.01
446.22	976.71
446.426	1161.03
446.633	1300.29
446.839	1544
447.046	1191.75
447.252	1343.3
447.459	1402.69
447.665	1382.21
447.871	1457.98
448.078	1668.92
448.284	1531.71
448.491	1775.42
448.697	1818.43
448.903	1869.62
449.11	1892.15
449.316	1877.82
449.522	2021.17
449.728	1967.93
449.935	2195.25
450.141	2293.55
450.347	2268.98
450.553	2363.19
450.76	2471.73
450.966	2586.41
451.172	2563.89
451.378	2813.74
451.584	2707.24
451.791	3030.82
451.997	3084.07
452.203	3082.02
452.409	3188.52
452.615	3303.2
452.821	3225.38
453.027	3282.72
453.233	3694.36
453.44	3518.24
453.646	3774.24
453.852	4120.34
454.058	4216.6
454.264	4132.63
454.47	4503.31
454.676	4509.46
454.882	4941.58
455.088	4736.78
455.294	5015.3
455.5	5418.75
455.705	5725.95
455.911	5576.45
456.117	5699.33
456.323	5961.47
456.529	5983.99
456.735	6438.64
456.941	6651.63
457.147	6870.76
457.352	7030.51
457.558	7362.28
457.764	7757.53
457.97	8085.21
458.176	8224.47
458.381	8564.43
458.587	8691.41
458.793	9316.04
458.999	9285.32
459.204	10485.43
459.41	10669.75
459.616	10559.16
459.821	11380.39
460.027	11832.99
460.233	12340.89
460.438	12347.03
460.644	12963.47
460.85	13227.66
461.055	13522.57
461.261	14337.66
461.466	14132.86
461.672	14294.65
461.878	15869.54
462.083	15963.75
462.289	15875.68
462.494	16672.34
462.7	17002.07
462.905	17126.99
463.111	18550.33
463.316	19179.06
463.522	19607.08
463.727	20481.56
463.932	21280.27
464.138	21904.9
464.343	22797.82
464.549	23191.03
464.754	24452.58
464.959	25228.76
465.165	25490.9
465.37	25357.78
465.575	25759.18
465.781	27221.43
465.986	27989.42
466.191	27794.86
466.397	28157.35
466.602	27321.78
466.807	28878.24
467.012	29013.4
467.218	29756.82
467.423	29953.42
467.628	30725.5
467.833	32515.43
468.038	31354.23
468.244	30965.12
468.449	32816.48
