Data from USB4F104151__23__10-42-01-485.txt Node

Date: Wed Feb 26 10:42:01 EST 2025
User: louis
Spectrometer: USB4F10415
Trigger mode: 4
Integration Time (sec): 1.000000E-1
Scans to average: 1
Electric dark correction enabled: true
Nonlinearity correction enabled: false
Boxcar width: 0
XAxis mode: Wavelengths
Number of Pixels in Spectrum: 3648
>>>>>Begin Spectral Data<<<<<
178.204	-455.84
178.424	-455.84
178.644	-455.84
178.864	-314.53
179.084	-406.69
179.304	-68.78
179.524	-48.3
179.744	-21.67
179.964	84.82
180.184	47.96
180.404	11.09
180.624	-23.72
180.844	21.33
181.064	-1.19
181.283	56.15
181.503	-93.35
181.723	35.67
181.943	-48.3
182.163	203.6
182.383	-29.87
182.602	60.24
182.822	158.55
183.042	107.35
183.262	-58.54
183.482	33.62
183.701	45.91
183.921	13.14
184.141	-72.87
184.361	62.29
184.58	93.01
184.8	66.39
185.02	4.95
185.239	101.2
185.459	31.57
185.679	133.97
185.898	-50.35
186.118	58.2
186.338	62.29
186.557	162.64
186.777	17.24
186.997	60.24
187.216	23.38
187.436	201.55
187.655	86.87
187.875	136.02
188.095	41.81
188.314	138.07
188.534	201.55
188.753	-58.54
188.973	107.35
189.192	193.36
189.412	25.43
189.631	23.38
189.851	29.52
190.07	136.02
190.29	-23.72
190.509	17.24
190.729	43.86
190.948	109.4
191.168	275.28
191.387	25.43
191.607	23.38
191.826	72.53
192.045	25.43
192.265	19.29
192.484	64.34
192.704	27.48
192.923	-50.35
193.142	213.84
193.362	154.45
193.581	117.59
193.8	60.24
194.02	62.29
194.239	19.29
194.458	90.96
194.678	-5.29
194.897	-23.72
195.116	70.48
195.335	43.86
195.555	47.96
195.774	-23.72
195.993	86.87
196.212	60.24
196.432	-50.35
196.651	11.09
196.87	39.76
197.089	250.71
197.308	52.05
197.528	58.2
197.747	29.52
197.966	-23.72
198.185	146.26
198.404	19.29
198.623	95.06
198.842	158.55
199.062	47.96
199.281	82.77
199.5	78.68
199.719	43.86
199.938	-7.34
200.157	133.97
200.376	97.11
200.595	80.72
200.814	66.39
201.033	17.24
201.252	174.93
201.471	21.33
201.69	64.34
201.909	11.09
202.128	113.49
202.347	107.35
202.566	60.24
202.785	-21.67
203.004	9.05
203.223	213.84
203.442	88.92
203.661	-19.63
203.879	70.48
204.098	164.69
204.317	-21.67
204.536	109.4
204.755	86.87
204.974	115.54
205.193	15.19
205.411	172.88
205.63	131.92
205.849	25.43
206.068	25.43
206.287	-21.67
206.505	211.79
206.724	41.81
206.943	9.05
207.162	21.33
207.381	76.63
207.599	21.33
207.818	66.39
208.037	-36.01
208.255	115.54
208.474	129.88
208.693	52.05
208.911	99.16
209.13	74.58
209.349	60.24
209.567	86.87
209.786	131.92
210.005	115.54
210.223	90.96
210.442	-58.54
210.661	13.14
210.879	142.16
211.098	19.29
211.316	-19.63
211.535	146.26
211.753	23.38
211.972	29.52
212.191	-11.43
212.409	54.1
212.628	119.64
212.846	-29.87
213.065	52.05
213.283	125.78
213.502	-38.06
213.72	109.4
213.938	33.62
214.157	80.72
214.375	82.77
214.594	27.48
214.812	25.43
215.031	47.96
215.249	99.16
215.467	107.35
215.686	64.34
215.904	64.34
216.122	88.92
216.341	172.88
216.559	99.16
216.778	52.05
216.996	195.41
217.214	99.16
217.432	4.95
217.651	11.09
217.869	25.43
218.087	95.06
218.306	9.05
218.524	117.59
218.742	93.01
218.96	50
219.179	74.58
219.397	37.72
219.615	256.85
219.833	185.17
220.051	-7.34
220.27	174.93
220.488	136.02
220.706	97.11
220.924	-13.48
221.142	-36.01
221.36	9.05
221.578	97.11
221.796	64.34
222.015	70.48
222.233	29.52
222.451	230.23
222.669	-42.15
222.887	76.63
223.105	31.57
223.323	62.29
223.541	-7.34
223.759	146.26
223.977	105.3
224.195	162.64
224.413	37.72
224.631	66.39
224.849	70.48
225.067	299.86
225.285	54.1
225.503	97.11
225.721	-54.44
225.939	123.73
226.157	35.67
226.375	238.42
226.592	4.95
226.81	-25.77
227.028	90.96
227.246	168.79
227.464	109.4
227.682	54.1
227.9	156.5
228.117	74.58
228.335	117.59
228.553	62.29
228.771	95.06
228.989	66.39
229.206	86.87
229.424	-11.43
229.642	37.72
229.86	-31.91
230.077	193.36
230.295	162.64
230.513	109.4
230.731	68.44
230.948	197.46
231.166	162.64
231.384	19.29
231.601	2.9
231.819	205.65
232.037	-11.43
232.254	-44.2
232.472	-3.24
232.689	33.62
232.907	127.83
233.125	50
233.342	-46.25
233.56	-58.54
233.777	17.24
233.995	82.77
234.213	27.48
234.43	62.29
234.648	78.68
234.865	43.86
235.083	119.64
235.3	31.57
235.518	113.49
235.735	189.27
235.953	68.44
236.17	35.67
236.388	13.14
236.605	52.05
236.822	113.49
237.04	172.88
237.257	93.01
237.475	-15.53
237.692	84.82
237.909	52.05
238.127	78.68
238.344	52.05
238.562	41.81
238.779	-36.01
238.996	68.44
239.214	129.88
239.431	72.53
239.648	2.9
239.865	93.01
240.083	99.16
240.3	-19.63
240.517	70.48
240.735	-1.19
240.952	133.97
241.169	56.15
241.386	95.06
241.603	70.48
241.821	-91.31
242.038	152.4
242.255	90.96
242.472	21.33
242.689	103.25
242.907	31.57
243.124	27.48
243.341	86.87
243.558	21.33
243.775	15.19
243.992	0.85
244.209	64.34
244.426	142.16
244.643	103.25
244.86	31.57
245.078	138.07
245.295	33.62
245.512	25.43
245.729	-38.06
245.946	152.4
246.163	99.16
246.38	37.72
246.597	47.96
246.814	35.67
247.031	140.12
247.248	125.78
247.464	121.68
247.681	101.2
247.898	88.92
248.115	133.97
248.332	52.05
248.549	160.59
248.766	174.93
248.983	78.68
249.2	115.54
249.417	131.92
249.633	-21.67
249.85	117.59
250.067	-23.72
250.284	111.44
250.501	101.2
250.717	162.64
250.934	54.1
251.151	84.82
251.368	64.34
251.585	31.57
251.801	29.52
252.018	-58.54
252.235	176.98
252.451	21.33
252.668	66.39
252.885	133.97
253.102	76.63
253.318	17.24
253.535	-40.11
253.752	27.48
253.968	39.76
254.185	-42.15
254.401	68.44
254.618	93.01
254.835	21.33
255.051	121.68
255.268	82.77
255.484	33.62
255.701	113.49
255.917	172.88
256.134	4.95
256.351	33.62
256.567	-23.72
256.784	68.44
257	-9.39
257.217	62.29
257.433	136.02
257.65	47.96
257.866	154.45
258.082	-40.11
258.299	17.24
258.515	45.91
258.732	4.95
258.948	21.33
259.165	72.53
259.381	-46.25
259.597	41.81
259.814	88.92
260.03	50
260.246	60.24
260.463	154.45
260.679	115.54
260.895	25.43
261.112	68.44
261.328	-3.24
261.544	-60.59
261.761	168.79
261.977	54.1
262.193	41.81
262.409	162.64
262.626	11.09
262.842	160.59
263.058	-31.91
263.274	105.3
263.49	131.92
263.707	164.69
263.923	7
264.139	-25.77
264.355	60.24
264.571	156.5
264.787	138.07
265.004	144.21
265.22	31.57
265.436	9.05
265.652	41.81
265.868	123.73
266.084	0.85
266.3	72.53
266.516	9.05
266.732	142.16
266.948	39.76
267.164	158.55
267.38	176.98
267.596	129.88
267.812	222.03
268.028	66.39
268.244	-11.43
268.46	95.06
268.676	0.85
268.892	-3.24
269.108	35.67
269.324	29.52
269.54	76.63
269.756	68.44
269.972	-56.49
270.188	131.92
270.403	17.24
270.619	4.95
270.835	152.4
271.051	101.2
271.267	29.52
271.483	-3.24
271.698	66.39
271.914	129.88
272.13	43.86
272.346	-23.72
272.562	101.2
272.777	133.97
272.993	58.2
273.209	-48.3
273.425	66.39
273.64	-107.69
273.856	103.25
274.072	43.86
274.287	93.01
274.503	76.63
274.719	156.5
274.934	0.85
275.15	-44.2
275.366	31.57
275.581	41.81
275.797	45.91
276.012	105.3
276.228	70.48
276.444	37.72
276.659	179.03
276.875	35.67
277.09	62.29
277.306	19.29
277.521	103.25
277.737	54.1
277.952	119.64
278.168	27.48
278.383	129.88
278.599	84.82
278.814	31.57
279.03	127.83
279.245	215.89
279.461	7
279.676	117.59
279.892	-40.11
280.107	-3.24
280.322	-105.64
280.538	144.21
280.753	11.09
280.969	117.59
281.184	13.14
281.399	138.07
281.615	64.34
281.83	23.38
282.045	-17.58
282.26	31.57
282.476	56.15
282.691	131.92
282.906	93.01
283.122	84.82
283.337	-68.78
283.552	101.2
283.767	-3.24
283.983	111.44
284.198	88.92
284.413	95.06
284.628	-31.91
284.843	35.67
285.058	144.21
285.274	11.09
285.489	-48.3
285.704	84.82
285.919	54.1
286.134	17.24
286.349	56.15
286.564	-7.34
286.779	174.93
286.995	-1.19
287.21	-50.35
287.425	119.64
287.64	-13.48
287.855	129.88
288.07	27.48
288.285	66.39
288.5	119.64
288.715	164.69
288.93	15.19
289.145	35.67
289.36	27.48
289.575	62.29
289.79	174.93
290.004	66.39
290.219	82.77
290.434	-5.29
290.649	-17.58
290.864	39.76
291.079	60.24
291.294	101.2
291.509	17.24
291.724	-40.11
291.938	60.24
292.153	117.59
292.368	58.2
292.583	45.91
292.798	35.67
293.012	144.21
293.227	33.62
293.442	17.24
293.657	152.4
293.871	172.88
294.086	70.48
294.301	123.73
294.516	129.88
294.73	111.44
294.945	-44.2
295.16	50
295.374	119.64
295.589	152.4
295.804	41.81
296.018	99.16
296.233	117.59
296.447	174.93
296.662	62.29
296.877	150.36
297.091	101.2
297.306	37.72
297.52	-44.2
297.735	121.68
297.949	93.01
298.164	70.48
298.378	82.77
298.593	60.24
298.807	41.81
299.022	101.2
299.236	99.16
299.451	52.05
299.665	2.9
299.88	74.58
300.094	2.9
300.309	78.68
300.523	82.77
300.737	33.62
300.952	54.1
301.166	43.86
301.381	-76.97
301.595	-13.48
301.809	78.68
302.024	19.29
302.238	39.76
302.452	160.59
302.667	13.14
302.881	166.74
303.095	54.1
303.309	17.24
303.524	33.62
303.738	37.72
303.952	13.14
304.166	64.34
304.381	11.09
304.595	150.36
304.809	70.48
305.023	107.35
305.237	-60.59
305.452	33.62
305.666	168.79
305.88	95.06
306.094	138.07
306.308	78.68
306.522	103.25
306.736	109.4
306.95	119.64
307.164	93.01
307.379	-11.43
307.593	222.03
307.807	146.26
308.021	76.63
308.235	31.57
308.449	-13.48
308.663	9.05
308.877	201.55
309.091	54.1
309.305	99.16
309.519	-107.69
309.733	162.64
309.947	4.95
310.161	76.63
310.374	105.3
310.588	142.16
310.802	-74.92
311.016	0.85
311.23	78.68
311.444	47.96
311.658	70.48
311.872	150.36
312.085	164.69
312.299	172.88
312.513	160.59
312.727	107.35
312.941	-11.43
313.154	56.15
313.368	84.82
313.582	82.77
313.796	144.21
314.009	86.87
314.223	158.55
314.437	54.1
314.651	88.92
314.864	64.34
315.078	-76.97
315.292	-1.19
315.505	47.96
315.719	54.1
315.933	95.06
316.146	37.72
316.36	-13.48
316.573	107.35
316.787	95.06
317.001	127.83
317.214	9.05
317.428	156.5
317.641	-52.39
317.855	64.34
318.068	66.39
318.282	82.77
318.495	240.47
318.709	142.16
318.922	-31.91
319.136	150.36
319.349	113.49
319.563	13.14
319.776	74.58
319.99	-85.16
320.203	133.97
320.417	39.76
320.63	74.58
320.843	150.36
321.057	35.67
321.27	50
321.483	37.72
321.697	158.55
321.91	76.63
322.124	107.35
322.337	103.25
322.55	50
322.763	107.35
322.977	37.72
323.19	15.19
323.403	166.74
323.617	107.35
323.83	162.64
324.043	-5.29
324.256	58.2
324.469	-11.43
324.683	193.36
324.896	74.58
325.109	4.95
325.322	-62.63
325.535	90.96
325.748	115.54
325.962	-15.53
326.175	117.59
326.388	76.63
326.601	142.16
326.814	82.77
327.027	103.25
327.24	93.01
327.453	-48.3
327.666	88.92
327.879	152.4
328.092	129.88
328.305	107.35
328.518	60.24
328.731	66.39
328.944	133.97
329.157	80.72
329.37	74.58
329.583	123.73
329.796	230.23
330.009	39.76
330.222	54.1
330.435	144.21
330.648	93.01
330.861	131.92
331.073	-3.24
331.286	119.64
331.499	86.87
331.712	11.09
331.925	25.43
332.138	115.54
332.35	78.68
332.563	52.05
332.776	168.79
332.989	39.76
333.202	74.58
333.414	-23.72
333.627	4.95
333.84	15.19
334.053	47.96
334.265	-74.92
334.478	-50.35
334.691	52.05
334.903	109.4
335.116	-58.54
335.329	45.91
335.541	62.29
335.754	66.39
335.966	7
336.179	70.48
336.392	-33.96
336.604	54.1
336.817	70.48
337.029	74.58
337.242	58.2
337.454	133.97
337.667	76.63
337.88	140.12
338.092	107.35
338.305	117.59
338.517	-76.97
338.729	144.21
338.942	148.31
339.154	-19.63
339.367	9.05
339.579	115.54
339.792	27.48
340.004	88.92
340.217	95.06
340.429	148.31
340.641	-29.87
340.854	0.85
341.066	93.01
341.278	168.79
341.491	170.83
341.703	58.2
341.915	-33.96
342.128	136.02
342.34	119.64
342.552	-13.48
342.764	90.96
342.977	66.39
343.189	131.92
343.401	52.05
343.613	-60.59
343.826	43.86
344.038	33.62
344.25	82.77
344.462	13.14
344.674	95.06
344.886	43.86
345.099	76.63
345.311	45.91
345.523	17.24
345.735	23.38
345.947	64.34
346.159	64.34
346.371	-1.19
346.583	-11.43
346.795	150.36
347.007	50
347.219	43.86
347.431	101.2
347.643	170.83
347.855	13.14
348.067	142.16
348.279	-15.53
348.491	70.48
348.703	80.72
348.915	-25.77
349.127	11.09
349.339	82.77
349.551	-7.34
349.763	113.49
349.975	39.76
350.187	103.25
350.399	119.64
350.61	82.77
350.822	9.05
351.034	125.78
351.246	80.72
351.458	50
351.669	140.12
351.881	119.64
352.093	125.78
352.305	111.44
352.517	82.77
352.728	144.21
352.94	78.68
353.152	123.73
353.363	-27.82
353.575	148.31
353.787	187.22
353.999	60.24
354.21	226.13
354.422	-36.01
354.633	52.05
354.845	117.59
355.057	31.57
355.268	64.34
355.48	86.87
355.692	-29.87
355.903	84.82
356.115	-23.72
356.326	-40.11
356.538	113.49
356.749	185.17
356.961	113.49
357.172	72.53
357.384	-3.24
357.595	158.55
357.807	-31.91
358.018	60.24
358.23	39.76
358.441	183.12
358.653	111.44
358.864	17.24
359.075	-48.3
359.287	47.96
359.498	160.59
359.709	136.02
359.921	52.05
360.132	47.96
360.344	43.86
360.555	58.2
360.766	146.26
360.977	103.25
361.189	88.92
361.4	72.53
361.611	127.83
361.823	107.35
362.034	97.11
362.245	-7.34
362.456	58.2
362.667	115.54
362.879	13.14
363.09	148.31
363.301	17.24
363.512	90.96
363.723	9.05
363.935	0.85
364.146	31.57
364.357	9.05
364.568	99.16
364.779	-38.06
364.99	226.13
365.201	62.29
365.412	123.73
365.623	-1.19
365.834	68.44
366.045	27.48
366.256	66.39
366.467	142.16
366.678	107.35
366.889	27.48
367.1	131.92
367.311	140.12
367.522	31.57
367.733	68.44
367.944	125.78
368.155	-21.67
368.366	148.31
368.577	62.29
368.788	52.05
368.999	31.57
369.209	131.92
369.42	156.5
369.631	256.85
369.842	82.77
370.053	47.96
370.264	68.44
370.474	50
370.685	93.01
370.896	25.43
371.107	111.44
371.317	131.92
371.528	80.72
371.739	111.44
371.95	119.64
372.16	70.48
372.371	-23.72
372.582	45.91
372.792	74.58
373.003	66.39
373.214	35.67
373.424	125.78
373.635	7
373.846	97.11
374.056	15.19
374.267	127.83
374.477	31.57
374.688	-29.87
374.898	41.81
375.109	-15.53
375.319	39.76
375.53	191.31
375.74	113.49
375.951	2.9
376.161	129.88
376.372	179.03
376.582	-19.63
376.793	136.02
377.003	33.62
377.214	50
377.424	45.91
377.635	129.88
377.845	17.24
378.055	176.98
378.266	-40.11
378.476	43.86
378.686	152.4
378.897	105.3
379.107	103.25
379.317	84.82
379.528	13.14
379.738	176.98
379.948	-27.82
380.158	93.01
380.369	4.95
380.579	146.26
380.789	99.16
380.999	15.19
381.21	119.64
381.42	187.22
381.63	21.33
381.84	111.44
382.05	93.01
382.261	101.2
382.471	215.89
382.681	-9.39
382.891	160.59
383.101	111.44
383.311	-15.53
383.521	11.09
383.731	146.26
383.941	117.59
384.151	90.96
384.361	-13.48
384.571	105.3
384.781	109.4
384.991	170.83
385.201	193.36
385.411	203.6
385.621	90.96
385.831	107.35
386.041	95.06
386.251	58.2
386.461	185.17
386.671	27.48
386.881	74.58
387.091	68.44
387.301	115.54
387.511	62.29
387.72	152.4
387.93	125.78
388.14	-58.54
388.35	82.77
388.56	129.88
388.769	160.59
388.979	39.76
389.189	-7.34
389.399	82.77
389.609	39.76
389.818	84.82
390.028	95.06
390.238	154.45
390.447	-27.82
390.657	56.15
390.867	58.2
391.076	-64.68
391.286	4.95
391.496	35.67
391.705	43.86
391.915	133.97
392.125	146.26
392.334	43.86
392.544	176.98
392.753	90.96
392.963	47.96
393.172	174.93
393.382	95.06
393.591	232.27
393.801	29.52
394.01	232.27
394.22	86.87
394.429	66.39
394.639	66.39
394.848	131.92
395.058	62.29
395.267	131.92
395.477	74.58
395.686	78.68
395.895	181.07
396.105	260.95
396.314	150.36
396.524	11.09
396.733	52.05
396.942	170.83
397.152	70.48
397.361	146.26
397.57	78.68
397.78	121.68
397.989	90.96
398.198	226.13
398.407	21.33
398.617	33.62
398.826	115.54
399.035	-56.49
399.244	138.07
399.453	80.72
399.663	86.87
399.872	160.59
400.081	21.33
400.29	191.31
400.499	25.43
400.708	76.63
400.917	37.72
401.127	-29.87
401.336	47.96
401.545	242.51
401.754	158.55
401.963	138.07
402.172	76.63
402.381	33.62
402.59	31.57
402.799	80.72
403.008	215.89
403.217	93.01
403.426	84.82
403.635	0.85
403.844	113.49
404.053	29.52
404.262	82.77
404.471	189.27
404.68	74.58
404.888	23.38
405.097	144.21
405.306	97.11
405.515	140.12
405.724	88.92
405.933	144.21
406.142	146.26
406.35	148.31
406.559	0.85
406.768	88.92
406.977	156.5
407.185	148.31
407.394	66.39
407.603	-15.53
407.812	62.29
408.02	166.74
408.229	25.43
408.438	185.17
408.646	-29.87
408.855	70.48
409.064	125.78
409.272	72.53
409.481	47.96
409.69	19.29
409.898	-19.63
410.107	109.4
410.315	115.54
410.524	35.67
410.733	74.58
410.941	158.55
411.15	121.68
411.358	129.88
411.567	183.12
411.775	109.4
411.984	37.72
412.192	103.25
412.401	31.57
412.609	181.07
412.818	201.55
413.026	93.01
413.234	64.34
413.443	25.43
413.651	-60.59
413.86	58.2
414.068	189.27
414.276	174.93
414.485	35.67
414.693	219.99
414.901	168.79
415.11	142.16
415.318	68.44
415.526	86.87
415.734	103.25
415.943	17.24
416.151	154.45
416.359	68.44
416.567	125.78
416.776	88.92
416.984	123.73
417.192	136.02
417.4	97.11
417.608	62.29
417.817	56.15
418.025	181.07
418.233	170.83
418.441	45.91
418.649	-7.34
418.857	121.68
419.065	76.63
419.273	62.29
419.481	133.97
419.689	25.43
419.897	15.19
420.105	43.86
420.313	236.37
420.521	187.22
420.729	222.03
420.937	-17.58
421.145	2.9
421.353	150.36
421.561	248.66
421.769	158.55
421.977	0.85
422.185	84.82
422.393	66.39
422.601	138.07
422.809	150.36
423.017	107.35
423.224	174.93
423.432	211.79
423.64	113.49
423.848	250.71
424.056	27.48
424.263	248.66
424.471	111.44
424.679	215.89
424.887	4.95
425.094	195.41
425.302	109.4
425.51	68.44
425.718	125.78
425.925	90.96
426.133	45.91
426.341	240.47
426.548	119.64
426.756	88.92
426.964	84.82
427.171	117.59
427.379	111.44
427.586	82.77
427.794	166.74
428.001	133.97
428.209	101.2
428.417	185.17
428.624	174.93
428.832	168.79
429.039	172.88
429.247	80.72
429.454	174.93
429.662	211.79
429.869	187.22
430.076	185.17
430.284	183.12
430.491	265.04
430.699	279.38
430.906	250.71
431.114	156.5
431.321	222.03
431.528	187.22
431.736	174.93
431.943	222.03
432.15	224.08
432.358	312.14
432.565	301.9
432.772	105.3
432.979	312.14
433.187	164.69
433.394	265.04
433.601	136.02
433.808	254.8
434.016	369.49
434.223	303.95
434.43	330.58
434.637	277.33
434.844	357.2
435.052	250.71
435.259	330.58
435.466	377.68
435.673	392.02
435.88	355.15
436.087	328.53
436.294	336.72
436.501	451.41
436.708	312.14
436.915	420.69
437.122	467.79
437.329	301.9
437.537	365.39
437.743	443.21
437.95	531.28
438.157	451.41
438.364	490.32
438.571	533.33
438.778	551.76
438.985	559.95
439.192	623.44
439.399	551.76
439.606	518.99
439.813	633.68
440.02	725.83
440.227	865.1
440.433	645.96
440.64	691.02
440.847	641.87
441.054	715.59
441.261	840.52
441.467	758.6
441.674	746.31
441.881	912.2
442.088	774.99
442.294	889.67
442.501	947.01
442.708	936.78
442.914	940.87
443.121	1043.27
443.328	1051.46
443.534	1102.66
443.741	1180.48
443.948	1022.79
444.154	1168.2
444.361	1313.6
444.568	1243.97
444.774	1289.03
444.981	1284.93
445.187	1381.18
445.394	1471.29
445.6	1577.79
445.807	1637.18
446.013	1583.93
446.22	1571.65
446.426	1637.18
446.633	1760.06
446.839	2014.01
447.046	1839.93
447.252	2059.06
447.459	2026.29
447.665	2016.05
447.871	2186.04
448.078	2329.39
448.284	2200.37
448.491	2470.7
448.697	2378.55
448.903	2562.86
449.11	2714.41
449.316	2634.54
449.522	2945.83
449.728	3076.9
449.935	2945.83
450.141	3050.28
450.347	3300.13
450.553	3347.23
450.76	3304.23
450.966	3429.15
451.172	3640.09
451.378	3808.03
451.584	4031.26
451.791	4297.49
451.997	4264.72
452.203	4379.41
452.409	4567.82
452.615	4842.25
452.821	4664.08
453.027	4784.91
453.233	5415.68
453.44	5063.43
453.646	5587.71
453.852	5421.83
454.058	5851.9
454.264	6050.55
454.47	6451.95
454.676	6238.97
454.882	7004.91
455.088	6810.35
455.294	7377.64
455.5	7596.77
455.705	7856.86
455.911	7858.91
456.117	8123.1
456.323	8463.06
456.529	8565.46
456.735	9294.54
456.941	9448.13
457.147	9929.41
457.352	9958.08
457.558	10578.61
457.764	10963.63
457.97	11426.47
458.176	11909.79
458.381	12380.82
458.587	12788.37
458.793	13021.84
458.999	13269.64
459.204	14936.69
459.41	15338.09
459.616	15014.51
459.821	15927.91
460.027	16671.32
460.233	17513.03
460.438	17330.76
460.644	18580.03
460.85	18633.27
461.055	19311.15
461.261	20410.91
461.466	20025.89
461.672	20517.4
461.878	22858.23
462.083	22675.96
462.289	23179.76
462.494	24273.38
462.7	23919.08
462.905	24461.79
463.111	26386.88
463.316	27877.8
463.522	28096.94
463.727	29069.72
463.932	30509.44
464.138	31185.27
464.343	32522.6
464.549	32545.12
464.754	34822.47
464.959	35879.22
465.165	36526.38
465.37	35952.94
465.575	35995.95
465.781	38525.19
465.986	40138.99
466.191	38824.2
466.397	39471.36
466.602	38793.48
466.807	41036
467.012	41103.59
467.218	42541.26
467.423	42082.52
467.628	43403.46
467.833	45820.06
