Data from USB4F104151__63__10-43-51-674.txt Node

Date: Wed Feb 26 10:43:51 EST 2025
User: louis
Spectrometer: USB4F10415
Trigger mode: 4
Integration Time (sec): 1.000000E-1
Scans to average: 1
Electric dark correction enabled: true
Nonlinearity correction enabled: false
Boxcar width: 0
XAxis mode: Wavelengths
Number of Pixels in Spectrum: 3648
>>>>>Begin Spectral Data<<<<<
178.204	-457.89
178.424	-457.89
178.644	-457.89
178.864	-330.92
179.084	-402.6
179.304	-19.63
179.524	-29.87
179.744	56.15
179.964	29.52
180.184	31.57
180.404	43.86
180.624	27.48
180.844	37.72
181.064	-91.31
181.283	-44.2
181.503	-105.64
181.723	64.34
181.943	-81.07
182.163	219.99
182.383	-44.2
182.602	45.91
182.822	189.27
183.042	115.54
183.262	-72.87
183.482	-7.34
183.701	93.01
183.921	136.02
184.141	23.38
184.361	64.34
184.58	125.78
184.8	111.44
185.02	-23.72
185.239	113.49
185.459	52.05
185.679	140.12
185.898	-119.98
186.118	68.44
186.338	90.96
186.557	148.31
186.777	-40.11
186.997	2.9
187.216	13.14
187.436	209.75
187.655	97.11
187.875	179.03
188.095	99.16
188.314	133.97
188.534	140.12
188.753	-52.39
188.973	185.17
189.192	164.69
189.412	-52.39
189.631	109.4
189.851	35.67
190.07	250.71
190.29	31.57
190.509	-15.53
190.729	37.72
190.948	179.03
191.168	185.17
191.387	125.78
191.607	17.24
191.826	25.43
192.045	133.97
192.265	54.1
192.484	105.3
192.704	13.14
192.923	-60.59
193.142	144.21
193.362	56.15
193.581	168.79
193.8	9.05
194.02	162.64
194.239	35.67
194.458	21.33
194.678	41.81
194.897	60.24
195.116	101.2
195.335	138.07
195.555	-21.67
195.774	-27.82
195.993	133.97
196.212	52.05
196.432	-13.48
196.651	-50.35
196.87	-23.72
197.089	248.66
197.308	56.15
197.528	82.77
197.747	-36.01
197.966	25.43
198.185	168.79
198.404	37.72
198.623	199.51
198.842	138.07
199.062	39.76
199.281	41.81
199.5	76.63
199.719	9.05
199.938	-11.43
200.157	109.4
200.376	107.35
200.595	107.35
200.814	99.16
201.033	11.09
201.252	189.27
201.471	-25.77
201.69	111.44
201.909	78.68
202.128	158.55
202.347	136.02
202.566	45.91
202.785	-29.87
203.004	13.14
203.223	285.52
203.442	-15.53
203.661	-3.24
203.879	129.88
204.098	148.31
204.317	-87.21
204.536	113.49
204.755	90.96
204.974	129.88
205.193	76.63
205.411	166.74
205.63	70.48
205.849	52.05
206.068	27.48
206.287	-27.82
206.505	209.75
206.724	74.58
206.943	-50.35
207.162	-13.48
207.381	19.29
207.599	64.34
207.818	72.53
208.037	-9.39
208.255	9.05
208.474	136.02
208.693	-9.39
208.911	117.59
209.13	144.21
209.349	107.35
209.567	107.35
209.786	84.82
210.005	158.55
210.223	90.96
210.442	-66.73
210.661	23.38
210.879	74.58
211.098	84.82
211.316	76.63
211.535	60.24
211.753	101.2
211.972	97.11
212.191	19.29
212.409	54.1
212.628	90.96
212.846	-58.54
213.065	109.4
213.283	123.73
213.502	31.57
213.72	119.64
213.938	90.96
214.157	-11.43
214.375	76.63
214.594	76.63
214.812	148.31
215.031	13.14
215.249	64.34
215.467	50
215.686	95.06
215.904	58.2
216.122	21.33
216.341	197.46
216.559	27.48
216.778	138.07
216.996	142.16
217.214	-15.53
217.432	33.62
217.651	-60.59
217.869	-3.24
218.087	68.44
218.306	41.81
218.524	11.09
218.742	-44.2
218.96	121.68
219.179	17.24
219.397	74.58
219.615	211.79
219.833	142.16
220.051	-79.02
220.27	103.25
220.488	101.2
220.706	27.48
220.924	-11.43
221.142	13.14
221.36	123.73
221.578	95.06
221.796	54.1
222.015	56.15
222.233	-44.2
222.451	115.54
222.669	-56.49
222.887	99.16
223.105	25.43
223.323	93.01
223.541	-50.35
223.759	95.06
223.977	52.05
224.195	125.78
224.413	13.14
224.631	9.05
224.849	11.09
225.067	254.8
225.285	-42.15
225.503	-36.01
225.721	-56.49
225.939	133.97
226.157	-3.24
226.375	242.51
226.592	19.29
226.81	35.67
227.028	146.26
227.246	129.88
227.464	84.82
227.682	95.06
227.9	62.29
228.117	93.01
228.335	35.67
228.553	189.27
228.771	119.64
228.989	35.67
229.206	90.96
229.424	78.68
229.642	45.91
229.86	11.09
230.077	187.22
230.295	54.1
230.513	144.21
230.731	43.86
230.948	176.98
231.166	150.36
231.384	74.58
231.601	4.95
231.819	199.51
232.037	-9.39
232.254	-7.34
232.472	41.81
232.689	17.24
232.907	129.88
233.125	60.24
233.342	2.9
233.56	-11.43
233.777	13.14
233.995	58.2
234.213	107.35
234.43	19.29
234.648	43.86
234.865	-58.54
235.083	54.1
235.3	-1.19
235.518	103.25
235.735	105.3
235.953	64.34
236.17	-11.43
236.388	-7.34
236.605	50
236.822	86.87
237.04	78.68
237.257	52.05
237.475	-54.44
237.692	52.05
237.909	189.27
238.127	72.53
238.344	70.48
238.562	37.72
238.779	-85.16
238.996	-7.34
239.214	64.34
239.431	45.91
239.648	-36.01
239.865	105.3
240.083	58.2
240.3	93.01
240.517	-33.96
240.735	-27.82
240.952	226.13
241.169	25.43
241.386	54.1
241.603	-31.91
241.821	-29.87
242.038	107.35
242.255	82.77
242.472	19.29
242.689	47.96
242.907	72.53
243.124	88.92
243.341	54.1
243.558	-25.77
243.775	-7.34
243.992	-44.2
244.209	136.02
244.426	248.66
244.643	78.68
244.86	4.95
245.078	107.35
245.295	107.35
245.512	41.81
245.729	-15.53
245.946	62.29
246.163	129.88
246.38	45.91
246.597	103.25
246.814	68.44
247.031	62.29
247.248	84.82
247.464	50
247.681	68.44
247.898	21.33
248.115	88.92
248.332	7
248.549	189.27
248.766	170.83
248.983	76.63
249.2	201.55
249.417	93.01
249.633	54.1
249.85	127.83
250.067	47.96
250.284	37.72
250.501	11.09
250.717	154.45
250.934	-15.53
251.151	103.25
251.368	74.58
251.585	52.05
251.801	74.58
252.018	4.95
252.235	95.06
252.451	23.38
252.668	33.62
252.885	152.4
253.102	54.1
253.318	11.09
253.535	58.2
253.752	74.58
253.968	-40.11
254.185	0.85
254.401	70.48
254.618	70.48
254.835	23.38
255.051	154.45
255.268	-5.29
255.484	-15.53
255.701	4.95
255.917	33.62
256.134	-113.83
256.351	29.52
256.567	-13.48
256.784	43.86
257	-109.74
257.217	164.69
257.433	74.58
257.65	33.62
257.866	144.21
258.082	-15.53
258.299	-62.63
258.515	15.19
258.732	-33.96
258.948	9.05
259.165	25.43
259.381	-15.53
259.597	121.68
259.814	-23.72
260.03	-44.2
260.246	-1.19
260.463	140.12
260.679	56.15
260.895	113.49
261.112	93.01
261.328	88.92
261.544	-62.63
261.761	209.75
261.977	50
262.193	35.67
262.409	133.97
262.626	54.1
262.842	-11.43
263.058	31.57
263.274	115.54
263.49	45.91
263.707	41.81
263.923	70.48
264.139	-56.49
264.355	62.29
264.571	101.2
264.787	90.96
265.004	133.97
265.22	54.1
265.436	33.62
265.652	7
265.868	125.78
266.084	-7.34
266.3	105.3
266.516	-79.02
266.732	78.68
266.948	33.62
267.164	4.95
267.38	146.26
267.596	156.5
267.812	97.11
268.028	119.64
268.244	7
268.46	88.92
268.676	95.06
268.892	15.19
269.108	64.34
269.324	31.57
269.54	-15.53
269.756	31.57
269.972	-40.11
270.188	-54.44
270.403	-9.39
270.619	50
270.835	119.64
271.051	-13.48
271.267	-7.34
271.483	56.15
271.698	158.55
271.914	117.59
272.13	101.2
272.346	-44.2
272.562	41.81
272.777	191.31
272.993	11.09
273.209	47.96
273.425	76.63
273.64	13.14
273.856	133.97
274.072	-13.48
274.287	70.48
274.503	144.21
274.719	133.97
274.934	56.15
275.15	-15.53
275.366	54.1
275.581	-25.77
275.797	88.92
276.012	-74.92
276.228	-9.39
276.444	17.24
276.659	148.31
276.875	-7.34
277.09	37.72
277.306	62.29
277.521	82.77
277.737	27.48
277.952	62.29
278.168	76.63
278.383	35.67
278.599	82.77
278.814	162.64
279.03	39.76
279.245	140.12
279.461	88.92
279.676	121.68
279.892	25.43
280.107	-11.43
280.322	74.58
280.538	136.02
280.753	13.14
280.969	31.57
281.184	72.53
281.399	160.59
281.615	119.64
281.83	54.1
282.045	-17.58
282.26	11.09
282.476	-1.19
282.691	74.58
282.906	93.01
283.122	76.63
283.337	-7.34
283.552	152.4
283.767	60.24
283.983	-40.11
284.198	23.38
284.413	7
284.628	-91.31
284.843	117.59
285.058	117.59
285.274	56.15
285.489	-36.01
285.704	72.53
285.919	62.29
286.134	47.96
286.349	76.63
286.564	11.09
286.779	68.44
286.995	52.05
287.21	-7.34
287.425	90.96
287.64	-11.43
287.855	88.92
288.07	-60.59
288.285	234.32
288.5	115.54
288.715	136.02
288.93	-36.01
289.145	21.33
289.36	156.5
289.575	47.96
289.79	195.41
290.004	-13.48
290.219	131.92
290.434	9.05
290.649	52.05
290.864	2.9
291.079	17.24
291.294	86.87
291.509	166.74
291.724	45.91
291.938	70.48
292.153	74.58
292.368	66.39
292.583	37.72
292.798	125.78
293.012	47.96
293.227	76.63
293.442	25.43
293.657	101.2
293.871	111.44
294.086	68.44
294.301	187.22
294.516	45.91
294.73	58.2
294.945	-11.43
295.16	80.72
295.374	123.73
295.589	185.17
295.804	62.29
296.018	60.24
296.233	168.79
296.447	41.81
296.662	-25.77
296.877	107.35
297.091	56.15
297.306	23.38
297.52	11.09
297.735	25.43
297.949	123.73
298.164	66.39
298.378	107.35
298.593	-17.58
298.807	-36.01
299.022	64.34
299.236	207.7
299.451	19.29
299.665	7
299.88	23.38
300.094	64.34
300.309	66.39
300.523	11.09
300.737	-15.53
300.952	105.3
301.166	103.25
301.381	-17.58
301.595	45.91
301.809	58.2
302.024	-19.63
302.238	-97.45
302.452	123.73
302.667	52.05
302.881	185.17
303.095	140.12
303.309	-31.91
303.524	11.09
303.738	35.67
303.952	-42.15
304.166	56.15
304.381	-105.64
304.595	191.31
304.809	33.62
305.023	66.39
305.237	66.39
305.452	39.76
305.666	0.85
305.88	131.92
306.094	183.12
306.308	133.97
306.522	133.97
306.736	35.67
306.95	56.15
307.164	11.09
307.379	101.2
307.593	148.31
307.807	93.01
308.021	158.55
308.235	158.55
308.449	-31.91
308.663	33.62
308.877	154.45
309.091	88.92
309.305	90.96
309.519	-23.72
309.733	138.07
309.947	-58.54
310.161	70.48
310.374	64.34
310.588	123.73
310.802	-5.29
311.016	13.14
311.23	133.97
311.444	17.24
311.658	-23.72
311.872	121.68
312.085	183.12
312.299	154.45
312.513	127.83
312.727	45.91
312.941	-3.24
313.154	154.45
313.368	101.2
313.582	76.63
313.796	70.48
314.009	58.2
314.223	142.16
314.437	107.35
314.651	72.53
314.864	-11.43
315.078	56.15
315.292	-152.74
315.505	-19.63
315.719	29.52
315.933	97.11
316.146	41.81
316.36	78.68
316.573	123.73
316.787	74.58
317.001	52.05
317.214	-87.21
317.428	27.48
317.641	-21.67
317.855	-64.68
318.068	31.57
318.282	39.76
318.495	166.74
318.709	117.59
318.922	15.19
319.136	103.25
319.349	164.69
319.563	-3.24
319.776	72.53
319.99	-29.87
320.203	47.96
320.417	60.24
320.63	140.12
320.843	213.84
321.057	9.05
321.27	17.24
321.483	64.34
321.697	101.2
321.91	56.15
322.124	64.34
322.337	60.24
322.55	9.05
322.763	70.48
322.977	23.38
323.19	33.62
323.403	2.9
323.617	107.35
323.83	176.98
324.043	-11.43
324.256	76.63
324.469	-19.63
324.683	117.59
324.896	93.01
325.109	15.19
325.322	-72.87
325.535	133.97
325.748	45.91
325.962	68.44
326.175	138.07
326.388	2.9
326.601	170.83
326.814	2.9
327.027	-40.11
327.24	183.12
327.453	-23.72
327.666	82.77
327.879	185.17
328.092	119.64
328.305	111.44
328.518	43.86
328.731	19.29
328.944	7
329.157	66.39
329.37	31.57
329.583	293.71
329.796	119.64
330.009	-44.2
330.222	66.39
330.435	101.2
330.648	25.43
330.861	66.39
331.073	15.19
331.286	111.44
331.499	95.06
331.712	11.09
331.925	33.62
332.138	-17.58
332.35	123.73
332.563	60.24
332.776	84.82
332.989	25.43
333.202	-21.67
333.414	4.95
333.627	31.57
333.84	39.76
334.053	-3.24
334.265	-13.48
334.478	-58.54
334.691	52.05
334.903	70.48
335.116	15.19
335.329	93.01
335.541	35.67
335.754	148.31
335.966	-13.48
336.179	109.4
336.392	86.87
336.604	74.58
336.817	138.07
337.029	88.92
337.242	27.48
337.454	74.58
337.667	-13.48
337.88	119.64
338.092	76.63
338.305	74.58
338.517	35.67
338.729	82.77
338.942	238.42
339.154	-46.25
339.367	-76.97
339.579	95.06
339.792	-115.88
340.004	78.68
340.217	66.39
340.429	105.3
340.641	-38.06
340.854	64.34
341.066	-19.63
341.278	82.77
341.491	125.78
341.703	82.77
341.915	-3.24
342.128	90.96
342.34	72.53
342.552	23.38
342.764	29.52
342.977	125.78
343.189	82.77
343.401	72.53
343.613	-15.53
343.826	33.62
344.038	-19.63
344.25	47.96
344.462	88.92
344.674	101.2
344.886	-27.82
345.099	142.16
345.311	127.83
345.523	-13.48
345.735	-140.46
345.947	111.44
346.159	131.92
346.371	80.72
346.583	-19.63
346.795	146.26
347.007	7
347.219	41.81
347.431	56.15
347.643	193.36
347.855	31.57
348.067	189.27
348.279	15.19
348.491	-3.24
348.703	115.54
348.915	29.52
349.127	-7.34
349.339	56.15
349.551	-19.63
349.763	150.36
349.975	64.34
350.187	146.26
350.399	97.11
350.61	101.2
350.822	50
351.034	-13.48
351.246	76.63
351.458	25.43
351.669	78.68
351.881	107.35
352.093	131.92
352.305	174.93
352.517	95.06
352.728	148.31
352.94	80.72
353.152	80.72
353.363	-40.11
353.575	86.87
353.787	193.36
353.999	56.15
354.21	170.83
354.422	43.86
354.633	66.39
354.845	72.53
355.057	17.24
355.268	62.29
355.48	105.3
355.692	-25.77
355.903	56.15
356.115	-33.96
356.326	-83.11
356.538	138.07
356.749	127.83
356.961	164.69
357.172	43.86
357.384	-76.97
357.595	179.03
357.807	58.2
358.018	-44.2
358.23	52.05
358.441	142.16
358.653	99.16
358.864	107.35
359.075	-17.58
359.287	29.52
359.498	144.21
359.709	172.88
359.921	-1.19
360.132	93.01
360.344	31.57
360.555	54.1
360.766	47.96
360.977	-31.91
361.189	142.16
361.4	107.35
361.611	150.36
361.823	146.26
362.034	56.15
362.245	-68.78
362.456	72.53
362.667	45.91
362.879	-15.53
363.09	70.48
363.301	72.53
363.512	121.68
363.723	37.72
363.935	21.33
364.146	144.21
364.357	41.81
364.568	95.06
364.779	-33.96
364.99	187.22
365.201	-38.06
365.412	37.72
365.623	19.29
365.834	101.2
366.045	50
366.256	56.15
366.467	93.01
366.678	74.58
366.889	33.62
367.1	43.86
367.311	131.92
367.522	-7.34
367.733	164.69
367.944	80.72
368.155	4.95
368.366	103.25
368.577	144.21
368.788	117.59
368.999	33.62
369.209	74.58
369.42	244.56
369.631	203.6
369.842	140.12
370.053	95.06
370.264	62.29
370.474	41.81
370.685	121.68
370.896	72.53
371.107	129.88
371.317	131.92
371.528	-29.87
371.739	129.88
371.95	41.81
372.16	162.64
372.371	-113.83
372.582	90.96
372.792	119.64
373.003	78.68
373.214	37.72
373.424	111.44
373.635	31.57
373.846	183.12
374.056	43.86
374.267	88.92
374.477	103.25
374.688	23.38
374.898	74.58
375.109	86.87
375.319	27.48
375.53	86.87
375.74	136.02
375.951	21.33
376.161	52.05
376.372	70.48
376.582	39.76
376.793	21.33
377.003	33.62
377.214	25.43
377.424	54.1
377.635	64.34
377.845	-54.44
378.055	125.78
378.266	-31.91
378.476	70.48
378.686	17.24
378.897	43.86
379.107	148.31
379.317	70.48
379.528	86.87
379.738	109.4
379.948	35.67
380.158	119.64
380.369	90.96
380.579	54.1
380.789	66.39
380.999	119.64
381.21	93.01
381.42	228.18
381.63	60.24
381.84	133.97
382.05	56.15
382.261	127.83
382.471	105.3
382.681	-40.11
382.891	234.32
383.101	93.01
383.311	-76.97
383.521	7
383.731	129.88
383.941	60.24
384.151	78.68
384.361	84.82
384.571	-15.53
384.781	17.24
384.991	109.4
385.201	146.26
385.411	140.12
385.621	125.78
385.831	45.91
386.041	27.48
386.251	0.85
386.461	88.92
386.671	66.39
386.881	95.06
387.091	115.54
387.301	148.31
387.511	86.87
387.72	105.3
387.93	115.54
388.14	-54.44
388.35	93.01
388.56	90.96
388.769	154.45
388.979	52.05
389.189	-72.87
389.399	62.29
389.609	148.31
389.818	142.16
390.028	101.2
390.238	29.52
390.447	66.39
390.657	123.73
390.867	21.33
391.076	-17.58
391.286	80.72
391.496	140.12
391.705	95.06
391.915	58.2
392.125	174.93
392.334	31.57
392.544	191.31
392.753	25.43
392.963	39.76
393.172	93.01
393.382	21.33
393.591	258.9
393.801	-11.43
394.01	164.69
394.22	121.68
394.429	17.24
394.639	7
394.848	4.95
395.058	11.09
395.267	82.77
395.477	86.87
395.686	52.05
395.895	217.94
396.105	250.71
396.314	179.03
396.524	99.16
396.733	60.24
396.942	181.07
397.152	140.12
397.361	41.81
397.57	84.82
397.78	131.92
397.989	84.82
398.198	199.51
398.407	52.05
398.617	37.72
398.826	95.06
399.035	107.35
399.244	131.92
399.453	60.24
399.663	52.05
399.872	-9.39
400.081	-7.34
400.29	205.65
400.499	19.29
400.708	133.97
400.917	47.96
401.127	107.35
401.336	56.15
401.545	172.88
401.754	138.07
401.963	154.45
402.172	-25.77
402.381	-5.29
402.59	52.05
402.799	88.92
403.008	174.93
403.217	39.76
403.426	152.4
403.635	-56.49
403.844	80.72
404.053	43.86
404.262	41.81
404.471	179.03
404.68	41.81
404.888	33.62
405.097	66.39
405.306	90.96
405.515	213.84
405.724	17.24
405.933	121.68
406.142	133.97
406.35	47.96
406.559	-29.87
406.768	127.83
406.977	238.42
407.185	23.38
407.394	103.25
407.603	-5.29
407.812	107.35
408.02	181.07
408.229	82.77
408.438	54.1
408.646	-29.87
408.855	90.96
409.064	109.4
409.272	-1.19
409.481	150.36
409.69	25.43
409.898	-42.15
410.107	74.58
410.315	129.88
410.524	21.33
410.733	19.29
410.941	64.34
411.15	123.73
411.358	70.48
411.567	154.45
411.775	66.39
411.984	115.54
412.192	56.15
412.401	99.16
412.609	154.45
412.818	176.98
413.026	68.44
413.234	-36.01
413.443	-5.29
413.651	19.29
413.86	93.01
414.068	201.55
414.276	224.08
414.485	-44.2
414.693	123.73
414.901	179.03
415.11	80.72
415.318	78.68
415.526	80.72
415.734	185.17
415.943	80.72
416.151	136.02
416.359	62.29
416.567	27.48
416.776	160.59
416.984	123.73
417.192	240.47
417.4	125.78
417.608	15.19
417.817	-40.11
418.025	125.78
418.233	154.45
418.441	0.85
418.649	-52.39
418.857	125.78
419.065	148.31
419.273	95.06
419.481	93.01
419.689	127.83
419.897	-3.24
420.105	-64.68
420.313	217.94
420.521	222.03
420.729	181.07
420.937	11.09
421.145	21.33
421.353	66.39
421.561	119.64
421.769	136.02
421.977	27.48
422.185	217.94
422.393	23.38
422.601	183.12
422.809	47.96
423.017	127.83
423.224	99.16
423.432	136.02
423.64	43.86
423.848	125.78
424.056	93.01
424.263	203.6
424.471	50
424.679	203.6
424.887	31.57
425.094	127.83
425.302	179.03
425.51	107.35
425.718	168.79
425.925	144.21
426.133	70.48
426.341	242.51
426.548	142.16
426.756	125.78
426.964	191.31
427.171	7
427.379	150.36
427.586	140.12
427.794	189.27
428.001	152.4
428.209	185.17
428.417	183.12
428.624	174.93
428.832	133.97
429.039	154.45
429.247	107.35
429.454	125.78
429.662	193.36
429.869	199.51
430.076	172.88
430.284	203.6
430.491	293.71
430.699	201.55
430.906	222.03
431.114	101.2
431.321	144.21
431.528	103.25
431.736	217.94
431.943	183.12
432.15	187.22
432.358	185.17
432.565	271.19
432.772	9.05
432.979	230.23
433.187	125.78
433.394	277.33
433.601	174.93
433.808	338.77
434.016	289.62
434.223	316.24
434.43	330.58
434.637	291.66
434.844	330.58
435.052	332.62
435.259	267.09
435.466	402.26
435.673	301.9
435.88	322.38
436.087	389.97
436.294	389.97
436.501	396.11
436.708	349.01
436.915	414.54
437.122	416.59
437.329	461.65
437.537	389.97
437.743	365.39
437.95	455.5
438.157	418.64
438.364	363.34
438.571	404.3
438.778	523.09
438.985	496.46
439.192	594.76
439.399	512.85
439.606	508.75
439.813	660.3
440.02	635.72
440.227	742.22
440.433	668.49
440.64	650.06
440.847	576.33
441.054	721.74
441.261	926.54
441.467	715.59
441.674	621.39
441.881	885.58
442.088	742.22
442.294	834.38
442.501	932.68
442.708	1000.26
442.914	953.16
443.121	1067.85
443.328	1088.32
443.534	1049.41
443.741	1047.37
443.948	875.34
444.154	1092.42
444.361	1372.99
444.568	1250.11
444.774	1241.92
444.981	1190.72
445.187	1411.9
445.394	1420.1
445.6	1424.19
445.807	1620.8
446.013	1516.35
446.22	1481.53
446.426	1669.95
446.633	1755.96
446.839	1952.57
447.046	1739.58
447.252	1913.66
447.459	1809.21
447.665	1891.13
447.871	2188.08
448.078	2261.81
448.284	2368.31
448.491	2435.89
448.697	2437.94
448.903	2444.08
449.11	2644.78
449.316	2540.33
449.522	2827.05
449.728	2966.31
449.935	3101.48
450.141	3001.13
450.347	3328.8
450.553	3183.4
450.76	3388.19
450.966	3425.06
451.172	3674.91
451.378	3679.01
451.584	3777.31
451.791	4041.5
451.997	4086.55
452.203	4260.63
452.409	4485.9
452.615	4649.74
452.821	4428.56
453.027	4692.75
453.233	5270.28
453.44	5108.49
453.646	5188.36
453.852	5507.84
454.058	5634.82
454.264	5974.78
454.47	6232.82
454.676	6335.22
454.882	6873.84
455.088	6589.17
455.294	7047.91
455.5	7441.12
455.705	7992.03
455.911	7906.01
456.117	8078.04
456.323	8401.62
456.529	8311.51
456.735	9122.51
456.941	9396.93
457.147	9743.04
457.352	9880.25
457.558	10242.75
457.764	10807.98
457.97	11061.93
458.176	11608.74
458.381	12112.54
458.587	12296.86
458.793	13005.45
458.999	12946.06
459.204	14766.71
459.41	14918.26
459.616	15057.52
459.821	15829.6
460.027	16306.78
460.233	17187.41
460.438	17422.92
460.644	18113.09
460.85	18283.07
461.055	19159.6
461.261	20097.57
461.466	19401.26
461.672	19800.62
461.878	22368.77
462.083	22274.56
462.289	22653.44
462.494	23175.67
462.7	23790.06
462.905	23945.7
463.111	26184.13
463.316	27222.45
463.522	27810.22
463.727	28658.08
463.932	29718.93
464.138	30609.79
464.343	31902.06
464.549	32244.07
464.754	34414.92
464.959	35270.97
465.165	35973.42
465.37	35674.42
465.575	35410.23
465.781	38091.02
465.986	39209.22
466.191	38707.46
466.397	39121.15
466.602	38463.75
466.807	40241.39
467.012	40925.41
467.218	41390.3
467.423	41654.49
467.628	42821.83
