Data from USB4F104151__10__10-41-24-089.txt Node

Date: Wed Feb 26 10:41:24 EST 2025
User: louis
Spectrometer: USB4F10415
Trigger mode: 4
Integration Time (sec): 1.000000E-1
Scans to average: 1
Electric dark correction enabled: true
Nonlinearity correction enabled: false
Boxcar width: 0
XAxis mode: Wavelengths
Number of Pixels in Spectrum: 3648
>>>>>Begin Spectral Data<<<<<
178.204	-424.27
178.424	-424.27
178.644	-424.27
178.864	-397.65
179.084	-356.69
179.304	1.71
179.524	-65.88
179.744	44.71
179.964	34.47
180.184	-20.82
180.404	89.77
180.624	-69.97
180.844	34.47
181.064	-90.45
181.283	-14.68
181.503	-33.11
181.723	89.77
181.943	-162.13
182.163	263.85
182.383	-55.64
182.602	81.58
182.822	75.43
183.042	32.43
183.262	1.71
183.482	48.81
183.701	61.1
183.921	79.53
184.141	11.95
184.361	93.87
184.58	63.15
184.8	73.39
185.02	110.25
185.239	54.95
185.459	108.2
185.679	97.96
185.898	-33.11
186.118	71.34
186.338	87.72
186.557	130.73
186.777	9.9
186.997	81.58
187.216	46.76
187.436	212.65
187.655	42.67
187.875	136.87
188.095	71.34
188.314	220.84
188.534	132.78
188.753	54.95
188.973	110.25
189.192	226.98
189.412	63.15
189.631	13.99
189.851	83.63
190.07	196.26
190.29	13.99
190.509	136.87
190.729	-2.39
190.948	110.25
191.168	282.28
191.387	110.25
191.607	102.06
191.826	32.43
192.045	-8.53
192.265	28.33
192.484	61.1
192.704	73.39
192.923	-72.02
193.142	177.83
193.362	59.05
193.581	130.73
193.8	122.54
194.02	183.98
194.239	7.85
194.458	52.91
194.678	-4.44
194.897	-8.53
195.116	32.43
195.335	61.1
195.555	50.86
195.774	-8.53
195.993	130.73
196.212	11.95
196.432	26.28
196.651	-18.77
196.87	28.33
197.089	192.17
197.308	69.29
197.528	100.01
197.747	44.71
197.966	71.34
198.185	151.21
198.404	26.28
198.623	163.5
198.842	130.73
199.062	147.11
199.281	54.95
199.5	52.91
199.719	175.78
199.938	59.05
200.157	130.73
200.376	97.96
200.595	106.15
200.814	36.52
201.033	-47.44
201.252	186.02
201.471	63.15
201.69	138.92
201.909	5.8
202.128	106.15
202.347	196.26
202.566	40.62
202.785	-59.73
203.004	81.58
203.223	233.13
203.442	77.48
203.661	-98.64
203.879	71.34
204.098	136.87
204.317	52.91
204.536	110.25
204.755	122.54
204.974	26.28
205.193	3.75
205.411	161.45
205.63	81.58
205.849	81.58
206.068	5.8
206.287	-33.11
206.505	188.07
206.724	16.04
206.943	-49.49
207.162	24.23
207.381	126.63
207.599	32.43
207.818	28.33
208.037	28.33
208.255	63.15
208.474	69.29
208.693	126.63
208.911	30.38
209.13	44.71
209.349	140.97
209.567	79.53
209.786	126.63
210.005	24.23
210.223	-0.34
210.442	-53.59
210.661	22.19
210.879	24.23
211.098	130.73
211.316	13.99
211.535	102.06
211.753	65.19
211.972	54.95
212.191	93.87
212.409	48.81
212.628	120.49
212.846	16.04
213.065	57
213.283	126.63
213.502	71.34
213.72	36.52
213.938	42.67
214.157	24.23
214.375	165.54
214.594	36.52
214.812	57
215.031	-0.34
215.249	61.1
215.467	50.86
215.686	32.43
215.904	165.54
216.122	-47.44
216.341	155.3
216.559	120.49
216.778	106.15
216.996	106.15
217.214	34.47
217.432	20.14
217.651	-18.77
217.869	85.67
218.087	18.09
218.306	71.34
218.524	114.34
218.742	61.1
218.96	77.48
219.179	42.67
219.397	24.23
219.615	222.89
219.833	130.73
220.051	-8.53
220.27	155.3
220.488	134.82
220.706	102.06
220.924	36.52
221.142	-69.97
221.36	120.49
221.578	126.63
221.796	57
222.015	104.11
222.233	73.39
222.451	130.73
222.669	-10.58
222.887	81.58
223.105	-8.53
223.323	46.76
223.541	-14.68
223.759	28.33
223.977	63.15
224.195	40.62
224.413	69.29
224.631	71.34
224.849	112.3
225.067	253.61
225.285	-0.34
225.503	57
225.721	-63.83
225.939	50.86
226.157	44.71
226.375	276.13
226.592	13.99
226.81	30.38
227.028	120.49
227.246	169.64
227.464	75.43
227.682	69.29
227.9	110.25
228.117	122.54
228.335	136.87
228.553	36.52
228.771	40.62
228.989	36.52
229.206	122.54
229.424	67.24
229.642	-41.3
229.86	-31.06
230.077	75.43
230.295	69.29
230.513	130.73
230.731	54.95
230.948	179.88
231.166	165.54
231.384	-18.77
231.601	-37.2
231.819	179.88
232.037	13.99
232.254	5.8
232.472	46.76
232.689	11.95
232.907	147.11
233.125	44.71
233.342	24.23
233.56	-8.53
233.777	73.39
233.995	-8.53
234.213	155.3
234.43	83.63
234.648	54.95
234.865	28.33
235.083	65.19
235.3	54.95
235.518	100.01
235.735	106.15
235.953	104.11
236.17	7.85
236.388	95.91
236.605	77.48
236.822	81.58
237.04	85.67
237.257	77.48
237.475	-12.63
237.692	20.14
237.909	134.82
238.127	-18.77
238.344	124.58
238.562	77.48
238.779	-45.4
238.996	-29.01
239.214	28.33
239.431	102.06
239.648	5.8
239.865	52.91
240.083	67.24
240.3	69.29
240.517	-4.44
240.735	-0.34
240.952	149.16
241.169	110.25
241.386	87.72
241.603	7.85
241.821	-35.16
242.038	102.06
242.255	194.22
242.472	28.33
242.689	124.58
242.907	93.87
243.124	-2.39
243.341	85.67
243.558	18.09
243.775	3.75
243.992	13.99
244.209	69.29
244.426	163.5
244.643	97.96
244.86	28.33
245.078	130.73
245.295	48.81
245.512	93.87
245.729	16.04
245.946	114.34
246.163	34.47
246.38	46.76
246.597	83.63
246.814	75.43
247.031	36.52
247.248	50.86
247.464	67.24
247.681	81.58
247.898	32.43
248.115	30.38
248.332	-2.39
248.549	167.59
248.766	134.82
248.983	134.82
249.2	116.39
249.417	110.25
249.633	-78.16
249.85	110.25
250.067	114.34
250.284	65.19
250.501	181.93
250.717	114.34
250.934	13.99
251.151	24.23
251.368	48.81
251.585	32.43
251.801	91.82
252.018	28.33
252.235	163.5
252.451	-80.21
252.668	16.04
252.885	108.2
253.102	118.44
253.318	61.1
253.535	67.24
253.752	7.85
253.968	5.8
254.185	-26.96
254.401	48.81
254.618	104.11
254.835	20.14
255.051	79.53
255.268	61.1
255.484	36.52
255.701	46.76
255.917	46.76
256.134	46.76
256.351	63.15
256.567	-55.64
256.784	44.71
257	-35.16
257.217	52.91
257.433	95.91
257.65	34.47
257.866	122.54
258.082	-8.53
258.299	5.8
258.515	104.11
258.732	9.9
258.948	-65.88
259.165	67.24
259.381	-80.21
259.597	112.3
259.814	61.1
260.03	-8.53
260.246	38.57
260.463	147.11
260.679	200.36
260.895	54.95
261.112	118.44
261.328	36.52
261.544	22.19
261.761	192.17
261.977	48.81
262.193	-67.92
262.409	126.63
262.626	-26.96
262.842	-39.25
263.058	44.71
263.274	157.35
263.49	36.52
263.707	9.9
263.923	77.48
264.139	-53.59
264.355	20.14
264.571	108.2
264.787	85.67
265.004	54.95
265.22	61.1
265.436	-6.49
265.652	36.52
265.868	110.25
266.084	18.09
266.3	132.78
266.516	22.19
266.732	13.99
266.948	59.05
267.164	11.95
267.38	69.29
267.596	9.9
267.812	231.08
268.028	106.15
268.244	22.19
268.46	9.9
268.676	-59.73
268.892	100.01
269.108	-22.87
269.324	-35.16
269.54	-2.39
269.756	5.8
269.972	-86.36
270.188	-14.68
270.403	3.75
270.619	28.33
270.835	69.29
271.051	7.85
271.267	1.71
271.483	28.33
271.698	83.63
271.914	108.2
272.13	57
272.346	91.82
272.562	46.76
272.777	161.45
272.993	-16.73
273.209	7.85
273.425	95.91
273.64	-29.01
273.856	85.67
274.072	-4.44
274.287	24.23
274.503	120.49
274.719	100.01
274.934	13.99
275.15	-53.59
275.366	22.19
275.581	42.67
275.797	102.06
276.012	122.54
276.228	7.85
276.444	95.91
276.659	95.91
276.875	-59.73
277.09	16.04
277.306	11.95
277.521	114.34
277.737	132.78
277.952	85.67
278.168	34.47
278.383	52.91
278.599	46.76
278.814	59.05
279.03	-12.63
279.245	155.3
279.461	65.19
279.676	145.06
279.892	-82.26
280.107	-45.4
280.322	-18.77
280.538	65.19
280.753	-51.54
280.969	30.38
281.184	73.39
281.399	177.83
281.615	-0.34
281.83	73.39
282.045	-12.63
282.26	-0.34
282.476	63.15
282.691	140.97
282.906	50.86
283.122	106.15
283.337	59.05
283.552	75.43
283.767	63.15
283.983	132.78
284.198	7.85
284.413	48.81
284.628	40.62
284.843	102.06
285.058	79.53
285.274	93.87
285.489	-18.77
285.704	104.11
285.919	5.8
286.134	-39.25
286.349	77.48
286.564	87.72
286.779	147.11
286.995	50.86
287.21	-61.78
287.425	-4.44
287.64	13.99
287.855	52.91
288.07	22.19
288.285	91.82
288.5	140.97
288.715	-12.63
288.93	75.43
289.145	3.75
289.36	97.96
289.575	59.05
289.79	42.67
290.004	-8.53
290.219	104.11
290.434	65.19
290.649	-41.3
290.864	34.47
291.079	54.95
291.294	102.06
291.509	122.54
291.724	71.34
291.938	57
292.153	102.06
292.368	24.23
292.583	93.87
292.798	75.43
293.012	3.75
293.227	102.06
293.442	16.04
293.657	85.67
293.871	100.01
294.086	44.71
294.301	179.88
294.516	100.01
294.73	122.54
294.945	-26.96
295.16	83.63
295.374	120.49
295.589	69.29
295.804	3.75
296.018	132.78
296.233	159.4
296.447	32.43
296.662	-18.77
296.877	114.34
297.091	71.34
297.306	59.05
297.52	-10.58
297.735	52.91
297.949	26.28
298.164	102.06
298.378	24.23
298.593	-92.5
298.807	7.85
299.022	-10.58
299.236	171.69
299.451	16.04
299.665	36.52
299.88	18.09
300.094	69.29
300.309	73.39
300.523	83.63
300.737	-14.68
300.952	71.34
301.166	59.05
301.381	-82.26
301.595	16.04
301.809	24.23
302.024	40.62
302.238	5.8
302.452	155.3
302.667	-2.39
302.881	140.97
303.095	128.68
303.309	63.15
303.524	-33.11
303.738	28.33
303.952	13.99
304.166	69.29
304.381	-92.5
304.595	120.49
304.809	48.81
305.023	100.01
305.237	-33.11
305.452	40.62
305.666	155.3
305.88	143.02
306.094	110.25
306.308	112.3
306.522	190.12
306.736	3.75
306.95	120.49
307.164	54.95
307.379	3.75
307.593	108.2
307.807	75.43
308.021	81.58
308.235	116.39
308.449	-33.11
308.663	69.29
308.877	257.7
309.091	59.05
309.305	145.06
309.519	-37.2
309.733	153.26
309.947	-139.6
310.161	85.67
310.374	128.68
310.588	145.06
310.802	-94.55
311.016	50.86
311.23	140.97
311.444	-43.35
311.658	85.67
311.872	97.96
312.085	73.39
312.299	147.11
312.513	106.15
312.727	36.52
312.941	16.04
313.154	97.96
313.368	50.86
313.582	44.71
313.796	71.34
314.009	36.52
314.223	132.78
314.437	87.72
314.651	93.87
314.864	13.99
315.078	26.28
315.292	18.09
315.505	3.75
315.719	120.49
315.933	61.1
316.146	36.52
316.36	30.38
316.573	57
316.787	186.02
317.001	48.81
317.214	-31.06
317.428	13.99
317.641	-61.78
317.855	32.43
318.068	30.38
318.282	79.53
318.495	200.36
318.709	83.63
318.922	59.05
319.136	122.54
319.349	44.71
319.563	81.58
319.776	128.68
319.99	-65.88
320.203	93.87
320.417	71.34
320.63	77.48
320.843	188.07
321.057	63.15
321.27	52.91
321.483	61.1
321.697	147.11
321.91	91.82
322.124	-2.39
322.337	65.19
322.55	-0.34
322.763	-45.4
322.977	16.04
323.19	48.81
323.403	83.63
323.617	190.12
323.83	128.68
324.043	44.71
324.256	110.25
324.469	-45.4
324.683	114.34
324.896	79.53
325.109	108.2
325.322	-4.44
325.535	132.78
325.748	46.76
325.962	28.33
326.175	36.52
326.388	112.3
326.601	194.22
326.814	54.95
327.027	18.09
327.24	63.15
327.453	-0.34
327.666	77.48
327.879	67.24
328.092	75.43
328.305	67.24
328.518	28.33
328.731	-29.01
328.944	69.29
329.157	75.43
329.37	1.71
329.583	198.31
329.796	126.63
330.009	3.75
330.222	134.82
330.435	120.49
330.648	28.33
330.861	57
331.073	112.3
331.286	112.3
331.499	81.58
331.712	-16.73
331.925	18.09
332.138	57
332.35	61.1
332.563	5.8
332.776	151.21
332.989	26.28
333.202	44.71
333.414	138.92
333.627	48.81
333.84	20.14
334.053	46.76
334.265	67.24
334.478	67.24
334.691	38.57
334.903	75.43
335.116	11.95
335.329	61.1
335.541	118.44
335.754	208.55
335.966	24.23
336.179	44.71
336.392	63.15
336.604	40.62
336.817	87.72
337.029	71.34
337.242	-39.25
337.454	69.29
337.667	102.06
337.88	179.88
338.092	85.67
338.305	-29.01
338.517	46.76
338.729	128.68
338.942	136.87
339.154	34.47
339.367	11.95
339.579	122.54
339.792	-55.64
340.004	61.1
340.217	36.52
340.429	155.3
340.641	-14.68
340.854	-33.11
341.066	-4.44
341.278	87.72
341.491	212.65
341.703	89.77
341.915	9.9
342.128	130.73
342.34	28.33
342.552	61.1
342.764	93.87
342.977	54.95
343.189	24.23
343.401	79.53
343.613	-29.01
343.826	13.99
344.038	1.71
344.25	67.24
344.462	3.75
344.674	61.1
344.886	57
345.099	22.19
345.311	91.82
345.523	-0.34
345.735	-18.77
345.947	81.58
346.159	18.09
346.371	85.67
346.583	-24.92
346.795	237.22
347.007	110.25
347.219	40.62
347.431	95.91
347.643	130.73
347.855	-29.01
348.067	79.53
348.279	13.99
348.491	-24.92
348.703	134.82
348.915	89.77
349.127	-16.73
349.339	73.39
349.551	-51.54
349.763	69.29
349.975	46.76
350.187	85.67
350.399	157.35
350.61	118.44
350.822	26.28
351.034	81.58
351.246	57
351.458	112.3
351.669	79.53
351.881	102.06
352.093	130.73
352.305	30.38
352.517	22.19
352.728	157.35
352.94	83.63
353.152	85.67
353.363	-47.44
353.575	93.87
353.787	143.02
353.999	65.19
354.21	151.21
354.422	16.04
354.633	28.33
354.845	65.19
355.057	69.29
355.268	73.39
355.48	124.58
355.692	-18.77
355.903	50.86
356.115	28.33
356.326	18.09
356.538	118.44
356.749	-2.39
356.961	145.06
357.172	-14.68
357.384	57
357.595	143.02
357.807	28.33
358.018	34.47
358.23	24.23
358.441	214.7
358.653	102.06
358.864	24.23
359.075	79.53
359.287	93.87
359.498	163.5
359.709	132.78
359.921	100.01
360.132	112.3
360.344	18.09
360.555	40.62
360.766	65.19
360.977	130.73
361.189	220.84
361.4	57
361.611	120.49
361.823	112.3
362.034	42.67
362.245	-33.11
362.456	120.49
362.667	69.29
362.879	18.09
363.09	61.1
363.301	3.75
363.512	102.06
363.723	36.52
363.935	11.95
364.146	97.96
364.357	50.86
364.568	104.11
364.779	-74.07
364.99	155.3
365.201	-43.35
365.412	89.77
365.623	-39.25
365.834	69.29
366.045	-41.3
366.256	87.72
366.467	73.39
366.678	136.87
366.889	73.39
367.1	65.19
367.311	124.58
367.522	-4.44
367.733	13.99
367.944	130.73
368.155	3.75
368.366	124.58
368.577	175.78
368.788	42.67
368.999	59.05
369.209	77.48
369.42	269.99
369.631	251.56
369.842	52.91
370.053	22.19
370.264	157.35
370.474	-2.39
370.685	102.06
370.896	71.34
371.107	69.29
371.317	34.47
371.528	46.76
371.739	112.3
371.95	59.05
372.16	118.44
372.371	-86.36
372.582	32.43
372.792	97.96
373.003	167.59
373.214	71.34
373.424	95.91
373.635	44.71
373.846	134.82
374.056	73.39
374.267	106.15
374.477	87.72
374.688	5.8
374.898	59.05
375.109	118.44
375.319	-6.49
375.53	138.92
375.74	130.73
375.951	42.67
376.161	69.29
376.372	73.39
376.582	32.43
376.793	71.34
377.003	13.99
377.214	34.47
377.424	126.63
377.635	40.62
377.845	38.57
378.055	161.45
378.266	24.23
378.476	52.91
378.686	118.44
378.897	77.48
379.107	89.77
379.317	28.33
379.528	13.99
379.738	85.67
379.948	-39.25
380.158	126.63
380.369	73.39
380.579	59.05
380.789	77.48
380.999	75.43
381.21	177.83
381.42	222.89
381.63	61.1
381.84	192.17
382.05	75.43
382.261	173.74
382.471	65.19
382.681	-8.53
382.891	134.82
383.101	114.34
383.311	38.57
383.521	24.23
383.731	30.38
383.941	30.38
384.151	63.15
384.361	7.85
384.571	-10.58
384.781	75.43
384.991	198.31
385.201	181.93
385.411	175.78
385.621	104.11
385.831	89.77
386.041	73.39
386.251	28.33
386.461	136.87
386.671	71.34
386.881	30.38
387.091	-43.35
387.301	151.21
387.511	122.54
387.72	28.33
387.93	116.39
388.14	24.23
388.35	48.81
388.56	112.3
388.769	83.63
388.979	65.19
389.189	30.38
389.399	112.3
389.609	71.34
389.818	106.15
390.028	65.19
390.238	130.73
390.447	11.95
390.657	44.71
390.867	38.57
391.076	-10.58
391.286	61.1
391.496	85.67
391.705	9.9
391.915	155.3
392.125	38.57
392.334	13.99
392.544	214.7
392.753	85.67
392.963	-6.49
393.172	32.43
393.382	59.05
393.591	143.02
393.801	-35.16
394.01	151.21
394.22	132.78
394.429	124.58
394.639	36.52
394.848	50.86
395.058	91.82
395.267	95.91
395.477	106.15
395.686	132.78
395.895	226.98
396.105	183.98
396.314	87.72
396.524	32.43
396.733	61.1
396.942	93.87
397.152	95.91
397.361	100.01
397.57	134.82
397.78	54.95
397.989	44.71
398.198	214.7
398.407	44.71
398.617	65.19
398.826	52.91
399.035	28.33
399.244	161.45
399.453	81.58
399.663	112.3
399.872	71.34
400.081	30.38
400.29	116.39
400.499	3.75
400.708	143.02
400.917	5.8
401.127	-24.92
401.336	-31.06
401.545	210.6
401.754	91.82
401.963	50.86
402.172	-10.58
402.381	9.9
402.59	-14.68
402.799	54.95
403.008	112.3
403.217	44.71
403.426	57
403.635	-31.06
403.844	48.81
404.053	52.91
404.262	18.09
404.471	200.36
404.68	102.06
404.888	40.62
405.097	61.1
405.306	18.09
405.515	93.87
405.724	85.67
405.933	140.97
406.142	126.63
406.35	87.72
406.559	77.48
406.768	7.85
406.977	186.02
407.185	126.63
407.394	87.72
407.603	52.91
407.812	136.87
408.02	194.22
408.229	34.47
408.438	83.63
408.646	-6.49
408.855	79.53
409.064	97.96
409.272	11.95
409.481	83.63
409.69	-18.77
409.898	-63.83
410.107	24.23
410.315	116.39
410.524	85.67
410.733	67.24
410.941	143.02
411.15	130.73
411.358	124.58
411.567	138.92
411.775	57
411.984	89.77
412.192	163.5
412.401	-14.68
412.609	224.94
412.818	112.3
413.026	83.63
413.234	7.85
413.443	87.72
413.651	-14.68
413.86	81.58
414.068	163.5
414.276	159.4
414.485	67.24
414.693	175.78
414.901	257.7
415.11	171.69
415.318	128.68
415.526	81.58
415.734	183.98
415.943	85.67
416.151	233.13
416.359	126.63
416.567	87.72
416.776	73.39
416.984	40.62
417.192	226.98
417.4	63.15
417.608	46.76
417.817	40.62
418.025	61.1
418.233	255.65
418.441	46.76
418.649	46.76
418.857	71.34
419.065	124.58
419.273	38.57
419.481	57
419.689	52.91
419.897	140.97
420.105	5.8
420.313	143.02
420.521	138.92
420.729	222.89
420.937	69.29
421.145	-24.92
421.353	126.63
421.561	226.98
421.769	89.77
421.977	116.39
422.185	63.15
422.393	-49.49
422.601	102.06
422.809	147.11
423.017	63.15
423.224	40.62
423.432	71.34
423.64	54.95
423.848	169.64
424.056	77.48
424.263	128.68
424.471	26.28
424.679	253.61
424.887	40.62
425.094	192.17
425.302	120.49
425.51	155.3
425.718	151.21
425.925	126.63
426.133	7.85
426.341	249.51
426.548	69.29
426.756	120.49
426.964	163.5
427.171	-43.35
427.379	108.2
427.586	57
427.794	126.63
428.001	118.44
428.209	114.34
428.417	130.73
428.624	157.35
428.832	159.4
429.039	52.91
429.247	126.63
429.454	134.82
429.662	284.33
429.869	173.74
430.076	89.77
430.284	235.18
430.491	136.87
430.699	192.17
430.906	288.42
431.114	118.44
431.321	206.5
431.528	165.54
431.736	165.54
431.943	233.13
432.15	274.09
432.358	202.41
432.565	325.29
432.772	16.04
432.979	243.37
433.187	177.83
433.394	200.36
433.601	153.26
433.808	263.85
434.016	329.38
434.223	308.9
434.43	274.09
434.637	224.94
434.844	364.2
435.052	296.61
435.259	288.42
435.466	331.43
435.673	298.66
435.88	351.91
436.087	396.96
436.294	386.72
436.501	358.05
436.708	284.33
436.915	313
437.122	417.44
437.329	288.42
437.537	351.91
437.743	431.78
437.95	521.89
438.157	452.26
438.364	505.51
438.571	454.31
438.778	495.27
438.985	546.47
439.192	466.6
439.399	499.36
439.606	513.7
439.813	655.01
440.02	687.78
440.227	667.3
440.433	634.53
440.64	597.67
440.847	646.82
441.054	665.25
441.261	804.51
441.467	679.58
441.674	612
441.881	847.52
442.088	689.82
442.294	896.67
442.501	925.34
442.708	913.05
442.914	915.1
443.121	968.35
443.328	968.35
443.534	1160.86
443.741	1058.46
443.948	913.05
444.154	1160.86
444.361	1324.69
444.568	1113.75
444.774	1257.11
444.981	1146.52
445.187	1398.42
445.394	1398.42
445.6	1420.95
445.807	1496.72
446.013	1470.1
446.22	1388.18
446.426	1625.75
446.633	1752.72
446.839	1805.97
447.046	1775.25
447.252	1934.99
447.459	1851.02
447.665	1947.28
447.871	2113.16
448.078	2371.21
448.284	2154.12
448.491	2291.34
448.697	2459.27
448.903	2522.76
449.11	2582.15
449.316	2588.29
449.522	2788.99
449.728	2745.98
449.935	2936.45
450.141	2930.3
450.347	3212.92
450.553	3245.69
450.76	3274.36
450.966	3415.67
451.172	3368.57
451.378	3683.95
451.584	3731.06
451.791	3866.22
451.997	3942
452.203	4200.04
452.409	4474.47
452.615	4564.58
452.821	4390.5
453.027	4644.45
453.233	5097.05
453.44	4861.54
453.646	5127.77
453.852	5475.93
454.058	5557.85
454.264	5635.67
454.47	6217.29
454.676	6217.29
454.882	6608.45
455.088	6452.81
455.294	6688.32
455.5	7134.78
455.705	7691.83
455.911	7601.72
456.117	7870
456.323	8089.14
456.529	8304.17
456.735	9020.96
456.941	8971.81
457.147	9387.55
457.352	9690.65
457.558	9956.88
457.764	10556.94
457.97	10849.8
458.176	11343.36
458.381	11726.33
458.587	12310
458.793	12582.38
458.999	12565.99
459.204	14259.67
459.41	14804.42
459.616	14480.85
459.821	15269.31
460.027	16115.12
460.233	16727.47
460.438	17016.23
460.644	17976.73
460.85	17931.67
461.055	18822.54
461.261	19737.98
461.466	19443.07
461.672	19330.44
461.878	22068.57
462.083	21591.39
462.289	21937.5
462.494	22975.82
462.7	23153.99
462.905	23121.23
463.111	25144.62
463.316	26592.53
463.522	27071.76
463.727	27839.75
463.932	29091.05
464.138	29738.21
464.343	31356.11
464.549	31599.82
464.754	33707.18
464.959	34618.52
465.165	35026.07
465.37	34776.22
465.575	34501.79
465.781	37014.65
465.986	37913.7
466.191	37555.31
466.397	37772.39
466.602	36965.49
466.807	39261.27
467.012	40012.87
467.218	40723.52
467.423	40236.1
467.628	41806.89
467.833	43615.25
468.038	42939.42
468.244	42568.74
468.449	44448.77
468.654	43779.09
468.859	43336.73
469.064	43584.53
