Data from USB4F104151__88__10-44-38-367.txt Node

Date: Wed Feb 26 10:44:38 EST 2025
User: louis
Spectrometer: USB4F10415
Trigger mode: 4
Integration Time (sec): 1.000000E-1
Scans to average: 1
Electric dark correction enabled: true
Nonlinearity correction enabled: false
Boxcar width: 0
XAxis mode: Wavelengths
Number of Pixels in Spectrum: 3648
>>>>>Begin Spectral Data<<<<<
178.204	-394.23
178.424	-394.23
178.644	-394.23
178.864	-386.04
179.084	-359.42
179.304	-60.42
179.524	-9.22
179.744	-23.55
179.964	52.22
180.184	-5.12
180.404	74.75
180.624	-31.74
180.844	-15.36
181.064	-46.08
181.283	-17.41
181.503	-33.79
181.723	115.71
181.943	-91.13
182.163	76.8
182.383	68.61
182.602	48.13
182.822	136.19
183.042	54.27
183.262	-15.36
183.482	-41.98
183.701	5.12
183.921	68.61
184.141	-3.07
184.361	103.42
184.58	58.37
184.8	1.02
185.02	-31.74
185.239	113.66
185.459	44.03
185.679	107.52
185.898	-82.94
186.118	74.75
186.338	58.37
186.557	68.61
186.777	5.12
186.997	-93.18
187.216	150.53
187.436	209.92
187.655	62.46
187.875	146.43
188.095	33.79
188.314	132.09
188.534	103.42
188.753	-41.98
188.973	60.42
189.192	138.24
189.412	3.07
189.631	-9.22
189.851	95.23
190.07	132.09
190.29	21.5
190.509	82.94
190.729	66.56
190.948	140.29
191.168	211.96
191.387	89.09
191.607	-11.26
191.826	76.8
192.045	27.65
192.265	-103.42
192.484	68.61
192.704	3.07
192.923	-21.5
193.142	132.09
193.362	99.33
193.581	132.09
193.8	58.37
194.02	103.42
194.239	68.61
194.458	35.84
194.678	54.27
194.897	-9.22
195.116	25.6
195.335	66.56
195.555	41.98
195.774	21.5
195.993	130.05
196.212	-39.94
196.432	37.89
196.651	-29.7
196.87	84.99
197.089	295.93
197.308	103.42
197.528	74.75
197.747	13.31
197.966	62.46
198.185	121.85
198.404	-44.03
198.623	91.13
198.842	95.23
199.062	80.89
199.281	146.43
199.5	89.09
199.719	121.85
199.938	91.13
200.157	66.56
200.376	33.79
200.595	27.65
200.814	39.94
201.033	19.46
201.252	205.82
201.471	58.37
201.69	70.65
201.909	72.7
202.128	195.58
202.347	89.09
202.566	-80.89
202.785	-31.74
203.004	-3.07
203.223	195.58
203.442	58.37
203.661	-44.03
203.879	78.85
204.098	195.58
204.317	52.22
204.536	177.15
204.755	117.76
204.974	39.94
205.193	27.65
205.411	193.53
205.63	95.23
205.849	93.18
206.068	-17.41
206.287	3.07
206.505	146.43
206.724	-9.22
206.943	-37.89
207.162	25.6
207.381	103.42
207.599	70.65
207.818	82.94
208.037	-78.85
208.255	64.51
208.474	19.46
208.693	-1.02
208.911	9.22
209.13	156.67
209.349	111.61
209.567	25.6
209.786	97.28
210.005	80.89
210.223	39.94
210.442	-82.94
210.661	37.89
210.879	37.89
211.098	21.5
211.316	23.55
211.535	84.99
211.753	46.08
211.972	46.08
212.191	-54.27
212.409	19.46
212.628	37.89
212.846	70.65
213.065	1.02
213.283	115.71
213.502	41.98
213.72	-11.26
213.938	37.89
214.157	23.55
214.375	136.19
214.594	7.17
214.812	162.81
215.031	13.31
215.249	23.55
215.467	52.22
215.686	93.18
215.904	66.56
216.122	87.04
216.341	226.3
216.559	-23.55
216.778	111.61
216.996	132.09
217.214	101.37
217.432	48.13
217.651	-66.56
217.869	33.79
218.087	19.46
218.306	-19.46
218.524	37.89
218.742	35.84
218.96	132.09
219.179	-27.65
219.397	17.41
219.615	248.83
219.833	64.51
220.051	5.12
220.27	125.95
220.488	130.05
220.706	125.95
220.924	-7.17
221.142	-17.41
221.36	91.13
221.578	56.32
221.796	31.74
222.015	41.98
222.233	29.7
222.451	187.39
222.669	-60.42
222.887	95.23
223.105	68.61
223.323	72.7
223.541	19.46
223.759	50.18
223.977	54.27
224.195	138.24
224.413	134.14
224.631	46.08
224.849	15.36
225.067	185.34
225.285	-21.5
225.503	29.7
225.721	-113.66
225.939	3.07
226.157	64.51
226.375	248.83
226.592	39.94
226.81	44.03
227.028	78.85
227.246	117.76
227.464	5.12
227.682	117.76
227.9	23.55
228.117	74.75
228.335	128
228.553	-3.07
228.771	33.79
228.989	103.42
229.206	128
229.424	58.37
229.642	-25.6
229.86	-13.31
230.077	195.58
230.295	109.57
230.513	148.48
230.731	87.04
230.948	144.38
231.166	113.66
231.384	33.79
231.601	-15.36
231.819	166.91
232.037	5.12
232.254	-21.5
232.472	-7.17
232.689	-5.12
232.907	64.51
233.125	35.84
233.342	-3.07
233.56	-15.36
233.777	41.98
233.995	72.7
234.213	99.33
234.43	52.22
234.648	-15.36
234.865	76.8
235.083	132.09
235.3	17.41
235.518	66.56
235.735	230.4
235.953	152.57
236.17	17.41
236.388	-7.17
236.605	91.13
236.822	107.52
237.04	193.53
237.257	1.02
237.475	23.55
237.692	-11.26
237.909	175.1
238.127	-21.5
238.344	134.14
238.562	72.7
238.779	-58.37
238.996	7.17
239.214	44.03
239.431	91.13
239.648	-33.79
239.865	70.65
240.083	107.52
240.3	17.41
240.517	101.37
240.735	9.22
240.952	175.1
241.169	84.99
241.386	117.76
241.603	39.94
241.821	-44.03
242.038	99.33
242.255	41.98
242.472	-54.27
242.689	80.89
242.907	76.8
243.124	62.46
243.341	39.94
243.558	39.94
243.775	-9.22
243.992	-68.61
244.209	164.86
244.426	271.36
244.643	33.79
244.86	39.94
245.078	39.94
245.295	-11.26
245.512	-58.37
245.729	25.6
245.946	17.41
246.163	44.03
246.38	-13.31
246.597	62.46
246.814	76.8
247.031	56.32
247.248	-3.07
247.464	82.94
247.681	-27.65
247.898	72.7
248.115	89.09
248.332	-5.12
248.549	136.19
248.766	171.01
248.983	15.36
249.2	97.28
249.417	111.61
249.633	9.22
249.85	101.37
250.067	29.7
250.284	52.22
250.501	54.27
250.717	136.19
250.934	-17.41
251.151	62.46
251.368	74.75
251.585	66.56
251.801	-11.26
252.018	9.22
252.235	50.18
252.451	1.02
252.668	66.56
252.885	91.13
253.102	93.18
253.318	35.84
253.535	39.94
253.752	-19.46
253.968	37.89
254.185	-76.8
254.401	132.09
254.618	66.56
254.835	-64.51
255.051	109.57
255.268	111.61
255.484	25.6
255.701	46.08
255.917	74.75
256.134	-78.85
256.351	-3.07
256.567	-27.65
256.784	33.79
257	-80.89
257.217	82.94
257.433	113.66
257.65	64.51
257.866	160.77
258.082	-9.22
258.299	-17.41
258.515	64.51
258.732	7.17
258.948	19.46
259.165	21.5
259.381	-5.12
259.597	25.6
259.814	-5.12
260.03	33.79
260.246	-95.23
260.463	158.72
260.679	168.96
260.895	33.79
261.112	91.13
261.328	82.94
261.544	9.22
261.761	91.13
261.977	-68.61
262.193	-78.85
262.409	101.37
262.626	52.22
262.842	50.18
263.058	50.18
263.274	56.32
263.49	80.89
263.707	87.04
263.923	91.13
264.139	-48.13
264.355	103.42
264.571	84.99
264.787	173.05
265.004	27.65
265.22	21.5
265.436	13.31
265.652	-44.03
265.868	91.13
266.084	-29.7
266.3	95.23
266.516	-70.65
266.732	13.31
266.948	39.94
267.164	7.17
267.38	154.62
267.596	37.89
267.812	107.52
268.028	121.85
268.244	-41.98
268.46	1.02
268.676	31.74
268.892	21.5
269.108	-7.17
269.324	-21.5
269.54	-5.12
269.756	150.53
269.972	-27.65
270.188	66.56
270.403	3.07
270.619	7.17
270.835	121.85
271.051	76.8
271.267	-9.22
271.483	-1.02
271.698	82.94
271.914	76.8
272.13	27.65
272.346	44.03
272.562	48.13
272.777	164.86
272.993	-68.61
273.209	1.02
273.425	87.04
273.64	19.46
273.856	93.18
274.072	-21.5
274.287	-13.31
274.503	103.42
274.719	48.13
274.934	-46.08
275.15	-58.37
275.366	41.98
275.581	-29.7
275.797	113.66
276.012	31.74
276.228	35.84
276.444	54.27
276.659	177.15
276.875	-7.17
277.09	101.37
277.306	70.65
277.521	76.8
277.737	5.12
277.952	128
278.168	1.02
278.383	23.55
278.599	-7.17
278.814	46.08
279.03	105.47
279.245	199.68
279.461	-5.12
279.676	54.27
279.892	-31.74
280.107	-13.31
280.322	-70.65
280.538	107.52
280.753	-54.27
280.969	70.65
281.184	54.27
281.399	111.61
281.615	25.6
281.83	9.22
282.045	-21.5
282.26	9.22
282.476	5.12
282.691	66.56
282.906	23.55
283.122	117.76
283.337	-39.94
283.552	111.61
283.767	72.7
283.983	91.13
284.198	54.27
284.413	1.02
284.628	-41.98
284.843	39.94
285.058	64.51
285.274	58.37
285.489	-25.6
285.704	164.86
285.919	31.74
286.134	33.79
286.349	35.84
286.564	-25.6
286.779	138.24
286.995	-29.7
287.21	-105.47
287.425	62.46
287.64	-29.7
287.855	64.51
288.07	15.36
288.285	58.37
288.5	152.57
288.715	33.79
288.93	-9.22
289.145	-5.12
289.36	60.42
289.575	39.94
289.79	95.23
290.004	31.74
290.219	105.47
290.434	33.79
290.649	39.94
290.864	-44.03
291.079	-11.26
291.294	93.18
291.509	35.84
291.724	-3.07
291.938	31.74
292.153	60.42
292.368	39.94
292.583	58.37
292.798	68.61
293.012	125.95
293.227	31.74
293.442	66.56
293.657	150.53
293.871	125.95
294.086	134.14
294.301	185.34
294.516	175.1
294.73	-7.17
294.945	29.7
295.16	82.94
295.374	109.57
295.589	195.58
295.804	-15.36
296.018	35.84
296.233	93.18
296.447	62.46
296.662	41.98
296.877	107.52
297.091	166.91
297.306	41.98
297.52	15.36
297.735	72.7
297.949	-1.02
298.164	35.84
298.378	48.13
298.593	-19.46
298.807	-25.6
299.022	29.7
299.236	168.96
299.451	54.27
299.665	48.13
299.88	140.29
300.094	37.89
300.309	44.03
300.523	82.94
300.737	1.02
300.952	37.89
301.166	15.36
301.381	25.6
301.595	-5.12
301.809	13.31
302.024	107.52
302.238	-78.85
302.452	128
302.667	132.09
302.881	121.85
303.095	130.05
303.309	46.08
303.524	-13.31
303.738	-3.07
303.952	-9.22
304.166	66.56
304.381	-148.48
304.595	111.61
304.809	-19.46
305.023	-1.02
305.237	48.13
305.452	1.02
305.666	7.17
305.88	87.04
306.094	97.28
306.308	60.42
306.522	64.51
306.736	125.95
306.95	70.65
307.164	23.55
307.379	66.56
307.593	175.1
307.807	123.9
308.021	58.37
308.235	115.71
308.449	-87.04
308.663	62.46
308.877	197.63
309.091	72.7
309.305	-7.17
309.519	-64.51
309.733	117.76
309.947	-56.32
310.161	74.75
310.374	132.09
310.588	148.48
310.802	-7.17
311.016	37.89
311.23	58.37
311.444	-27.65
311.658	101.37
311.872	91.13
312.085	156.67
312.299	68.61
312.513	87.04
312.727	80.89
312.941	-5.12
313.154	78.85
313.368	74.75
313.582	87.04
313.796	64.51
314.009	13.31
314.223	103.42
314.437	97.28
314.651	50.18
314.864	-13.31
315.078	13.31
315.292	-29.7
315.505	7.17
315.719	121.85
315.933	48.13
316.146	3.07
316.36	9.22
316.573	154.62
316.787	48.13
317.001	119.81
317.214	-52.22
317.428	29.7
317.641	-60.42
317.855	-15.36
318.068	95.23
318.282	48.13
318.495	134.14
318.709	70.65
318.922	54.27
319.136	123.9
319.349	138.24
319.563	-35.84
319.776	64.51
319.99	-70.65
320.203	27.65
320.417	68.61
320.63	66.56
320.843	254.97
321.057	52.22
321.27	58.37
321.483	41.98
321.697	113.66
321.91	54.27
322.124	50.18
322.337	72.7
322.55	15.36
322.763	1.02
322.977	27.65
323.19	5.12
323.403	60.42
323.617	84.99
323.83	23.55
324.043	11.26
324.256	97.28
324.469	-52.22
324.683	62.46
324.896	62.46
325.109	66.56
325.322	-58.37
325.535	74.75
325.748	158.72
325.962	-9.22
326.175	54.27
326.388	19.46
326.601	142.33
326.814	-1.02
327.027	82.94
327.24	150.53
327.453	-134.14
327.666	158.72
327.879	105.47
328.092	68.61
328.305	68.61
328.518	-19.46
328.731	19.46
328.944	-56.32
329.157	82.94
329.37	7.17
329.583	162.81
329.796	130.05
330.009	-29.7
330.222	95.23
330.435	62.46
330.648	3.07
330.861	25.6
331.073	13.31
331.286	48.13
331.499	46.08
331.712	-54.27
331.925	-1.02
332.138	50.18
332.35	107.52
332.563	39.94
332.776	162.81
332.989	-64.51
333.202	84.99
333.414	-9.22
333.627	15.36
333.84	27.65
334.053	33.79
334.265	31.74
334.478	-19.46
334.691	68.61
334.903	89.09
335.116	37.89
335.329	58.37
335.541	54.27
335.754	222.2
335.966	7.17
336.179	1.02
336.392	-27.65
336.604	11.26
336.817	13.31
337.029	3.07
337.242	54.27
337.454	136.19
337.667	-3.07
337.88	103.42
338.092	89.09
338.305	89.09
338.517	-7.17
338.729	109.57
338.942	99.33
339.154	-99.33
339.367	7.17
339.579	80.89
339.792	-3.07
340.004	66.56
340.217	-23.55
340.429	97.28
340.641	-33.79
340.854	-19.46
341.066	-25.6
341.278	193.53
341.491	164.86
341.703	50.18
341.915	-21.5
342.128	84.99
342.34	58.37
342.552	-15.36
342.764	60.42
342.977	70.65
343.189	87.04
343.401	33.79
343.613	-21.5
343.826	140.29
344.038	-5.12
344.25	21.5
344.462	21.5
344.674	64.51
344.886	-33.79
345.099	-3.07
345.311	7.17
345.523	41.98
345.735	-60.42
345.947	52.22
346.159	111.61
346.371	25.6
346.583	3.07
346.795	162.81
347.007	-13.31
347.219	54.27
347.431	39.94
347.643	87.04
347.855	-1.02
348.067	140.29
348.279	-54.27
348.491	33.79
348.703	91.13
348.915	46.08
349.127	11.26
349.339	50.18
349.551	-46.08
349.763	115.71
349.975	37.89
350.187	144.38
350.399	168.96
350.61	84.99
350.822	17.41
351.034	107.52
351.246	44.03
351.458	107.52
351.669	138.24
351.881	76.8
352.093	101.37
352.305	144.38
352.517	52.22
352.728	130.05
352.94	60.42
353.152	56.32
353.363	-72.7
353.575	103.42
353.787	82.94
353.999	23.55
354.21	152.57
354.422	-35.84
354.633	7.17
354.845	119.81
355.057	101.37
355.268	72.7
355.48	72.7
355.692	-146.43
355.903	44.03
356.115	25.6
356.326	-93.18
356.538	181.25
356.749	207.87
356.961	152.57
357.172	-87.04
357.384	-9.22
357.595	306.17
357.807	19.46
358.018	-1.02
358.23	23.55
358.441	152.57
358.653	97.28
358.864	21.5
359.075	48.13
359.287	27.65
359.498	138.24
359.709	115.71
359.921	89.09
360.132	21.5
360.344	33.79
360.555	-50.18
360.766	3.07
360.977	-7.17
361.189	119.81
361.4	52.22
361.611	111.61
361.823	105.47
362.034	101.37
362.245	-41.98
362.456	-29.7
362.667	154.62
362.879	48.13
363.09	66.56
363.301	29.7
363.512	25.6
363.723	29.7
363.935	3.07
364.146	72.7
364.357	56.32
364.568	15.36
364.779	21.5
364.99	103.42
365.201	150.53
365.412	46.08
365.623	-56.32
365.834	39.94
366.045	25.6
366.256	95.23
366.467	21.5
366.678	-23.55
366.889	105.47
367.1	33.79
367.311	66.56
367.522	21.5
367.733	39.94
367.944	39.94
368.155	5.12
368.366	117.76
368.577	121.85
368.788	101.37
368.999	-3.07
369.209	74.75
369.42	171.01
369.631	275.45
369.842	-3.07
370.053	-37.89
370.264	70.65
370.474	-68.61
370.685	107.52
370.896	44.03
371.107	93.18
371.317	27.65
371.528	13.31
371.739	166.91
371.95	72.7
372.16	80.89
372.371	-87.04
372.582	15.36
372.792	25.6
373.003	62.46
373.214	54.27
373.424	97.28
373.635	15.36
373.846	125.95
374.056	48.13
374.267	72.7
374.477	66.56
374.688	41.98
374.898	13.31
375.109	33.79
375.319	115.71
375.53	68.61
375.74	132.09
375.951	-7.17
376.161	41.98
376.372	113.66
376.582	-23.55
376.793	138.24
377.003	-31.74
377.214	-50.18
377.424	44.03
377.635	82.94
377.845	-11.26
378.055	148.48
378.266	-87.04
378.476	11.26
378.686	74.75
378.897	44.03
379.107	166.91
379.317	148.48
379.528	-29.7
379.738	74.75
379.948	-87.04
380.158	39.94
380.369	35.84
380.579	84.99
380.789	35.84
380.999	146.43
381.21	148.48
381.42	166.91
381.63	11.26
381.84	132.09
382.05	56.32
382.261	130.05
382.471	113.66
382.681	9.22
382.891	162.81
383.101	-15.36
383.311	-9.22
383.521	3.07
383.731	78.85
383.941	140.29
384.151	93.18
384.361	35.84
384.571	1.02
384.781	72.7
384.991	246.78
385.201	150.53
385.411	91.13
385.621	99.33
385.831	64.51
386.041	93.18
386.251	13.31
386.461	154.62
386.671	-3.07
386.881	101.37
387.091	84.99
387.301	91.13
387.511	15.36
387.72	41.98
387.93	156.67
388.14	-95.23
388.35	89.09
388.56	130.05
388.769	117.76
388.979	-31.74
389.189	1.02
389.399	68.61
389.609	134.14
389.818	111.61
390.028	89.09
390.238	54.27
390.447	-72.7
390.657	99.33
390.867	-5.12
391.076	-41.98
391.286	58.37
391.496	-39.94
391.705	72.7
391.915	80.89
392.125	117.76
392.334	27.65
392.544	142.33
392.753	115.71
392.963	48.13
393.172	19.46
393.382	15.36
393.591	164.86
393.801	52.22
394.01	179.2
394.22	111.61
394.429	58.37
394.639	-41.98
394.848	-15.36
395.058	56.32
395.267	39.94
395.477	56.32
395.686	37.89
395.895	201.72
396.105	197.63
396.314	97.28
396.524	48.13
396.733	48.13
396.942	91.13
397.152	76.8
397.361	74.75
397.57	46.08
397.78	27.65
397.989	7.17
398.198	138.24
398.407	39.94
398.617	7.17
398.826	64.51
399.035	29.7
399.244	103.42
399.453	101.37
399.663	-3.07
399.872	58.37
400.081	-31.74
400.29	74.75
400.499	35.84
400.708	164.86
400.917	-35.84
401.127	-5.12
401.336	5.12
401.545	95.23
401.754	109.57
401.963	115.71
402.172	76.8
402.381	-23.55
402.59	50.18
402.799	13.31
403.008	119.81
403.217	5.12
403.426	62.46
403.635	-33.79
403.844	11.26
404.053	-52.22
404.262	50.18
404.471	205.82
404.68	144.38
404.888	48.13
405.097	29.7
405.306	23.55
405.515	64.51
405.724	-15.36
405.933	199.68
406.142	17.41
406.35	142.33
406.559	-7.17
406.768	113.66
406.977	97.28
407.185	44.03
407.394	103.42
407.603	-48.13
407.812	99.33
408.02	128
408.229	9.22
408.438	54.27
408.646	-54.27
408.855	121.85
409.064	89.09
409.272	3.07
409.481	66.56
409.69	50.18
409.898	9.22
410.107	103.42
410.315	107.52
410.524	-21.5
410.733	97.28
410.941	29.7
411.15	44.03
411.358	111.61
411.567	181.25
411.775	35.84
411.984	99.33
412.192	97.28
412.401	54.27
412.609	201.72
412.818	123.9
413.026	76.8
413.234	99.33
413.443	111.61
413.651	11.26
413.86	134.14
414.068	111.61
414.276	191.49
414.485	-1.02
414.693	232.44
414.901	240.64
415.11	76.8
415.318	70.65
415.526	29.7
415.734	144.38
415.943	66.56
416.151	60.42
416.359	101.37
416.567	93.18
416.776	138.24
416.984	48.13
417.192	197.63
417.4	-23.55
417.608	23.55
417.817	-19.46
418.025	46.08
418.233	214.01
418.441	76.8
418.649	-62.46
418.857	91.13
419.065	132.09
419.273	70.65
419.481	72.7
419.689	93.18
419.897	35.84
420.105	-64.51
420.313	113.66
420.521	179.2
420.729	154.62
420.937	3.07
421.145	-68.61
421.353	74.75
421.561	146.43
421.769	82.94
421.977	39.94
422.185	113.66
422.393	25.6
422.601	128
422.809	21.5
423.017	123.9
423.224	44.03
423.432	179.2
423.64	70.65
423.848	144.38
424.056	7.17
424.263	105.47
424.471	13.31
424.679	103.42
424.887	1.02
425.094	162.81
425.302	66.56
425.51	93.18
425.718	66.56
425.925	103.42
426.133	-31.74
426.341	162.81
426.548	13.31
426.756	74.75
426.964	89.09
427.171	-5.12
427.379	150.53
427.586	101.37
427.794	115.71
428.001	105.47
428.209	117.76
428.417	189.44
428.624	132.09
428.832	156.67
429.039	128
429.247	66.56
429.454	84.99
429.662	181.25
429.869	117.76
430.076	9.22
430.284	187.39
430.491	275.45
430.699	128
430.906	265.21
431.114	72.7
431.321	183.29
431.528	148.48
431.736	136.19
431.943	150.53
432.15	248.83
432.358	123.9
432.565	160.77
432.772	134.14
432.979	193.53
433.187	111.61
433.394	205.82
433.601	173.05
433.808	254.97
434.016	275.45
434.223	322.56
434.43	164.86
434.637	324.6
434.844	287.74
435.052	257.02
435.259	232.44
435.466	330.75
435.673	273.4
435.88	244.73
436.087	271.36
436.294	400.38
436.501	295.93
436.708	291.84
436.915	316.41
437.122	347.13
437.329	216.06
437.537	320.51
437.743	314.36
437.95	445.43
438.157	349.18
438.364	414.71
438.571	404.47
438.778	429.05
438.985	459.77
439.192	517.11
439.399	476.15
439.606	443.39
439.813	521.21
440.02	521.21
440.227	560.12
440.433	642.04
440.64	525.3
440.847	547.83
441.054	566.26
441.261	736.24
441.467	625.65
441.674	627.7
441.881	705.53
442.088	586.74
442.294	721.91
442.501	779.25
442.708	805.88
442.914	766.96
443.121	891.89
443.328	873.46
443.534	1022.96
443.741	885.75
443.948	799.73
444.154	951.28
444.361	1186.8
444.568	1086.45
444.774	1022.96
444.981	992.24
445.187	1219.57
445.394	1213.42
445.6	1141.74
445.807	1291.24
446.013	1233.9
446.22	1289.2
446.426	1459.18
446.633	1553.38
446.839	1704.93
447.046	1444.84
447.252	1696.74
447.459	1577.96
447.665	1651.69
447.871	1913.83
448.078	2032.61
448.284	1938.4
448.491	2028.51
448.697	2120.67
448.903	2110.43
449.11	2298.84
449.316	2096.1
449.522	2454.49
449.728	2436.06
449.935	2450.39
450.141	2470.87
450.347	2704.34
450.553	2513.88
450.76	2839.51
450.966	2925.52
451.172	2917.33
451.378	2935.76
451.584	3218.38
451.791	3531.72
451.997	3384.27
452.203	3632.07
452.409	3912.64
452.615	3890.12
452.821	3703.75
453.027	3935.17
453.233	4375.49
453.44	4139.97
453.646	4479.93
453.852	4606.91
454.058	4858.81
454.264	4770.74
454.47	5350.32
454.676	5303.22
454.882	5755.82
455.088	5508.01
455.294	5817.26
455.5	6097.83
455.705	6560.67
455.911	6562.72
456.117	6704.03
456.323	7031.7
456.529	6955.93
456.735	7728.01
456.941	7902.09
457.147	7893.9
457.352	8377.22
457.558	8639.36
457.764	9061.24
457.97	9390.96
458.176	9757.55
458.381	9902.95
458.587	10281.83
458.793	10572.64
458.999	11004.76
459.204	12155.72
459.41	12598.08
459.616	12335.94
459.821	13144.89
460.027	13810.48
460.233	14279.46
460.438	14117.67
460.644	15094.55
460.85	15469.33
461.055	16036.62
461.261	16601.86
461.466	16272.14
461.672	16720.64
461.878	18672.36
462.083	18463.46
462.289	18782.95
462.494	19714.77
462.7	19616.47
462.905	19808.98
463.111	21867.19
463.316	22805.16
463.522	23122.59
463.727	23806.61
463.932	24930.95
464.138	25422.46
464.343	26479.21
464.549	26843.75
464.754	28488.27
464.959	29389.38
465.165	30188.08
465.37	29653.56
465.575	29884.98
465.781	31592.99
465.986	32596.49
466.191	31793.69
466.397	32324.11
466.602	31775.26
466.807	33741.31
467.012	34228.73
467.218	34623.98
467.423	35142.12
467.628	35809.76
467.833	37448.13
468.038	36825.55
468.244	36227.54
468.449	38111.67
468.654	37525.96
468.859	37444.04
469.064	37419.46
