Data from USB4F104151__287__11-21-04-829.txt Node

Date: Wed Feb 26 11:21:04 EST 2025
User: louis
Spectrometer: USB4F10415
Trigger mode: 4
Integration Time (sec): 1.000000E-1
Scans to average: 1
Electric dark correction enabled: true
Nonlinearity correction enabled: false
Boxcar width: 0
XAxis mode: Wavelengths
Number of Pixels in Spectrum: 3648
>>>>>Begin Spectral Data<<<<<
178.204	-402.08
178.424	-402.08
178.644	-402.08
178.864	-334.5
179.084	-385.7
179.304	23.89
179.524	-15.02
179.744	-17.07
179.964	-15.02
180.184	44.37
180.404	1.37
180.624	-78.51
180.844	-27.31
181.064	-92.84
181.283	11.61
181.503	64.85
181.723	99.67
181.943	-37.55
182.163	210.26
182.383	48.47
182.602	9.56
182.822	165.2
183.042	93.52
183.262	-27.31
183.482	5.46
183.701	120.15
183.921	25.94
184.141	-51.88
184.361	60.76
184.58	101.72
184.8	87.38
185.02	-51.88
185.239	107.86
185.459	99.67
185.679	122.2
185.898	-70.31
186.118	62.8
186.338	101.72
186.557	107.86
186.777	-29.35
186.997	13.65
187.216	13.65
187.436	197.97
187.655	77.14
187.875	42.32
188.095	36.18
188.314	177.49
188.534	142.68
188.753	-156.33
188.973	150.87
189.192	243.03
189.412	11.61
189.631	34.13
189.851	81.24
190.07	114
190.29	-72.36
190.509	-31.4
190.729	36.18
190.948	118.1
191.168	298.32
191.387	140.63
191.607	36.18
191.826	128.34
192.045	-23.21
192.265	48.47
192.484	173.39
192.704	107.86
192.923	-58.03
193.142	251.22
193.362	124.24
193.581	118.1
193.8	38.23
194.02	126.29
194.239	25.94
194.458	124.24
194.678	3.41
194.897	7.51
195.116	40.28
195.335	103.76
195.555	83.28
195.774	-8.87
195.993	103.76
196.212	85.33
196.432	66.9
196.651	38.23
196.87	-31.4
197.089	191.83
197.308	58.71
197.528	107.86
197.747	-74.41
197.966	171.35
198.185	132.44
198.404	-12.97
198.623	105.81
198.842	68.95
199.062	73.04
199.281	105.81
199.5	9.56
199.719	173.39
199.938	36.18
200.157	38.23
200.376	177.49
200.595	116.05
200.814	52.56
201.033	-47.79
201.252	216.4
201.471	89.43
201.69	56.66
201.909	36.18
202.128	44.37
202.347	75.09
202.566	95.57
202.785	-23.21
203.004	-88.75
203.223	183.63
203.442	7.51
203.661	-64.17
203.879	191.83
204.098	81.24
204.317	17.75
204.536	128.34
204.755	157.01
204.974	66.9
205.193	40.28
205.411	89.43
205.63	140.63
205.849	95.57
206.068	-2.73
206.287	9.56
206.505	126.29
206.724	9.56
206.943	15.7
207.162	-31.4
207.381	40.28
207.599	48.47
207.818	44.37
208.037	42.32
208.255	7.51
208.474	48.47
208.693	44.37
208.911	-53.93
209.13	79.19
209.349	130.39
209.567	116.05
209.786	105.81
210.005	142.68
210.223	75.09
210.442	1.37
210.661	7.51
210.879	17.75
211.098	25.94
211.316	3.41
211.535	77.14
211.753	79.19
211.972	116.05
212.191	81.24
212.409	17.75
212.628	91.48
212.846	-27.31
213.065	17.75
213.283	154.96
213.502	58.71
213.72	71
213.938	42.32
214.157	42.32
214.375	169.3
214.594	52.56
214.812	81.24
215.031	5.46
215.249	91.48
215.467	79.19
215.686	60.76
215.904	75.09
216.122	97.62
216.341	181.59
216.559	91.48
216.778	52.56
216.996	173.39
217.214	60.76
217.432	13.65
217.651	21.85
217.869	83.28
218.087	-25.26
218.306	1.37
218.524	75.09
218.742	17.75
218.96	95.57
219.179	71
219.397	42.32
219.615	245.07
219.833	132.44
220.051	19.8
220.27	103.76
220.488	75.09
220.706	97.62
220.924	48.47
221.142	27.99
221.36	79.19
221.578	120.15
221.796	52.56
222.015	75.09
222.233	71
222.451	152.92
222.669	-68.27
222.887	105.81
223.105	-0.68
223.323	48.47
223.541	58.71
223.759	5.46
223.977	85.33
224.195	191.83
224.413	114
224.631	21.85
224.849	27.99
225.067	306.51
225.285	-51.88
225.503	85.33
225.721	-76.46
225.939	56.66
226.157	40.28
226.375	218.45
226.592	38.23
226.81	42.32
227.028	167.25
227.246	161.11
227.464	99.67
227.682	54.61
227.9	66.9
228.117	11.61
228.335	140.63
228.553	-2.73
228.771	97.62
228.989	71
229.206	81.24
229.424	-8.87
229.642	75.09
229.86	-49.83
230.077	195.92
230.295	109.91
230.513	114
230.731	118.1
230.948	185.68
231.166	220.5
231.384	50.52
231.601	-37.55
231.819	144.72
232.037	-129.7
232.254	-45.74
232.472	-19.11
232.689	87.38
232.907	152.92
233.125	11.61
233.342	-49.83
233.56	-19.11
233.777	-6.83
233.995	7.51
234.213	173.39
234.43	116.05
234.648	30.04
234.865	36.18
235.083	54.61
235.3	58.71
235.518	87.38
235.735	163.15
235.953	52.56
236.17	50.52
236.388	-33.45
236.605	50.52
236.822	83.28
237.04	97.62
237.257	48.47
237.475	38.23
237.692	-6.83
237.909	75.09
238.127	42.32
238.344	-15.02
238.562	75.09
238.779	-39.59
238.996	38.23
239.214	97.62
239.431	93.52
239.648	-31.4
239.865	146.77
240.083	-6.83
240.3	19.8
240.517	58.71
240.735	48.47
240.952	114
241.169	54.61
241.386	71
241.603	38.23
241.821	-23.21
242.038	144.72
242.255	132.44
242.472	42.32
242.689	30.04
242.907	73.04
243.124	15.7
243.341	30.04
243.558	44.37
243.775	-45.74
243.992	-17.07
244.209	42.32
244.426	189.78
244.643	34.13
244.86	128.34
245.078	116.05
245.295	40.28
245.512	13.65
245.729	38.23
245.946	48.47
246.163	27.99
246.38	-25.26
246.597	130.39
246.814	66.9
247.031	89.43
247.248	50.52
247.464	99.67
247.681	73.04
247.898	87.38
248.115	66.9
248.332	-55.98
248.549	116.05
248.766	150.87
248.983	109.91
249.2	128.34
249.417	95.57
249.633	32.08
249.85	109.91
250.067	50.52
250.284	66.9
250.501	38.23
250.717	64.85
250.934	-49.83
251.151	44.37
251.368	32.08
251.585	40.28
251.801	85.33
252.018	-70.31
252.235	146.77
252.451	-19.11
252.668	62.8
252.885	128.34
253.102	62.8
253.318	116.05
253.535	97.62
253.752	38.23
253.968	-55.98
254.185	-12.97
254.401	32.08
254.618	130.39
254.835	-19.11
255.051	116.05
255.268	138.58
255.484	130.39
255.701	17.75
255.917	71
256.134	-2.73
256.351	46.42
256.567	-19.11
256.784	25.94
257	-53.93
257.217	99.67
257.433	38.23
257.65	38.23
257.866	152.92
258.082	-25.26
258.299	13.65
258.515	58.71
258.732	-4.78
258.948	13.65
259.165	66.9
259.381	-4.78
259.597	93.52
259.814	79.19
260.03	25.94
260.246	23.89
260.463	150.87
260.679	99.67
260.895	48.47
261.112	136.53
261.328	81.24
261.544	-31.4
261.761	175.44
261.977	-4.78
262.193	1.37
262.409	152.92
262.626	87.38
262.842	-0.68
263.058	17.75
263.274	132.44
263.49	68.95
263.707	62.8
263.923	152.92
264.139	-123.56
264.355	107.86
264.571	52.56
264.787	38.23
265.004	99.67
265.22	5.46
265.436	21.85
265.652	-35.5
265.868	68.95
266.084	50.52
266.3	87.38
266.516	32.08
266.732	54.61
266.948	25.94
267.164	44.37
267.38	146.77
267.596	97.62
267.812	167.25
268.028	-25.26
268.244	-47.79
268.46	52.56
268.676	-15.02
268.892	144.72
269.108	30.04
269.324	-21.16
269.54	5.46
269.756	109.91
269.972	-53.93
270.188	19.8
270.403	-84.65
270.619	118.1
270.835	50.52
271.051	73.04
271.267	-21.16
271.483	66.9
271.698	107.86
271.914	107.86
272.13	48.47
272.346	30.04
272.562	85.33
272.777	140.63
272.993	30.04
273.209	48.47
273.425	114
273.64	21.85
273.856	179.54
274.072	17.75
274.287	-74.41
274.503	159.06
274.719	116.05
274.934	99.67
275.15	-53.93
275.366	13.65
275.581	-78.51
275.797	50.52
276.012	48.47
276.228	-33.45
276.444	19.8
276.659	208.21
276.875	-43.69
277.09	60.76
277.306	56.66
277.521	75.09
277.737	-10.92
277.952	85.33
278.168	13.65
278.383	128.34
278.599	44.37
278.814	105.81
279.03	64.85
279.245	97.62
279.461	105.81
279.676	95.57
279.892	-58.03
280.107	-64.17
280.322	56.66
280.538	27.99
280.753	-8.87
280.969	42.32
281.184	48.47
281.399	181.59
281.615	25.94
281.83	87.38
282.045	-43.69
282.26	-12.97
282.476	-27.31
282.691	50.52
282.906	68.95
283.122	64.85
283.337	21.85
283.552	152.92
283.767	-29.35
283.983	122.2
284.198	58.71
284.413	30.04
284.628	-43.69
284.843	50.52
285.058	142.68
285.274	73.04
285.489	58.71
285.704	79.19
285.919	1.37
286.134	-47.79
286.349	-0.68
286.564	-17.07
286.779	173.39
286.995	13.65
287.21	-60.07
287.425	87.38
287.64	5.46
287.855	62.8
288.07	-135.85
288.285	40.28
288.5	171.35
288.715	130.39
288.93	34.13
289.145	-29.35
289.36	130.39
289.575	50.52
289.79	175.44
290.004	21.85
290.219	87.38
290.434	-23.21
290.649	-6.83
290.864	71
291.079	34.13
291.294	66.9
291.509	66.9
291.724	19.8
291.938	75.09
292.153	60.76
292.368	19.8
292.583	32.08
292.798	111.96
293.012	87.38
293.227	177.49
293.442	11.61
293.657	71
293.871	167.25
294.086	97.62
294.301	169.3
294.516	142.68
294.73	11.61
294.945	36.18
295.16	34.13
295.374	150.87
295.589	105.81
295.804	95.57
296.018	11.61
296.233	109.91
296.447	17.75
296.662	21.85
296.877	185.68
297.091	68.95
297.306	-10.92
297.52	15.7
297.735	114
297.949	42.32
298.164	38.23
298.378	118.1
298.593	-53.93
298.807	-6.83
299.022	103.76
299.236	138.58
299.451	5.46
299.665	68.95
299.88	27.99
300.094	118.1
300.309	93.52
300.523	114
300.737	25.94
300.952	101.72
301.166	118.1
301.381	75.09
301.595	34.13
301.809	114
302.024	-17.07
302.238	-51.88
302.452	144.72
302.667	25.94
302.881	183.63
303.095	126.29
303.309	163.15
303.524	-45.74
303.738	15.7
303.952	-43.69
304.166	111.96
304.381	-96.94
304.595	79.19
304.809	-2.73
305.023	93.52
305.237	71
305.452	68.95
305.666	105.81
305.88	52.56
306.094	165.2
306.308	85.33
306.522	120.15
306.736	68.95
306.95	109.91
307.164	5.46
307.379	60.76
307.593	197.97
307.807	150.87
308.021	126.29
308.235	91.48
308.449	-109.22
308.663	23.89
308.877	208.21
309.091	34.13
309.305	85.33
309.519	-156.33
309.733	152.92
309.947	5.46
310.161	89.43
310.374	118.1
310.588	93.52
310.802	-86.7
311.016	73.04
311.23	77.14
311.444	-37.55
311.658	54.61
311.872	148.82
312.085	140.63
312.299	181.59
312.513	161.11
312.727	89.43
312.941	25.94
313.154	87.38
313.368	66.9
313.582	114
313.796	66.9
314.009	-31.4
314.223	97.62
314.437	79.19
314.651	50.52
314.864	19.8
315.078	13.65
315.292	-55.98
315.505	77.14
315.719	107.86
315.933	85.33
316.146	-15.02
316.36	-72.36
316.573	140.63
316.787	157.01
317.001	58.71
317.214	-15.02
317.428	-15.02
317.641	5.46
317.855	44.37
318.068	159.06
318.282	81.24
318.495	148.82
318.709	161.11
318.922	46.42
319.136	87.38
319.349	103.76
319.563	56.66
319.776	79.19
319.99	-76.46
320.203	140.63
320.417	93.52
320.63	126.29
320.843	200.02
321.057	66.9
321.27	93.52
321.483	62.8
321.697	116.05
321.91	-4.78
322.124	107.86
322.337	95.57
322.55	-19.11
322.763	97.62
322.977	5.46
323.19	48.47
323.403	11.61
323.617	-23.21
323.83	181.59
324.043	23.89
324.256	107.86
324.469	-4.78
324.683	138.58
324.896	89.43
325.109	-4.78
325.322	-117.42
325.535	77.14
325.748	136.53
325.962	126.29
326.175	126.29
326.388	144.72
326.601	146.77
326.814	5.46
327.027	130.39
327.24	120.15
327.453	-76.46
327.666	9.56
327.879	228.69
328.092	97.62
328.305	111.96
328.518	-17.07
328.731	19.8
328.944	81.24
329.157	103.76
329.37	23.89
329.583	165.2
329.796	66.9
330.009	-23.21
330.222	116.05
330.435	34.13
330.648	27.99
330.861	1.37
331.073	13.65
331.286	105.81
331.499	34.13
331.712	-12.97
331.925	132.44
332.138	40.28
332.35	167.25
332.563	-43.69
332.776	163.15
332.989	-17.07
333.202	-2.73
333.414	13.65
333.627	34.13
333.84	71
334.053	62.8
334.265	-43.69
334.478	38.23
334.691	48.47
334.903	56.66
335.116	50.52
335.329	58.71
335.541	36.18
335.754	200.02
335.966	5.46
336.179	54.61
336.392	21.85
336.604	42.32
336.817	85.33
337.029	17.75
337.242	157.01
337.454	23.89
337.667	38.23
337.88	167.25
338.092	97.62
338.305	91.48
338.517	91.48
338.729	124.24
338.942	77.14
339.154	7.51
339.367	15.7
339.579	73.04
339.792	-60.07
340.004	56.66
340.217	34.13
340.429	101.72
340.641	52.56
340.854	-2.73
341.066	101.72
341.278	189.78
341.491	150.87
341.703	81.24
341.915	7.51
342.128	132.44
342.34	66.9
342.552	-27.31
342.764	64.85
342.977	144.72
343.189	52.56
343.401	75.09
343.613	3.41
343.826	44.37
344.038	-0.68
344.25	52.56
344.462	46.42
344.674	46.42
344.886	48.47
345.099	163.15
345.311	23.89
345.523	-76.46
345.735	-109.22
345.947	25.94
346.159	83.28
346.371	107.86
346.583	58.71
346.795	177.49
347.007	21.85
347.219	142.68
347.431	34.13
347.643	148.82
347.855	36.18
348.067	169.3
348.279	-84.65
348.491	97.62
348.703	138.58
348.915	17.75
349.127	13.65
349.339	-37.55
349.551	7.51
349.763	93.52
349.975	50.52
350.187	218.45
350.399	197.97
350.61	23.89
350.822	30.04
351.034	54.61
351.246	68.95
351.458	136.53
351.669	99.67
351.881	114
352.093	126.29
352.305	93.52
352.517	32.08
352.728	97.62
352.94	46.42
353.152	77.14
353.363	-10.92
353.575	83.28
353.787	118.1
353.999	99.67
354.21	195.92
354.422	83.28
354.633	85.33
354.845	-2.73
355.057	-51.88
355.268	42.32
355.48	128.34
355.692	-68.27
355.903	17.75
356.115	75.09
356.326	-23.21
356.538	173.39
356.749	71
356.961	150.87
357.172	36.18
357.384	-15.02
357.595	116.05
357.807	-51.88
358.018	21.85
358.23	44.37
358.441	150.87
358.653	93.52
358.864	52.56
359.075	17.75
359.287	81.24
359.498	87.38
359.709	60.76
359.921	13.65
360.132	79.19
360.344	30.04
360.555	54.61
360.766	89.43
360.977	79.19
361.189	89.43
361.4	50.52
361.611	109.91
361.823	114
362.034	118.1
362.245	-80.55
362.456	97.62
362.667	85.33
362.879	32.08
363.09	157.01
363.301	99.67
363.512	48.47
363.723	56.66
363.935	-29.35
364.146	206.16
364.357	58.71
364.568	95.57
364.779	-39.59
364.99	177.49
365.201	36.18
365.412	169.3
365.623	-86.7
365.834	54.61
366.045	50.52
366.256	68.95
366.467	152.92
366.678	97.62
366.889	66.9
367.1	30.04
367.311	62.8
367.522	-51.88
367.733	142.68
367.944	46.42
368.155	126.29
368.366	163.15
368.577	148.82
368.788	111.96
368.999	-8.87
369.209	103.76
369.42	208.21
369.631	259.41
369.842	85.33
370.053	13.65
370.264	103.76
370.474	-49.83
370.685	68.95
370.896	-33.45
371.107	163.15
371.317	89.43
371.528	60.76
371.739	126.29
371.95	146.77
372.16	185.68
372.371	-94.89
372.582	48.47
372.792	95.57
373.003	23.89
373.214	103.76
373.424	122.2
373.635	-45.74
373.846	138.58
374.056	62.8
374.267	62.8
374.477	54.61
374.688	62.8
374.898	64.85
375.109	75.09
375.319	132.44
375.53	87.38
375.74	144.72
375.951	68.95
376.161	107.86
376.372	169.3
376.582	58.71
376.793	132.44
377.003	3.41
377.214	-19.11
377.424	81.24
377.635	77.14
377.845	60.76
378.055	146.77
378.266	-58.03
378.476	48.47
378.686	30.04
378.897	27.99
379.107	89.43
379.317	21.85
379.528	140.63
379.738	68.95
379.948	1.37
380.158	159.06
380.369	30.04
380.579	58.71
380.789	40.28
380.999	146.77
381.21	122.2
381.42	118.1
381.63	-31.4
381.84	124.24
382.05	85.33
382.261	204.11
382.471	167.25
382.681	-62.12
382.891	195.92
383.101	32.08
383.311	27.99
383.521	-45.74
383.731	68.95
383.941	157.01
384.151	136.53
384.361	54.61
384.571	91.48
384.781	124.24
384.991	259.41
385.201	159.06
385.411	60.76
385.621	23.89
385.831	77.14
386.041	73.04
386.251	56.66
386.461	183.63
386.671	91.48
386.881	128.34
387.091	77.14
387.301	140.63
387.511	62.8
387.72	27.99
387.93	171.35
388.14	7.51
388.35	122.2
388.56	77.14
388.769	126.29
388.979	40.28
389.189	-45.74
389.399	79.19
389.609	138.58
389.818	75.09
390.028	97.62
390.238	97.62
390.447	66.9
390.657	46.42
390.867	32.08
391.076	50.52
391.286	40.28
391.496	62.8
391.705	66.9
391.915	177.49
392.125	152.92
392.334	83.28
392.544	167.25
392.753	150.87
392.963	97.62
393.172	68.95
393.382	-15.02
393.591	185.68
393.801	25.94
394.01	128.34
394.22	99.67
394.429	126.29
394.639	11.61
394.848	142.68
395.058	46.42
395.267	7.51
395.477	140.63
395.686	25.94
395.895	290.13
396.105	208.21
396.314	101.72
396.524	3.41
396.733	38.23
396.942	185.68
397.152	138.58
397.361	81.24
397.57	83.28
397.78	118.1
397.989	89.43
398.198	257.36
398.407	36.18
398.617	73.04
398.826	21.85
399.035	44.37
399.244	83.28
399.453	114
399.663	40.28
399.872	34.13
400.081	-6.83
400.29	249.17
400.499	71
400.708	99.67
400.917	54.61
401.127	111.96
401.336	17.75
401.545	181.59
401.754	140.63
401.963	107.86
402.172	3.41
402.381	23.89
402.59	21.85
402.799	95.57
403.008	75.09
403.217	27.99
403.426	150.87
403.635	-62.12
403.844	73.04
404.053	7.51
404.262	48.47
404.471	140.63
404.68	107.86
404.888	97.62
405.097	17.75
405.306	52.56
405.515	126.29
405.724	122.2
405.933	101.72
406.142	64.85
406.35	167.25
406.559	36.18
406.768	-23.21
406.977	228.69
407.185	85.33
407.394	167.25
407.603	-21.16
407.812	66.9
408.02	126.29
408.229	-6.83
408.438	105.81
408.646	1.37
408.855	30.04
409.064	68.95
409.272	34.13
409.481	101.72
409.69	15.7
409.898	-47.79
410.107	75.09
410.315	146.77
410.524	54.61
410.733	120.15
410.941	93.52
411.15	66.9
411.358	75.09
411.567	91.48
411.775	169.3
411.984	107.86
412.192	99.67
412.401	1.37
412.609	175.44
412.818	152.92
413.026	38.23
413.234	54.61
413.443	34.13
413.651	25.94
413.86	97.62
414.068	148.82
414.276	204.11
414.485	3.41
414.693	177.49
414.901	228.69
415.11	93.52
415.318	40.28
415.526	95.57
415.734	243.03
415.943	114
416.151	152.92
416.359	68.95
416.567	44.37
416.776	122.2
416.984	191.83
417.192	136.53
417.4	54.61
417.608	-23.21
417.817	-29.35
418.025	109.91
418.233	216.4
418.441	73.04
418.649	68.95
418.857	130.39
419.065	165.2
419.273	-39.59
419.481	54.61
419.689	9.56
419.897	77.14
420.105	-0.68
420.313	114
420.521	126.29
420.729	185.68
420.937	54.61
421.145	-70.31
421.353	173.39
421.561	154.96
421.769	99.67
421.977	-0.68
422.185	99.67
422.393	95.57
422.601	68.95
422.809	95.57
423.017	81.24
423.224	105.81
423.432	83.28
423.64	85.33
423.848	138.58
424.056	134.48
424.263	191.83
424.471	68.95
424.679	175.44
424.887	56.66
425.094	195.92
425.302	79.19
425.51	58.71
425.718	181.59
425.925	60.76
426.133	75.09
426.341	249.17
426.548	107.86
426.756	54.61
426.964	161.11
427.171	5.46
427.379	64.85
427.586	165.2
427.794	101.72
428.001	183.63
428.209	126.29
428.417	288.08
428.624	181.59
428.832	169.3
429.039	101.72
429.247	58.71
429.454	97.62
429.662	214.35
429.869	161.11
430.076	77.14
430.284	212.31
430.491	216.4
430.699	140.63
430.906	261.46
431.114	189.78
431.321	228.69
431.528	140.63
431.736	132.44
431.943	140.63
432.15	218.45
432.358	236.88
432.565	257.36
432.772	79.19
432.979	191.83
433.187	189.78
433.394	251.22
433.601	175.44
433.808	245.07
434.016	298.32
434.223	329.04
434.43	228.69
434.637	367.95
434.844	331.09
435.052	257.36
435.259	372.05
435.466	283.99
435.673	292.18
435.88	460.11
436.087	355.66
436.294	361.81
436.501	425.29
436.708	230.74
436.915	363.86
437.122	490.83
437.329	353.62
437.537	394.58
437.743	453.97
437.95	521.55
438.157	488.78
438.364	433.49
438.571	550.22
438.778	515.41
438.985	656.72
439.192	640.33
439.399	591.18
439.606	578.89
439.813	738.63
440.02	738.63
440.227	867.66
440.433	648.52
440.64	664.91
440.847	656.72
441.054	765.26
441.261	814.41
441.467	757.07
441.674	740.68
441.881	886.09
442.088	904.52
442.294	974.15
442.501	927.05
442.708	1027.4
442.914	972.1
443.121	1097.03
443.328	1135.94
443.534	1287.49
443.741	1072.45
443.948	1103.17
444.154	1183.04
444.361	1363.26
444.568	1230.15
444.774	1310.02
444.981	1258.82
445.187	1541.44
445.394	1432.9
445.6	1494.33
445.807	1615.16
446.013	1568.06
446.22	1668.41
446.426	1822.01
446.633	1858.87
446.839	2059.57
447.046	1834.3
447.252	2049.33
447.459	2026.81
447.665	2100.53
447.871	2250.03
448.078	2420.02
448.284	2268.47
448.491	2471.22
448.697	2575.66
448.903	2815.27
449.11	2678.06
449.316	2708.78
449.522	3003.69
449.728	2925.86
449.935	3073.32
450.141	3314.98
450.347	3458.34
450.553	3378.47
450.76	3480.86
450.966	3745.05
451.172	3878.17
451.378	3923.23
451.584	3996.95
451.791	4220.18
451.997	4209.94
452.203	4486.42
452.409	4783.37
452.615	4881.67
452.821	4748.56
453.027	4822.28
453.233	5405.95
453.44	5383.43
453.646	5620.99
453.852	5854.46
454.058	6063.35
454.264	6196.47
454.47	6487.28
454.676	6724.85
454.882	7269.61
455.088	6833.39
455.294	7288.04
455.5	7789.79
455.705	8305.88
455.911	8246.49
456.117	8541.4
456.323	8836.3
456.529	8686.8
456.735	9440.45
456.941	9839.81
457.147	10233.02
457.352	10366.14
457.558	10708.15
457.764	11537.57
457.97	11900.06
458.176	12006.56
458.381	12844.18
458.587	12864.66
458.793	13528.2
458.999	13407.37
459.204	15441
459.41	15912.03
459.616	15629.41
459.821	16628.82
460.027	17335.37
460.233	17970.24
460.438	18043.97
460.644	19369.01
460.85	19297.33
461.055	20218.91
461.261	20823.06
461.466	20675.61
461.672	20872.21
461.878	23309.3
462.083	23329.78
462.289	23759.85
462.494	24622.05
462.7	24878.04
462.905	25064.41
463.111	27362.23
463.316	28781.47
463.522	29244.31
463.727	29791.12
463.932	31378.29
464.138	32209.77
464.343	33663.83
464.549	33715.03
464.754	35769.14
464.959	36975.39
465.165	37155.61
465.37	37323.55
465.575	37554.97
465.781	39750.39
465.986	40938.21
466.191	40397.55
466.397	40538.86
466.602	39502.59
466.807	41847.51
467.012	42896.07
467.218	43983.54
467.423	43739.83
467.628	44864.17
467.833	47057.54
468.038	46211.73
468.244	45228.71
468.449	47813.24
468.654	46785.16
