Data from USB4F104151__178__11-05-03-744.txt Node

Date: Wed Feb 26 11:05:03 EST 2025
User: louis
Spectrometer: USB4F10415
Trigger mode: 4
Integration Time (sec): 1.000000E-1
Scans to average: 1
Electric dark correction enabled: true
Nonlinearity correction enabled: false
Boxcar width: 0
XAxis mode: Wavelengths
Number of Pixels in Spectrum: 3648
>>>>>Begin Spectral Data<<<<<
178.204	-358.39
178.424	-358.39
178.644	-358.39
178.864	-405.5
179.084	-370.68
179.304	-28.67
179.524	-8.19
179.744	-20.48
179.964	16.38
180.184	-79.87
180.404	65.53
180.624	-32.77
180.844	49.15
181.064	-88.06
181.283	116.73
181.503	-65.54
181.723	75.77
181.943	-92.16
182.163	182.27
182.383	-30.72
182.602	59.39
182.822	137.21
183.042	135.17
183.262	4.1
183.482	-49.15
183.701	69.63
183.921	53.25
184.141	-12.29
184.361	102.4
184.58	28.67
184.8	63.49
185.02	-26.62
185.239	124.93
185.459	26.62
185.679	120.83
185.898	-18.43
186.118	45.06
186.338	12.29
186.557	90.11
186.777	-32.77
186.997	-18.43
187.216	61.44
187.436	184.32
187.655	18.43
187.875	104.45
188.095	-36.86
188.314	237.56
188.534	194.56
188.753	-18.43
188.973	110.59
189.192	204.8
189.412	-20.48
189.631	55.3
189.851	-2.05
190.07	141.31
190.29	8.19
190.509	24.58
190.729	47.1
190.948	120.83
191.168	241.66
191.387	59.39
191.607	16.38
191.826	53.25
192.045	59.39
192.265	51.2
192.484	63.49
192.704	-8.19
192.923	-61.44
193.142	233.47
193.362	135.17
193.581	184.32
193.8	4.1
194.02	49.15
194.239	59.39
194.458	110.59
194.678	40.96
194.897	10.24
195.116	63.49
195.335	73.73
195.555	88.06
195.774	63.49
195.993	75.77
196.212	32.77
196.432	26.62
196.651	-67.58
196.87	47.1
197.089	268.28
197.308	137.21
197.528	147.45
197.747	-12.29
197.966	43.01
198.185	92.16
198.404	-36.86
198.623	55.3
198.842	129.02
199.062	88.06
199.281	116.73
199.5	98.3
199.719	129.02
199.938	59.39
200.157	79.87
200.376	124.93
200.595	229.37
200.814	169.98
201.033	-6.14
201.252	180.22
201.471	102.4
201.69	94.21
201.909	36.86
202.128	147.45
202.347	104.45
202.566	55.3
202.785	-24.58
203.004	-26.62
203.223	227.32
203.442	45.06
203.661	16.38
203.879	104.45
204.098	184.32
204.317	47.1
204.536	210.94
204.755	90.11
204.974	73.73
205.193	36.86
205.411	147.45
205.63	73.73
205.849	147.45
206.068	69.63
206.287	20.48
206.505	133.12
206.724	77.82
206.943	-71.68
207.162	26.62
207.381	59.39
207.599	36.86
207.818	34.82
208.037	-8.19
208.255	-16.38
208.474	40.96
208.693	22.53
208.911	10.24
209.13	43.01
209.349	86.01
209.567	12.29
209.786	55.3
210.005	92.16
210.223	36.86
210.442	-104.45
210.661	106.49
210.879	116.73
211.098	55.3
211.316	59.39
211.535	55.3
211.753	139.26
211.972	36.86
212.191	-2.05
212.409	34.82
212.628	122.88
212.846	-40.96
213.065	30.72
213.283	69.63
213.502	63.49
213.72	102.4
213.938	38.91
214.157	45.06
214.375	88.06
214.594	55.3
214.812	53.25
215.031	-16.38
215.249	77.82
215.467	92.16
215.686	38.91
215.904	88.06
216.122	139.26
216.341	135.17
216.559	67.58
216.778	153.6
216.996	86.01
217.214	6.14
217.432	-12.29
217.651	14.34
217.869	59.39
218.087	-26.62
218.306	34.82
218.524	6.14
218.742	43.01
218.96	69.63
219.179	-26.62
219.397	-34.82
219.615	276.48
219.833	122.88
220.051	-28.67
220.27	104.45
220.488	106.49
220.706	102.4
220.924	-59.39
221.142	24.58
221.36	73.73
221.578	-4.1
221.796	53.25
222.015	34.82
222.233	67.58
222.451	151.55
222.669	67.58
222.887	86.01
223.105	47.1
223.323	36.86
223.541	43.01
223.759	81.92
223.977	-10.24
224.195	182.27
224.413	67.58
224.631	12.29
224.849	98.3
225.067	202.75
225.285	-65.54
225.503	-28.67
225.721	-100.35
225.939	2.05
226.157	61.44
226.375	262.14
226.592	16.38
226.81	61.44
227.028	143.36
227.246	112.64
227.464	73.73
227.682	28.67
227.9	34.82
228.117	122.88
228.335	55.3
228.553	-0
228.771	34.82
228.989	114.69
229.206	100.35
229.424	-16.38
229.642	-26.62
229.86	22.53
230.077	96.25
230.295	71.68
230.513	83.97
230.731	57.34
230.948	126.97
231.166	190.46
231.384	65.53
231.601	-30.72
231.819	176.13
232.037	-4.1
232.254	-55.3
232.472	131.07
232.689	16.38
232.907	135.17
233.125	28.67
233.342	32.77
233.56	-10.24
233.777	38.91
233.995	10.24
234.213	112.64
234.43	61.44
234.648	40.96
234.865	73.73
235.083	120.83
235.3	61.44
235.518	4.1
235.735	124.93
235.953	59.39
236.17	90.11
236.388	73.73
236.605	59.39
236.822	90.11
237.04	165.89
237.257	73.73
237.475	-69.63
237.692	24.58
237.909	77.82
238.127	-14.34
238.344	57.34
238.562	51.2
238.779	-43.01
238.996	-43.01
239.214	102.4
239.431	124.93
239.648	-10.24
239.865	49.15
240.083	83.97
240.3	47.1
240.517	20.48
240.735	114.69
240.952	43.01
241.169	143.36
241.386	124.93
241.603	10.24
241.821	-2.05
242.038	94.21
242.255	73.73
242.472	-49.15
242.689	129.02
242.907	69.63
243.124	38.91
243.341	83.97
243.558	-49.15
243.775	24.58
243.992	-51.2
244.209	143.36
244.426	149.5
244.643	131.07
244.86	67.58
245.078	61.44
245.295	92.16
245.512	59.39
245.729	-22.53
245.946	49.15
246.163	67.58
246.38	38.91
246.597	129.02
246.814	43.01
247.031	36.86
247.248	106.49
247.464	100.35
247.681	53.25
247.898	90.11
248.115	112.64
248.332	47.1
248.549	200.7
248.766	235.52
248.983	106.49
249.2	49.15
249.417	94.21
249.633	53.25
249.85	16.38
250.067	-28.67
250.284	90.11
250.501	20.48
250.717	122.88
250.934	-10.24
251.151	79.87
251.368	18.43
251.585	-12.29
251.801	2.05
252.018	24.58
252.235	98.3
252.451	65.53
252.668	83.97
252.885	96.25
253.102	90.11
253.318	10.24
253.535	24.58
253.752	22.53
253.968	67.58
254.185	-94.21
254.401	57.34
254.618	106.49
254.835	86.01
255.051	110.59
255.268	110.59
255.484	38.91
255.701	61.44
255.917	151.55
256.134	20.48
256.351	100.35
256.567	-79.87
256.784	59.39
257	-28.67
257.217	165.89
257.433	6.14
257.65	-55.3
257.866	139.26
258.082	-40.96
258.299	-18.43
258.515	36.86
258.732	-2.05
258.948	-14.34
259.165	61.44
259.381	-86.01
259.597	92.16
259.814	14.34
260.03	-8.19
260.246	59.39
260.463	122.88
260.679	200.7
260.895	94.21
261.112	69.63
261.328	22.53
261.544	-45.06
261.761	190.46
261.977	-22.53
262.193	-28.67
262.409	129.02
262.626	20.48
262.842	26.62
263.058	47.1
263.274	122.88
263.49	55.3
263.707	22.53
263.923	131.07
264.139	-110.59
264.355	26.62
264.571	59.39
264.787	49.15
265.004	94.21
265.22	67.58
265.436	38.91
265.652	-4.1
265.868	81.92
266.084	-57.34
266.3	47.1
266.516	-30.72
266.732	90.11
266.948	-8.19
267.164	-34.82
267.38	116.73
267.596	36.86
267.812	157.69
268.028	55.3
268.244	18.43
268.46	96.25
268.676	43.01
268.892	79.87
269.108	38.91
269.324	30.72
269.54	-67.58
269.756	182.27
269.972	-147.45
270.188	65.53
270.403	-30.72
270.619	83.97
270.835	90.11
271.051	65.53
271.267	-77.82
271.483	2.05
271.698	61.44
271.914	90.11
272.13	90.11
272.346	-18.43
272.562	83.97
272.777	102.4
272.993	-16.38
273.209	47.1
273.425	86.01
273.64	-124.93
273.856	118.78
274.072	36.86
274.287	49.15
274.503	63.49
274.719	86.01
274.934	20.48
275.15	-32.77
275.366	75.77
275.581	-61.44
275.797	34.82
276.012	24.58
276.228	36.86
276.444	71.68
276.659	104.45
276.875	-14.34
277.09	-2.05
277.306	-30.72
277.521	59.39
277.737	8.19
277.952	157.69
278.168	102.4
278.383	55.3
278.599	69.63
278.814	194.56
279.03	36.86
279.245	79.87
279.461	57.34
279.676	124.93
279.892	55.3
280.107	-20.48
280.322	16.38
280.538	40.96
280.753	-22.53
280.969	65.53
281.184	129.02
281.399	90.11
281.615	135.17
281.83	102.4
282.045	18.43
282.26	47.1
282.476	73.73
282.691	114.69
282.906	100.35
283.122	167.93
283.337	-12.29
283.552	83.97
283.767	-8.19
283.983	174.08
284.198	38.91
284.413	-30.72
284.628	22.53
284.843	43.01
285.058	49.15
285.274	47.1
285.489	6.14
285.704	30.72
285.919	43.01
286.134	-12.29
286.349	94.21
286.564	-36.86
286.779	163.84
286.995	30.72
287.21	-32.77
287.425	151.55
287.64	47.1
287.855	51.2
288.07	-73.73
288.285	135.17
288.5	149.5
288.715	116.73
288.93	-20.48
289.145	-57.34
289.36	90.11
289.575	8.19
289.79	137.21
290.004	77.82
290.219	108.54
290.434	38.91
290.649	-38.91
290.864	36.86
291.079	24.58
291.294	63.49
291.509	77.82
291.724	-10.24
291.938	32.77
292.153	4.1
292.368	45.06
292.583	49.15
292.798	71.68
293.012	63.49
293.227	86.01
293.442	14.34
293.657	145.41
293.871	174.08
294.086	112.64
294.301	161.79
294.516	53.25
294.73	55.3
294.945	-61.44
295.16	49.15
295.374	131.07
295.589	53.25
295.804	6.14
296.018	79.87
296.233	114.69
296.447	71.68
296.662	20.48
296.877	112.64
297.091	24.58
297.306	45.06
297.52	14.34
297.735	108.54
297.949	88.06
298.164	77.82
298.378	118.78
298.593	-77.82
298.807	26.62
299.022	14.34
299.236	149.5
299.451	-20.48
299.665	-22.53
299.88	32.77
300.094	77.82
300.309	-4.1
300.523	86.01
300.737	49.15
300.952	126.97
301.166	6.14
301.381	20.48
301.595	22.53
301.809	126.97
302.024	30.72
302.238	-24.58
302.452	133.12
302.667	-18.43
302.881	192.51
303.095	90.11
303.309	71.68
303.524	53.25
303.738	-40.96
303.952	-53.25
304.166	59.39
304.381	-73.73
304.595	110.59
304.809	-8.19
305.023	88.06
305.237	6.14
305.452	77.82
305.666	108.54
305.88	90.11
306.094	153.6
306.308	102.4
306.522	86.01
306.736	120.83
306.95	88.06
307.164	32.77
307.379	-16.38
307.593	112.64
307.807	90.11
308.021	71.68
308.235	38.91
308.449	-40.96
308.663	-43.01
308.877	178.17
309.091	65.53
309.305	51.2
309.519	-75.77
309.733	124.93
309.947	-14.34
310.161	147.45
310.374	137.21
310.588	227.32
310.802	-0
311.016	6.14
311.23	102.4
311.444	26.62
311.658	53.25
311.872	239.61
312.085	112.64
312.299	147.45
312.513	186.37
312.727	36.86
312.941	-43.01
313.154	26.62
313.368	79.87
313.582	96.25
313.796	131.07
314.009	14.34
314.223	143.36
314.437	106.49
314.651	92.16
314.864	-4.1
315.078	49.15
315.292	-86.01
315.505	65.53
315.719	55.3
315.933	112.64
316.146	-34.82
316.36	-49.15
316.573	110.59
316.787	100.35
317.001	69.63
317.214	-24.58
317.428	53.25
317.641	14.34
317.855	71.68
318.068	49.15
318.282	81.92
318.495	231.42
318.709	45.06
318.922	53.25
319.136	163.84
319.349	57.34
319.563	32.77
319.776	98.3
319.99	-6.14
320.203	116.73
320.417	16.38
320.63	86.01
320.843	219.13
321.057	96.25
321.27	49.15
321.483	8.19
321.697	151.55
321.91	63.49
322.124	55.3
322.337	184.32
322.55	6.14
322.763	83.97
322.977	2.05
323.19	-0
323.403	20.48
323.617	45.06
323.83	81.92
324.043	-22.53
324.256	71.68
324.469	22.53
324.683	169.98
324.896	73.73
325.109	102.4
325.322	28.67
325.535	131.07
325.748	94.21
325.962	69.63
326.175	92.16
326.388	73.73
326.601	118.78
326.814	-0
327.027	71.68
327.24	204.8
327.453	-94.21
327.666	22.53
327.879	153.6
328.092	49.15
328.305	118.78
328.518	-0
328.731	55.3
328.944	43.01
329.157	47.1
329.37	28.67
329.583	149.5
329.796	69.63
330.009	-8.19
330.222	83.97
330.435	86.01
330.648	12.29
330.861	40.96
331.073	16.38
331.286	75.77
331.499	4.1
331.712	-36.86
331.925	6.14
332.138	63.49
332.35	69.63
332.563	28.67
332.776	63.49
332.989	-57.34
333.202	-4.1
333.414	51.2
333.627	86.01
333.84	61.44
334.053	118.78
334.265	-30.72
334.478	26.62
334.691	24.58
334.903	32.77
335.116	-34.82
335.329	69.63
335.541	108.54
335.754	112.64
335.966	59.39
336.179	30.72
336.392	-16.38
336.604	55.3
336.817	100.35
337.029	22.53
337.242	108.54
337.454	83.97
337.667	114.69
337.88	106.49
338.092	38.91
338.305	20.48
338.517	16.38
338.729	32.77
338.942	61.44
339.154	-47.1
339.367	-32.77
339.579	59.39
339.792	-4.1
340.004	22.53
340.217	45.06
340.429	67.58
340.641	43.01
340.854	4.1
341.066	-12.29
341.278	129.02
341.491	221.18
341.703	20.48
341.915	-34.82
342.128	-2.05
342.34	94.21
342.552	-38.91
342.764	-6.14
342.977	-47.1
343.189	81.92
343.401	49.15
343.613	8.19
343.826	75.77
344.038	53.25
344.25	116.73
344.462	-6.14
344.674	43.01
344.886	98.3
345.099	88.06
345.311	63.49
345.523	26.62
345.735	-88.06
345.947	22.53
346.159	131.07
346.371	18.43
346.583	-28.67
346.795	270.33
347.007	4.1
347.219	69.63
347.431	38.91
347.643	141.31
347.855	-36.86
348.067	45.06
348.279	-18.43
348.491	98.3
348.703	178.17
348.915	-20.48
349.127	55.3
349.339	102.4
349.551	-53.25
349.763	65.53
349.975	-0
350.187	98.3
350.399	100.35
350.61	69.63
350.822	59.39
351.034	38.91
351.246	86.01
351.458	96.25
351.669	63.49
351.881	126.97
352.093	139.26
352.305	124.93
352.517	147.45
352.728	114.69
352.94	-6.14
353.152	131.07
353.363	6.14
353.575	81.92
353.787	253.95
353.999	67.58
354.21	188.41
354.422	-34.82
354.633	-6.14
354.845	55.3
355.057	59.39
355.268	55.3
355.48	96.25
355.692	18.43
355.903	98.3
356.115	28.67
356.326	-34.82
356.538	184.32
356.749	75.77
356.961	143.36
357.172	10.24
357.384	-14.34
357.595	178.17
357.807	79.87
358.018	96.25
358.23	63.49
358.441	106.49
358.653	96.25
358.864	14.34
359.075	4.1
359.287	-26.62
359.498	180.22
359.709	98.3
359.921	63.49
360.132	120.83
360.344	28.67
360.555	69.63
360.766	22.53
360.977	73.73
361.189	133.12
361.4	53.25
361.611	131.07
361.823	126.97
362.034	75.77
362.245	-83.97
362.456	10.24
362.667	67.58
362.879	81.92
363.09	83.97
363.301	69.63
363.512	-36.86
363.723	4.1
363.935	-47.1
364.146	71.68
364.357	-8.19
364.568	32.77
364.779	-55.3
364.99	167.93
365.201	-12.29
365.412	137.21
365.623	-47.1
365.834	57.34
366.045	53.25
366.256	161.79
366.467	131.07
366.678	92.16
366.889	75.77
367.1	88.06
367.311	133.12
367.522	14.34
367.733	104.45
367.944	69.63
368.155	106.49
368.366	43.01
368.577	153.6
368.788	73.73
368.999	-45.06
369.209	88.06
369.42	235.52
369.631	184.32
369.842	176.13
370.053	61.44
370.264	122.88
370.474	-8.19
370.685	73.73
370.896	77.82
371.107	83.97
371.317	49.15
371.528	81.92
371.739	96.25
371.95	159.74
372.16	22.53
372.371	-4.1
372.582	-20.48
372.792	43.01
373.003	-0
373.214	110.59
373.424	55.3
373.635	-63.49
373.846	141.31
374.056	36.86
374.267	12.29
374.477	59.39
374.688	32.77
374.898	16.38
375.109	51.2
375.319	61.44
375.53	104.45
375.74	81.92
375.951	32.77
376.161	10.24
376.372	129.02
376.582	-59.39
376.793	96.25
377.003	6.14
377.214	38.91
377.424	79.87
377.635	102.4
377.845	-20.48
378.055	178.17
378.266	12.29
378.476	59.39
378.686	98.3
378.897	55.3
379.107	104.45
379.317	77.82
379.528	65.53
379.738	73.73
379.948	-49.15
380.158	167.93
380.369	61.44
380.579	110.59
380.789	34.82
380.999	77.82
381.21	182.27
381.42	206.84
381.63	47.1
381.84	73.73
382.05	71.68
382.261	120.83
382.471	163.84
382.681	-55.3
382.891	182.27
383.101	10.24
383.311	34.82
383.521	86.01
383.731	104.45
383.941	149.5
384.151	51.2
384.361	61.44
384.571	38.91
384.781	-10.24
384.991	172.03
385.201	94.21
385.411	40.96
385.621	96.25
385.831	145.41
386.041	100.35
386.251	-38.91
386.461	118.78
386.671	14.34
386.881	57.34
387.091	26.62
387.301	118.78
387.511	-10.24
387.72	114.69
387.93	38.91
388.14	-26.62
388.35	67.58
388.56	145.41
388.769	88.06
388.979	45.06
389.189	-51.2
389.399	55.3
389.609	116.73
389.818	81.92
390.028	26.62
390.238	139.26
390.447	-12.29
390.657	59.39
390.867	-26.62
391.076	16.38
391.286	120.83
391.496	-0
391.705	34.82
391.915	114.69
392.125	149.5
392.334	8.19
392.544	184.32
392.753	94.21
392.963	-65.54
393.172	-43.01
393.382	20.48
393.591	243.71
393.801	16.38
394.01	192.51
394.22	129.02
394.429	49.15
394.639	-20.48
394.848	-10.24
395.058	10.24
395.267	43.01
395.477	90.11
395.686	73.73
395.895	258.04
396.105	186.37
396.314	112.64
396.524	2.05
396.733	-8.19
396.942	124.93
397.152	180.22
397.361	188.41
397.57	161.79
397.78	53.25
397.989	129.02
398.198	299
398.407	-10.24
398.617	65.53
398.826	-0
399.035	-28.67
399.244	126.97
399.453	57.34
399.663	47.1
399.872	90.11
400.081	-34.82
400.29	92.16
400.499	-49.15
400.708	79.87
400.917	-26.62
401.127	2.05
401.336	47.1
401.545	161.79
401.754	124.93
401.963	77.82
402.172	-12.29
402.381	-26.62
402.59	61.44
402.799	8.19
403.008	143.36
403.217	61.44
403.426	161.79
403.635	-4.1
403.844	30.72
404.053	30.72
404.262	73.73
404.471	188.41
404.68	30.72
404.888	-12.29
405.097	98.3
405.306	116.73
405.515	110.59
405.724	59.39
405.933	88.06
406.142	67.58
406.35	131.07
406.559	2.05
406.768	126.97
406.977	133.12
407.185	67.58
407.394	108.54
407.603	-63.49
407.812	22.53
408.02	182.27
408.229	-8.19
408.438	133.12
408.646	8.19
408.855	20.48
409.064	32.77
409.272	22.53
409.481	94.21
409.69	-32.77
409.898	10.24
410.107	28.67
410.315	161.79
410.524	10.24
410.733	-16.38
410.941	86.01
411.15	71.68
411.358	65.53
411.567	153.6
411.775	18.43
411.984	10.24
412.192	45.06
412.401	14.34
412.609	178.17
412.818	147.45
413.026	81.92
413.234	100.35
413.443	45.06
413.651	-18.43
413.86	88.06
414.068	180.22
414.276	131.07
414.485	133.12
414.693	129.02
414.901	247.8
415.11	30.72
415.318	36.86
415.526	49.15
415.734	98.3
415.943	90.11
416.151	90.11
416.359	6.14
416.567	57.34
416.776	53.25
416.984	157.69
417.192	145.41
417.4	-20.48
417.608	65.53
417.817	34.82
418.025	155.65
418.233	69.63
418.441	12.29
418.649	-69.63
418.857	71.68
419.065	139.26
419.273	75.77
419.481	47.1
419.689	38.91
419.897	36.86
420.105	-28.67
420.313	145.41
420.521	143.36
420.729	112.64
420.937	43.01
421.145	-61.44
421.353	116.73
421.561	180.22
421.769	124.93
421.977	98.3
422.185	92.16
422.393	77.82
422.601	110.59
422.809	135.17
423.017	92.16
423.224	24.58
423.432	98.3
423.64	94.21
423.848	133.12
424.056	51.2
424.263	198.65
424.471	116.73
424.679	135.17
424.887	24.58
425.094	106.49
425.302	73.73
425.51	10.24
425.718	163.84
425.925	104.45
426.133	34.82
426.341	159.74
426.548	129.02
426.756	102.4
426.964	55.3
427.171	28.67
427.379	129.02
427.586	36.86
427.794	100.35
428.001	83.97
428.209	71.68
428.417	133.12
428.624	96.25
428.832	104.45
429.039	114.69
429.247	34.82
429.454	143.36
429.662	206.84
429.869	137.21
430.076	206.84
430.284	118.78
430.491	202.75
430.699	94.21
430.906	149.5
431.114	135.17
431.321	100.35
431.528	108.54
431.736	122.88
431.943	165.89
432.15	184.32
432.358	245.76
432.565	251.9
432.772	63.49
432.979	229.37
433.187	145.41
433.394	290.81
433.601	114.69
433.808	249.85
434.016	135.17
434.223	296.96
434.43	264.19
434.637	233.47
434.844	333.82
435.052	235.52
435.259	323.58
435.466	303.1
435.673	352.25
435.88	296.96
436.087	350.2
436.294	303.1
436.501	311.29
436.708	266.24
436.915	321.53
437.122	307.2
437.329	233.47
437.537	292.86
437.743	321.53
437.95	456.7
438.157	366.59
438.364	401.4
438.571	337.91
438.778	442.36
438.985	505.85
439.192	520.18
439.399	432.12
439.606	462.84
439.813	471.03
440.02	612.34
440.227	655.35
440.433	505.85
440.64	489.46
440.847	454.65
441.054	561.14
441.261	800.76
441.467	589.81
441.674	507.9
441.881	675.83
442.088	548.86
442.294	722.93
442.501	767.99
442.708	770.04
442.914	718.84
443.121	841.72
443.328	737.27
443.534	825.33
443.741	915.44
443.948	745.46
444.154	921.59
444.361	1165.29
444.568	972.79
444.774	1062.9
444.981	964.59
445.187	1103.86
445.394	1103.86
445.6	1120.24
445.807	1232.88
446.013	1304.56
446.22	1171.44
446.426	1214.45
446.633	1497.07
446.839	1542.12
447.046	1331.18
447.252	1476.59
447.459	1523.69
447.665	1581.03
447.871	1751.01
448.078	1832.93
448.284	1816.55
448.491	1943.52
448.697	2033.63
448.903	2109.41
449.11	2121.7
449.316	2035.68
449.522	2336.73
449.728	2357.21
449.935	2553.82
450.141	2387.93
450.347	2695.13
450.553	2588.63
450.76	2654.17
450.966	2848.72
451.172	2885.59
451.378	2885.59
451.584	2906.07
451.791	3342.28
451.997	3248.08
452.203	3448.78
452.409	3608.52
452.615	3706.82
452.821	3659.72
453.027	3680.2
453.233	4214.72
453.44	4059.07
453.646	4306.88
453.852	4442.04
454.058	4575.16
454.264	4888.5
454.47	5205.94
454.676	5250.99
454.882	5513.13
455.088	5312.43
455.294	5492.65
455.5	6029.22
455.705	6313.89
455.911	6348.7
456.117	6389.66
456.323	6598.56
456.529	6897.56
456.735	7372.69
456.941	7579.53
457.147	7833.48
457.352	7999.37
457.558	8271.75
457.764	8820.6
457.97	9043.83
458.176	9430.9
458.381	9742.19
458.587	9840.49
458.793	10692.44
458.999	10413.92
459.204	11679.57
459.41	12209.99
459.616	11759.44
459.821	12824.38
460.027	13131.58
460.233	14092.07
460.438	13940.52
460.644	14802.72
460.85	15079.19
461.055	15675.15
461.261	16590.59
461.466	16015.12
461.672	16389.89
461.878	18568.93
462.083	18169.58
462.289	18284.26
462.494	19164.89
462.7	19398.36
462.905	19484.37
463.111	21282.49
463.316	22406.83
463.522	22601.38
463.727	23019.17
463.932	24250
464.138	24895.11
464.343	25992.82
464.549	26097.27
464.754	27827.8
464.959	28741.19
465.165	29199.94
465.37	29142.6
465.575	28937.8
465.781	31155.75
465.986	31778.33
466.191	31239.72
466.397	32001.56
466.602	31055.4
466.807	32826.89
467.012	33316.36
467.218	33924.6
467.423	33787.39
467.628	35411.43
467.833	36787.66
468.038	36175.32
468.244	35337.7
468.449	37154.25
468.654	36539.86
468.859	36490.71
