Data from USB4F104151__177__11-05-02-934.txt Node

Date: Wed Feb 26 11:05:02 EST 2025
User: louis
Spectrometer: USB4F10415
Trigger mode: 4
Integration Time (sec): 1.000000E-1
Scans to average: 1
Electric dark correction enabled: true
Nonlinearity correction enabled: false
Boxcar width: 0
XAxis mode: Wavelengths
Number of Pixels in Spectrum: 3648
>>>>>Begin Spectral Data<<<<<
178.204	-397.82
178.424	-397.82
178.644	-397.82
178.864	-442.87
179.084	-369.15
179.304	44.54
179.524	13.82
179.744	56.83
179.964	-2.56
180.184	-49.66
180.404	19.97
180.624	-37.38
180.844	-43.52
181.064	-29.18
181.283	32.26
181.503	-45.57
181.723	40.45
181.943	-68.09
182.163	202.24
182.383	-16.9
182.602	22.02
182.822	144.89
183.042	105.98
183.262	-39.42
183.482	-39.42
183.701	60.93
183.921	85.5
184.141	34.3
184.361	87.55
184.58	75.26
184.8	38.4
185.02	-31.23
185.239	60.93
185.459	126.46
185.679	153.09
185.898	-96.77
186.118	-2.56
186.338	87.55
186.557	60.93
186.777	-127.49
186.997	-0.51
187.216	-59.9
187.436	216.57
187.655	75.26
187.875	130.56
188.095	60.93
188.314	181.76
188.534	97.79
188.753	-49.66
188.973	202.24
189.192	194.05
189.412	38.4
189.631	36.35
189.851	161.28
190.07	187.9
190.29	-10.75
190.509	17.92
190.729	62.98
190.948	157.18
191.168	237.05
191.387	130.56
191.607	-25.09
191.826	83.45
192.045	15.87
192.265	5.63
192.484	60.93
192.704	46.59
192.923	-66.05
193.142	124.41
193.362	153.09
193.581	155.13
193.8	110.08
194.02	120.32
194.239	122.37
194.458	87.55
194.678	81.41
194.897	24.06
195.116	91.65
195.335	7.68
195.555	24.06
195.774	-14.85
195.993	120.32
196.212	3.58
196.432	-8.7
196.651	7.68
196.87	62.98
197.089	245.24
197.308	79.36
197.528	122.37
197.747	-45.57
197.966	75.26
198.185	212.48
198.404	-16.9
198.623	69.12
198.842	144.89
199.062	95.74
199.281	167.42
199.5	36.35
199.719	189.95
199.938	120.32
200.157	105.98
200.376	87.55
200.595	126.46
200.814	105.98
201.033	62.98
201.252	140.8
201.471	5.63
201.69	73.21
201.909	-14.85
202.128	65.02
202.347	136.7
202.566	11.78
202.785	-66.05
203.004	9.73
203.223	232.96
203.442	73.21
203.661	-8.7
203.879	132.61
204.098	132.61
204.317	46.59
204.536	126.46
204.755	165.37
204.974	95.74
205.193	-88.57
205.411	134.65
205.63	169.47
205.849	75.26
206.068	-8.7
206.287	1.54
206.505	183.81
206.724	-8.7
206.943	67.07
207.162	-70.14
207.381	89.6
207.599	65.02
207.818	85.5
208.037	-53.76
208.255	17.92
208.474	62.98
208.693	122.37
208.911	48.64
209.13	108.03
209.349	97.79
209.567	60.93
209.786	108.03
210.005	138.75
210.223	42.5
210.442	-33.28
210.661	54.78
210.879	52.74
211.098	-2.56
211.316	87.55
211.535	67.07
211.753	48.64
211.972	69.12
212.191	-18.94
212.409	3.58
212.628	52.74
212.846	-27.14
213.065	120.32
213.283	157.18
213.502	71.17
213.72	-16.9
213.938	108.03
214.157	19.97
214.375	85.5
214.594	-16.9
214.812	118.27
215.031	62.98
215.249	-61.95
215.467	159.23
215.686	36.35
215.904	93.69
216.122	36.35
216.341	144.89
216.559	75.26
216.778	118.27
216.996	89.6
217.214	105.98
217.432	77.31
217.651	-68.09
217.869	34.3
218.087	48.64
218.306	62.98
218.524	91.65
218.742	28.16
218.96	159.23
219.179	42.5
219.397	15.87
219.615	132.61
219.833	114.17
220.051	19.97
220.27	69.12
220.488	130.56
220.706	36.35
220.924	19.97
221.142	17.92
221.36	36.35
221.578	97.79
221.796	-4.61
222.015	3.58
222.233	19.97
222.451	136.7
222.669	-70.14
222.887	65.02
223.105	30.21
223.323	28.16
223.541	5.63
223.759	42.5
223.977	48.64
224.195	181.76
224.413	50.69
224.631	79.36
224.849	58.88
225.067	189.95
225.285	65.02
225.503	5.63
225.721	-68.09
225.939	89.6
226.157	97.79
226.375	206.33
226.592	-57.86
226.81	89.6
227.028	99.84
227.246	122.37
227.464	38.4
227.682	112.13
227.9	56.83
228.117	73.21
228.335	69.12
228.553	103.93
228.771	40.45
228.989	110.08
229.206	48.64
229.424	9.73
229.642	34.3
229.86	-8.7
230.077	171.52
230.295	95.74
230.513	24.06
230.731	99.84
230.948	101.89
231.166	146.94
231.384	-61.95
231.601	-4.61
231.819	163.33
232.037	-20.99
232.254	-117.25
232.472	83.45
232.689	1.54
232.907	67.07
233.125	73.21
233.342	-20.99
233.56	56.83
233.777	36.35
233.995	7.68
234.213	144.89
234.43	144.89
234.648	83.45
234.865	-55.81
235.083	5.63
235.3	15.87
235.518	38.4
235.735	91.65
235.953	46.59
236.17	87.55
236.388	50.69
236.605	67.07
236.822	65.02
237.04	118.27
237.257	108.03
237.475	-45.57
237.692	5.63
237.909	50.69
238.127	22.02
238.344	108.03
238.562	71.17
238.779	13.82
238.996	-10.75
239.214	52.74
239.431	91.65
239.648	7.68
239.865	73.21
240.083	52.74
240.3	54.78
240.517	-41.47
240.735	138.75
240.952	110.08
241.169	81.41
241.386	54.78
241.603	24.06
241.821	-43.52
242.038	30.21
242.255	85.5
242.472	-64
242.689	36.35
242.907	120.32
243.124	93.69
243.341	13.82
243.558	28.16
243.775	7.68
243.992	-20.99
244.209	167.42
244.426	192
244.643	118.27
244.86	7.68
245.078	62.98
245.295	130.56
245.512	44.54
245.729	-2.56
245.946	114.17
246.163	22.02
246.38	7.68
246.597	79.36
246.814	26.11
247.031	11.78
247.248	52.74
247.464	48.64
247.681	62.98
247.898	22.02
248.115	22.02
248.332	-39.42
248.549	202.24
248.766	132.61
248.983	40.45
249.2	165.37
249.417	138.75
249.633	-0.51
249.85	32.26
250.067	22.02
250.284	85.5
250.501	134.65
250.717	146.94
250.934	-82.43
251.151	77.31
251.368	-39.42
251.585	44.54
251.801	67.07
252.018	-25.09
252.235	101.89
252.451	-0.51
252.668	32.26
252.885	112.13
253.102	105.98
253.318	11.78
253.535	-0.51
253.752	22.02
253.968	30.21
254.185	3.58
254.401	40.45
254.618	105.98
254.835	-6.66
255.051	77.31
255.268	126.46
255.484	7.68
255.701	1.54
255.917	112.13
256.134	79.36
256.351	122.37
256.567	-41.47
256.784	93.69
257	-96.77
257.217	136.7
257.433	157.18
257.65	-55.81
257.866	185.85
258.082	-12.8
258.299	-131.58
258.515	83.45
258.732	26.11
258.948	-39.42
259.165	62.98
259.381	-35.33
259.597	60.93
259.814	11.78
260.03	44.54
260.246	-14.85
260.463	130.56
260.679	93.69
260.895	79.36
261.112	95.74
261.328	-43.52
261.544	-27.14
261.761	114.17
261.977	58.88
262.193	-6.66
262.409	142.85
262.626	11.78
262.842	-31.23
263.058	-45.57
263.274	128.51
263.49	128.51
263.707	91.65
263.923	-27.14
264.139	-61.95
264.355	22.02
264.571	48.64
264.787	79.36
265.004	200.19
265.22	36.35
265.436	-31.23
265.652	-37.38
265.868	36.35
266.084	-57.86
266.3	9.73
266.516	40.45
266.732	54.78
266.948	71.17
267.164	13.82
267.38	146.94
267.596	99.84
267.812	163.33
268.028	87.55
268.244	97.79
268.46	52.74
268.676	-0.51
268.892	134.65
269.108	-49.66
269.324	7.68
269.54	5.63
269.756	75.26
269.972	42.5
270.188	81.41
270.403	34.3
270.619	77.31
270.835	128.51
271.051	101.89
271.267	9.73
271.483	-27.14
271.698	196.09
271.914	83.45
272.13	101.89
272.346	46.59
272.562	126.46
272.777	144.89
272.993	40.45
273.209	-57.86
273.425	87.55
273.64	-68.09
273.856	83.45
274.072	-29.18
274.287	62.98
274.503	65.02
274.719	99.84
274.934	40.45
275.15	-29.18
275.366	91.65
275.581	-2.56
275.797	99.84
276.012	67.07
276.228	-41.47
276.444	38.4
276.659	126.46
276.875	-2.56
277.09	38.4
277.306	-18.94
277.521	89.6
277.737	93.69
277.952	120.32
278.168	34.3
278.383	50.69
278.599	44.54
278.814	44.54
279.03	38.4
279.245	189.95
279.461	5.63
279.676	99.84
279.892	-10.75
280.107	-27.14
280.322	-47.62
280.538	97.79
280.753	-33.28
280.969	58.88
281.184	105.98
281.399	216.57
281.615	54.78
281.83	52.74
282.045	-23.04
282.26	-16.9
282.476	-6.66
282.691	60.93
282.906	62.98
283.122	-8.7
283.337	46.59
283.552	122.37
283.767	62.98
283.983	93.69
284.198	38.4
284.413	91.65
284.628	-59.9
284.843	26.11
285.058	95.74
285.274	9.73
285.489	-6.66
285.704	54.78
285.919	67.07
286.134	22.02
286.349	81.41
286.564	-49.66
286.779	124.41
286.995	77.31
287.21	-37.38
287.425	67.07
287.64	-12.8
287.855	65.02
288.07	-80.38
288.285	157.18
288.5	159.23
288.715	95.74
288.93	44.54
289.145	-18.94
289.36	91.65
289.575	24.06
289.79	169.47
290.004	-8.7
290.219	140.8
290.434	-8.7
290.649	-57.86
290.864	-49.66
291.079	-12.8
291.294	22.02
291.509	75.26
291.724	67.07
291.938	-29.18
292.153	110.08
292.368	1.54
292.583	40.45
292.798	124.41
293.012	34.3
293.227	11.78
293.442	15.87
293.657	67.07
293.871	196.09
294.086	142.85
294.301	153.09
294.516	83.45
294.73	24.06
294.945	-35.33
295.16	24.06
295.374	165.37
295.589	81.41
295.804	-6.66
296.018	13.82
296.233	116.22
296.447	118.27
296.662	-6.66
296.877	101.89
297.091	144.89
297.306	62.98
297.52	89.6
297.735	120.32
297.949	1.54
298.164	58.88
298.378	50.69
298.593	-2.56
298.807	19.97
299.022	58.88
299.236	136.7
299.451	65.02
299.665	114.17
299.88	42.5
300.094	83.45
300.309	1.54
300.523	144.89
300.737	69.12
300.952	151.04
301.166	81.41
301.381	71.17
301.595	7.68
301.809	3.58
302.024	24.06
302.238	-41.47
302.452	128.51
302.667	79.36
302.881	204.28
303.095	87.55
303.309	132.61
303.524	-29.18
303.738	28.16
303.952	-51.71
304.166	46.59
304.381	-111.1
304.595	165.37
304.809	-72.19
305.023	-2.56
305.237	32.26
305.452	5.63
305.666	83.45
305.88	50.69
306.094	9.73
306.308	67.07
306.522	151.04
306.736	48.64
306.95	93.69
307.164	93.69
307.379	-49.66
307.593	247.29
307.807	132.61
308.021	58.88
308.235	99.84
308.449	-12.8
308.663	71.17
308.877	286.2
309.091	48.64
309.305	56.83
309.519	-150.01
309.733	112.13
309.947	-29.18
310.161	89.6
310.374	126.46
310.588	173.57
310.802	-20.99
311.016	58.88
311.23	105.98
311.444	44.54
311.658	1.54
311.872	48.64
312.085	110.08
312.299	124.41
312.513	118.27
312.727	103.93
312.941	1.54
313.154	62.98
313.368	32.26
313.582	-29.18
313.796	50.69
314.009	-29.18
314.223	216.57
314.437	151.04
314.651	122.37
314.864	-20.99
315.078	30.21
315.292	40.45
315.505	22.02
315.719	-10.75
315.933	95.74
316.146	32.26
316.36	26.11
316.573	124.41
316.787	83.45
317.001	77.31
317.214	9.73
317.428	77.31
317.641	-72.19
317.855	-43.52
318.068	67.07
318.282	1.54
318.495	159.23
318.709	155.13
318.922	71.17
319.136	163.33
319.349	120.32
319.563	-27.14
319.776	189.95
319.99	-33.28
320.203	93.69
320.417	38.4
320.63	62.98
320.843	167.42
321.057	151.04
321.27	13.82
321.483	44.54
321.697	179.71
321.91	46.59
322.124	89.6
322.337	110.08
322.55	-25.09
322.763	99.84
322.977	-27.14
323.19	-33.28
323.403	91.65
323.617	22.02
323.83	126.46
324.043	-6.66
324.256	124.41
324.469	-8.7
324.683	52.74
324.896	99.84
325.109	58.88
325.322	-113.15
325.535	208.38
325.748	112.13
325.962	11.78
326.175	-20.99
326.388	32.26
326.601	230.91
326.814	71.17
327.027	85.5
327.24	138.75
327.453	-90.62
327.666	50.69
327.879	155.13
328.092	122.37
328.305	60.93
328.518	65.02
328.731	-61.95
328.944	28.16
329.157	11.78
329.37	-39.42
329.583	198.14
329.796	122.37
330.009	-61.95
330.222	99.84
330.435	97.79
330.648	112.13
330.861	9.73
331.073	30.21
331.286	110.08
331.499	108.03
331.712	48.64
331.925	40.45
332.138	40.45
332.35	120.32
332.563	-18.94
332.776	75.26
332.989	9.73
333.202	7.68
333.414	77.31
333.627	75.26
333.84	40.45
334.053	-0.51
334.265	40.45
334.478	-18.94
334.691	89.6
334.903	87.55
335.116	54.78
335.329	73.21
335.541	114.17
335.754	142.85
335.966	28.16
336.179	11.78
336.392	-16.9
336.604	46.59
336.817	97.79
337.029	167.42
337.242	22.02
337.454	112.13
337.667	54.78
337.88	204.28
338.092	44.54
338.305	159.23
338.517	24.06
338.729	67.07
338.942	153.09
339.154	-37.38
339.367	-51.71
339.579	97.79
339.792	-74.24
340.004	120.32
340.217	17.92
340.429	38.4
340.641	15.87
340.854	-39.42
341.066	-55.81
341.278	163.33
341.491	185.85
341.703	-0.51
341.915	-12.8
342.128	89.6
342.34	52.74
342.552	34.3
342.764	-2.56
342.977	7.68
343.189	54.78
343.401	-0.51
343.613	-72.19
343.826	105.98
344.038	-68.09
344.25	-25.09
344.462	24.06
344.674	77.31
344.886	15.87
345.099	97.79
345.311	103.93
345.523	36.35
345.735	-43.52
345.947	93.69
346.159	83.45
346.371	62.98
346.583	87.55
346.795	282.11
347.007	28.16
347.219	56.83
347.431	62.98
347.643	120.32
347.855	15.87
348.067	216.57
348.279	13.82
348.491	-29.18
348.703	146.94
348.915	-43.52
349.127	11.78
349.339	54.78
349.551	46.59
349.763	124.41
349.975	56.83
350.187	108.03
350.399	206.33
350.61	89.6
350.822	-10.75
351.034	-25.09
351.246	136.7
351.458	118.27
351.669	134.65
351.881	13.82
352.093	126.46
352.305	148.99
352.517	19.97
352.728	108.03
352.94	114.17
353.152	103.93
353.363	-14.85
353.575	97.79
353.787	138.75
353.999	91.65
354.21	177.66
354.422	-0.51
354.633	34.3
354.845	-0.51
355.057	65.02
355.268	89.6
355.48	122.37
355.692	13.82
355.903	60.93
356.115	26.11
356.326	-133.63
356.538	235
356.749	97.79
356.961	226.81
357.172	48.64
357.384	5.63
357.595	220.67
357.807	91.65
358.018	36.35
358.23	-4.61
358.441	167.42
358.653	122.37
358.864	28.16
359.075	-18.94
359.287	19.97
359.498	95.74
359.709	122.37
359.921	-6.66
360.132	13.82
360.344	99.84
360.555	3.58
360.766	95.74
360.977	40.45
361.189	58.88
361.4	-18.94
361.611	128.51
361.823	114.17
362.034	159.23
362.245	-43.52
362.456	69.12
362.667	169.47
362.879	36.35
363.09	46.59
363.301	99.84
363.512	93.69
363.723	-8.7
363.935	11.78
364.146	89.6
364.357	-6.66
364.568	56.83
364.779	-47.62
364.99	183.81
365.201	-12.8
365.412	187.9
365.623	-29.18
365.834	-4.61
366.045	-31.23
366.256	132.61
366.467	85.5
366.678	75.26
366.889	128.51
367.1	-14.85
367.311	128.51
367.522	-14.85
367.733	95.74
367.944	36.35
368.155	56.83
368.366	42.5
368.577	118.27
368.788	126.46
368.999	28.16
369.209	93.69
369.42	163.33
369.631	220.67
369.842	165.37
370.053	42.5
370.264	103.93
370.474	7.68
370.685	73.21
370.896	17.92
371.107	196.09
371.317	116.22
371.528	-10.75
371.739	97.79
371.95	67.07
372.16	128.51
372.371	-43.52
372.582	-23.04
372.792	26.11
373.003	46.59
373.214	87.55
373.424	46.59
373.635	3.58
373.846	189.95
374.056	22.02
374.267	73.21
374.477	120.32
374.688	7.68
374.898	69.12
375.109	81.41
375.319	60.93
375.53	153.09
375.74	85.5
375.951	15.87
376.161	67.07
376.372	155.13
376.582	60.93
376.793	130.56
377.003	-23.04
377.214	-27.14
377.424	60.93
377.635	89.6
377.845	11.78
378.055	7.68
378.266	-31.23
378.476	69.12
378.686	110.08
378.897	24.06
379.107	97.79
379.317	52.74
379.528	-53.76
379.738	136.7
379.948	-80.38
380.158	163.33
380.369	42.5
380.579	114.17
380.789	79.36
380.999	128.51
381.21	128.51
381.42	247.29
381.63	93.69
381.84	65.02
382.05	60.93
382.261	177.66
382.471	89.6
382.681	44.54
382.891	163.33
383.101	42.5
383.311	-55.81
383.521	19.97
383.731	30.21
383.941	230.91
384.151	3.58
384.361	28.16
384.571	83.45
384.781	65.02
384.991	167.42
385.201	161.28
385.411	161.28
385.621	34.3
385.831	-39.42
386.041	108.03
386.251	144.89
386.461	118.27
386.671	122.37
386.881	30.21
387.091	62.98
387.301	24.06
387.511	22.02
387.72	101.89
387.93	128.51
388.14	-47.62
388.35	48.64
388.56	99.84
388.769	126.46
388.979	15.87
389.189	5.63
389.399	69.12
389.609	52.74
389.818	108.03
390.028	-25.09
390.238	108.03
390.447	-16.9
390.657	95.74
390.867	50.69
391.076	-94.72
391.286	155.13
391.496	73.21
391.705	101.89
391.915	136.7
392.125	142.85
392.334	60.93
392.544	148.99
392.753	95.74
392.963	7.68
393.172	3.58
393.382	-57.86
393.591	206.33
393.801	54.78
394.01	85.5
394.22	110.08
394.429	52.74
394.639	-10.75
394.848	93.69
395.058	65.02
395.267	75.26
395.477	167.42
395.686	60.93
395.895	232.96
396.105	230.91
396.314	85.5
396.524	9.73
396.733	24.06
396.942	132.61
397.152	134.65
397.361	122.37
397.57	97.79
397.78	56.83
397.989	95.74
398.198	208.38
398.407	58.88
398.617	24.06
398.826	114.17
399.035	54.78
399.244	155.13
399.453	93.69
399.663	42.5
399.872	58.88
400.081	-12.8
400.29	146.94
400.499	7.68
400.708	89.6
400.917	85.5
401.127	69.12
401.336	19.97
401.545	134.65
401.754	87.55
401.963	81.41
402.172	52.74
402.381	-57.86
402.59	19.97
402.799	36.35
403.008	116.22
403.217	65.02
403.426	112.13
403.635	-14.85
403.844	50.69
404.053	62.98
404.262	34.3
404.471	124.41
404.68	56.83
404.888	-37.38
405.097	32.26
405.306	97.79
405.515	142.85
405.724	83.45
405.933	87.55
406.142	9.73
406.35	99.84
406.559	17.92
406.768	108.03
406.977	118.27
407.185	128.51
407.394	89.6
407.603	19.97
407.812	48.64
408.02	108.03
408.229	5.63
408.438	132.61
408.646	-33.28
408.855	28.16
409.064	97.79
409.272	79.36
409.481	134.65
409.69	-47.62
409.898	-4.61
410.107	105.98
410.315	185.85
410.524	65.02
410.733	46.59
410.941	114.17
411.15	200.19
411.358	46.59
411.567	101.89
411.775	122.37
411.984	99.84
412.192	73.21
412.401	38.4
412.609	204.28
412.818	142.85
413.026	118.27
413.234	93.69
413.443	79.36
413.651	-27.14
413.86	36.35
414.068	187.9
414.276	253.44
414.485	130.56
414.693	171.52
414.901	136.7
415.11	87.55
415.318	11.78
415.526	85.5
415.734	73.21
415.943	136.7
416.151	177.66
416.359	50.69
416.567	112.13
416.776	105.98
416.984	171.52
417.192	273.92
417.4	30.21
417.608	15.87
417.817	40.45
418.025	116.22
418.233	148.99
418.441	36.35
418.649	-78.33
418.857	79.36
419.065	181.76
419.273	17.92
419.481	15.87
419.689	7.68
419.897	36.35
420.105	-4.61
420.313	169.47
420.521	95.74
420.729	85.5
420.937	-10.75
421.145	19.97
421.353	105.98
421.561	169.47
421.769	93.69
421.977	48.64
422.185	134.65
422.393	95.74
422.601	91.65
422.809	19.97
423.017	85.5
423.224	146.94
423.432	173.57
423.64	19.97
423.848	83.45
424.056	3.58
424.263	167.42
424.471	54.78
424.679	228.86
424.887	-45.57
425.094	116.22
425.302	122.37
425.51	105.98
425.718	142.85
425.925	91.65
426.133	-41.47
426.341	185.85
426.548	81.41
426.756	75.26
426.964	87.55
427.171	54.78
427.379	65.02
427.586	87.55
427.794	177.66
428.001	101.89
428.209	93.69
428.417	245.24
428.624	118.27
428.832	91.65
429.039	122.37
429.247	112.13
429.454	183.81
429.662	161.28
429.869	99.84
430.076	202.24
430.284	128.51
430.491	284.16
430.699	216.57
430.906	237.05
431.114	181.76
431.321	69.12
431.528	173.57
431.736	237.05
431.943	177.66
432.15	192
432.358	171.52
432.565	282.11
432.772	108.03
432.979	163.33
433.187	79.36
433.394	212.48
433.601	134.65
433.808	200.19
434.016	318.97
434.223	265.72
434.43	148.99
434.637	275.96
434.844	288.25
435.052	269.82
435.259	368.12
435.466	239.1
435.673	185.85
435.88	318.97
436.087	318.97
436.294	331.26
436.501	351.74
436.708	331.26
436.915	370.17
437.122	327.16
437.329	220.67
437.537	419.32
437.743	343.55
437.95	355.83
438.157	368.12
438.364	421.37
438.571	366.07
438.778	450.04
438.985	458.23
439.192	468.47
439.399	415.23
439.606	443.9
439.813	534.01
440.02	523.77
440.227	593.4
440.433	456.19
440.64	572.92
440.847	466.42
441.054	548.34
441.261	701.94
441.467	546.3
441.674	544.25
441.881	744.95
442.088	544.25
442.294	742.9
442.501	738.8
442.708	654.84
442.914	787.96
443.121	794.1
443.328	806.39
443.534	890.35
443.741	863.73
443.948	679.41
444.154	896.5
444.361	990.7
444.568	964.08
444.774	972.27
444.981	923.12
445.187	1179.12
445.394	1160.69
445.6	1068.53
445.807	1359.34
446.013	1238.51
446.22	1162.73
446.426	1263.08
446.633	1416.68
446.839	1560.04
447.046	1435.11
447.252	1486.31
447.459	1506.79
447.665	1517.03
447.871	1684.97
448.078	1760.74
448.284	1813.99
448.491	1953.25
448.697	1955.3
448.903	2049.5
449.11	1998.31
449.316	2137.57
449.522	2190.81
449.728	2401.76
449.935	2432.47
450.141	2412
450.347	2684.38
450.553	2663.9
450.76	2616.79
450.966	2735.57
451.172	2866.64
451.378	2997.71
451.584	3085.78
451.791	3304.91
451.997	3153.36
452.203	3384.78
452.409	3552.71
452.615	3710.41
452.821	3622.34
453.027	3767.75
453.233	4269.5
453.44	4066.75
453.646	4195.78
453.852	4472.25
454.058	4730.3
454.264	4695.48
454.47	5295.54
454.676	5227.95
454.882	5653.93
455.088	5342.64
455.294	5694.89
455.5	5969.32
455.705	6108.58
455.911	6493.6
456.117	6507.93
456.323	6739.35
456.529	6741.4
456.735	7474.57
456.941	7622.03
457.147	7744.91
457.352	8154.5
457.558	8332.67
457.764	8826.23
457.97	8985.97
458.176	9370.99
458.381	9835.88
458.587	10014.06
458.793	10552.67
458.999	10521.95
459.204	11869.51
459.41	12375.36
459.616	11955.53
459.821	12768.57
460.027	13495.6
460.233	13880.62
460.438	14220.58
460.644	15007
460.85	15095.07
461.055	15496.47
461.261	16254.22
461.466	15830.29
461.672	16555.27
461.878	18248.94
462.083	17997.04
462.289	18418.92
462.494	19117.28
462.7	19573.97
462.905	19690.71
463.111	21193.92
463.316	22240.43
463.522	22633.64
463.727	23354.52
463.932	24235.15
464.138	25144.45
464.343	25826.42
464.549	26186.86
464.754	27878.49
464.959	28929.09
465.165	28957.77
465.37	29041.73
465.575	29228.1
465.781	31251.49
465.986	32093.21
466.191	31228.96
466.397	31955.99
466.602	30964.78
466.807	32601.1
467.012	33371.14
467.218	34065.4
467.423	33915.9
467.628	34687.98
467.833	36688.85
468.038	36162.52
468.244	35517.41
468.449	37243.85
