Data from USB4F104151__140__11-04-14-440.txt Node

Date: Wed Feb 26 11:04:14 EST 2025
User: louis
Spectrometer: USB4F10415
Trigger mode: 4
Integration Time (sec): 1.000000E-1
Scans to average: 1
Electric dark correction enabled: true
Nonlinearity correction enabled: false
Boxcar width: 0
XAxis mode: Wavelengths
Number of Pixels in Spectrum: 3648
>>>>>Begin Spectral Data<<<<<
178.204	-344.74
178.424	-344.74
178.644	-344.74
178.864	-408.23
179.084	-447.14
179.304	-39.59
179.524	11.61
179.744	25.94
179.964	32.08
180.184	64.85
180.404	38.23
180.624	13.65
180.844	-41.64
181.064	-111.27
181.283	15.7
181.503	-27.31
181.723	17.75
181.943	-127.66
182.163	191.83
182.383	-62.12
182.602	136.53
182.822	103.76
183.042	83.28
183.262	-27.31
183.482	-4.78
183.701	91.48
183.921	175.44
184.141	-84.65
184.361	73.04
184.58	-6.83
184.8	-2.73
185.02	-19.11
185.239	3.41
185.459	23.89
185.679	71
185.898	-96.94
186.118	77.14
186.338	60.76
186.557	103.76
186.777	-10.92
186.997	42.32
187.216	40.28
187.436	148.82
187.655	165.2
187.875	195.92
188.095	66.9
188.314	140.63
188.534	163.15
188.753	-15.02
188.973	185.68
189.192	114
189.412	50.52
189.631	-33.45
189.851	79.19
190.07	58.71
190.29	46.42
190.509	-60.07
190.729	-15.02
190.948	154.96
191.168	245.07
191.387	5.46
191.607	38.23
191.826	58.71
192.045	19.8
192.265	17.75
192.484	36.18
192.704	124.24
192.923	-43.69
193.142	185.68
193.362	44.37
193.581	114
193.8	150.87
194.02	25.94
194.239	81.24
194.458	107.86
194.678	52.56
194.897	-35.5
195.116	79.19
195.335	52.56
195.555	5.46
195.774	27.99
195.993	23.89
196.212	5.46
196.432	-23.21
196.651	-47.79
196.87	23.89
197.089	257.36
197.308	89.43
197.528	68.95
197.747	-23.21
197.966	116.05
198.185	157.01
198.404	-58.03
198.623	107.86
198.842	130.39
199.062	97.62
199.281	64.85
199.5	48.47
199.719	83.28
199.938	62.8
200.157	120.15
200.376	42.32
200.595	-6.83
200.814	83.28
201.033	-2.73
201.252	138.58
201.471	-15.02
201.69	79.19
201.909	23.89
202.128	46.42
202.347	52.56
202.566	42.32
202.785	-58.03
203.004	21.84
203.223	273.75
203.442	46.42
203.661	-12.97
203.879	95.57
204.098	44.37
204.317	-49.83
204.536	68.95
204.755	68.95
204.974	138.58
205.193	-12.97
205.411	85.33
205.63	122.2
205.849	105.81
206.068	38.23
206.287	-58.03
206.505	140.63
206.724	64.85
206.943	-70.31
207.162	-25.26
207.381	152.91
207.599	73.04
207.818	23.89
208.037	64.85
208.255	30.04
208.474	9.56
208.693	71
208.911	-15.02
209.13	68.95
209.349	17.75
209.567	103.76
209.786	140.63
210.005	118.1
210.223	44.37
210.442	-92.84
210.661	-17.07
210.879	13.65
211.098	9.56
211.316	23.89
211.535	48.47
211.753	130.39
211.972	97.62
212.191	25.94
212.409	1.37
212.628	81.24
212.846	25.94
213.065	-23.21
213.283	103.76
213.502	-27.31
213.72	64.85
213.938	11.61
214.157	27.99
214.375	25.94
214.594	68.95
214.812	83.28
215.031	34.13
215.249	62.8
215.467	103.76
215.686	66.9
215.904	87.38
216.122	-47.79
216.341	148.82
216.559	21.84
216.778	85.33
216.996	101.72
217.214	56.66
217.432	46.42
217.651	-55.98
217.869	27.99
218.087	-15.02
218.306	-37.55
218.524	3.41
218.742	40.28
218.96	62.8
219.179	13.65
219.397	3.41
219.615	243.03
219.833	89.43
220.051	-25.26
220.27	62.8
220.488	54.61
220.706	93.52
220.924	5.46
221.142	-33.45
221.36	44.37
221.578	111.96
221.796	-0.68
222.015	42.32
222.233	83.28
222.451	101.72
222.669	-27.31
222.887	109.91
223.105	-33.45
223.323	11.61
223.541	1.37
223.759	60.76
223.977	3.41
224.195	134.48
224.413	146.77
224.631	1.37
224.849	54.61
225.067	222.55
225.285	11.61
225.503	-41.64
225.721	-58.03
225.939	85.33
226.157	-23.21
226.375	197.97
226.592	77.14
226.81	62.8
227.028	23.89
227.246	97.62
227.464	134.48
227.682	85.33
227.9	173.39
228.117	48.47
228.335	91.48
228.553	95.57
228.771	-4.78
228.989	89.43
229.206	165.2
229.424	-25.26
229.642	40.28
229.86	30.04
230.077	150.87
230.295	17.75
230.513	146.77
230.731	91.48
230.948	120.15
231.166	93.52
231.384	5.46
231.601	-8.87
231.819	320.85
232.037	-72.36
232.254	-51.88
232.472	-4.78
232.689	13.65
232.907	87.38
233.125	32.08
233.342	-21.16
233.56	30.04
233.777	-15.02
233.995	42.32
234.213	111.96
234.43	85.33
234.648	-17.07
234.865	34.13
235.083	50.52
235.3	99.67
235.518	111.96
235.735	83.28
235.953	109.91
236.17	105.81
236.388	64.85
236.605	91.48
236.822	118.1
237.04	189.78
237.257	50.52
237.475	-27.31
237.692	23.89
237.909	87.38
238.127	-33.45
238.344	71
238.562	-39.59
238.779	-39.59
238.996	-41.64
239.214	85.33
239.431	93.52
239.648	27.99
239.865	87.38
240.083	81.24
240.3	-25.26
240.517	-78.51
240.735	-39.59
240.952	243.03
241.169	32.08
241.386	42.32
241.603	-10.92
241.821	-15.02
242.038	130.39
242.255	154.96
242.472	32.08
242.689	114
242.907	66.9
243.124	-23.21
243.341	23.89
243.558	-58.03
243.775	-66.22
243.992	44.37
244.209	107.86
244.426	204.11
244.643	-0.68
244.86	34.13
245.078	91.48
245.295	42.32
245.512	58.71
245.729	-8.87
245.946	136.53
246.163	58.71
246.38	64.85
246.597	48.47
246.814	30.04
247.031	27.99
247.248	9.56
247.464	161.11
247.681	13.65
247.898	62.8
248.115	83.28
248.332	1.37
248.549	124.24
248.766	224.59
248.983	58.71
249.2	52.56
249.417	105.81
249.633	-19.11
249.85	118.1
250.067	15.7
250.284	60.76
250.501	56.66
250.717	83.28
250.934	-37.55
251.151	95.57
251.368	75.09
251.585	79.19
251.801	91.48
252.018	23.89
252.235	109.91
252.451	-12.97
252.668	5.46
252.885	42.32
253.102	75.09
253.318	17.75
253.535	32.08
253.752	-23.21
253.968	48.47
254.185	27.99
254.401	1.37
254.618	163.15
254.835	-31.4
255.051	152.91
255.268	68.95
255.484	-0.68
255.701	-12.97
255.917	50.52
256.134	7.51
256.351	42.32
256.567	-55.98
256.784	81.24
257	-43.69
257.217	3.41
257.433	66.9
257.65	13.65
257.866	126.29
258.082	-117.42
258.299	-49.83
258.515	109.91
258.732	7.51
258.948	-62.12
259.165	15.7
259.381	7.51
259.597	62.8
259.814	9.56
260.03	62.8
260.246	27.99
260.463	101.72
260.679	111.96
260.895	-25.26
261.112	93.52
261.328	9.56
261.544	-25.26
261.761	157.01
261.977	7.51
262.193	19.8
262.409	42.32
262.626	-35.5
262.842	71
263.058	62.8
263.274	157.01
263.49	114
263.707	73.04
263.923	163.15
264.139	-125.61
264.355	103.76
264.571	130.39
264.787	105.81
265.004	109.91
265.22	42.32
265.436	11.61
265.652	-53.93
265.868	68.95
266.084	-47.79
266.3	34.13
266.516	-43.69
266.732	89.43
266.948	-17.07
267.164	-15.02
267.38	111.96
267.596	-6.83
267.812	191.83
268.028	-43.69
268.244	38.23
268.46	44.37
268.676	48.47
268.892	40.28
269.108	11.61
269.324	-37.55
269.54	-39.59
269.756	71
269.972	5.46
270.188	46.42
270.403	9.56
270.619	3.41
270.835	116.05
271.051	-29.35
271.267	9.56
271.483	-8.87
271.698	165.2
271.914	32.08
272.13	-45.74
272.346	-21.16
272.562	30.04
272.777	130.39
272.993	50.52
273.209	-19.11
273.425	-15.02
273.64	27.99
273.856	46.42
274.072	19.8
274.287	13.65
274.503	118.1
274.719	101.72
274.934	3.41
275.15	-94.89
275.366	-23.21
275.581	-62.12
275.797	93.52
276.012	13.65
276.228	15.7
276.444	46.42
276.659	169.3
276.875	-2.73
277.09	21.84
277.306	-2.73
277.521	30.04
277.737	91.48
277.952	91.48
278.168	56.66
278.383	81.24
278.599	62.8
278.814	124.24
279.03	-8.87
279.245	130.39
279.461	38.23
279.676	116.05
279.892	-84.65
280.107	-37.55
280.322	-4.78
280.538	144.72
280.753	-8.87
280.969	116.05
281.184	-10.92
281.399	142.68
281.615	-12.97
281.83	1.37
282.045	7.51
282.26	-82.6
282.476	-4.78
282.691	62.8
282.906	122.2
283.122	34.13
283.337	-10.92
283.552	23.89
283.767	-4.78
283.983	91.48
284.198	81.24
284.413	146.77
284.628	-0.68
284.843	42.32
285.058	103.76
285.274	54.61
285.489	-31.4
285.704	157.01
285.919	42.32
286.134	58.71
286.349	50.52
286.564	25.94
286.779	189.78
286.995	50.52
287.21	-76.46
287.425	101.72
287.64	48.47
287.855	42.32
288.07	-41.64
288.285	85.33
288.5	111.96
288.715	89.43
288.93	62.8
289.145	68.95
289.36	122.2
289.575	27.99
289.79	79.19
290.004	1.37
290.219	83.28
290.434	-15.02
290.649	66.9
290.864	34.13
291.079	27.99
291.294	23.89
291.509	111.96
291.724	-21.16
291.938	3.41
292.153	157.01
292.368	32.08
292.583	152.91
292.798	120.15
293.012	97.62
293.227	95.57
293.442	32.08
293.657	120.15
293.871	134.48
294.086	187.73
294.301	120.15
294.516	77.14
294.73	38.23
294.945	-6.83
295.16	11.61
295.374	105.81
295.589	181.59
295.804	-43.69
296.018	-21.16
296.233	208.21
296.447	83.28
296.662	3.41
296.877	97.62
297.091	87.38
297.306	42.32
297.52	50.52
297.735	54.61
297.949	62.8
298.164	83.28
298.378	52.56
298.593	-111.27
298.807	62.8
299.022	-15.02
299.236	140.63
299.451	15.7
299.665	-29.35
299.88	77.14
300.094	50.52
300.309	-51.88
300.523	25.94
300.737	-12.97
300.952	13.65
301.166	66.9
301.381	21.84
301.595	27.99
301.809	73.04
302.024	62.8
302.238	-19.11
302.452	124.24
302.667	44.37
302.881	114
303.095	161.11
303.309	-21.16
303.524	3.41
303.738	124.24
303.952	9.56
304.166	68.95
304.381	-113.32
304.595	144.72
304.809	-96.94
305.023	5.46
305.237	11.61
305.452	142.68
305.666	73.04
305.88	128.34
306.094	64.85
306.308	103.76
306.522	138.58
306.736	85.33
306.95	157.01
307.164	27.99
307.379	27.99
307.593	181.59
307.807	152.91
308.021	40.28
308.235	89.43
308.449	-117.42
308.663	87.38
308.877	175.44
309.091	146.77
309.305	71
309.519	-121.51
309.733	114
309.947	-74.41
310.161	1.37
310.374	75.09
310.588	116.05
310.802	-60.07
311.016	-0.68
311.23	68.95
311.444	-62.12
311.658	79.19
311.872	159.06
312.085	111.96
312.299	116.05
312.513	202.07
312.727	52.56
312.941	21.84
313.154	52.56
313.368	54.61
313.582	91.48
313.796	19.8
314.009	44.37
314.223	148.82
314.437	109.91
314.651	-19.11
314.864	27.99
315.078	44.37
315.292	5.46
315.505	-21.16
315.719	85.33
315.933	-25.26
316.146	17.75
316.36	-62.12
316.573	103.76
316.787	87.38
317.001	19.8
317.214	73.04
317.428	62.8
317.641	-15.02
317.855	15.7
318.068	107.86
318.282	21.84
318.495	185.68
318.709	79.19
318.922	46.42
319.136	157.01
319.349	118.1
319.563	-39.59
319.776	87.38
319.99	-39.59
320.203	79.19
320.417	-23.21
320.63	120.15
320.843	181.59
321.057	-12.97
321.27	-10.92
321.483	52.56
321.697	173.39
321.91	66.9
322.124	32.08
322.337	60.76
322.55	-27.31
322.763	38.23
322.977	71
323.19	-8.87
323.403	23.89
323.617	66.9
323.83	138.58
324.043	68.95
324.256	36.18
324.469	-51.88
324.683	103.76
324.896	19.8
325.109	44.37
325.322	-115.37
325.535	140.63
325.748	81.24
325.962	17.75
326.175	75.09
326.388	101.72
326.601	144.72
326.814	-6.83
327.027	71
327.24	116.05
327.453	-94.89
327.666	77.14
327.879	79.19
328.092	95.57
328.305	68.95
328.518	3.41
328.731	27.99
328.944	13.65
329.157	85.33
329.37	34.13
329.583	159.06
329.796	103.76
330.009	-62.12
330.222	64.85
330.435	114
330.648	83.28
330.861	42.32
331.073	122.2
331.286	122.2
331.499	34.13
331.712	66.9
331.925	-29.35
332.138	34.13
332.35	136.53
332.563	-21.16
332.776	122.2
332.989	-6.83
333.202	54.61
333.414	25.94
333.627	126.29
333.84	48.47
334.053	64.85
334.265	32.08
334.478	1.37
334.691	-31.4
334.903	62.8
335.116	-6.83
335.329	-4.78
335.541	40.28
335.754	189.78
335.966	71
336.179	91.48
336.392	15.7
336.604	15.7
336.817	75.09
337.029	56.66
337.242	60.76
337.454	25.94
337.667	77.14
337.88	93.52
338.092	97.62
338.305	83.28
338.517	-0.68
338.729	62.8
338.942	120.15
339.154	1.37
339.367	27.99
339.579	71
339.792	-0.68
340.004	79.19
340.217	62.8
340.429	66.9
340.641	-43.69
340.854	-2.73
341.066	-29.35
341.278	171.35
341.491	222.55
341.703	66.9
341.915	-6.83
342.128	13.65
342.34	34.13
342.552	-37.55
342.764	21.84
342.977	56.66
343.189	56.66
343.401	-10.92
343.613	-68.27
343.826	1.37
344.038	-10.92
344.25	23.89
344.462	19.8
344.674	15.7
344.886	-21.16
345.099	58.71
345.311	93.52
345.523	73.04
345.735	-98.99
345.947	60.76
346.159	17.75
346.371	19.8
346.583	56.66
346.795	163.15
347.007	17.75
347.219	52.56
347.431	44.37
347.643	159.06
347.855	36.18
348.067	109.91
348.279	13.65
348.491	81.24
348.703	42.32
348.915	60.76
349.127	-2.73
349.339	19.8
349.551	21.84
349.763	109.91
349.975	99.67
350.187	136.53
350.399	167.25
350.61	62.8
350.822	17.75
351.034	116.05
351.246	54.61
351.458	77.14
351.669	99.67
351.881	179.54
352.093	124.24
352.305	66.9
352.517	38.23
352.728	87.38
352.94	66.9
353.152	56.66
353.363	-98.99
353.575	50.52
353.787	95.57
353.999	32.08
354.21	195.92
354.422	11.61
354.633	-6.83
354.845	56.66
355.057	64.85
355.268	46.42
355.48	87.38
355.692	-8.87
355.903	-49.83
356.115	-6.83
356.326	-103.08
356.538	146.77
356.749	124.24
356.961	171.35
357.172	68.95
357.384	19.8
357.595	124.24
357.807	77.14
358.018	75.09
358.23	36.18
358.441	154.96
358.653	77.14
358.864	7.51
359.075	9.56
359.287	132.44
359.498	83.28
359.709	77.14
359.921	103.76
360.132	58.71
360.344	25.94
360.555	-2.73
360.766	11.61
360.977	23.89
361.189	122.2
361.4	-2.73
361.611	136.53
361.823	193.87
362.034	95.57
362.245	-101.03
362.456	91.48
362.667	132.44
362.879	32.08
363.09	62.8
363.301	73.04
363.512	11.61
363.723	-12.97
363.935	71
364.146	144.72
364.357	25.94
364.568	40.28
364.779	-80.55
364.99	181.59
365.201	-49.83
365.412	73.04
365.623	-27.31
365.834	68.95
366.045	40.28
366.256	77.14
366.467	114
366.678	87.38
366.889	25.94
367.1	-43.69
367.311	128.34
367.522	64.85
367.733	165.2
367.944	42.32
368.155	83.28
368.366	105.81
368.577	126.29
368.788	163.15
368.999	68.95
369.209	71
369.42	165.2
369.631	226.64
369.842	161.11
370.053	1.37
370.264	130.39
370.474	46.42
370.685	56.66
370.896	21.84
371.107	52.56
371.317	99.67
371.528	34.13
371.739	97.62
371.95	107.86
372.16	99.67
372.371	13.65
372.582	30.04
372.792	87.38
373.003	81.24
373.214	60.76
373.424	130.39
373.635	3.41
373.846	189.78
374.056	1.37
374.267	50.52
374.477	68.95
374.688	-10.92
374.898	85.33
375.109	60.76
375.319	52.56
375.53	83.28
375.74	183.63
375.951	-66.22
376.161	73.04
376.372	105.81
376.582	-35.5
376.793	132.44
377.003	-66.22
377.214	15.7
377.424	19.8
377.635	142.68
377.845	36.18
378.055	148.82
378.266	48.47
378.476	7.51
378.686	81.24
378.897	21.84
379.107	48.47
379.317	99.67
379.528	34.13
379.738	132.44
379.948	-70.31
380.158	7.51
380.369	-0.68
380.579	17.75
380.789	54.61
380.999	89.43
381.21	132.44
381.42	238.93
381.63	56.66
381.84	95.57
382.05	30.04
382.261	109.91
382.471	95.57
382.681	75.09
382.891	171.35
383.101	101.72
383.311	42.32
383.521	40.28
383.731	34.13
383.941	132.44
384.151	36.18
384.361	103.76
384.571	77.14
384.781	89.43
384.991	236.88
385.201	200.02
385.411	54.61
385.621	40.28
385.831	46.42
386.041	64.85
386.251	-4.78
386.461	132.44
386.671	44.37
386.881	99.67
387.091	3.41
387.301	150.87
387.511	40.28
387.72	54.61
387.93	75.09
388.14	-68.27
388.35	50.52
388.56	157.01
388.769	118.1
388.979	-49.83
389.189	-49.83
389.399	34.13
389.609	107.86
389.818	109.91
390.028	73.04
390.238	62.8
390.447	-25.26
390.657	34.13
390.867	-8.87
391.076	-33.45
391.286	87.38
391.496	52.56
391.705	-2.73
391.915	89.43
392.125	154.96
392.334	79.19
392.544	97.62
392.753	91.48
392.963	9.56
393.172	146.77
393.382	32.08
393.591	146.77
393.801	17.75
394.01	93.52
394.22	73.04
394.429	9.56
394.639	46.42
394.848	15.7
395.058	122.2
395.267	62.8
395.477	89.43
395.686	54.61
395.895	191.83
396.105	191.83
396.314	17.75
396.524	-15.02
396.733	13.65
396.942	175.44
397.152	71
397.361	136.53
397.57	81.24
397.78	91.48
397.989	126.29
398.198	126.29
398.407	66.9
398.617	-33.45
398.826	116.05
399.035	-39.59
399.244	132.44
399.453	44.37
399.663	36.18
399.872	64.85
400.081	-47.79
400.29	183.63
400.499	-78.51
400.708	140.63
400.917	58.71
401.127	-37.55
401.336	15.7
401.545	122.2
401.754	85.33
401.963	85.33
402.172	-0.68
402.381	-15.02
402.59	32.08
402.799	87.38
403.008	142.68
403.217	159.06
403.426	56.66
403.635	-64.17
403.844	73.04
404.053	66.9
404.262	114
404.471	183.63
404.68	136.53
404.888	77.14
405.097	120.15
405.306	111.96
405.515	128.34
405.724	9.56
405.933	66.9
406.142	54.61
406.35	124.24
406.559	66.9
406.768	17.75
406.977	152.91
407.185	103.76
407.394	154.96
407.603	-6.83
407.812	146.77
408.02	177.49
408.229	111.96
408.438	85.33
408.646	1.37
408.855	-43.69
409.064	9.56
409.272	83.28
409.481	58.71
409.69	48.47
409.898	62.8
410.107	71
410.315	169.3
410.524	56.66
410.733	89.43
410.941	42.32
411.15	191.83
411.358	40.28
411.567	58.71
411.775	27.99
411.984	56.66
412.192	165.2
412.401	9.56
412.609	132.44
412.818	171.35
413.026	138.58
413.234	-15.02
413.443	71
413.651	25.94
413.86	95.57
414.068	118.1
414.276	122.2
414.485	1.37
414.693	212.31
414.901	193.87
415.11	81.24
415.318	73.04
415.526	11.61
415.734	73.04
415.943	62.8
416.151	152.91
416.359	-2.73
416.567	25.94
416.776	54.61
416.984	130.39
417.192	240.98
417.4	-35.5
417.608	-45.74
417.817	-47.79
418.025	64.85
418.233	212.31
418.441	-35.5
418.649	46.42
418.857	87.38
419.065	114
419.273	-53.93
419.481	62.8
419.689	40.28
419.897	42.32
420.105	75.09
420.313	161.11
420.521	161.11
420.729	154.96
420.937	15.7
421.145	-45.74
421.353	36.18
421.561	165.2
421.769	36.18
421.977	60.76
422.185	68.95
422.393	105.81
422.601	161.11
422.809	144.72
423.017	103.76
423.224	32.08
423.432	169.3
423.64	75.09
423.848	85.33
424.056	25.94
424.263	107.86
424.471	-2.73
424.679	103.76
424.887	54.61
425.094	148.82
425.302	83.28
425.51	58.71
425.718	87.38
425.925	83.28
426.133	54.61
426.341	189.78
426.548	132.44
426.756	36.18
426.964	134.48
427.171	58.71
427.379	99.67
427.586	40.28
427.794	193.87
428.001	116.05
428.209	77.14
428.417	161.11
428.624	179.54
428.832	17.75
429.039	111.96
429.247	93.52
429.454	159.06
429.662	234.83
429.869	230.74
430.076	173.39
430.284	214.35
430.491	185.68
430.699	154.96
430.906	181.59
431.114	105.81
431.321	136.53
431.528	152.91
431.736	136.53
431.943	206.16
432.15	226.64
432.358	277.84
432.565	238.93
432.772	73.04
432.979	216.4
433.187	128.34
433.394	245.07
433.601	169.3
433.808	179.54
434.016	271.7
434.223	220.5
434.43	214.35
434.637	187.73
434.844	318.8
435.052	193.87
435.259	275.79
435.466	402.77
435.673	187.73
435.88	314.7
436.087	318.8
436.294	351.57
436.501	322.9
436.708	339.28
436.915	341.33
437.122	316.75
437.329	214.35
437.537	367.95
437.743	306.51
437.95	470.35
438.157	376.14
438.364	482.64
438.571	382.29
438.778	388.43
438.985	509.26
439.192	564.56
439.399	451.92
439.606	458.06
439.813	521.55
440.02	650.57
440.227	691.53
440.433	587.08
440.64	552.27
440.847	511.31
441.054	548.17
441.261	730.44
441.467	669
441.674	566.6
441.881	755.02
442.088	644.43
442.294	869.7
442.501	750.92
442.708	849.22
442.914	881.99
443.121	937.29
443.328	910.66
443.534	888.14
443.741	1027.4
443.948	914.76
444.154	1029.45
444.361	1205.57
444.568	1068.36
444.774	1062.21
444.981	992.58
445.187	1236.29
445.394	1242.43
445.6	1181
445.807	1414.46
446.013	1369.41
446.22	1342.78
446.426	1533.25
446.633	1611.07
446.839	1735.99
447.046	1432.9
447.252	1676.6
447.459	1623.36
447.665	1738.04
447.871	1895.74
448.078	1996.09
448.284	1932.6
448.491	2037.05
448.697	2157.88
448.903	2239.8
449.11	2311.47
449.316	2391.34
449.522	2432.3
449.728	2608.43
449.935	2667.82
450.141	2606.38
450.347	2856.23
450.553	2852.14
450.76	2827.56
450.966	3196.2
451.172	3220.77
451.378	3296.55
451.584	3253.54
451.791	3542.3
451.997	3755.29
452.203	3851.55
452.409	4007.19
452.615	4134.17
452.821	3994.9
453.027	4009.24
453.233	4543.76
453.44	4431.12
453.646	4814.09
453.852	5002.5
454.058	5094.66
454.264	5350.66
454.47	5577.98
454.676	5682.43
454.882	6180.09
455.088	5856.51
455.294	6202.61
455.5	6589.68
455.705	7097.58
455.911	6886.64
456.117	7032.04
456.323	7236.84
456.529	7263.46
456.735	7959.77
456.941	8156.38
457.147	8598.74
457.352	8830.16
457.558	9213.13
457.764	9704.64
457.97	9919.68
458.176	10329.27
458.381	10736.82
458.587	11175.08
458.793	11517.09
458.999	11590.82
459.204	13071.5
459.41	13364.36
459.616	13190.28
459.821	14095.49
460.027	14494.84
460.233	15408.23
460.438	15301.74
460.644	16247.9
460.85	16438.36
461.055	16976.98
461.261	17779.78
461.466	17460.3
461.672	17960
461.878	20053.03
462.083	19434.54
462.289	20341.79
462.494	20818.97
462.7	20984.85
462.905	21597.2
463.111	22803.45
463.316	24165.35
463.522	24564.7
463.727	25394.13
463.932	26348.48
464.138	27100.09
464.343	28167.08
464.549	28451.75
464.754	30485.38
464.959	31011.71
465.165	31857.52
465.37	31628.15
465.575	31769.46
465.781	33573.72
465.986	34849.6
466.191	33979.21
466.397	34458.44
466.602	33891.15
466.807	35502.9
467.012	35978.03
467.218	36909.86
467.423	36836.13
467.628	37729.05
467.833	39768.82
468.038	39168.77
468.244	38269.71
468.449	40575.72
468.654	39240.45
468.859	39568.12
469.064	39435
469.269	38421.26
469.474	38814.47
