Data from USB4F104151__39__10-42-49-580.txt Node

Date: Wed Feb 26 10:42:49 EST 2025
User: louis
Spectrometer: USB4F10415
Trigger mode: 4
Integration Time (sec): 1.000000E-1
Scans to average: 1
Electric dark correction enabled: true
Nonlinearity correction enabled: false
Boxcar width: 0
XAxis mode: Wavelengths
Number of Pixels in Spectrum: 3648
>>>>>Begin Spectral Data<<<<<
178.204	-394.92
178.424	-394.92
178.644	-394.92
178.864	-411.3
179.084	-431.78
179.304	29.01
179.524	-22.19
179.744	0.34
179.964	20.82
180.184	-50.86
180.404	18.77
180.624	-1.71
180.844	47.44
181.064	-50.86
181.283	8.53
181.503	-22.19
181.723	22.87
181.943	6.49
182.163	158.03
182.383	-26.28
182.602	12.63
182.822	74.07
183.042	80.21
183.262	-40.62
183.482	-32.43
183.701	31.06
183.921	-34.47
184.141	22.87
184.361	86.36
184.58	88.4
184.8	63.83
185.02	-34.47
185.239	84.31
185.459	51.54
185.679	201.04
185.898	-118.44
186.118	57.68
186.338	-26.28
186.557	49.49
186.777	12.63
186.997	-30.38
187.216	26.96
187.436	196.95
187.655	29.01
187.875	90.45
188.095	-52.91
188.314	123.22
188.534	131.41
188.753	-20.14
188.973	104.79
189.192	221.52
189.412	63.83
189.631	67.92
189.851	49.49
190.07	112.98
190.29	-65.19
190.509	20.82
190.729	45.4
190.948	104.79
191.168	213.33
191.387	61.78
191.607	-22.19
191.826	137.56
192.045	43.35
192.265	-69.29
192.484	74.07
192.704	20.82
192.923	-73.39
193.142	160.08
193.362	133.46
193.581	168.27
193.8	112.98
194.02	98.64
194.239	55.64
194.458	72.02
194.678	72.02
194.897	37.2
195.116	78.16
195.335	100.69
195.555	67.92
195.774	31.06
195.993	98.64
196.212	69.97
196.432	-34.47
196.651	-9.9
196.87	-1.71
197.089	213.33
197.308	35.16
197.528	35.16
197.747	-75.43
197.966	100.69
198.185	123.22
198.404	12.63
198.623	49.49
198.842	221.52
199.062	61.78
199.281	166.23
199.5	26.96
199.719	100.69
199.938	-16.04
200.157	29.01
200.376	160.08
200.595	131.41
200.814	59.73
201.033	-7.85
201.252	117.08
201.471	-7.85
201.69	51.54
201.909	51.54
202.128	129.36
202.347	117.08
202.566	-79.53
202.785	-54.95
203.004	24.92
203.223	264.53
203.442	18.77
203.661	-9.9
203.879	88.4
204.098	108.88
204.317	-77.48
204.536	133.46
204.755	69.97
204.974	63.83
205.193	-7.85
205.411	155.99
205.63	78.16
205.849	59.73
206.068	51.54
206.287	51.54
206.505	98.64
206.724	16.73
206.943	59.73
207.162	-93.87
207.381	78.16
207.599	14.68
207.818	43.35
208.037	-1.71
208.255	69.97
208.474	37.2
208.693	98.64
208.911	43.35
209.13	45.4
209.349	51.54
209.567	72.02
209.786	65.88
210.005	127.32
210.223	33.11
210.442	-130.73
210.661	39.25
210.879	117.08
211.098	0.34
211.316	16.73
211.535	98.64
211.753	90.45
211.972	82.26
212.191	4.44
212.409	57.68
212.628	69.97
212.846	-16.04
213.065	92.5
213.283	51.54
213.502	-32.43
213.72	-5.8
213.938	16.73
214.157	-26.28
214.375	94.55
214.594	18.77
214.812	98.64
215.031	98.64
215.249	-9.9
215.467	84.31
215.686	104.79
215.904	-16.04
216.122	-16.04
216.341	129.36
216.559	96.6
216.778	119.12
216.996	74.07
217.214	59.73
217.432	65.88
217.651	-18.09
217.869	35.16
218.087	53.59
218.306	-3.75
218.524	82.26
218.742	31.06
218.96	92.5
219.179	-24.23
219.397	-9.9
219.615	172.37
219.833	131.41
220.051	-81.58
220.27	76.12
220.488	112.98
220.706	98.64
220.924	-18.09
221.142	8.53
221.36	55.64
221.578	18.77
221.796	-34.47
222.015	106.84
222.233	59.73
222.451	201.04
222.669	-79.53
222.887	41.3
223.105	16.73
223.323	59.73
223.541	-61.1
223.759	155.99
223.977	135.51
224.195	153.94
224.413	-9.9
224.631	-7.85
224.849	123.22
225.067	215.38
225.285	0.34
225.503	72.02
225.721	-75.43
225.939	18.77
226.157	55.64
226.375	221.52
226.592	-16.04
226.81	51.54
227.028	82.26
227.246	139.6
227.464	63.83
227.682	72.02
227.9	26.96
228.117	119.12
228.335	127.32
228.553	-3.75
228.771	-54.95
228.989	12.63
229.206	158.03
229.424	41.3
229.642	8.53
229.86	14.68
230.077	74.07
230.295	-5.8
230.513	194.9
230.731	59.73
230.948	201.04
231.166	90.45
231.384	14.68
231.601	10.58
231.819	94.55
232.037	24.92
232.254	-3.75
232.472	49.49
232.689	-48.81
232.907	69.97
233.125	-97.96
233.342	-3.75
233.56	35.16
233.777	100.69
233.995	45.4
234.213	80.21
234.43	74.07
234.648	24.92
234.865	-30.38
235.083	94.55
235.3	117.08
235.518	24.92
235.735	143.7
235.953	18.77
236.17	53.59
236.388	63.83
236.605	16.73
236.822	43.35
237.04	153.94
237.257	67.92
237.475	-77.48
237.692	94.55
237.909	80.21
238.127	45.4
238.344	10.58
238.562	2.39
238.779	-20.14
238.996	-63.15
239.214	76.12
239.431	61.78
239.648	45.4
239.865	158.03
240.083	90.45
240.3	2.39
240.517	-7.85
240.735	24.92
240.952	172.37
241.169	123.22
241.386	-38.57
241.603	-30.38
241.821	-1.71
242.038	100.69
242.255	127.32
242.472	-32.43
242.689	102.74
242.907	43.35
243.124	10.58
243.341	16.73
243.558	22.87
243.775	-22.19
243.992	-79.53
244.209	45.4
244.426	227.67
244.643	108.88
244.86	59.73
245.078	18.77
245.295	12.63
245.512	35.16
245.729	14.68
245.946	39.25
246.163	63.83
246.38	51.54
246.597	39.25
246.814	63.83
247.031	37.2
247.248	57.68
247.464	53.59
247.681	41.3
247.898	37.2
248.115	8.53
248.332	-16.04
248.549	131.41
248.766	190.8
248.983	186.71
249.2	104.79
249.417	121.17
249.633	-24.23
249.85	92.5
250.067	53.59
250.284	0.34
250.501	88.4
250.717	115.03
250.934	-18.09
251.151	26.96
251.368	119.12
251.585	59.73
251.801	55.64
252.018	-106.15
252.235	170.32
252.451	-32.43
252.668	-67.24
252.885	188.75
253.102	69.97
253.318	0.34
253.535	-1.71
253.752	88.4
253.968	-13.99
254.185	-40.62
254.401	35.16
254.618	80.21
254.835	-32.43
255.051	39.25
255.268	8.53
255.484	69.97
255.701	-30.38
255.917	102.74
256.134	-5.8
256.351	67.92
256.567	-26.28
256.784	43.35
257	-38.57
257.217	98.64
257.433	55.64
257.65	-36.52
257.866	201.04
258.082	-36.52
258.299	-7.85
258.515	76.12
258.732	-42.67
258.948	20.82
259.165	65.88
259.381	-67.24
259.597	94.55
259.814	61.78
260.03	-42.67
260.246	39.25
260.463	94.55
260.679	80.21
260.895	129.36
261.112	96.6
261.328	-40.62
261.544	-34.47
261.761	102.74
261.977	-3.75
262.193	-71.34
262.409	141.65
262.626	57.68
262.842	53.59
263.058	18.77
263.274	100.69
263.49	125.27
263.707	43.35
263.923	31.06
264.139	-85.67
264.355	67.92
264.571	94.55
264.787	2.39
265.004	166.23
265.22	14.68
265.436	-7.85
265.652	-18.09
265.868	84.31
266.084	2.39
266.3	31.06
266.516	-85.67
266.732	106.84
266.948	55.64
267.164	-28.33
267.38	49.49
267.596	47.44
267.812	254.29
268.028	121.17
268.244	31.06
268.46	53.59
268.676	51.54
268.892	69.97
269.108	6.49
269.324	2.39
269.54	-44.71
269.756	74.07
269.972	14.68
270.188	-20.14
270.403	-16.04
270.619	18.77
270.835	31.06
271.051	84.31
271.267	4.44
271.483	16.73
271.698	125.27
271.914	74.07
272.13	112.98
272.346	12.63
272.562	127.32
272.777	80.21
272.993	108.88
273.209	-18.09
273.425	115.03
273.64	-16.04
273.856	104.79
274.072	2.39
274.287	-67.24
274.503	94.55
274.719	98.64
274.934	33.11
275.15	-50.86
275.366	-50.86
275.581	-59.05
275.797	72.02
276.012	49.49
276.228	39.25
276.444	2.39
276.659	104.79
276.875	-18.09
277.09	6.49
277.306	53.59
277.521	117.08
277.737	6.49
277.952	82.26
278.168	26.96
278.383	51.54
278.599	51.54
278.814	39.25
279.03	12.63
279.245	168.27
279.461	39.25
279.676	149.84
279.892	-28.33
280.107	29.01
280.322	-89.77
280.538	53.59
280.753	6.49
280.969	92.5
281.184	74.07
281.399	180.56
281.615	6.49
281.83	53.59
282.045	-75.43
282.26	-118.44
282.476	31.06
282.691	110.93
282.906	69.97
283.122	-13.99
283.337	0.34
283.552	82.26
283.767	10.58
283.983	137.56
284.198	84.31
284.413	29.01
284.628	-52.91
284.843	84.31
285.058	88.4
285.274	35.16
285.489	-32.43
285.704	78.16
285.919	-16.04
286.134	-28.33
286.349	35.16
286.564	24.92
286.779	170.32
286.995	41.3
287.21	-28.33
287.425	20.82
287.64	-22.19
287.855	63.83
288.07	18.77
288.285	76.12
288.5	35.16
288.715	82.26
288.93	-7.85
289.145	-13.99
289.36	117.08
289.575	-36.52
289.79	145.75
290.004	4.44
290.219	164.18
290.434	-3.75
290.649	-44.71
290.864	-32.43
291.079	108.88
291.294	24.92
291.509	41.3
291.724	22.87
291.938	33.11
292.153	47.44
292.368	18.77
292.583	51.54
292.798	119.12
293.012	8.53
293.227	121.17
293.442	12.63
293.657	88.4
293.871	98.64
294.086	39.25
294.301	102.74
294.516	88.4
294.73	61.78
294.945	-36.52
295.16	-79.53
295.374	59.73
295.589	72.02
295.804	37.2
296.018	55.64
296.233	176.47
296.447	51.54
296.662	39.25
296.877	102.74
297.091	55.64
297.306	-1.71
297.52	47.44
297.735	74.07
297.949	143.7
298.164	10.58
298.378	145.75
298.593	-42.67
298.807	-9.9
299.022	26.96
299.236	168.27
299.451	10.58
299.665	-3.75
299.88	47.44
300.094	39.25
300.309	18.77
300.523	47.44
300.737	-26.28
300.952	80.21
301.166	0.34
301.381	24.92
301.595	4.44
301.809	-28.33
302.024	20.82
302.238	-32.43
302.452	110.93
302.667	90.45
302.881	92.5
303.095	69.97
303.309	69.97
303.524	-9.9
303.738	76.12
303.952	8.53
304.166	22.87
304.381	-106.15
304.595	119.12
304.809	55.64
305.023	57.68
305.237	20.82
305.452	18.77
305.666	67.92
305.88	72.02
306.094	143.7
306.308	39.25
306.522	137.56
306.736	72.02
306.95	139.6
307.164	-1.71
307.379	-13.99
307.593	102.74
307.807	106.84
308.021	72.02
308.235	2.39
308.449	-9.9
308.663	131.41
308.877	180.56
309.091	22.87
309.305	22.87
309.519	-106.15
309.733	131.41
309.947	-59.05
310.161	43.35
310.374	92.5
310.588	110.93
310.802	-54.95
311.016	-7.85
311.23	59.73
311.444	-69.29
311.658	72.02
311.872	129.36
312.085	166.23
312.299	127.32
312.513	110.93
312.727	43.35
312.941	-24.23
313.154	37.2
313.368	2.39
313.582	55.64
313.796	-7.85
314.009	92.5
314.223	88.4
314.437	22.87
314.651	43.35
314.864	-81.58
315.078	35.16
315.292	-75.43
315.505	29.01
315.719	39.25
315.933	55.64
316.146	-44.71
316.36	45.4
316.573	69.97
316.787	92.5
317.001	47.44
317.214	-26.28
317.428	92.5
317.641	-44.71
317.855	41.3
318.068	65.88
318.282	12.63
318.495	215.38
318.709	4.44
318.922	24.92
319.136	160.08
319.349	78.16
319.563	-9.9
319.776	72.02
319.99	10.58
320.203	145.75
320.417	24.92
320.63	131.41
320.843	166.23
321.057	65.88
321.27	112.98
321.483	39.25
321.697	121.17
321.91	74.07
322.124	106.84
322.337	47.44
322.55	-77.48
322.763	39.25
322.977	18.77
323.19	20.82
323.403	43.35
323.617	37.2
323.83	59.73
324.043	37.2
324.256	59.73
324.469	-112.3
324.683	63.83
324.896	2.39
325.109	6.49
325.322	-93.87
325.535	61.78
325.748	100.69
325.962	-11.95
326.175	59.73
326.388	26.96
326.601	72.02
326.814	18.77
327.027	35.16
327.24	143.7
327.453	-134.82
327.666	94.55
327.879	147.8
328.092	65.88
328.305	65.88
328.518	-7.85
328.731	29.01
328.944	-9.9
329.157	121.17
329.37	78.16
329.583	133.46
329.796	131.41
330.009	-73.39
330.222	96.6
330.435	2.39
330.648	49.49
330.861	0.34
331.073	61.78
331.286	133.46
331.499	69.97
331.712	4.44
331.925	108.88
332.138	69.97
332.35	90.45
332.563	31.06
332.776	65.88
332.989	45.4
333.202	-32.43
333.414	37.2
333.627	47.44
333.84	-9.9
334.053	74.07
334.265	6.49
334.478	4.44
334.691	-26.28
334.903	55.64
335.116	-42.67
335.329	-3.75
335.541	39.25
335.754	92.5
335.966	-32.43
336.179	26.96
336.392	35.16
336.604	-30.38
336.817	47.44
337.029	29.01
337.242	53.59
337.454	49.49
337.667	-16.04
337.88	180.56
338.092	59.73
338.305	10.58
338.517	-54.95
338.729	37.2
338.942	106.84
339.154	-18.09
339.367	-34.47
339.579	47.44
339.792	-93.87
340.004	22.87
340.217	100.69
340.429	39.25
340.641	8.53
340.854	41.3
341.066	-13.99
341.278	92.5
341.491	164.18
341.703	31.06
341.915	-16.04
342.128	31.06
342.34	76.12
342.552	-38.57
342.764	63.83
342.977	-32.43
343.189	119.12
343.401	45.4
343.613	-93.87
343.826	2.39
344.038	-61.1
344.25	92.5
344.462	43.35
344.674	33.11
344.886	-13.99
345.099	96.6
345.311	78.16
345.523	41.3
345.735	-97.96
345.947	47.44
346.159	14.68
346.371	59.73
346.583	-83.63
346.795	194.9
347.007	18.77
347.219	55.64
347.431	88.4
347.643	100.69
347.855	-5.8
348.067	82.26
348.279	-42.67
348.491	41.3
348.703	41.3
348.915	-26.28
349.127	-24.23
349.339	-30.38
349.551	-24.23
349.763	80.21
349.975	65.88
350.187	153.94
350.399	131.41
350.61	72.02
350.822	76.12
351.034	37.2
351.246	39.25
351.458	35.16
351.669	145.75
351.881	141.65
352.093	115.03
352.305	45.4
352.517	67.92
352.728	168.27
352.94	-9.9
353.152	20.82
353.363	16.73
353.575	98.64
353.787	153.94
353.999	67.92
354.21	190.8
354.422	-46.76
354.633	35.16
354.845	10.58
355.057	115.03
355.268	92.5
355.48	61.78
355.692	-50.86
355.903	-30.38
356.115	-1.71
356.326	2.39
356.538	135.51
356.749	67.92
356.961	76.12
357.172	61.78
357.384	-57
357.595	149.84
357.807	-75.43
358.018	63.83
358.23	78.16
358.441	131.41
358.653	-36.52
358.864	57.68
359.075	-28.33
359.287	55.64
359.498	74.07
359.709	88.4
359.921	35.16
360.132	39.25
360.344	33.11
360.555	55.64
360.766	37.2
360.977	-30.38
361.189	47.44
361.4	-50.86
361.611	76.12
361.823	119.12
362.034	0.34
362.245	-69.29
362.456	14.68
362.667	80.21
362.879	24.92
363.09	57.68
363.301	98.64
363.512	2.39
363.723	41.3
363.935	24.92
364.146	158.03
364.357	80.21
364.568	53.59
364.779	-32.43
364.99	119.12
365.201	0.34
365.412	209.23
365.623	-38.57
365.834	125.27
366.045	92.5
366.256	69.97
366.467	74.07
366.678	-5.8
366.889	63.83
367.1	22.87
367.311	127.32
367.522	-36.52
367.733	90.45
367.944	96.6
368.155	8.53
368.366	176.47
368.577	98.64
368.788	43.35
368.999	18.77
369.209	59.73
369.42	231.76
369.631	192.85
369.842	49.49
370.053	-81.58
370.264	74.07
370.474	-1.71
370.685	74.07
370.896	31.06
371.107	80.21
371.317	65.88
371.528	-22.19
371.739	33.11
371.95	26.96
372.16	65.88
372.371	-13.99
372.582	33.11
372.792	63.83
373.003	74.07
373.214	69.97
373.424	63.83
373.635	-20.14
373.846	145.75
374.056	67.92
374.267	69.97
374.477	106.84
374.688	10.58
374.898	24.92
375.109	4.44
375.319	47.44
375.53	153.94
375.74	53.59
375.951	6.49
376.161	59.73
376.372	215.38
376.582	26.96
376.793	57.68
377.003	-54.95
377.214	-11.95
377.424	8.53
377.635	4.44
377.845	29.01
378.055	178.51
378.266	-16.04
378.476	-18.09
378.686	-36.52
378.897	-24.23
379.107	63.83
379.317	16.73
379.528	-61.1
379.738	84.31
379.948	-44.71
380.158	98.64
380.369	94.55
380.579	102.74
380.789	-3.75
380.999	29.01
381.21	86.36
381.42	221.52
381.63	55.64
381.84	41.3
382.05	55.64
382.261	74.07
382.471	125.27
382.681	-26.28
382.891	92.5
383.101	18.77
383.311	-93.87
383.521	2.39
383.731	86.36
383.941	100.69
384.151	33.11
384.361	74.07
384.571	139.6
384.781	90.45
384.991	110.93
385.201	164.18
385.411	100.69
385.621	55.64
385.831	115.03
386.041	16.73
386.251	41.3
386.461	129.36
386.671	35.16
386.881	-22.19
387.091	45.4
387.301	84.31
387.511	102.74
387.72	135.51
387.93	98.64
388.14	-59.05
388.35	33.11
388.56	129.36
388.769	112.98
388.979	4.44
389.189	35.16
389.399	26.96
389.609	115.03
389.818	72.02
390.028	119.12
390.238	137.56
390.447	-11.95
390.657	96.6
390.867	2.39
391.076	-140.97
391.286	82.26
391.496	14.68
391.705	72.02
391.915	139.6
392.125	98.64
392.334	82.26
392.544	143.7
392.753	88.4
392.963	-5.8
393.172	86.36
393.382	-26.28
393.591	166.23
393.801	35.16
394.01	155.99
394.22	141.65
394.429	35.16
394.639	45.4
394.848	51.54
395.058	45.4
395.267	59.73
395.477	174.42
395.686	-13.99
395.895	178.51
396.105	194.9
396.314	65.88
396.524	84.31
396.733	-34.47
396.942	139.6
397.152	104.79
397.361	115.03
397.57	61.78
397.78	98.64
397.989	55.64
398.198	182.61
398.407	35.16
398.617	51.54
398.826	98.64
399.035	-28.33
399.244	86.36
399.453	119.12
399.663	-7.85
399.872	117.08
400.081	-1.71
400.29	133.46
400.499	-36.52
400.708	110.93
400.917	-34.47
401.127	-3.75
401.336	55.64
401.545	160.08
401.754	121.17
401.963	125.27
402.172	-3.75
402.381	-63.15
402.59	20.82
402.799	67.92
403.008	141.65
403.217	37.2
403.426	121.17
403.635	-69.29
403.844	-20.14
404.053	20.82
404.262	82.26
404.471	182.61
404.68	45.4
404.888	49.49
405.097	20.82
405.306	61.78
405.515	80.21
405.724	24.92
405.933	51.54
406.142	59.73
406.35	88.4
406.559	-9.9
406.768	94.55
406.977	170.32
407.185	26.96
407.394	49.49
407.603	-13.99
407.812	57.68
408.02	108.88
408.229	31.06
408.438	55.64
408.646	4.44
408.855	63.83
409.064	82.26
409.272	74.07
409.481	65.88
409.69	-46.76
409.898	26.96
410.107	127.32
410.315	96.6
410.524	-1.71
410.733	88.4
410.941	110.93
411.15	121.17
411.358	102.74
411.567	160.08
411.775	92.5
411.984	-48.81
412.192	133.46
412.401	31.06
412.609	131.41
412.818	133.46
413.026	106.84
413.234	4.44
413.443	49.49
413.651	47.44
413.86	4.44
414.068	207.19
414.276	151.89
414.485	-44.71
414.693	192.85
414.901	168.27
415.11	104.79
415.318	102.74
415.526	20.82
415.734	174.42
415.943	49.49
416.151	141.65
416.359	63.83
416.567	26.96
416.776	55.64
416.984	57.68
417.192	233.81
417.4	20.82
417.608	-20.14
417.817	-30.38
418.025	67.92
418.233	168.27
418.441	31.06
418.649	-5.8
418.857	63.83
419.065	153.94
419.273	37.2
419.481	53.59
419.689	92.5
419.897	24.92
420.105	-44.71
420.313	67.92
420.521	178.51
420.729	127.32
420.937	31.06
421.145	8.53
421.353	186.71
421.561	223.57
421.769	125.27
421.977	43.35
422.185	112.98
422.393	-24.23
422.601	166.23
422.809	74.07
423.017	121.17
423.224	55.64
423.432	102.74
423.64	76.12
423.848	149.84
424.056	14.68
424.263	192.85
424.471	35.16
424.679	143.7
424.887	10.58
425.094	164.18
425.302	143.7
425.51	0.34
425.718	86.36
425.925	-7.85
426.133	-22.19
426.341	151.89
426.548	72.02
426.756	57.68
426.964	98.64
427.171	-36.52
427.379	137.56
427.586	0.34
427.794	174.42
428.001	86.36
428.209	55.64
428.417	119.12
428.624	110.93
428.832	190.8
429.039	78.16
429.247	39.25
429.454	92.5
429.662	151.89
429.869	80.21
430.076	153.94
430.284	160.08
430.491	186.71
430.699	155.99
430.906	229.71
431.114	39.25
431.321	125.27
431.528	235.86
431.736	147.8
431.943	125.27
432.15	141.65
432.358	194.9
432.565	178.51
432.772	10.58
432.979	131.41
433.187	117.08
433.394	141.65
433.601	92.5
433.808	293.2
434.016	180.56
434.223	315.73
434.43	121.17
434.637	209.23
434.844	258.39
435.052	287.06
435.259	229.71
435.466	287.06
435.673	223.57
435.88	227.67
436.087	301.39
436.294	346.45
436.501	352.59
436.708	346.45
436.915	256.34
437.122	364.88
437.329	233.81
437.537	287.06
437.743	303.44
437.95	504.14
438.157	457.04
438.364	381.26
438.571	366.93
438.778	420.17
438.985	438.61
439.192	471.37
439.399	463.18
439.606	452.94
439.813	463.18
440.02	633.16
440.227	741.71
440.433	567.63
440.64	522.57
440.847	469.33
441.054	579.92
441.261	735.56
441.467	678.22
441.674	598.35
441.881	631.12
442.088	633.16
442.294	672.08
442.501	694.6
442.708	803.15
442.914	674.12
443.121	827.72
443.328	753.99
443.534	964.93
443.741	866.63
443.948	725.32
444.154	977.22
444.361	1229.12
444.568	1061.19
444.774	956.74
444.981	975.17
445.187	1186.12
445.394	1116.48
445.6	1204.55
445.807	1296.71
446.013	1276.23
446.22	1276.23
446.426	1390.91
446.633	1384.77
446.839	1620.28
447.046	1427.78
447.252	1679.68
447.459	1513.79
447.665	1669.44
447.871	1898.81
448.078	1929.53
448.284	1952.06
448.491	1950.01
448.697	2019.64
448.903	2179.38
449.11	2144.56
449.316	2150.71
449.522	2392.37
449.728	2367.79
449.935	2382.13
450.141	2494.77
450.347	2640.17
450.553	2576.69
450.76	2593.07
450.966	2867.5
451.172	2971.94
451.378	3129.64
451.584	3180.84
451.791	3387.68
451.997	3453.22
452.203	3518.75
452.409	3770.65
452.615	3887.39
452.821	3813.66
453.027	3832.09
453.233	4387.09
453.44	4188.44
453.646	4421.91
453.852	4753.68
454.058	4712.72
454.264	4894.99
454.47	5384.45
454.676	5241.09
454.882	5716.22
455.088	5298.44
455.294	5660.93
455.5	6193.4
455.705	6482.16
455.911	6568.18
456.117	6568.18
456.323	6811.89
456.529	6904.04
456.735	7647.46
456.941	7848.16
457.147	7991.52
457.352	8349.91
457.558	8593.62
457.764	9185.48
457.97	9238.73
458.176	9584.84
458.381	10043.58
458.587	10283.19
458.793	10680.5
458.999	10791.09
459.204	11909.28
459.41	12439.7
459.616	12488.85
459.821	12982.42
460.027	13389.96
460.233	14129.28
460.438	14317.69
460.644	15190.13
460.85	15181.93
461.055	15722.6
461.261	16367.71
461.466	16203.87
461.672	16607.32
461.878	18393.15
462.083	18532.41
462.289	18573.37
462.494	19509.29
462.7	19456.04
462.905	19804.2
463.111	21458.96
463.316	22736.89
463.522	22626.3
463.727	23564.27
463.932	24606.69
464.138	25450.45
464.343	26585.02
464.549	26501.06
464.754	28420
464.959	28852.13
465.165	29579.15
465.37	29730.7
465.575	29421.46
465.781	31672.18
465.986	32442.21
466.191	32143.21
466.397	32196.46
466.602	31594.36
466.807	33210.2
467.012	33845.07
467.218	34217.8
467.423	34817.86
467.628	35706.68
467.833	37420.83
468.038	36599.59
468.244	36284.2
468.449	38055.7
468.654	37105.44
468.859	36955.94
469.064	37191.45
