Data from USB4F104151__84__10-44-25-969.txt Node

Date: Wed Feb 26 10:44:25 EST 2025
User: louis
Spectrometer: USB4F10415
Trigger mode: 4
Integration Time (sec): 1.000000E-1
Scans to average: 1
Electric dark correction enabled: true
Nonlinearity correction enabled: false
Boxcar width: 0
XAxis mode: Wavelengths
Number of Pixels in Spectrum: 3648
>>>>>Begin Spectral Data<<<<<
178.204	-373.92
178.424	-373.92
178.644	-373.92
178.864	-400.55
179.084	-408.74
179.304	-36.01
179.524	-7.34
179.744	-1.19
179.964	54.1
180.184	107.35
180.404	11.09
180.624	-60.59
180.844	72.53
181.064	-40.11
181.283	0.85
181.503	-126.12
181.723	25.43
181.943	-58.54
182.163	191.31
182.383	-40.11
182.602	129.88
182.822	150.36
183.042	31.57
183.262	31.57
183.482	64.34
183.701	41.81
183.921	97.11
184.141	39.76
184.361	117.59
184.58	15.19
184.8	9.05
185.02	-52.39
185.239	76.63
185.459	2.9
185.679	183.12
185.898	-23.72
186.118	74.58
186.338	97.11
186.557	82.77
186.777	9.05
186.997	82.77
187.216	82.77
187.436	195.41
187.655	52.05
187.875	60.24
188.095	66.39
188.314	144.21
188.534	213.84
188.753	47.96
188.973	144.21
189.192	265.04
189.412	-9.39
189.631	9.05
189.851	95.06
190.07	201.55
190.29	47.96
190.509	15.19
190.729	68.44
190.948	191.31
191.168	211.79
191.387	160.59
191.607	68.44
191.826	88.92
192.045	-17.58
192.265	33.62
192.484	136.02
192.704	50
192.923	41.81
193.142	172.88
193.362	136.02
193.581	129.88
193.8	31.57
194.02	19.29
194.239	105.3
194.458	60.24
194.678	47.96
194.897	66.39
195.116	181.07
195.335	76.63
195.555	138.07
195.774	2.9
195.993	133.97
196.212	23.38
196.432	62.29
196.651	-3.24
196.87	17.24
197.089	256.85
197.308	93.01
197.528	86.87
197.747	27.48
197.966	-1.19
198.185	123.73
198.404	-17.58
198.623	150.36
198.842	127.83
199.062	119.64
199.281	99.16
199.5	15.19
199.719	58.2
199.938	164.69
200.157	136.02
200.376	95.06
200.595	136.02
200.814	105.3
201.033	72.53
201.252	176.98
201.471	93.01
201.69	93.01
201.909	101.2
202.128	142.16
202.347	140.12
202.566	17.24
202.785	-5.29
203.004	27.48
203.223	287.57
203.442	52.05
203.661	-42.15
203.879	105.3
204.098	156.5
204.317	-40.11
204.536	109.4
204.755	68.44
204.974	189.27
205.193	17.24
205.411	156.5
205.63	129.88
205.849	133.97
206.068	15.19
206.287	-9.39
206.505	119.64
206.724	33.62
206.943	-1.19
207.162	33.62
207.381	125.78
207.599	35.67
207.818	74.58
208.037	-27.82
208.255	90.96
208.474	45.91
208.693	76.63
208.911	84.82
209.13	205.65
209.349	56.15
209.567	99.16
209.786	131.92
210.005	68.44
210.223	47.96
210.442	-11.43
210.661	66.39
210.879	172.88
211.098	86.87
211.316	162.64
211.535	78.68
211.753	68.44
211.972	74.58
212.191	31.57
212.409	29.52
212.628	160.59
212.846	60.24
213.065	103.25
213.283	152.4
213.502	99.16
213.72	60.24
213.938	39.76
214.157	68.44
214.375	170.83
214.594	86.87
214.812	93.01
215.031	23.38
215.249	64.34
215.467	50
215.686	95.06
215.904	129.88
216.122	136.02
216.341	99.16
216.559	103.25
216.778	166.74
216.996	121.68
217.214	27.48
217.432	160.59
217.651	45.91
217.869	50
218.087	93.01
218.306	125.78
218.524	109.4
218.742	35.67
218.96	97.11
219.179	76.63
219.397	58.2
219.615	211.79
219.833	115.54
220.051	43.86
220.27	123.73
220.488	129.88
220.706	35.67
220.924	47.96
221.142	101.2
221.36	62.29
221.578	133.97
221.796	2.9
222.015	41.81
222.233	9.05
222.451	306
222.669	-13.48
222.887	29.52
223.105	43.86
223.323	-11.43
223.541	103.25
223.759	64.34
223.977	111.44
224.195	142.16
224.413	119.64
224.631	93.01
224.849	93.01
225.067	297.81
225.285	78.68
225.503	19.29
225.721	-29.87
225.939	60.24
226.157	148.31
226.375	240.47
226.592	56.15
226.81	74.58
227.028	160.59
227.246	191.31
227.464	50
227.682	138.07
227.9	123.73
228.117	74.58
228.335	113.49
228.553	109.4
228.771	105.3
228.989	56.15
229.206	203.6
229.424	64.34
229.642	76.63
229.86	17.24
230.077	168.79
230.295	131.92
230.513	95.06
230.731	82.77
230.948	303.95
231.166	93.01
231.384	76.63
231.601	37.72
231.819	219.99
232.037	33.62
232.254	35.67
232.472	66.39
232.689	56.15
232.907	115.54
233.125	25.43
233.342	90.96
233.56	99.16
233.777	-50.35
233.995	50
234.213	129.88
234.43	82.77
234.648	88.92
234.865	60.24
235.083	66.39
235.3	117.59
235.518	107.35
235.735	174.93
235.953	29.52
236.17	-5.29
236.388	50
236.605	80.72
236.822	162.64
237.04	113.49
237.257	60.24
237.475	23.38
237.692	138.07
237.909	93.01
238.127	-5.29
238.344	76.63
238.562	97.11
238.779	17.24
238.996	-76.97
239.214	62.29
239.431	133.97
239.648	-7.34
239.865	181.07
240.083	74.58
240.3	150.36
240.517	17.24
240.735	27.48
240.952	179.03
241.169	76.63
241.386	129.88
241.603	64.34
241.821	2.9
242.038	64.34
242.255	93.01
242.472	-7.34
242.689	101.2
242.907	195.41
243.124	117.59
243.341	27.48
243.558	21.33
243.775	19.29
243.992	-31.91
244.209	95.06
244.426	123.73
244.643	121.68
244.86	80.72
245.078	80.72
245.295	84.82
245.512	33.62
245.729	-15.53
245.946	97.11
246.163	90.96
246.38	72.53
246.597	119.64
246.814	84.82
247.031	62.29
247.248	62.29
247.464	66.39
247.681	90.96
247.898	78.68
248.115	127.83
248.332	-74.92
248.549	205.65
248.766	170.83
248.983	119.64
249.2	93.01
249.417	162.64
249.633	17.24
249.85	105.3
250.067	66.39
250.284	111.44
250.501	146.26
250.717	60.24
250.934	-48.3
251.151	58.2
251.368	95.06
251.585	146.26
251.801	23.38
252.018	-3.24
252.235	170.83
252.451	-76.97
252.668	80.72
252.885	111.44
253.102	140.12
253.318	70.48
253.535	121.68
253.752	-1.19
253.968	113.49
254.185	-33.96
254.401	93.01
254.618	123.73
254.835	103.25
255.051	154.45
255.268	78.68
255.484	70.48
255.701	31.57
255.917	93.01
256.134	7
256.351	25.43
256.567	47.96
256.784	68.44
257	-85.16
257.217	224.08
257.433	185.17
257.65	60.24
257.866	152.4
258.082	2.9
258.299	47.96
258.515	193.36
258.732	25.43
258.948	54.1
259.165	54.1
259.381	-15.53
259.597	131.92
259.814	56.15
260.03	64.34
260.246	93.01
260.463	211.79
260.679	191.31
260.895	121.68
261.112	99.16
261.328	52.05
261.544	-66.73
261.761	224.08
261.977	-9.39
262.193	-44.2
262.409	162.64
262.626	45.91
262.842	131.92
263.058	90.96
263.274	197.46
263.49	197.46
263.707	131.92
263.923	172.88
264.139	-42.15
264.355	25.43
264.571	119.64
264.787	187.22
265.004	187.22
265.22	127.83
265.436	0.85
265.652	7
265.868	121.68
266.084	56.15
266.3	68.44
266.516	-46.25
266.732	64.34
266.948	-21.67
267.164	68.44
267.38	111.44
267.596	113.49
267.812	211.79
268.028	47.96
268.244	45.91
268.46	64.34
268.676	103.25
268.892	35.67
269.108	-52.39
269.324	70.48
269.54	-91.31
269.756	185.17
269.972	-83.11
270.188	76.63
270.403	-3.24
270.619	9.05
270.835	-5.29
271.051	27.48
271.267	-1.19
271.483	-31.91
271.698	64.34
271.914	97.11
272.13	101.2
272.346	11.09
272.562	115.54
272.777	129.88
272.993	62.29
273.209	56.15
273.425	80.72
273.64	-9.39
273.856	52.05
274.072	19.29
274.287	13.14
274.503	146.26
274.719	0.85
274.934	113.49
275.15	-5.29
275.366	33.62
275.581	-70.83
275.797	97.11
276.012	113.49
276.228	56.15
276.444	29.52
276.659	172.88
276.875	33.62
277.09	105.3
277.306	45.91
277.521	58.2
277.737	2.9
277.952	127.83
278.168	27.48
278.383	31.57
278.599	111.44
278.814	131.92
279.03	0.85
279.245	156.5
279.461	105.3
279.676	129.88
279.892	-38.06
280.107	-19.63
280.322	7
280.538	29.52
280.753	47.96
280.969	74.58
281.184	25.43
281.399	166.74
281.615	82.77
281.83	101.2
282.045	13.14
282.26	54.1
282.476	97.11
282.691	150.36
282.906	17.24
283.122	84.82
283.337	19.29
283.552	43.86
283.767	2.9
283.983	41.81
284.198	60.24
284.413	35.67
284.628	-42.15
284.843	88.92
285.058	105.3
285.274	-11.43
285.489	-3.24
285.704	86.87
285.919	21.33
286.134	99.16
286.349	17.24
286.564	76.63
286.779	127.83
286.995	9.05
287.21	11.09
287.425	56.15
287.64	52.05
287.855	47.96
288.07	23.38
288.285	133.97
288.5	97.11
288.715	99.16
288.93	123.73
289.145	52.05
289.36	82.77
289.575	-7.34
289.79	152.4
290.004	2.9
290.219	133.97
290.434	21.33
290.649	97.11
290.864	27.48
291.079	72.53
291.294	-13.48
291.509	27.48
291.724	56.15
291.938	4.95
292.153	41.81
292.368	15.19
292.583	125.78
292.798	101.2
293.012	99.16
293.227	82.77
293.442	60.24
293.657	119.64
293.871	160.59
294.086	107.35
294.301	197.46
294.516	191.31
294.73	72.53
294.945	105.3
295.16	-33.96
295.374	150.36
295.589	131.92
295.804	0.85
296.018	25.43
296.233	109.4
296.447	-33.96
296.662	35.67
296.877	84.82
297.091	129.88
297.306	45.91
297.52	107.35
297.735	107.35
297.949	70.48
298.164	109.4
298.378	90.96
298.593	-19.63
298.807	52.05
299.022	41.81
299.236	166.74
299.451	56.15
299.665	2.9
299.88	56.15
300.094	160.59
300.309	66.39
300.523	144.21
300.737	21.33
300.952	181.07
301.166	197.46
301.381	-3.24
301.595	11.09
301.809	54.1
302.024	60.24
302.238	27.48
302.452	156.5
302.667	15.19
302.881	195.41
303.095	99.16
303.309	23.38
303.524	70.48
303.738	60.24
303.952	-25.77
304.166	150.36
304.381	29.52
304.595	226.13
304.809	70.48
305.023	80.72
305.237	-3.24
305.452	25.43
305.666	68.44
305.88	95.06
306.094	80.72
306.308	176.98
306.522	70.48
306.736	121.68
306.95	109.4
307.164	-33.96
307.379	41.81
307.593	136.02
307.807	244.56
308.021	80.72
308.235	129.88
308.449	-36.01
308.663	50
308.877	301.9
309.091	19.29
309.305	113.49
309.519	-31.91
309.733	84.82
309.947	-29.87
310.161	115.54
310.374	97.11
310.588	240.47
310.802	13.14
311.016	-5.29
311.23	107.35
311.444	13.14
311.658	62.29
311.872	156.5
312.085	50
312.299	144.21
312.513	181.07
312.727	56.15
312.941	43.86
313.154	76.63
313.368	29.52
313.582	133.97
313.796	37.72
314.009	93.01
314.223	82.77
314.437	68.44
314.651	78.68
314.864	-48.3
315.078	84.82
315.292	15.19
315.505	58.2
315.719	193.36
315.933	115.54
316.146	45.91
316.36	74.58
316.573	174.93
316.787	101.2
317.001	138.07
317.214	60.24
317.428	-31.91
317.641	-7.34
317.855	60.24
318.068	58.2
318.282	125.78
318.495	205.65
318.709	170.83
318.922	78.68
319.136	224.08
319.349	164.69
319.563	64.34
319.776	140.12
319.99	-60.59
320.203	150.36
320.417	7
320.63	158.55
320.843	215.89
321.057	150.36
321.27	15.19
321.483	109.4
321.697	160.59
321.91	9.05
322.124	215.89
322.337	109.4
322.55	-9.39
322.763	111.44
322.977	25.43
323.19	-31.91
323.403	70.48
323.617	90.96
323.83	131.92
324.043	-7.34
324.256	47.96
324.469	23.38
324.683	160.59
324.896	11.09
325.109	119.64
325.322	-46.25
325.535	150.36
325.748	238.42
325.962	33.62
326.175	11.09
326.388	123.73
326.601	179.03
326.814	9.05
327.027	109.4
327.24	197.46
327.453	-79.02
327.666	131.92
327.879	158.55
328.092	68.44
328.305	136.02
328.518	-27.82
328.731	-15.53
328.944	11.09
329.157	140.12
329.37	88.92
329.583	179.03
329.796	201.55
330.009	31.57
330.222	64.34
330.435	58.2
330.648	70.48
330.861	101.2
331.073	68.44
331.286	127.83
331.499	52.05
331.712	-60.59
331.925	56.15
332.138	47.96
332.35	160.59
332.563	-11.43
332.776	158.55
332.989	13.14
333.202	7
333.414	33.62
333.627	64.34
333.84	113.49
334.053	95.06
334.265	-31.91
334.478	23.38
334.691	68.44
334.903	15.19
335.116	-25.77
335.329	84.82
335.541	123.73
335.754	166.74
335.966	11.09
336.179	-25.77
336.392	131.92
336.604	80.72
336.817	160.59
337.029	80.72
337.242	45.91
337.454	144.21
337.667	-1.19
337.88	80.72
338.092	74.58
338.305	62.29
338.517	43.86
338.729	136.02
338.942	127.83
339.154	11.09
339.367	-27.82
339.579	103.25
339.792	113.49
340.004	125.78
340.217	39.76
340.429	111.44
340.641	45.91
340.854	-3.24
341.066	31.57
341.278	86.87
341.491	158.55
341.703	60.24
341.915	-74.92
342.128	121.68
342.34	37.72
342.552	35.67
342.764	54.1
342.977	41.81
343.189	144.21
343.401	60.24
343.613	9.05
343.826	58.2
344.038	29.52
344.25	72.53
344.462	19.29
344.674	129.88
344.886	93.01
345.099	142.16
345.311	144.21
345.523	15.19
345.735	-64.68
345.947	115.54
346.159	99.16
346.371	62.29
346.583	68.44
346.795	228.18
347.007	72.53
347.219	88.92
347.431	56.15
347.643	121.68
347.855	29.52
348.067	181.07
348.279	-74.92
348.491	23.38
348.703	150.36
348.915	13.14
349.127	-9.39
349.339	37.72
349.551	76.63
349.763	33.62
349.975	58.2
350.187	187.22
350.399	136.02
350.61	209.75
350.822	86.87
351.034	113.49
351.246	115.54
351.458	90.96
351.669	111.44
351.881	131.92
352.093	97.11
352.305	193.36
352.517	142.16
352.728	84.82
352.94	84.82
353.152	82.77
353.363	-21.67
353.575	131.92
353.787	191.31
353.999	88.92
354.21	150.36
354.422	7
354.633	56.15
354.845	86.87
355.057	95.06
355.268	54.1
355.48	133.97
355.692	-36.01
355.903	133.97
356.115	21.33
356.326	-15.53
356.538	154.45
356.749	138.07
356.961	113.49
357.172	93.01
357.384	80.72
357.595	262.99
357.807	82.77
358.018	15.19
358.23	72.53
358.441	211.79
358.653	95.06
358.864	109.4
359.075	29.52
359.287	86.87
359.498	43.86
359.709	115.54
359.921	33.62
360.132	215.89
360.344	41.81
360.555	-1.19
360.766	90.96
360.977	97.11
361.189	199.51
361.4	0.85
361.611	115.54
361.823	109.4
362.034	68.44
362.245	-31.91
362.456	45.91
362.667	109.4
362.879	-1.19
363.09	80.72
363.301	37.72
363.512	68.44
363.723	23.38
363.935	19.29
364.146	105.3
364.357	95.06
364.568	45.91
364.779	-23.72
364.99	232.27
365.201	-17.58
365.412	160.59
365.623	35.67
365.834	150.36
366.045	54.1
366.256	146.26
366.467	52.05
366.678	109.4
366.889	93.01
367.1	70.48
367.311	99.16
367.522	54.1
367.733	119.64
367.944	72.53
368.155	-17.58
368.366	172.88
368.577	138.07
368.788	93.01
368.999	4.95
369.209	60.24
369.42	301.9
369.631	209.75
369.842	93.01
370.053	31.57
370.264	95.06
370.474	-54.44
370.685	142.16
370.896	70.48
371.107	211.79
371.317	105.3
371.528	103.25
371.739	166.74
371.95	197.46
372.16	205.65
372.371	9.05
372.582	35.67
372.792	68.44
373.003	84.82
373.214	136.02
373.424	99.16
373.635	-38.06
373.846	176.98
374.056	72.53
374.267	95.06
374.477	58.2
374.688	56.15
374.898	170.83
375.109	121.68
375.319	66.39
375.53	95.06
375.74	88.92
375.951	123.73
376.161	66.39
376.372	117.59
376.582	7
376.793	78.68
377.003	-9.39
377.214	-40.11
377.424	97.11
377.635	58.2
377.845	15.19
378.055	248.66
378.266	-62.63
378.476	84.82
378.686	146.26
378.897	9.05
379.107	129.88
379.317	70.48
379.528	84.82
379.738	164.69
379.948	-11.43
380.158	121.68
380.369	107.35
380.579	117.59
380.789	43.86
380.999	136.02
381.21	68.44
381.42	217.94
381.63	-36.01
381.84	95.06
382.05	164.69
382.261	174.93
382.471	191.31
382.681	-3.24
382.891	183.12
383.101	47.96
383.311	4.95
383.521	76.63
383.731	56.15
383.941	76.63
384.151	123.73
384.361	45.91
384.571	43.86
384.781	86.87
384.991	95.06
385.201	123.73
385.411	111.44
385.621	121.68
385.831	170.83
386.041	43.86
386.251	107.35
386.461	191.31
386.671	47.96
386.881	66.39
387.091	23.38
387.301	115.54
387.511	101.2
387.72	140.12
387.93	131.92
388.14	31.57
388.35	103.25
388.56	47.96
388.769	111.44
388.979	23.38
389.189	-25.77
389.399	101.2
389.609	80.72
389.818	176.98
390.028	107.35
390.238	125.78
390.447	47.96
390.657	150.36
390.867	66.39
391.076	21.33
391.286	119.64
391.496	19.29
391.705	109.4
391.915	267.09
392.125	146.26
392.334	62.29
392.544	211.79
392.753	131.92
392.963	21.33
393.172	93.01
393.382	39.76
393.591	211.79
393.801	117.59
394.01	119.64
394.22	107.35
394.429	31.57
394.639	25.43
394.848	166.74
395.058	93.01
395.267	23.38
395.477	95.06
395.686	148.31
395.895	154.45
396.105	181.07
396.314	64.34
396.524	105.3
396.733	56.15
396.942	133.97
397.152	144.21
397.361	154.45
397.57	90.96
397.78	127.83
397.989	144.21
398.198	181.07
398.407	19.29
398.617	60.24
398.826	125.78
399.035	50
399.244	170.83
399.453	99.16
399.663	11.09
399.872	41.81
400.081	11.09
400.29	144.21
400.499	-33.96
400.708	78.68
400.917	129.88
401.127	78.68
401.336	109.4
401.545	176.98
401.754	111.44
401.963	123.73
402.172	27.48
402.381	54.1
402.59	-9.39
402.799	41.81
403.008	125.78
403.217	107.35
403.426	131.92
403.635	-36.01
403.844	33.62
404.053	11.09
404.262	39.76
404.471	256.85
404.68	125.78
404.888	66.39
405.097	33.62
405.306	172.88
405.515	117.59
405.724	84.82
405.933	119.64
406.142	115.54
406.35	140.12
406.559	82.77
406.768	64.34
406.977	197.46
407.185	127.83
407.394	76.63
407.603	43.86
407.812	111.44
408.02	142.16
408.229	-21.67
408.438	123.73
408.646	-27.82
408.855	74.58
409.064	160.59
409.272	103.25
409.481	54.1
409.69	0.85
409.898	58.2
410.107	160.59
410.315	195.41
410.524	111.44
410.733	31.57
410.941	103.25
411.15	136.02
411.358	176.98
411.567	193.36
411.775	80.72
411.984	23.38
412.192	115.54
412.401	86.87
412.609	189.27
412.818	131.92
413.026	99.16
413.234	41.81
413.443	95.06
413.651	4.95
413.86	76.63
414.068	215.89
414.276	189.27
414.485	41.81
414.693	193.36
414.901	205.65
415.11	183.12
415.318	88.92
415.526	60.24
415.734	142.16
415.943	107.35
416.151	131.92
416.359	39.76
416.567	45.91
416.776	140.12
416.984	103.25
417.192	226.13
417.4	-7.34
417.608	47.96
417.817	-1.19
418.025	138.07
418.233	236.37
418.441	39.76
418.649	82.77
418.857	90.96
419.065	125.78
419.273	56.15
419.481	66.39
419.689	45.91
419.897	41.81
420.105	-17.58
420.313	207.7
420.521	152.4
420.729	193.36
420.937	62.29
421.145	13.14
421.353	195.41
421.561	201.55
421.769	129.88
421.977	-23.72
422.185	95.06
422.393	70.48
422.601	105.3
422.809	103.25
423.017	101.2
423.224	136.02
423.432	164.69
423.64	93.01
423.848	140.12
424.056	2.9
424.263	191.31
424.471	45.91
424.679	217.94
424.887	-13.48
425.094	103.25
425.302	146.26
425.51	88.92
425.718	152.4
425.925	68.44
426.133	-17.58
426.341	277.33
426.548	78.68
426.756	117.59
426.964	146.26
427.171	93.01
427.379	168.79
427.586	70.48
427.794	82.77
428.001	187.22
428.209	88.92
428.417	197.46
428.624	160.59
428.832	119.64
429.039	117.59
429.247	103.25
429.454	222.03
429.662	207.7
429.869	179.03
430.076	107.35
430.284	170.83
430.491	154.45
430.699	142.16
430.906	279.38
431.114	136.02
431.321	236.37
431.528	148.31
431.736	127.83
431.943	158.55
432.15	228.18
432.358	174.93
432.565	256.85
432.772	-9.39
432.979	258.9
433.187	144.21
433.394	222.03
433.601	158.55
433.808	275.28
434.016	310.1
434.223	213.84
434.43	240.47
434.637	342.86
434.844	310.1
435.052	262.99
435.259	258.9
435.466	297.81
435.673	273.23
435.88	254.8
436.087	330.58
436.294	359.25
436.501	369.49
436.708	359.25
436.915	363.34
437.122	432.97
437.329	324.43
437.537	303.95
437.743	389.97
437.95	490.32
438.157	371.54
438.364	342.86
438.571	396.11
438.778	547.66
438.985	461.65
439.192	514.89
439.399	447.31
439.606	465.74
439.813	516.94
440.02	656.2
440.227	717.64
440.433	543.57
440.64	525.13
440.847	580.43
441.054	549.71
441.261	762.7
441.467	592.72
441.674	549.71
441.881	721.74
442.088	596.81
442.294	709.45
442.501	740.17
442.708	809.8
442.914	865.1
443.121	879.43
443.328	854.86
443.534	998.21
443.741	994.12
443.948	865.1
444.154	987.97
444.361	1123.14
444.568	1004.36
444.774	1047.37
444.981	1002.31
445.187	1174.34
445.394	1096.52
445.6	1121.09
445.807	1362.75
446.013	1223.49
446.22	1278.79
446.426	1401.66
446.633	1461.06
446.839	1637.18
447.046	1327.94
447.252	1616.7
447.459	1698.62
447.665	1674.04
447.871	1788.73
448.078	1782.59
448.284	1870.65
448.491	1987.38
448.697	2106.17
448.903	2116.41
449.11	2061.11
449.316	2259.76
449.522	2265.91
449.728	2458.42
449.935	2411.31
450.141	2442.03
450.347	2702.12
450.553	2661.16
450.76	2796.33
450.966	2755.37
451.172	3124.01
451.378	3070.76
451.584	3259.17
451.791	3404.58
451.997	3486.5
452.203	3498.78
452.409	3848.99
452.615	3668.77
452.821	3574.56
453.027	3709.72
453.233	4158.23
453.44	4113.17
453.646	4467.47
453.852	4471.57
454.058	4705.04
454.264	4694.8
454.47	5206.79
454.676	5174.02
454.882	5812.99
455.088	5417.73
455.294	5634.82
455.5	5888.76
455.705	6470.39
455.911	6427.38
456.117	6521.59
456.323	6853.36
456.529	6755.05
456.735	7564
456.941	7578.34
457.147	7781.09
457.352	7959.26
457.558	8481.49
457.764	8723.15
457.97	9124.55
458.176	9419.46
458.381	9908.93
458.587	10156.73
458.793	10525.36
458.999	10535.6
459.204	12102.3
459.41	12323.48
459.616	12229.27
459.821	12606.1
460.027	13449.86
460.233	14140.03
460.438	14201.47
460.644	14789.24
460.85	15018.61
461.055	15690.34
461.261	16157.28
461.466	16167.52
461.672	16312.92
461.878	18346.56
462.083	18334.27
462.289	18750.01
462.494	19335.73
462.7	19401.26
462.905	19505.71
463.111	21105.17
463.316	22198.79
463.522	22925.82
463.727	23476.72
463.932	24277.47
464.138	25092.57
464.343	26358.21
464.549	26216.9
464.754	28465.57
464.959	28969.37
465.165	29440.4
465.37	29192.6
465.575	29047.19
465.781	30998.91
465.986	32108.91
466.191	31785.33
466.397	31969.65
466.602	31275.38
466.807	33141.08
467.012	33507.67
467.218	33708.37
467.423	34199.88
467.628	35346.75
467.833	37081.38
468.038	36079.92
