Data from USB4F104151__132__10-46-46-854.txt Node

Date: Wed Feb 26 10:46:46 EST 2025
User: louis
Spectrometer: USB4F10415
Trigger mode: 4
Integration Time (sec): 1.000000E-1
Scans to average: 1
Electric dark correction enabled: true
Nonlinearity correction enabled: false
Boxcar width: 0
XAxis mode: Wavelengths
Number of Pixels in Spectrum: 3648
>>>>>Begin Spectral Data<<<<<
178.204	-371.54
178.424	-371.54
178.644	-371.54
178.864	-435.02
179.084	-349.01
179.304	15.53
179.524	44.2
179.744	44.2
179.964	46.25
180.184	85.16
180.404	36.01
180.624	-21.33
180.844	-88.92
181.064	-62.29
181.283	-27.48
181.503	-74.58
181.723	3.24
181.943	-4.95
182.163	195.75
182.383	-21.33
182.602	95.4
182.822	95.4
183.042	36.01
183.262	-23.38
183.482	11.43
183.701	89.26
183.921	56.49
184.141	-78.68
184.361	76.97
184.58	101.55
184.8	132.26
185.02	64.68
185.239	76.97
185.459	111.78
185.679	130.22
185.898	-142.16
186.118	5.29
186.338	58.54
186.557	111.78
186.777	-72.53
186.997	31.91
187.216	85.16
187.436	314.53
187.655	81.07
187.875	115.88
188.095	36.01
188.314	218.28
188.534	111.78
188.753	44.2
188.973	21.67
189.192	210.09
189.412	1.19
189.631	85.16
189.851	142.5
190.07	173.22
190.29	-84.82
190.509	-4.95
190.729	46.25
190.948	167.08
191.168	246.95
191.387	52.39
191.607	46.25
191.826	66.73
192.045	25.77
192.265	1.19
192.484	89.26
192.704	119.98
192.923	-54.1
193.142	199.85
193.362	189.61
193.581	169.13
193.8	156.84
194.02	154.79
194.239	60.59
194.458	81.07
194.678	50.35
194.897	-25.43
195.116	146.6
195.335	132.26
195.555	60.59
195.774	15.53
195.993	105.64
196.212	42.15
196.432	13.48
196.651	-9.05
196.87	27.82
197.089	205.99
197.308	68.78
197.528	117.93
197.747	11.43
197.966	124.07
198.185	171.18
198.404	62.63
198.623	97.45
198.842	195.75
199.062	175.27
199.281	66.73
199.5	83.11
199.719	154.79
199.938	52.39
200.157	142.5
200.376	60.59
200.595	148.65
200.814	107.69
201.033	11.43
201.252	193.7
201.471	25.77
201.69	93.35
201.909	5.29
202.128	152.74
202.347	148.65
202.566	-21.33
202.785	-68.44
203.004	-37.72
203.223	238.76
203.442	68.78
203.661	-37.72
203.879	56.49
204.098	146.6
204.317	-7
204.536	134.31
204.755	79.02
204.974	103.59
205.193	58.54
205.411	160.94
205.63	177.32
205.849	83.11
206.068	19.63
206.287	-56.15
206.505	111.78
206.724	27.82
206.943	7.34
207.162	42.15
207.381	70.83
207.599	21.67
207.818	19.63
208.037	52.39
208.255	33.96
208.474	126.12
208.693	62.63
208.911	1.19
209.13	113.83
209.349	156.84
209.567	138.41
209.786	138.41
210.005	119.98
210.223	44.2
210.442	-80.72
210.661	11.43
210.879	33.96
211.098	99.5
211.316	109.74
211.535	130.22
211.753	48.3
211.972	38.06
212.191	23.72
212.409	142.5
212.628	140.46
212.846	25.77
213.065	128.17
213.283	156.84
213.502	85.16
213.72	56.49
213.938	46.25
214.157	74.92
214.375	167.08
214.594	19.63
214.812	117.93
215.031	60.59
215.249	91.31
215.467	50.35
215.686	126.12
215.904	56.49
216.122	60.59
216.341	187.56
216.559	21.67
216.778	97.45
216.996	132.26
217.214	74.92
217.432	19.63
217.651	-88.92
217.869	33.96
218.087	54.44
218.306	66.73
218.524	111.78
218.742	58.54
218.96	64.68
219.179	36.01
219.397	105.64
219.615	203.94
219.833	130.22
220.051	23.72
220.27	122.02
220.488	175.27
220.706	89.26
220.924	7.34
221.142	70.83
221.36	48.3
221.578	99.5
221.796	-11.09
222.015	97.45
222.233	5.29
222.451	124.07
222.669	19.63
222.887	93.35
223.105	38.06
223.323	21.67
223.541	72.87
223.759	91.31
223.977	79.02
224.195	132.26
224.413	140.46
224.631	54.44
224.849	56.49
225.067	306.34
225.285	95.4
225.503	25.77
225.721	-109.4
225.939	64.68
226.157	160.94
226.375	226.47
226.592	38.06
226.81	79.02
227.028	257.19
227.246	97.45
227.464	70.83
227.682	87.21
227.9	85.16
228.117	42.15
228.335	132.26
228.553	107.69
228.771	36.01
228.989	74.92
229.206	138.41
229.424	31.91
229.642	9.39
229.86	-19.29
230.077	109.74
230.295	44.2
230.513	148.65
230.731	38.06
230.948	167.08
231.166	205.99
231.384	64.68
231.601	56.49
231.819	177.32
232.037	-13.14
232.254	-35.67
232.472	171.18
232.689	97.45
232.907	218.28
233.125	-31.57
233.342	81.07
233.56	-9.05
233.777	-4.95
233.995	95.4
234.213	107.69
234.43	154.79
234.648	52.39
234.865	33.96
235.083	85.16
235.3	74.92
235.518	144.55
235.735	150.7
235.953	9.39
236.17	60.59
236.388	74.92
236.605	138.41
236.822	97.45
237.04	124.07
237.257	87.21
237.475	-19.29
237.692	-0.85
237.909	165.03
238.127	68.78
238.344	31.91
238.562	101.55
238.779	-4.95
238.996	-68.44
239.214	107.69
239.431	74.92
239.648	5.29
239.865	91.31
240.083	105.64
240.3	-23.38
240.517	-4.95
240.735	38.06
240.952	119.98
241.169	119.98
241.386	107.69
241.603	79.02
241.821	-52.05
242.038	117.93
242.255	44.2
242.472	-107.35
242.689	195.75
242.907	130.22
243.124	111.78
243.341	79.02
243.558	9.39
243.775	-45.91
243.992	-56.15
244.209	81.07
244.426	224.42
244.643	66.73
244.86	38.06
245.078	54.44
245.295	70.83
245.512	-9.05
245.729	-23.38
245.946	132.26
246.163	109.74
246.38	-21.33
246.597	130.22
246.814	38.06
247.031	99.5
247.248	3.24
247.464	85.16
247.681	119.98
247.898	83.11
248.115	68.78
248.332	-25.43
248.549	111.78
248.766	181.42
248.983	50.35
249.2	93.35
249.417	142.5
249.633	-52.05
249.85	101.55
250.067	68.78
250.284	179.37
250.501	11.43
250.717	103.59
250.934	-37.72
251.151	83.11
251.368	66.73
251.585	76.97
251.801	134.31
252.018	-17.24
252.235	156.84
252.451	-7
252.668	81.07
252.885	126.12
253.102	64.68
253.318	25.77
253.535	58.54
253.752	72.87
253.968	36.01
254.185	-43.86
254.401	66.73
254.618	140.46
254.835	-11.09
255.051	128.17
255.268	103.59
255.484	60.59
255.701	52.39
255.917	107.69
256.134	66.73
256.351	101.55
256.567	3.24
256.784	25.77
257	27.82
257.217	103.59
257.433	99.5
257.65	1.19
257.866	160.94
258.082	-7
258.299	17.58
258.515	128.17
258.732	50.35
258.948	15.53
259.165	146.6
259.381	36.01
259.597	42.15
259.814	95.4
260.03	21.67
260.246	5.29
260.463	140.46
260.679	169.13
260.895	119.98
261.112	58.54
261.328	50.35
261.544	36.01
261.761	199.85
261.977	13.48
262.193	40.11
262.409	70.83
262.626	109.74
262.842	-9.05
263.058	66.73
263.274	144.55
263.49	79.02
263.707	183.46
263.923	167.08
264.139	-11.09
264.355	117.93
264.571	134.31
264.787	-9.05
265.004	128.17
265.22	-17.24
265.436	-33.62
265.652	132.26
265.868	48.3
266.084	-39.76
266.3	-4.95
266.516	-41.81
266.732	79.02
266.948	113.83
267.164	27.82
267.38	146.6
267.596	152.74
267.812	242.85
268.028	119.98
268.244	68.78
268.46	89.26
268.676	76.97
268.892	99.5
269.108	3.24
269.324	19.63
269.54	-80.72
269.756	146.6
269.972	-52.05
270.188	42.15
270.403	5.29
270.619	54.44
270.835	132.26
271.051	62.63
271.267	-27.48
271.483	-4.95
271.698	185.51
271.914	115.88
272.13	13.48
272.346	21.67
272.562	58.54
272.777	197.8
272.993	17.58
273.209	7.34
273.425	95.4
273.64	-68.44
273.856	101.55
274.072	5.29
274.287	29.87
274.503	160.94
274.719	50.35
274.934	31.91
275.15	-37.72
275.366	83.11
275.581	27.82
275.797	76.97
276.012	111.78
276.228	27.82
276.444	64.68
276.659	177.32
276.875	42.15
277.09	66.73
277.306	70.83
277.521	79.02
277.737	87.21
277.952	122.02
278.168	83.11
278.383	91.31
278.599	54.44
278.814	138.41
279.03	138.41
279.245	179.37
279.461	122.02
279.676	85.16
279.892	-45.91
280.107	-11.09
280.322	-2.9
280.538	17.58
280.753	64.68
280.969	44.2
281.184	13.48
281.399	138.41
281.615	38.06
281.83	119.98
282.045	-19.29
282.26	-25.43
282.476	15.53
282.691	93.35
282.906	140.46
283.122	48.3
283.337	40.11
283.552	93.35
283.767	17.58
283.983	97.45
284.198	40.11
284.413	60.59
284.628	31.91
284.843	56.49
285.058	132.26
285.274	76.97
285.489	-33.62
285.704	105.64
285.919	21.67
286.134	56.49
286.349	27.82
286.564	38.06
286.779	152.74
286.995	48.3
287.21	-27.48
287.425	169.13
287.64	156.84
287.855	38.06
288.07	19.63
288.285	160.94
288.5	158.89
288.715	91.31
288.93	101.55
289.145	5.29
289.36	113.83
289.575	-56.15
289.79	146.6
290.004	21.67
290.219	107.69
290.434	-11.09
290.649	156.84
290.864	-7
291.079	-21.33
291.294	144.55
291.509	91.31
291.724	-41.81
291.938	95.4
292.153	103.59
292.368	97.45
292.583	138.41
292.798	187.56
293.012	107.69
293.227	136.36
293.442	119.98
293.657	79.02
293.871	173.22
294.086	152.74
294.301	187.56
294.516	111.78
294.73	64.68
294.945	68.78
295.16	68.78
295.374	122.02
295.589	165.03
295.804	91.31
296.018	40.11
296.233	56.49
296.447	76.97
296.662	-13.14
296.877	142.5
297.091	85.16
297.306	19.63
297.52	76.97
297.735	101.55
297.949	115.88
298.164	72.87
298.378	36.01
298.593	50.35
298.807	60.59
299.022	105.64
299.236	122.02
299.451	36.01
299.665	11.43
299.88	89.26
300.094	113.83
300.309	93.35
300.523	-11.09
300.737	19.63
300.952	105.64
301.166	91.31
301.381	13.48
301.595	13.48
301.809	56.49
302.024	72.87
302.238	21.67
302.452	91.31
302.667	60.59
302.881	169.13
303.095	162.98
303.309	115.88
303.524	1.19
303.738	91.31
303.952	-52.05
304.166	124.07
304.381	-109.4
304.595	189.61
304.809	93.35
305.023	42.15
305.237	66.73
305.452	-2.9
305.666	33.96
305.88	130.22
306.094	111.78
306.308	109.74
306.522	42.15
306.736	122.02
306.95	220.33
307.164	25.77
307.379	-11.09
307.593	122.02
307.807	249
308.021	146.6
308.235	101.55
308.449	-15.19
308.663	89.26
308.877	179.37
309.091	95.4
309.305	50.35
309.519	-17.24
309.733	113.83
309.947	-4.95
310.161	132.26
310.374	136.36
310.588	128.17
310.802	66.73
311.016	27.82
311.23	87.21
311.444	13.48
311.658	87.21
311.872	150.7
312.085	115.88
312.299	97.45
312.513	175.27
312.727	117.93
312.941	-17.24
313.154	140.46
313.368	87.21
313.582	66.73
313.796	-4.95
314.009	29.87
314.223	167.08
314.437	148.65
314.651	126.12
314.864	19.63
315.078	-17.24
315.292	11.43
315.505	15.53
315.719	23.72
315.933	64.68
316.146	9.39
316.36	68.78
316.573	130.22
316.787	103.59
317.001	113.83
317.214	25.77
317.428	99.5
317.641	-58.2
317.855	-4.95
318.068	15.53
318.282	60.59
318.495	130.22
318.709	52.39
318.922	38.06
319.136	132.26
319.349	87.21
319.563	-19.29
319.776	52.39
319.99	-47.96
320.203	107.69
320.417	68.78
320.63	124.07
320.843	244.9
321.057	85.16
321.27	-4.95
321.483	91.31
321.697	146.6
321.91	54.44
322.124	162.98
322.337	-27.48
322.55	-7
322.763	97.45
322.977	40.11
323.19	-15.19
323.403	46.25
323.617	56.49
323.83	117.93
324.043	58.54
324.256	-2.9
324.469	-23.38
324.683	124.07
324.896	109.74
325.109	13.48
325.322	-78.68
325.535	126.12
325.748	128.17
325.962	23.72
326.175	142.5
326.388	74.92
326.601	99.5
326.814	-33.62
327.027	-31.57
327.24	165.03
327.453	-0.85
327.666	107.69
327.879	154.79
328.092	54.44
328.305	85.16
328.518	54.44
328.731	46.25
328.944	64.68
329.157	138.41
329.37	1.19
329.583	236.71
329.796	191.66
330.009	-25.43
330.222	128.17
330.435	85.16
330.648	142.5
330.861	46.25
331.073	72.87
331.286	179.37
331.499	36.01
331.712	-15.19
331.925	74.92
332.138	27.82
332.35	25.77
332.563	62.63
332.776	142.5
332.989	11.43
333.202	40.11
333.414	60.59
333.627	66.73
333.84	-23.38
334.053	79.02
334.265	-4.95
334.478	33.96
334.691	23.72
334.903	70.83
335.116	-93.01
335.329	68.78
335.541	130.22
335.754	220.33
335.966	-15.19
336.179	97.45
336.392	46.25
336.604	25.77
336.817	79.02
337.029	103.59
337.242	83.11
337.454	148.65
337.667	70.83
337.88	70.83
338.092	21.67
338.305	126.12
338.517	-4.95
338.729	189.61
338.942	156.84
339.154	-60.24
339.367	-7
339.579	52.39
339.792	-21.33
340.004	191.66
340.217	-21.33
340.429	36.01
340.641	-23.38
340.854	40.11
341.066	105.64
341.278	130.22
341.491	298.15
341.703	50.35
341.915	-21.33
342.128	113.83
342.34	76.97
342.552	-17.24
342.764	-0.85
342.977	52.39
343.189	103.59
343.401	130.22
343.613	-68.44
343.826	21.67
344.038	-41.81
344.25	119.98
344.462	19.63
344.674	40.11
344.886	21.67
345.099	124.07
345.311	3.24
345.523	76.97
345.735	-105.3
345.947	42.15
346.159	132.26
346.371	76.97
346.583	5.29
346.795	195.75
347.007	50.35
347.219	81.07
347.431	-25.43
347.643	171.18
347.855	-19.29
348.067	115.88
348.279	-0.85
348.491	146.6
348.703	107.69
348.915	128.17
349.127	5.29
349.339	85.16
349.551	-11.09
349.763	115.88
349.975	-41.81
350.187	111.78
350.399	144.55
350.61	27.82
350.822	-19.29
351.034	56.49
351.246	146.6
351.458	111.78
351.669	197.8
351.881	160.94
352.093	111.78
352.305	101.55
352.517	130.22
352.728	148.65
352.94	83.11
353.152	115.88
353.363	17.58
353.575	85.16
353.787	234.66
353.999	126.12
354.21	197.8
354.422	-31.57
354.633	-35.67
354.845	85.16
355.057	29.87
355.268	146.6
355.48	132.26
355.692	21.67
355.903	64.68
356.115	17.58
356.326	-27.48
356.538	212.14
356.749	142.5
356.961	156.84
357.172	60.59
357.384	76.97
357.595	246.95
357.807	38.06
358.018	-0.85
358.23	95.4
358.441	122.02
358.653	130.22
358.864	91.31
359.075	58.54
359.287	72.87
359.498	72.87
359.709	136.36
359.921	81.07
360.132	128.17
360.344	9.39
360.555	13.48
360.766	105.64
360.977	25.77
361.189	158.89
361.4	29.87
361.611	72.87
361.823	179.37
362.034	87.21
362.245	-74.58
362.456	42.15
362.667	97.45
362.879	15.53
363.09	76.97
363.301	132.26
363.512	93.35
363.723	3.24
363.935	9.39
364.146	111.78
364.357	70.83
364.568	64.68
364.779	-148.31
364.99	56.49
365.201	-31.57
365.412	169.13
365.623	-23.38
365.834	150.7
366.045	134.31
366.256	126.12
366.467	38.06
366.678	52.39
366.889	76.97
367.1	19.63
367.311	214.18
367.522	19.63
367.733	109.74
367.944	158.89
368.155	62.63
368.366	122.02
368.577	134.31
368.788	158.89
368.999	23.72
369.209	58.54
369.42	255.14
369.631	210.09
369.842	156.84
370.053	31.91
370.264	138.41
370.474	56.49
370.685	117.93
370.896	17.58
371.107	27.82
371.317	113.83
371.528	79.02
371.739	154.79
371.95	85.16
372.16	111.78
372.371	54.44
372.582	48.3
372.792	134.31
373.003	56.49
373.214	46.25
373.424	109.74
373.635	11.43
373.846	99.5
374.056	85.16
374.267	91.31
374.477	124.07
374.688	54.44
374.898	91.31
375.109	33.96
375.319	85.16
375.53	136.36
375.74	173.22
375.951	103.59
376.161	105.64
376.372	76.97
376.582	29.87
376.793	76.97
377.003	72.87
377.214	-31.57
377.424	25.77
377.635	99.5
377.845	48.3
378.055	173.22
378.266	-58.2
378.476	-19.29
378.686	76.97
378.897	122.02
379.107	76.97
379.317	103.59
379.528	-39.76
379.738	195.75
379.948	72.87
380.158	138.41
380.369	95.4
380.579	109.74
380.789	-76.63
380.999	146.6
381.21	119.98
381.42	205.99
381.63	93.35
381.84	99.5
382.05	126.12
382.261	122.02
382.471	87.21
382.681	25.77
382.891	201.9
383.101	99.5
383.311	-39.76
383.521	-60.24
383.731	165.03
383.941	97.45
384.151	29.87
384.361	68.78
384.571	70.83
384.781	-2.9
384.991	234.66
385.201	189.61
385.411	132.26
385.621	21.67
385.831	25.77
386.041	113.83
386.251	109.74
386.461	169.13
386.671	74.92
386.881	109.74
387.091	144.55
387.301	130.22
387.511	109.74
387.72	93.35
387.93	175.27
388.14	17.58
388.35	79.02
388.56	216.23
388.769	232.62
388.979	79.02
389.189	9.39
389.399	48.3
389.609	76.97
389.818	122.02
390.028	79.02
390.238	81.07
390.447	3.24
390.657	101.55
390.867	46.25
391.076	-64.34
391.286	113.83
391.496	3.24
391.705	42.15
391.915	152.74
392.125	97.45
392.334	66.73
392.544	199.85
392.753	60.59
392.963	44.2
393.172	9.39
393.382	46.25
393.591	228.52
393.801	11.43
394.01	201.9
394.22	181.42
394.429	15.53
394.639	81.07
394.848	87.21
395.058	-11.09
395.267	19.63
395.477	68.78
395.686	44.2
395.895	175.27
396.105	109.74
396.314	136.36
396.524	76.97
396.733	15.53
396.942	107.69
397.152	187.56
397.361	195.75
397.57	74.92
397.78	109.74
397.989	240.81
398.198	203.94
398.407	81.07
398.617	64.68
398.826	-11.09
399.035	107.69
399.244	156.84
399.453	113.83
399.663	13.48
399.872	134.31
400.081	62.63
400.29	122.02
400.499	-19.29
400.708	210.09
400.917	70.83
401.127	81.07
401.336	29.87
401.545	185.51
401.754	128.17
401.963	107.69
402.172	3.24
402.381	48.3
402.59	62.63
402.799	76.97
403.008	74.92
403.217	93.35
403.426	44.2
403.635	-45.91
403.844	46.25
404.053	76.97
404.262	60.59
404.471	165.03
404.68	64.68
404.888	99.5
405.097	99.5
405.306	130.22
405.515	165.03
405.724	68.78
405.933	101.55
406.142	60.59
406.35	183.46
406.559	93.35
406.768	81.07
406.977	216.23
407.185	87.21
407.394	181.42
407.603	-25.43
407.812	68.78
408.02	107.69
408.229	-15.19
408.438	128.17
408.646	-78.68
408.855	7.34
409.064	83.11
409.272	21.67
409.481	91.31
409.69	-50
409.898	46.25
410.107	130.22
410.315	152.74
410.524	-4.95
410.733	97.45
410.941	83.11
411.15	171.18
411.358	54.44
411.567	134.31
411.775	95.4
411.984	62.63
412.192	103.59
412.401	31.91
412.609	167.08
412.818	189.61
413.026	109.74
413.234	44.2
413.443	44.2
413.651	17.58
413.86	7.34
414.068	171.18
414.276	146.6
414.485	33.96
414.693	208.04
414.901	191.66
415.11	76.97
415.318	111.78
415.526	42.15
415.734	136.36
415.943	56.49
416.151	126.12
416.359	162.98
416.567	95.4
416.776	79.02
416.984	81.07
417.192	257.19
417.4	36.01
417.608	27.82
417.817	62.63
418.025	103.59
418.233	173.22
418.441	-17.24
418.649	23.72
418.857	25.77
419.065	222.38
419.273	154.79
419.481	113.83
419.689	64.68
419.897	81.07
420.105	44.2
420.313	138.41
420.521	138.41
420.729	175.27
420.937	70.83
421.145	89.26
421.353	76.97
421.561	214.18
421.769	109.74
421.977	15.53
422.185	169.13
422.393	42.15
422.601	146.6
422.809	74.92
423.017	148.65
423.224	148.65
423.432	156.84
423.64	66.73
423.848	105.64
424.056	50.35
424.263	228.52
424.471	89.26
424.679	156.84
424.887	25.77
425.094	218.28
425.302	156.84
425.51	31.91
425.718	181.42
425.925	89.26
426.133	72.87
426.341	273.57
426.548	27.82
426.756	93.35
426.964	111.78
427.171	-25.43
427.379	99.5
427.586	109.74
427.794	156.84
428.001	169.13
428.209	148.65
428.417	185.51
428.624	216.23
428.832	210.09
429.039	79.02
429.247	132.26
429.454	187.56
429.662	201.9
429.869	226.47
430.076	93.35
430.284	119.98
430.491	310.44
430.699	154.79
430.906	224.42
431.114	199.85
431.321	173.22
431.528	85.16
431.736	117.93
431.943	218.28
432.15	134.31
432.358	281.77
432.565	255.14
432.772	76.97
432.979	234.66
433.187	183.46
433.394	214.18
433.601	181.42
433.808	191.66
434.016	312.49
434.223	224.42
434.43	234.66
434.637	269.48
434.844	392.36
435.052	236.71
435.259	244.9
435.466	343.21
435.673	273.57
435.88	351.4
436.087	408.74
436.294	294.05
436.501	345.25
436.708	318.63
436.915	361.64
437.122	390.31
437.329	287.91
437.537	306.34
437.743	335.01
437.95	494.76
438.157	421.03
438.364	439.46
438.571	322.73
438.778	486.56
438.985	466.08
439.192	472.23
439.399	468.13
439.606	439.46
439.813	543.91
440.02	576.67
440.227	672.93
440.433	568.48
440.64	521.38
440.847	482.47
441.054	552.1
441.261	691.36
441.467	648.35
441.674	582.82
441.881	717.98
442.088	650.4
442.294	679.07
442.501	736.42
442.708	896.16
442.914	758.94
443.121	935.07
443.328	896.16
443.534	933.02
443.741	933.02
443.948	855.2
444.154	1041.56
444.361	1127.58
444.568	1092.76
444.774	1014.94
444.981	1006.75
445.187	1178.78
445.394	1141.91
445.6	1135.77
445.807	1395.86
446.013	1301.65
446.22	1244.31
446.426	1363.09
446.633	1494.16
446.839	1731.73
447.046	1473.68
447.252	1676.43
447.459	1707.15
447.665	1752.21
447.871	1832.08
448.078	2004.11
448.284	1924.24
448.491	1918.09
448.697	2172.04
448.903	2157.71
449.11	2028.68
449.316	2223.24
449.522	2362.5
449.728	2452.61
449.935	2495.62
450.141	2528.39
450.347	2745.47
450.553	2761.86
450.76	2780.29
450.966	3036.28
451.172	3085.44
451.378	3177.59
451.584	3243.13
451.791	3396.73
451.997	3529.84
452.203	3622
452.409	3849.33
452.615	3984.49
452.821	3789.94
453.027	3943.53
453.233	4258.92
453.44	4295.79
453.646	4342.89
453.852	4555.88
454.058	4807.78
454.264	4944.99
454.47	5254.23
454.676	5248.09
454.882	5643.35
455.088	5497.94
455.294	5868.63
455.5	6200.4
455.705	6366.28
455.911	6497.35
456.117	6792.26
456.323	6716.48
456.529	7005.25
456.735	7629.88
456.941	7695.41
457.147	8045.62
457.352	8201.26
457.558	8401.96
457.764	9221.15
457.97	9239.58
458.176	9518.11
458.381	10122.26
458.587	10060.82
458.793	10814.47
458.999	10966.02
459.204	11840.5
459.41	12680.17
459.616	12178.42
459.821	13034.47
460.027	13568.99
460.233	14166.99
460.438	14107.6
460.644	15147.97
460.85	15346.62
461.055	15815.61
461.261	16384.94
461.466	16360.37
461.672	16585.65
461.878	18430.87
462.083	18400.15
462.289	18533.26
462.494	19248
462.7	19559.3
462.905	19612.54
463.111	21222.25
463.316	22532.95
463.522	22432.6
463.727	23481.16
463.932	24582.96
464.138	25416.49
464.343	26192.67
464.549	26241.82
464.754	28279.55
464.959	29201.13
465.165	29631.21
465.37	29364.97
465.575	29125.36
465.781	31140.56
465.986	32250.56
466.191	31632.07
466.397	31945.41
466.602	31388.36
466.807	33110.71
467.012	33446.57
467.218	33956.52
467.423	34577.05
