Data from USB4F104151__122__10-46-15-658.txt Node

Date: Wed Feb 26 10:46:15 EST 2025
User: louis
Spectrometer: USB4F10415
Trigger mode: 4
Integration Time (sec): 1.000000E-1
Scans to average: 1
Electric dark correction enabled: true
Nonlinearity correction enabled: false
Boxcar width: 0
XAxis mode: Wavelengths
Number of Pixels in Spectrum: 3648
>>>>>Begin Spectral Data<<<<<
178.204	-408.57
178.424	-408.57
178.644	-408.57
178.864	-398.33
179.084	-345.08
179.304	-9.22
179.524	-58.37
179.744	-39.94
179.964	74.75
180.184	11.26
180.404	111.61
180.624	48.13
180.844	-35.84
181.064	-89.09
181.283	25.6
181.503	-76.8
181.723	37.89
181.943	-140.29
182.163	144.38
182.383	-31.74
182.602	-7.17
182.822	80.89
183.042	173.05
183.262	23.55
183.482	-56.32
183.701	-7.17
183.921	62.46
184.141	-74.75
184.361	130.05
184.58	13.31
184.8	9.22
185.02	-9.22
185.239	80.89
185.459	21.5
185.679	29.7
185.898	-3.07
186.118	23.55
186.338	107.52
186.557	119.81
186.777	-17.41
186.997	52.22
187.216	11.26
187.436	138.24
187.655	31.74
187.875	33.79
188.095	74.75
188.314	168.96
188.534	132.09
188.753	-13.31
188.973	48.13
189.192	109.57
189.412	-25.6
189.631	44.03
189.851	84.99
190.07	68.61
190.29	-105.47
190.509	-37.89
190.729	101.37
190.948	171.01
191.168	222.2
191.387	62.46
191.607	97.28
191.826	19.46
192.045	27.65
192.265	-3.07
192.484	21.5
192.704	50.18
192.923	-115.71
193.142	185.34
193.362	164.86
193.581	78.85
193.8	89.09
194.02	105.47
194.239	-31.74
194.458	29.7
194.678	21.5
194.897	-9.22
195.116	95.23
195.335	99.33
195.555	54.27
195.774	-11.26
195.993	140.29
196.212	56.32
196.432	13.31
196.651	-52.22
196.87	-13.31
197.089	199.68
197.308	7.17
197.528	117.76
197.747	29.7
197.966	91.13
198.185	185.34
198.404	-5.12
198.623	181.25
198.842	31.74
199.062	111.61
199.281	-7.17
199.5	87.04
199.719	35.84
199.938	62.46
200.157	87.04
200.376	87.04
200.595	144.38
200.814	48.13
201.033	-27.65
201.252	164.86
201.471	74.75
201.69	144.38
201.909	72.7
202.128	29.7
202.347	84.99
202.566	56.32
202.785	-52.22
203.004	-35.84
203.223	175.1
203.442	-15.36
203.661	-70.65
203.879	19.46
204.098	203.77
204.317	64.51
204.536	140.29
204.755	101.37
204.974	87.04
205.193	-35.84
205.411	82.94
205.63	62.46
205.849	82.94
206.068	-7.17
206.287	-64.51
206.505	138.24
206.724	-3.07
206.943	-58.37
207.162	5.12
207.381	84.99
207.599	52.22
207.818	56.32
208.037	-25.6
208.255	-80.89
208.474	56.32
208.693	103.42
208.911	33.79
209.13	173.05
209.349	82.94
209.567	89.09
209.786	46.08
210.005	35.84
210.223	-48.13
210.442	-158.72
210.661	-1.02
210.879	64.51
211.098	17.41
211.316	5.12
211.535	76.8
211.753	50.18
211.972	117.76
212.191	60.42
212.409	58.37
212.628	107.52
212.846	1.02
213.065	-15.36
213.283	78.85
213.502	-52.22
213.72	11.26
213.938	76.8
214.157	46.08
214.375	119.81
214.594	44.03
214.812	99.33
215.031	29.7
215.249	-11.26
215.467	17.41
215.686	9.22
215.904	33.79
216.122	103.42
216.341	68.61
216.559	66.56
216.778	62.46
216.996	142.33
217.214	35.84
217.432	-31.74
217.651	-56.32
217.869	91.13
218.087	91.13
218.306	33.79
218.524	-3.07
218.742	-11.26
218.96	76.8
219.179	41.98
219.397	-62.46
219.615	230.4
219.833	60.42
220.051	-33.79
220.27	136.19
220.488	101.37
220.706	80.89
220.924	-7.17
221.142	5.12
221.36	93.18
221.578	84.99
221.796	25.6
222.015	13.31
222.233	-7.17
222.451	111.61
222.669	33.79
222.887	39.94
223.105	17.41
223.323	11.26
223.541	-37.89
223.759	87.04
223.977	64.51
224.195	177.15
224.413	117.76
224.631	101.37
224.849	115.71
225.067	226.3
225.285	52.22
225.503	-5.12
225.721	-109.57
225.939	21.5
226.157	19.46
226.375	175.1
226.592	-62.46
226.81	50.18
227.028	125.95
227.246	136.19
227.464	37.89
227.682	84.99
227.9	111.61
228.117	5.12
228.335	60.42
228.553	-35.84
228.771	-46.08
228.989	13.31
229.206	121.85
229.424	44.03
229.642	39.94
229.86	7.17
230.077	113.66
230.295	-11.26
230.513	97.28
230.731	68.61
230.948	130.05
231.166	105.47
231.384	13.31
231.601	-13.31
231.819	119.81
232.037	37.89
232.254	-21.5
232.472	-5.12
232.689	44.03
232.907	105.47
233.125	60.42
233.342	-25.6
233.56	35.84
233.777	9.22
233.995	-50.18
234.213	99.33
234.43	52.22
234.648	48.13
234.865	44.03
235.083	80.89
235.3	52.22
235.518	54.27
235.735	132.09
235.953	68.61
236.17	52.22
236.388	74.75
236.605	29.7
236.822	68.61
237.04	177.15
237.257	-44.03
237.475	-95.23
237.692	11.26
237.909	15.36
238.127	-25.6
238.344	23.55
238.562	44.03
238.779	3.07
238.996	-35.84
239.214	44.03
239.431	3.07
239.648	11.26
239.865	128
240.083	-1.02
240.3	-41.98
240.517	33.79
240.735	-44.03
240.952	99.33
241.169	62.46
241.386	89.09
241.603	17.41
241.821	-52.22
242.038	48.13
242.255	144.38
242.472	13.31
242.689	23.55
242.907	9.22
243.124	56.32
243.341	74.75
243.558	-25.6
243.775	-33.79
243.992	-117.76
244.209	76.8
244.426	97.28
244.643	72.7
244.86	15.36
245.078	17.41
245.295	66.56
245.512	82.94
245.729	-80.89
245.946	76.8
246.163	-33.79
246.38	1.02
246.597	29.7
246.814	17.41
247.031	44.03
247.248	5.12
247.464	107.52
247.681	68.61
247.898	87.04
248.115	68.61
248.332	-103.42
248.549	179.2
248.766	168.96
248.983	54.27
249.2	-9.22
249.417	31.74
249.633	-23.55
249.85	74.75
250.067	-48.13
250.284	52.22
250.501	15.36
250.717	60.42
250.934	-70.65
251.151	7.17
251.368	21.5
251.585	66.56
251.801	125.95
252.018	-23.55
252.235	95.23
252.451	-35.84
252.668	-87.04
252.885	50.18
253.102	35.84
253.318	29.7
253.535	21.5
253.752	1.02
253.968	25.6
254.185	-5.12
254.401	-11.26
254.618	54.27
254.835	-46.08
255.051	207.87
255.268	66.56
255.484	72.7
255.701	17.41
255.917	113.66
256.134	-27.65
256.351	72.7
256.567	-130.05
256.784	52.22
257	-52.22
257.217	80.89
257.433	78.85
257.65	150.53
257.866	146.43
258.082	-48.13
258.299	-9.22
258.515	199.68
258.732	23.55
258.948	27.65
259.165	46.08
259.381	-103.42
259.597	52.22
259.814	-23.55
260.03	48.13
260.246	-39.94
260.463	107.52
260.679	146.43
260.895	70.65
261.112	74.75
261.328	-52.22
261.544	13.31
261.761	191.49
261.977	-41.98
262.193	-29.7
262.409	101.37
262.626	29.7
262.842	37.89
263.058	15.36
263.274	87.04
263.49	87.04
263.707	93.18
263.923	191.49
264.139	-70.65
264.355	87.04
264.571	109.57
264.787	35.84
265.004	72.7
265.22	105.47
265.436	-27.65
265.652	-39.94
265.868	23.55
266.084	-72.7
266.3	-11.26
266.516	-111.61
266.732	41.98
266.948	39.94
267.164	13.31
267.38	101.37
267.596	68.61
267.812	144.38
268.028	68.61
268.244	-31.74
268.46	101.37
268.676	46.08
268.892	48.13
269.108	-89.09
269.324	-31.74
269.54	-27.65
269.756	76.8
269.972	-19.46
270.188	-7.17
270.403	-44.03
270.619	9.22
270.835	82.94
271.051	7.17
271.267	-39.94
271.483	-19.46
271.698	117.76
271.914	148.48
272.13	-9.22
272.346	-17.41
272.562	87.04
272.777	80.89
272.993	21.5
273.209	46.08
273.425	74.75
273.64	-80.89
273.856	87.04
274.072	17.41
274.287	48.13
274.503	95.23
274.719	48.13
274.934	-33.79
275.15	23.55
275.366	23.55
275.581	-35.84
275.797	80.89
276.012	33.79
276.228	-21.5
276.444	23.55
276.659	89.09
276.875	-27.65
277.09	68.61
277.306	-1.02
277.521	29.7
277.737	-41.98
277.952	105.47
278.168	9.22
278.383	-17.41
278.599	-25.6
278.814	46.08
279.03	37.89
279.245	60.42
279.461	50.18
279.676	93.18
279.892	-29.7
280.107	-25.6
280.322	-60.42
280.538	111.61
280.753	9.22
280.969	84.99
281.184	25.6
281.399	101.37
281.615	-58.37
281.83	-17.41
282.045	-56.32
282.26	-50.18
282.476	-23.55
282.691	76.8
282.906	54.27
283.122	70.65
283.337	-41.98
283.552	-13.31
283.767	-60.42
283.983	166.91
284.198	-15.36
284.413	13.31
284.628	-50.18
284.843	-11.26
285.058	44.03
285.274	50.18
285.489	-27.65
285.704	70.65
285.919	-23.55
286.134	-46.08
286.349	48.13
286.564	-25.6
286.779	191.49
286.995	101.37
287.21	-44.03
287.425	-9.22
287.64	-1.02
287.855	121.85
288.07	-35.84
288.285	130.05
288.5	84.99
288.715	64.51
288.93	87.04
289.145	33.79
289.36	68.61
289.575	48.13
289.79	41.98
290.004	-89.09
290.219	171.01
290.434	7.17
290.649	11.26
290.864	17.41
291.079	25.6
291.294	101.37
291.509	105.47
291.724	1.02
291.938	-7.17
292.153	25.6
292.368	-27.65
292.583	-23.55
292.798	125.95
293.012	19.46
293.227	113.66
293.442	-56.32
293.657	66.56
293.871	82.94
294.086	78.85
294.301	185.34
294.516	123.9
294.73	41.98
294.945	-11.26
295.16	78.85
295.374	166.91
295.589	103.42
295.804	-54.27
296.018	99.33
296.233	56.32
296.447	150.53
296.662	-37.89
296.877	138.24
297.091	95.23
297.306	-78.85
297.52	9.22
297.735	95.23
297.949	25.6
298.164	21.5
298.378	56.32
298.593	-97.28
298.807	9.22
299.022	74.75
299.236	134.14
299.451	19.46
299.665	9.22
299.88	41.98
300.094	70.65
300.309	64.51
300.523	58.37
300.737	-35.84
300.952	27.65
301.166	39.94
301.381	-87.04
301.595	-9.22
301.809	5.12
302.024	-33.79
302.238	35.84
302.452	91.13
302.667	72.7
302.881	107.52
303.095	54.27
303.309	66.56
303.524	-29.7
303.738	19.46
303.952	-56.32
304.166	87.04
304.381	-119.81
304.595	144.38
304.809	-84.99
305.023	144.38
305.237	-5.12
305.452	-72.7
305.666	78.85
305.88	13.31
306.094	39.94
306.308	25.6
306.522	29.7
306.736	76.8
306.95	111.61
307.164	-25.6
307.379	-37.89
307.593	164.86
307.807	95.23
308.021	121.85
308.235	125.95
308.449	48.13
308.663	17.41
308.877	240.64
309.091	15.36
309.305	60.42
309.519	-72.7
309.733	97.28
309.947	37.89
310.161	15.36
310.374	103.42
310.588	66.56
310.802	-64.51
311.016	23.55
311.23	76.8
311.444	-37.89
311.658	21.5
311.872	80.89
312.085	70.65
312.299	130.05
312.513	99.33
312.727	78.85
312.941	25.6
313.154	7.17
313.368	89.09
313.582	41.98
313.796	19.46
314.009	13.31
314.223	123.9
314.437	121.85
314.651	103.42
314.864	3.07
315.078	-11.26
315.292	-60.42
315.505	29.7
315.719	76.8
315.933	68.61
316.146	-3.07
316.36	-44.03
316.573	146.43
316.787	121.85
317.001	160.77
317.214	-13.31
317.428	99.33
317.641	-101.37
317.855	15.36
318.068	64.51
318.282	111.61
318.495	254.97
318.709	54.27
318.922	19.46
319.136	97.28
319.349	101.37
319.563	21.5
319.776	31.74
319.99	-13.31
320.203	46.08
320.417	66.56
320.63	5.12
320.843	152.57
321.057	72.7
321.27	13.31
321.483	140.29
321.697	87.04
321.91	29.7
322.124	78.85
322.337	113.66
322.55	-5.12
322.763	80.89
322.977	23.55
323.19	-35.84
323.403	29.7
323.617	91.13
323.83	105.47
324.043	35.84
324.256	68.61
324.469	-56.32
324.683	52.22
324.896	-23.55
325.109	21.5
325.322	-97.28
325.535	66.56
325.748	107.52
325.962	-5.12
326.175	21.5
326.388	39.94
326.601	177.15
326.814	46.08
327.027	17.41
327.24	142.33
327.453	-80.89
327.666	78.85
327.879	168.96
328.092	29.7
328.305	68.61
328.518	11.26
328.731	-15.36
328.944	48.13
329.157	23.55
329.37	31.74
329.583	216.06
329.796	46.08
330.009	-72.7
330.222	117.76
330.435	68.61
330.648	78.85
330.861	82.94
331.073	46.08
331.286	105.47
331.499	87.04
331.712	-21.5
331.925	52.22
332.138	91.13
332.35	91.13
332.563	-27.65
332.776	72.7
332.989	-68.61
333.202	44.03
333.414	9.22
333.627	64.51
333.84	-33.79
334.053	-7.17
334.265	-46.08
334.478	-56.32
334.691	11.26
334.903	-29.7
335.116	21.5
335.329	70.65
335.541	109.57
335.754	207.87
335.966	-50.18
336.179	-35.84
336.392	11.26
336.604	78.85
336.817	103.42
337.029	48.13
337.242	-7.17
337.454	72.7
337.667	15.36
337.88	87.04
338.092	93.18
338.305	91.13
338.517	1.02
338.729	134.14
338.942	58.37
339.154	3.07
339.367	1.02
339.579	97.28
339.792	-142.33
340.004	74.75
340.217	-27.65
340.429	72.7
340.641	-25.6
340.854	44.03
341.066	87.04
341.278	121.85
341.491	138.24
341.703	64.51
341.915	-46.08
342.128	117.76
342.34	70.65
342.552	-60.42
342.764	70.65
342.977	17.41
343.189	17.41
343.401	74.75
343.613	-19.46
343.826	7.17
344.038	-31.74
344.25	35.84
344.462	-37.89
344.674	68.61
344.886	50.18
345.099	64.51
345.311	56.32
345.523	31.74
345.735	-25.6
345.947	37.89
346.159	91.13
346.371	76.8
346.583	-29.7
346.795	211.96
347.007	101.37
347.219	99.33
347.431	33.79
347.643	82.94
347.855	13.31
348.067	121.85
348.279	-27.65
348.491	-31.74
348.703	117.76
348.915	-19.46
349.127	9.22
349.339	11.26
349.551	46.08
349.763	56.32
349.975	76.8
350.187	76.8
350.399	128
350.61	76.8
350.822	5.12
351.034	56.32
351.246	60.42
351.458	11.26
351.669	95.23
351.881	99.33
352.093	136.19
352.305	70.65
352.517	84.99
352.728	107.52
352.94	-9.22
353.152	87.04
353.363	-27.65
353.575	76.8
353.787	226.3
353.999	132.09
354.21	111.61
354.422	-41.98
354.633	-11.26
354.845	3.07
355.057	46.08
355.268	23.55
355.48	136.19
355.692	-17.41
355.903	37.89
356.115	13.31
356.326	-128
356.538	152.57
356.749	72.7
356.961	119.81
357.172	-9.22
357.384	-68.61
357.595	171.01
357.807	-13.31
358.018	1.02
358.23	23.55
358.441	109.57
358.653	35.84
358.864	72.7
359.075	-9.22
359.287	103.42
359.498	82.94
359.709	109.57
359.921	9.22
360.132	5.12
360.344	48.13
360.555	5.12
360.766	54.27
360.977	44.03
361.189	150.53
361.4	33.79
361.611	84.99
361.823	87.04
362.034	95.23
362.245	39.94
362.456	-5.12
362.667	84.99
362.879	1.02
363.09	31.74
363.301	87.04
363.512	48.13
363.723	25.6
363.935	7.17
364.146	197.63
364.357	123.9
364.568	52.22
364.779	19.46
364.99	128
365.201	-37.89
365.412	101.37
365.623	9.22
365.834	87.04
366.045	9.22
366.256	76.8
366.467	130.05
366.678	-1.02
366.889	80.89
367.1	-35.84
367.311	107.52
367.522	-13.31
367.733	31.74
367.944	68.61
368.155	-48.13
368.366	97.28
368.577	76.8
368.788	105.47
368.999	19.46
369.209	31.74
369.42	179.2
369.631	214.01
369.842	121.85
370.053	23.55
370.264	105.47
370.474	19.46
370.685	33.79
370.896	111.61
371.107	91.13
371.317	19.46
371.528	58.37
371.739	166.91
371.95	-17.41
372.16	62.46
372.371	-82.94
372.582	58.37
372.792	62.46
373.003	64.51
373.214	64.51
373.424	74.75
373.635	1.02
373.846	136.19
374.056	62.46
374.267	103.42
374.477	62.46
374.688	54.27
374.898	60.42
375.109	19.46
375.319	91.13
375.53	164.86
375.74	68.61
375.951	37.89
376.161	125.95
376.372	68.61
376.582	-9.22
376.793	66.56
377.003	-74.75
377.214	9.22
377.424	109.57
377.635	-29.7
377.845	1.02
378.055	142.33
378.266	-23.55
378.476	39.94
378.686	7.17
378.897	31.74
379.107	107.52
379.317	60.42
379.528	5.12
379.738	84.99
379.948	-29.7
380.158	27.65
380.369	23.55
380.579	84.99
380.789	64.51
380.999	39.94
381.21	183.29
381.42	205.82
381.63	54.27
381.84	154.62
382.05	119.81
382.261	117.76
382.471	97.28
382.681	-17.41
382.891	146.43
383.101	5.12
383.311	-7.17
383.521	37.89
383.731	105.47
383.941	70.65
384.151	25.6
384.361	29.7
384.571	125.95
384.781	74.75
384.991	189.44
385.201	211.96
385.411	60.42
385.621	31.74
385.831	21.5
386.041	19.46
386.251	17.41
386.461	41.98
386.671	-23.55
386.881	35.84
387.091	-5.12
387.301	123.9
387.511	68.61
387.72	19.46
387.93	87.04
388.14	-91.13
388.35	72.7
388.56	199.68
388.769	179.2
388.979	-11.26
389.189	7.17
389.399	-39.94
389.609	25.6
389.818	123.9
390.028	150.53
390.238	41.98
390.447	19.46
390.657	39.94
390.867	33.79
391.076	-128
391.286	17.41
391.496	-62.46
391.705	23.55
391.915	123.9
392.125	144.38
392.334	5.12
392.544	160.77
392.753	-13.31
392.963	-54.27
393.172	11.26
393.382	-78.85
393.591	164.86
393.801	-27.65
394.01	201.72
394.22	128
394.429	-56.32
394.639	56.32
394.848	89.09
395.058	70.65
395.267	-95.23
395.477	128
395.686	29.7
395.895	220.16
396.105	168.96
396.314	29.7
396.524	29.7
396.733	39.94
396.942	82.94
397.152	80.89
397.361	138.24
397.57	89.09
397.78	66.56
397.989	130.05
398.198	226.3
398.407	60.42
398.617	11.26
398.826	78.85
399.035	29.7
399.244	136.19
399.453	11.26
399.663	93.18
399.872	39.94
400.081	-66.56
400.29	156.67
400.499	-31.74
400.708	164.86
400.917	37.89
401.127	13.31
401.336	-37.89
401.545	179.2
401.754	144.38
401.963	95.23
402.172	25.6
402.381	-80.89
402.59	84.99
402.799	27.65
403.008	148.48
403.217	21.5
403.426	33.79
403.635	-101.37
403.844	41.98
404.053	89.09
404.262	9.22
404.471	179.2
404.68	60.42
404.888	25.6
405.097	97.28
405.306	29.7
405.515	31.74
405.724	-3.07
405.933	144.38
406.142	44.03
406.35	152.57
406.559	7.17
406.768	54.27
406.977	179.2
407.185	48.13
407.394	128
407.603	-52.22
407.812	60.42
408.02	166.91
408.229	5.12
408.438	3.07
408.646	-68.61
408.855	78.85
409.064	111.61
409.272	-3.07
409.481	35.84
409.69	-21.5
409.898	-60.42
410.107	52.22
410.315	111.61
410.524	27.65
410.733	78.85
410.941	9.22
411.15	117.76
411.358	101.37
411.567	111.61
411.775	-3.07
411.984	15.36
412.192	111.61
412.401	-11.26
412.609	119.81
412.818	168.96
413.026	95.23
413.234	-11.26
413.443	76.8
413.651	27.65
413.86	-27.65
414.068	99.33
414.276	177.15
414.485	66.56
414.693	228.35
414.901	195.58
415.11	25.6
415.318	70.65
415.526	78.85
415.734	130.05
415.943	50.18
416.151	58.37
416.359	70.65
416.567	72.7
416.776	164.86
416.984	113.66
417.192	222.2
417.4	56.32
417.608	13.31
417.817	29.7
418.025	82.94
418.233	128
418.441	5.12
418.649	-46.08
418.857	99.33
419.065	121.85
419.273	-68.61
419.481	78.85
419.689	60.42
419.897	-17.41
420.105	-9.22
420.313	150.53
420.521	80.89
420.729	152.57
420.937	17.41
421.145	-48.13
421.353	82.94
421.561	52.22
421.769	56.32
421.977	39.94
422.185	115.71
422.393	82.94
422.601	117.76
422.809	121.85
423.017	91.13
423.224	95.23
423.432	113.66
423.64	27.65
423.848	154.62
424.056	37.89
424.263	152.57
424.471	48.13
424.679	187.39
424.887	7.17
425.094	224.25
425.302	107.52
425.51	-15.36
425.718	197.63
425.925	68.61
426.133	19.46
426.341	168.96
426.548	21.5
426.756	68.61
426.964	99.33
427.171	7.17
427.379	128
427.586	-15.36
427.794	39.94
428.001	136.19
428.209	48.13
428.417	216.06
428.624	107.52
428.832	74.75
429.039	111.61
429.247	54.27
429.454	160.77
429.662	207.87
429.869	70.65
430.076	138.24
430.284	177.15
430.491	199.68
430.699	156.67
430.906	191.49
431.114	128
431.321	156.67
431.528	95.23
431.736	125.95
431.943	185.34
432.15	166.91
432.358	199.68
432.565	277.5
432.772	7.17
432.979	132.09
433.187	171.01
433.394	238.59
433.601	158.72
433.808	254.97
434.016	343.03
434.223	291.84
434.43	187.39
434.637	230.4
434.844	283.64
435.052	203.77
435.259	220.16
435.466	320.51
435.673	246.78
435.88	252.92
436.087	326.65
436.294	287.74
436.501	336.89
436.708	236.54
436.915	304.12
437.122	326.65
437.329	244.73
437.537	318.46
437.743	357.37
437.95	408.57
438.157	449.53
438.364	381.95
438.571	369.66
438.778	521.21
438.985	502.78
439.192	465.91
439.399	404.47
439.606	461.82
439.813	558.07
440.02	553.98
440.227	594.93
440.433	560.12
440.64	586.74
440.847	500.73
441.054	525.3
441.261	791.54
441.467	568.31
441.674	658.42
441.881	764.92
442.088	658.42
442.294	783.35
442.501	744.44
442.708	875.51
442.914	844.79
443.121	957.43
443.328	879.6
443.534	1020.91
443.741	922.61
443.948	791.54
444.154	1070.06
444.361	1072.11
444.568	1070.06
444.774	1055.73
444.981	1055.73
445.187	1299.44
445.394	1260.52
445.6	1285.1
445.807	1324.01
446.013	1348.59
446.22	1260.52
446.426	1434.6
446.633	1557.48
446.839	1762.28
447.046	1543.14
447.252	1706.98
447.459	1684.45
447.665	1711.08
447.871	1893.35
448.078	2137.06
448.284	1817.57
448.491	2034.66
448.697	2112.48
448.903	2139.1
449.11	2247.65
449.316	2214.88
449.522	2507.74
449.728	2550.75
449.935	2585.56
450.141	2722.77
450.347	2720.73
450.553	2708.44
450.76	2843.6
450.966	3134.42
451.172	3029.97
451.378	3277.77
451.584	3255.25
451.791	3584.97
451.997	3587.02
452.203	3695.56
452.409	3965.89
452.615	4072.39
452.821	3763.14
453.027	3926.98
453.233	4594.62
453.44	4279.23
453.646	4662.2
453.852	4676.54
454.058	4996.02
454.264	5067.7
454.47	5559.21
454.676	5542.83
454.882	5956.52
455.088	5587.88
455.294	6032.29
455.5	6353.82
455.705	6820.76
455.911	6738.84
456.117	6945.69
456.323	7130
456.529	7295.89
456.735	7879.56
456.941	8086.4
457.147	8240
457.352	8338.3
457.558	8725.37
457.764	9272.18
457.97	9503.6
458.176	10228.58
458.381	10543.97
458.587	10498.91
458.793	11242.32
458.999	11436.88
459.204	12776.25
459.41	13157.18
459.616	12915.51
459.821	13665.07
460.027	14228.26
460.233	14914.33
460.438	14879.52
460.644	15952.65
460.85	15768.34
461.055	16614.15
461.261	17494.77
461.466	17107.71
461.672	17302.26
461.878	19614.42
462.083	18873.06
462.289	19659.48
462.494	20144.84
462.7	20603.59
462.905	20697.8
463.111	22254.25
463.316	23906.96
463.522	23962.26
463.727	24449.67
463.932	25707.13
464.138	26286.7
464.343	27230.82
464.549	27755.1
464.754	29233.73
464.959	30411.31
465.165	30872.1
465.37	30720.56
465.575	30769.71
465.781	32815.63
465.986	33737.21
466.191	33174.02
466.397	33583.62
466.602	32789
466.807	34701.81
467.012	35430.88
467.218	35482.08
467.423	35770.85
467.628	36970.96
467.833	38828.46
468.038	37847.49
468.244	37474.76
468.449	38953.39
468.654	38502.84
468.859	38437.3
469.064	38523.32
469.269	37466.56
