Data from USB4F104151__285__11-21-03-516.txt Node

Date: Wed Feb 26 11:21:03 EST 2025
User: louis
Spectrometer: USB4F10415
Trigger mode: 4
Integration Time (sec): 1.000000E-1
Scans to average: 1
Electric dark correction enabled: true
Nonlinearity correction enabled: false
Boxcar width: 0
XAxis mode: Wavelengths
Number of Pixels in Spectrum: 3648
>>>>>Begin Spectral Data<<<<<
178.204	-410.79
178.424	-410.79
178.644	-410.79
178.864	-388.26
179.084	-404.64
179.304	-25.77
179.524	-15.53
179.744	9.05
179.964	19.29
180.184	21.33
180.404	29.52
180.624	21.33
180.844	33.62
181.064	-93.35
181.283	29.52
181.503	-62.63
181.723	33.62
181.943	-130.22
182.163	197.46
182.383	-81.07
182.602	58.2
182.822	64.34
183.042	27.48
183.262	-93.35
183.482	-62.63
183.701	13.14
183.921	-56.49
184.141	-93.35
184.361	37.72
184.58	95.06
184.8	29.52
185.02	-50.35
185.239	47.96
185.459	29.52
185.679	150.36
185.898	-109.74
186.118	52.05
186.338	52.05
186.557	29.52
186.777	-101.55
186.997	25.43
187.216	54.1
187.436	172.88
187.655	64.34
187.875	45.91
188.095	-21.67
188.314	56.15
188.534	97.11
188.753	-44.2
188.973	129.88
189.192	86.87
189.412	-23.72
189.631	21.33
189.851	70.48
190.07	166.74
190.29	-56.49
190.509	-42.15
190.729	37.72
190.948	113.49
191.168	217.94
191.387	15.19
191.607	-13.48
191.826	62.29
192.045	-40.11
192.265	-42.15
192.484	76.63
192.704	19.29
192.923	-13.48
193.142	162.64
193.362	80.72
193.581	117.59
193.8	60.24
194.02	121.68
194.239	13.14
194.458	23.38
194.678	43.86
194.897	-1.19
195.116	111.44
195.335	60.24
195.555	-1.19
195.774	-17.58
195.993	127.83
196.212	-33.96
196.432	74.58
196.651	-27.82
196.87	47.96
197.089	232.27
197.308	68.44
197.528	95.06
197.747	-64.68
197.966	109.4
198.185	82.77
198.404	19.29
198.623	84.82
198.842	140.12
199.062	56.15
199.281	82.77
199.5	2.9
199.719	50
199.938	35.67
200.157	195.41
200.376	211.79
200.595	95.06
200.814	33.62
201.033	-54.44
201.252	219.99
201.471	-7.34
201.69	50
201.909	-56.49
202.128	2.9
202.347	82.77
202.566	11.09
202.785	-124.07
203.004	15.19
203.223	316.24
203.442	-42.15
203.661	23.38
203.879	27.48
204.098	105.3
204.317	-62.63
204.536	47.96
204.755	39.76
204.974	138.07
205.193	-1.19
205.411	107.35
205.63	4.95
205.849	72.53
206.068	-21.67
206.287	-64.68
206.505	78.68
206.724	17.24
206.943	-17.58
207.162	-48.3
207.381	33.62
207.599	41.81
207.818	58.2
208.037	7
208.255	54.1
208.474	82.77
208.693	-15.53
208.911	-17.58
209.13	21.33
209.349	80.72
209.567	41.81
209.786	50
210.005	37.72
210.223	4.95
210.442	-66.73
210.661	62.29
210.879	-13.48
211.098	-21.67
211.316	-21.67
211.535	109.4
211.753	17.24
211.972	99.16
212.191	-29.87
212.409	-48.3
212.628	-29.87
212.846	-23.72
213.065	39.76
213.283	58.2
213.502	70.48
213.72	52.05
213.938	27.48
214.157	-56.49
214.375	140.12
214.594	13.14
214.812	13.14
215.031	0.85
215.249	93.01
215.467	29.52
215.686	29.52
215.904	-15.53
216.122	-13.48
216.341	111.44
216.559	58.2
216.778	133.97
216.996	144.21
217.214	4.95
217.432	-11.43
217.651	-81.07
217.869	-1.19
218.087	72.53
218.306	-36.01
218.524	107.35
218.742	4.95
218.96	54.1
219.179	33.62
219.397	-79.02
219.615	250.71
219.833	23.38
220.051	-70.83
220.27	47.96
220.488	58.2
220.706	56.15
220.924	-81.07
221.142	-58.54
221.36	86.87
221.578	119.64
221.796	0.85
222.015	43.86
222.233	4.95
222.451	90.96
222.669	-3.24
222.887	66.39
223.105	-15.53
223.323	-38.06
223.541	-105.64
223.759	52.05
223.977	84.82
224.195	99.16
224.413	29.52
224.631	45.91
224.849	86.87
225.067	226.13
225.285	23.38
225.503	-29.87
225.721	-91.31
225.939	103.25
226.157	31.57
226.375	189.27
226.592	-3.24
226.81	21.33
227.028	64.34
227.246	101.2
227.464	45.91
227.682	74.58
227.9	54.1
228.117	84.82
228.335	7
228.553	56.15
228.771	13.14
228.989	15.19
229.206	29.52
229.424	-33.96
229.642	-29.87
229.86	-79.02
230.077	43.86
230.295	-42.15
230.513	103.25
230.731	93.01
230.948	133.97
231.166	179.03
231.384	-40.11
231.601	-56.49
231.819	136.02
232.037	-72.87
232.254	-40.11
232.472	15.19
232.689	-11.43
232.907	99.16
233.125	33.62
233.342	-72.87
233.56	-27.82
233.777	-72.87
233.995	62.29
234.213	74.58
234.43	142.16
234.648	62.29
234.865	-19.63
235.083	7
235.3	7
235.518	88.92
235.735	101.2
235.953	111.44
236.17	4.95
236.388	29.52
236.605	27.48
236.822	56.15
237.04	95.06
237.257	29.52
237.475	-52.39
237.692	-11.43
237.909	179.03
238.127	-44.2
238.344	72.53
238.562	54.1
238.779	-58.54
238.996	-99.5
239.214	-5.29
239.431	15.19
239.648	35.67
239.865	66.39
240.083	27.48
240.3	70.48
240.517	-15.53
240.735	25.43
240.952	80.72
241.169	2.9
241.386	-11.43
241.603	29.52
241.821	-29.87
242.038	56.15
242.255	9.05
242.472	-3.24
242.689	107.35
242.907	72.53
243.124	15.19
243.341	107.35
243.558	-76.97
243.775	-109.74
243.992	-79.02
244.209	21.33
244.426	99.16
244.643	70.48
244.86	74.58
245.078	129.88
245.295	52.05
245.512	-58.54
245.729	-23.72
245.946	31.57
246.163	23.38
246.38	9.05
246.597	-40.11
246.814	-48.3
247.031	29.52
247.248	47.96
247.464	39.76
247.681	13.14
247.898	29.52
248.115	78.68
248.332	23.38
248.549	107.35
248.766	123.73
248.983	62.29
249.2	45.91
249.417	123.73
249.633	-11.43
249.85	66.39
250.067	43.86
250.284	-42.15
250.501	58.2
250.717	-27.82
250.934	-9.39
251.151	41.81
251.368	-11.43
251.585	37.72
251.801	-42.15
252.018	-33.96
252.235	37.72
252.451	-11.43
252.668	11.09
252.885	148.31
253.102	7
253.318	-25.77
253.535	-44.2
253.752	-9.39
253.968	-54.44
254.185	-89.26
254.401	9.05
254.618	47.96
254.835	13.14
255.051	66.39
255.268	-23.72
255.484	74.58
255.701	-21.67
255.917	-3.24
256.134	-72.87
256.351	50
256.567	-40.11
256.784	-13.48
257	-103.59
257.217	45.91
257.433	62.29
257.65	101.2
257.866	41.81
258.082	-56.49
258.299	-70.83
258.515	35.67
258.732	-52.39
258.948	-25.77
259.165	15.19
259.381	-25.77
259.597	56.15
259.814	-50.35
260.03	82.77
260.246	39.76
260.463	99.16
260.679	148.31
260.895	82.77
261.112	31.57
261.328	-15.53
261.544	-9.39
261.761	125.78
261.977	-46.25
262.193	-7.34
262.409	66.39
262.626	-11.43
262.842	13.14
263.058	33.62
263.274	72.53
263.49	45.91
263.707	-21.67
263.923	88.92
264.139	-97.45
264.355	90.96
264.571	52.05
264.787	-38.06
265.004	103.25
265.22	15.19
265.436	-48.3
265.652	31.57
265.868	50
266.084	11.09
266.3	60.24
266.516	-23.72
266.732	52.05
266.948	82.77
267.164	-29.87
267.38	23.38
267.596	70.48
267.812	105.3
268.028	-9.39
268.244	-44.2
268.46	111.44
268.676	-81.07
268.892	84.82
269.108	-3.24
269.324	-93.35
269.54	-44.2
269.756	35.67
269.972	-21.67
270.188	-33.96
270.403	-42.15
270.619	21.33
270.835	50
271.051	-74.92
271.267	-31.91
271.483	-54.44
271.698	52.05
271.914	-19.63
272.13	9.05
272.346	11.09
272.562	-25.77
272.777	88.92
272.993	45.91
273.209	7
273.425	19.29
273.64	-146.6
273.856	23.38
274.072	-38.06
274.287	-19.63
274.503	41.81
274.719	113.49
274.934	-17.58
275.15	-62.63
275.366	41.81
275.581	-72.87
275.797	21.33
276.012	7
276.228	70.48
276.444	35.67
276.659	82.77
276.875	-89.26
277.09	-11.43
277.306	-40.11
277.521	37.72
277.737	60.24
277.952	58.2
278.168	62.29
278.383	41.81
278.599	21.33
278.814	88.92
279.03	-52.39
279.245	107.35
279.461	45.91
279.676	160.59
279.892	13.14
280.107	-19.63
280.322	-5.29
280.538	68.44
280.753	41.81
280.969	29.52
281.184	7
281.399	148.31
281.615	-25.77
281.83	43.86
282.045	-109.74
282.26	29.52
282.476	15.19
282.691	56.15
282.906	35.67
283.122	47.96
283.337	-74.92
283.552	88.92
283.767	-83.11
283.983	117.59
284.198	97.11
284.413	66.39
284.628	-89.26
284.843	-33.96
285.058	84.82
285.274	-58.54
285.489	-15.53
285.704	88.92
285.919	-74.92
286.134	50
286.349	74.58
286.564	-19.63
286.779	72.53
286.995	-33.96
287.21	-31.91
287.425	50
287.64	-54.44
287.855	50
288.07	35.67
288.285	60.24
288.5	103.25
288.715	88.92
288.93	-25.77
289.145	-50.35
289.36	131.92
289.575	-76.97
289.79	129.88
290.004	45.91
290.219	27.48
290.434	25.43
290.649	37.72
290.864	-62.63
291.079	33.62
291.294	19.29
291.509	47.96
291.724	17.24
291.938	-17.58
292.153	37.72
292.368	-97.45
292.583	37.72
292.798	43.86
293.012	64.34
293.227	99.16
293.442	-15.53
293.657	95.06
293.871	72.53
294.086	101.2
294.301	197.46
294.516	113.49
294.73	-31.91
294.945	-79.02
295.16	58.2
295.374	74.58
295.589	21.33
295.804	-70.83
296.018	52.05
296.233	33.62
296.447	78.68
296.662	-58.54
296.877	72.53
297.091	11.09
297.306	-36.01
297.52	-33.96
297.735	93.01
297.949	103.25
298.164	76.63
298.378	39.76
298.593	-66.73
298.807	-33.96
299.022	68.44
299.236	158.55
299.451	11.09
299.665	21.33
299.88	9.05
300.094	31.57
300.309	-9.39
300.523	60.24
300.737	0.85
300.952	-38.06
301.166	0.85
301.381	-128.17
301.595	-17.58
301.809	39.76
302.024	-17.58
302.238	-89.26
302.452	127.83
302.667	-3.24
302.881	160.59
303.095	64.34
303.309	33.62
303.524	27.48
303.738	-1.19
303.952	-42.15
304.166	74.58
304.381	-109.74
304.595	95.06
304.809	-3.24
305.023	0.85
305.237	45.91
305.452	47.96
305.666	37.72
305.88	45.91
306.094	115.54
306.308	23.38
306.522	136.02
306.736	68.44
306.95	113.49
307.164	-33.96
307.379	-60.59
307.593	148.31
307.807	131.92
308.021	33.62
308.235	84.82
308.449	-33.96
308.663	41.81
308.877	193.36
309.091	-48.3
309.305	25.43
309.519	-136.36
309.733	50
309.947	-91.31
310.161	7
310.374	76.63
310.588	84.82
310.802	-83.11
311.016	17.24
311.23	37.72
311.444	-29.87
311.658	7
311.872	84.82
312.085	60.24
312.299	74.58
312.513	109.4
312.727	56.15
312.941	-36.01
313.154	86.87
313.368	72.53
313.582	-42.15
313.796	88.92
314.009	101.2
314.223	90.96
314.437	54.1
314.651	33.62
314.864	-1.19
315.078	-54.44
315.292	-50.35
315.505	-113.83
315.719	82.77
315.933	11.09
316.146	-13.48
316.36	-31.91
316.573	52.05
316.787	56.15
317.001	90.96
317.214	-27.82
317.428	43.86
317.641	-52.39
317.855	-23.72
318.068	45.91
318.282	-7.34
318.495	74.58
318.709	64.34
318.922	-23.72
319.136	117.59
319.349	99.16
319.563	50
319.776	43.86
319.99	-68.78
320.203	66.39
320.417	-27.82
320.63	131.92
320.843	162.64
321.057	9.05
321.27	0.85
321.483	47.96
321.697	121.68
321.91	-42.15
322.124	-56.49
322.337	54.1
322.55	-62.63
322.763	62.29
322.977	43.86
323.19	-52.39
323.403	17.24
323.617	50
323.83	97.11
324.043	-40.11
324.256	41.81
324.469	-64.68
324.683	121.68
324.896	-17.58
325.109	-48.3
325.322	-48.3
325.535	101.2
325.748	119.64
325.962	-1.19
326.175	74.58
326.388	117.59
326.601	70.48
326.814	-27.82
327.027	4.95
327.24	117.59
327.453	-72.87
327.666	41.81
327.879	131.92
328.092	21.33
328.305	43.86
328.518	-21.67
328.731	-33.96
328.944	64.34
329.157	9.05
329.37	23.38
329.583	164.69
329.796	99.16
330.009	-109.74
330.222	62.29
330.435	138.07
330.648	41.81
330.861	76.63
331.073	60.24
331.286	39.76
331.499	-33.96
331.712	4.95
331.925	19.29
332.138	-52.39
332.35	152.4
332.563	-62.63
332.776	117.59
332.989	-64.68
333.202	2.9
333.414	9.05
333.627	-29.87
333.84	11.09
334.053	99.16
334.265	23.38
334.478	0.85
334.691	9.05
334.903	31.57
335.116	-7.34
335.329	-36.01
335.541	66.39
335.754	142.16
335.966	-36.01
336.179	17.24
336.392	-25.77
336.604	-3.24
336.817	117.59
337.029	-60.59
337.242	-31.91
337.454	86.87
337.667	13.14
337.88	101.2
338.092	56.15
338.305	66.39
338.517	-17.58
338.729	-3.24
338.942	148.31
339.154	-11.43
339.367	-72.87
339.579	64.34
339.792	-38.06
340.004	138.07
340.217	-42.15
340.429	93.01
340.641	-15.53
340.854	-68.78
341.066	35.67
341.278	97.11
341.491	131.92
341.703	-27.82
341.915	-42.15
342.128	37.72
342.34	-17.58
342.552	-25.77
342.764	-21.67
342.977	-1.19
343.189	29.52
343.401	-27.82
343.613	-85.16
343.826	2.9
344.038	-38.06
344.25	33.62
344.462	-17.58
344.674	103.25
344.886	-70.83
345.099	27.48
345.311	52.05
345.523	-56.49
345.735	-103.59
345.947	52.05
346.159	13.14
346.371	-44.2
346.583	-62.63
346.795	189.27
347.007	0.85
347.219	58.2
347.431	-38.06
347.643	37.72
347.855	-21.67
348.067	82.77
348.279	-76.97
348.491	33.62
348.703	95.06
348.915	43.86
349.127	-64.68
349.339	27.48
349.551	21.33
349.763	121.68
349.975	-17.58
350.187	117.59
350.399	115.54
350.61	162.64
350.822	-25.77
351.034	93.01
351.246	54.1
351.458	62.29
351.669	88.92
351.881	111.44
352.093	133.97
352.305	201.55
352.517	45.91
352.728	101.2
352.94	11.09
353.152	70.48
353.363	-52.39
353.575	15.19
353.787	136.02
353.999	136.02
354.21	191.31
354.422	0.85
354.633	-31.91
354.845	43.86
355.057	64.34
355.268	0.85
355.48	66.39
355.692	-52.39
355.903	47.96
356.115	-11.43
356.326	-97.45
356.538	105.3
356.749	117.59
356.961	-9.39
357.172	-15.53
357.384	-1.19
357.595	166.74
357.807	-3.24
358.018	-58.54
358.23	19.29
358.441	97.11
358.653	9.05
358.864	-11.43
359.075	-9.39
359.287	88.92
359.498	35.67
359.709	47.96
359.921	82.77
360.132	82.77
360.344	39.76
360.555	13.14
360.766	27.48
360.977	-21.67
361.189	105.3
361.4	37.72
361.611	64.34
361.823	95.06
362.034	99.16
362.245	-95.4
362.456	23.38
362.667	82.77
362.879	-31.91
363.09	-58.54
363.301	125.78
363.512	-3.24
363.723	66.39
363.935	-62.63
364.146	156.5
364.357	-25.77
364.568	35.67
364.779	-89.26
364.99	125.78
365.201	45.91
365.412	123.73
365.623	-40.11
365.834	25.43
366.045	41.81
366.256	25.43
366.467	136.02
366.678	2.9
366.889	9.05
367.1	7
367.311	107.35
367.522	-48.3
367.733	-17.58
367.944	72.53
368.155	-140.46
368.366	93.01
368.577	123.73
368.788	105.3
368.999	-52.39
369.209	29.52
369.42	183.12
369.631	217.94
369.842	156.5
370.053	-11.43
370.264	168.79
370.474	-11.43
370.685	31.57
370.896	43.86
371.107	68.44
371.317	-29.87
371.528	-89.26
371.739	131.92
371.95	86.87
372.16	131.92
372.371	43.86
372.582	-3.24
372.792	4.95
373.003	74.58
373.214	76.63
373.424	52.05
373.635	-62.63
373.846	107.35
374.056	-56.49
374.267	99.16
374.477	47.96
374.688	-60.59
374.898	78.68
375.109	50
375.319	21.33
375.53	84.82
375.74	62.29
375.951	-21.67
376.161	88.92
376.372	58.2
376.582	-91.31
376.793	62.29
377.003	-9.39
377.214	-40.11
377.424	121.68
377.635	54.1
377.845	-17.58
378.055	105.3
378.266	-103.59
378.476	-25.77
378.686	93.01
378.897	56.15
379.107	29.52
379.317	43.86
379.528	43.86
379.738	41.81
379.948	17.24
380.158	144.21
380.369	-3.24
380.579	129.88
380.789	54.1
380.999	39.76
381.21	29.52
381.42	207.7
381.63	74.58
381.84	64.34
382.05	17.24
382.261	84.82
382.471	109.4
382.681	50
382.891	90.96
383.101	119.64
383.311	31.57
383.521	-50.35
383.731	47.96
383.941	107.35
384.151	84.82
384.361	-11.43
384.571	66.39
384.781	43.86
384.991	90.96
385.201	187.22
385.411	25.43
385.621	66.39
385.831	97.11
386.041	56.15
386.251	43.86
386.461	103.25
386.671	-11.43
386.881	27.48
387.091	-62.63
387.301	99.16
387.511	-23.72
387.72	15.19
387.93	86.87
388.14	-44.2
388.35	29.52
388.56	72.53
388.769	123.73
388.979	39.76
389.189	-85.16
389.399	2.9
389.609	117.59
389.818	115.54
390.028	-5.29
390.238	45.91
390.447	41.81
390.657	80.72
390.867	-15.53
391.076	-33.96
391.286	9.05
391.496	62.29
391.705	25.43
391.915	56.15
392.125	43.86
392.334	-5.29
392.544	144.21
392.753	50
392.963	-17.58
393.172	25.43
393.382	-46.25
393.591	203.6
393.801	0.85
394.01	90.96
394.22	156.5
394.429	29.52
394.639	2.9
394.848	84.82
395.058	31.57
395.267	-5.29
395.477	99.16
395.686	17.24
395.895	195.41
396.105	258.9
396.314	-27.82
396.524	78.68
396.733	-9.39
396.942	119.64
397.152	148.31
397.361	121.68
397.57	70.48
397.78	-11.43
397.989	148.31
398.198	193.36
398.407	39.76
398.617	19.29
398.826	11.09
399.035	17.24
399.244	111.44
399.453	7
399.663	19.29
399.872	-11.43
400.081	-48.3
400.29	111.44
400.499	4.95
400.708	123.73
400.917	-13.48
401.127	31.57
401.336	39.76
401.545	246.61
401.754	74.58
401.963	52.05
402.172	-19.63
402.381	-25.77
402.59	29.52
402.799	62.29
403.008	62.29
403.217	19.29
403.426	68.44
403.635	-56.49
403.844	9.05
404.053	103.25
404.262	-11.43
404.471	80.72
404.68	58.2
404.888	90.96
405.097	15.19
405.306	72.53
405.515	181.07
405.724	31.57
405.933	113.49
406.142	21.33
406.35	131.92
406.559	4.95
406.768	70.48
406.977	133.97
407.185	86.87
407.394	121.68
407.603	-3.24
407.812	23.38
408.02	115.54
408.229	-36.01
408.438	37.72
408.646	-97.45
408.855	-9.39
409.064	29.52
409.272	33.62
409.481	84.82
409.69	-19.63
409.898	-60.59
410.107	99.16
410.315	66.39
410.524	7
410.733	-1.19
410.941	-11.43
411.15	111.44
411.358	41.81
411.567	148.31
411.775	97.11
411.984	37.72
412.192	88.92
412.401	-46.25
412.609	166.74
412.818	193.36
413.026	-1.19
413.234	0.85
413.443	-11.43
413.651	25.43
413.86	52.05
414.068	88.92
414.276	162.64
414.485	39.76
414.693	72.53
414.901	144.21
415.11	111.44
415.318	50
415.526	7
415.734	93.01
415.943	45.91
416.151	152.4
416.359	21.33
416.567	19.29
416.776	27.48
416.984	148.31
417.192	164.69
417.4	-15.53
417.608	33.62
417.817	-42.15
418.025	58.2
418.233	189.27
418.441	-31.91
418.649	4.95
418.857	66.39
419.065	103.25
419.273	29.52
419.481	117.59
419.689	13.14
419.897	-17.58
420.105	-21.67
420.313	119.64
420.521	129.88
420.729	125.78
420.937	19.29
421.145	13.14
421.353	138.07
421.561	164.69
421.769	103.25
421.977	7
422.185	109.4
422.393	56.15
422.601	121.68
422.809	74.58
423.017	47.96
423.224	-42.15
423.432	111.44
423.64	43.86
423.848	129.88
424.056	-7.34
424.263	166.74
424.471	-19.63
424.679	148.31
424.887	-56.49
425.094	119.64
425.302	131.92
425.51	123.73
425.718	47.96
425.925	101.2
426.133	-21.67
426.341	109.4
426.548	35.67
426.756	29.52
426.964	189.27
427.171	2.9
427.379	54.1
427.586	197.46
427.794	33.62
428.001	-7.34
428.209	88.92
428.417	187.22
428.624	162.64
428.832	95.06
429.039	148.31
429.247	74.58
429.454	129.88
429.662	310.1
429.869	131.92
430.076	166.74
430.284	195.41
430.491	281.43
430.699	207.7
430.906	226.13
431.114	144.21
431.321	121.68
431.528	56.15
431.736	117.59
431.943	197.46
432.15	248.66
432.358	179.03
432.565	275.28
432.772	39.76
432.979	199.51
433.187	107.35
433.394	246.61
433.601	176.98
433.808	281.43
434.016	256.85
434.223	256.85
434.43	193.36
434.637	248.66
434.844	238.42
435.052	285.52
435.259	326.48
435.466	213.84
435.673	318.29
435.88	269.14
436.087	416.59
436.294	418.64
436.501	400.21
436.708	359.25
436.915	320.34
437.122	471.89
437.329	340.82
437.537	389.97
437.743	406.35
437.95	543.57
438.157	408.4
438.364	416.59
438.571	475.98
438.778	500.56
438.985	451.41
439.192	586.57
439.399	504.65
439.606	510.8
439.813	619.34
440.02	729.93
440.227	828.23
440.433	695.11
440.64	615.24
440.847	596.81
441.054	701.26
441.261	869.19
441.467	748.36
441.674	731.98
441.881	734.03
442.088	830.28
442.294	789.32
442.501	893.77
442.708	1039.17
442.914	969.54
443.121	992.07
443.328	1051.46
443.534	1028.93
443.741	1053.51
443.948	981.83
444.154	1155.91
444.361	1327.94
444.568	1207.11
444.774	1250.11
444.981	1246.02
445.187	1467.2
445.394	1426.24
445.6	1432.38
445.807	1643.32
446.013	1577.79
446.22	1436.48
446.426	1682.24
446.633	1821.5
446.839	1979.19
447.046	1741.63
447.252	2102.07
447.459	1897.27
447.665	1989.43
447.871	2171.7
448.078	2353.97
448.284	2429.74
448.491	2495.28
448.697	2540.33
448.903	2722.6
449.11	2652.97
449.316	2695.98
449.522	2913.06
449.728	3025.7
449.935	3037.99
450.141	3332.9
450.347	3384.1
450.553	3250.98
450.76	3476.26
450.966	3736.35
451.172	3646.24
451.378	3832.6
451.584	3994.39
451.791	4238.1
451.997	4270.87
452.203	4453.14
452.409	4754.19
452.615	4672.27
452.821	4662.03
453.027	4832.01
453.233	5303.04
453.44	5296.9
453.646	5524.23
453.852	5608.19
454.058	5942.01
454.264	6236.92
454.47	6585.07
454.676	6619.89
454.882	7043.82
455.088	6968.04
455.294	7211.75
455.5	7551.71
455.705	8096.47
455.911	8102.62
456.117	8270.55
456.323	8678.1
456.529	8729.3
456.735	9409.22
456.941	9640.64
457.147	10076.86
457.352	10154.68
457.558	10652.34
457.764	11223.72
457.97	11571.88
458.176	11960.99
458.381	12763.79
458.587	12960.4
458.793	13408.9
458.999	13568.65
459.204	15186.54
459.41	15612.52
459.616	15350.38
459.821	16132.7
460.027	16882.26
460.233	17748.55
460.438	17627.72
460.644	18934.32
460.85	19135.03
461.055	19739.18
461.261	20757.02
461.466	20523.55
461.672	20865.56
461.878	23431.66
462.083	23167.48
462.289	23294.45
462.494	24003.05
462.7	24289.76
462.905	24893.91
463.111	26743.23
463.316	28248.49
463.522	28711.33
463.727	29673.87
463.932	31129.98
464.138	31562.1
464.343	32817.5
464.549	33261.91
464.754	35621.17
464.959	36501.8
465.165	36577.58
465.37	36806.95
465.575	36862.24
465.781	39287.04
465.986	40458.48
466.191	40161.52
466.397	40493.29
466.602	39477.5
466.807	41584.86
467.012	42555.6
467.218	43141.32
467.423	43229.38
467.628	44705.96
467.833	46641.29
468.038	45908.12
468.244	45177
468.449	47294.6
468.654	46405.78
