Data from USB4F104151__286__11-21-04-129.txt Node

Date: Wed Feb 26 11:21:04 EST 2025
User: louis
Spectrometer: USB4F10415
Trigger mode: 4
Integration Time (sec): 1.000000E-1
Scans to average: 1
Electric dark correction enabled: true
Nonlinearity correction enabled: false
Boxcar width: 0
XAxis mode: Wavelengths
Number of Pixels in Spectrum: 3648
>>>>>Begin Spectral Data<<<<<
178.204	-306
178.424	-306
178.644	-306
178.864	-306
179.084	-432.97
179.304	-2.9
179.524	-31.57
179.744	-43.86
179.964	48.3
180.184	17.58
180.404	64.68
180.624	-23.38
180.844	-0.85
181.064	-97.11
181.283	81.07
181.503	-47.96
181.723	36.01
181.943	-109.4
182.163	175.27
182.383	38.06
182.602	40.11
182.822	203.94
183.042	29.87
183.262	-39.76
183.482	99.5
183.701	-4.95
183.921	95.4
184.141	7.34
184.361	138.41
184.58	169.13
184.8	13.48
185.02	1.19
185.239	97.45
185.459	64.68
185.679	162.98
185.898	-66.39
186.118	103.59
186.338	13.48
186.557	154.79
186.777	-25.43
186.997	9.39
187.216	58.54
187.436	152.74
187.655	38.06
187.875	89.26
188.095	27.82
188.314	167.08
188.534	70.83
188.753	13.48
188.973	136.36
189.192	173.22
189.412	25.77
189.631	-11.09
189.851	27.82
190.07	224.42
190.29	38.06
190.509	27.82
190.729	15.53
190.948	87.21
191.168	191.66
191.387	79.02
191.607	97.45
191.826	101.55
192.045	83.11
192.265	5.29
192.484	95.4
192.704	1.19
192.923	-9.05
193.142	85.16
193.362	148.65
193.581	148.65
193.8	19.63
194.02	156.84
194.239	58.54
194.458	117.93
194.678	68.78
194.897	21.67
195.116	76.97
195.335	83.11
195.555	126.12
195.774	44.2
195.993	119.98
196.212	44.2
196.432	-0.85
196.651	-2.9
196.87	31.91
197.089	162.98
197.308	54.44
197.528	124.07
197.747	66.73
197.966	5.29
198.185	165.03
198.404	-33.62
198.623	95.4
198.842	64.68
199.062	83.11
199.281	64.68
199.5	-2.9
199.719	140.46
199.938	126.12
200.157	29.87
200.376	103.59
200.595	136.36
200.814	54.44
201.033	-74.58
201.252	144.55
201.471	169.13
201.69	128.17
201.909	9.39
202.128	179.37
202.347	107.69
202.566	58.54
202.785	-82.77
203.004	-4.95
203.223	324.77
203.442	58.54
203.661	-17.24
203.879	40.11
204.098	70.83
204.317	25.77
204.536	152.74
204.755	93.35
204.974	93.35
205.193	29.87
205.411	144.55
205.63	144.55
205.849	99.5
206.068	52.39
206.287	-70.48
206.505	124.07
206.724	29.87
206.943	3.24
207.162	-15.19
207.381	27.82
207.599	15.53
207.818	21.67
208.037	-4.95
208.255	89.26
208.474	89.26
208.693	124.07
208.911	79.02
209.13	111.78
209.349	27.82
209.567	42.15
209.786	29.87
210.005	107.69
210.223	126.12
210.442	-84.82
210.661	-21.33
210.879	124.07
211.098	46.25
211.316	72.87
211.535	95.4
211.753	85.16
211.972	144.55
212.191	-50
212.409	38.06
212.628	111.78
212.846	1.19
213.065	46.25
213.283	58.54
213.502	15.53
213.72	113.83
213.938	-2.9
214.157	7.34
214.375	103.59
214.594	68.78
214.812	165.03
215.031	-11.09
215.249	-72.53
215.467	60.59
215.686	87.21
215.904	68.78
216.122	54.44
216.341	138.41
216.559	-13.14
216.778	95.4
216.996	165.03
217.214	38.06
217.432	38.06
217.651	-21.33
217.869	95.4
218.087	42.15
218.306	36.01
218.524	85.16
218.742	38.06
218.96	107.69
219.179	-4.95
219.397	99.5
219.615	203.94
219.833	54.44
220.051	-35.67
220.27	83.11
220.488	95.4
220.706	54.44
220.924	62.63
221.142	-2.9
221.36	76.97
221.578	23.72
221.796	36.01
222.015	17.58
222.233	113.83
222.451	158.89
222.669	-68.44
222.887	54.44
223.105	3.24
223.323	5.29
223.541	-35.67
223.759	-25.43
223.977	23.72
224.195	119.98
224.413	60.59
224.631	142.5
224.849	64.68
225.067	195.75
225.285	-41.81
225.503	-45.91
225.721	-78.68
225.939	58.54
226.157	79.02
226.375	271.53
226.592	36.01
226.81	-50
227.028	93.35
227.246	175.27
227.464	62.63
227.682	124.07
227.9	85.16
228.117	23.72
228.335	66.73
228.553	31.91
228.771	54.44
228.989	-54.1
229.206	117.93
229.424	5.29
229.642	95.4
229.86	46.25
230.077	124.07
230.295	58.54
230.513	87.21
230.731	103.59
230.948	177.32
231.166	156.84
231.384	-0.85
231.601	-9.05
231.819	181.42
232.037	-19.29
232.254	-27.48
232.472	1.19
232.689	-33.62
232.907	95.4
233.125	54.44
233.342	21.67
233.56	50.35
233.777	70.83
233.995	70.83
234.213	128.17
234.43	97.45
234.648	21.67
234.865	-7
235.083	11.43
235.3	95.4
235.518	95.4
235.735	183.46
235.953	60.59
236.17	76.97
236.388	64.68
236.605	11.43
236.822	142.5
237.04	89.26
237.257	85.16
237.475	-62.29
237.692	-0.85
237.909	83.11
238.127	7.34
238.344	91.31
238.562	36.01
238.779	9.39
238.996	5.29
239.214	113.83
239.431	152.74
239.648	38.06
239.865	128.17
240.083	83.11
240.3	87.21
240.517	76.97
240.735	21.67
240.952	162.98
241.169	95.4
241.386	99.5
241.603	23.72
241.821	-25.43
242.038	91.31
242.255	144.55
242.472	-52.05
242.689	93.35
242.907	42.15
243.124	109.74
243.341	44.2
243.558	-64.34
243.775	-35.67
243.992	-45.91
244.209	134.31
244.426	181.42
244.643	119.98
244.86	11.43
245.078	89.26
245.295	68.78
245.512	23.72
245.729	-37.72
245.946	81.07
246.163	62.63
246.38	40.11
246.597	115.88
246.814	62.63
247.031	13.48
247.248	54.44
247.464	76.97
247.681	50.35
247.898	52.39
248.115	101.55
248.332	-31.57
248.549	173.22
248.766	113.83
248.983	56.49
249.2	89.26
249.417	109.74
249.633	7.34
249.85	115.88
250.067	58.54
250.284	93.35
250.501	50.35
250.717	68.78
250.934	-17.24
251.151	60.59
251.368	60.59
251.585	44.2
251.801	79.02
252.018	-43.86
252.235	109.74
252.451	-0.85
252.668	3.24
252.885	158.89
253.102	19.63
253.318	36.01
253.535	-13.14
253.752	7.34
253.968	19.63
254.185	38.06
254.401	9.39
254.618	111.78
254.835	13.48
255.051	66.73
255.268	109.74
255.484	109.74
255.701	62.63
255.917	21.67
256.134	-23.38
256.351	154.79
256.567	21.67
256.784	19.63
257	-33.62
257.217	130.22
257.433	199.85
257.65	68.78
257.866	138.41
258.082	-93.01
258.299	-27.48
258.515	115.88
258.732	3.24
258.948	-33.62
259.165	23.72
259.381	-7
259.597	70.83
259.814	-15.19
260.03	99.5
260.246	56.49
260.463	64.68
260.679	113.83
260.895	15.53
261.112	97.45
261.328	29.87
261.544	-19.29
261.761	187.56
261.977	-84.82
262.193	-45.91
262.409	54.44
262.626	-19.29
262.842	60.59
263.058	-2.9
263.274	74.92
263.49	95.4
263.707	91.31
263.923	124.07
264.139	-37.72
264.355	87.21
264.571	140.46
264.787	83.11
265.004	109.74
265.22	54.44
265.436	-15.19
265.652	-7
265.868	109.74
266.084	-72.53
266.3	83.11
266.516	-74.58
266.732	103.59
266.948	1.19
267.164	-41.81
267.38	74.92
267.596	91.31
267.812	165.03
268.028	-23.38
268.244	5.29
268.46	56.49
268.676	79.02
268.892	130.22
269.108	70.83
269.324	-4.95
269.54	25.77
269.756	111.78
269.972	-13.14
270.188	33.96
270.403	-70.48
270.619	-7
270.835	56.49
271.051	70.83
271.267	97.45
271.483	15.53
271.698	70.83
271.914	101.55
272.13	5.29
272.346	-15.19
272.562	79.02
272.777	216.23
272.993	-9.05
273.209	-35.67
273.425	42.15
273.64	17.58
273.856	105.64
274.072	5.29
274.287	21.67
274.503	119.98
274.719	91.31
274.934	-13.14
275.15	-39.76
275.366	175.27
275.581	-50
275.797	-7
276.012	68.78
276.228	-33.62
276.444	38.06
276.659	181.42
276.875	-84.82
277.09	40.11
277.306	62.63
277.521	60.59
277.737	31.91
277.952	87.21
278.168	54.44
278.383	81.07
278.599	64.68
278.814	150.7
279.03	54.44
279.245	132.26
279.461	130.22
279.676	21.67
279.892	-52.05
280.107	-4.95
280.322	-41.81
280.538	105.64
280.753	-47.96
280.969	66.73
281.184	79.02
281.399	162.98
281.615	33.96
281.83	-21.33
282.045	13.48
282.26	-33.62
282.476	74.92
282.691	99.5
282.906	91.31
283.122	46.25
283.337	81.07
283.552	76.97
283.767	5.29
283.983	109.74
284.198	15.53
284.413	76.97
284.628	-50
284.843	122.02
285.058	101.55
285.274	13.48
285.489	-47.96
285.704	140.46
285.919	52.39
286.134	1.19
286.349	21.67
286.564	17.58
286.779	109.74
286.995	83.11
287.21	-103.25
287.425	93.35
287.64	31.91
287.855	105.64
288.07	-70.48
288.285	171.18
288.5	150.7
288.715	62.63
288.93	-27.48
289.145	-2.9
289.36	144.55
289.575	54.44
289.79	156.84
290.004	29.87
290.219	101.55
290.434	-15.19
290.649	52.39
290.864	46.25
291.079	11.43
291.294	66.73
291.509	117.93
291.724	68.78
291.938	85.16
292.153	113.83
292.368	-70.48
292.583	60.59
292.798	19.63
293.012	33.96
293.227	89.26
293.442	91.31
293.657	66.73
293.871	169.13
294.086	95.4
294.301	183.46
294.516	148.65
294.73	95.4
294.945	-60.24
295.16	-19.29
295.374	50.35
295.589	128.17
295.804	-2.9
296.018	29.87
296.233	105.64
296.447	93.35
296.662	-56.15
296.877	181.42
297.091	62.63
297.306	46.25
297.52	64.68
297.735	38.06
297.949	119.98
298.164	81.07
298.378	-9.05
298.593	-23.38
298.807	-0.85
299.022	44.2
299.236	148.65
299.451	85.16
299.665	42.15
299.88	36.01
300.094	58.54
300.309	31.91
300.523	74.92
300.737	38.06
300.952	87.21
301.166	-2.9
301.381	-11.09
301.595	40.11
301.809	21.67
302.024	-45.91
302.238	13.48
302.452	50.35
302.667	23.72
302.881	146.6
303.095	152.74
303.309	111.78
303.524	5.29
303.738	-37.72
303.952	42.15
304.166	62.63
304.381	-2.9
304.595	169.13
304.809	21.67
305.023	7.34
305.237	27.82
305.452	95.4
305.666	29.87
305.88	113.83
306.094	54.44
306.308	44.2
306.522	91.31
306.736	126.12
306.95	154.79
307.164	48.3
307.379	-15.19
307.593	171.18
307.807	165.03
308.021	142.5
308.235	50.35
308.449	-62.29
308.663	17.58
308.877	259.24
309.091	-25.43
309.305	83.11
309.519	-101.2
309.733	146.6
309.947	-105.3
310.161	97.45
310.374	115.88
310.588	136.36
310.802	-23.38
311.016	-23.38
311.23	113.83
311.444	7.34
311.658	23.72
311.872	152.74
312.085	173.22
312.299	126.12
312.513	171.18
312.727	115.88
312.941	-0.85
313.154	58.54
313.368	105.64
313.582	19.63
313.796	113.83
314.009	62.63
314.223	154.79
314.437	87.21
314.651	107.69
314.864	-9.05
315.078	103.59
315.292	-35.67
315.505	19.63
315.719	105.64
315.933	66.73
316.146	-41.81
316.36	1.19
316.573	167.08
316.787	113.83
317.001	56.49
317.214	-60.24
317.428	38.06
317.641	-90.96
317.855	13.48
318.068	76.97
318.282	95.4
318.495	148.65
318.709	132.26
318.922	29.87
319.136	138.41
319.349	175.27
319.563	-13.14
319.776	111.78
319.99	-62.29
320.203	111.78
320.417	27.82
320.63	119.98
320.843	115.88
321.057	-11.09
321.27	-0.85
321.483	140.46
321.697	197.8
321.91	-0.85
322.124	124.07
322.337	93.35
322.55	76.97
322.763	122.02
322.977	52.39
323.19	-9.05
323.403	27.82
323.617	134.31
323.83	136.36
324.043	46.25
324.256	52.39
324.469	-88.92
324.683	136.36
324.896	79.02
325.109	52.39
325.322	-72.53
325.535	126.12
325.748	74.92
325.962	93.35
326.175	56.49
326.388	99.5
326.601	83.11
326.814	-41.81
327.027	50.35
327.24	105.64
327.453	-125.78
327.666	1.19
327.879	79.02
328.092	87.21
328.305	87.21
328.518	81.07
328.731	62.63
328.944	13.48
329.157	15.53
329.37	-2.9
329.583	183.46
329.796	99.5
330.009	-31.57
330.222	107.69
330.435	38.06
330.648	1.19
330.861	109.74
331.073	89.26
331.286	169.13
331.499	54.44
331.712	-31.57
331.925	31.91
332.138	27.82
332.35	126.12
332.563	-0.85
332.776	191.66
332.989	-56.15
333.202	27.82
333.414	-13.14
333.627	46.25
333.84	40.11
334.053	109.74
334.265	3.24
334.478	29.87
334.691	-4.95
334.903	107.69
335.116	23.72
335.329	58.54
335.541	46.25
335.754	226.47
335.966	58.54
336.179	126.12
336.392	-41.81
336.604	7.34
336.817	103.59
337.029	15.53
337.242	52.39
337.454	158.89
337.667	66.73
337.88	167.08
338.092	113.83
338.305	60.59
338.517	23.72
338.729	160.94
338.942	165.03
339.154	-13.14
339.367	-17.24
339.579	99.5
339.792	21.67
340.004	113.83
340.217	-21.33
340.429	76.97
340.641	-23.38
340.854	5.29
341.066	48.3
341.278	113.83
341.491	162.98
341.703	46.25
341.915	-62.29
342.128	74.92
342.34	74.92
342.552	-13.14
342.764	66.73
342.977	72.87
343.189	167.08
343.401	85.16
343.613	-43.86
343.826	191.66
344.038	-33.62
344.25	115.88
344.462	-9.05
344.674	23.72
344.886	87.21
345.099	72.87
345.311	111.78
345.523	-35.67
345.735	-23.38
345.947	83.11
346.159	111.78
346.371	-11.09
346.583	31.91
346.795	214.18
347.007	46.25
347.219	81.07
347.431	21.67
347.643	79.02
347.855	1.19
348.067	148.65
348.279	-17.24
348.491	-4.95
348.703	105.64
348.915	7.34
349.127	-35.67
349.339	85.16
349.551	19.63
349.763	70.83
349.975	103.59
350.187	128.17
350.399	132.26
350.61	62.63
350.822	91.31
351.034	87.21
351.246	105.64
351.458	117.93
351.669	50.35
351.881	105.64
352.093	144.55
352.305	103.59
352.517	91.31
352.728	156.84
352.94	99.5
353.152	76.97
353.363	-4.95
353.575	62.63
353.787	150.7
353.999	109.74
354.21	214.18
354.422	-99.16
354.633	-13.14
354.845	56.49
355.057	60.59
355.268	38.06
355.48	119.98
355.692	19.63
355.903	85.16
356.115	-11.09
356.326	-138.07
356.538	105.64
356.749	107.69
356.961	175.27
357.172	31.91
357.384	-62.29
357.595	152.74
357.807	-37.72
358.018	1.19
358.23	87.21
358.441	158.89
358.653	46.25
358.864	15.53
359.075	-4.95
359.287	42.15
359.498	95.4
359.709	56.49
359.921	-17.24
360.132	15.53
360.344	76.97
360.555	1.19
360.766	79.02
360.977	31.91
361.189	48.3
361.4	27.82
361.611	128.17
361.823	132.26
362.034	105.64
362.245	7.34
362.456	58.54
362.667	99.5
362.879	5.29
363.09	68.78
363.301	95.4
363.512	132.26
363.723	-60.24
363.935	-31.57
364.146	101.55
364.357	21.67
364.568	132.26
364.779	-13.14
364.99	193.7
365.201	-15.19
365.412	105.64
365.623	-33.62
365.834	144.55
366.045	93.35
366.256	83.11
366.467	113.83
366.678	15.53
366.889	25.77
367.1	25.77
367.311	130.22
367.522	38.06
367.733	17.58
367.944	58.54
368.155	33.96
368.366	99.5
368.577	119.98
368.788	74.92
368.999	33.96
369.209	48.3
369.42	236.71
369.631	226.47
369.842	128.17
370.053	27.82
370.264	85.16
370.474	13.48
370.685	58.54
370.896	95.4
371.107	142.5
371.317	99.5
371.528	5.29
371.739	117.93
371.95	72.87
372.16	134.31
372.371	-15.19
372.582	36.01
372.792	101.55
373.003	93.35
373.214	48.3
373.424	44.2
373.635	-27.48
373.846	195.75
374.056	72.87
374.267	64.68
374.477	103.59
374.688	-39.76
374.898	31.91
375.109	36.01
375.319	42.15
375.53	95.4
375.74	138.41
375.951	17.58
376.161	70.83
376.372	124.07
376.582	-52.05
376.793	40.11
377.003	31.91
377.214	44.2
377.424	144.55
377.635	87.21
377.845	-0.85
378.055	142.5
378.266	-58.2
378.476	-7
378.686	111.78
378.897	50.35
379.107	74.92
379.317	52.39
379.528	-15.19
379.738	119.98
379.948	-76.63
380.158	124.07
380.369	44.2
380.579	44.2
380.789	36.01
380.999	122.02
381.21	162.98
381.42	296.1
381.63	33.96
381.84	140.46
382.05	97.45
382.261	136.36
382.471	150.7
382.681	3.24
382.891	107.69
383.101	101.55
383.311	15.53
383.521	-54.1
383.731	87.21
383.941	136.36
384.151	89.26
384.361	19.63
384.571	117.93
384.781	85.16
384.991	169.13
385.201	210.09
385.411	154.79
385.621	142.5
385.831	38.06
386.041	50.35
386.251	122.02
386.461	99.5
386.671	17.58
386.881	-43.86
387.091	58.54
387.301	97.45
387.511	13.48
387.72	48.3
387.93	87.21
388.14	17.58
388.35	89.26
388.56	109.74
388.769	117.93
388.979	64.68
389.189	31.91
389.399	124.07
389.609	93.35
389.818	89.26
390.028	70.83
390.238	101.55
390.447	-54.1
390.657	103.59
390.867	52.39
391.076	25.77
391.286	144.55
391.496	107.69
391.705	27.82
391.915	203.94
392.125	152.74
392.334	-9.05
392.544	160.94
392.753	21.67
392.963	5.29
393.172	101.55
393.382	38.06
393.591	109.74
393.801	48.3
394.01	158.89
394.22	79.02
394.429	36.01
394.639	7.34
394.848	152.74
395.058	56.49
395.267	38.06
395.477	169.13
395.686	101.55
395.895	171.18
396.105	189.61
396.314	52.39
396.524	5.29
396.733	40.11
396.942	95.4
397.152	101.55
397.361	117.93
397.57	109.74
397.78	-15.19
397.989	56.49
398.198	228.52
398.407	103.59
398.617	38.06
398.826	38.06
399.035	-11.09
399.244	119.98
399.453	91.31
399.663	25.77
399.872	33.96
400.081	13.48
400.29	136.36
400.499	-86.87
400.708	179.37
400.917	85.16
401.127	-41.81
401.336	89.26
401.545	195.75
401.754	150.7
401.963	81.07
402.172	1.19
402.381	15.53
402.59	3.24
402.799	29.87
403.008	185.51
403.217	70.83
403.426	52.39
403.635	3.24
403.844	54.44
404.053	79.02
404.262	33.96
404.471	109.74
404.68	25.77
404.888	83.11
405.097	27.82
405.306	72.87
405.515	136.36
405.724	23.72
405.933	191.66
406.142	91.31
406.35	181.42
406.559	29.87
406.768	62.63
406.977	205.99
407.185	107.69
407.394	66.73
407.603	-66.39
407.812	66.73
408.02	113.83
408.229	42.15
408.438	79.02
408.646	58.54
408.855	76.97
409.064	113.83
409.272	40.11
409.481	122.02
409.69	48.3
409.898	-2.9
410.107	99.5
410.315	115.88
410.524	-15.19
410.733	97.45
410.941	136.36
411.15	101.55
411.358	91.31
411.567	152.74
411.775	56.49
411.984	56.49
412.192	119.98
412.401	60.59
412.609	220.33
412.818	169.13
413.026	103.59
413.234	109.74
413.443	97.45
413.651	1.19
413.86	93.35
414.068	152.74
414.276	87.21
414.485	58.54
414.693	218.28
414.901	97.45
415.11	89.26
415.318	60.59
415.526	85.16
415.734	122.02
415.943	144.55
416.151	169.13
416.359	103.59
416.567	17.58
416.776	124.07
416.984	136.36
417.192	144.55
417.4	40.11
417.608	62.63
417.817	13.48
418.025	136.36
418.233	183.46
418.441	-25.43
418.649	13.48
418.857	101.55
419.065	193.7
419.273	70.83
419.481	111.78
419.689	97.45
419.897	-25.43
420.105	15.53
420.313	134.31
420.521	173.22
420.729	201.9
420.937	85.16
421.145	46.25
421.353	105.64
421.561	189.61
421.769	171.18
421.977	89.26
422.185	179.37
422.393	105.64
422.601	197.8
422.809	113.83
423.017	66.73
423.224	66.73
423.432	169.13
423.64	134.31
423.848	160.94
424.056	15.53
424.263	76.97
424.471	115.88
424.679	165.03
424.887	-37.72
425.094	218.28
425.302	85.16
425.51	23.72
425.718	171.18
425.925	93.35
426.133	23.72
426.341	203.94
426.548	138.41
426.756	99.5
426.964	115.88
427.171	38.06
427.379	144.55
427.586	91.31
427.794	105.64
428.001	156.84
428.209	48.3
428.417	201.9
428.624	199.85
428.832	197.8
429.039	117.93
429.247	156.84
429.454	132.26
429.662	269.48
429.869	113.83
430.076	169.13
430.284	222.38
430.491	218.28
430.699	187.56
430.906	199.85
431.114	240.81
431.321	173.22
431.528	205.99
431.736	222.38
431.943	191.66
432.15	224.42
432.358	212.14
432.565	292.01
432.772	97.45
432.979	275.62
433.187	173.22
433.394	214.18
433.601	136.36
433.808	244.9
434.016	273.57
434.223	345.25
434.43	330.92
434.637	326.82
434.844	240.81
435.052	296.1
435.259	361.64
435.466	332.97
435.673	335.01
435.88	355.49
436.087	455.84
436.294	453.8
436.501	433.32
436.708	316.58
436.915	347.3
437.122	423.08
437.329	365.73
437.537	439.46
437.743	421.03
437.95	500.9
438.157	482.47
438.364	439.46
438.571	558.24
438.778	568.48
438.985	541.86
439.192	607.39
439.399	511.14
439.606	515.23
439.813	588.96
440.02	740.51
440.227	847.01
440.433	717.98
440.64	668.83
440.847	664.74
441.054	726.18
441.261	793.76
441.467	789.66
441.674	767.13
441.881	760.99
442.088	763.04
442.294	933.02
442.501	941.21
442.708	971.93
442.914	978.08
443.121	1066.14
443.328	1109.15
443.534	1160.34
443.741	1094.81
443.948	1070.23
444.154	1307.8
444.361	1387.67
444.568	1356.95
444.774	1348.76
444.981	1272.98
445.187	1414.29
445.394	1406.1
445.6	1404.05
445.807	1686.67
446.013	1569.94
446.22	1674.39
446.426	1840.27
446.633	1879.18
446.839	2006.16
447.046	1827.98
447.252	2073.74
447.459	2057.36
447.665	2000.01
447.871	2309.26
448.078	2342.02
448.284	2411.65
448.491	2485.38
448.697	2698.37
448.903	2628.74
449.11	2835.58
449.316	2708.61
449.522	3013.76
449.728	3036.28
449.935	3071.1
450.141	3193.98
450.347	3458.17
450.553	3337.34
450.76	3378.3
450.966	3794.03
451.172	3667.06
451.378	4047.98
451.584	3959.92
451.791	4383.85
451.997	4265.07
452.203	4455.53
452.409	4709.47
452.615	4744.29
452.821	4748.39
453.027	4754.53
453.233	5565.53
453.44	5461.08
453.646	5520.47
453.852	5878.86
454.058	5846.1
454.264	6190.16
454.47	6466.63
454.676	6648.9
454.882	7033.92
455.088	6790.21
455.294	7128.13
455.5	7857.2
455.705	8145.97
455.911	8102.96
456.117	8422.44
456.323	8469.55
456.529	8641.57
456.735	9499.67
456.941	9636.89
457.147	10005.52
457.352	10226.7
457.558	10509.32
457.764	11529.21
457.97	11518.97
458.176	12055.54
458.381	12706.79
458.587	12811.24
458.793	13614.04
458.999	13319.14
459.204	15152.07
459.41	15590.33
459.616	15571.9
459.821	16569.26
460.027	17208.23
460.233	17904.54
460.438	17650.59
460.644	19344.26
460.85	19528.58
461.055	19794.81
461.261	21072.75
461.466	20624.24
461.672	21035.88
461.878	23655.23
462.083	23147.34
462.289	23753.54
462.494	24630.07
462.7	25060.14
462.905	24929.07
463.111	26997.52
463.316	28371.71
463.522	28914.42
463.727	29799.14
463.932	30825.17
464.138	32391.87
464.343	33069.75
464.549	33272.49
464.754	35797.64
464.959	36825.72
465.165	37225.07
465.37	37034.61
465.575	37112.44
465.781	39455.31
465.986	40778.3
466.191	40221.25
466.397	40780.35
466.602	39455.31
466.807	42035.75
467.012	42412.58
467.218	43096.6
467.423	43424.28
467.628	44730.88
467.833	46875.1
468.038	45992.43
468.244	44943.87
