Data from USB4F104151__83__10-44-23-569.txt Node

Date: Wed Feb 26 10:44:23 EST 2025
User: louis
Spectrometer: USB4F10415
Trigger mode: 4
Integration Time (sec): 1.000000E-1
Scans to average: 1
Electric dark correction enabled: true
Nonlinearity correction enabled: false
Boxcar width: 0
XAxis mode: Wavelengths
Number of Pixels in Spectrum: 3648
>>>>>Begin Spectral Data<<<<<
178.204	-406.69
178.424	-406.69
178.644	-406.69
178.864	-371.88
179.084	-404.64
179.304	15.19
179.524	-5.29
179.744	27.48
179.964	31.57
180.184	41.81
180.404	-19.63
180.624	-58.54
180.844	-1.19
181.064	-56.49
181.283	-36.01
181.503	4.95
181.723	56.15
181.943	-91.31
182.163	199.51
182.383	-33.96
182.602	86.87
182.822	131.92
183.042	72.53
183.262	-27.82
183.482	39.76
183.701	7
183.921	33.62
184.141	-40.11
184.361	88.92
184.58	60.24
184.8	82.77
185.02	-54.44
185.239	78.68
185.459	136.02
185.679	174.93
185.898	-64.68
186.118	179.03
186.338	80.72
186.557	154.45
186.777	-31.91
186.997	-38.06
187.216	93.01
187.436	232.27
187.655	21.33
187.875	84.82
188.095	2.9
188.314	154.45
188.534	150.36
188.753	-38.06
188.973	93.01
189.192	195.41
189.412	25.43
189.631	-31.91
189.851	70.48
190.07	168.79
190.29	11.09
190.509	-1.19
190.729	4.95
190.948	152.4
191.168	228.18
191.387	101.2
191.607	7
191.826	80.72
192.045	33.62
192.265	17.24
192.484	88.92
192.704	47.96
192.923	-50.35
193.142	129.88
193.362	88.92
193.581	160.59
193.8	74.58
194.02	107.35
194.239	45.91
194.458	47.96
194.678	41.81
194.897	-7.34
195.116	7
195.335	58.2
195.555	39.76
195.774	-5.29
195.993	111.44
196.212	70.48
196.432	-3.24
196.651	60.24
196.87	56.15
197.089	306
197.308	56.15
197.528	123.73
197.747	-19.63
197.966	111.44
198.185	129.88
198.404	15.19
198.623	240.47
198.842	148.31
199.062	176.98
199.281	62.29
199.5	101.2
199.719	129.88
199.938	70.48
200.157	148.31
200.376	99.16
200.595	140.12
200.814	78.68
201.033	39.76
201.252	201.55
201.471	41.81
201.69	56.15
201.909	76.63
202.128	90.96
202.347	162.64
202.566	41.81
202.785	-33.96
203.004	33.62
203.223	306
203.442	-19.63
203.661	19.29
203.879	43.86
204.098	109.4
204.317	11.09
204.536	105.3
204.755	121.68
204.974	66.39
205.193	29.52
205.411	140.12
205.63	166.74
205.849	33.62
206.068	133.97
206.287	-21.67
206.505	90.96
206.724	64.34
206.943	17.24
207.162	-1.19
207.381	70.48
207.599	-36.01
207.818	90.96
208.037	-9.39
208.255	115.54
208.474	72.53
208.693	93.01
208.911	60.24
209.13	86.87
209.349	113.49
209.567	78.68
209.786	54.1
210.005	140.12
210.223	-17.58
210.442	-79.02
210.661	72.53
210.879	97.11
211.098	15.19
211.316	105.3
211.535	54.1
211.753	11.09
211.972	19.29
212.191	11.09
212.409	-15.53
212.628	54.1
212.846	-27.82
213.065	84.82
213.283	154.45
213.502	-3.24
213.72	19.29
213.938	-13.48
214.157	-36.01
214.375	125.78
214.594	-31.91
214.812	39.76
215.031	35.67
215.249	105.3
215.467	23.38
215.686	103.25
215.904	82.77
216.122	45.91
216.341	150.36
216.559	19.29
216.778	160.59
216.996	119.64
217.214	82.77
217.432	2.9
217.651	-15.53
217.869	4.95
218.087	39.76
218.306	4.95
218.524	37.72
218.742	-21.67
218.96	123.73
219.179	60.24
219.397	-9.39
219.615	205.65
219.833	121.68
220.051	-60.59
220.27	166.74
220.488	119.64
220.706	90.96
220.924	11.09
221.142	7
221.36	-17.58
221.578	9.05
221.796	78.68
222.015	21.33
222.233	27.48
222.451	179.03
222.669	-64.68
222.887	58.2
223.105	15.19
223.323	70.48
223.541	-21.67
223.759	95.06
223.977	4.95
224.195	140.12
224.413	156.5
224.631	41.81
224.849	129.88
225.067	269.14
225.285	-56.49
225.503	-11.43
225.721	-138.41
225.939	-9.39
226.157	45.91
226.375	154.45
226.592	56.15
226.81	-5.29
227.028	152.4
227.246	45.91
227.464	68.44
227.682	105.3
227.9	19.29
228.117	31.57
228.335	72.53
228.553	80.72
228.771	37.72
228.989	54.1
229.206	119.64
229.424	15.19
229.642	7
229.86	-48.3
230.077	146.26
230.295	-27.82
230.513	138.07
230.731	97.11
230.948	174.93
231.166	150.36
231.384	33.62
231.601	2.9
231.819	90.96
232.037	-19.63
232.254	39.76
232.472	33.62
232.689	21.33
232.907	50
233.125	64.34
233.342	25.43
233.56	31.57
233.777	-56.49
233.995	-1.19
234.213	29.52
234.43	107.35
234.648	43.86
234.865	-27.82
235.083	80.72
235.3	76.63
235.518	138.07
235.735	90.96
235.953	123.73
236.17	31.57
236.388	62.29
236.605	33.62
236.822	115.54
237.04	121.68
237.257	103.25
237.475	47.96
237.692	52.05
237.909	146.26
238.127	-21.67
238.344	113.49
238.562	21.33
238.779	37.72
238.996	21.33
239.214	11.09
239.431	56.15
239.648	-31.91
239.865	117.59
240.083	70.48
240.3	-38.06
240.517	-38.06
240.735	64.34
240.952	152.4
241.169	45.91
241.386	4.95
241.603	25.43
241.821	54.1
242.038	115.54
242.255	160.59
242.472	-81.07
242.689	76.63
242.907	140.12
243.124	70.48
243.341	76.63
243.558	90.96
243.775	4.95
243.992	0.85
244.209	150.36
244.426	211.79
244.643	58.2
244.86	47.96
245.078	129.88
245.295	35.67
245.512	84.82
245.729	0.85
245.946	70.48
246.163	99.16
246.38	7
246.597	86.87
246.814	113.49
247.031	107.35
247.248	-15.53
247.464	109.4
247.681	99.16
247.898	25.43
248.115	111.44
248.332	52.05
248.549	174.93
248.766	156.5
248.983	99.16
249.2	50
249.417	107.35
249.633	-44.2
249.85	70.48
250.067	56.15
250.284	66.39
250.501	64.34
250.717	0.85
250.934	-72.87
251.151	19.29
251.368	21.33
251.585	-21.67
251.801	103.25
252.018	11.09
252.235	125.78
252.451	-23.72
252.668	0.85
252.885	133.97
253.102	84.82
253.318	54.1
253.535	21.33
253.752	17.24
253.968	-23.72
254.185	-72.87
254.401	133.97
254.618	47.96
254.835	-31.91
255.051	121.68
255.268	54.1
255.484	11.09
255.701	52.05
255.917	133.97
256.134	-91.31
256.351	52.05
256.567	-46.25
256.784	4.95
257	-99.5
257.217	101.2
257.433	72.53
257.65	109.4
257.866	103.25
258.082	-40.11
258.299	-1.19
258.515	133.97
258.732	84.82
258.948	-31.91
259.165	29.52
259.381	-50.35
259.597	58.2
259.814	54.1
260.03	72.53
260.246	-1.19
260.463	99.16
260.679	121.68
260.895	45.91
261.112	129.88
261.328	39.76
261.544	2.9
261.761	242.51
261.977	39.76
262.193	29.52
262.409	99.16
262.626	50
262.842	7
263.058	2.9
263.274	68.44
263.49	74.58
263.707	7
263.923	123.73
264.139	4.95
264.355	80.72
264.571	170.83
264.787	11.09
265.004	166.74
265.22	101.2
265.436	7
265.652	13.14
265.868	62.29
266.084	-70.83
266.3	41.81
266.516	45.91
266.732	78.68
266.948	54.1
267.164	-5.29
267.38	168.79
267.596	64.34
267.812	156.5
268.028	17.24
268.244	43.86
268.46	72.53
268.676	-40.11
268.892	97.11
269.108	21.33
269.324	-5.29
269.54	-15.53
269.756	90.96
269.972	11.09
270.188	103.25
270.403	37.72
270.619	66.39
270.835	138.07
271.051	33.62
271.267	95.06
271.483	-42.15
271.698	101.2
271.914	72.53
272.13	-40.11
272.346	23.38
272.562	29.52
272.777	113.49
272.993	11.09
273.209	25.43
273.425	54.1
273.64	27.48
273.856	97.11
274.072	-21.67
274.287	58.2
274.503	82.77
274.719	23.38
274.934	-23.72
275.15	-60.59
275.366	-29.87
275.581	-1.19
275.797	68.44
276.012	111.44
276.228	13.14
276.444	58.2
276.659	113.49
276.875	-29.87
277.09	76.63
277.306	70.48
277.521	93.01
277.737	127.83
277.952	70.48
278.168	54.1
278.383	29.52
278.599	103.25
278.814	47.96
279.03	29.52
279.245	113.49
279.461	60.24
279.676	148.31
279.892	-42.15
280.107	-21.67
280.322	2.9
280.538	113.49
280.753	-19.63
280.969	9.05
281.184	21.33
281.399	82.77
281.615	-3.24
281.83	17.24
282.045	-29.87
282.26	-50.35
282.476	140.12
282.691	129.88
282.906	62.29
283.122	72.53
283.337	-36.01
283.552	19.29
283.767	27.48
283.983	95.06
284.198	29.52
284.413	185.17
284.628	-15.53
284.843	95.06
285.058	88.92
285.274	19.29
285.489	-74.92
285.704	39.76
285.919	4.95
286.134	86.87
286.349	72.53
286.564	50
286.779	84.82
286.995	29.52
287.21	-70.83
287.425	84.82
287.64	-11.43
287.855	25.43
288.07	-79.02
288.285	131.92
288.5	76.63
288.715	164.69
288.93	115.54
289.145	-23.72
289.36	90.96
289.575	9.05
289.79	142.16
290.004	-1.19
290.219	78.68
290.434	50
290.649	68.44
290.864	-21.67
291.079	76.63
291.294	25.43
291.509	103.25
291.724	-25.77
291.938	-13.48
292.153	70.48
292.368	43.86
292.583	127.83
292.798	21.33
293.012	115.54
293.227	-23.72
293.442	7
293.657	119.64
293.871	148.31
294.086	9.05
294.301	205.65
294.516	113.49
294.73	-13.48
294.945	-58.54
295.16	29.52
295.374	170.83
295.589	117.59
295.804	-9.39
296.018	9.05
296.233	125.78
296.447	103.25
296.662	-5.29
296.877	138.07
297.091	138.07
297.306	15.19
297.52	64.34
297.735	23.38
297.949	76.63
298.164	-21.67
298.378	105.3
298.593	-62.63
298.807	11.09
299.022	62.29
299.236	125.78
299.451	60.24
299.665	-11.43
299.88	39.76
300.094	68.44
300.309	2.9
300.523	88.92
300.737	23.38
300.952	76.63
301.166	-60.59
301.381	-27.82
301.595	62.29
301.809	17.24
302.024	31.57
302.238	2.9
302.452	131.92
302.667	56.15
302.881	113.49
303.095	146.26
303.309	125.78
303.524	23.38
303.738	-36.01
303.952	-33.96
304.166	82.77
304.381	-111.78
304.595	179.03
304.809	21.33
305.023	95.06
305.237	41.81
305.452	64.34
305.666	88.92
305.88	123.73
306.094	197.46
306.308	58.2
306.522	105.3
306.736	107.35
306.95	99.16
307.164	31.57
307.379	31.57
307.593	174.93
307.807	205.65
308.021	82.77
308.235	11.09
308.449	-60.59
308.663	107.35
308.877	281.43
309.091	127.83
309.305	60.24
309.519	-38.06
309.733	109.4
309.947	-50.35
310.161	144.21
310.374	86.87
310.588	119.64
310.802	11.09
311.016	-5.29
311.23	142.16
311.444	-5.29
311.658	15.19
311.872	158.55
312.085	242.51
312.299	82.77
312.513	131.92
312.727	129.88
312.941	-13.48
313.154	-5.29
313.368	52.05
313.582	19.29
313.796	29.52
314.009	15.19
314.223	127.83
314.437	58.2
314.651	150.36
314.864	37.72
315.078	97.11
315.292	-15.53
315.505	72.53
315.719	37.72
315.933	140.12
316.146	41.81
316.36	-23.72
316.573	93.01
316.787	99.16
317.001	109.4
317.214	-13.48
317.428	93.01
317.641	-21.67
317.855	-3.24
318.068	54.1
318.282	54.1
318.495	181.07
318.709	56.15
318.922	50
319.136	172.88
319.349	113.49
319.563	33.62
319.776	-1.19
319.99	-50.35
320.203	117.59
320.417	11.09
320.63	101.2
320.843	187.22
321.057	64.34
321.27	66.39
321.483	84.82
321.697	211.79
321.91	64.34
322.124	31.57
322.337	119.64
322.55	-56.49
322.763	70.48
322.977	99.16
323.19	-38.06
323.403	15.19
323.617	123.73
323.83	113.49
324.043	-5.29
324.256	86.87
324.469	-31.91
324.683	152.4
324.896	60.24
325.109	45.91
325.322	-33.96
325.535	117.59
325.748	140.12
325.962	33.62
326.175	103.25
326.388	80.72
326.601	150.36
326.814	2.9
327.027	95.06
327.24	195.41
327.453	-52.39
327.666	88.92
327.879	88.92
328.092	105.3
328.305	68.44
328.518	-27.82
328.731	17.24
328.944	47.96
329.157	37.72
329.37	25.43
329.583	195.41
329.796	146.26
330.009	25.43
330.222	39.76
330.435	80.72
330.648	103.25
330.861	142.16
331.073	80.72
331.286	45.91
331.499	35.67
331.712	-54.44
331.925	21.33
332.138	107.35
332.35	201.55
332.563	-50.35
332.776	127.83
332.989	45.91
333.202	-1.19
333.414	21.33
333.627	41.81
333.84	15.19
334.053	35.67
334.265	-11.43
334.478	21.33
334.691	2.9
334.903	9.05
335.116	-44.2
335.329	43.86
335.541	45.91
335.754	154.45
335.966	60.24
336.179	-48.3
336.392	64.34
336.604	21.33
336.817	70.48
337.029	35.67
337.242	7
337.454	43.86
337.667	140.12
337.88	109.4
338.092	27.48
338.305	80.72
338.517	19.29
338.729	119.64
338.942	234.32
339.154	-27.82
339.367	-58.54
339.579	109.4
339.792	-46.25
340.004	47.96
340.217	-7.34
340.429	95.06
340.641	7
340.854	-13.48
341.066	7
341.278	142.16
341.491	166.74
341.703	-13.48
341.915	64.34
342.128	117.59
342.34	41.81
342.552	-31.91
342.764	29.52
342.977	-19.63
343.189	95.06
343.401	80.72
343.613	-64.68
343.826	-15.53
344.038	-27.82
344.25	19.29
344.462	45.91
344.674	47.96
344.886	72.53
345.099	56.15
345.311	127.83
345.523	-46.25
345.735	-87.21
345.947	95.06
346.159	45.91
346.371	72.53
346.583	70.48
346.795	144.21
347.007	27.48
347.219	56.15
347.431	4.95
347.643	193.36
347.855	86.87
348.067	115.54
348.279	23.38
348.491	58.2
348.703	84.82
348.915	-9.39
349.127	-48.3
349.339	-29.87
349.551	-25.77
349.763	136.02
349.975	33.62
350.187	78.68
350.399	230.23
350.61	41.81
350.822	-11.43
351.034	68.44
351.246	119.64
351.458	156.5
351.669	105.3
351.881	105.3
352.093	70.48
352.305	160.59
352.517	39.76
352.728	111.44
352.94	33.62
353.152	164.69
353.363	39.76
353.575	62.29
353.787	170.83
353.999	-23.72
354.21	148.31
354.422	-38.06
354.633	27.48
354.845	76.63
355.057	64.34
355.268	13.14
355.48	88.92
355.692	-23.72
355.903	70.48
356.115	29.52
356.326	-91.31
356.538	158.55
356.749	109.4
356.961	179.03
357.172	7
357.384	2.9
357.595	219.99
357.807	-13.48
358.018	-60.59
358.23	25.43
358.441	176.98
358.653	86.87
358.864	50
359.075	-25.77
359.287	93.01
359.498	86.87
359.709	138.07
359.921	115.54
360.132	82.77
360.344	33.62
360.555	-1.19
360.766	84.82
360.977	-15.53
361.189	136.02
361.4	-13.48
361.611	109.4
361.823	170.83
362.034	-9.39
362.245	-54.44
362.456	7
362.667	95.06
362.879	50
363.09	62.29
363.301	60.24
363.512	41.81
363.723	-36.01
363.935	-17.58
364.146	90.96
364.357	19.29
364.568	115.54
364.779	-126.12
364.99	129.88
365.201	60.24
365.412	142.16
365.623	23.38
365.834	72.53
366.045	-9.39
366.256	105.3
366.467	105.3
366.678	37.72
366.889	70.48
367.1	13.14
367.311	176.98
367.522	56.15
367.733	76.63
367.944	84.82
368.155	19.29
368.366	113.49
368.577	105.3
368.788	156.5
368.999	41.81
369.209	74.58
369.42	301.9
369.631	181.07
369.842	64.34
370.053	-5.29
370.264	4.95
370.474	-25.77
370.685	52.05
370.896	58.2
371.107	115.54
371.317	158.55
371.528	60.24
371.739	50
371.95	111.44
372.16	152.4
372.371	-66.73
372.582	-19.63
372.792	25.43
373.003	41.81
373.214	117.59
373.424	123.73
373.635	15.19
373.846	99.16
374.056	105.3
374.267	64.34
374.477	60.24
374.688	-1.19
374.898	0.85
375.109	70.48
375.319	35.67
375.53	174.93
375.74	144.21
375.951	31.57
376.161	60.24
376.372	125.78
376.582	13.14
376.793	50
377.003	-13.48
377.214	-44.2
377.424	111.44
377.635	52.05
377.845	0.85
378.055	99.16
378.266	-27.82
378.476	56.15
378.686	115.54
378.897	105.3
379.107	78.68
379.317	19.29
379.528	45.91
379.738	125.78
379.948	-27.82
380.158	25.43
380.369	0.85
380.579	103.25
380.789	41.81
380.999	174.93
381.21	84.82
381.42	166.74
381.63	-13.48
381.84	156.5
382.05	64.34
382.261	105.3
382.471	86.87
382.681	15.19
382.891	213.84
383.101	170.83
383.311	-60.59
383.521	35.67
383.731	45.91
383.941	70.48
384.151	60.24
384.361	43.86
384.571	7
384.781	113.49
384.991	133.97
385.201	197.46
385.411	62.29
385.621	54.1
385.831	97.11
386.041	7
386.251	131.92
386.461	90.96
386.671	54.1
386.881	-13.48
387.091	29.52
387.301	127.83
387.511	35.67
387.72	95.06
387.93	113.49
388.14	11.09
388.35	64.34
388.56	62.29
388.769	142.16
388.979	-19.63
389.189	-54.44
389.399	52.05
389.609	111.44
389.818	78.68
390.028	72.53
390.238	76.63
390.447	17.24
390.657	62.29
390.867	39.76
391.076	-76.97
391.286	56.15
391.496	113.49
391.705	56.15
391.915	213.84
392.125	170.83
392.334	-42.15
392.544	287.57
392.753	86.87
392.963	-25.77
393.172	95.06
393.382	9.05
393.591	154.45
393.801	35.67
394.01	211.79
394.22	156.5
394.429	2.9
394.639	72.53
394.848	78.68
395.058	33.62
395.267	-7.34
395.477	97.11
395.686	41.81
395.895	265.04
396.105	228.18
396.314	70.48
396.524	31.57
396.733	60.24
396.942	133.97
397.152	107.35
397.361	90.96
397.57	33.62
397.78	35.67
397.989	152.4
398.198	203.6
398.407	54.1
398.617	29.52
398.826	99.16
399.035	47.96
399.244	95.06
399.453	41.81
399.663	72.53
399.872	84.82
400.081	-3.24
400.29	217.94
400.499	21.33
400.708	80.72
400.917	74.58
401.127	82.77
401.336	-56.49
401.545	162.64
401.754	107.35
401.963	93.01
402.172	-5.29
402.381	-48.3
402.59	127.83
402.799	95.06
403.008	199.51
403.217	54.1
403.426	97.11
403.635	-31.91
403.844	56.15
404.053	33.62
404.262	-15.53
404.471	41.81
404.68	58.2
404.888	68.44
405.097	41.81
405.306	113.49
405.515	140.12
405.724	54.1
405.933	95.06
406.142	93.01
406.35	90.96
406.559	37.72
406.768	17.24
406.977	146.26
407.185	88.92
407.394	148.31
407.603	-62.63
407.812	56.15
408.02	191.31
408.229	60.24
408.438	142.16
408.646	-85.16
408.855	-3.24
409.064	70.48
409.272	70.48
409.481	172.88
409.69	9.05
409.898	9.05
410.107	60.24
410.315	62.29
410.524	-7.34
410.733	78.68
410.941	37.72
411.15	60.24
411.358	76.63
411.567	93.01
411.775	41.81
411.984	54.1
412.192	78.68
412.401	84.82
412.609	166.74
412.818	131.92
413.026	95.06
413.234	52.05
413.443	0.85
413.651	-1.19
413.86	-5.29
414.068	90.96
414.276	123.73
414.485	15.19
414.693	164.69
414.901	203.6
415.11	127.83
415.318	72.53
415.526	13.14
415.734	119.64
415.943	47.96
416.151	103.25
416.359	90.96
416.567	72.53
416.776	88.92
416.984	131.92
417.192	160.59
417.4	-25.77
417.608	-21.67
417.817	-31.91
418.025	76.63
418.233	176.98
418.441	-13.48
418.649	-74.92
418.857	123.73
419.065	113.49
419.273	15.19
419.481	93.01
419.689	62.29
419.897	-3.24
420.105	-31.91
420.313	158.55
420.521	158.55
420.729	179.03
420.937	43.86
421.145	-11.43
421.353	174.93
421.561	187.22
421.769	90.96
421.977	66.39
422.185	146.26
422.393	82.77
422.601	176.98
422.809	136.02
423.017	66.39
423.224	86.87
423.432	156.5
423.64	68.44
423.848	152.4
424.056	74.58
424.263	103.25
424.471	86.87
424.679	95.06
424.887	101.2
425.094	140.12
425.302	131.92
425.51	37.72
425.718	133.97
425.925	60.24
426.133	17.24
426.341	213.84
426.548	60.24
426.756	17.24
426.964	144.21
427.171	88.92
427.379	125.78
427.586	86.87
427.794	97.11
428.001	174.93
428.209	80.72
428.417	152.4
428.624	86.87
428.832	78.68
429.039	117.59
429.247	68.44
429.454	33.62
429.662	189.27
429.869	179.03
430.076	133.97
430.284	195.41
430.491	226.13
430.699	133.97
430.906	215.89
431.114	146.26
431.321	166.74
431.528	170.83
431.736	62.29
431.943	168.79
432.15	176.98
432.358	197.46
432.565	265.04
432.772	58.2
432.979	207.7
433.187	183.12
433.394	252.75
433.601	35.67
433.808	201.55
434.016	252.75
434.223	187.22
434.43	107.35
434.637	275.28
434.844	293.71
435.052	162.64
435.259	269.14
435.466	232.27
435.673	156.5
435.88	340.82
436.087	287.57
436.294	265.04
436.501	275.28
436.708	252.75
436.915	209.75
437.122	310.1
437.329	215.89
437.537	306
437.743	310.1
437.95	334.67
438.157	150.36
438.364	412.5
438.571	385.87
438.778	342.86
438.985	404.3
439.192	435.02
439.399	420.69
439.606	406.35
439.813	490.32
440.02	596.81
440.227	611.15
440.433	508.75
440.64	428.88
440.847	473.93
441.054	574.28
441.261	697.16
441.467	457.55
441.674	469.84
441.881	598.86
442.088	562
442.294	645.96
442.501	697.16
442.708	701.26
442.914	652.11
443.121	717.64
443.328	691.02
443.534	817.99
443.741	770.89
443.948	748.36
444.154	895.82
444.361	1078.08
444.568	836.42
444.774	920.39
444.981	820.04
445.187	1086.28
445.394	1090.37
445.6	951.11
445.807	1174.34
446.013	1164.1
446.22	1102.66
446.426	1256.26
446.633	1332.03
446.839	1434.43
447.046	1301.31
447.252	1491.77
447.459	1495.87
447.665	1506.11
447.871	1547.07
448.078	1708.86
448.284	1669.95
448.491	1790.78
448.697	1852.22
448.903	1936.18
449.11	2022.2
449.316	1891.13
449.522	1971
449.728	2192.18
449.935	2224.95
450.141	2296.63
450.347	2302.77
450.553	2399.02
450.76	2413.36
450.966	2575.15
451.172	2489.14
451.378	2581.29
451.584	2714.41
451.791	2925.35
451.997	3126.05
452.203	3228.45
452.409	3134.25
452.615	3332.9
452.821	3244.84
453.027	3353.38
453.233	3726.11
453.44	3666.72
453.646	3830.55
453.852	3988.25
454.058	4174.61
454.264	4379.41
454.47	4510.48
454.676	4606.74
454.882	5034.76
455.088	4799.24
455.294	5122.82
455.5	5313.28
455.705	5780.22
455.911	5696.25
456.117	5833.47
456.323	6032.12
456.529	6023.93
456.735	6632.18
456.941	6703.86
457.147	7133.93
457.352	7346.92
457.558	7553.76
457.764	7830.24
457.97	8012.51
458.176	8524.5
458.381	8880.85
458.587	8884.94
458.793	9460.42
458.999	9341.64
459.204	10455.73
459.41	10863.28
459.616	10625.72
459.821	11422.38
460.027	11903.65
460.233	12180.12
460.438	12343.96
460.644	13212.3
460.85	13175.44
461.055	13894.27
461.261	14668.41
461.466	14318.2
461.672	14393.98
461.878	16261.73
462.083	15925.86
462.289	16499.29
462.494	16949.84
462.7	17013.33
462.905	17439.31
463.111	18672.18
463.316	19608.11
463.522	20169.25
463.727	20664.86
463.932	21537.29
464.138	22209.03
464.343	23265.78
464.549	23216.63
464.754	24605.15
464.959	25244.12
465.165	26063.3
465.37	25688.53
465.575	25924.04
465.781	27552.18
465.986	28430.76
466.191	27906.48
466.397	28121.51
466.602	27630
466.807	28893.6
467.012	29831.57
467.218	30177.67
467.423	29989.26
467.628	31162.75
467.833	32573.8
468.038	32180.59
468.244	31193.47
468.449	33059.16
468.654	32391.53
468.859	32164.2
469.064	32369
469.269	31549.81
469.474	31967.6
