Data from USB4F104151__4__10-41-14-590.txt Node

Date: Wed Feb 26 10:41:14 EST 2025
User: louis
Spectrometer: USB4F10415
Trigger mode: 4
Integration Time (sec): 1.000000E-1
Scans to average: 1
Electric dark correction enabled: true
Nonlinearity correction enabled: false
Boxcar width: 0
XAxis mode: Wavelengths
Number of Pixels in Spectrum: 3648
>>>>>Begin Spectral Data<<<<<
178.204	-416.08
178.424	-416.08
178.644	-416.08
178.864	-401.74
179.084	-473.42
179.304	22.19
179.524	-37.2
179.744	18.09
179.964	20.14
180.184	54.95
180.404	34.47
180.624	-59.73
180.844	-12.63
181.064	-74.07
181.283	3.75
181.503	-39.25
181.723	69.29
181.943	-129.36
182.163	163.5
182.383	-65.88
182.602	87.72
182.822	130.73
183.042	-20.82
183.262	-31.06
183.482	-35.16
183.701	-2.39
183.921	61.1
184.141	22.19
184.361	85.67
184.58	120.49
184.8	63.15
185.02	-51.54
185.239	112.3
185.459	65.19
185.679	175.78
185.898	-57.68
186.118	13.99
186.338	85.67
186.557	40.62
186.777	-35.16
186.997	5.8
187.216	40.62
187.436	239.27
187.655	-18.77
187.875	83.63
188.095	69.29
188.314	157.35
188.534	100.01
188.753	-26.96
188.973	104.11
189.192	151.21
189.412	61.1
189.631	20.14
189.851	50.86
190.07	120.49
190.29	-61.78
190.509	-59.73
190.729	65.19
190.948	71.34
191.168	235.18
191.387	122.54
191.607	20.14
191.826	122.54
192.045	63.15
192.265	-12.63
192.484	44.71
192.704	-4.44
192.923	-24.92
193.142	169.64
193.362	100.01
193.581	44.71
193.8	28.33
194.02	134.82
194.239	9.9
194.458	95.91
194.678	-37.2
194.897	-18.77
195.116	-8.53
195.335	69.29
195.555	38.57
195.774	-63.83
195.993	106.15
196.212	44.71
196.432	-84.31
196.651	-65.88
196.87	-12.63
197.089	239.27
197.308	46.76
197.528	73.39
197.747	26.28
197.966	32.43
198.185	136.87
198.404	-41.3
198.623	83.63
198.842	122.54
199.062	89.77
199.281	132.78
199.5	87.72
199.719	73.39
199.938	120.49
200.157	87.72
200.376	73.39
200.595	106.15
200.814	120.49
201.033	75.43
201.252	132.78
201.471	40.62
201.69	138.92
201.909	61.1
202.128	48.81
202.347	83.63
202.566	36.52
202.785	-78.16
203.004	-33.11
203.223	192.17
203.442	40.62
203.661	36.52
203.879	24.23
204.098	112.3
204.317	11.95
204.536	97.96
204.755	81.58
204.974	200.36
205.193	16.04
205.411	149.16
205.63	69.29
205.849	79.53
206.068	-0.34
206.287	-20.82
206.505	118.44
206.724	-49.49
206.943	-2.39
207.162	-49.49
207.381	59.05
207.599	79.53
207.818	77.48
208.037	20.14
208.255	93.87
208.474	13.99
208.693	42.67
208.911	-33.11
209.13	110.25
209.349	85.67
209.567	38.57
209.786	40.62
210.005	40.62
210.223	48.81
210.442	-102.74
210.661	-8.53
210.879	1.71
211.098	20.14
211.316	108.2
211.535	73.39
211.753	52.91
211.972	110.25
212.191	-22.87
212.409	32.43
212.628	112.3
212.846	36.52
213.065	34.47
213.283	134.82
213.502	106.15
213.72	34.47
213.938	44.71
214.157	48.81
214.375	134.82
214.594	-12.63
214.812	75.43
215.031	24.23
215.249	57
215.467	71.34
215.686	-12.63
215.904	120.49
216.122	3.75
216.341	120.49
216.559	91.82
216.778	130.73
216.996	120.49
217.214	9.9
217.432	36.52
217.651	-16.73
217.869	28.33
218.087	63.15
218.306	54.95
218.524	22.19
218.742	30.38
218.96	73.39
219.179	108.2
219.397	40.62
219.615	300.71
219.833	167.59
220.051	-22.87
220.27	104.11
220.488	151.21
220.706	-24.92
220.924	-33.11
221.142	-63.83
221.36	130.73
221.578	11.95
221.796	46.76
222.015	54.95
222.233	5.8
222.451	145.06
222.669	-51.54
222.887	104.11
223.105	20.14
223.323	20.14
223.541	30.38
223.759	30.38
223.977	40.62
224.195	118.44
224.413	130.73
224.631	13.99
224.849	77.48
225.067	206.5
225.285	-20.82
225.503	11.95
225.721	-102.74
225.939	32.43
226.157	85.67
226.375	177.83
226.592	5.8
226.81	59.05
227.028	157.35
227.246	161.45
227.464	1.71
227.682	104.11
227.9	36.52
228.117	54.95
228.335	-18.77
228.553	81.58
228.771	59.05
228.989	36.52
229.206	104.11
229.424	-33.11
229.642	65.19
229.86	13.99
230.077	69.29
230.295	30.38
230.513	130.73
230.731	44.71
230.948	202.41
231.166	149.16
231.384	26.28
231.601	-102.74
231.819	206.5
232.037	-67.92
232.254	-67.92
232.472	-31.06
232.689	13.99
232.907	134.82
233.125	59.05
233.342	-10.58
233.56	-31.06
233.777	46.76
233.995	5.8
234.213	97.96
234.43	138.92
234.648	57
234.865	-6.49
235.083	50.86
235.3	46.76
235.518	120.49
235.735	91.82
235.953	50.86
236.17	-2.39
236.388	34.47
236.605	34.47
236.822	59.05
237.04	112.3
237.257	24.23
237.475	-61.78
237.692	22.19
237.909	108.2
238.127	9.9
238.344	95.91
238.562	100.01
238.779	-33.11
238.996	-31.06
239.214	-10.58
239.431	85.67
239.648	7.85
239.865	93.87
240.083	20.14
240.3	34.47
240.517	28.33
240.735	63.15
240.952	110.25
241.169	13.99
241.386	77.48
241.603	89.77
241.821	32.43
242.038	48.81
242.255	118.44
242.472	-22.87
242.689	36.52
242.907	52.91
243.124	63.15
243.341	69.29
243.558	28.33
243.775	-41.3
243.992	-61.78
244.209	32.43
244.426	200.36
244.643	13.99
244.86	-33.11
245.078	61.1
245.295	83.63
245.512	26.28
245.729	-4.44
245.946	159.4
246.163	30.38
246.38	50.86
246.597	28.33
246.814	73.39
247.031	106.15
247.248	63.15
247.464	42.67
247.681	83.63
247.898	93.87
248.115	50.86
248.332	-26.96
248.549	116.39
248.766	155.3
248.983	97.96
249.2	73.39
249.417	93.87
249.633	1.71
249.85	108.2
250.067	-72.02
250.284	34.47
250.501	126.63
250.717	46.76
250.934	-51.54
251.151	-31.06
251.368	79.53
251.585	61.1
251.801	-37.2
252.018	-2.39
252.235	46.76
252.451	7.85
252.668	44.71
252.885	188.07
253.102	3.75
253.318	38.57
253.535	-2.39
253.752	-12.63
253.968	34.47
254.185	-47.44
254.401	79.53
254.618	26.28
254.835	1.71
255.051	140.97
255.268	20.14
255.484	36.52
255.701	30.38
255.917	28.33
256.134	3.75
256.351	20.14
256.567	-51.54
256.784	46.76
257	-39.25
257.217	87.72
257.433	102.06
257.65	-33.11
257.866	153.26
258.082	-8.53
258.299	16.04
258.515	52.91
258.732	3.75
258.948	-33.11
259.165	9.9
259.381	7.85
259.597	85.67
259.814	11.95
260.03	-24.92
260.246	-37.2
260.463	38.57
260.679	130.73
260.895	102.06
261.112	57
261.328	-29.01
261.544	42.67
261.761	136.87
261.977	-10.58
262.193	-26.96
262.409	85.67
262.626	32.43
262.842	69.29
263.058	-53.59
263.274	28.33
263.49	77.48
263.707	57
263.923	28.33
264.139	-65.88
264.355	50.86
264.571	102.06
264.787	-0.34
265.004	65.19
265.22	40.62
265.436	65.19
265.652	3.75
265.868	75.43
266.084	-69.97
266.3	3.75
266.516	-45.4
266.732	48.81
266.948	97.96
267.164	20.14
267.38	186.02
267.596	130.73
267.812	206.5
268.028	20.14
268.244	34.47
268.46	52.91
268.676	-24.92
268.892	28.33
269.108	7.85
269.324	30.38
269.54	-98.64
269.756	120.49
269.972	7.85
270.188	20.14
270.403	-4.44
270.619	32.43
270.835	81.58
271.051	63.15
271.267	-55.64
271.483	28.33
271.698	102.06
271.914	54.95
272.13	77.48
272.346	69.29
272.562	61.1
272.777	157.35
272.993	-10.58
273.209	-18.77
273.425	52.91
273.64	-4.44
273.856	104.11
274.072	32.43
274.287	9.9
274.503	65.19
274.719	48.81
274.934	11.95
275.15	-78.16
275.366	67.24
275.581	-18.77
275.797	18.09
276.012	26.28
276.228	-51.54
276.444	7.85
276.659	136.87
276.875	-16.73
277.09	24.23
277.306	61.1
277.521	73.39
277.737	-4.44
277.952	42.67
278.168	59.05
278.383	32.43
278.599	38.57
278.814	145.06
279.03	46.76
279.245	124.58
279.461	91.82
279.676	136.87
279.892	-18.77
280.107	-18.77
280.322	-49.49
280.538	73.39
280.753	-20.82
280.969	134.82
281.184	44.71
281.399	167.59
281.615	-18.77
281.83	-0.34
282.045	-102.74
282.26	-6.49
282.476	36.52
282.691	71.34
282.906	52.91
283.122	34.47
283.337	-49.49
283.552	61.1
283.767	-20.82
283.983	120.49
284.198	87.72
284.413	34.47
284.628	44.71
284.843	11.95
285.058	120.49
285.274	24.23
285.489	-51.54
285.704	67.24
285.919	-16.73
286.134	40.62
286.349	32.43
286.564	71.34
286.779	188.07
286.995	-35.16
287.21	-39.25
287.425	132.78
287.64	18.09
287.855	91.82
288.07	-14.68
288.285	186.02
288.5	102.06
288.715	5.8
288.93	22.19
289.145	13.99
289.36	169.64
289.575	22.19
289.79	181.93
290.004	67.24
290.219	110.25
290.434	9.9
290.649	1.71
290.864	5.8
291.079	59.05
291.294	110.25
291.509	13.99
291.724	-12.63
291.938	-16.73
292.153	75.43
292.368	-61.78
292.583	97.96
292.798	30.38
293.012	48.81
293.227	20.14
293.442	-41.3
293.657	93.87
293.871	167.59
294.086	9.9
294.301	59.05
294.516	102.06
294.73	57
294.945	-41.3
295.16	61.1
295.374	97.96
295.589	145.06
295.804	7.85
296.018	93.87
296.233	91.82
296.447	40.62
296.662	54.95
296.877	34.47
297.091	155.3
297.306	54.95
297.52	16.04
297.735	26.28
297.949	-16.73
298.164	52.91
298.378	87.72
298.593	-61.78
298.807	-12.63
299.022	40.62
299.236	104.11
299.451	20.14
299.665	22.19
299.88	57
300.094	59.05
300.309	20.14
300.523	50.86
300.737	77.48
300.952	77.48
301.166	26.28
301.381	36.52
301.595	-10.58
301.809	-6.49
302.024	81.58
302.238	1.71
302.452	120.49
302.667	67.24
302.881	151.21
303.095	69.29
303.309	73.39
303.524	-37.2
303.738	65.19
303.952	22.19
304.166	108.2
304.381	-104.79
304.595	177.83
304.809	-12.63
305.023	50.86
305.237	28.33
305.452	-0.34
305.666	48.81
305.88	134.82
306.094	91.82
306.308	69.29
306.522	81.58
306.736	106.15
306.95	71.34
307.164	5.8
307.379	26.28
307.593	110.25
307.807	120.49
308.021	140.97
308.235	95.91
308.449	-57.68
308.663	28.33
308.877	120.49
309.091	65.19
309.305	16.04
309.519	-86.36
309.733	95.91
309.947	-43.35
310.161	108.2
310.374	163.5
310.588	124.58
310.802	3.75
311.016	28.33
311.23	52.91
311.444	40.62
311.658	73.39
311.872	100.01
312.085	151.21
312.299	104.11
312.513	143.02
312.727	93.87
312.941	-45.4
313.154	75.43
313.368	102.06
313.582	11.95
313.796	40.62
314.009	7.85
314.223	50.86
314.437	50.86
314.651	120.49
314.864	28.33
315.078	-33.11
315.292	11.95
315.505	-37.2
315.719	-8.53
315.933	110.25
316.146	24.23
316.36	26.28
316.573	48.81
316.787	26.28
317.001	34.47
317.214	-63.83
317.428	79.53
317.641	20.14
317.855	-61.78
318.068	65.19
318.282	59.05
318.495	206.5
318.709	114.34
318.922	50.86
319.136	206.5
319.349	147.11
319.563	-35.16
319.776	169.64
319.99	-31.06
320.203	91.82
320.417	16.04
320.63	134.82
320.843	206.5
321.057	67.24
321.27	42.67
321.483	122.54
321.697	91.82
321.91	30.38
322.124	38.57
322.337	71.34
322.55	-55.64
322.763	-24.92
322.977	26.28
323.19	26.28
323.403	-0.34
323.617	79.53
323.83	118.44
324.043	-6.49
324.256	42.67
324.469	-117.08
324.683	57
324.896	16.04
325.109	-26.96
325.322	-74.07
325.535	120.49
325.748	126.63
325.962	32.43
326.175	36.52
326.388	120.49
326.601	102.06
326.814	69.29
327.027	-24.92
327.24	186.02
327.453	-63.83
327.666	32.43
327.879	161.45
328.092	63.15
328.305	7.85
328.518	-12.63
328.731	-61.78
328.944	40.62
329.157	116.39
329.37	-20.82
329.583	171.69
329.796	102.06
330.009	-55.64
330.222	52.91
330.435	138.92
330.648	97.96
330.861	95.91
331.073	61.1
331.286	120.49
331.499	61.1
331.712	3.75
331.925	13.99
332.138	-18.77
332.35	36.52
332.563	-6.49
332.776	91.82
332.989	-4.44
333.202	24.23
333.414	61.1
333.627	48.81
333.84	1.71
334.053	-8.53
334.265	-10.58
334.478	-10.58
334.691	61.1
334.903	77.48
335.116	-8.53
335.329	54.95
335.541	59.05
335.754	100.01
335.966	-20.82
336.179	38.57
336.392	28.33
336.604	48.81
336.817	57
337.029	20.14
337.242	73.39
337.454	42.67
337.667	54.95
337.88	175.78
338.092	140.97
338.305	126.63
338.517	30.38
338.729	85.67
338.942	106.15
339.154	-14.68
339.367	-65.88
339.579	108.2
339.792	-51.54
340.004	63.15
340.217	13.99
340.429	-0.34
340.641	-63.83
340.854	-55.64
341.066	50.86
341.278	7.85
341.491	138.92
341.703	118.44
341.915	-94.55
342.128	118.44
342.34	132.78
342.552	-16.73
342.764	63.15
342.977	52.91
343.189	36.52
343.401	128.68
343.613	-43.35
343.826	36.52
344.038	-0.34
344.25	110.25
344.462	-26.96
344.674	7.85
344.886	16.04
345.099	104.11
345.311	61.1
345.523	-4.44
345.735	-35.16
345.947	61.1
346.159	30.38
346.371	11.95
346.583	22.19
346.795	122.54
347.007	65.19
347.219	44.71
347.431	32.43
347.643	140.97
347.855	22.19
348.067	140.97
348.279	-31.06
348.491	7.85
348.703	95.91
348.915	1.71
349.127	-45.4
349.339	102.06
349.551	34.47
349.763	48.81
349.975	30.38
350.187	83.63
350.399	83.63
350.61	73.39
350.822	1.71
351.034	81.58
351.246	147.11
351.458	79.53
351.669	18.09
351.881	104.11
352.093	85.67
352.305	106.15
352.517	63.15
352.728	159.4
352.94	36.52
353.152	87.72
353.363	-29.01
353.575	40.62
353.787	163.5
353.999	102.06
354.21	169.64
354.422	-86.36
354.633	-0.34
354.845	112.3
355.057	106.15
355.268	-2.39
355.48	157.35
355.692	40.62
355.903	26.28
356.115	-29.01
356.326	-59.73
356.538	216.74
356.749	71.34
356.961	73.39
357.172	9.9
357.384	-4.44
357.595	190.12
357.807	-33.11
358.018	26.28
358.23	42.67
358.441	114.34
358.653	57
358.864	22.19
359.075	75.43
359.287	32.43
359.498	93.87
359.709	83.63
359.921	134.82
360.132	18.09
360.344	59.05
360.555	24.23
360.766	38.57
360.977	54.95
361.189	177.83
361.4	67.24
361.611	81.58
361.823	118.44
362.034	69.29
362.245	-98.64
362.456	-35.16
362.667	130.73
362.879	-6.49
363.09	-12.63
363.301	18.09
363.512	52.91
363.723	-4.44
363.935	65.19
364.146	87.72
364.357	40.62
364.568	-8.53
364.779	-76.12
364.99	128.68
365.201	-33.11
365.412	112.3
365.623	-41.3
365.834	63.15
366.045	24.23
366.256	79.53
366.467	69.29
366.678	59.05
366.889	83.63
367.1	28.33
367.311	100.01
367.522	36.52
367.733	110.25
367.944	102.06
368.155	112.3
368.366	73.39
368.577	118.44
368.788	57
368.999	-82.26
369.209	48.81
369.42	222.89
369.631	245.41
369.842	59.05
370.053	61.1
370.264	81.58
370.474	-63.83
370.685	110.25
370.896	48.81
371.107	100.01
371.317	126.63
371.528	75.43
371.739	134.82
371.95	46.76
372.16	110.25
372.371	-20.82
372.582	32.43
372.792	91.82
373.003	30.38
373.214	114.34
373.424	110.25
373.635	-4.44
373.846	173.74
374.056	102.06
374.267	83.63
374.477	151.21
374.688	-20.82
374.898	3.75
375.109	13.99
375.319	63.15
375.53	110.25
375.74	93.87
375.951	57
376.161	79.53
376.372	95.91
376.582	-49.49
376.793	-6.49
377.003	9.9
377.214	-10.58
377.424	83.63
377.635	1.71
377.845	7.85
378.055	126.63
378.266	-20.82
378.476	38.57
378.686	108.2
378.897	-8.53
379.107	42.67
379.317	173.74
379.528	-49.49
379.738	85.67
379.948	24.23
380.158	122.54
380.369	54.95
380.579	128.68
380.789	42.67
380.999	89.77
381.21	93.87
381.42	188.07
381.63	44.71
381.84	81.58
382.05	52.91
382.261	54.95
382.471	100.01
382.681	36.52
382.891	179.88
383.101	97.96
383.311	42.67
383.521	-74.07
383.731	46.76
383.941	140.97
384.151	16.04
384.361	-4.44
384.571	-0.34
384.781	67.24
384.991	136.87
385.201	140.97
385.411	38.57
385.621	97.96
385.831	93.87
386.041	44.71
386.251	-10.58
386.461	97.96
386.671	116.39
386.881	75.43
387.091	13.99
387.301	132.78
387.511	114.34
387.72	108.2
387.93	97.96
388.14	-6.49
388.35	153.26
388.56	85.67
388.769	95.91
388.979	73.39
389.189	1.71
389.399	67.24
389.609	161.45
389.818	159.4
390.028	114.34
390.238	108.2
390.447	-35.16
390.657	71.34
390.867	-18.77
391.076	-63.83
391.286	75.43
391.496	18.09
391.705	77.48
391.915	112.3
392.125	85.67
392.334	3.75
392.544	73.39
392.753	-8.53
392.963	-49.49
393.172	63.15
393.382	-0.34
393.591	112.3
393.801	-16.73
394.01	171.69
394.22	128.68
394.429	57
394.639	-16.73
394.848	36.52
395.058	81.58
395.267	-16.73
395.477	44.71
395.686	71.34
395.895	179.88
396.105	179.88
396.314	52.91
396.524	71.34
396.733	11.95
396.942	122.54
397.152	24.23
397.361	50.86
397.57	20.14
397.78	20.14
397.989	75.43
398.198	151.21
398.407	69.29
398.617	-16.73
398.826	63.15
399.035	-6.49
399.244	83.63
399.453	30.38
399.663	110.25
399.872	136.87
400.081	-67.92
400.29	151.21
400.499	-29.01
400.708	177.83
400.917	69.29
401.127	38.57
401.336	-14.68
401.545	206.5
401.754	110.25
401.963	136.87
402.172	63.15
402.381	-6.49
402.59	7.85
402.799	67.24
403.008	57
403.217	54.95
403.426	57
403.635	-20.82
403.844	-26.96
404.053	26.28
404.262	7.85
404.471	212.65
404.68	75.43
404.888	71.34
405.097	42.67
405.306	3.75
405.515	106.15
405.724	24.23
405.933	93.87
406.142	106.15
406.35	175.78
406.559	9.9
406.768	16.04
406.977	124.58
407.185	13.99
407.394	118.44
407.603	-0.34
407.812	106.15
408.02	93.87
408.229	16.04
408.438	52.91
408.646	-43.35
408.855	77.48
409.064	3.75
409.272	65.19
409.481	59.05
409.69	-14.68
409.898	-10.58
410.107	97.96
410.315	110.25
410.524	-49.49
410.733	147.11
410.941	48.81
411.15	132.78
411.358	149.16
411.567	173.74
411.775	28.33
411.984	36.52
412.192	36.52
412.401	22.19
412.609	171.69
412.818	165.54
413.026	124.58
413.234	34.47
413.443	18.09
413.651	42.67
413.86	46.76
414.068	77.48
414.276	153.26
414.485	24.23
414.693	132.78
414.901	169.64
415.11	95.91
415.318	-12.63
415.526	77.48
415.734	65.19
415.943	81.58
416.151	183.98
416.359	57
416.567	67.24
416.776	77.48
416.984	167.59
417.192	177.83
417.4	-45.4
417.608	28.33
417.817	-6.49
418.025	165.54
418.233	237.22
418.441	1.71
418.649	-69.97
418.857	32.43
419.065	181.93
419.273	-41.3
419.481	89.77
419.689	85.67
419.897	30.38
420.105	-72.02
420.313	54.95
420.521	138.92
420.729	134.82
420.937	-2.39
421.145	-53.59
421.353	75.43
421.561	151.21
421.769	124.58
421.977	-6.49
422.185	75.43
422.393	16.04
422.601	181.93
422.809	93.87
423.017	65.19
423.224	77.48
423.432	91.82
423.64	-12.63
423.848	155.3
424.056	13.99
424.263	100.01
424.471	18.09
424.679	177.83
424.887	32.43
425.094	81.58
425.302	108.2
425.51	-4.44
425.718	71.34
425.925	89.77
426.133	-63.83
426.341	212.65
426.548	5.8
426.756	52.91
426.964	116.39
427.171	40.62
427.379	134.82
427.586	61.1
427.794	165.54
428.001	130.73
428.209	87.72
428.417	138.92
428.624	175.78
428.832	95.91
429.039	120.49
429.247	57
429.454	157.35
429.662	235.18
429.869	173.74
430.076	57
430.284	97.96
430.491	267.94
430.699	181.93
430.906	218.79
431.114	126.63
431.321	198.31
431.528	73.39
431.736	179.88
431.943	171.69
432.15	165.54
432.358	171.69
432.565	220.84
432.772	-10.58
432.979	116.39
433.187	46.76
433.394	183.98
433.601	93.87
433.808	272.04
434.016	173.74
434.223	179.88
434.43	171.69
434.637	286.37
434.844	276.13
435.052	298.66
435.259	239.27
435.466	302.76
435.673	200.36
435.88	267.94
436.087	214.7
436.294	304.81
436.501	284.33
436.708	353.96
436.915	337.57
437.122	353.96
437.329	237.22
437.537	255.65
437.743	321.19
437.95	466.6
438.157	374.44
438.364	376.48
438.571	372.39
438.778	411.3
438.985	450.21
439.192	425.64
439.399	407.2
439.606	409.25
439.813	454.31
440.02	528.03
440.227	667.3
440.433	595.62
440.64	396.96
440.847	487.08
441.054	452.26
441.261	691.87
441.467	511.65
441.674	581.28
441.881	732.83
442.088	583.33
442.294	745.12
442.501	777.89
442.708	794.27
442.914	843.42
443.121	827.04
443.328	747.17
443.534	876.19
443.741	878.24
443.948	730.78
444.154	870.05
444.361	1074.84
444.568	888.48
444.774	1003.16
444.981	880.29
445.187	1017.5
445.394	1107.61
445.6	1070.75
445.807	1293.97
446.013	1146.52
446.22	1173.14
446.426	1300.12
446.633	1429.14
446.839	1504.92
447.046	1248.92
447.252	1527.44
447.459	1513.11
447.665	1537.68
447.871	1787.54
448.078	1844.88
448.284	1812.11
448.491	1941.13
448.697	1945.23
448.903	1945.23
449.11	2061.96
449.316	2049.68
449.522	2229.9
449.728	2293.38
449.935	2489.99
450.141	2317.96
450.347	2666.11
450.553	2539.14
450.76	2694.79
450.966	2821.76
451.172	2745.98
451.378	2930.3
451.584	2995.84
451.791	3192.44
451.997	3272.31
452.203	3288.7
452.409	3569.27
452.615	3712.63
452.821	3571.32
453.027	3593.84
453.233	4150.89
453.44	3929.71
453.646	4220.52
453.852	4406.89
454.058	4374.12
454.264	4572.77
454.47	4845.15
454.676	5076.57
454.882	5592.66
455.088	5242.46
455.294	5539.41
455.5	5674.58
455.705	6227.53
455.911	6100.56
456.117	6389.32
456.323	6497.86
456.529	6465.1
456.735	7194.17
456.941	7296.57
457.147	7745.08
457.352	7689.78
457.558	7835.19
457.764	8568.36
457.97	8803.88
458.176	9080.35
458.381	9485.85
458.587	9862.68
458.793	10188.3
458.999	10169.87
459.204	11437.56
459.41	11554.3
459.616	11499
459.821	12299.76
460.027	12912.1
460.233	13460.96
460.438	13512.16
460.644	14253.52
460.85	14542.28
461.055	14927.3
461.261	15676.86
461.466	15412.67
461.672	15603.13
461.878	17454.5
462.083	17450.4
462.289	17829.27
462.494	18460.05
462.7	18705.81
462.905	18929.03
463.111	20403.57
463.316	21517.67
463.522	21863.77
463.727	22449.49
463.932	23375.17
464.138	24114.49
464.343	24841.52
464.549	24935.73
464.754	27041.04
464.959	27776.26
465.165	28232.96
465.37	27841.79
465.575	27757.83
465.781	29740.26
465.986	30637.27
466.191	30248.16
466.397	30665.94
466.602	29904.1
466.807	31282.38
467.012	31933.64
467.218	32601.27
467.423	32511.16
467.628	33719.46
467.833	35251.34
468.038	34677.91
468.244	34256.03
468.449	35710.09
468.654	35062.93
468.859	34978.96
