Data from USB4F104151__60__10-43-48-474.txt Node

Date: Wed Feb 26 10:43:48 EST 2025
User: louis
Spectrometer: USB4F10415
Trigger mode: 4
Integration Time (sec): 1.000000E-1
Scans to average: 1
Electric dark correction enabled: true
Nonlinearity correction enabled: false
Boxcar width: 0
XAxis mode: Wavelengths
Number of Pixels in Spectrum: 3648
>>>>>Begin Spectral Data<<<<<
178.204	-441.51
178.424	-441.51
178.644	-441.51
178.864	-447.65
179.084	-388.26
179.304	-93.35
179.524	-40.11
179.744	45.91
179.964	109.4
180.184	2.9
180.404	0.85
180.624	54.1
180.844	-23.72
181.064	-46.25
181.283	-5.29
181.503	-56.49
181.723	52.05
181.943	-126.12
182.163	166.74
182.383	7
182.602	50
182.822	123.73
183.042	0.85
183.262	-50.35
183.482	37.72
183.701	2.9
183.921	31.57
184.141	-38.06
184.361	17.24
184.58	13.14
184.8	35.67
185.02	-9.39
185.239	93.01
185.459	156.5
185.679	37.72
185.898	-124.07
186.118	9.05
186.338	105.3
186.557	84.82
186.777	-83.11
186.997	-15.53
187.216	68.44
187.436	172.88
187.655	62.29
187.875	164.69
188.095	-52.39
188.314	103.25
188.534	140.12
188.753	7
188.973	127.83
189.192	156.5
189.412	11.09
189.631	25.43
189.851	119.64
190.07	129.88
190.29	33.62
190.509	-52.39
190.729	66.39
190.948	82.77
191.168	271.19
191.387	33.62
191.607	2.9
191.826	45.91
192.045	39.76
192.265	-7.34
192.484	99.16
192.704	-17.58
192.923	-1.19
193.142	150.36
193.362	0.85
193.581	183.12
193.8	23.38
194.02	103.25
194.239	23.38
194.458	56.15
194.678	7
194.897	-23.72
195.116	27.48
195.335	58.2
195.555	90.96
195.774	0.85
195.993	72.53
196.212	-9.39
196.432	-1.19
196.651	15.19
196.87	43.86
197.089	230.23
197.308	39.76
197.528	62.29
197.747	-99.5
197.966	78.68
198.185	90.96
198.404	29.52
198.623	93.01
198.842	95.06
199.062	56.15
199.281	121.68
199.5	54.1
199.719	78.68
199.938	23.38
200.157	95.06
200.376	146.26
200.595	60.24
200.814	111.44
201.033	-60.59
201.252	117.59
201.471	84.82
201.69	19.29
201.909	25.43
202.128	95.06
202.347	109.4
202.566	21.33
202.785	-7.34
203.004	0.85
203.223	267.09
203.442	-15.53
203.661	-5.29
203.879	13.14
204.098	78.68
204.317	-25.77
204.536	15.19
204.755	33.62
204.974	23.38
205.193	-36.01
205.411	84.82
205.63	99.16
205.849	105.3
206.068	-17.58
206.287	-29.87
206.505	142.16
206.724	17.24
206.943	39.76
207.162	25.43
207.381	58.2
207.599	25.43
207.818	23.38
208.037	56.15
208.255	39.76
208.474	37.72
208.693	160.59
208.911	41.81
209.13	97.11
209.349	136.02
209.567	144.21
209.786	125.78
210.005	95.06
210.223	-27.82
210.442	-162.98
210.661	41.81
210.879	35.67
211.098	39.76
211.316	31.57
211.535	93.01
211.753	78.68
211.972	54.1
212.191	-13.48
212.409	25.43
212.628	131.92
212.846	-79.02
213.065	66.39
213.283	86.87
213.502	-9.39
213.72	-3.24
213.938	11.09
214.157	-42.15
214.375	123.73
214.594	7
214.812	39.76
215.031	-64.68
215.249	-38.06
215.467	58.2
215.686	-9.39
215.904	19.29
216.122	54.1
216.341	97.11
216.559	-7.34
216.778	109.4
216.996	148.31
217.214	-25.77
217.432	-40.11
217.651	-87.21
217.869	31.57
218.087	78.68
218.306	0.85
218.524	7
218.742	-3.24
218.96	39.76
219.179	78.68
219.397	-9.39
219.615	252.75
219.833	88.92
220.051	0.85
220.27	107.35
220.488	76.63
220.706	56.15
220.924	-48.3
221.142	-19.63
221.36	144.21
221.578	11.09
221.796	-25.77
222.015	105.3
222.233	82.77
222.451	148.31
222.669	-62.63
222.887	144.21
223.105	-68.78
223.323	-81.07
223.541	-44.2
223.759	93.01
223.977	29.52
224.195	152.4
224.413	119.64
224.631	88.92
224.849	74.58
225.067	222.03
225.285	-15.53
225.503	-21.67
225.721	-21.67
225.939	-70.83
226.157	70.48
226.375	154.45
226.592	54.1
226.81	41.81
227.028	107.35
227.246	31.57
227.464	-5.29
227.682	84.82
227.9	105.3
228.117	52.05
228.335	78.68
228.553	-1.19
228.771	15.19
228.989	11.09
229.206	111.44
229.424	7
229.642	-38.06
229.86	17.24
230.077	115.54
230.295	23.38
230.513	82.77
230.731	7
230.948	140.12
231.166	156.5
231.384	-38.06
231.601	17.24
231.819	166.74
232.037	7
232.254	-21.67
232.472	21.33
232.689	23.38
232.907	101.2
233.125	4.95
233.342	11.09
233.56	17.24
233.777	62.29
233.995	-42.15
234.213	115.54
234.43	82.77
234.648	39.76
234.865	-9.39
235.083	93.01
235.3	70.48
235.518	119.64
235.735	174.93
235.953	31.57
236.17	50
236.388	-66.73
236.605	17.24
236.822	109.4
237.04	76.63
237.257	7
237.475	7
237.692	37.72
237.909	119.64
238.127	-29.87
238.344	37.72
238.562	0.85
238.779	0.85
238.996	-93.35
239.214	58.2
239.431	78.68
239.648	-74.92
239.865	156.5
240.083	-1.19
240.3	-68.78
240.517	-3.24
240.735	-23.72
240.952	176.98
241.169	35.67
241.386	113.49
241.603	17.24
241.821	-9.39
242.038	86.87
242.255	95.06
242.472	-31.91
242.689	33.62
242.907	84.82
243.124	15.19
243.341	9.05
243.558	23.38
243.775	11.09
243.992	-27.82
244.209	78.68
244.426	209.75
244.643	80.72
244.86	56.15
245.078	129.88
245.295	43.86
245.512	90.96
245.729	37.72
245.946	39.76
246.163	64.34
246.38	54.1
246.597	17.24
246.814	64.34
247.031	41.81
247.248	54.1
247.464	129.88
247.681	15.19
247.898	37.72
248.115	150.36
248.332	-19.63
248.549	154.45
248.766	93.01
248.983	27.48
249.2	86.87
249.417	74.58
249.633	-48.3
249.85	138.07
250.067	64.34
250.284	95.06
250.501	125.78
250.717	31.57
250.934	-56.49
251.151	21.33
251.368	95.06
251.585	41.81
251.801	60.24
252.018	35.67
252.235	33.62
252.451	-56.49
252.668	33.62
252.885	125.78
253.102	136.02
253.318	27.48
253.535	56.15
253.752	-50.35
253.968	0.85
254.185	-85.16
254.401	50
254.618	144.21
254.835	-13.48
255.051	103.25
255.268	115.54
255.484	58.2
255.701	125.78
255.917	-19.63
256.134	9.05
256.351	88.92
256.567	-89.26
256.784	-38.06
257	-23.72
257.217	84.82
257.433	25.43
257.65	27.48
257.866	80.72
258.082	-91.31
258.299	-64.68
258.515	33.62
258.732	2.9
258.948	-48.3
259.165	39.76
259.381	0.85
259.597	82.77
259.814	62.29
260.03	15.19
260.246	-21.67
260.463	97.11
260.679	201.55
260.895	66.39
261.112	86.87
261.328	54.1
261.544	11.09
261.761	164.69
261.977	9.05
262.193	-68.78
262.409	154.45
262.626	107.35
262.842	66.39
263.058	43.86
263.274	90.96
263.49	123.73
263.707	107.35
263.923	84.82
264.139	-44.2
264.355	4.95
264.571	50
264.787	72.53
265.004	95.06
265.22	35.67
265.436	-1.19
265.652	-48.3
265.868	74.58
266.084	-128.17
266.3	13.14
266.516	2.9
266.732	47.96
266.948	41.81
267.164	21.33
267.38	95.06
267.596	95.06
267.812	258.9
268.028	15.19
268.244	-7.34
268.46	39.76
268.676	52.05
268.892	58.2
269.108	-17.58
269.324	-54.44
269.54	-79.02
269.756	150.36
269.972	-76.97
270.188	13.14
270.403	-31.91
270.619	-29.87
270.835	54.1
271.051	-99.5
271.267	31.57
271.483	2.9
271.698	93.01
271.914	37.72
272.13	86.87
272.346	4.95
272.562	13.14
272.777	123.73
272.993	-1.19
273.209	17.24
273.425	68.44
273.64	-87.21
273.856	54.1
274.072	-62.63
274.287	11.09
274.503	2.9
274.719	115.54
274.934	-15.53
275.15	-103.59
275.366	66.39
275.581	-81.07
275.797	35.67
276.012	86.87
276.228	-60.59
276.444	29.52
276.659	201.55
276.875	13.14
277.09	66.39
277.306	58.2
277.521	68.44
277.737	9.05
277.952	152.4
278.168	66.39
278.383	68.44
278.599	50
278.814	64.34
279.03	-29.87
279.245	90.96
279.461	-1.19
279.676	121.68
279.892	-52.39
280.107	-62.63
280.322	43.86
280.538	-31.91
280.753	-21.67
280.969	121.68
281.184	41.81
281.399	105.3
281.615	66.39
281.83	105.3
282.045	-38.06
282.26	86.87
282.476	43.86
282.691	72.53
282.906	74.58
283.122	39.76
283.337	-54.44
283.552	95.06
283.767	-17.58
283.983	136.02
284.198	-36.01
284.413	37.72
284.628	-101.55
284.843	90.96
285.058	54.1
285.274	-3.24
285.489	41.81
285.704	127.83
285.919	-7.34
286.134	39.76
286.349	66.39
286.564	17.24
286.779	123.73
286.995	15.19
287.21	-91.31
287.425	60.24
287.64	13.14
287.855	56.15
288.07	-5.29
288.285	131.92
288.5	62.29
288.715	99.16
288.93	-17.58
289.145	11.09
289.36	13.14
289.575	-21.67
289.79	84.82
290.004	76.63
290.219	56.15
290.434	-15.53
290.649	-17.58
290.864	99.16
291.079	23.38
291.294	31.57
291.509	47.96
291.724	35.67
291.938	-33.96
292.153	95.06
292.368	13.14
292.583	50
292.798	58.2
293.012	76.63
293.227	144.21
293.442	62.29
293.657	21.33
293.871	158.55
294.086	-48.3
294.301	217.94
294.516	70.48
294.73	27.48
294.945	-48.3
295.16	19.29
295.374	119.64
295.589	156.5
295.804	4.95
296.018	37.72
296.233	99.16
296.447	64.34
296.662	-23.72
296.877	103.25
297.091	64.34
297.306	82.77
297.52	19.29
297.735	11.09
297.949	9.05
298.164	9.05
298.378	-25.77
298.593	-21.67
298.807	-11.43
299.022	45.91
299.236	101.2
299.451	13.14
299.665	21.33
299.88	-9.39
300.094	95.06
300.309	-7.34
300.523	2.9
300.737	-11.43
300.952	101.2
301.166	-19.63
301.381	-48.3
301.595	39.76
301.809	74.58
302.024	31.57
302.238	-27.82
302.452	197.46
302.667	60.24
302.881	181.07
303.095	97.11
303.309	52.05
303.524	-38.06
303.738	31.57
303.952	-70.83
304.166	9.05
304.381	-81.07
304.595	150.36
304.809	47.96
305.023	-17.58
305.237	50
305.452	-13.48
305.666	86.87
305.88	84.82
306.094	78.68
306.308	0.85
306.522	50
306.736	-9.39
306.95	101.2
307.164	95.06
307.379	4.95
307.593	103.25
307.807	133.97
308.021	84.82
308.235	101.2
308.449	-91.31
308.663	35.67
308.877	193.36
309.091	62.29
309.305	142.16
309.519	-56.49
309.733	127.83
309.947	-54.44
310.161	54.1
310.374	37.72
310.588	101.2
310.802	-40.11
311.016	2.9
311.23	72.53
311.444	-52.39
311.658	17.24
311.872	146.26
312.085	168.79
312.299	209.75
312.513	25.43
312.727	58.2
312.941	-5.29
313.154	127.83
313.368	41.81
313.582	54.1
313.796	31.57
314.009	-1.19
314.223	133.97
314.437	2.9
314.651	0.85
314.864	41.81
315.078	-72.87
315.292	-44.2
315.505	-3.24
315.719	43.86
315.933	97.11
316.146	-60.59
316.36	19.29
316.573	103.25
316.787	105.3
317.001	68.44
317.214	-64.68
317.428	70.48
317.641	-66.73
317.855	-29.87
318.068	25.43
318.282	56.15
318.495	154.45
318.709	60.24
318.922	54.1
319.136	131.92
319.349	78.68
319.563	37.72
319.776	111.44
319.99	-87.21
320.203	152.4
320.417	19.29
320.63	140.12
320.843	179.03
321.057	125.78
321.27	56.15
321.483	131.92
321.697	80.72
321.91	4.95
322.124	13.14
322.337	54.1
322.55	19.29
322.763	72.53
322.977	-46.25
323.19	-9.39
323.403	19.29
323.617	131.92
323.83	125.78
324.043	54.1
324.256	33.62
324.469	-5.29
324.683	185.17
324.896	-23.72
325.109	41.81
325.322	-25.77
325.535	170.83
325.748	21.33
325.962	-27.82
326.175	4.95
326.388	11.09
326.601	164.69
326.814	-54.44
327.027	78.68
327.24	158.55
327.453	-68.78
327.666	93.01
327.879	131.92
328.092	109.4
328.305	21.33
328.518	4.95
328.731	-29.87
328.944	-7.34
329.157	95.06
329.37	-17.58
329.583	125.78
329.796	226.13
330.009	-64.68
330.222	39.76
330.435	113.49
330.648	99.16
330.861	39.76
331.073	90.96
331.286	138.07
331.499	37.72
331.712	-7.34
331.925	-52.39
332.138	27.48
332.35	50
332.563	52.05
332.776	160.59
332.989	-46.25
333.202	11.09
333.414	11.09
333.627	50
333.84	2.9
334.053	15.19
334.265	-17.58
334.478	11.09
334.691	-44.2
334.903	68.44
335.116	-31.91
335.329	-1.19
335.541	47.96
335.754	183.12
335.966	-89.26
336.179	-36.01
336.392	-44.2
336.604	39.76
336.817	146.26
337.029	43.86
337.242	-44.2
337.454	70.48
337.667	74.58
337.88	129.88
338.092	109.4
338.305	33.62
338.517	23.38
338.729	129.88
338.942	136.02
339.154	-79.02
339.367	-79.02
339.579	82.77
339.792	-40.11
340.004	111.44
340.217	-17.58
340.429	35.67
340.641	0.85
340.854	-38.06
341.066	-3.24
341.278	111.44
341.491	70.48
341.703	74.58
341.915	-25.77
342.128	123.73
342.34	50
342.552	-15.53
342.764	66.39
342.977	101.2
343.189	33.62
343.401	23.38
343.613	17.24
343.826	45.91
344.038	-31.91
344.25	27.48
344.462	7
344.674	68.44
344.886	23.38
345.099	115.54
345.311	9.05
345.523	-11.43
345.735	-33.96
345.947	4.95
346.159	93.01
346.371	-13.48
346.583	-31.91
346.795	60.24
347.007	86.87
347.219	95.06
347.431	-15.53
347.643	99.16
347.855	21.33
348.067	109.4
348.279	-76.97
348.491	93.01
348.703	54.1
348.915	70.48
349.127	-36.01
349.339	80.72
349.551	-33.96
349.763	144.21
349.975	33.62
350.187	136.02
350.399	60.24
350.61	123.73
350.822	39.76
351.034	52.05
351.246	37.72
351.458	-54.44
351.669	7
351.881	115.54
352.093	176.98
352.305	117.59
352.517	103.25
352.728	70.48
352.94	82.77
353.152	140.12
353.363	-50.35
353.575	47.96
353.787	121.68
353.999	166.74
354.21	129.88
354.422	-11.43
354.633	2.9
354.845	123.73
355.057	76.63
355.268	19.29
355.48	125.78
355.692	19.29
355.903	21.33
356.115	-13.48
356.326	-117.93
356.538	191.31
356.749	86.87
356.961	193.36
357.172	29.52
357.384	-7.34
357.595	230.23
357.807	41.81
358.018	31.57
358.23	82.77
358.441	174.93
358.653	136.02
358.864	-23.72
359.075	19.29
359.287	9.05
359.498	66.39
359.709	62.29
359.921	86.87
360.132	21.33
360.344	-33.96
360.555	-11.43
360.766	45.91
360.977	37.72
361.189	74.58
361.4	74.58
361.611	138.07
361.823	93.01
362.034	33.62
362.245	-38.06
362.456	15.19
362.667	105.3
362.879	17.24
363.09	86.87
363.301	21.33
363.512	80.72
363.723	-1.19
363.935	72.53
364.146	129.88
364.357	0.85
364.568	-21.67
364.779	-15.53
364.99	80.72
365.201	-72.87
365.412	162.64
365.623	-48.3
365.834	25.43
366.045	11.09
366.256	54.1
366.467	93.01
366.678	17.24
366.889	50
367.1	99.16
367.311	123.73
367.522	7
367.733	95.06
367.944	90.96
368.155	-23.72
368.366	47.96
368.577	115.54
368.788	185.17
368.999	25.43
369.209	33.62
369.42	193.36
369.631	222.03
369.842	78.68
370.053	50
370.264	74.58
370.474	-68.78
370.685	138.07
370.896	29.52
371.107	133.97
371.317	84.82
371.528	15.19
371.739	60.24
371.95	76.63
372.16	66.39
372.371	-1.19
372.582	27.48
372.792	68.44
373.003	115.54
373.214	52.05
373.424	31.57
373.635	-42.15
373.846	88.92
374.056	58.2
374.267	97.11
374.477	60.24
374.688	-17.58
374.898	119.64
375.109	52.05
375.319	99.16
375.53	111.44
375.74	68.44
375.951	68.44
376.161	125.78
376.372	105.3
376.582	15.19
376.793	64.34
377.003	-29.87
377.214	-29.87
377.424	93.01
377.635	7
377.845	2.9
378.055	181.07
378.266	-23.72
378.476	9.05
378.686	72.53
378.897	-19.63
379.107	105.3
379.317	127.83
379.528	-44.2
379.738	90.96
379.948	70.48
380.158	62.29
380.369	62.29
380.579	56.15
380.789	101.2
380.999	86.87
381.21	74.58
381.42	154.45
381.63	50
381.84	107.35
382.05	90.96
382.261	123.73
382.471	13.14
382.681	97.11
382.891	158.55
383.101	82.77
383.311	-64.68
383.521	19.29
383.731	60.24
383.941	115.54
384.151	88.92
384.361	-11.43
384.571	52.05
384.781	23.38
384.991	183.12
385.201	127.83
385.411	156.5
385.621	107.35
385.831	43.86
386.041	86.87
386.251	33.62
386.461	115.54
386.671	17.24
386.881	80.72
387.091	27.48
387.301	125.78
387.511	33.62
387.72	45.91
387.93	76.63
388.14	23.38
388.35	56.15
388.56	109.4
388.769	60.24
388.979	39.76
389.189	-72.87
389.399	23.38
389.609	72.53
389.818	185.17
390.028	54.1
390.238	90.96
390.447	7
390.657	82.77
390.867	25.43
391.076	-107.69
391.286	82.77
391.496	9.05
391.705	66.39
391.915	170.83
392.125	50
392.334	13.14
392.544	146.26
392.753	-11.43
392.963	54.1
393.172	-11.43
393.382	19.29
393.591	97.11
393.801	-64.68
394.01	140.12
394.22	127.83
394.429	-58.54
394.639	33.62
394.848	76.63
395.058	88.92
395.267	68.44
395.477	68.44
395.686	129.88
395.895	191.31
396.105	211.79
396.314	156.5
396.524	23.38
396.733	-9.39
396.942	121.68
397.152	60.24
397.361	117.59
397.57	-5.29
397.78	64.34
397.989	35.67
398.198	242.51
398.407	64.34
398.617	60.24
398.826	-1.19
399.035	-15.53
399.244	105.3
399.453	-1.19
399.663	9.05
399.872	99.16
400.081	-23.72
400.29	140.12
400.499	4.95
400.708	99.16
400.917	7
401.127	66.39
401.336	-23.72
401.545	207.7
401.754	62.29
401.963	140.12
402.172	84.82
402.381	-64.68
402.59	144.21
402.799	50
403.008	119.64
403.217	109.4
403.426	113.49
403.635	37.72
403.844	68.44
404.053	31.57
404.262	-66.73
404.471	211.79
404.68	127.83
404.888	17.24
405.097	74.58
405.306	27.48
405.515	115.54
405.724	129.88
405.933	144.21
406.142	72.53
406.35	123.73
406.559	19.29
406.768	58.2
406.977	113.49
407.185	11.09
407.394	0.85
407.603	-9.39
407.812	90.96
408.02	142.16
408.229	21.33
408.438	78.68
408.646	11.09
408.855	70.48
409.064	41.81
409.272	88.92
409.481	66.39
409.69	-9.39
409.898	-19.63
410.107	119.64
410.315	47.96
410.524	35.67
410.733	25.43
410.941	62.29
411.15	119.64
411.358	101.2
411.567	197.46
411.775	17.24
411.984	82.77
412.192	133.97
412.401	33.62
412.609	183.12
412.818	125.78
413.026	111.44
413.234	50
413.443	33.62
413.651	64.34
413.86	23.38
414.068	138.07
414.276	219.99
414.485	25.43
414.693	207.7
414.901	150.36
415.11	74.58
415.318	66.39
415.526	11.09
415.734	72.53
415.943	11.09
416.151	129.88
416.359	-9.39
416.567	64.34
416.776	142.16
416.984	133.97
417.192	154.45
417.4	-19.63
417.608	43.86
417.817	-33.96
418.025	154.45
418.233	183.12
418.441	-81.07
418.649	23.38
418.857	84.82
419.065	176.98
419.273	31.57
419.481	103.25
419.689	78.68
419.897	-21.67
420.105	-13.48
420.313	78.68
420.521	138.07
420.729	107.35
420.937	68.44
421.145	17.24
421.353	111.44
421.561	152.4
421.769	84.82
421.977	31.57
422.185	39.76
422.393	86.87
422.601	156.5
422.809	127.83
423.017	33.62
423.224	164.69
423.432	162.64
423.64	64.34
423.848	148.31
424.056	9.05
424.263	97.11
424.471	111.44
424.679	148.31
424.887	-3.24
425.094	138.07
425.302	66.39
425.51	99.16
425.718	88.92
425.925	68.44
426.133	101.2
426.341	199.51
426.548	2.9
426.756	68.44
426.964	64.34
427.171	29.52
427.379	179.03
427.586	125.78
427.794	168.79
428.001	187.22
428.209	105.3
428.417	156.5
428.624	154.45
428.832	107.35
429.039	74.58
429.247	127.83
429.454	197.46
429.662	174.93
429.869	156.5
430.076	117.59
430.284	146.26
430.491	172.88
430.699	172.88
430.906	234.32
431.114	99.16
431.321	101.2
431.528	107.35
431.736	103.25
431.943	181.07
432.15	197.46
432.358	230.23
432.565	234.32
432.772	62.29
432.979	252.75
433.187	187.22
433.394	260.95
433.601	146.26
433.808	269.14
434.016	312.14
434.223	234.32
434.43	336.72
434.637	310.1
434.844	265.04
435.052	232.27
435.259	336.72
435.466	289.62
435.673	312.14
435.88	392.02
436.087	371.54
436.294	398.16
436.501	377.68
436.708	283.47
436.915	410.45
437.122	394.06
437.329	340.82
437.537	396.11
437.743	459.6
437.95	537.42
438.157	377.68
438.364	435.02
438.571	478.03
438.778	510.8
438.985	488.27
439.192	535.37
439.399	551.76
439.606	535.37
439.813	615.24
440.02	734.03
440.227	785.23
440.433	572.24
440.64	672.59
440.847	588.62
441.054	705.35
441.261	789.32
441.467	670.54
441.674	688.97
441.881	928.58
442.088	766.79
442.294	764.75
442.501	891.72
442.708	977.73
442.914	926.54
443.121	987.97
443.328	1076.04
443.534	996.17
443.741	1092.42
443.948	1125.19
444.154	1096.52
444.361	1246.02
444.568	1229.63
444.774	1227.59
444.981	1180.48
445.187	1405.76
445.394	1409.86
445.6	1360.7
445.807	1624.89
446.013	1481.53
446.22	1532.73
446.426	1694.52
446.633	1739.58
446.839	1966.9
447.046	1760.06
447.252	1911.61
447.459	1899.32
447.665	1958.71
447.871	2165.56
448.078	2302.77
448.284	2376.5
448.491	2360.11
448.697	2437.94
448.903	2624.3
449.11	2583.34
449.316	2667.31
449.522	2859.82
449.728	2843.43
449.935	2919.21
450.141	2990.89
450.347	3357.47
450.553	3160.87
450.76	3324.71
450.966	3549.98
451.172	3519.26
451.378	3693.34
451.584	3746.59
451.791	4123.41
451.997	4188.95
452.203	4344.6
452.409	4592.4
452.615	4809.48
452.821	4500.24
453.027	4692.75
453.233	5042.95
453.44	5012.23
453.646	5286.66
453.852	5507.84
454.058	5778.17
454.264	5884.67
454.47	6277.88
454.676	6382.32
454.882	6976.23
455.088	6554.35
455.294	6816.49
455.5	7525.09
455.705	7983.84
455.911	7969.5
456.117	7998.17
456.323	8348.37
456.529	8266.46
456.735	9011.92
456.941	9280.2
457.147	9792.19
457.352	9872.06
457.558	10293.94
457.764	11098.8
457.97	11160.24
458.176	11676.32
458.381	12288.67
458.587	12407.45
458.793	13036.17
458.999	13040.27
459.204	14725.75
459.41	15204.97
459.616	14791.28
459.821	15680.1
460.027	16661.08
460.233	17175.12
460.438	17332.81
460.644	18518.59
460.85	18606.65
461.055	19231.28
461.261	20253.22
461.466	19716.65
461.672	20017.7
461.878	22528.51
462.083	22512.13
462.289	22950.39
462.494	23577.07
462.7	23720.43
462.905	24173.03
463.111	26071.5
463.316	27224.5
463.522	27877.8
463.727	28651.94
463.932	29862.29
464.138	30806.4
464.343	32151.91
464.549	32211.31
464.754	34611.53
464.959	35563.83
465.165	36075.82
465.37	35674.42
465.575	36086.06
465.781	38064.4
465.986	39512.31
466.191	38574.34
466.397	39207.17
466.602	38232.33
466.807	40278.25
467.012	40888.55
467.218	41840.85
467.423	41922.77
467.628	42866.89
467.833	44988.58
468.038	44144.82
468.244	43419.84
468.449	46076.05
468.654	44722.35
468.859	44615.85
469.064	44945.58
469.269	43794.62
469.474	43952.31
469.679	45627.55
