Data from USB4F104151__75__10-44-09-871.txt Node

Date: Wed Feb 26 10:44:09 EST 2025
User: louis
Spectrometer: USB4F10415
Trigger mode: 4
Integration Time (sec): 1.000000E-1
Scans to average: 1
Electric dark correction enabled: true
Nonlinearity correction enabled: false
Boxcar width: 0
XAxis mode: Wavelengths
Number of Pixels in Spectrum: 3648
>>>>>Begin Spectral Data<<<<<
178.204	-411.81
178.424	-411.81
178.644	-411.81
178.864	-481.44
179.084	-368.81
179.304	-6.31
179.524	-98.47
179.744	-6.31
179.964	34.64
180.184	51.03
180.404	89.94
180.624	-16.55
180.844	-26.79
181.064	-43.18
181.283	53.08
181.503	-71.85
181.723	40.79
181.943	-114.86
182.163	274.26
182.383	-43.18
182.602	24.4
182.822	51.03
183.042	57.17
183.262	-51.37
183.482	-92.33
183.701	8.02
183.921	118.61
184.141	-84.14
184.361	75.6
184.58	102.23
184.8	67.41
185.02	5.97
185.239	75.6
185.459	87.89
185.679	73.56
185.898	-51.37
186.118	46.93
186.338	94.04
186.557	122.71
186.777	-80.04
186.997	34.64
187.216	14.17
187.436	165.71
187.655	61.27
187.875	122.71
188.095	51.03
188.314	126.8
188.534	89.94
188.753	-16.55
188.973	141.14
189.192	235.35
189.412	85.84
189.631	69.46
189.851	3.93
190.07	184.15
190.29	-10.41
190.509	1.88
190.729	34.64
190.948	143.19
191.168	270.16
191.387	81.75
191.607	22.36
191.826	48.98
192.045	36.69
192.265	55.12
192.484	46.93
192.704	28.5
192.923	-2.22
193.142	243.54
193.362	79.7
193.581	141.14
193.8	98.13
194.02	130.9
194.239	114.52
194.458	126.8
194.678	75.6
194.897	14.17
195.116	96.08
195.335	44.88
195.555	38.74
195.774	44.88
195.993	118.61
196.212	-18.6
196.432	-63.66
196.651	-6.31
196.87	-10.41
197.089	190.29
197.308	102.23
197.528	163.67
197.747	-26.79
197.966	53.08
198.185	145.24
198.404	26.45
198.623	98.13
198.842	149.33
199.062	159.57
199.281	157.52
199.5	18.26
199.719	83.8
199.938	42.84
200.157	79.7
200.376	157.52
200.595	149.33
200.814	102.23
201.033	16.21
201.252	157.52
201.471	34.64
201.69	48.98
201.909	53.08
202.128	186.19
202.347	147.28
202.566	55.12
202.785	-28.84
203.004	-30.89
203.223	245.59
203.442	57.17
203.661	-32.94
203.879	147.28
204.098	139.09
204.317	-37.03
204.536	108.37
204.755	149.33
204.974	108.37
205.193	18.26
205.411	130.9
205.63	132.95
205.849	112.47
206.068	28.5
206.287	36.69
206.505	151.38
206.724	61.27
206.943	-22.7
207.162	69.46
207.381	36.69
207.599	26.45
207.818	46.93
208.037	-67.75
208.255	114.52
208.474	40.79
208.693	98.13
208.911	59.22
209.13	91.99
209.349	73.56
209.567	79.7
209.786	167.76
210.005	108.37
210.223	73.56
210.442	-77.99
210.661	51.03
210.879	110.42
211.098	28.5
211.316	-49.32
211.535	106.32
211.753	12.12
211.972	28.5
212.191	-12.46
212.409	-12.46
212.628	106.32
212.846	22.36
213.065	36.69
213.283	130.9
213.502	34.64
213.72	67.41
213.938	110.42
214.157	71.51
214.375	85.84
214.594	-26.79
214.812	192.34
215.031	36.69
215.249	32.6
215.467	30.55
215.686	87.89
215.904	124.76
216.122	57.17
216.341	190.29
216.559	61.27
216.778	135
216.996	159.57
217.214	-51.37
217.432	22.36
217.651	-14.51
217.869	69.46
218.087	65.36
218.306	-18.6
218.524	124.76
218.742	20.31
218.96	102.23
219.179	81.75
219.397	116.56
219.615	186.19
219.833	163.67
220.051	44.88
220.27	108.37
220.488	48.98
220.706	126.8
220.924	71.51
221.142	-8.36
221.36	120.66
221.578	-22.7
221.796	79.7
222.015	83.8
222.233	102.23
222.451	132.95
222.669	-12.46
222.887	85.84
223.105	67.41
223.323	22.36
223.541	-32.94
223.759	-16.55
223.977	-24.75
224.195	196.43
224.413	163.67
224.631	120.66
224.849	59.22
225.067	225.11
225.285	-34.99
225.503	-10.41
225.721	-110.76
225.939	108.37
226.157	20.31
226.375	214.87
226.592	5.97
226.81	57.17
227.028	100.18
227.246	159.57
227.464	91.99
227.682	112.47
227.9	65.36
228.117	89.94
228.335	173.91
228.553	10.07
228.771	71.51
228.989	8.02
229.206	77.65
229.424	36.69
229.642	12.12
229.86	34.64
230.077	122.71
230.295	-8.36
230.513	91.99
230.731	118.61
230.948	194.39
231.166	102.23
231.384	55.12
231.601	-2.22
231.819	180.05
232.037	8.02
232.254	-39.08
232.472	69.46
232.689	36.69
232.907	91.99
233.125	75.6
233.342	-20.65
233.56	-18.6
233.777	69.46
233.995	61.27
234.213	155.47
234.43	73.56
234.648	87.89
234.865	-32.94
235.083	108.37
235.3	63.32
235.518	124.76
235.735	139.09
235.953	145.24
236.17	36.69
236.388	137.04
236.605	34.64
236.822	81.75
237.04	135
237.257	87.89
237.475	18.26
237.692	30.55
237.909	120.66
238.127	77.65
238.344	71.51
238.562	53.08
238.779	-157.86
238.996	-71.85
239.214	79.7
239.431	153.43
239.648	-2.22
239.865	118.61
240.083	28.5
240.3	-53.42
240.517	77.65
240.735	40.79
240.952	192.34
241.169	48.98
241.386	46.93
241.603	34.64
241.821	51.03
242.038	110.42
242.255	77.65
242.472	-37.03
242.689	128.85
242.907	102.23
243.124	32.6
243.341	59.22
243.558	63.32
243.775	10.07
243.992	-26.79
244.209	139.09
244.426	98.13
244.643	126.8
244.86	32.6
245.078	145.24
245.295	91.99
245.512	26.45
245.729	130.9
245.946	71.51
246.163	102.23
246.38	3.93
246.597	75.6
246.814	61.27
247.031	40.79
247.248	73.56
247.464	75.6
247.681	30.55
247.898	-24.75
248.115	71.51
248.332	-45.23
248.549	165.71
248.766	198.48
248.983	126.8
249.2	81.75
249.417	159.57
249.633	-6.31
249.85	124.76
250.067	53.08
250.284	106.32
250.501	110.42
250.717	87.89
250.934	-26.79
251.151	71.51
251.368	20.31
251.585	51.03
251.801	-14.51
252.018	89.94
252.235	149.33
252.451	46.93
252.668	-0.17
252.885	135
253.102	14.17
253.318	59.22
253.535	42.84
253.752	51.03
253.968	-77.99
254.185	-37.03
254.401	69.46
254.618	98.13
254.835	-53.42
255.051	116.56
255.268	-8.36
255.484	89.94
255.701	36.69
255.917	112.47
256.134	-96.43
256.351	-4.27
256.567	-28.84
256.784	100.18
257	-4.27
257.217	163.67
257.433	44.88
257.65	77.65
257.866	116.56
258.082	69.46
258.299	12.12
258.515	34.64
258.732	-69.8
258.948	-34.99
259.165	98.13
259.381	26.45
259.597	59.22
259.814	12.12
260.03	26.45
260.246	-2.22
260.463	149.33
260.679	182.1
260.895	81.75
261.112	57.17
261.328	-39.08
261.544	20.31
261.761	229.2
261.977	20.31
262.193	-20.65
262.409	106.32
262.626	100.18
262.842	42.84
263.058	36.69
263.274	145.24
263.49	116.56
263.707	85.84
263.923	85.84
264.139	-88.23
264.355	106.32
264.571	155.47
264.787	28.5
265.004	110.42
265.22	34.64
265.436	28.5
265.652	38.74
265.868	30.55
266.084	-61.61
266.3	94.04
266.516	-45.23
266.732	100.18
266.948	85.84
267.164	-16.55
267.38	175.95
267.596	87.89
267.812	153.43
268.028	77.65
268.244	83.8
268.46	30.55
268.676	32.6
268.892	5.97
269.108	28.5
269.324	22.36
269.54	1.88
269.756	91.99
269.972	-86.19
270.188	18.26
270.403	-0.17
270.619	69.46
270.835	55.12
271.051	89.94
271.267	16.21
271.483	42.84
271.698	124.76
271.914	91.99
272.13	85.84
272.346	3.93
272.562	96.08
272.777	175.95
272.993	38.74
273.209	38.74
273.425	-0.17
273.64	-22.7
273.856	188.24
274.072	3.93
274.287	-37.03
274.503	161.62
274.719	155.47
274.934	-10.41
275.15	-47.27
275.366	32.6
275.581	20.31
275.797	-28.84
276.012	40.79
276.228	1.88
276.444	98.13
276.659	141.14
276.875	-75.95
277.09	16.21
277.306	87.89
277.521	81.75
277.737	38.74
277.952	130.9
278.168	100.18
278.383	85.84
278.599	96.08
278.814	124.76
279.03	46.93
279.245	180.05
279.461	149.33
279.676	81.75
279.892	46.93
280.107	-34.99
280.322	5.97
280.538	132.95
280.753	12.12
280.969	36.69
281.184	79.7
281.399	225.11
281.615	26.45
281.83	46.93
282.045	22.36
282.26	3.93
282.476	75.6
282.691	87.89
282.906	16.21
283.122	12.12
283.337	18.26
283.552	102.23
283.767	5.97
283.983	190.29
284.198	-24.75
284.413	141.14
284.628	-57.51
284.843	65.36
285.058	112.47
285.274	55.12
285.489	-80.04
285.704	167.76
285.919	83.8
286.134	53.08
286.349	10.07
286.564	-14.51
286.779	73.56
286.995	44.88
287.21	-55.47
287.425	34.64
287.64	10.07
287.855	108.37
288.07	-67.75
288.285	180.05
288.5	51.03
288.715	143.19
288.93	-26.79
289.145	-6.31
289.36	96.08
289.575	83.8
289.79	102.23
290.004	16.21
290.219	149.33
290.434	55.12
290.649	8.02
290.864	108.37
291.079	-16.55
291.294	28.5
291.509	53.08
291.724	38.74
291.938	24.4
292.153	91.99
292.368	69.46
292.583	112.47
292.798	59.22
293.012	65.36
293.227	91.99
293.442	42.84
293.657	122.71
293.871	137.04
294.086	126.8
294.301	206.67
294.516	145.24
294.73	63.32
294.945	91.99
295.16	14.17
295.374	149.33
295.589	53.08
295.804	42.84
296.018	94.04
296.233	98.13
296.447	51.03
296.662	-28.84
296.877	-18.6
297.091	208.72
297.306	40.79
297.52	59.22
297.735	20.31
297.949	79.7
298.164	104.28
298.378	14.17
298.593	-10.41
298.807	34.64
299.022	55.12
299.236	122.71
299.451	20.31
299.665	3.93
299.88	91.99
300.094	55.12
300.309	16.21
300.523	18.26
300.737	1.88
300.952	69.46
301.166	118.61
301.381	-0.17
301.595	1.88
301.809	8.02
302.024	65.36
302.238	-98.47
302.452	221.01
302.667	30.55
302.881	214.87
303.095	112.47
303.309	57.17
303.524	26.45
303.738	48.98
303.952	1.88
304.166	112.47
304.381	-59.56
304.595	159.57
304.809	-30.89
305.023	128.85
305.237	-12.46
305.452	55.12
305.666	81.75
305.88	130.9
306.094	149.33
306.308	44.88
306.522	59.22
306.736	55.12
306.95	118.61
307.164	48.98
307.379	48.98
307.593	132.95
307.807	108.37
308.021	102.23
308.235	137.04
308.449	-10.41
308.663	75.6
308.877	253.78
309.091	24.4
309.305	87.89
309.519	-18.6
309.733	122.71
309.947	16.21
310.161	44.88
310.374	128.85
310.588	112.47
310.802	-94.38
311.016	77.65
311.23	110.42
311.444	32.6
311.658	24.4
311.872	130.9
312.085	118.61
312.299	135
312.513	163.67
312.727	3.93
312.941	-8.36
313.154	57.17
313.368	53.08
313.582	-14.51
313.796	100.18
314.009	57.17
314.223	165.71
314.437	44.88
314.651	69.46
314.864	44.88
315.078	46.93
315.292	-16.55
315.505	32.6
315.719	87.89
315.933	71.51
316.146	59.22
316.36	-26.79
316.573	67.41
316.787	42.84
317.001	128.85
317.214	3.93
317.428	38.74
317.641	38.74
317.855	73.56
318.068	79.7
318.282	38.74
318.495	212.82
318.709	79.7
318.922	32.6
319.136	165.71
319.349	122.71
319.563	10.07
319.776	110.42
319.99	-39.08
320.203	98.13
320.417	85.84
320.63	81.75
320.843	120.66
321.057	65.36
321.27	10.07
321.483	67.41
321.697	108.37
321.91	55.12
322.124	44.88
322.337	98.13
322.55	38.74
322.763	104.28
322.977	44.88
323.19	42.84
323.403	61.27
323.617	120.66
323.83	112.47
324.043	28.5
324.256	83.8
324.469	-49.32
324.683	110.42
324.896	94.04
325.109	83.8
325.322	26.45
325.535	173.91
325.748	180.05
325.962	28.5
326.175	3.93
326.388	57.17
326.601	132.95
326.814	12.12
327.027	67.41
327.24	153.43
327.453	-34.99
327.666	94.04
327.879	83.8
328.092	77.65
328.305	91.99
328.518	75.6
328.731	-22.7
328.944	34.64
329.157	71.51
329.37	44.88
329.583	165.71
329.796	83.8
330.009	14.17
330.222	104.28
330.435	67.41
330.648	139.09
330.861	48.98
331.073	40.79
331.286	126.8
331.499	10.07
331.712	8.02
331.925	116.56
332.138	26.45
332.35	67.41
332.563	46.93
332.776	116.56
332.989	18.26
333.202	-22.7
333.414	16.21
333.627	53.08
333.84	-4.27
334.053	155.47
334.265	18.26
334.478	77.65
334.691	130.9
334.903	94.04
335.116	16.21
335.329	73.56
335.541	147.28
335.754	153.43
335.966	-16.55
336.179	-4.27
336.392	48.98
336.604	55.12
336.817	38.74
337.029	34.64
337.242	51.03
337.454	151.38
337.667	75.6
337.88	100.18
338.092	73.56
338.305	63.32
338.517	61.27
338.729	116.56
338.942	151.38
339.154	-14.51
339.367	-41.13
339.579	141.14
339.792	-6.31
340.004	85.84
340.217	24.4
340.429	67.41
340.641	20.31
340.854	5.97
341.066	79.7
341.278	151.38
341.491	210.77
341.703	98.13
341.915	18.26
342.128	77.65
342.34	153.43
342.552	-12.46
342.764	69.46
342.977	67.41
343.189	130.9
343.401	77.65
343.613	-6.31
343.826	89.94
344.038	-0.17
344.25	98.13
344.462	-6.31
344.674	51.03
344.886	-45.23
345.099	79.7
345.311	91.99
345.523	-82.09
345.735	-77.99
345.947	132.95
346.159	42.84
346.371	73.56
346.583	75.6
346.795	186.19
347.007	-34.99
347.219	114.52
347.431	46.93
347.643	178
347.855	40.79
348.067	153.43
348.279	-26.79
348.491	30.55
348.703	65.36
348.915	-16.55
349.127	20.31
349.339	12.12
349.551	-6.31
349.763	178
349.975	77.65
350.187	108.37
350.399	71.51
350.61	153.43
350.822	79.7
351.034	96.08
351.246	145.24
351.458	57.17
351.669	67.41
351.881	34.64
352.093	112.47
352.305	130.9
352.517	108.37
352.728	169.81
352.94	122.71
353.152	89.94
353.363	-22.7
353.575	14.17
353.787	194.39
353.999	98.13
354.21	169.81
354.422	-39.08
354.633	20.31
354.845	24.4
355.057	24.4
355.268	-22.7
355.48	145.24
355.692	-147.62
355.903	65.36
356.115	32.6
356.326	-69.8
356.538	167.76
356.749	32.6
356.961	83.8
357.172	63.32
357.384	36.69
357.595	276.31
357.807	12.12
358.018	20.31
358.23	61.27
358.441	116.56
358.653	94.04
358.864	65.36
359.075	53.08
359.287	139.09
359.498	194.39
359.709	94.04
359.921	79.7
360.132	46.93
360.344	26.45
360.555	18.26
360.766	116.56
360.977	8.02
361.189	85.84
361.4	1.88
361.611	-2.22
361.823	98.13
362.034	85.84
362.245	-43.18
362.456	75.6
362.667	87.89
362.879	26.45
363.09	100.18
363.301	102.23
363.512	34.64
363.723	-34.99
363.935	22.36
364.146	67.41
364.357	5.97
364.568	71.51
364.779	-4.27
364.99	108.37
365.201	-4.27
365.412	139.09
365.623	-65.71
365.834	71.51
366.045	65.36
366.256	108.37
366.467	163.67
366.678	61.27
366.889	94.04
367.1	108.37
367.311	141.14
367.522	-39.08
367.733	94.04
367.944	104.28
368.155	63.32
368.366	108.37
368.577	167.76
368.788	69.46
368.999	-34.99
369.209	51.03
369.42	259.92
369.631	237.39
369.842	137.04
370.053	81.75
370.264	98.13
370.474	-55.47
370.685	40.79
370.896	10.07
371.107	120.66
371.317	-32.94
371.528	18.26
371.739	108.37
371.95	53.08
372.16	135
372.371	-24.75
372.582	83.8
372.792	81.75
373.003	36.69
373.214	5.97
373.424	139.09
373.635	-32.94
373.846	157.52
374.056	-12.46
374.267	85.84
374.477	104.28
374.688	3.93
374.898	79.7
375.109	118.61
375.319	61.27
375.53	141.14
375.74	89.94
375.951	3.93
376.161	59.22
376.372	214.87
376.582	1.88
376.793	89.94
377.003	1.88
377.214	-10.41
377.424	104.28
377.635	24.4
377.845	34.64
378.055	98.13
378.266	32.6
378.476	12.12
378.686	130.9
378.897	48.98
379.107	100.18
379.317	65.36
379.528	28.5
379.738	83.8
379.948	32.6
380.158	128.85
380.369	110.42
380.579	83.8
380.789	94.04
380.999	180.05
381.21	85.84
381.42	161.62
381.63	69.46
381.84	100.18
382.05	141.14
382.261	128.85
382.471	163.67
382.681	57.17
382.891	169.81
383.101	102.23
383.311	-75.95
383.521	132.95
383.731	124.76
383.941	186.19
384.151	-8.36
384.361	36.69
384.571	83.8
384.781	77.65
384.991	198.48
385.201	180.05
385.411	135
385.621	48.98
385.831	98.13
386.041	24.4
386.251	61.27
386.461	178
386.671	40.79
386.881	104.28
387.091	79.7
387.301	98.13
387.511	38.74
387.72	120.66
387.93	147.28
388.14	-92.33
388.35	24.4
388.56	85.84
388.769	198.48
388.979	24.4
389.189	34.64
389.399	46.93
389.609	38.74
389.818	139.09
390.028	163.67
390.238	48.98
390.447	1.88
390.657	132.95
390.867	32.6
391.076	-20.65
391.286	59.22
391.496	96.08
391.705	75.6
391.915	208.72
392.125	71.51
392.334	34.64
392.544	151.38
392.753	16.21
392.963	-2.22
393.172	87.89
393.382	40.79
393.591	163.67
393.801	12.12
394.01	112.47
394.22	118.61
394.429	18.26
394.639	85.84
394.848	98.13
395.058	28.5
395.267	14.17
395.477	102.23
395.686	79.7
395.895	143.19
396.105	212.82
396.314	53.08
396.524	10.07
396.733	53.08
396.942	175.95
397.152	163.67
397.361	126.8
397.57	163.67
397.78	28.5
397.989	81.75
398.198	239.44
398.407	48.98
398.617	102.23
398.826	69.46
399.035	89.94
399.244	94.04
399.453	114.52
399.663	89.94
399.872	24.4
400.081	36.69
400.29	141.14
400.499	24.4
400.708	81.75
400.917	-8.36
401.127	-24.75
401.336	26.45
401.545	182.1
401.754	87.89
401.963	94.04
402.172	38.74
402.381	-67.75
402.59	22.36
402.799	51.03
403.008	178
403.217	53.08
403.426	171.86
403.635	-28.84
403.844	38.74
404.053	71.51
404.262	22.36
404.471	147.28
404.68	112.47
404.888	175.95
405.097	69.46
405.306	126.8
405.515	135
405.724	108.37
405.933	126.8
406.142	118.61
406.35	120.66
406.559	16.21
406.768	81.75
406.977	202.58
407.185	141.14
407.394	59.22
407.603	14.17
407.812	44.88
408.02	126.8
408.229	36.69
408.438	135
408.646	3.93
408.855	85.84
409.064	38.74
409.272	122.71
409.481	89.94
409.69	-63.66
409.898	-51.37
410.107	98.13
410.315	161.62
410.524	59.22
410.733	5.97
410.941	89.94
411.15	91.99
411.358	12.12
411.567	155.47
411.775	128.85
411.984	53.08
412.192	159.57
412.401	63.32
412.609	261.97
412.818	126.8
413.026	149.33
413.234	53.08
413.443	40.79
413.651	3.93
413.86	75.6
414.068	114.52
414.276	186.19
414.485	20.31
414.693	196.43
414.901	190.29
415.11	44.88
415.318	38.74
415.526	120.66
415.734	139.09
415.943	112.47
416.151	173.91
416.359	-0.17
416.567	71.51
416.776	83.8
416.984	143.19
417.192	198.48
417.4	20.31
417.608	55.12
417.817	24.4
418.025	212.82
418.233	171.86
418.441	40.79
418.649	22.36
418.857	63.32
419.065	210.77
419.273	-26.79
419.481	-12.46
419.689	67.41
419.897	42.84
420.105	8.02
420.313	89.94
420.521	112.47
420.729	206.67
420.937	24.4
421.145	59.22
421.353	91.99
421.561	212.82
421.769	63.32
421.977	110.42
422.185	178
422.393	57.17
422.601	188.24
422.809	124.76
423.017	53.08
423.224	81.75
423.432	161.62
423.64	114.52
423.848	126.8
424.056	51.03
424.263	100.18
424.471	3.93
424.679	130.9
424.887	36.69
425.094	155.47
425.302	110.42
425.51	36.69
425.718	143.19
425.925	77.65
426.133	91.99
426.341	253.78
426.548	79.7
426.756	48.98
426.964	141.14
427.171	-8.36
427.379	128.85
427.586	157.52
427.794	141.14
428.001	178
428.209	128.85
428.417	221.01
428.624	108.37
428.832	227.15
429.039	98.13
429.247	114.52
429.454	169.81
429.662	143.19
429.869	102.23
430.076	182.1
430.284	190.29
430.491	208.72
430.699	178
430.906	239.44
431.114	128.85
431.321	249.68
431.528	128.85
431.736	110.42
431.943	194.39
432.15	253.78
432.358	249.68
432.565	321.36
432.772	55.12
432.979	352.08
433.187	130.9
433.394	253.78
433.601	161.62
433.808	227.15
434.016	251.73
434.223	192.34
434.43	221.01
434.637	239.44
434.844	290.64
435.052	278.35
435.259	272.21
435.466	358.22
435.673	212.82
435.88	366.42
436.087	388.94
436.294	415.57
436.501	364.37
436.708	339.79
436.915	341.84
437.122	442.19
437.329	208.72
437.537	397.14
437.743	327.5
437.95	511.82
438.157	407.38
438.364	380.75
438.571	411.47
438.778	454.48
438.985	481.1
439.192	481.1
439.399	431.95
439.606	526.16
439.813	632.65
440.02	665.42
440.227	698.19
440.433	573.26
440.64	599.88
440.847	558.92
441.054	669.52
441.261	730.95
441.467	696.14
441.674	616.27
441.881	733
442.088	743.24
442.294	825.16
442.501	892.74
442.708	874.31
442.914	812.87
443.121	935.75
443.328	1003.33
443.534	1062.73
443.741	900.94
443.948	868.17
444.154	1005.38
444.361	1300.29
444.568	1158.98
444.774	1187.65
444.981	1140.55
445.187	1294.15
445.394	1236.8
445.6	1294.15
445.807	1427.26
446.013	1371.97
446.22	1304.39
446.426	1535.81
446.633	1509.18
446.839	1799.99
447.046	1546.05
447.252	1795.9
447.459	1744.7
447.665	1734.46
447.871	1959.74
448.078	2023.22
448.284	2078.52
448.491	2111.29
448.697	2311.99
448.903	2414.38
449.11	2289.46
449.316	2365.23
449.522	2533.17
449.728	2729.77
449.935	2795.31
450.141	2852.65
450.347	2998.06
450.553	2885.42
450.76	3032.87
450.966	3112.74
451.172	3086.12
451.378	3303.2
451.584	3350.31
451.791	3591.97
451.997	3694.36
452.203	3933.98
452.409	4085.53
452.615	4073.24
452.821	4026.14
453.027	4173.59
453.233	4671.25
453.44	4677.39
453.646	4783.88
453.852	4923.15
454.058	5263.11
454.264	5439.23
454.47	5818.11
454.676	5609.22
454.882	6332.15
455.088	6053.62
455.294	6344.44
455.5	6598.38
455.705	7216.87
455.911	7093.99
456.117	7257.83
456.323	7470.82
456.529	7442.15
456.735	8281.81
456.941	8402.65
457.147	8869.58
457.352	8971.98
457.558	9256.65
457.764	9871.04
457.97	10024.64
458.176	10436.28
458.381	10950.32
458.587	11200.17
458.793	11746.98
458.999	11798.18
459.204	13225.61
459.41	13700.74
459.616	13463.18
459.821	14403.19
460.027	14870.13
460.233	15511.14
460.438	15928.93
460.644	16551.51
460.85	16682.58
461.055	17249.87
461.261	18368.06
461.466	17788.49
461.672	18310.72
461.878	20395.55
462.083	20147.75
462.289	20573.72
462.494	21716.49
462.7	21442.06
462.905	21675.53
463.111	23385.58
463.316	24802.78
463.522	25163.22
463.727	25767.37
463.932	26959.29
464.138	27780.53
464.343	29117.85
464.549	29146.52
464.754	31528.31
464.959	32132.46
465.165	32576.87
465.37	32372.07
465.575	32626.02
465.781	34731.33
465.986	35816.75
466.191	35306.81
466.397	35646.77
466.602	34612.55
466.807	36488.49
467.012	37133.6
467.218	37700.89
467.423	38186.25
467.628	38618.38
467.833	41090.27
468.038	40010.99
468.244	39585.02
468.449	41864.41
468.654	40543.47
