Data from USB4F104151__153__11-04-30-238.txt Node

Date: Wed Feb 26 11:04:30 EST 2025
User: louis
Spectrometer: USB4F10415
Trigger mode: 4
Integration Time (sec): 1.000000E-1
Scans to average: 1
Electric dark correction enabled: true
Nonlinearity correction enabled: false
Boxcar width: 0
XAxis mode: Wavelengths
Number of Pixels in Spectrum: 3648
>>>>>Begin Spectral Data<<<<<
178.204	-464.38
178.424	-464.38
178.644	-464.38
178.864	-460.28
179.084	-396.79
179.304	-9.73
179.524	-5.63
179.744	14.85
179.964	29.18
180.184	-36.35
180.404	-7.68
180.624	14.85
180.844	20.99
181.064	-69.12
181.283	92.67
181.503	-65.02
181.723	20.99
181.943	-108.03
182.163	119.29
182.383	-99.84
182.602	53.76
182.822	57.86
183.042	41.47
183.262	-1.54
183.482	-24.06
183.701	2.56
183.921	64
184.141	-114.17
184.361	64
184.58	-30.21
184.8	-40.45
185.02	-17.92
185.239	80.38
185.459	115.2
185.679	98.81
185.898	-62.98
186.118	49.66
186.338	12.8
186.557	2.56
186.777	-11.78
186.997	2.56
187.216	-99.84
187.436	131.58
187.655	57.86
187.875	109.05
188.095	27.14
188.314	119.29
188.534	111.1
188.753	-73.21
188.973	55.81
189.192	100.86
189.412	43.52
189.631	-3.58
189.851	-22.02
190.07	111.1
190.29	-42.5
190.509	-58.88
190.729	41.47
190.948	150.01
191.168	248.32
191.387	109.05
191.607	-38.4
191.826	16.9
192.045	-5.63
192.265	-52.74
192.484	72.19
192.704	-13.82
192.923	-34.3
193.142	164.35
193.362	131.58
193.581	29.18
193.8	70.14
194.02	29.18
194.239	10.75
194.458	78.33
194.678	-1.54
194.897	-62.98
195.116	86.53
195.335	23.04
195.555	61.95
195.774	12.8
195.993	113.15
196.212	-83.45
196.432	35.33
196.651	-87.55
196.87	55.81
197.089	180.73
197.308	53.76
197.528	-11.78
197.747	-15.87
197.966	86.53
198.185	70.14
198.404	-30.21
198.623	49.66
198.842	133.63
199.062	25.09
199.281	78.33
199.5	-42.5
199.719	70.14
199.938	43.52
200.157	82.43
200.376	152.06
200.595	145.92
200.814	-3.58
201.033	-71.17
201.252	135.68
201.471	31.23
201.69	121.34
201.909	-22.02
202.128	57.86
202.347	35.33
202.566	-42.5
202.785	-71.17
203.004	-19.97
203.223	195.07
203.442	-13.82
203.661	-38.4
203.879	41.47
204.098	131.58
204.317	-13.82
204.536	90.62
204.755	115.2
204.974	86.53
205.193	-26.11
205.411	66.05
205.63	86.53
205.849	96.77
206.068	23.04
206.287	-52.74
206.505	47.62
206.724	35.33
206.943	-34.3
207.162	66.05
207.381	29.18
207.599	0.51
207.818	27.14
208.037	-1.54
208.255	61.95
208.474	-42.5
208.693	57.86
208.911	-52.74
209.13	70.14
209.349	37.38
209.567	86.53
209.786	39.42
210.005	133.63
210.223	49.66
210.442	-67.07
210.661	64
210.879	25.09
211.098	31.23
211.316	4.61
211.535	45.57
211.753	-1.54
211.972	76.29
212.191	-19.97
212.409	4.61
212.628	109.05
212.846	-46.59
213.065	18.94
213.283	94.72
213.502	31.23
213.72	10.75
213.938	37.38
214.157	-67.07
214.375	115.2
214.594	-1.54
214.812	80.38
215.031	-48.64
215.249	-7.68
215.467	18.94
215.686	70.14
215.904	33.28
216.122	43.52
216.341	76.29
216.559	76.29
216.778	76.29
216.996	76.29
217.214	4.61
217.432	2.56
217.651	-108.03
217.869	18.94
218.087	39.42
218.306	-9.73
218.524	-36.35
218.742	-54.78
218.96	8.7
219.179	6.66
219.397	64
219.615	256.51
219.833	96.77
220.051	-54.78
220.27	82.43
220.488	154.11
220.706	49.66
220.924	55.81
221.142	-24.06
221.36	102.91
221.578	113.15
221.796	-28.16
222.015	-54.78
222.233	25.09
222.451	160.25
222.669	-67.07
222.887	31.23
223.105	-54.78
223.323	20.99
223.541	-11.78
223.759	80.38
223.977	12.8
224.195	111.1
224.413	98.81
224.631	-9.73
224.849	-1.54
225.067	199.16
225.285	-1.54
225.503	-19.97
225.721	-148.99
225.939	78.33
226.157	16.9
226.375	166.4
226.592	14.85
226.81	-46.59
227.028	180.73
227.246	129.53
227.464	-26.11
227.682	137.73
227.9	41.47
228.117	55.81
228.335	27.14
228.553	107.01
228.771	41.47
228.989	70.14
229.206	78.33
229.424	-24.06
229.642	-28.16
229.86	37.38
230.077	51.71
230.295	-52.74
230.513	109.05
230.731	37.38
230.948	172.54
231.166	170.49
231.384	12.8
231.601	6.66
231.819	129.53
232.037	-48.64
232.254	-32.26
232.472	-79.36
232.689	-36.35
232.907	166.4
233.125	-1.54
233.342	10.75
233.56	-36.35
233.777	-28.16
233.995	2.56
234.213	31.23
234.43	47.62
234.648	2.56
234.865	-7.68
235.083	27.14
235.3	2.56
235.518	141.82
235.735	53.76
235.953	27.14
236.17	57.86
236.388	61.95
236.605	39.42
236.822	170.49
237.04	92.67
237.257	51.71
237.475	0.51
237.692	-15.87
237.909	88.57
238.127	-30.21
238.344	72.19
238.562	25.09
238.779	-15.87
238.996	-91.65
239.214	14.85
239.431	70.14
239.648	23.04
239.865	49.66
240.083	86.53
240.3	-32.26
240.517	-28.16
240.735	55.81
240.952	80.38
241.169	41.47
241.386	125.44
241.603	68.09
241.821	-83.45
242.038	145.92
242.255	113.15
242.472	-60.93
242.689	109.05
242.907	55.81
243.124	39.42
243.341	33.28
243.558	-36.35
243.775	-34.3
243.992	-69.12
244.209	158.21
244.426	113.15
244.643	41.47
244.86	-60.93
245.078	141.82
245.295	64
245.512	12.8
245.729	0.51
245.946	107.01
246.163	-26.11
246.38	29.18
246.597	70.14
246.814	59.9
247.031	-34.3
247.248	53.76
247.464	82.43
247.681	68.09
247.898	55.81
248.115	2.56
248.332	-87.55
248.549	64
248.766	174.59
248.983	102.91
249.2	80.38
249.417	88.57
249.633	-7.68
249.85	72.19
250.067	14.85
250.284	61.95
250.501	51.71
250.717	92.67
250.934	-67.07
251.151	29.18
251.368	-69.12
251.585	90.62
251.801	57.86
252.018	-7.68
252.235	98.81
252.451	-19.97
252.668	33.28
252.885	123.39
253.102	10.75
253.318	6.66
253.535	-15.87
253.752	-52.74
253.968	100.86
254.185	-44.54
254.401	-1.54
254.618	129.53
254.835	-48.64
255.051	92.67
255.268	55.81
255.484	39.42
255.701	-93.69
255.917	35.33
256.134	-44.54
256.351	45.57
256.567	-62.98
256.784	29.18
257	-69.12
257.217	113.15
257.433	49.66
257.65	-28.16
257.866	119.29
258.082	-97.79
258.299	-11.78
258.515	-22.02
258.732	-11.78
258.948	-46.59
259.165	2.56
259.381	43.52
259.597	72.19
259.814	-22.02
260.03	29.18
260.246	-11.78
260.463	51.71
260.679	59.9
260.895	8.7
261.112	53.76
261.328	70.14
261.544	-52.74
261.761	113.15
261.977	-26.11
262.193	-40.45
262.409	86.53
262.626	90.62
262.842	-42.5
263.058	31.23
263.274	107.01
263.49	49.66
263.707	37.38
263.923	35.33
264.139	-89.6
264.355	20.99
264.571	76.29
264.787	41.47
265.004	160.25
265.22	23.04
265.436	-58.88
265.652	-44.54
265.868	119.29
266.084	-36.35
266.3	-19.97
266.516	-87.55
266.732	29.18
266.948	35.33
267.164	-124.41
267.38	70.14
267.596	-28.16
267.812	156.16
268.028	-5.63
268.244	-34.3
268.46	31.23
268.676	-17.92
268.892	20.99
269.108	-19.97
269.324	-108.03
269.54	2.56
269.756	90.62
269.972	16.9
270.188	-5.63
270.403	-13.82
270.619	70.14
270.835	29.18
271.051	25.09
271.267	-28.16
271.483	-65.02
271.698	76.29
271.914	53.76
272.13	41.47
272.346	-3.58
272.562	37.38
272.777	172.54
272.993	-5.63
273.209	39.42
273.425	37.38
273.64	-15.87
273.856	119.29
274.072	16.9
274.287	39.42
274.503	84.48
274.719	-5.63
274.934	-48.64
275.15	-114.17
275.366	27.14
275.581	-65.02
275.797	23.04
276.012	-38.4
276.228	39.42
276.444	53.76
276.659	168.45
276.875	-30.21
277.09	-11.78
277.306	-17.92
277.521	18.94
277.737	-24.06
277.952	90.62
278.168	41.47
278.383	-36.35
278.599	-17.92
278.814	86.53
279.03	-48.64
279.245	164.35
279.461	78.33
279.676	16.9
279.892	4.61
280.107	-58.88
280.322	-26.11
280.538	-42.5
280.753	-30.21
280.969	8.7
281.184	109.05
281.399	139.77
281.615	150.01
281.83	139.77
282.045	-95.74
282.26	8.7
282.476	4.61
282.691	59.9
282.906	33.28
283.122	129.53
283.337	8.7
283.552	70.14
283.767	-1.54
283.983	72.19
284.198	20.99
284.413	90.62
284.628	-50.69
284.843	-15.87
285.058	78.33
285.274	18.94
285.489	12.8
285.704	178.69
285.919	27.14
286.134	-9.73
286.349	-11.78
286.564	-40.45
286.779	154.11
286.995	31.23
287.21	-112.13
287.425	39.42
287.64	-24.06
287.855	2.56
288.07	-40.45
288.285	88.57
288.5	0.51
288.715	45.57
288.93	10.75
289.145	-65.02
289.36	137.73
289.575	59.9
289.79	135.68
290.004	-50.69
290.219	141.82
290.434	12.8
290.649	-38.4
290.864	-15.87
291.079	12.8
291.294	29.18
291.509	-42.5
291.724	-5.63
291.938	-58.88
292.153	84.48
292.368	-17.92
292.583	160.25
292.798	43.52
293.012	20.99
293.227	127.49
293.442	-5.63
293.657	45.57
293.871	111.1
294.086	-28.16
294.301	152.06
294.516	109.05
294.73	43.52
294.945	6.66
295.16	-3.58
295.374	88.57
295.589	121.34
295.804	8.7
296.018	64
296.233	88.57
296.447	94.72
296.662	-62.98
296.877	104.96
297.091	68.09
297.306	82.43
297.52	0.51
297.735	53.76
297.949	174.59
298.164	27.14
298.378	-13.82
298.593	-7.68
298.807	-1.54
299.022	55.81
299.236	129.53
299.451	-58.88
299.665	-30.21
299.88	33.28
300.094	23.04
300.309	90.62
300.523	55.81
300.737	43.52
300.952	39.42
301.166	-22.02
301.381	-103.93
301.595	43.52
301.809	-26.11
302.024	-22.02
302.238	-56.83
302.452	168.45
302.667	8.7
302.881	147.97
303.095	129.53
303.309	88.57
303.524	-30.21
303.738	-15.87
303.952	-22.02
304.166	0.51
304.381	-169.47
304.595	147.97
304.809	-50.69
305.023	6.66
305.237	-58.88
305.452	-58.88
305.666	51.71
305.88	78.33
306.094	57.86
306.308	43.52
306.522	20.99
306.736	88.57
306.95	74.24
307.164	-1.54
307.379	27.14
307.593	152.06
307.807	39.42
308.021	100.86
308.235	47.62
308.449	-52.74
308.663	-42.5
308.877	164.35
309.091	8.7
309.305	39.42
309.519	-83.45
309.733	27.14
309.947	-134.65
310.161	64
310.374	139.77
310.588	104.96
310.802	-71.17
311.016	64
311.23	84.48
311.444	-42.5
311.658	47.62
311.872	92.67
312.085	186.88
312.299	107.01
312.513	131.58
312.727	33.28
312.941	-24.06
313.154	23.04
313.368	-48.64
313.582	4.61
313.796	96.77
314.009	35.33
314.223	80.38
314.437	4.61
314.651	78.33
314.864	-13.82
315.078	-58.88
315.292	-11.78
315.505	-11.78
315.719	100.86
315.933	66.05
316.146	6.66
316.36	-34.3
316.573	125.44
316.787	61.95
317.001	90.62
317.214	-36.35
317.428	72.19
317.641	-118.27
317.855	-3.58
318.068	59.9
318.282	4.61
318.495	150.01
318.709	45.57
318.922	25.09
319.136	104.96
319.349	125.44
319.563	-34.3
319.776	2.56
319.99	-32.26
320.203	96.77
320.417	61.95
320.63	98.81
320.843	195.07
321.057	90.62
321.27	-136.7
321.483	109.05
321.697	166.4
321.91	-9.73
322.124	86.53
322.337	47.62
322.55	-36.35
322.763	14.85
322.977	12.8
323.19	6.66
323.403	14.85
323.617	55.81
323.83	84.48
324.043	57.86
324.256	27.14
324.469	-40.45
324.683	82.43
324.896	-15.87
325.109	49.66
325.322	23.04
325.535	41.47
325.748	61.95
325.962	-42.5
326.175	23.04
326.388	41.47
326.601	37.38
326.814	31.23
327.027	31.23
327.24	115.2
327.453	-24.06
327.666	109.05
327.879	78.33
328.092	68.09
328.305	70.14
328.518	10.75
328.731	-15.87
328.944	18.94
329.157	47.62
329.37	23.04
329.583	141.82
329.796	111.1
330.009	-50.69
330.222	43.52
330.435	117.25
330.648	-17.92
330.861	92.67
331.073	0.51
331.286	86.53
331.499	86.53
331.712	-1.54
331.925	-5.63
332.138	94.72
332.35	72.19
332.563	-32.26
332.776	98.81
332.989	-69.12
333.202	20.99
333.414	-50.69
333.627	82.43
333.84	-28.16
334.053	86.53
334.265	-52.74
334.478	-36.35
334.691	25.09
334.903	25.09
335.116	33.28
335.329	-3.58
335.541	-19.97
335.754	86.53
335.966	18.94
336.179	27.14
336.392	-11.78
336.604	8.7
336.817	174.59
337.029	31.23
337.242	68.09
337.454	29.18
337.667	51.71
337.88	115.2
338.092	0.51
338.305	76.29
338.517	-52.74
338.729	141.82
338.942	47.62
339.154	-67.07
339.367	-17.92
339.579	135.68
339.792	-52.74
340.004	94.72
340.217	-17.92
340.429	57.86
340.641	-81.41
340.854	-62.98
341.066	-19.97
341.278	104.96
341.491	129.53
341.703	4.61
341.915	-73.21
342.128	45.57
342.34	16.9
342.552	-46.59
342.764	49.66
342.977	-36.35
343.189	92.67
343.401	68.09
343.613	20.99
343.826	49.66
344.038	-34.3
344.25	115.2
344.462	-13.82
344.674	-17.92
344.886	-48.64
345.099	25.09
345.311	49.66
345.523	10.75
345.735	-91.65
345.947	35.33
346.159	84.48
346.371	-1.54
346.583	104.96
346.795	43.52
347.007	-5.63
347.219	33.28
347.431	-34.3
347.643	27.14
347.855	-97.79
348.067	147.97
348.279	8.7
348.491	35.33
348.703	88.57
348.915	37.38
349.127	25.09
349.339	45.57
349.551	33.28
349.763	86.53
349.975	-58.88
350.187	61.95
350.399	174.59
350.61	70.14
350.822	-24.06
351.034	98.81
351.246	-34.3
351.458	37.38
351.669	109.05
351.881	102.91
352.093	129.53
352.305	129.53
352.517	27.14
352.728	92.67
352.94	45.57
353.152	59.9
353.363	-42.5
353.575	57.86
353.787	182.78
353.999	47.62
354.21	141.82
354.422	-46.59
354.633	-11.78
354.845	53.76
355.057	94.72
355.268	29.18
355.48	57.86
355.692	-105.98
355.903	23.04
356.115	-69.12
356.326	-58.88
356.538	176.64
356.749	59.9
356.961	156.16
357.172	-11.78
357.384	-46.59
357.595	147.97
357.807	66.05
358.018	-11.78
358.23	14.85
358.441	215.55
358.653	96.77
358.864	61.95
359.075	-5.63
359.287	70.14
359.498	133.63
359.709	16.9
359.921	39.42
360.132	-3.58
360.344	115.2
360.555	-67.07
360.766	31.23
360.977	90.62
361.189	94.72
361.4	-77.31
361.611	59.9
361.823	111.1
362.034	27.14
362.245	-22.02
362.456	-1.54
362.667	90.62
362.879	-95.74
363.09	123.39
363.301	31.23
363.512	0.51
363.723	-40.45
363.935	-58.88
364.146	33.28
364.357	20.99
364.568	66.05
364.779	-56.83
364.99	78.33
365.201	4.61
365.412	96.77
365.623	-85.5
365.834	20.99
366.045	2.56
366.256	16.9
366.467	29.18
366.678	31.23
366.889	12.8
367.1	-1.54
367.311	121.34
367.522	-34.3
367.733	66.05
367.944	119.29
368.155	-28.16
368.366	84.48
368.577	111.1
368.788	47.62
368.999	-34.3
369.209	23.04
369.42	158.21
369.631	268.8
369.842	111.1
370.053	-7.68
370.264	51.71
370.474	-15.87
370.685	66.05
370.896	-56.83
371.107	86.53
371.317	74.24
371.528	-15.87
371.739	90.62
371.95	2.56
372.16	39.42
372.371	-50.69
372.582	-30.21
372.792	18.94
373.003	53.76
373.214	33.28
373.424	59.9
373.635	20.99
373.846	94.72
374.056	-7.68
374.267	92.67
374.477	78.33
374.688	-40.45
374.898	18.94
375.109	80.38
375.319	82.43
375.53	162.3
375.74	27.14
375.951	0.51
376.161	80.38
376.372	131.58
376.582	-22.02
376.793	78.33
377.003	14.85
377.214	59.9
377.424	121.34
377.635	-38.4
377.845	31.23
378.055	168.45
378.266	-38.4
378.476	-19.97
378.686	31.23
378.897	12.8
379.107	123.39
379.317	107.01
379.528	16.9
379.738	156.16
379.948	-62.98
380.158	70.14
380.369	66.05
380.579	121.34
380.789	29.18
380.999	113.15
381.21	6.66
381.42	180.73
381.63	-52.74
381.84	86.53
382.05	20.99
382.261	158.21
382.471	143.87
382.681	-19.97
382.891	129.53
383.101	14.85
383.311	37.38
383.521	-56.83
383.731	80.38
383.941	135.68
384.151	20.99
384.361	51.71
384.571	80.38
384.781	4.61
384.991	193.02
385.201	205.31
385.411	64
385.621	94.72
385.831	39.42
386.041	-19.97
386.251	70.14
386.461	59.9
386.671	-42.5
386.881	49.66
387.091	-46.59
387.301	104.96
387.511	6.66
387.72	107.01
387.93	45.57
388.14	-136.7
388.35	12.8
388.56	113.15
388.769	59.9
388.979	31.23
389.189	55.81
389.399	92.67
389.609	45.57
389.818	94.72
390.028	53.76
390.238	61.95
390.447	2.56
390.657	68.09
390.867	55.81
391.076	-38.4
391.286	18.94
391.496	37.38
391.705	16.9
391.915	125.44
392.125	135.68
392.334	14.85
392.544	102.91
392.753	29.18
392.963	-44.54
393.172	18.94
393.382	10.75
393.591	143.87
393.801	-44.54
394.01	129.53
394.22	53.76
394.429	8.7
394.639	45.57
394.848	72.19
395.058	31.23
395.267	-15.87
395.477	66.05
395.686	64
395.895	121.34
396.105	117.25
396.314	-36.35
396.524	53.76
396.733	-1.54
396.942	45.57
397.152	86.53
397.361	80.38
397.57	57.86
397.78	111.1
397.989	55.81
398.198	102.91
398.407	-15.87
398.617	43.52
398.826	8.7
399.035	8.7
399.244	129.53
399.453	23.04
399.663	-11.78
399.872	18.94
400.081	-77.31
400.29	139.77
400.499	-38.4
400.708	129.53
400.917	-34.3
401.127	-19.97
401.336	-11.78
401.545	268.8
401.754	117.25
401.963	59.9
402.172	14.85
402.381	-22.02
402.59	-1.54
402.799	2.56
403.008	129.53
403.217	12.8
403.426	-17.92
403.635	-58.88
403.844	27.14
404.053	64
404.262	-13.82
404.471	176.64
404.68	96.77
404.888	-28.16
405.097	25.09
405.306	55.81
405.515	160.25
405.724	12.8
405.933	80.38
406.142	20.99
406.35	102.91
406.559	-7.68
406.768	4.61
406.977	127.49
407.185	53.76
407.394	102.91
407.603	29.18
407.812	100.86
408.02	80.38
408.229	135.68
408.438	115.2
408.646	-89.6
408.855	53.76
409.064	23.04
409.272	53.76
409.481	98.81
409.69	-50.69
409.898	-112.13
410.107	-26.11
410.315	88.57
410.524	10.75
410.733	27.14
410.941	-13.82
411.15	115.2
411.358	107.01
411.567	70.14
411.775	82.43
411.984	45.57
412.192	78.33
412.401	8.7
412.609	104.96
412.818	209.4
413.026	90.62
413.234	49.66
413.443	45.57
413.651	-11.78
413.86	-13.82
414.068	76.29
414.276	174.59
414.485	-62.98
414.693	227.84
414.901	88.57
415.11	-1.54
415.318	55.81
415.526	74.24
415.734	41.47
415.943	23.04
416.151	143.87
416.359	18.94
416.567	18.94
416.776	51.71
416.984	61.95
417.192	190.97
417.4	33.28
417.608	59.9
417.817	-38.4
418.025	119.29
418.233	166.4
418.441	49.66
418.649	68.09
418.857	-46.59
419.065	141.82
419.273	-44.54
419.481	55.81
419.689	74.24
419.897	-28.16
420.105	-3.58
420.313	66.05
420.521	92.67
420.729	78.33
420.937	8.7
421.145	-46.59
421.353	102.91
421.561	170.49
421.769	55.81
421.977	-71.17
422.185	100.86
422.393	2.56
422.601	139.77
422.809	29.18
423.017	45.57
423.224	27.14
423.432	78.33
423.64	16.9
423.848	117.25
424.056	-44.54
424.263	90.62
424.471	-52.74
424.679	174.59
424.887	90.62
425.094	160.25
425.302	55.81
425.51	-40.45
425.718	57.86
425.925	14.85
426.133	14.85
426.341	166.4
426.548	47.62
426.756	31.23
426.964	98.81
427.171	-17.92
427.379	41.47
427.586	20.99
427.794	188.93
428.001	131.58
428.209	90.62
428.417	188.93
428.624	94.72
428.832	121.34
429.039	129.53
429.247	72.19
429.454	117.25
429.662	193.02
429.869	119.29
430.076	115.2
430.284	96.77
430.491	195.07
430.699	168.45
430.906	162.3
431.114	82.43
431.321	209.4
431.528	92.67
431.736	49.66
431.943	158.21
432.15	141.82
432.358	186.88
432.565	215.55
432.772	6.66
432.979	160.25
433.187	170.49
433.394	270.84
433.601	152.06
433.808	256.51
434.016	225.79
434.223	285.18
434.43	113.15
434.637	131.58
434.844	272.89
435.052	293.37
435.259	260.6
435.466	195.07
435.673	240.12
435.88	363
436.087	326.14
436.294	289.28
436.501	324.09
436.708	195.07
436.915	258.56
437.122	383.48
437.329	268.8
437.537	190.97
437.743	291.32
437.95	420.35
438.157	395.77
438.364	412.15
438.571	358.91
438.778	434.68
438.985	420.35
439.192	412.15
439.399	449.02
439.606	440.83
439.813	543.22
440.02	614.9
440.227	604.66
440.433	492.02
440.64	528.89
440.847	524.79
441.054	598.52
441.261	709.11
441.467	602.61
441.674	645.62
441.881	780.79
442.088	643.57
442.294	786.93
442.501	786.93
442.708	786.93
442.914	795.12
443.121	848.37
443.328	932.34
443.534	975.35
443.741	999.92
443.948	903.67
444.154	1038.83
444.361	1079.79
444.568	1063.41
444.774	1114.61
444.981	993.78
445.187	1196.53
445.394	1133.04
445.6	1178.09
445.807	1260.01
446.013	1305.07
446.22	1260.01
446.426	1329.64
446.633	1513.96
446.839	1655.27
447.046	1464.81
447.252	1757.67
447.459	1675.75
447.665	1741.29
447.871	1796.58
448.078	1980.9
448.284	1884.64
448.491	2009.57
448.697	2171.36
448.903	2138.59
449.11	2222.56
449.316	2210.27
449.522	2398.68
449.728	2525.66
449.935	2605.53
450.141	2570.71
450.347	2843.09
450.553	2771.41
450.76	2777.56
450.966	3006.93
451.172	3109.33
451.378	3289.55
451.584	3316.17
451.791	3490.25
451.997	3508.68
452.203	3643.85
452.409	3826.12
452.615	4096.45
452.821	3912.13
453.027	4002.24
453.233	4475.32
453.44	4530.62
453.646	4624.83
453.852	4755.9
454.058	4882.87
454.264	5058.99
454.47	5464.49
454.676	5364.14
454.882	6007.2
455.088	5837.22
455.294	6103.46
455.5	6369.69
455.705	6797.72
455.911	6902.17
456.117	6963.61
456.323	7278.99
456.529	7315.86
456.735	7606.67
456.941	8089.99
457.147	8403.33
457.352	8630.65
457.558	8882.55
457.764	9544.05
457.97	9828.71
458.176	10273.12
458.381	10463.58
458.587	10797.4
458.793	11442.51
458.999	11211.09
459.204	12781.88
459.41	13132.09
459.616	12845.37
459.821	13832.49
460.027	14666.02
460.233	15155.48
460.438	15214.87
460.644	15986.96
460.85	16271.62
461.055	16969.98
461.261	17572.08
461.466	17101.05
461.672	17524.98
461.878	19681.49
462.083	19405.02
462.289	19908.82
462.494	20625.61
462.7	21029.06
462.905	20961.47
463.111	22724.77
463.316	23896.21
463.522	24414.35
463.727	25206.91
463.932	26263.66
464.138	26953.83
464.343	28119.12
464.549	28215.38
464.754	30437.42
464.959	31336.48
465.165	31485.98
465.37	31107.11
465.575	31520.8
465.781	33392.64
465.986	34324.47
466.191	33808.38
466.397	33972.22
466.602	33419.27
466.807	35426.28
467.012	35809.25
467.218	36761.55
467.423	36507.6
467.628	37910.46
467.833	39964.57
468.038	38746.03
468.244	38320.06
468.449	40189.85
468.654	39194.54
