Data from USB4F104151__238__11-06-31-124.txt Node

Date: Wed Feb 26 11:06:31 EST 2025
User: louis
Spectrometer: USB4F10415
Trigger mode: 4
Integration Time (sec): 1.000000E-1
Scans to average: 1
Electric dark correction enabled: true
Nonlinearity correction enabled: false
Boxcar width: 0
XAxis mode: Wavelengths
Number of Pixels in Spectrum: 3648
>>>>>Begin Spectral Data<<<<<
178.204	-414.71
178.424	-414.71
178.644	-414.71
178.864	-408.57
179.084	-402.43
179.304	13.31
179.524	-41.98
179.744	41.98
179.964	25.6
180.184	-31.74
180.404	39.94
180.624	-76.8
180.844	-19.46
181.064	-9.22
181.283	9.22
181.503	-84.99
181.723	134.14
181.943	-123.9
182.163	214.01
182.383	-58.37
182.602	37.89
182.822	140.29
183.042	99.33
183.262	21.5
183.482	35.84
183.701	17.41
183.921	-25.6
184.141	-1.02
184.361	84.99
184.58	64.51
184.8	56.32
185.02	-62.46
185.239	25.6
185.459	76.8
185.679	64.51
185.898	-23.55
186.118	119.81
186.338	80.89
186.557	132.09
186.777	-89.09
186.997	-17.41
187.216	21.5
187.436	252.92
187.655	17.41
187.875	101.37
188.095	17.41
188.314	95.23
188.534	134.14
188.753	-35.84
188.973	166.91
189.192	265.21
189.412	13.31
189.631	56.32
189.851	70.65
190.07	179.2
190.29	-9.22
190.509	-17.41
190.729	1.02
190.948	203.77
191.168	240.64
191.387	82.94
191.607	39.94
191.826	107.52
192.045	3.07
192.265	78.85
192.484	107.52
192.704	37.89
192.923	-31.74
193.142	181.25
193.362	74.75
193.581	201.72
193.8	115.71
194.02	95.23
194.239	-3.07
194.458	48.13
194.678	82.94
194.897	56.32
195.116	70.65
195.335	128
195.555	44.03
195.774	44.03
195.993	33.79
196.212	5.12
196.432	-68.61
196.651	-35.84
196.87	1.02
197.089	214.01
197.308	7.17
197.528	156.67
197.747	-80.89
197.966	64.51
198.185	201.72
198.404	5.12
198.623	93.18
198.842	115.71
199.062	181.25
199.281	103.42
199.5	39.94
199.719	60.42
199.938	111.61
200.157	54.27
200.376	189.44
200.595	109.57
200.814	39.94
201.033	5.12
201.252	183.29
201.471	74.75
201.69	93.18
201.909	37.89
202.128	-17.41
202.347	25.6
202.566	-1.02
202.785	-76.8
203.004	-5.12
203.223	277.5
203.442	125.95
203.661	7.17
203.879	35.84
204.098	181.25
204.317	50.18
204.536	117.76
204.755	107.52
204.974	146.43
205.193	-17.41
205.411	105.47
205.63	152.57
205.849	164.86
206.068	48.13
206.287	-41.98
206.505	119.81
206.724	-41.98
206.943	-41.98
207.162	-21.5
207.381	74.75
207.599	52.22
207.818	44.03
208.037	-7.17
208.255	87.04
208.474	-17.41
208.693	31.74
208.911	19.46
209.13	142.33
209.349	95.23
209.567	87.04
209.786	82.94
210.005	107.52
210.223	35.84
210.442	-56.32
210.661	44.03
210.879	140.29
211.098	89.09
211.316	54.27
211.535	35.84
211.753	78.85
211.972	80.89
212.191	-39.94
212.409	87.04
212.628	56.32
212.846	27.65
213.065	37.89
213.283	56.32
213.502	138.24
213.72	89.09
213.938	72.7
214.157	25.6
214.375	80.89
214.594	82.94
214.812	87.04
215.031	54.27
215.249	105.47
215.467	109.57
215.686	11.26
215.904	113.66
216.122	23.55
216.341	162.81
216.559	58.37
216.778	89.09
216.996	156.67
217.214	25.6
217.432	-5.12
217.651	-72.7
217.869	95.23
218.087	82.94
218.306	-23.55
218.524	72.7
218.742	25.6
218.96	121.85
219.179	-19.46
219.397	29.7
219.615	261.12
219.833	107.52
220.051	-41.98
220.27	-9.22
220.488	203.77
220.706	11.26
220.924	17.41
221.142	-33.79
221.36	21.5
221.578	78.85
221.796	13.31
222.015	15.36
222.233	80.89
222.451	226.3
222.669	-54.27
222.887	60.42
223.105	13.31
223.323	74.75
223.541	-29.7
223.759	68.61
223.977	-39.94
224.195	156.67
224.413	82.94
224.631	76.8
224.849	105.47
225.067	211.96
225.285	9.22
225.503	-25.6
225.721	-29.7
225.939	3.07
226.157	97.28
226.375	277.5
226.592	23.55
226.81	125.95
227.028	93.18
227.246	121.85
227.464	91.13
227.682	82.94
227.9	95.23
228.117	70.65
228.335	35.84
228.553	109.57
228.771	11.26
228.989	27.65
229.206	117.76
229.424	39.94
229.642	101.37
229.86	-25.6
230.077	185.34
230.295	-11.26
230.513	54.27
230.731	84.99
230.948	105.47
231.166	160.77
231.384	-1.02
231.601	11.26
231.819	171.01
232.037	70.65
232.254	-3.07
232.472	82.94
232.689	78.85
232.907	136.19
233.125	-54.27
233.342	-33.79
233.56	9.22
233.777	39.94
233.995	5.12
234.213	68.61
234.43	68.61
234.648	50.18
234.865	46.08
235.083	60.42
235.3	134.14
235.518	50.18
235.735	117.76
235.953	82.94
236.17	70.65
236.388	-44.03
236.605	68.61
236.822	66.56
237.04	185.34
237.257	80.89
237.475	29.7
237.692	29.7
237.909	60.42
238.127	37.89
238.344	68.61
238.562	52.22
238.779	21.5
238.996	-41.98
239.214	48.13
239.431	87.04
239.648	19.46
239.865	66.56
240.083	80.89
240.3	60.42
240.517	64.51
240.735	48.13
240.952	68.61
241.169	82.94
241.386	50.18
241.603	-13.31
241.821	-23.55
242.038	123.9
242.255	144.38
242.472	-50.18
242.689	97.28
242.907	54.27
243.124	13.31
243.341	97.28
243.558	-11.26
243.775	1.02
243.992	-33.79
244.209	48.13
244.426	117.76
244.643	66.56
244.86	3.07
245.078	113.66
245.295	35.84
245.512	17.41
245.729	-27.65
245.946	74.75
246.163	9.22
246.38	111.61
246.597	64.51
246.814	-54.27
247.031	52.22
247.248	31.74
247.464	111.61
247.681	60.42
247.898	89.09
248.115	101.37
248.332	27.65
248.549	109.57
248.766	193.53
248.983	93.18
249.2	197.63
249.417	130.05
249.633	29.7
249.85	64.51
250.067	62.46
250.284	46.08
250.501	82.94
250.717	76.8
250.934	-29.7
251.151	19.46
251.368	80.89
251.585	89.09
251.801	58.37
252.018	-52.22
252.235	109.57
252.451	29.7
252.668	103.42
252.885	125.95
253.102	68.61
253.318	5.12
253.535	68.61
253.752	-52.22
253.968	46.08
254.185	-95.23
254.401	-17.41
254.618	82.94
254.835	-27.65
255.051	148.48
255.268	109.57
255.484	64.51
255.701	-37.89
255.917	115.71
256.134	-27.65
256.351	60.42
256.567	-76.8
256.784	-23.55
257	-50.18
257.217	140.29
257.433	78.85
257.65	37.89
257.866	128
258.082	-9.22
258.299	-25.6
258.515	7.17
258.732	1.02
258.948	39.94
259.165	87.04
259.381	-25.6
259.597	140.29
259.814	74.75
260.03	74.75
260.246	-44.03
260.463	162.81
260.679	130.05
260.895	35.84
261.112	19.46
261.328	27.65
261.544	46.08
261.761	152.57
261.977	-19.46
262.193	52.22
262.409	97.28
262.626	60.42
262.842	44.03
263.058	1.02
263.274	136.19
263.49	130.05
263.707	33.79
263.923	138.24
264.139	-44.03
264.355	29.7
264.571	171.01
264.787	125.95
265.004	134.14
265.22	29.7
265.436	-105.47
265.652	41.98
265.868	101.37
266.084	-44.03
266.3	31.74
266.516	7.17
266.732	60.42
266.948	48.13
267.164	33.79
267.38	95.23
267.596	87.04
267.812	195.58
268.028	82.94
268.244	-27.65
268.46	95.23
268.676	68.61
268.892	74.75
269.108	-37.89
269.324	-11.26
269.54	21.5
269.756	74.75
269.972	-39.94
270.188	-5.12
270.403	-27.65
270.619	50.18
270.835	123.9
271.051	17.41
271.267	-29.7
271.483	62.46
271.698	134.14
271.914	107.52
272.13	66.56
272.346	56.32
272.562	15.36
272.777	105.47
272.993	25.6
273.209	48.13
273.425	84.99
273.64	-119.81
273.856	113.66
274.072	23.55
274.287	48.13
274.503	113.66
274.719	109.57
274.934	23.55
275.15	-76.8
275.366	119.81
275.581	-54.27
275.797	56.32
276.012	7.17
276.228	-3.07
276.444	27.65
276.659	177.15
276.875	44.03
277.09	66.56
277.306	-7.17
277.521	93.18
277.737	35.84
277.952	132.09
278.168	58.37
278.383	1.02
278.599	111.61
278.814	125.95
279.03	-9.22
279.245	115.71
279.461	48.13
279.676	80.89
279.892	-17.41
280.107	58.37
280.322	-1.02
280.538	60.42
280.753	5.12
280.969	136.19
281.184	91.13
281.399	82.94
281.615	44.03
281.83	33.79
282.045	-56.32
282.26	25.6
282.476	33.79
282.691	132.09
282.906	74.75
283.122	5.12
283.337	99.33
283.552	87.04
283.767	19.46
283.983	144.38
284.198	-29.7
284.413	39.94
284.628	-64.51
284.843	117.76
285.058	89.09
285.274	15.36
285.489	-11.26
285.704	162.81
285.919	-33.79
286.134	19.46
286.349	25.6
286.564	-31.74
286.779	162.81
286.995	74.75
287.21	-9.22
287.425	103.42
287.64	68.61
287.855	21.5
288.07	-111.61
288.285	97.28
288.5	87.04
288.715	121.85
288.93	-31.74
289.145	-29.7
289.36	101.37
289.575	23.55
289.79	119.81
290.004	25.6
290.219	91.13
290.434	-50.18
290.649	-76.8
290.864	15.36
291.079	-29.7
291.294	44.03
291.509	119.81
291.724	54.27
291.938	46.08
292.153	95.23
292.368	-13.31
292.583	101.37
292.798	56.32
293.012	66.56
293.227	105.47
293.442	9.22
293.657	97.28
293.871	222.2
294.086	33.79
294.301	220.16
294.516	119.81
294.73	82.94
294.945	-19.46
295.16	52.22
295.374	68.61
295.589	140.29
295.804	-13.31
296.018	78.85
296.233	125.95
296.447	52.22
296.662	5.12
296.877	123.9
297.091	54.27
297.306	15.36
297.52	-5.12
297.735	58.37
297.949	11.26
298.164	31.74
298.378	29.7
298.593	-9.22
298.807	-11.26
299.022	125.95
299.236	146.43
299.451	13.31
299.665	89.09
299.88	119.81
300.094	154.62
300.309	41.98
300.523	101.37
300.737	50.18
300.952	82.94
301.166	33.79
301.381	9.22
301.595	-39.94
301.809	54.27
302.024	56.32
302.238	-9.22
302.452	158.72
302.667	58.37
302.881	146.43
303.095	111.61
303.309	58.37
303.524	50.18
303.738	7.17
303.952	-58.37
304.166	25.6
304.381	-193.53
304.595	216.06
304.809	33.79
305.023	107.52
305.237	37.89
305.452	93.18
305.666	52.22
305.88	41.98
306.094	87.04
306.308	95.23
306.522	56.32
306.736	95.23
306.95	156.67
307.164	23.55
307.379	3.07
307.593	171.01
307.807	144.38
308.021	107.52
308.235	7.17
308.449	-1.02
308.663	60.42
308.877	179.2
309.091	-9.22
309.305	66.56
309.519	-80.89
309.733	162.81
309.947	-52.22
310.161	111.61
310.374	74.75
310.588	-27.65
310.802	-27.65
311.016	33.79
311.23	89.09
311.444	1.02
311.658	-13.31
311.872	99.33
312.085	160.77
312.299	189.44
312.513	115.71
312.727	5.12
312.941	-9.22
313.154	109.57
313.368	68.61
313.582	56.32
313.796	-3.07
314.009	62.46
314.223	117.76
314.437	21.5
314.651	103.42
314.864	15.36
315.078	7.17
315.292	-25.6
315.505	-19.46
315.719	93.18
315.933	15.36
316.146	52.22
316.36	-5.12
316.573	107.52
316.787	164.86
317.001	117.76
317.214	-56.32
317.428	19.46
317.641	37.89
317.855	33.79
318.068	93.18
318.282	-7.17
318.495	171.01
318.709	64.51
318.922	7.17
319.136	197.63
319.349	80.89
319.563	11.26
319.776	37.89
319.99	-103.42
320.203	109.57
320.417	27.65
320.63	46.08
320.843	203.77
321.057	156.67
321.27	35.84
321.483	87.04
321.697	156.67
321.91	41.98
322.124	121.85
322.337	19.46
322.55	84.99
322.763	76.8
322.977	5.12
323.19	-11.26
323.403	-19.46
323.617	39.94
323.83	29.7
324.043	-9.22
324.256	41.98
324.469	-52.22
324.683	125.95
324.896	-9.22
325.109	48.13
325.322	31.74
325.535	130.05
325.748	113.66
325.962	54.27
326.175	35.84
326.388	58.37
326.601	134.14
326.814	82.94
327.027	82.94
327.24	203.77
327.453	-128
327.666	107.52
327.879	214.01
328.092	84.99
328.305	50.18
328.518	54.27
328.731	-17.41
328.944	46.08
329.157	60.42
329.37	-5.12
329.583	150.53
329.796	136.19
330.009	-66.56
330.222	109.57
330.435	3.07
330.648	89.09
330.861	35.84
331.073	19.46
331.286	115.71
331.499	117.76
331.712	23.55
331.925	13.31
332.138	-27.65
332.35	78.85
332.563	35.84
332.776	144.38
332.989	-66.56
333.202	-11.26
333.414	58.37
333.627	44.03
333.84	5.12
334.053	29.7
334.265	37.89
334.478	-15.36
334.691	29.7
334.903	109.57
335.116	-64.51
335.329	-1.02
335.541	89.09
335.754	136.19
335.966	105.47
336.179	11.26
336.392	33.79
336.604	101.37
336.817	109.57
337.029	62.46
337.242	-7.17
337.454	95.23
337.667	15.36
337.88	166.91
338.092	27.65
338.305	136.19
338.517	-25.6
338.729	134.14
338.942	128
339.154	-74.75
339.367	-3.07
339.579	125.95
339.792	-9.22
340.004	89.09
340.217	17.41
340.429	58.37
340.641	41.98
340.854	-37.89
341.066	33.79
341.278	142.33
341.491	181.25
341.703	33.79
341.915	-1.02
342.128	148.48
342.34	39.94
342.552	-35.84
342.764	136.19
342.977	-11.26
343.189	25.6
343.401	109.57
343.613	3.07
343.826	54.27
344.038	19.46
344.25	7.17
344.462	84.99
344.674	74.75
344.886	-3.07
345.099	121.85
345.311	48.13
345.523	-15.36
345.735	-171.01
345.947	1.02
346.159	56.32
346.371	19.46
346.583	-35.84
346.795	191.49
347.007	-3.07
347.219	109.57
347.431	89.09
347.643	101.37
347.855	17.41
348.067	144.38
348.279	-52.22
348.491	-9.22
348.703	152.57
348.915	35.84
349.127	-44.03
349.339	62.46
349.551	17.41
349.763	152.57
349.975	115.71
350.187	115.71
350.399	179.2
350.61	54.27
350.822	23.55
351.034	62.46
351.246	33.79
351.458	138.24
351.669	15.36
351.881	130.05
352.093	177.15
352.305	101.37
352.517	50.18
352.728	179.2
352.94	13.31
353.152	58.37
353.363	107.52
353.575	37.89
353.787	152.57
353.999	134.14
354.21	150.53
354.422	37.89
354.633	23.55
354.845	89.09
355.057	128
355.268	76.8
355.48	95.23
355.692	1.02
355.903	-9.22
356.115	-15.36
356.326	-54.27
356.538	105.47
356.749	146.43
356.961	134.14
357.172	140.29
357.384	-31.74
357.595	336.89
357.807	27.65
358.018	-48.13
358.23	23.55
358.441	132.09
358.653	72.7
358.864	76.8
359.075	-27.65
359.287	87.04
359.498	146.43
359.709	91.13
359.921	50.18
360.132	27.65
360.344	-3.07
360.555	-7.17
360.766	80.89
360.977	-56.32
361.189	125.95
361.4	37.89
361.611	156.67
361.823	97.28
362.034	70.65
362.245	-19.46
362.456	7.17
362.667	54.27
362.879	-3.07
363.09	128
363.301	78.85
363.512	91.13
363.723	5.12
363.935	-29.7
364.146	91.13
364.357	156.67
364.568	117.76
364.779	23.55
364.99	160.77
365.201	-35.84
365.412	123.9
365.623	-64.51
365.834	109.57
366.045	70.65
366.256	54.27
366.467	138.24
366.678	-48.13
366.889	-15.36
367.1	5.12
367.311	41.98
367.522	-3.07
367.733	74.75
367.944	64.51
368.155	-101.37
368.366	78.85
368.577	197.63
368.788	117.76
368.999	17.41
369.209	41.98
369.42	257.02
369.631	115.71
369.842	144.38
370.053	7.17
370.264	89.09
370.474	-41.98
370.685	21.5
370.896	-15.36
371.107	179.2
371.317	78.85
371.528	76.8
371.739	166.91
371.95	-5.12
372.16	105.47
372.371	-3.07
372.582	46.08
372.792	107.52
373.003	117.76
373.214	80.89
373.424	95.23
373.635	23.55
373.846	138.24
374.056	29.7
374.267	48.13
374.477	58.37
374.688	-31.74
374.898	103.42
375.109	-9.22
375.319	93.18
375.53	76.8
375.74	91.13
375.951	66.56
376.161	105.47
376.372	99.33
376.582	52.22
376.793	111.61
377.003	70.65
377.214	9.22
377.424	82.94
377.635	-21.5
377.845	23.55
378.055	246.78
378.266	-78.85
378.476	50.18
378.686	82.94
378.897	78.85
379.107	162.81
379.317	54.27
379.528	54.27
379.738	66.56
379.948	-1.02
380.158	121.85
380.369	140.29
380.579	191.49
380.789	64.51
380.999	144.38
381.21	125.95
381.42	148.48
381.63	29.7
381.84	128
382.05	70.65
382.261	68.61
382.471	125.95
382.681	-23.55
382.891	240.64
383.101	87.04
383.311	-15.36
383.521	1.02
383.731	162.81
383.941	119.81
384.151	78.85
384.361	21.5
384.571	54.27
384.781	109.57
384.991	195.58
385.201	171.01
385.411	56.32
385.621	72.7
385.831	17.41
386.041	31.74
386.251	56.32
386.461	117.76
386.671	-29.7
386.881	84.99
387.091	35.84
387.301	201.72
387.511	9.22
387.72	76.8
387.93	132.09
388.14	-3.07
388.35	-5.12
388.56	105.47
388.769	130.05
388.979	27.65
389.189	29.7
389.399	84.99
389.609	-11.26
389.818	160.77
390.028	80.89
390.238	101.37
390.447	35.84
390.657	97.28
390.867	-50.18
391.076	-54.27
391.286	84.99
391.496	46.08
391.705	54.27
391.915	152.57
392.125	109.57
392.334	25.6
392.544	91.13
392.753	72.7
392.963	-23.55
393.172	128
393.382	11.26
393.591	187.39
393.801	-23.55
394.01	199.68
394.22	150.53
394.429	62.46
394.639	50.18
394.848	54.27
395.058	7.17
395.267	33.79
395.477	128
395.686	123.9
395.895	232.44
396.105	242.68
396.314	60.42
396.524	23.55
396.733	-13.31
396.942	140.29
397.152	91.13
397.361	117.76
397.57	66.56
397.78	140.29
397.989	109.57
398.198	273.4
398.407	39.94
398.617	31.74
398.826	66.56
399.035	17.41
399.244	72.7
399.453	93.18
399.663	27.65
399.872	70.65
400.081	-54.27
400.29	146.43
400.499	33.79
400.708	152.57
400.917	-7.17
401.127	-48.13
401.336	21.5
401.545	261.12
401.754	136.19
401.963	117.76
402.172	11.26
402.381	-23.55
402.59	54.27
402.799	15.36
403.008	166.91
403.217	50.18
403.426	95.23
403.635	-82.94
403.844	15.36
404.053	9.22
404.262	13.31
404.471	191.49
404.68	89.09
404.888	97.28
405.097	62.46
405.306	60.42
405.515	136.19
405.724	1.02
405.933	93.18
406.142	144.38
406.35	123.9
406.559	33.79
406.768	62.46
406.977	156.67
407.185	93.18
407.394	74.75
407.603	-7.17
407.812	50.18
408.02	158.72
408.229	123.9
408.438	60.42
408.646	-19.46
408.855	52.22
409.064	162.81
409.272	-17.41
409.481	115.71
409.69	11.26
409.898	31.74
410.107	21.5
410.315	111.61
410.524	-15.36
410.733	152.57
410.941	39.94
411.15	138.24
411.358	117.76
411.567	224.25
411.775	119.81
411.984	119.81
412.192	144.38
412.401	33.79
412.609	173.05
412.818	123.9
413.026	84.99
413.234	50.18
413.443	50.18
413.651	-13.31
413.86	146.43
414.068	193.53
414.276	166.91
414.485	7.17
414.693	146.43
414.901	164.86
415.11	84.99
415.318	117.76
415.526	76.8
415.734	150.53
415.943	66.56
416.151	162.81
416.359	41.98
416.567	177.15
416.776	136.19
416.984	84.99
417.192	154.62
417.4	-25.6
417.608	-41.98
417.817	5.12
418.025	164.86
418.233	189.44
418.441	-17.41
418.649	21.5
418.857	93.18
419.065	222.2
419.273	97.28
419.481	74.75
419.689	58.37
419.897	78.85
420.105	-29.7
420.313	46.08
420.521	187.39
420.729	95.23
420.937	-5.12
421.145	-3.07
421.353	119.81
421.561	93.18
421.769	58.37
421.977	46.08
422.185	107.52
422.393	97.28
422.601	162.81
422.809	101.37
423.017	46.08
423.224	103.42
423.432	70.65
423.64	115.71
423.848	138.24
424.056	5.12
424.263	123.9
424.471	37.89
424.679	197.63
424.887	46.08
425.094	175.1
425.302	136.19
425.51	21.5
425.718	121.85
425.925	105.47
426.133	-1.02
426.341	160.77
426.548	39.94
426.756	76.8
426.964	119.81
427.171	3.07
427.379	64.51
427.586	50.18
427.794	58.37
428.001	177.15
428.209	134.14
428.417	148.48
428.624	150.53
428.832	201.72
429.039	148.48
429.247	168.96
429.454	140.29
429.662	252.92
429.869	84.99
430.076	128
430.284	119.81
430.491	228.35
430.699	158.72
430.906	236.54
431.114	191.49
431.321	138.24
431.528	113.66
431.736	107.52
431.943	152.57
432.15	207.87
432.358	175.1
432.565	267.26
432.772	82.94
432.979	293.88
433.187	144.38
433.394	261.12
433.601	162.81
433.808	273.4
434.016	248.83
434.223	189.44
434.43	230.4
434.637	304.12
434.844	283.64
435.052	289.79
435.259	220.16
435.466	349.18
435.673	326.65
435.88	365.56
436.087	363.51
436.294	398.33
436.501	418.81
436.708	330.75
436.915	377.85
437.122	455.67
437.329	312.32
437.537	363.51
437.743	386.04
437.95	553.98
438.157	517.11
438.364	496.63
438.571	400.38
438.778	463.86
438.985	498.68
439.192	621.56
439.399	447.48
439.606	599.03
439.813	510.97
440.02	715.77
440.227	713.72
440.433	644.09
440.64	652.28
440.847	611.32
441.054	709.62
441.261	873.46
441.467	719.86
441.674	693.24
441.881	797.68
442.088	758.77
442.294	906.23
442.501	920.56
442.708	982
442.914	961.52
443.121	1039.34
443.328	1070.06
443.534	1018.86
443.741	1008.62
443.948	965.62
444.154	1225.71
444.361	1301.48
444.568	1197.04
444.774	1190.89
444.981	1254.38
445.187	1399.79
445.394	1346.54
445.6	1344.49
445.807	1479.66
446.013	1571.82
446.22	1453.03
446.426	1717.22
446.633	1766.37
446.839	1983.46
447.046	1682.41
447.252	2008.03
447.459	1889.25
447.665	1876.96
447.871	2081.76
448.078	2350.04
448.284	2274.27
448.491	2304.99
448.697	2456.54
448.903	2628.57
449.11	2560.98
449.316	2550.75
449.522	2761.69
449.728	2968.53
449.935	3091.41
450.141	2946
450.347	3310.54
450.553	3236.81
450.76	3322.83
450.966	3484.62
451.172	3580.87
451.378	3818.44
451.584	3892.16
451.791	4000.71
451.997	4201.41
452.203	4260.8
452.409	4490.17
452.615	4664.25
452.821	4586.43
453.027	4715.45
453.233	5325.74
453.44	5102.51
453.646	5299.12
453.852	5518.25
454.058	5761.96
454.264	6024.1
454.47	6237.09
454.676	6280.1
454.882	6716.31
455.088	6667.16
455.294	7054.23
455.5	7459.73
455.705	7746.44
455.911	7762.83
456.117	8158.08
456.323	8391.55
456.529	8352.64
456.735	9026.42
456.941	9382.77
457.147	9694.06
457.352	9982.82
457.558	10287.97
457.764	10957.66
457.97	11211.6
458.176	11639.63
458.381	12186.44
458.587	12430.15
458.793	12950.33
458.999	13011.77
459.204	14578.47
459.41	15074.07
459.616	14908.19
459.821	16038.67
460.027	16784.13
460.233	17289.98
460.438	17449.72
460.644	18506.47
460.85	18463.46
461.055	19348.18
461.261	20159.18
461.466	19966.67
461.672	20232.91
461.878	22522.54
462.083	22151.85
462.289	22870.69
462.494	23767.7
462.7	23974.55
462.905	24091.28
463.111	26192.5
463.316	27273.82
463.522	28115.54
463.727	28832.33
463.932	30210.61
464.138	31226.4
464.343	32123.41
464.549	31971.86
464.754	34728.43
464.959	35670.5
465.165	36153.82
465.37	36182.49
465.575	36098.52
465.781	38433.21
465.986	39526.82
466.191	38685.11
466.397	39537.06
466.602	38205.88
466.807	40405.4
467.012	41085.33
467.218	41884.03
467.423	41838.98
467.628	43034.99
467.833	45242.7
468.038	44595.54
468.244	43506.02
