Data from USB4F104151__293__11-21-15-227.txt Node

Date: Wed Feb 26 11:21:15 EST 2025
User: louis
Spectrometer: USB4F10415
Trigger mode: 4
Integration Time (sec): 1.000000E-1
Scans to average: 1
Electric dark correction enabled: true
Nonlinearity correction enabled: false
Boxcar width: 0
XAxis mode: Wavelengths
Number of Pixels in Spectrum: 3648
>>>>>Begin Spectral Data<<<<<
178.204	-471.2
178.424	-471.2
178.644	-471.2
178.864	-424.1
179.084	-440.48
179.304	8.02
179.524	-26.79
179.744	28.5
179.964	73.56
180.184	24.4
180.404	3.93
180.624	-41.13
180.844	18.26
181.064	-82.09
181.283	55.12
181.503	-14.51
181.723	-47.27
181.943	-57.51
182.163	149.33
182.383	-30.89
182.602	63.32
182.822	171.86
183.042	36.69
183.262	-49.32
183.482	10.07
183.701	16.21
183.921	-18.6
184.141	-2.22
184.361	65.36
184.58	24.4
184.8	67.41
185.02	-20.65
185.239	36.69
185.459	65.36
185.679	98.13
185.898	-0.17
186.118	-22.7
186.338	100.18
186.557	69.46
186.777	-127.14
186.997	-34.99
187.216	28.5
187.436	143.19
187.655	79.7
187.875	5.97
188.095	79.7
188.314	137.04
188.534	22.36
188.753	-10.41
188.973	163.67
189.192	114.52
189.412	-37.03
189.631	34.64
189.851	44.88
190.07	175.95
190.29	-47.27
190.509	20.31
190.729	77.65
190.948	112.47
191.168	147.28
191.387	24.4
191.607	-16.55
191.826	8.02
192.045	48.98
192.265	-43.18
192.484	89.94
192.704	38.74
192.923	-4.27
193.142	163.67
193.362	79.7
193.581	98.13
193.8	30.55
194.02	-6.31
194.239	16.21
194.458	128.85
194.678	-57.51
194.897	18.26
195.116	36.69
195.335	42.84
195.555	28.5
195.774	-28.84
195.993	73.56
196.212	16.21
196.432	-14.51
196.651	-14.51
196.87	-10.41
197.089	251.73
197.308	-10.41
197.528	18.26
197.747	44.88
197.966	12.12
198.185	192.34
198.404	28.5
198.623	112.47
198.842	79.7
199.062	130.9
199.281	57.17
199.5	14.17
199.719	42.84
199.938	71.51
200.157	14.17
200.376	65.36
200.595	108.37
200.814	98.13
201.033	-0.17
201.252	212.82
201.471	1.88
201.69	104.28
201.909	18.26
202.128	147.28
202.347	141.14
202.566	81.75
202.785	-49.32
203.004	-104.62
203.223	278.35
203.442	104.28
203.661	-57.51
203.879	36.69
204.098	120.66
204.317	-71.85
204.536	122.71
204.755	137.04
204.974	36.69
205.193	-57.51
205.411	130.9
205.63	94.04
205.849	28.5
206.068	81.75
206.287	5.97
206.505	85.84
206.724	12.12
206.943	30.55
207.162	-22.7
207.381	55.12
207.599	22.36
207.818	57.17
208.037	-45.23
208.255	12.12
208.474	51.03
208.693	8.02
208.911	-10.41
209.13	16.21
209.349	38.74
209.567	98.13
209.786	-2.22
210.005	116.56
210.223	48.98
210.442	-157.86
210.661	10.07
210.879	77.65
211.098	44.88
211.316	12.12
211.535	26.45
211.753	71.51
211.972	38.74
212.191	26.45
212.409	16.21
212.628	59.22
212.846	-30.89
213.065	143.19
213.283	85.84
213.502	26.45
213.72	10.07
213.938	-8.36
214.157	-71.85
214.375	108.37
214.594	-24.75
214.812	71.51
215.031	18.26
215.249	63.32
215.467	73.56
215.686	-0.17
215.904	112.47
216.122	28.5
216.341	81.75
216.559	32.6
216.778	81.75
216.996	108.37
217.214	-2.22
217.432	-24.75
217.651	-18.6
217.869	100.18
218.087	59.22
218.306	8.02
218.524	71.51
218.742	-14.51
218.96	116.56
219.179	24.4
219.397	-37.03
219.615	243.54
219.833	89.94
220.051	-32.94
220.27	102.23
220.488	96.08
220.706	14.17
220.924	-102.57
221.142	-14.51
221.36	16.21
221.578	48.98
221.796	-14.51
222.015	18.26
222.233	30.55
222.451	184.15
222.669	20.31
222.887	57.17
223.105	-18.6
223.323	16.21
223.541	-67.75
223.759	18.26
223.977	46.93
224.195	106.32
224.413	118.61
224.631	5.97
224.849	61.27
225.067	169.81
225.285	-37.03
225.503	-12.46
225.721	-131.24
225.939	48.98
226.157	32.6
226.375	221.01
226.592	-4.27
226.81	-16.55
227.028	153.43
227.246	91.99
227.464	30.55
227.682	114.52
227.9	44.88
228.117	-20.65
228.335	118.61
228.553	12.12
228.771	63.32
228.989	48.98
229.206	40.79
229.424	-57.51
229.642	10.07
229.86	-34.99
230.077	171.86
230.295	16.21
230.513	112.47
230.731	22.36
230.948	126.8
231.166	126.8
231.384	61.27
231.601	-14.51
231.819	114.52
232.037	-10.41
232.254	-88.23
232.472	46.93
232.689	-41.13
232.907	57.17
233.125	34.64
233.342	-45.23
233.56	-55.47
233.777	-57.51
233.995	26.45
234.213	-0.17
234.43	14.17
234.648	8.02
234.865	-34.99
235.083	73.56
235.3	12.12
235.518	87.89
235.735	108.37
235.953	55.12
236.17	-16.55
236.388	38.74
236.605	96.08
236.822	91.99
237.04	57.17
237.257	79.7
237.475	-80.04
237.692	46.93
237.909	67.41
238.127	-4.27
238.344	110.42
238.562	75.6
238.779	-98.47
238.996	30.55
239.214	1.88
239.431	110.42
239.648	-61.61
239.865	55.12
240.083	75.6
240.3	53.08
240.517	30.55
240.735	-47.27
240.952	137.04
241.169	96.08
241.386	81.75
241.603	44.88
241.821	-39.08
242.038	130.9
242.255	102.23
242.472	-32.94
242.689	5.97
242.907	65.36
243.124	32.6
243.341	-2.22
243.558	-12.46
243.775	-41.13
243.992	-121
244.209	85.84
244.426	132.95
244.643	32.6
244.86	-0.17
245.078	81.75
245.295	14.17
245.512	-10.41
245.729	24.4
245.946	112.47
246.163	3.93
246.38	-90.28
246.597	28.5
246.814	12.12
247.031	-12.46
247.248	53.08
247.464	40.79
247.681	38.74
247.898	34.64
248.115	55.12
248.332	-16.55
248.549	147.28
248.766	173.91
248.983	75.6
249.2	59.22
249.417	65.36
249.633	-61.61
249.85	126.8
250.067	59.22
250.284	12.12
250.501	-22.7
250.717	59.22
250.934	-77.99
251.151	18.26
251.368	40.79
251.585	22.36
251.801	53.08
252.018	-51.37
252.235	102.23
252.451	-77.99
252.668	-37.03
252.885	14.17
253.102	69.46
253.318	20.31
253.535	-86.19
253.752	-51.37
253.968	20.31
254.185	-90.28
254.401	104.28
254.618	85.84
254.835	-45.23
255.051	79.7
255.268	94.04
255.484	12.12
255.701	-0.17
255.917	73.56
256.134	-0.17
256.351	-37.03
256.567	-53.42
256.784	-6.31
257	-32.94
257.217	69.46
257.433	96.08
257.65	53.08
257.866	204.63
258.082	-59.56
258.299	26.45
258.515	61.27
258.732	-57.51
258.948	-53.42
259.165	38.74
259.381	-10.41
259.597	51.03
259.814	18.26
260.03	12.12
260.246	-6.31
260.463	96.08
260.679	85.84
260.895	-4.27
261.112	61.27
261.328	-6.31
261.544	-32.94
261.761	137.04
261.977	-41.13
262.193	-34.99
262.409	102.23
262.626	67.41
262.842	30.55
263.058	-0.17
263.274	14.17
263.49	98.13
263.707	85.84
263.923	96.08
264.139	-100.52
264.355	53.08
264.571	130.9
264.787	16.21
265.004	65.36
265.22	-24.75
265.436	46.93
265.652	14.17
265.868	-28.84
266.084	-90.28
266.3	10.07
266.516	-100.52
266.732	87.89
266.948	24.4
267.164	-0.17
267.38	91.99
267.596	100.18
267.812	143.19
268.028	18.26
268.244	-30.89
268.46	-8.36
268.676	48.98
268.892	-4.27
269.108	-57.51
269.324	-18.6
269.54	-43.18
269.756	87.89
269.972	-45.23
270.188	65.36
270.403	-71.85
270.619	1.88
270.835	18.26
271.051	-59.56
271.267	-43.18
271.483	-20.65
271.698	91.99
271.914	112.47
272.13	75.6
272.346	-20.65
272.562	-28.84
272.777	61.27
272.993	77.65
273.209	18.26
273.425	118.61
273.64	-26.79
273.856	28.5
274.072	-6.31
274.287	36.69
274.503	106.32
274.719	67.41
274.934	30.55
275.15	-43.18
275.366	44.88
275.581	-61.61
275.797	36.69
276.012	20.31
276.228	8.02
276.444	34.64
276.659	14.17
276.875	-88.23
277.09	-4.27
277.306	-69.8
277.521	32.6
277.737	28.5
277.952	104.28
278.168	18.26
278.383	81.75
278.599	-32.94
278.814	81.75
279.03	14.17
279.245	104.28
279.461	55.12
279.676	135
279.892	3.93
280.107	-67.75
280.322	-2.22
280.538	63.32
280.753	20.31
280.969	85.84
281.184	42.84
281.399	153.43
281.615	-4.27
281.83	155.47
282.045	-20.65
282.26	-34.99
282.476	-55.47
282.691	122.71
282.906	38.74
283.122	128.85
283.337	-47.27
283.552	71.51
283.767	59.22
283.983	91.99
284.198	-0.17
284.413	122.71
284.628	-73.9
284.843	51.03
285.058	32.6
285.274	-49.32
285.489	44.88
285.704	85.84
285.919	-10.41
286.134	53.08
286.349	-34.99
286.564	5.97
286.779	126.8
286.995	87.89
287.21	-20.65
287.425	3.93
287.64	1.88
287.855	40.79
288.07	16.21
288.285	81.75
288.5	186.19
288.715	65.36
288.93	-12.46
289.145	20.31
289.36	94.04
289.575	5.97
289.79	110.42
290.004	55.12
290.219	98.13
290.434	-55.47
290.649	-24.75
290.864	40.79
291.079	-8.36
291.294	-16.55
291.509	46.93
291.724	-41.13
291.938	69.46
292.153	-2.22
292.368	-16.55
292.583	73.56
292.798	28.5
293.012	59.22
293.227	53.08
293.442	-24.75
293.657	132.95
293.871	85.84
294.086	100.18
294.301	161.62
294.516	126.8
294.73	26.45
294.945	-51.37
295.16	24.4
295.374	132.95
295.589	108.37
295.804	-55.47
296.018	42.84
296.233	167.76
296.447	63.32
296.662	-20.65
296.877	77.65
297.091	30.55
297.306	3.93
297.52	51.03
297.735	24.4
297.949	-8.36
298.164	126.8
298.378	-69.8
298.593	-71.85
298.807	-10.41
299.022	-6.31
299.236	155.47
299.451	59.22
299.665	48.98
299.88	32.6
300.094	102.23
300.309	46.93
300.523	114.52
300.737	65.36
300.952	75.6
301.166	81.75
301.381	-20.65
301.595	-4.27
301.809	55.12
302.024	20.31
302.238	-80.04
302.452	143.19
302.667	-28.84
302.881	139.09
303.095	104.28
303.309	114.52
303.524	-22.7
303.738	-12.46
303.952	-0.17
304.166	69.46
304.381	-147.62
304.595	87.89
304.809	32.6
305.023	14.17
305.237	-14.51
305.452	40.79
305.666	75.6
305.88	36.69
306.094	106.32
306.308	36.69
306.522	94.04
306.736	28.5
306.95	44.88
307.164	79.7
307.379	1.88
307.593	104.28
307.807	151.38
308.021	57.17
308.235	122.71
308.449	-57.51
308.663	16.21
308.877	163.67
309.091	67.41
309.305	87.89
309.519	-98.47
309.733	141.14
309.947	-92.33
310.161	53.08
310.374	69.46
310.588	53.08
310.802	-69.8
311.016	-34.99
311.23	5.97
311.444	-108.71
311.658	77.65
311.872	83.8
312.085	153.43
312.299	61.27
312.513	126.8
312.727	-10.41
312.941	-18.6
313.154	-16.55
313.368	38.74
313.582	83.8
313.796	61.27
314.009	32.6
314.223	42.84
314.437	-0.17
314.651	-18.6
314.864	18.26
315.078	-34.99
315.292	-32.94
315.505	12.12
315.719	26.45
315.933	71.51
316.146	-49.32
316.36	-45.23
316.573	139.09
316.787	79.7
317.001	106.32
317.214	-0.17
317.428	3.93
317.641	-157.86
317.855	8.02
318.068	85.84
318.282	69.46
318.495	108.37
318.709	98.13
318.922	57.17
319.136	161.62
319.349	112.47
319.563	-28.84
319.776	87.89
319.99	-92.33
320.203	77.65
320.417	-6.31
320.63	143.19
320.843	202.58
321.057	75.6
321.27	-41.13
321.483	36.69
321.697	130.9
321.91	42.84
322.124	77.65
322.337	-0.17
322.55	24.4
322.763	79.7
322.977	42.84
323.19	-4.27
323.403	65.36
323.617	16.21
323.83	79.7
324.043	32.6
324.256	44.88
324.469	12.12
324.683	46.93
324.896	-8.36
325.109	46.93
325.322	-47.27
325.535	1.88
325.748	73.56
325.962	22.36
326.175	51.03
326.388	26.45
326.601	87.89
326.814	32.6
327.027	59.22
327.24	114.52
327.453	-90.28
327.666	42.84
327.879	137.04
328.092	34.64
328.305	63.32
328.518	28.5
328.731	-37.03
328.944	-12.46
329.157	69.46
329.37	-0.17
329.583	241.49
329.796	75.6
330.009	-127.14
330.222	14.17
330.435	104.28
330.648	-2.22
330.861	61.27
331.073	34.64
331.286	26.45
331.499	12.12
331.712	-45.23
331.925	-2.22
332.138	61.27
332.35	120.66
332.563	-32.94
332.776	147.28
332.989	-16.55
333.202	-37.03
333.414	71.51
333.627	14.17
333.84	-4.27
334.053	44.88
334.265	-77.99
334.478	1.88
334.691	-10.41
334.903	96.08
335.116	-57.51
335.329	26.45
335.541	40.79
335.754	163.67
335.966	26.45
336.179	18.26
336.392	46.93
336.604	-22.7
336.817	83.8
337.029	22.36
337.242	98.13
337.454	63.32
337.667	-26.79
337.88	53.08
338.092	63.32
338.305	79.7
338.517	-14.51
338.729	79.7
338.942	143.19
339.154	-82.09
339.367	-14.51
339.579	114.52
339.792	-65.71
340.004	40.79
340.217	61.27
340.429	77.65
340.641	-8.36
340.854	5.97
341.066	-24.75
341.278	114.52
341.491	128.85
341.703	87.89
341.915	-30.89
342.128	24.4
342.34	22.36
342.552	-32.94
342.764	-0.17
342.977	69.46
343.189	18.26
343.401	40.79
343.613	-49.32
343.826	46.93
344.038	-22.7
344.25	61.27
344.462	-61.61
344.674	28.5
344.886	40.79
345.099	96.08
345.311	61.27
345.523	69.46
345.735	-75.95
345.947	-4.27
346.159	-22.7
346.371	-0.17
346.583	1.88
346.795	190.29
347.007	61.27
347.219	63.32
347.431	-53.42
347.643	57.17
347.855	-22.7
348.067	124.76
348.279	-45.23
348.491	-51.37
348.703	87.89
348.915	-2.22
349.127	20.31
349.339	5.97
349.551	-86.19
349.763	100.18
349.975	-14.51
350.187	20.31
350.399	55.12
350.61	65.36
350.822	-22.7
351.034	75.6
351.246	20.31
351.458	94.04
351.669	46.93
351.881	36.69
352.093	161.62
352.305	91.99
352.517	137.04
352.728	110.42
352.94	-28.84
353.152	130.9
353.363	65.36
353.575	77.65
353.787	165.71
353.999	-24.75
354.21	151.38
354.422	12.12
354.633	-41.13
354.845	73.56
355.057	48.98
355.268	22.36
355.48	51.03
355.692	-18.6
355.903	57.17
356.115	-2.22
356.326	-2.22
356.538	182.1
356.749	81.75
356.961	120.66
357.172	-0.17
357.384	-28.84
357.595	194.39
357.807	-12.46
358.018	65.36
358.23	-10.41
358.441	188.24
358.653	55.12
358.864	67.41
359.075	-26.79
359.287	96.08
359.498	98.13
359.709	46.93
359.921	5.97
360.132	34.64
360.344	79.7
360.555	-8.36
360.766	83.8
360.977	48.98
361.189	153.43
361.4	10.07
361.611	81.75
361.823	77.65
362.034	28.5
362.245	-86.19
362.456	12.12
362.667	77.65
362.879	-30.89
363.09	108.37
363.301	28.5
363.512	42.84
363.723	48.98
363.935	32.6
364.146	91.99
364.357	18.26
364.568	73.56
364.779	-96.43
364.99	190.29
365.201	10.07
365.412	137.04
365.623	-69.8
365.834	102.23
366.045	18.26
366.256	-14.51
366.467	126.8
366.678	12.12
366.889	-37.03
367.1	5.97
367.311	40.79
367.522	24.4
367.733	120.66
367.944	75.6
368.155	81.75
368.366	24.4
368.577	85.84
368.788	110.42
368.999	18.26
369.209	100.18
369.42	175.95
369.631	204.63
369.842	114.52
370.053	59.22
370.264	89.94
370.474	-96.43
370.685	91.99
370.896	40.79
371.107	110.42
371.317	-14.51
371.528	-14.51
371.739	110.42
371.95	89.94
372.16	55.12
372.371	22.36
372.582	38.74
372.792	30.55
373.003	77.65
373.214	51.03
373.424	75.6
373.635	-41.13
373.846	102.23
374.056	8.02
374.267	57.17
374.477	102.23
374.688	-26.79
374.898	-0.17
375.109	81.75
375.319	46.93
375.53	102.23
375.74	79.7
375.951	48.98
376.161	16.21
376.372	132.95
376.582	-16.55
376.793	98.13
377.003	-41.13
377.214	-30.89
377.424	10.07
377.635	24.4
377.845	-49.32
378.055	130.9
378.266	-73.9
378.476	28.5
378.686	63.32
378.897	46.93
379.107	53.08
379.317	106.32
379.528	24.4
379.738	104.28
379.948	-90.28
380.158	63.32
380.369	61.27
380.579	57.17
380.789	57.17
380.999	163.67
381.21	69.46
381.42	143.19
381.63	28.5
381.84	65.36
382.05	75.6
382.261	143.19
382.471	167.76
382.681	34.64
382.891	149.33
383.101	53.08
383.311	-61.61
383.521	-45.23
383.731	30.55
383.941	104.28
384.151	61.27
384.361	1.88
384.571	155.47
384.781	-12.46
384.991	130.9
385.201	147.28
385.411	57.17
385.621	36.69
385.831	102.23
386.041	10.07
386.251	65.36
386.461	167.76
386.671	71.51
386.881	73.56
387.091	81.75
387.301	118.61
387.511	22.36
387.72	73.56
387.93	69.46
388.14	-32.94
388.35	34.64
388.56	71.51
388.769	180.05
388.979	83.8
389.189	-45.23
389.399	16.21
389.609	137.04
389.818	102.23
390.028	77.65
390.238	59.22
390.447	-8.36
390.657	20.31
390.867	12.12
391.076	1.88
391.286	24.4
391.496	79.7
391.705	36.69
391.915	102.23
392.125	100.18
392.334	1.88
392.544	206.67
392.753	12.12
392.963	-14.51
393.172	36.69
393.382	-26.79
393.591	194.39
393.801	-8.36
394.01	229.2
394.22	42.84
394.429	38.74
394.639	48.98
394.848	87.89
395.058	30.55
395.267	5.97
395.477	124.76
395.686	69.46
395.895	106.32
396.105	130.9
396.314	110.42
396.524	126.8
396.733	24.4
396.942	53.08
397.152	34.64
397.361	48.98
397.57	69.46
397.78	-16.55
397.989	116.56
398.198	225.11
398.407	22.36
398.617	94.04
398.826	26.45
399.035	-34.99
399.244	122.71
399.453	57.17
399.663	55.12
399.872	53.08
400.081	-34.99
400.29	108.37
400.499	34.64
400.708	145.24
400.917	16.21
401.127	-28.84
401.336	28.5
401.545	221.01
401.754	151.38
401.963	79.7
402.172	20.31
402.381	16.21
402.59	-28.84
402.799	83.8
403.008	130.9
403.217	28.5
403.426	128.85
403.635	20.31
403.844	-63.66
404.053	26.45
404.262	-0.17
404.471	163.67
404.68	44.88
404.888	28.5
405.097	-32.94
405.306	26.45
405.515	59.22
405.724	42.84
405.933	116.56
406.142	38.74
406.35	153.43
406.559	-2.22
406.768	16.21
406.977	169.81
407.185	3.93
407.394	69.46
407.603	-2.22
407.812	87.89
408.02	102.23
408.229	14.17
408.438	128.85
408.646	-32.94
408.855	-22.7
409.064	75.6
409.272	3.93
409.481	186.19
409.69	-57.51
409.898	32.6
410.107	83.8
410.315	161.62
410.524	26.45
410.733	10.07
410.941	79.7
411.15	77.65
411.358	124.76
411.567	145.24
411.775	44.88
411.984	69.46
412.192	18.26
412.401	67.41
412.609	69.46
412.818	135
413.026	57.17
413.234	69.46
413.443	5.97
413.651	40.79
413.86	120.66
414.068	36.69
414.276	135
414.485	46.93
414.693	171.86
414.901	180.05
415.11	53.08
415.318	32.6
415.526	55.12
415.734	40.79
415.943	75.6
416.151	67.41
416.359	28.5
416.567	120.66
416.776	61.27
416.984	65.36
417.192	157.52
417.4	-24.75
417.608	16.21
417.817	24.4
418.025	57.17
418.233	155.47
418.441	71.51
418.649	-26.79
418.857	81.75
419.065	141.14
419.273	-8.36
419.481	38.74
419.689	63.32
419.897	8.02
420.105	42.84
420.313	184.15
420.521	233.3
420.729	114.52
420.937	8.02
421.145	-18.6
421.353	141.14
421.561	159.57
421.769	118.61
421.977	38.74
422.185	130.9
422.393	67.41
422.601	153.43
422.809	-2.22
423.017	-2.22
423.224	32.6
423.432	145.24
423.64	65.36
423.848	165.71
424.056	36.69
424.263	182.1
424.471	26.45
424.679	122.71
424.887	77.65
425.094	151.38
425.302	36.69
425.51	44.88
425.718	147.28
425.925	100.18
426.133	-10.41
426.341	155.47
426.548	112.47
426.756	85.84
426.964	83.8
427.171	91.99
427.379	91.99
427.586	36.69
427.794	61.27
428.001	163.67
428.209	73.56
428.417	151.38
428.624	169.81
428.832	126.8
429.039	69.46
429.247	20.31
429.454	130.9
429.662	173.91
429.869	178
430.076	112.47
430.284	194.39
430.491	210.77
430.699	214.87
430.906	180.05
431.114	139.09
431.321	175.95
431.528	112.47
431.736	161.62
431.943	202.58
432.15	251.73
432.358	294.74
432.565	216.91
432.772	44.88
432.979	247.63
433.187	171.86
433.394	173.91
433.601	257.87
433.808	272.21
434.016	276.31
434.223	245.59
434.43	231.25
434.637	257.87
434.844	315.22
435.052	321.36
435.259	325.46
435.466	360.27
435.673	282.45
435.88	386.9
436.087	448.33
436.294	296.78
436.501	329.55
436.708	384.85
436.915	427.85
437.122	427.85
437.329	257.87
437.537	411.47
437.743	438.09
437.95	540.49
438.157	466.77
438.364	440.14
438.571	563.02
438.778	487.25
438.985	536.4
439.192	552.78
439.399	497.49
439.606	491.34
439.813	653.13
440.02	698.19
440.227	878.41
440.433	667.47
440.64	710.47
440.847	677.71
441.054	808.78
441.261	905.03
441.467	741.19
441.674	687.95
441.881	907.08
442.088	808.78
442.294	900.94
442.501	948.04
442.708	929.61
442.914	966.47
443.121	1023.81
443.328	1085.25
443.534	1193.8
443.741	1206.08
443.948	1072.96
444.154	1263.43
444.361	1425.22
444.568	1296.19
444.774	1359.68
444.981	1277.76
445.187	1537.85
445.394	1423.17
445.6	1503.04
445.807	1584.96
446.013	1666.88
446.22	1701.69
446.426	1754.94
446.633	1822.52
446.839	2123.57
447.046	1865.53
447.252	2137.91
447.459	2154.29
447.665	1957.69
447.871	2379.57
448.078	2574.13
448.284	2438.96
448.491	2600.75
448.697	2705.2
448.903	2842.41
449.11	2801.45
449.316	2709.29
449.522	2932.52
449.728	2989.86
449.935	3200.8
450.141	3161.89
450.347	3665.69
450.553	3510.05
450.76	3669.79
450.966	3866.39
451.172	3778.33
451.378	4028.18
451.584	4065.05
451.791	4411.15
451.997	4632.33
452.203	4665.1
452.409	4826.89
452.615	4939.53
452.821	4859.66
453.027	4996.87
453.233	5648.13
453.44	5310.21
453.646	5502.72
453.852	5863.16
454.058	6254.33
454.264	6334.2
454.47	7020.27
454.676	6762.22
454.882	7405.28
455.088	7218.92
455.294	7499.49
455.5	7970.52
455.705	8316.63
455.911	8687.31
456.117	8658.64
456.323	9012.94
456.529	8922.83
456.735	9868.99
456.941	10002.11
457.147	10518.2
457.352	10923.69
457.558	11245.23
457.764	11722.4
457.97	12115.61
458.176	12457.62
458.381	13092.49
458.587	13332.11
458.793	14016.13
458.999	13921.92
459.204	15664.74
459.41	16082.53
459.616	16213.6
459.821	16879.19
460.027	17751.62
460.233	18535.99
460.438	18617.91
460.644	19965.48
460.85	19756.58
461.055	20586.01
461.261	21325.33
461.466	21108.24
461.672	21757.45
461.878	24188.39
462.083	23969.26
462.289	24129
462.494	25380.31
462.7	25785.8
462.905	25912.78
463.111	28081.58
463.316	29386.13
463.522	30074.25
463.727	31188.35
463.932	32187.75
464.138	33060.19
464.343	34446.66
464.549	34604.36
464.754	37254.43
464.959	37954.83
465.165	38993.15
465.37	38090
465.575	38450.44
465.781	41301.22
465.986	42583.24
466.191	41780.44
466.397	42374.35
466.602	41207.01
466.807	43705.53
467.012	44117.17
467.218	44805.29
467.423	45528.22
467.628	46670.99
467.833	48895.08
468.038	47563.9
468.244	47172.74
468.449	49003.63
468.654	48053.37
