Data from USB4F104151__191__11-05-21-932.txt Node

Date: Wed Feb 26 11:05:21 EST 2025
User: louis
Spectrometer: USB4F10415
Trigger mode: 4
Integration Time (sec): 1.000000E-1
Scans to average: 1
Electric dark correction enabled: true
Nonlinearity correction enabled: false
Boxcar width: 0
XAxis mode: Wavelengths
Number of Pixels in Spectrum: 3648
>>>>>Begin Spectral Data<<<<<
178.204	-416.25
178.424	-416.25
178.644	-416.25
178.864	-401.91
179.084	-401.91
179.304	-76.29
179.524	-47.62
179.744	75.26
179.964	-53.76
180.184	1.54
180.404	3.58
180.624	13.82
180.844	50.69
181.064	-76.29
181.283	79.36
181.503	-8.7
181.723	38.4
181.943	-23.04
182.163	216.57
182.383	-8.7
182.602	116.22
182.822	108.03
183.042	110.08
183.262	17.92
183.482	26.11
183.701	71.17
183.921	19.97
184.141	36.35
184.361	77.31
184.58	75.26
184.8	-6.66
185.02	24.06
185.239	50.69
185.459	54.78
185.679	93.69
185.898	-111.1
186.118	60.93
186.338	24.06
186.557	95.74
186.777	-96.77
186.997	-27.14
187.216	75.26
187.436	230.91
187.655	17.92
187.875	157.18
188.095	60.93
188.314	192
188.534	95.74
188.753	-35.33
188.973	144.89
189.192	265.72
189.412	24.06
189.631	34.3
189.851	28.16
190.07	71.17
190.29	-74.24
190.509	9.73
190.729	73.21
190.948	134.65
191.168	181.76
191.387	32.26
191.607	62.98
191.826	60.93
192.045	62.98
192.265	40.45
192.484	87.55
192.704	19.97
192.923	-51.71
193.142	194.05
193.362	140.8
193.581	148.99
193.8	52.74
194.02	89.6
194.239	110.08
194.458	105.98
194.678	-0.51
194.897	1.54
195.116	19.97
195.335	42.5
195.555	56.83
195.774	17.92
195.993	210.43
196.212	15.87
196.432	-2.56
196.651	69.12
196.87	65.02
197.089	196.09
197.308	93.69
197.528	126.46
197.747	1.54
197.966	40.45
198.185	153.09
198.404	26.11
198.623	208.38
198.842	62.98
199.062	60.93
199.281	144.89
199.5	144.89
199.719	40.45
199.938	89.6
200.157	50.69
200.376	58.88
200.595	146.94
200.814	105.98
201.033	-14.85
201.252	206.33
201.471	105.98
201.69	126.46
201.909	73.21
202.128	128.51
202.347	50.69
202.566	28.16
202.785	-23.04
203.004	91.65
203.223	308.73
203.442	67.07
203.661	-37.38
203.879	112.13
204.098	179.71
204.317	-8.7
204.536	114.17
204.755	73.21
204.974	153.09
205.193	30.21
205.411	105.98
205.63	138.75
205.849	161.28
206.068	22.02
206.287	32.26
206.505	202.24
206.724	62.98
206.943	-2.56
207.162	9.73
207.381	34.3
207.599	13.82
207.818	-2.56
208.037	-31.23
208.255	71.17
208.474	54.78
208.693	93.69
208.911	44.54
209.13	136.7
209.349	85.5
209.567	73.21
209.786	73.21
210.005	153.09
210.223	91.65
210.442	-72.19
210.661	91.65
210.879	69.12
211.098	-6.66
211.316	62.98
211.535	54.78
211.753	99.84
211.972	75.26
212.191	-8.7
212.409	69.12
212.628	69.12
212.846	-70.14
213.065	44.54
213.283	144.89
213.502	40.45
213.72	116.22
213.938	65.02
214.157	22.02
214.375	181.76
214.594	56.83
214.812	144.89
215.031	-20.99
215.249	-0.51
215.467	30.21
215.686	34.3
215.904	83.45
216.122	17.92
216.341	159.23
216.559	93.69
216.778	112.13
216.996	93.69
217.214	-18.94
217.432	46.59
217.651	-27.14
217.869	-29.18
218.087	128.51
218.306	38.4
218.524	52.74
218.742	28.16
218.96	108.03
219.179	22.02
219.397	11.78
219.615	261.63
219.833	54.78
220.051	36.35
220.27	38.4
220.488	148.99
220.706	124.41
220.924	22.02
221.142	1.54
221.36	50.69
221.578	44.54
221.796	19.97
222.015	3.58
222.233	65.02
222.451	189.95
222.669	-12.8
222.887	122.37
223.105	13.82
223.323	93.69
223.541	-41.47
223.759	26.11
223.977	44.54
224.195	175.61
224.413	89.6
224.631	69.12
224.849	71.17
225.067	212.48
225.285	46.59
225.503	-4.61
225.721	-70.14
225.939	17.92
226.157	40.45
226.375	175.61
226.592	-6.66
226.81	122.37
227.028	108.03
227.246	122.37
227.464	85.5
227.682	112.13
227.9	44.54
228.117	58.88
228.335	75.26
228.553	73.21
228.771	7.68
228.989	67.07
229.206	71.17
229.424	-72.19
229.642	9.73
229.86	-0.51
230.077	171.52
230.295	89.6
230.513	161.28
230.731	99.84
230.948	169.47
231.166	278.01
231.384	-61.95
231.601	-8.7
231.819	183.81
232.037	-4.61
232.254	-12.8
232.472	75.26
232.689	-0.51
232.907	208.38
233.125	9.73
233.342	-2.56
233.56	52.74
233.777	7.68
233.995	112.13
234.213	112.13
234.43	101.89
234.648	81.41
234.865	28.16
235.083	112.13
235.3	67.07
235.518	46.59
235.735	118.27
235.953	69.12
236.17	120.32
236.388	52.74
236.605	65.02
236.822	163.33
237.04	241.15
237.257	58.88
237.475	-74.24
237.692	73.21
237.909	40.45
238.127	-2.56
238.344	65.02
238.562	83.45
238.779	-82.43
238.996	26.11
239.214	-16.9
239.431	144.89
239.648	-2.56
239.865	69.12
240.083	116.22
240.3	19.97
240.517	-10.75
240.735	62.98
240.952	130.56
241.169	120.32
241.386	108.03
241.603	-0.51
241.821	-6.66
242.038	60.93
242.255	81.41
242.472	5.63
242.689	103.93
242.907	99.84
243.124	3.58
243.341	50.69
243.558	19.97
243.775	-4.61
243.992	-41.47
244.209	169.47
244.426	146.94
244.643	79.36
244.86	52.74
245.078	40.45
245.295	60.93
245.512	17.92
245.729	-6.66
245.946	161.28
246.163	148.99
246.38	44.54
246.597	99.84
246.814	54.78
247.031	79.36
247.248	54.78
247.464	126.46
247.681	46.59
247.898	99.84
248.115	99.84
248.332	-10.75
248.549	192
248.766	138.75
248.983	89.6
249.2	60.93
249.417	130.56
249.633	65.02
249.85	62.98
250.067	62.98
250.284	148.99
250.501	101.89
250.717	99.84
250.934	-8.7
251.151	9.73
251.368	46.59
251.585	34.3
251.801	85.5
252.018	-43.52
252.235	208.38
252.451	-80.38
252.668	52.74
252.885	202.24
253.102	40.45
253.318	30.21
253.535	13.82
253.752	116.22
253.968	19.97
254.185	13.82
254.401	-23.04
254.618	9.73
254.835	-35.33
255.051	192
255.268	95.74
255.484	120.32
255.701	13.82
255.917	83.45
256.134	85.5
256.351	22.02
256.567	34.3
256.784	7.68
257	-45.57
257.217	101.89
257.433	126.46
257.65	36.35
257.866	128.51
258.082	-23.04
258.299	-59.9
258.515	73.21
258.732	85.5
258.948	15.87
259.165	99.84
259.381	-51.71
259.597	138.75
259.814	126.46
260.03	62.98
260.246	-18.94
260.463	134.65
260.679	179.71
260.895	116.22
261.112	89.6
261.328	32.26
261.544	-0.51
261.761	175.61
261.977	22.02
262.193	-94.72
262.409	140.8
262.626	-8.7
262.842	-8.7
263.058	15.87
263.274	112.13
263.49	95.74
263.707	75.26
263.923	95.74
264.139	-20.99
264.355	32.26
264.571	105.98
264.787	75.26
265.004	83.45
265.22	9.73
265.436	11.78
265.652	-23.04
265.868	95.74
266.084	42.5
266.3	42.5
266.516	-27.14
266.732	1.54
266.948	75.26
267.164	69.12
267.38	101.89
267.596	132.61
267.812	187.9
268.028	7.68
268.244	22.02
268.46	58.88
268.676	71.17
268.892	24.06
269.108	42.5
269.324	-10.75
269.54	52.74
269.756	183.81
269.972	-49.66
270.188	9.73
270.403	-35.33
270.619	114.17
270.835	40.45
271.051	52.74
271.267	93.69
271.483	13.82
271.698	146.94
271.914	99.84
272.13	138.75
272.346	28.16
272.562	44.54
272.777	124.41
272.993	17.92
273.209	-90.62
273.425	44.54
273.64	-37.38
273.856	163.33
274.072	11.78
274.287	-0.51
274.503	105.98
274.719	75.26
274.934	19.97
275.15	-43.52
275.366	32.26
275.581	-4.61
275.797	103.93
276.012	60.93
276.228	56.83
276.444	89.6
276.659	116.22
276.875	28.16
277.09	40.45
277.306	42.5
277.521	79.36
277.737	-20.99
277.952	116.22
278.168	54.78
278.383	101.89
278.599	67.07
278.814	110.08
279.03	13.82
279.245	124.41
279.461	62.98
279.676	112.13
279.892	34.3
280.107	3.58
280.322	24.06
280.538	24.06
280.753	15.87
280.969	114.17
281.184	32.26
281.399	189.95
281.615	116.22
281.83	89.6
282.045	-49.66
282.26	22.02
282.476	26.11
282.691	101.89
282.906	67.07
283.122	54.78
283.337	-18.94
283.552	58.88
283.767	38.4
283.983	112.13
284.198	1.54
284.413	69.12
284.628	13.82
284.843	58.88
285.058	44.54
285.274	67.07
285.489	34.3
285.704	120.32
285.919	9.73
286.134	95.74
286.349	48.64
286.564	101.89
286.779	124.41
286.995	7.68
287.21	-61.95
287.425	54.78
287.64	34.3
287.855	9.73
288.07	-74.24
288.285	163.33
288.5	177.66
288.715	69.12
288.93	-23.04
289.145	73.21
289.36	138.75
289.575	17.92
289.79	163.33
290.004	67.07
290.219	177.66
290.434	-18.94
290.649	24.06
290.864	56.83
291.079	60.93
291.294	24.06
291.509	17.92
291.724	30.21
291.938	46.59
292.153	105.98
292.368	22.02
292.583	73.21
292.798	132.61
293.012	85.5
293.227	134.65
293.442	60.93
293.657	116.22
293.871	73.21
294.086	54.78
294.301	243.2
294.516	128.51
294.73	69.12
294.945	-27.14
295.16	-51.71
295.374	173.57
295.589	163.33
295.804	-8.7
296.018	89.6
296.233	108.03
296.447	56.83
296.662	62.98
296.877	99.84
297.091	144.89
297.306	15.87
297.52	73.21
297.735	91.65
297.949	-12.8
298.164	15.87
298.378	91.65
298.593	-35.33
298.807	62.98
299.022	-8.7
299.236	146.94
299.451	22.02
299.665	-31.23
299.88	52.74
300.094	95.74
300.309	40.45
300.523	69.12
300.737	30.21
300.952	56.83
301.166	13.82
301.381	-66.05
301.595	-0.51
301.809	60.93
302.024	93.69
302.238	52.74
302.452	130.56
302.667	30.21
302.881	183.81
303.095	62.98
303.309	62.98
303.524	77.31
303.738	-10.75
303.952	26.11
304.166	89.6
304.381	-96.77
304.595	161.28
304.809	-8.7
305.023	40.45
305.237	-55.81
305.452	11.78
305.666	101.89
305.88	118.27
306.094	77.31
306.308	85.5
306.522	163.33
306.736	110.08
306.95	138.75
307.164	52.74
307.379	-37.38
307.593	165.37
307.807	116.22
308.021	97.79
308.235	173.57
308.449	-129.53
308.663	65.02
308.877	247.29
309.091	52.74
309.305	144.89
309.519	-94.72
309.733	148.99
309.947	-31.23
310.161	58.88
310.374	134.65
310.588	85.5
310.802	77.31
311.016	1.54
311.23	52.74
311.444	-20.99
311.658	19.97
311.872	134.65
312.085	169.47
312.299	177.66
312.513	144.89
312.727	75.26
312.941	7.68
313.154	28.16
313.368	69.12
313.582	93.69
313.796	44.54
314.009	34.3
314.223	140.8
314.437	89.6
314.651	54.78
314.864	3.58
315.078	38.4
315.292	40.45
315.505	50.69
315.719	69.12
315.933	110.08
316.146	48.64
316.36	-18.94
316.573	140.8
316.787	69.12
317.001	87.55
317.214	-51.71
317.428	116.22
317.641	-12.8
317.855	26.11
318.068	19.97
318.282	93.69
318.495	161.28
318.709	95.74
318.922	26.11
319.136	140.8
319.349	146.94
319.563	11.78
319.776	130.56
319.99	-39.42
320.203	103.93
320.417	108.03
320.63	36.35
320.843	161.28
321.057	89.6
321.27	105.98
321.483	142.85
321.697	185.85
321.91	42.5
322.124	105.98
322.337	-18.94
322.55	-25.09
322.763	54.78
322.977	-10.75
323.19	13.82
323.403	114.17
323.617	75.26
323.83	65.02
324.043	15.87
324.256	30.21
324.469	-76.29
324.683	151.04
324.896	-76.29
325.109	71.17
325.322	-0.51
325.535	87.55
325.748	105.98
325.962	13.82
326.175	52.74
326.388	85.5
326.601	214.52
326.814	26.11
327.027	87.55
327.24	138.75
327.453	-16.9
327.666	110.08
327.879	177.66
328.092	132.61
328.305	26.11
328.518	81.41
328.731	-41.47
328.944	54.78
329.157	60.93
329.37	-49.66
329.583	237.05
329.796	108.03
330.009	17.92
330.222	112.13
330.435	54.78
330.648	34.3
330.861	56.83
331.073	54.78
331.286	110.08
331.499	114.17
331.712	26.11
331.925	77.31
332.138	30.21
332.35	130.56
332.563	38.4
332.776	187.9
332.989	-6.66
333.202	-41.47
333.414	58.88
333.627	3.58
333.84	3.58
334.053	69.12
334.265	-4.61
334.478	40.45
334.691	28.16
334.903	73.21
335.116	15.87
335.329	52.74
335.541	48.64
335.754	130.56
335.966	15.87
336.179	24.06
336.392	-49.66
336.604	32.26
336.817	44.54
337.029	99.84
337.242	89.6
337.454	89.6
337.667	91.65
337.88	161.28
338.092	17.92
338.305	32.26
338.517	-92.67
338.729	126.46
338.942	144.89
339.154	-16.9
339.367	-6.66
339.579	54.78
339.792	-53.76
340.004	52.74
340.217	62.98
340.429	77.31
340.641	-27.14
340.854	15.87
341.066	50.69
341.278	128.51
341.491	200.19
341.703	148.99
341.915	17.92
342.128	144.89
342.34	75.26
342.552	-25.09
342.764	65.02
342.977	69.12
343.189	95.74
343.401	81.41
343.613	-18.94
343.826	-2.56
344.038	-25.09
344.25	44.54
344.462	19.97
344.674	58.88
344.886	56.83
345.099	163.33
345.311	56.83
345.523	36.35
345.735	-84.48
345.947	5.63
346.159	75.26
346.371	13.82
346.583	26.11
346.795	159.23
347.007	-23.04
347.219	81.41
347.431	60.93
347.643	132.61
347.855	56.83
348.067	167.42
348.279	-78.33
348.491	7.68
348.703	134.65
348.915	-10.75
349.127	44.54
349.339	91.65
349.551	-23.04
349.763	81.41
349.975	22.02
350.187	81.41
350.399	103.93
350.61	130.56
350.822	71.17
351.034	105.98
351.246	105.98
351.458	110.08
351.669	151.04
351.881	38.4
352.093	91.65
352.305	95.74
352.517	120.32
352.728	97.79
352.94	110.08
353.152	171.52
353.363	60.93
353.575	52.74
353.787	175.61
353.999	103.93
354.21	169.47
354.422	5.63
354.633	26.11
354.845	87.55
355.057	11.78
355.268	50.69
355.48	134.65
355.692	-31.23
355.903	87.55
356.115	-29.18
356.326	-90.62
356.538	189.95
356.749	101.89
356.961	112.13
357.172	58.88
357.384	-4.61
357.595	175.61
357.807	60.93
358.018	85.5
358.23	1.54
358.441	155.13
358.653	42.5
358.864	7.68
359.075	11.78
359.287	62.98
359.498	134.65
359.709	130.56
359.921	-4.61
360.132	28.16
360.344	75.26
360.555	13.82
360.766	101.89
360.977	17.92
361.189	132.61
361.4	46.59
361.611	103.93
361.823	151.04
362.034	71.17
362.245	-16.9
362.456	95.74
362.667	122.37
362.879	28.16
363.09	46.59
363.301	52.74
363.512	11.78
363.723	-41.47
363.935	11.78
364.146	136.7
364.357	-45.57
364.568	67.07
364.779	-94.72
364.99	142.85
365.201	-8.7
365.412	128.51
365.623	-39.42
365.834	83.45
366.045	46.59
366.256	91.65
366.467	77.31
366.678	1.54
366.889	77.31
367.1	60.93
367.311	120.32
367.522	-16.9
367.733	75.26
367.944	85.5
368.155	-18.94
368.366	79.36
368.577	124.41
368.788	126.46
368.999	-64
369.209	44.54
369.42	265.72
369.631	230.91
369.842	108.03
370.053	30.21
370.264	124.41
370.474	-18.94
370.685	1.54
370.896	46.59
371.107	153.09
371.317	136.7
371.528	13.82
371.739	169.47
371.95	73.21
372.16	11.78
372.371	32.26
372.582	19.97
372.792	52.74
373.003	91.65
373.214	-6.66
373.424	144.89
373.635	24.06
373.846	46.59
374.056	95.74
374.267	77.31
374.477	122.37
374.688	-14.85
374.898	60.93
375.109	24.06
375.319	65.02
375.53	181.76
375.74	237.05
375.951	65.02
376.161	97.79
376.372	67.07
376.582	15.87
376.793	140.8
377.003	-10.75
377.214	9.73
377.424	108.03
377.635	34.3
377.845	99.84
378.055	148.99
378.266	15.87
378.476	77.31
378.686	38.4
378.897	7.68
379.107	192
379.317	103.93
379.528	30.21
379.738	69.12
379.948	7.68
380.158	181.76
380.369	91.65
380.579	105.98
380.789	62.98
380.999	89.6
381.21	122.37
381.42	185.85
381.63	110.08
381.84	122.37
382.05	22.02
382.261	146.94
382.471	157.18
382.681	-10.75
382.891	169.47
383.101	101.89
383.311	-49.66
383.521	-16.9
383.731	116.22
383.941	126.46
384.151	67.07
384.361	44.54
384.571	85.5
384.781	42.5
384.991	241.15
385.201	187.9
385.411	155.13
385.621	85.5
385.831	32.26
386.041	85.5
386.251	34.3
386.461	24.06
386.671	77.31
386.881	56.83
387.091	95.74
387.301	138.75
387.511	67.07
387.72	75.26
387.93	185.85
388.14	-29.18
388.35	34.3
388.56	103.93
388.769	30.21
388.979	60.93
389.189	11.78
389.399	-6.66
389.609	120.32
389.818	95.74
390.028	105.98
390.238	95.74
390.447	-14.85
390.657	91.65
390.867	34.3
391.076	-31.23
391.286	79.36
391.496	81.41
391.705	-4.61
391.915	130.56
392.125	67.07
392.334	52.74
392.544	138.75
392.753	114.17
392.963	15.87
393.172	79.36
393.382	17.92
393.591	247.29
393.801	-27.14
394.01	146.94
394.22	112.13
394.429	75.26
394.639	73.21
394.848	110.08
395.058	56.83
395.267	38.4
395.477	140.8
395.686	26.11
395.895	136.7
396.105	161.28
396.314	71.17
396.524	87.55
396.733	34.3
396.942	153.09
397.152	132.61
397.361	148.99
397.57	-10.75
397.78	89.6
397.989	153.09
398.198	226.81
398.407	-31.23
398.617	5.63
398.826	34.3
399.035	116.22
399.244	142.85
399.453	134.65
399.663	36.35
399.872	65.02
400.081	-8.7
400.29	232.96
400.499	-4.61
400.708	89.6
400.917	56.83
401.127	79.36
401.336	87.55
401.545	181.76
401.754	138.75
401.963	169.47
402.172	112.13
402.381	-66.05
402.59	-43.52
402.799	32.26
403.008	155.13
403.217	13.82
403.426	91.65
403.635	-47.62
403.844	24.06
404.053	75.26
404.262	-35.33
404.471	146.94
404.68	60.93
404.888	62.98
405.097	38.4
405.306	30.21
405.515	177.66
405.724	60.93
405.933	87.55
406.142	44.54
406.35	142.85
406.559	-16.9
406.768	112.13
406.977	165.37
407.185	75.26
407.394	13.82
407.603	5.63
407.812	87.55
408.02	200.19
408.229	60.93
408.438	65.02
408.646	-37.38
408.855	3.58
409.064	60.93
409.272	99.84
409.481	46.59
409.69	22.02
409.898	17.92
410.107	75.26
410.315	110.08
410.524	-74.24
410.733	134.65
410.941	34.3
411.15	87.55
411.358	140.8
411.567	148.99
411.775	110.08
411.984	103.93
412.192	120.32
412.401	54.78
412.609	167.42
412.818	136.7
413.026	40.45
413.234	62.98
413.443	36.35
413.651	40.45
413.86	73.21
414.068	159.23
414.276	146.94
414.485	81.41
414.693	91.65
414.901	169.47
415.11	67.07
415.318	71.17
415.526	65.02
415.734	151.04
415.943	144.89
416.151	151.04
416.359	38.4
416.567	67.07
416.776	169.47
416.984	126.46
417.192	169.47
417.4	44.54
417.608	36.35
417.817	81.41
418.025	134.65
418.233	175.61
418.441	-8.7
418.649	50.69
418.857	24.06
419.065	200.19
419.273	34.3
419.481	112.13
419.689	85.5
419.897	22.02
420.105	38.4
420.313	153.09
420.521	105.98
420.729	177.66
420.937	108.03
421.145	-88.57
421.353	148.99
421.561	183.81
421.769	103.93
421.977	-0.51
422.185	132.61
422.393	15.87
422.601	173.57
422.809	122.37
423.017	116.22
423.224	146.94
423.432	79.36
423.64	95.74
423.848	192
424.056	1.54
424.263	118.27
424.471	83.45
424.679	175.61
424.887	15.87
425.094	155.13
425.302	159.23
425.51	28.16
425.718	138.75
425.925	79.36
426.133	93.69
426.341	275.96
426.548	44.54
426.756	50.69
426.964	69.12
427.171	-10.75
427.379	62.98
427.586	93.69
427.794	140.8
428.001	210.43
428.209	171.52
428.417	128.51
428.624	169.47
428.832	155.13
429.039	112.13
429.247	112.13
429.454	204.28
429.662	232.96
429.869	81.41
430.076	157.18
430.284	255.48
430.491	257.53
430.699	192
430.906	220.67
431.114	198.14
431.321	159.23
431.528	89.6
431.736	167.42
431.943	220.67
432.15	214.52
432.358	122.37
432.565	329.21
432.772	71.17
432.979	212.48
433.187	189.95
433.394	278.01
433.601	212.48
433.808	292.35
434.016	228.86
434.223	257.53
434.43	255.48
434.637	278.01
434.844	249.34
435.052	257.53
435.259	275.96
435.466	290.3
435.673	263.68
435.88	409.08
436.087	314.88
436.294	376.31
436.501	298.49
436.708	380.41
436.915	280.06
437.122	464.38
437.329	347.64
437.537	404.99
437.743	302.59
437.95	574.97
438.157	402.94
438.364	400.89
438.571	486.9
438.778	466.42
438.985	482.81
439.192	564.73
439.399	464.38
439.606	591.35
439.813	564.73
440.02	630.26
440.227	691.7
440.433	597.49
440.64	673.27
440.847	620.02
441.054	722.42
441.261	660.98
441.467	706.04
441.674	648.69
441.881	767.48
442.088	798.2
442.294	771.57
442.501	929.27
442.708	804.34
442.914	833.01
443.121	914.93
443.328	955.89
443.534	1033.71
443.741	1023.47
443.948	892.4
444.154	1205.74
444.361	1236.46
444.568	1101.3
444.774	1201.65
444.981	1150.45
445.187	1390.06
445.394	1242.61
445.6	1230.32
445.807	1441.26
446.013	1471.98
446.22	1453.55
446.426	1596.9
446.633	1646.05
446.839	1768.93
447.046	1695.21
447.252	1764.84
447.459	1895.91
447.665	1914.34
447.871	2092.51
448.078	2160.1
448.284	2137.57
448.491	2180.57
448.697	2291.17
448.903	2432.47
449.11	2412
449.316	2430.43
449.522	2803.16
449.728	2731.48
449.935	2776.53
450.141	2887.12
450.347	3016.15
450.553	3012.05
450.76	3220.94
450.966	3278.29
451.172	3372.49
451.378	3569.1
451.584	3724.74
451.791	3825.09
451.997	3859.91
452.203	4171.2
452.409	4201.92
452.615	4408.76
452.821	4296.13
453.027	4447.68
453.233	4670.9
453.44	4638.14
453.646	5035.44
453.852	5223.86
454.058	5430.7
454.264	5539.24
454.47	5959.08
454.676	6020.52
454.882	6581.66
455.088	6235.55
455.294	6636.95
455.5	6919.57
455.705	7347.6
455.911	7302.54
456.117	7536.01
456.323	7798.15
456.529	7912.84
456.735	8584.57
456.941	8799.61
457.147	8994.17
457.352	9225.59
457.558	9713
457.764	10184.04
457.97	10542.43
458.176	10853.72
458.381	11570.51
458.587	11556.18
458.793	12217.67
458.999	12365.12
459.204	13673.78
459.41	14337.32
459.616	13894.96
459.821	14791.97
460.027	15420.69
460.233	16047.37
460.438	16258.31
460.644	17263.86
460.85	17349.88
461.055	17878.26
461.261	18910.43
461.466	18523.37
461.672	18846.94
461.878	20819.14
462.083	20683.97
462.289	21206.2
462.494	22006.96
462.7	22246.57
462.905	22533.29
463.111	24339.6
463.316	25746.55
463.522	26121.33
463.727	26686.57
463.932	27835.48
464.138	28861.51
464.343	29860.92
464.549	30135.35
464.754	32177.17
464.959	33295.36
465.165	33405.95
465.37	32941.07
465.575	33373.19
465.781	35570.66
465.986	36588.5
466.191	36398.04
466.397	36580.31
466.602	35218.41
466.807	37204.94
467.012	38228.92
467.218	38869.93
467.423	38886.32
467.628	40096.67
467.833	41608.07
468.038	40983.44
468.244	40190.87
468.449	42554.23
468.654	41765.76
