Data from USB4F104151__42__10-42-52-680.txt Node

Date: Wed Feb 26 10:42:52 EST 2025
User: louis
Spectrometer: USB4F10415
Trigger mode: 4
Integration Time (sec): 1.000000E-1
Scans to average: 1
Electric dark correction enabled: true
Nonlinearity correction enabled: false
Boxcar width: 0
XAxis mode: Wavelengths
Number of Pixels in Spectrum: 3648
>>>>>Begin Spectral Data<<<<<
178.204	-373.75
178.424	-373.75
178.644	-373.75
178.864	-431.1
179.084	-394.23
179.304	5.12
179.524	-17.41
179.744	50.18
179.964	-23.55
180.184	11.26
180.404	-19.46
180.624	11.26
180.844	-17.41
181.064	-68.61
181.283	7.17
181.503	35.84
181.723	25.6
181.943	-33.79
182.163	156.67
182.383	44.03
182.602	23.55
182.822	111.61
183.042	-31.74
183.262	-58.37
183.482	52.22
183.701	19.46
183.921	-27.65
184.141	-60.42
184.361	99.33
184.58	13.31
184.8	23.55
185.02	-44.03
185.239	58.37
185.459	99.33
185.679	87.04
185.898	-150.53
186.118	15.36
186.338	78.85
186.557	99.33
186.777	-54.27
186.997	-1.02
187.216	-19.46
187.436	134.14
187.655	99.33
187.875	115.71
188.095	33.79
188.314	173.05
188.534	99.33
188.753	21.5
188.973	115.71
189.192	156.67
189.412	44.03
189.631	54.27
189.851	46.08
190.07	142.33
190.29	-80.89
190.509	68.61
190.729	29.7
190.948	175.1
191.168	203.77
191.387	84.99
191.607	25.6
191.826	64.51
192.045	46.08
192.265	-46.08
192.484	46.08
192.704	-19.46
192.923	-68.61
193.142	168.96
193.362	103.42
193.581	101.37
193.8	39.94
194.02	76.8
194.239	17.41
194.458	3.07
194.678	35.84
194.897	-19.46
195.116	80.89
195.335	99.33
195.555	29.7
195.774	-44.03
195.993	148.48
196.212	19.46
196.432	17.41
196.651	9.22
196.87	-17.41
197.089	173.05
197.308	-3.07
197.528	70.65
197.747	-7.17
197.966	-9.22
198.185	52.22
198.404	-25.6
198.623	117.76
198.842	89.09
199.062	99.33
199.281	93.18
199.5	62.46
199.719	111.61
199.938	29.7
200.157	21.5
200.376	152.57
200.595	99.33
200.814	-25.6
201.033	21.5
201.252	56.32
201.471	33.79
201.69	41.98
201.909	-11.26
202.128	107.52
202.347	142.33
202.566	60.42
202.785	-91.13
203.004	23.55
203.223	291.84
203.442	29.7
203.661	-138.24
203.879	62.46
204.098	82.94
204.317	-95.23
204.536	70.65
204.755	39.94
204.974	84.99
205.193	27.65
205.411	130.05
205.63	144.38
205.849	74.75
206.068	-25.6
206.287	-3.07
206.505	181.25
206.724	-39.94
206.943	68.61
207.162	5.12
207.381	-15.36
207.599	72.7
207.818	84.99
208.037	-123.9
208.255	80.89
208.474	-15.36
208.693	29.7
208.911	-33.79
209.13	84.99
209.349	66.56
209.567	74.75
209.786	54.27
210.005	103.42
210.223	48.13
210.442	-82.94
210.661	7.17
210.879	48.13
211.098	15.36
211.316	-35.84
211.535	130.05
211.753	82.94
211.972	23.55
212.191	-25.6
212.409	25.6
212.628	25.6
212.846	-33.79
213.065	58.37
213.283	144.38
213.502	25.6
213.72	5.12
213.938	87.04
214.157	-25.6
214.375	109.57
214.594	58.37
214.812	68.61
215.031	-52.22
215.249	19.46
215.467	-19.46
215.686	-17.41
215.904	52.22
216.122	70.65
216.341	179.2
216.559	46.08
216.778	64.51
216.996	89.09
217.214	-1.02
217.432	-13.31
217.651	-101.37
217.869	58.37
218.087	37.89
218.306	19.46
218.524	-9.22
218.742	54.27
218.96	113.66
219.179	29.7
219.397	15.36
219.615	197.63
219.833	136.19
220.051	33.79
220.27	140.29
220.488	138.24
220.706	39.94
220.924	-13.31
221.142	-56.32
221.36	115.71
221.578	17.41
221.796	35.84
222.015	76.8
222.233	-3.07
222.451	136.19
222.669	-19.46
222.887	41.98
223.105	39.94
223.323	-1.02
223.541	-113.66
223.759	60.42
223.977	-7.17
224.195	185.34
224.413	37.89
224.631	60.42
224.849	91.13
225.067	193.53
225.285	-41.98
225.503	-39.94
225.721	-101.37
225.939	50.18
226.157	44.03
226.375	226.3
226.592	-3.07
226.81	76.8
227.028	123.9
227.246	70.65
227.464	95.23
227.682	140.29
227.9	156.67
228.117	29.7
228.335	76.8
228.553	13.31
228.771	-9.22
228.989	70.65
229.206	72.7
229.424	-3.07
229.642	-56.32
229.86	-3.07
230.077	113.66
230.295	37.89
230.513	103.42
230.731	48.13
230.948	201.72
231.166	160.77
231.384	-27.65
231.601	-19.46
231.819	119.81
232.037	44.03
232.254	-31.74
232.472	-29.7
232.689	37.89
232.907	74.75
233.125	29.7
233.342	52.22
233.56	17.41
233.777	37.89
233.995	54.27
234.213	-13.31
234.43	134.14
234.648	66.56
234.865	29.7
235.083	-15.36
235.3	46.08
235.518	37.89
235.735	119.81
235.953	31.74
236.17	-31.74
236.388	25.6
236.605	41.98
236.822	128
237.04	62.46
237.257	97.28
237.475	-80.89
237.692	17.41
237.909	103.42
238.127	44.03
238.344	27.65
238.562	-1.02
238.779	-72.7
238.996	70.65
239.214	48.13
239.431	31.74
239.648	-50.18
239.865	58.37
240.083	93.18
240.3	25.6
240.517	33.79
240.735	33.79
240.952	142.33
241.169	87.04
241.386	64.51
241.603	44.03
241.821	-68.61
242.038	128
242.255	156.67
242.472	-146.43
242.689	95.23
242.907	5.12
243.124	3.07
243.341	13.31
243.558	46.08
243.775	-44.03
243.992	-44.03
244.209	1.02
244.426	199.68
244.643	50.18
244.86	60.42
245.078	97.28
245.295	31.74
245.512	60.42
245.729	15.36
245.946	107.52
246.163	3.07
246.38	31.74
246.597	70.65
246.814	23.55
247.031	-7.17
247.248	48.13
247.464	52.22
247.681	60.42
247.898	25.6
248.115	5.12
248.332	-87.04
248.549	160.77
248.766	158.72
248.983	56.32
249.2	68.61
249.417	62.46
249.633	-44.03
249.85	58.37
250.067	11.26
250.284	15.36
250.501	74.75
250.717	80.89
250.934	-39.94
251.151	50.18
251.368	41.98
251.585	52.22
251.801	29.7
252.018	-54.27
252.235	105.47
252.451	-37.89
252.668	78.85
252.885	78.85
253.102	78.85
253.318	-25.6
253.535	-44.03
253.752	-60.42
253.968	29.7
254.185	-84.99
254.401	68.61
254.618	-17.41
254.835	19.46
255.051	117.76
255.268	29.7
255.484	37.89
255.701	-25.6
255.917	101.37
256.134	-21.5
256.351	54.27
256.567	-25.6
256.784	44.03
257	-44.03
257.217	60.42
257.433	54.27
257.65	72.7
257.866	130.05
258.082	-64.51
258.299	-72.7
258.515	74.75
258.732	-35.84
258.948	-17.41
259.165	50.18
259.381	-89.09
259.597	91.13
259.814	41.98
260.03	23.55
260.246	-15.36
260.463	144.38
260.679	152.57
260.895	54.27
261.112	74.75
261.328	9.22
261.544	-9.22
261.761	181.25
261.977	48.13
262.193	-35.84
262.409	80.89
262.626	76.8
262.842	23.55
263.058	-58.37
263.274	89.09
263.49	7.17
263.707	115.71
263.923	93.18
264.139	-74.75
264.355	13.31
264.571	84.99
264.787	17.41
265.004	123.9
265.22	23.55
265.436	39.94
265.652	66.56
265.868	113.66
266.084	-54.27
266.3	-13.31
266.516	-37.89
266.732	41.98
266.948	54.27
267.164	5.12
267.38	82.94
267.596	130.05
267.812	113.66
268.028	11.26
268.244	-9.22
268.46	17.41
268.676	1.02
268.892	44.03
269.108	-39.94
269.324	-44.03
269.54	-68.61
269.756	134.14
269.972	-9.22
270.188	-31.74
270.403	-15.36
270.619	-44.03
270.835	91.13
271.051	64.51
271.267	60.42
271.483	-44.03
271.698	117.76
271.914	60.42
272.13	13.31
272.346	-7.17
272.562	46.08
272.777	39.94
272.993	-23.55
273.209	1.02
273.425	76.8
273.64	-74.75
273.856	97.28
274.072	-3.07
274.287	9.22
274.503	5.12
274.719	15.36
274.934	-48.13
275.15	-54.27
275.366	19.46
275.581	-56.32
275.797	1.02
276.012	9.22
276.228	-13.31
276.444	44.03
276.659	91.13
276.875	-56.32
277.09	74.75
277.306	19.46
277.521	142.33
277.737	-13.31
277.952	72.7
278.168	-17.41
278.383	3.07
278.599	68.61
278.814	41.98
279.03	64.51
279.245	119.81
279.461	-37.89
279.676	107.52
279.892	-39.94
280.107	50.18
280.322	-46.08
280.538	35.84
280.753	-7.17
280.969	31.74
281.184	-13.31
281.399	150.53
281.615	35.84
281.83	132.09
282.045	-87.04
282.26	60.42
282.476	23.55
282.691	82.94
282.906	111.61
283.122	62.46
283.337	-11.26
283.552	44.03
283.767	29.7
283.983	50.18
284.198	-33.79
284.413	7.17
284.628	-74.75
284.843	109.57
285.058	89.09
285.274	-46.08
285.489	-44.03
285.704	31.74
285.919	-21.5
286.134	56.32
286.349	56.32
286.564	46.08
286.779	66.56
286.995	-17.41
287.21	-44.03
287.425	54.27
287.64	17.41
287.855	33.79
288.07	-64.51
288.285	82.94
288.5	82.94
288.715	84.99
288.93	54.27
289.145	-11.26
289.36	101.37
289.575	-23.55
289.79	115.71
290.004	-11.26
290.219	29.7
290.434	21.5
290.649	-72.7
290.864	31.74
291.079	-64.51
291.294	29.7
291.509	68.61
291.724	70.65
291.938	-80.89
292.153	15.36
292.368	27.65
292.583	17.41
292.798	58.37
293.012	48.13
293.227	91.13
293.442	-7.17
293.657	97.28
293.871	138.24
294.086	87.04
294.301	160.77
294.516	160.77
294.73	-29.7
294.945	-121.85
295.16	-66.56
295.374	84.99
295.589	91.13
295.804	19.46
296.018	68.61
296.233	128
296.447	5.12
296.662	-5.12
296.877	142.33
297.091	29.7
297.306	33.79
297.52	29.7
297.735	76.8
297.949	74.75
298.164	33.79
298.378	46.08
298.593	-76.8
298.807	27.65
299.022	62.46
299.236	56.32
299.451	17.41
299.665	-41.98
299.88	29.7
300.094	62.46
300.309	56.32
300.523	17.41
300.737	-70.65
300.952	46.08
301.166	68.61
301.381	64.51
301.595	-39.94
301.809	44.03
302.024	-9.22
302.238	-25.6
302.452	62.46
302.667	29.7
302.881	171.01
303.095	156.67
303.309	-52.22
303.524	-15.36
303.738	37.89
303.952	25.6
304.166	82.94
304.381	-84.99
304.595	185.34
304.809	58.37
305.023	35.84
305.237	-76.8
305.452	-15.36
305.666	80.89
305.88	80.89
306.094	80.89
306.308	99.33
306.522	9.22
306.736	78.85
306.95	95.23
307.164	-11.26
307.379	-50.18
307.593	113.66
307.807	97.28
308.021	99.33
308.235	-64.51
308.449	1.02
308.663	-66.56
308.877	248.83
309.091	80.89
309.305	-19.46
309.519	-109.57
309.733	177.15
309.947	-97.28
310.161	13.31
310.374	46.08
310.588	168.96
310.802	-21.5
311.016	23.55
311.23	89.09
311.444	52.22
311.658	111.61
311.872	97.28
312.085	134.14
312.299	95.23
312.513	209.92
312.727	9.22
312.941	25.6
313.154	15.36
313.368	9.22
313.582	37.89
313.796	27.65
314.009	25.6
314.223	138.24
314.437	52.22
314.651	19.46
314.864	-35.84
315.078	-15.36
315.292	-37.89
315.505	-21.5
315.719	39.94
315.933	121.85
316.146	3.07
316.36	-82.94
316.573	146.43
316.787	56.32
317.001	60.42
317.214	-29.7
317.428	19.46
317.641	27.65
317.855	17.41
318.068	97.28
318.282	23.55
318.495	144.38
318.709	84.99
318.922	17.41
319.136	119.81
319.349	35.84
319.563	35.84
319.776	109.57
319.99	-39.94
320.203	-1.02
320.417	13.31
320.63	140.29
320.843	93.18
321.057	56.32
321.27	74.75
321.483	41.98
321.697	97.28
321.91	66.56
322.124	125.95
322.337	7.17
322.55	-72.7
322.763	31.74
322.977	-1.02
323.19	56.32
323.403	44.03
323.617	46.08
323.83	70.65
324.043	31.74
324.256	66.56
324.469	1.02
324.683	91.13
324.896	15.36
325.109	27.65
325.322	-64.51
325.535	99.33
325.748	93.18
325.962	140.29
326.175	-15.36
326.388	46.08
326.601	148.48
326.814	-3.07
327.027	7.17
327.24	173.05
327.453	-91.13
327.666	54.27
327.879	91.13
328.092	56.32
328.305	1.02
328.518	78.85
328.731	62.46
328.944	27.65
329.157	46.08
329.37	-29.7
329.583	162.81
329.796	146.43
330.009	50.18
330.222	91.13
330.435	60.42
330.648	41.98
330.861	9.22
331.073	87.04
331.286	50.18
331.499	41.98
331.712	39.94
331.925	41.98
332.138	60.42
332.35	54.27
332.563	-19.46
332.776	105.47
332.989	-21.5
333.202	66.56
333.414	44.03
333.627	103.42
333.84	50.18
334.053	101.37
334.265	31.74
334.478	27.65
334.691	93.18
334.903	-29.7
335.116	7.17
335.329	-21.5
335.541	11.26
335.754	189.44
335.966	-56.32
336.179	1.02
336.392	31.74
336.604	-9.22
336.817	144.38
337.029	68.61
337.242	25.6
337.454	68.61
337.667	29.7
337.88	97.28
338.092	74.75
338.305	-7.17
338.517	1.02
338.729	76.8
338.942	95.23
339.154	-5.12
339.367	-64.51
339.579	97.28
339.792	33.79
340.004	72.7
340.217	60.42
340.429	60.42
340.641	-19.46
340.854	-48.13
341.066	87.04
341.278	138.24
341.491	185.34
341.703	33.79
341.915	-11.26
342.128	56.32
342.34	44.03
342.552	5.12
342.764	123.9
342.977	87.04
343.189	101.37
343.401	27.65
343.613	-35.84
343.826	103.42
344.038	-41.98
344.25	76.8
344.462	-37.89
344.674	37.89
344.886	23.55
345.099	72.7
345.311	37.89
345.523	-19.46
345.735	-50.18
345.947	31.74
346.159	95.23
346.371	-37.89
346.583	-72.7
346.795	173.05
347.007	-11.26
347.219	111.61
347.431	33.79
347.643	142.33
347.855	-60.42
348.067	78.85
348.279	-48.13
348.491	68.61
348.703	95.23
348.915	46.08
349.127	-48.13
349.339	27.65
349.551	-74.75
349.763	56.32
349.975	9.22
350.187	107.52
350.399	105.47
350.61	44.03
350.822	-13.31
351.034	44.03
351.246	39.94
351.458	21.5
351.669	84.99
351.881	13.31
352.093	158.72
352.305	142.33
352.517	23.55
352.728	87.04
352.94	150.53
353.152	115.71
353.363	-58.37
353.575	107.52
353.787	154.62
353.999	44.03
354.21	101.37
354.422	-27.65
354.633	-48.13
354.845	19.46
355.057	41.98
355.268	33.79
355.48	35.84
355.692	-39.94
355.903	31.74
356.115	-60.42
356.326	-105.47
356.538	113.66
356.749	25.6
356.961	37.89
357.172	15.36
357.384	-78.85
357.595	121.85
357.807	-15.36
358.018	19.46
358.23	23.55
358.441	160.77
358.653	89.09
358.864	-1.02
359.075	-15.36
359.287	-68.61
359.498	44.03
359.709	103.42
359.921	52.22
360.132	29.7
360.344	17.41
360.555	56.32
360.766	95.23
360.977	27.65
361.189	50.18
361.4	31.74
361.611	27.65
361.823	25.6
362.034	-35.84
362.245	-97.28
362.456	-70.65
362.667	23.55
362.879	-56.32
363.09	76.8
363.301	-1.02
363.512	-13.31
363.723	-25.6
363.935	-5.12
364.146	99.33
364.357	3.07
364.568	50.18
364.779	-74.75
364.99	158.72
365.201	-5.12
365.412	95.23
365.623	-82.94
365.834	17.41
366.045	54.27
366.256	48.13
366.467	121.85
366.678	15.36
366.889	60.42
367.1	1.02
367.311	84.99
367.522	-27.65
367.733	46.08
367.944	91.13
368.155	9.22
368.366	138.24
368.577	111.61
368.788	97.28
368.999	1.02
369.209	17.41
369.42	218.11
369.631	287.74
369.842	5.12
370.053	37.89
370.264	111.61
370.474	-60.42
370.685	54.27
370.896	29.7
371.107	121.85
371.317	-15.36
371.528	-21.5
371.739	144.38
371.95	11.26
372.16	128
372.371	-113.66
372.582	5.12
372.792	31.74
373.003	87.04
373.214	29.7
373.424	48.13
373.635	27.65
373.846	107.52
374.056	-5.12
374.267	50.18
374.477	107.52
374.688	-70.65
374.898	62.46
375.109	5.12
375.319	35.84
375.53	97.28
375.74	76.8
375.951	52.22
376.161	29.7
376.372	84.99
376.582	13.31
376.793	52.22
377.003	-29.7
377.214	-17.41
377.424	58.37
377.635	76.8
377.845	44.03
378.055	138.24
378.266	-99.33
378.476	-11.26
378.686	70.65
378.897	-3.07
379.107	82.94
379.317	58.37
379.528	11.26
379.738	91.13
379.948	-41.98
380.158	154.62
380.369	44.03
380.579	41.98
380.789	17.41
380.999	68.61
381.21	111.61
381.42	158.72
381.63	29.7
381.84	103.42
382.05	107.52
382.261	87.04
382.471	115.71
382.681	23.55
382.891	150.53
383.101	23.55
383.311	9.22
383.521	29.7
383.731	111.61
383.941	39.94
384.151	48.13
384.361	31.74
384.571	54.27
384.781	23.55
384.991	175.1
385.201	162.81
385.411	72.7
385.621	109.57
385.831	91.13
386.041	-21.5
386.251	-52.22
386.461	60.42
386.671	37.89
386.881	9.22
387.091	-7.17
387.301	78.85
387.511	1.02
387.72	70.65
387.93	97.28
388.14	-68.61
388.35	-11.26
388.56	107.52
388.769	91.13
388.979	66.56
389.189	-29.7
389.399	-3.07
389.609	39.94
389.818	132.09
390.028	121.85
390.238	41.98
390.447	-23.55
390.657	99.33
390.867	39.94
391.076	-25.6
391.286	66.56
391.496	62.46
391.705	21.5
391.915	80.89
392.125	132.09
392.334	72.7
392.544	113.66
392.753	121.85
392.963	37.89
393.172	21.5
393.382	-68.61
393.591	121.85
393.801	13.31
394.01	87.04
394.22	173.05
394.429	19.46
394.639	68.61
394.848	52.22
395.058	33.79
395.267	62.46
395.477	111.61
395.686	82.94
395.895	240.64
396.105	168.96
396.314	101.37
396.524	21.5
396.733	33.79
396.942	87.04
397.152	62.46
397.361	82.94
397.57	39.94
397.78	-11.26
397.989	74.75
398.198	175.1
398.407	97.28
398.617	111.61
398.826	128
399.035	29.7
399.244	164.86
399.453	-21.5
399.663	48.13
399.872	95.23
400.081	-58.37
400.29	173.05
400.499	68.61
400.708	78.85
400.917	-27.65
401.127	-5.12
401.336	52.22
401.545	152.57
401.754	97.28
401.963	128
402.172	-35.84
402.381	-21.5
402.59	35.84
402.799	5.12
403.008	123.9
403.217	93.18
403.426	7.17
403.635	-78.85
403.844	97.28
404.053	105.47
404.262	33.79
404.471	144.38
404.68	78.85
404.888	21.5
405.097	66.56
405.306	171.01
405.515	173.05
405.724	21.5
405.933	68.61
406.142	23.55
406.35	125.95
406.559	78.85
406.768	44.03
406.977	158.72
407.185	103.42
407.394	9.22
407.603	13.31
407.812	66.56
408.02	101.37
408.229	3.07
408.438	31.74
408.646	-64.51
408.855	-9.22
409.064	123.9
409.272	37.89
409.481	48.13
409.69	-76.8
409.898	-9.22
410.107	109.57
410.315	152.57
410.524	82.94
410.733	89.09
410.941	13.31
411.15	136.19
411.358	35.84
411.567	87.04
411.775	99.33
411.984	27.65
412.192	76.8
412.401	46.08
412.609	168.96
412.818	76.8
413.026	-31.74
413.234	35.84
413.443	-15.36
413.651	-11.26
413.86	17.41
414.068	93.18
414.276	199.68
414.485	-3.07
414.693	148.48
414.901	185.34
415.11	72.7
415.318	54.27
415.526	84.99
415.734	29.7
415.943	89.09
416.151	97.28
416.359	-52.22
416.567	187.39
416.776	31.74
416.984	91.13
417.192	205.82
417.4	5.12
417.608	15.36
417.817	-27.65
418.025	41.98
418.233	189.44
418.441	-105.47
418.649	-101.37
418.857	37.89
419.065	117.76
419.273	-84.99
419.481	103.42
419.689	95.23
419.897	-33.79
420.105	-37.89
420.313	134.14
420.521	232.44
420.729	168.96
420.937	-39.94
421.145	-97.28
421.353	181.25
421.561	195.58
421.769	91.13
421.977	-48.13
422.185	82.94
422.393	15.36
422.601	66.56
422.809	56.32
423.017	21.5
423.224	50.18
423.432	121.85
423.64	111.61
423.848	179.2
424.056	56.32
424.263	105.47
424.471	44.03
424.679	95.23
424.887	25.6
425.094	111.61
425.302	121.85
425.51	109.57
425.718	87.04
425.925	89.09
426.133	-33.79
426.341	271.36
426.548	111.61
426.756	58.37
426.964	62.46
427.171	-11.26
427.379	66.56
427.586	84.99
427.794	50.18
428.001	105.47
428.209	91.13
428.417	166.91
428.624	144.38
428.832	44.03
429.039	117.76
429.247	68.61
429.454	164.86
429.662	179.2
429.869	93.18
430.076	48.13
430.284	82.94
430.491	144.38
430.699	128
430.906	130.05
431.114	144.38
431.321	93.18
431.528	103.42
431.736	44.03
431.943	220.16
432.15	166.91
432.358	195.58
432.565	195.58
432.772	66.56
432.979	152.57
433.187	91.13
433.394	306.17
433.601	66.56
433.808	220.16
434.016	220.16
434.223	289.79
434.43	119.81
434.637	183.29
434.844	336.89
435.052	128
435.259	214.01
435.466	216.06
435.673	189.44
435.88	263.16
436.087	351.23
436.294	218.11
436.501	277.5
436.708	193.53
436.915	279.55
437.122	424.95
437.329	140.29
437.537	347.13
437.743	340.99
437.95	338.94
438.157	312.32
438.364	312.32
438.571	340.99
438.778	377.85
438.985	459.77
439.192	457.72
439.399	414.71
439.606	506.87
439.813	463.86
440.02	621.56
440.227	689.14
440.433	650.23
440.64	529.4
440.847	519.16
441.054	547.83
441.261	695.29
441.467	621.56
441.674	543.74
441.881	744.44
442.088	660.47
442.294	617.46
442.501	711.67
442.708	791.54
442.914	834.55
443.121	822.26
443.328	850.93
443.534	900.08
443.741	910.32
443.948	893.94
444.154	971.76
444.361	1207.28
444.568	973.81
444.774	988.14
444.981	914.42
445.187	1254.38
445.394	1104.88
445.6	1143.79
445.807	1262.57
446.013	1291.24
446.22	1258.48
446.426	1319.92
446.633	1426.41
446.839	1565.67
447.046	1377.26
447.252	1586.15
447.459	1577.96
447.665	1602.54
447.871	1686.5
448.078	1807.33
448.284	1893.35
448.491	2135.01
448.697	2051.04
448.903	2038.75
449.11	2120.67
449.316	2051.04
449.522	2257.89
449.728	2329.56
449.935	2493.4
450.141	2493.4
450.347	2814.93
450.553	2773.97
450.76	2716.63
450.966	2792.41
451.172	2950.1
451.378	3144.66
451.584	3150.8
451.791	3414.99
451.997	3589.07
452.203	3513.29
452.409	3625.93
452.615	3773.38
452.821	3738.57
453.027	3888.07
453.233	4322.24
453.44	4211.65
453.646	4465.6
453.852	4547.51
454.058	4727.74
454.264	4756.41
454.47	5209.01
454.676	5245.87
454.882	5776.3
455.088	5307.31
455.294	5788.58
455.5	6093.73
455.705	6513.56
455.911	6407.07
456.117	6484.89
456.323	6986.65
456.529	6814.62
456.735	7490.45
456.941	7701.39
457.147	7949.19
457.352	8172.42
457.558	8328.06
457.764	8960.89
457.97	9216.88
458.176	9405.3
458.381	9974.63
458.587	9976.68
458.793	10597.21
458.999	10576.73
459.204	12069.7
459.41	12366.66
459.616	12337.99
459.821	13148.98
460.027	13552.43
460.233	14121.77
460.438	14461.73
460.644	14916.38
460.85	15242.01
461.055	15768.34
461.261	16687.87
461.466	16366.34
461.672	16433.93
461.878	18297.58
462.083	18260.71
462.289	18721.51
462.494	19475.16
462.7	19563.22
462.905	19925.71
463.111	21404.35
463.316	22289.07
463.522	22968.99
463.727	23644.82
463.932	24939.14
464.138	25275.01
464.343	26409.58
464.549	26780.26
464.754	28611.15
464.959	29098.56
465.165	29667.9
465.37	29680.19
465.575	29608.51
465.781	31359.52
465.986	32240.15
466.191	31900.19
466.397	32141.85
466.602	31332.9
466.807	33200.65
467.012	33573.38
467.218	34146.81
467.423	34601.46
467.628	35592.67
467.833	37349.83
468.038	36311.51
468.244	35903.96
468.449	37507.52
468.654	37231.05
468.859	36856.27
469.064	37130.7
