Data from USB4F104151__95__10-45-05-265.txt Node

Date: Wed Feb 26 10:45:05 EST 2025
User: louis
Spectrometer: USB4F10415
Trigger mode: 4
Integration Time (sec): 1.000000E-1
Scans to average: 1
Electric dark correction enabled: true
Nonlinearity correction enabled: false
Boxcar width: 0
XAxis mode: Wavelengths
Number of Pixels in Spectrum: 3648
>>>>>Begin Spectral Data<<<<<
178.204	-408.74
178.424	-408.74
178.644	-408.74
178.864	-445.6
179.084	-459.94
179.304	15.19
179.524	-68.78
179.744	47.96
179.964	23.38
180.184	43.86
180.404	-1.19
180.624	0.85
180.844	-31.91
181.064	-64.68
181.283	25.43
181.503	-56.49
181.723	66.39
181.943	-89.26
182.163	133.97
182.383	19.29
182.602	70.48
182.822	62.29
183.042	39.76
183.262	19.29
183.482	4.95
183.701	-33.96
183.921	131.92
184.141	-40.11
184.361	93.01
184.58	29.52
184.8	50
185.02	58.2
185.239	146.26
185.459	54.1
185.679	76.63
185.898	-62.63
186.118	47.96
186.338	2.9
186.557	99.16
186.777	-27.82
186.997	-13.48
187.216	-19.63
187.436	197.46
187.655	90.96
187.875	23.38
188.095	70.48
188.314	160.59
188.534	105.3
188.753	-25.77
188.973	70.48
189.192	217.94
189.412	13.14
189.631	-54.44
189.851	72.53
190.07	95.06
190.29	-25.77
190.509	-13.48
190.729	62.29
190.948	207.7
191.168	197.46
191.387	66.39
191.607	82.77
191.826	121.68
192.045	-52.39
192.265	15.19
192.484	25.43
192.704	-7.34
192.923	-76.97
193.142	160.59
193.362	76.63
193.581	129.88
193.8	50
194.02	70.48
194.239	58.2
194.458	117.59
194.678	2.9
194.897	17.24
195.116	4.95
195.335	60.24
195.555	99.16
195.774	-11.43
195.993	158.55
196.212	62.29
196.432	-38.06
196.651	50
196.87	76.63
197.089	265.04
197.308	88.92
197.528	66.39
197.747	23.38
197.966	78.68
198.185	133.97
198.404	-3.24
198.623	82.77
198.842	66.39
199.062	109.4
199.281	88.92
199.5	23.38
199.719	39.76
199.938	103.25
200.157	82.77
200.376	129.88
200.595	133.97
200.814	78.68
201.033	-13.48
201.252	125.78
201.471	68.44
201.69	68.44
201.909	101.2
202.128	125.78
202.347	97.11
202.566	35.67
202.785	-70.83
203.004	-48.3
203.223	265.04
203.442	-1.19
203.661	-46.25
203.879	82.77
204.098	109.4
204.317	4.95
204.536	121.68
204.755	54.1
204.974	119.64
205.193	37.72
205.411	117.59
205.63	125.78
205.849	43.86
206.068	11.09
206.287	2.9
206.505	93.01
206.724	47.96
206.943	-40.11
207.162	-83.11
207.381	113.49
207.599	37.72
207.818	64.34
208.037	-95.4
208.255	19.29
208.474	60.24
208.693	70.48
208.911	35.67
209.13	58.2
209.349	17.24
209.567	52.05
209.786	62.29
210.005	115.54
210.223	76.63
210.442	-44.2
210.661	-7.34
210.879	50
211.098	56.15
211.316	78.68
211.535	31.57
211.753	62.29
211.972	86.87
212.191	41.81
212.409	-1.19
212.628	82.77
212.846	101.2
213.065	21.33
213.283	105.3
213.502	-15.53
213.72	9.05
213.938	78.68
214.157	105.3
214.375	156.5
214.594	-38.06
214.812	107.35
215.031	62.29
215.249	78.68
215.467	35.67
215.686	-5.29
215.904	62.29
216.122	125.78
216.341	129.88
216.559	78.68
216.778	13.14
216.996	172.88
217.214	23.38
217.432	-25.77
217.651	0.85
217.869	76.63
218.087	-9.39
218.306	45.91
218.524	54.1
218.742	47.96
218.96	105.3
219.179	50
219.397	64.34
219.615	244.56
219.833	105.3
220.051	-23.72
220.27	37.72
220.488	115.54
220.706	56.15
220.924	-25.77
221.142	23.38
221.36	15.19
221.578	131.92
221.796	4.95
222.015	-11.43
222.233	109.4
222.451	166.74
222.669	-64.68
222.887	45.91
223.105	-1.19
223.323	4.95
223.541	-29.87
223.759	66.39
223.977	70.48
224.195	144.21
224.413	103.25
224.631	58.2
224.849	72.53
225.067	201.55
225.285	-27.82
225.503	-7.34
225.721	-93.35
225.939	37.72
226.157	105.3
226.375	213.84
226.592	17.24
226.81	-33.96
227.028	90.96
227.246	119.64
227.464	97.11
227.682	82.77
227.9	33.62
228.117	37.72
228.335	111.44
228.553	-1.19
228.771	58.2
228.989	76.63
229.206	64.34
229.424	33.62
229.642	76.63
229.86	-7.34
230.077	80.72
230.295	125.78
230.513	144.21
230.731	80.72
230.948	176.98
231.166	174.93
231.384	-62.63
231.601	33.62
231.819	230.23
232.037	-9.39
232.254	-31.91
232.472	66.39
232.689	82.77
232.907	115.54
233.125	-9.39
233.342	2.9
233.56	-27.82
233.777	-27.82
233.995	-3.24
234.213	117.59
234.43	97.11
234.648	-19.63
234.865	29.52
235.083	84.82
235.3	86.87
235.518	113.49
235.735	162.64
235.953	76.63
236.17	27.48
236.388	27.48
236.605	-7.34
236.822	86.87
237.04	70.48
237.257	119.64
237.475	-72.87
237.692	74.58
237.909	60.24
238.127	-42.15
238.344	60.24
238.562	-38.06
238.779	-44.2
238.996	9.05
239.214	9.05
239.431	119.64
239.648	43.86
239.865	70.48
240.083	109.4
240.3	29.52
240.517	-54.44
240.735	78.68
240.952	129.88
241.169	62.29
241.386	88.92
241.603	17.24
241.821	-33.96
242.038	121.68
242.255	156.5
242.472	-1.19
242.689	27.48
242.907	7
243.124	80.72
243.341	-1.19
243.558	13.14
243.775	-3.24
243.992	-40.11
244.209	144.21
244.426	109.4
244.643	99.16
244.86	39.76
245.078	86.87
245.295	52.05
245.512	13.14
245.729	-38.06
245.946	35.67
246.163	7
246.38	-19.63
246.597	27.48
246.814	23.38
247.031	4.95
247.248	21.33
247.464	74.58
247.681	-40.11
247.898	23.38
248.115	37.72
248.332	-9.39
248.549	70.48
248.766	201.55
248.983	97.11
249.2	101.2
249.417	125.78
249.633	-17.58
249.85	97.11
250.067	0.85
250.284	0.85
250.501	66.39
250.717	39.76
250.934	-42.15
251.151	-7.34
251.368	0.85
251.585	62.29
251.801	113.49
252.018	-54.44
252.235	60.24
252.451	11.09
252.668	86.87
252.885	154.45
253.102	-15.53
253.318	80.72
253.535	60.24
253.752	-36.01
253.968	-17.58
254.185	-33.96
254.401	17.24
254.618	52.05
254.835	-1.19
255.051	54.1
255.268	119.64
255.484	95.06
255.701	19.29
255.917	58.2
256.134	-42.15
256.351	37.72
256.567	-31.91
256.784	21.33
257	17.24
257.217	99.16
257.433	66.39
257.65	19.29
257.866	103.25
258.082	2.9
258.299	-29.87
258.515	60.24
258.732	27.48
258.948	27.48
259.165	78.68
259.381	60.24
259.597	-3.24
259.814	15.19
260.03	60.24
260.246	-9.39
260.463	86.87
260.679	168.79
260.895	70.48
261.112	56.15
261.328	72.53
261.544	-60.59
261.761	154.45
261.977	13.14
262.193	-17.58
262.409	86.87
262.626	-66.73
262.842	70.48
263.058	-7.34
263.274	37.72
263.49	45.91
263.707	39.76
263.923	109.4
264.139	-50.35
264.355	39.76
264.571	78.68
264.787	115.54
265.004	131.92
265.22	21.33
265.436	-93.35
265.652	-25.77
265.868	80.72
266.084	-5.29
266.3	19.29
266.516	-44.2
266.732	101.2
266.948	15.19
267.164	123.73
267.38	76.63
267.596	95.06
267.812	172.88
268.028	39.76
268.244	95.06
268.46	39.76
268.676	35.67
268.892	31.57
269.108	-17.58
269.324	-54.44
269.54	-66.73
269.756	123.73
269.972	-44.2
270.188	64.34
270.403	-42.15
270.619	-15.53
270.835	-13.48
271.051	27.48
271.267	13.14
271.483	-33.96
271.698	52.05
271.914	41.81
272.13	70.48
272.346	-21.67
272.562	103.25
272.777	107.35
272.993	33.62
273.209	23.38
273.425	111.44
273.64	-11.43
273.856	107.35
274.072	-5.29
274.287	25.43
274.503	129.88
274.719	158.55
274.934	-17.58
275.15	-89.26
275.366	45.91
275.581	-17.58
275.797	60.24
276.012	-19.63
276.228	-66.73
276.444	43.86
276.659	119.64
276.875	-13.48
277.09	2.9
277.306	-3.24
277.521	111.44
277.737	60.24
277.952	138.07
278.168	54.1
278.383	0.85
278.599	70.48
278.814	133.97
279.03	45.91
279.245	166.74
279.461	37.72
279.676	66.39
279.892	13.14
280.107	-58.54
280.322	4.95
280.538	54.1
280.753	-33.96
280.969	78.68
281.184	4.95
281.399	129.88
281.615	50
281.83	70.48
282.045	-36.01
282.26	50
282.476	43.86
282.691	107.35
282.906	11.09
283.122	54.1
283.337	-19.63
283.552	56.15
283.767	52.05
283.983	82.77
284.198	88.92
284.413	56.15
284.628	-25.77
284.843	95.06
285.058	107.35
285.274	-27.82
285.489	-21.67
285.704	150.36
285.919	-15.53
286.134	76.63
286.349	17.24
286.564	-70.83
286.779	115.54
286.995	13.14
287.21	-23.72
287.425	56.15
287.64	2.9
287.855	45.91
288.07	-134.31
288.285	93.01
288.5	68.44
288.715	88.92
288.93	54.1
289.145	13.14
289.36	-23.72
289.575	-76.97
289.79	125.78
290.004	33.62
290.219	78.68
290.434	-33.96
290.649	39.76
290.864	-5.29
291.079	-19.63
291.294	84.82
291.509	107.35
291.724	-15.53
291.938	2.9
292.153	62.29
292.368	56.15
292.583	56.15
292.798	101.2
293.012	64.34
293.227	29.52
293.442	-19.63
293.657	152.4
293.871	107.35
294.086	54.1
294.301	252.75
294.516	123.73
294.73	41.81
294.945	-52.39
295.16	37.72
295.374	115.54
295.589	80.72
295.804	-5.29
296.018	84.82
296.233	121.68
296.447	35.67
296.662	-33.96
296.877	174.93
297.091	41.81
297.306	72.53
297.52	-46.25
297.735	93.01
297.949	70.48
298.164	39.76
298.378	43.86
298.593	-52.39
298.807	13.14
299.022	-60.59
299.236	93.01
299.451	-3.24
299.665	33.62
299.88	66.39
300.094	33.62
300.309	25.43
300.523	17.24
300.737	43.86
300.952	121.68
301.166	64.34
301.381	-52.39
301.595	-19.63
301.809	54.1
302.024	-25.77
302.238	-17.58
302.452	142.16
302.667	-13.48
302.881	140.12
303.095	60.24
303.309	113.49
303.524	37.72
303.738	-7.34
303.952	-36.01
304.166	19.29
304.381	-44.2
304.595	97.11
304.809	0.85
305.023	68.44
305.237	93.01
305.452	-13.48
305.666	117.59
305.88	62.29
306.094	148.31
306.308	97.11
306.522	70.48
306.736	54.1
306.95	97.11
307.164	-13.48
307.379	11.09
307.593	113.49
307.807	70.48
308.021	72.53
308.235	115.54
308.449	-33.96
308.663	11.09
308.877	174.93
309.091	109.4
309.305	127.83
309.519	-148.65
309.733	181.07
309.947	-117.93
310.161	23.38
310.374	78.68
310.588	172.88
310.802	-23.72
311.016	-25.77
311.23	-1.19
311.444	-93.35
311.658	50
311.872	125.78
312.085	109.4
312.299	187.22
312.513	97.11
312.727	84.82
312.941	-5.29
313.154	93.01
313.368	115.54
313.582	11.09
313.796	90.96
314.009	62.29
314.223	88.92
314.437	58.2
314.651	99.16
314.864	107.35
315.078	50
315.292	9.05
315.505	-33.96
315.719	115.54
315.933	50
316.146	-33.96
316.36	19.29
316.573	95.06
316.787	93.01
317.001	121.68
317.214	-42.15
317.428	-1.19
317.641	31.57
317.855	84.82
318.068	105.3
318.282	21.33
318.495	113.49
318.709	93.01
318.922	-27.82
319.136	174.93
319.349	115.54
319.563	-21.67
319.776	131.92
319.99	-93.35
320.203	60.24
320.417	19.29
320.63	29.52
320.843	168.79
321.057	27.48
321.27	2.9
321.483	76.63
321.697	35.67
321.91	58.2
322.124	84.82
322.337	13.14
322.55	-1.19
322.763	13.14
322.977	72.53
323.19	23.38
323.403	78.68
323.617	50
323.83	103.25
324.043	-1.19
324.256	54.1
324.469	-42.15
324.683	80.72
324.896	117.59
325.109	60.24
325.322	-50.35
325.535	115.54
325.748	93.01
325.962	72.53
326.175	62.29
326.388	129.88
326.601	90.96
326.814	4.95
327.027	68.44
327.24	193.36
327.453	-42.15
327.666	117.59
327.879	97.11
328.092	50
328.305	119.64
328.518	78.68
328.731	105.3
328.944	33.62
329.157	21.33
329.37	-23.72
329.583	222.03
329.796	181.07
330.009	-70.83
330.222	52.05
330.435	113.49
330.648	115.54
330.861	68.44
331.073	45.91
331.286	123.73
331.499	-46.25
331.712	-19.63
331.925	62.29
332.138	52.05
332.35	131.92
332.563	-29.87
332.776	107.35
332.989	0.85
333.202	84.82
333.414	66.39
333.627	-7.34
333.84	-3.24
334.053	66.39
334.265	15.19
334.478	17.24
334.691	99.16
334.903	84.82
335.116	33.62
335.329	39.76
335.541	39.76
335.754	152.4
335.966	25.43
336.179	39.76
336.392	-25.77
336.604	-52.39
336.817	-56.49
337.029	37.72
337.242	-46.25
337.454	56.15
337.667	37.72
337.88	56.15
338.092	93.01
338.305	27.48
338.517	15.19
338.729	105.3
338.942	115.54
339.154	33.62
339.367	17.24
339.579	41.81
339.792	-9.39
340.004	41.81
340.217	-5.29
340.429	58.2
340.641	52.05
340.854	-79.02
341.066	-11.43
341.278	105.3
341.491	181.07
341.703	93.01
341.915	-17.58
342.128	103.25
342.34	123.73
342.552	-13.48
342.764	33.62
342.977	45.91
343.189	93.01
343.401	74.58
343.613	-124.07
343.826	4.95
344.038	0.85
344.25	4.95
344.462	54.1
344.674	101.2
344.886	37.72
345.099	70.48
345.311	129.88
345.523	-50.35
345.735	-130.22
345.947	70.48
346.159	35.67
346.371	15.19
346.583	64.34
346.795	103.25
347.007	43.86
347.219	17.24
347.431	-13.48
347.643	70.48
347.855	39.76
348.067	129.88
348.279	-48.3
348.491	-7.34
348.703	119.64
348.915	19.29
349.127	-60.59
349.339	66.39
349.551	-44.2
349.763	111.44
349.975	25.43
350.187	62.29
350.399	154.45
350.61	103.25
350.822	72.53
351.034	101.2
351.246	82.77
351.458	76.63
351.669	140.12
351.881	82.77
352.093	191.31
352.305	84.82
352.517	23.38
352.728	160.59
352.94	68.44
353.152	23.38
353.363	-25.77
353.575	121.68
353.787	164.69
353.999	25.43
354.21	148.31
354.422	-5.29
354.633	4.95
354.845	33.62
355.057	62.29
355.268	33.62
355.48	41.81
355.692	-83.11
355.903	-5.29
356.115	25.43
356.326	-93.35
356.538	152.4
356.749	123.73
356.961	66.39
357.172	-25.77
357.384	-1.19
357.595	252.75
357.807	54.1
358.018	9.05
358.23	-31.91
358.441	86.87
358.653	60.24
358.864	11.09
359.075	-52.39
359.287	29.52
359.498	68.44
359.709	125.78
359.921	86.87
360.132	99.16
360.344	117.59
360.555	-3.24
360.766	60.24
360.977	-9.39
361.189	84.82
361.4	-29.87
361.611	176.98
361.823	127.83
362.034	72.53
362.245	52.05
362.456	-5.29
362.667	52.05
362.879	47.96
363.09	50
363.301	21.33
363.512	50
363.723	-15.53
363.935	-38.06
364.146	164.69
364.357	9.05
364.568	52.05
364.779	-54.44
364.99	168.79
365.201	-15.53
365.412	140.12
365.623	29.52
365.834	43.86
366.045	99.16
366.256	88.92
366.467	17.24
366.678	35.67
366.889	-5.29
367.1	-81.07
367.311	80.72
367.522	-97.45
367.733	39.76
367.944	88.92
368.155	15.19
368.366	64.34
368.577	185.17
368.788	101.2
368.999	-56.49
369.209	31.57
369.42	189.27
369.631	246.61
369.842	101.2
370.053	90.96
370.264	86.87
370.474	-48.3
370.685	93.01
370.896	-31.91
371.107	82.77
371.317	86.87
371.528	72.53
371.739	162.64
371.95	58.2
372.16	62.29
372.371	-72.87
372.582	19.29
372.792	72.53
373.003	97.11
373.214	68.44
373.424	50
373.635	-87.21
373.846	181.07
374.056	50
374.267	41.81
374.477	76.63
374.688	-17.58
374.898	58.2
375.109	80.72
375.319	82.77
375.53	101.2
375.74	144.21
375.951	-38.06
376.161	29.52
376.372	150.36
376.582	9.05
376.793	131.92
377.003	21.33
377.214	-50.35
377.424	86.87
377.635	58.2
377.845	-29.87
378.055	78.68
378.266	-97.45
378.476	-52.39
378.686	107.35
378.897	58.2
379.107	189.27
379.317	-7.34
379.528	-50.35
379.738	95.06
379.948	23.38
380.158	142.16
380.369	43.86
380.579	31.57
380.789	74.58
380.999	84.82
381.21	129.88
381.42	207.7
381.63	41.81
381.84	105.3
382.05	129.88
382.261	138.07
382.471	107.35
382.681	-42.15
382.891	164.69
383.101	74.58
383.311	-7.34
383.521	43.86
383.731	125.78
383.941	136.02
384.151	25.43
384.361	52.05
384.571	17.24
384.781	64.34
384.991	205.65
385.201	287.57
385.411	107.35
385.621	84.82
385.831	74.58
386.041	52.05
386.251	13.14
386.461	156.5
386.671	50
386.881	82.77
387.091	99.16
387.301	11.09
387.511	-13.48
387.72	56.15
387.93	60.24
388.14	-93.35
388.35	47.96
388.56	109.4
388.769	179.03
388.979	101.2
389.189	19.29
389.399	9.05
389.609	129.88
389.818	29.52
390.028	47.96
390.238	101.2
390.447	60.24
390.657	78.68
390.867	39.76
391.076	-46.25
391.286	33.62
391.496	31.57
391.705	54.1
391.915	127.83
392.125	185.17
392.334	17.24
392.544	93.01
392.753	21.33
392.963	64.34
393.172	78.68
393.382	-11.43
393.591	160.59
393.801	47.96
394.01	148.31
394.22	78.68
394.429	50
394.639	54.1
394.848	27.48
395.058	103.25
395.267	-31.91
395.477	45.91
395.686	64.34
395.895	230.23
396.105	191.31
396.314	172.88
396.524	-46.25
396.733	50
396.942	80.72
397.152	242.51
397.361	136.02
397.57	62.29
397.78	140.12
397.989	144.21
398.198	211.79
398.407	113.49
398.617	70.48
398.826	58.2
399.035	-81.07
399.244	99.16
399.453	70.48
399.663	105.3
399.872	64.34
400.081	4.95
400.29	107.35
400.499	35.67
400.708	39.76
400.917	84.82
401.127	17.24
401.336	82.77
401.545	195.41
401.754	90.96
401.963	66.39
402.172	43.86
402.381	-9.39
402.59	9.05
402.799	58.2
403.008	52.05
403.217	62.29
403.426	43.86
403.635	-33.96
403.844	37.72
404.053	-13.48
404.262	45.91
404.471	203.6
404.68	138.07
404.888	15.19
405.097	33.62
405.306	35.67
405.515	119.64
405.724	-7.34
405.933	90.96
406.142	99.16
406.35	58.2
406.559	11.09
406.768	39.76
406.977	183.12
407.185	103.25
407.394	107.35
407.603	-27.82
407.812	60.24
408.02	113.49
408.229	35.67
408.438	82.77
408.646	-79.02
408.855	70.48
409.064	152.4
409.272	-1.19
409.481	43.86
409.69	-74.92
409.898	-19.63
410.107	37.72
410.315	111.44
410.524	27.48
410.733	45.91
410.941	31.57
411.15	123.73
411.358	142.16
411.567	64.34
411.775	52.05
411.984	17.24
412.192	123.73
412.401	0.85
412.609	174.93
412.818	60.24
413.026	121.68
413.234	9.05
413.443	150.36
413.651	4.95
413.86	86.87
414.068	113.49
414.276	170.83
414.485	-60.59
414.693	193.36
414.901	226.13
415.11	168.79
415.318	27.48
415.526	129.88
415.734	119.64
415.943	56.15
416.151	154.45
416.359	80.72
416.567	97.11
416.776	136.02
416.984	99.16
417.192	203.6
417.4	-48.3
417.608	29.52
417.817	-1.19
418.025	113.49
418.233	136.02
418.441	-76.97
418.649	-19.63
418.857	54.1
419.065	197.46
419.273	52.05
419.481	43.86
419.689	52.05
419.897	84.82
420.105	-44.2
420.313	84.82
420.521	172.88
420.729	95.06
420.937	7
421.145	2.9
421.353	111.44
421.561	197.46
421.769	95.06
421.977	-1.19
422.185	142.16
422.393	-11.43
422.601	148.31
422.809	45.91
423.017	62.29
423.224	17.24
423.432	138.07
423.64	37.72
423.848	174.93
424.056	15.19
424.263	72.53
424.471	78.68
424.679	234.32
424.887	9.05
425.094	131.92
425.302	119.64
425.51	43.86
425.718	156.5
425.925	93.01
426.133	-1.19
426.341	228.18
426.548	29.52
426.756	9.05
426.964	99.16
427.171	-3.24
427.379	62.29
427.586	119.64
427.794	142.16
428.001	115.54
428.209	99.16
428.417	183.12
428.624	11.09
428.832	201.55
429.039	-31.91
429.247	127.83
429.454	125.78
429.662	162.64
429.869	84.82
430.076	74.58
430.284	191.31
430.491	207.7
430.699	146.26
430.906	244.56
431.114	133.97
431.321	168.79
431.528	199.51
431.736	162.64
431.943	189.27
432.15	160.59
432.358	224.08
432.565	299.86
432.772	-3.24
432.979	125.78
433.187	86.87
433.394	185.17
433.601	82.77
433.808	310.1
434.016	297.81
434.223	260.95
434.43	105.3
434.637	293.71
434.844	306
435.052	260.95
435.259	260.95
435.466	336.72
435.673	242.51
435.88	228.18
436.087	328.53
436.294	365.39
436.501	377.68
436.708	306
436.915	369.49
437.122	392.02
437.329	355.15
437.537	396.11
437.743	332.62
437.95	473.93
438.157	312.14
438.364	441.17
438.571	398.16
438.778	416.59
438.985	484.17
439.192	500.56
439.399	359.25
439.606	334.67
439.813	510.8
440.02	613.2
440.227	676.68
440.433	676.68
440.64	578.38
440.847	566.09
441.054	619.34
441.261	760.65
441.467	643.92
441.674	621.39
441.881	605
442.088	731.98
442.294	750.41
442.501	797.51
442.708	774.99
442.914	856.9
443.121	826.18
443.328	887.62
443.534	983.88
443.741	990.02
443.948	850.76
444.154	1051.46
444.361	1213.25
444.568	1090.37
444.774	1127.24
444.981	1098.56
445.187	1190.72
445.394	1170.24
445.6	1272.64
445.807	1434.43
446.013	1313.6
446.22	1250.11
446.426	1430.34
446.633	1588.03
446.839	1741.63
447.046	1411.9
447.252	1733.43
447.459	1737.53
447.665	1739.58
447.871	1874.74
448.078	2136.88
448.284	1985.34
448.491	2196.28
448.697	2231.09
448.903	2267.95
449.11	2276.15
449.316	2376.5
449.522	2583.34
449.728	2683.69
449.935	2683.69
450.141	2675.5
450.347	2929.45
450.553	2876.2
450.76	2939.69
450.966	3189.54
451.172	3146.53
451.378	3500.83
451.584	3484.45
451.791	3588.89
451.997	3797.79
452.203	3844.89
452.409	4010.78
452.615	4115.22
452.821	4070.17
453.027	4039.45
453.233	4848.4
453.44	4414.23
453.646	4733.71
453.852	4926.22
454.058	5028.62
454.264	5147.4
454.47	5528.32
454.676	5481.22
454.882	6114.04
455.088	5935.87
455.294	6236.92
455.5	6515.44
455.705	6890.22
455.911	6922.99
456.117	7201.51
456.323	7430.88
456.529	7346.92
456.735	7979.74
456.941	8030.94
457.147	8547.03
457.352	8956.62
457.558	9134.79
457.764	9599.68
457.97	9956.03
458.176	10179.26
458.381	10941.1
458.587	10977.97
458.793	11442.85
458.999	11481.77
459.204	13007.5
459.41	13499.02
459.616	13267.59
459.821	14013.06
460.027	14508.66
460.233	15450.73
460.438	15069.81
460.644	15985.25
460.85	16222.81
461.055	16908.88
461.261	17648.2
461.466	17451.6
461.672	17650.25
461.878	19788.33
462.083	19872.29
462.289	19980.84
462.494	20982.29
462.7	21101.08
462.905	21070.36
463.111	23130.61
463.316	24302.05
463.522	24531.42
463.727	24951.26
463.932	26638.78
464.138	27359.67
464.343	28342.69
464.549	28707.23
464.754	30615.94
464.959	31144.31
465.165	31832.43
465.37	31383.93
465.575	31615.35
465.781	33718.61
465.986	34699.59
466.191	34169.16
466.397	34453.83
466.602	33691.99
466.807	35318.07
467.012	36260.14
467.218	36686.12
467.423	36784.42
467.628	38185.23
467.833	40012.02
468.038	39108.86
468.244	38629.64
468.449	40251.63
468.654	39670.01
468.859	39328
469.064	39614.71
469.269	38617.35
