Data from USB4F104151__270__11-20-41-531.txt Node

Date: Wed Feb 26 11:20:41 EST 2025
User: louis
Spectrometer: USB4F10415
Trigger mode: 4
Integration Time (sec): 1.000000E-1
Scans to average: 1
Electric dark correction enabled: true
Nonlinearity correction enabled: false
Boxcar width: 0
XAxis mode: Wavelengths
Number of Pixels in Spectrum: 3648
>>>>>Begin Spectral Data<<<<<
178.204	-455.67
178.424	-455.67
178.644	-455.67
178.864	-351.23
179.084	-394.23
179.304	-7.17
179.524	-52.22
179.744	-15.36
179.964	31.74
180.184	-11.26
180.404	9.22
180.624	3.07
180.844	-50.18
181.064	15.36
181.283	5.12
181.503	25.6
181.723	46.08
181.943	-68.61
182.163	211.96
182.383	-60.42
182.602	35.84
182.822	76.8
183.042	78.85
183.262	-62.46
183.482	-19.46
183.701	-54.27
183.921	91.13
184.141	-1.02
184.361	78.85
184.58	95.23
184.8	111.61
185.02	-25.6
185.239	119.81
185.459	31.74
185.679	74.75
185.898	-17.41
186.118	46.08
186.338	33.79
186.557	130.05
186.777	-95.23
186.997	17.41
187.216	31.74
187.436	183.29
187.655	76.8
187.875	125.95
188.095	60.42
188.314	181.25
188.534	113.66
188.753	-44.03
188.973	19.46
189.192	181.25
189.412	41.98
189.631	89.09
189.851	44.03
190.07	191.49
190.29	-17.41
190.509	48.13
190.729	-11.26
190.948	164.86
191.168	211.96
191.387	58.37
191.607	11.26
191.826	60.42
192.045	58.37
192.265	17.41
192.484	101.37
192.704	64.51
192.923	-125.95
193.142	218.11
193.362	70.65
193.581	144.38
193.8	121.85
194.02	91.13
194.239	3.07
194.458	111.61
194.678	58.37
194.897	-68.61
195.116	144.38
195.335	5.12
195.555	87.04
195.774	-5.12
195.993	74.75
196.212	56.32
196.432	-68.61
196.651	-31.74
196.87	33.79
197.089	300.03
197.308	15.36
197.528	25.6
197.747	15.36
197.966	62.46
198.185	162.81
198.404	-17.41
198.623	136.19
198.842	146.43
199.062	156.67
199.281	107.52
199.5	39.94
199.719	123.9
199.938	109.57
200.157	121.85
200.376	189.44
200.595	64.51
200.814	46.08
201.033	-7.17
201.252	162.81
201.471	97.28
201.69	82.94
201.909	15.36
202.128	179.2
202.347	74.75
202.566	54.27
202.785	-82.94
203.004	-1.02
203.223	228.35
203.442	52.22
203.661	-60.42
203.879	87.04
204.098	72.7
204.317	29.7
204.536	132.09
204.755	80.89
204.974	162.81
205.193	-48.13
205.411	142.33
205.63	171.01
205.849	93.18
206.068	23.55
206.287	-60.42
206.505	203.77
206.724	23.55
206.943	27.65
207.162	15.36
207.381	72.7
207.599	-3.07
207.818	13.31
208.037	64.51
208.255	91.13
208.474	111.61
208.693	52.22
208.911	17.41
209.13	89.09
209.349	78.85
209.567	164.86
209.786	72.7
210.005	78.85
210.223	70.65
210.442	-144.38
210.661	-27.65
210.879	3.07
211.098	33.79
211.316	93.18
211.535	-1.02
211.753	74.75
211.972	117.76
212.191	21.5
212.409	66.56
212.628	80.89
212.846	19.46
213.065	119.81
213.283	58.37
213.502	-19.46
213.72	9.22
213.938	58.37
214.157	21.5
214.375	107.52
214.594	144.38
214.812	78.85
215.031	-21.5
215.249	54.27
215.467	37.89
215.686	15.36
215.904	125.95
216.122	17.41
216.341	222.2
216.559	25.6
216.778	19.46
216.996	175.1
217.214	39.94
217.432	29.7
217.651	91.13
217.869	-31.74
218.087	56.32
218.306	-11.26
218.524	23.55
218.742	7.17
218.96	70.65
219.179	21.5
219.397	148.48
219.615	179.2
219.833	136.19
220.051	-17.41
220.27	74.75
220.488	119.81
220.706	64.51
220.924	-56.32
221.142	-13.31
221.36	93.18
221.578	115.71
221.796	39.94
222.015	17.41
222.233	80.89
222.451	193.53
222.669	-74.75
222.887	54.27
223.105	52.22
223.323	-21.5
223.541	19.46
223.759	111.61
223.977	103.42
224.195	158.72
224.413	52.22
224.631	140.29
224.849	29.7
225.067	209.92
225.285	-17.41
225.503	-3.07
225.721	-64.51
225.939	52.22
226.157	58.37
226.375	187.39
226.592	33.79
226.81	31.74
227.028	68.61
227.246	183.29
227.464	1.02
227.682	115.71
227.9	7.17
228.117	-1.02
228.335	148.48
228.553	13.31
228.771	19.46
228.989	84.99
229.206	168.96
229.424	3.07
229.642	44.03
229.86	9.22
230.077	89.09
230.295	37.89
230.513	93.18
230.731	72.7
230.948	248.83
231.166	115.71
231.384	5.12
231.601	-9.22
231.819	234.49
232.037	33.79
232.254	33.79
232.472	74.75
232.689	39.94
232.907	171.01
233.125	27.65
233.342	29.7
233.56	39.94
233.777	-19.46
233.995	9.22
234.213	128
234.43	52.22
234.648	70.65
234.865	13.31
235.083	95.23
235.3	66.56
235.518	68.61
235.735	136.19
235.953	74.75
236.17	80.89
236.388	9.22
236.605	97.28
236.822	144.38
237.04	146.43
237.257	80.89
237.475	-134.14
237.692	33.79
237.909	82.94
238.127	-66.56
238.344	101.37
238.562	115.71
238.779	-44.03
238.996	35.84
239.214	19.46
239.431	89.09
239.648	21.5
239.865	72.7
240.083	101.37
240.3	-44.03
240.517	64.51
240.735	105.47
240.952	183.29
241.169	97.28
241.386	78.85
241.603	-19.46
241.821	44.03
242.038	39.94
242.255	132.09
242.472	-41.98
242.689	93.18
242.907	80.89
243.124	78.85
243.341	17.41
243.558	-9.22
243.775	7.17
243.992	-101.37
244.209	33.79
244.426	181.25
244.643	78.85
244.86	-23.55
245.078	74.75
245.295	107.52
245.512	-7.17
245.729	9.22
245.946	78.85
246.163	113.66
246.38	89.09
246.597	93.18
246.814	74.75
247.031	-17.41
247.248	33.79
247.464	84.99
247.681	27.65
247.898	74.75
248.115	93.18
248.332	-80.89
248.549	103.42
248.766	142.33
248.983	134.14
249.2	68.61
249.417	101.37
249.633	50.18
249.85	164.86
250.067	58.37
250.284	103.42
250.501	76.8
250.717	74.75
250.934	-101.37
251.151	44.03
251.368	31.74
251.585	-15.36
251.801	138.24
252.018	-70.65
252.235	54.27
252.451	-23.55
252.668	35.84
252.885	99.33
253.102	80.89
253.318	97.28
253.535	19.46
253.752	-44.03
253.968	-13.31
254.185	-80.89
254.401	70.65
254.618	-3.07
254.835	7.17
255.051	80.89
255.268	113.66
255.484	48.13
255.701	60.42
255.917	78.85
256.134	-52.22
256.351	68.61
256.567	-99.33
256.784	9.22
257	-23.55
257.217	119.81
257.433	103.42
257.65	101.37
257.866	62.46
258.082	-31.74
258.299	-19.46
258.515	3.07
258.732	3.07
258.948	31.74
259.165	82.94
259.381	-87.04
259.597	17.41
259.814	27.65
260.03	64.51
260.246	25.6
260.463	156.67
260.679	123.9
260.895	25.6
261.112	101.37
261.328	84.99
261.544	-52.22
261.761	95.23
261.977	-13.31
262.193	-33.79
262.409	146.43
262.626	72.7
262.842	1.02
263.058	44.03
263.274	166.91
263.49	19.46
263.707	181.25
263.923	78.85
264.139	-41.98
264.355	33.79
264.571	117.76
264.787	48.13
265.004	158.72
265.22	62.46
265.436	56.32
265.652	11.26
265.868	72.7
266.084	9.22
266.3	97.28
266.516	33.79
266.732	48.13
266.948	37.89
267.164	84.99
267.38	91.13
267.596	54.27
267.812	121.85
268.028	125.95
268.244	15.36
268.46	111.61
268.676	-23.55
268.892	3.07
269.108	-48.13
269.324	46.08
269.54	-109.57
269.756	84.99
269.972	-91.13
270.188	-27.65
270.403	-19.46
270.619	33.79
270.835	101.37
271.051	44.03
271.267	44.03
271.483	-37.89
271.698	199.68
271.914	117.76
272.13	82.94
272.346	17.41
272.562	25.6
272.777	103.42
272.993	-1.02
273.209	70.65
273.425	115.71
273.64	-70.65
273.856	105.47
274.072	-89.09
274.287	31.74
274.503	78.85
274.719	125.95
274.934	66.56
275.15	-33.79
275.366	166.91
275.581	5.12
275.797	72.7
276.012	23.55
276.228	9.22
276.444	52.22
276.659	93.18
276.875	-46.08
277.09	5.12
277.306	-5.12
277.521	54.27
277.737	46.08
277.952	119.81
278.168	103.42
278.383	-3.07
278.599	74.75
278.814	128
279.03	-3.07
279.245	72.7
279.461	-29.7
279.676	125.95
279.892	9.22
280.107	19.46
280.322	-46.08
280.538	48.13
280.753	46.08
280.969	29.7
281.184	60.42
281.399	189.44
281.615	-48.13
281.83	72.7
282.045	-13.31
282.26	-37.89
282.476	31.74
282.691	142.33
282.906	168.96
283.122	27.65
283.337	41.98
283.552	115.71
283.767	35.84
283.983	48.13
284.198	23.55
284.413	74.75
284.628	-72.7
284.843	23.55
285.058	68.61
285.274	-41.98
285.489	56.32
285.704	128
285.919	21.5
286.134	7.17
286.349	56.32
286.564	52.22
286.779	158.72
286.995	-9.22
287.21	-74.75
287.425	123.9
287.64	31.74
287.855	46.08
288.07	-17.41
288.285	125.95
288.5	48.13
288.715	46.08
288.93	9.22
289.145	-7.17
289.36	62.46
289.575	29.7
289.79	130.05
290.004	64.51
290.219	144.38
290.434	31.74
290.649	15.36
290.864	15.36
291.079	-7.17
291.294	1.02
291.509	25.6
291.724	52.22
291.938	50.18
292.153	37.89
292.368	41.98
292.583	105.47
292.798	136.19
293.012	136.19
293.227	37.89
293.442	9.22
293.657	107.52
293.871	103.42
294.086	171.01
294.301	187.39
294.516	173.05
294.73	52.22
294.945	-93.18
295.16	50.18
295.374	48.13
295.589	115.71
295.804	58.37
296.018	7.17
296.233	103.42
296.447	80.89
296.662	9.22
296.877	109.57
297.091	56.32
297.306	52.22
297.52	-27.65
297.735	41.98
297.949	121.85
298.164	72.7
298.378	25.6
298.593	7.17
298.807	13.31
299.022	5.12
299.236	117.76
299.451	-19.46
299.665	25.6
299.88	-15.36
300.094	-3.07
300.309	-23.55
300.523	33.79
300.737	39.94
300.952	74.75
301.166	134.14
301.381	5.12
301.595	33.79
301.809	74.75
302.024	9.22
302.238	13.31
302.452	89.09
302.667	-27.65
302.881	138.24
303.095	97.28
303.309	105.47
303.524	15.36
303.738	93.18
303.952	39.94
304.166	76.8
304.381	-132.09
304.595	144.38
304.809	41.98
305.023	21.5
305.237	25.6
305.452	113.66
305.666	93.18
305.88	82.94
306.094	72.7
306.308	113.66
306.522	111.61
306.736	134.14
306.95	119.81
307.164	46.08
307.379	-54.27
307.593	142.33
307.807	121.85
308.021	132.09
308.235	52.22
308.449	-15.36
308.663	64.51
308.877	228.35
309.091	70.65
309.305	84.99
309.519	-123.9
309.733	91.13
309.947	-21.5
310.161	5.12
310.374	142.33
310.588	166.91
310.802	11.26
311.016	66.56
311.23	72.7
311.444	-87.04
311.658	80.89
311.872	130.05
312.085	99.33
312.299	64.51
312.513	162.81
312.727	103.42
312.941	-44.03
313.154	56.32
313.368	-13.31
313.582	101.37
313.796	21.5
314.009	21.5
314.223	134.14
314.437	70.65
314.651	158.72
314.864	-103.42
315.078	-17.41
315.292	-46.08
315.505	27.65
315.719	11.26
315.933	35.84
316.146	1.02
316.36	-15.36
316.573	107.52
316.787	72.7
317.001	89.09
317.214	-35.84
317.428	60.42
317.641	-31.74
317.855	48.13
318.068	-5.12
318.282	68.61
318.495	89.09
318.709	46.08
318.922	-9.22
319.136	125.95
319.349	162.81
319.563	13.31
319.776	31.74
319.99	-13.31
320.203	101.37
320.417	72.7
320.63	60.42
320.843	207.87
321.057	76.8
321.27	111.61
321.483	87.04
321.697	175.1
321.91	29.7
322.124	54.27
322.337	105.47
322.55	78.85
322.763	99.33
322.977	33.79
323.19	-39.94
323.403	113.66
323.617	44.03
323.83	179.2
324.043	-11.26
324.256	-13.31
324.469	-60.42
324.683	109.57
324.896	113.66
325.109	56.32
325.322	-72.7
325.535	87.04
325.748	109.57
325.962	33.79
326.175	117.76
326.388	138.24
326.601	119.81
326.814	58.37
327.027	35.84
327.24	191.49
327.453	-62.46
327.666	60.42
327.879	154.62
328.092	82.94
328.305	99.33
328.518	7.17
328.731	-21.5
328.944	7.17
329.157	76.8
329.37	-15.36
329.583	185.34
329.796	187.39
330.009	31.74
330.222	44.03
330.435	27.65
330.648	-11.26
330.861	5.12
331.073	33.79
331.286	-3.07
331.499	56.32
331.712	9.22
331.925	56.32
332.138	66.56
332.35	56.32
332.563	-1.02
332.776	218.11
332.989	-13.31
333.202	11.26
333.414	58.37
333.627	97.28
333.84	11.26
334.053	17.41
334.265	11.26
334.478	-74.75
334.691	78.85
334.903	82.94
335.116	15.36
335.329	31.74
335.541	78.85
335.754	232.44
335.966	-41.98
336.179	99.33
336.392	-9.22
336.604	7.17
336.817	115.71
337.029	101.37
337.242	-1.02
337.454	164.86
337.667	9.22
337.88	152.57
338.092	84.99
338.305	111.61
338.517	1.02
338.729	46.08
338.942	144.38
339.154	5.12
339.367	48.13
339.579	52.22
339.792	-39.94
340.004	82.94
340.217	58.37
340.429	76.8
340.641	-54.27
340.854	-13.31
341.066	-37.89
341.278	138.24
341.491	150.53
341.703	-33.79
341.915	-41.98
342.128	91.13
342.34	21.5
342.552	-50.18
342.764	80.89
342.977	99.33
343.189	29.7
343.401	105.47
343.613	-3.07
343.826	97.28
344.038	-82.94
344.25	101.37
344.462	-11.26
344.674	37.89
344.886	76.8
345.099	179.2
345.311	99.33
345.523	52.22
345.735	-46.08
345.947	68.61
346.159	113.66
346.371	101.37
346.583	33.79
346.795	144.38
347.007	74.75
347.219	35.84
347.431	97.28
347.643	142.33
347.855	-48.13
348.067	113.66
348.279	-39.94
348.491	-58.37
348.703	76.8
348.915	70.65
349.127	-58.37
349.339	23.55
349.551	-25.6
349.763	39.94
349.975	44.03
350.187	150.53
350.399	140.29
350.61	162.81
350.822	7.17
351.034	41.98
351.246	91.13
351.458	111.61
351.669	70.65
351.881	134.14
352.093	166.91
352.305	80.89
352.517	89.09
352.728	160.77
352.94	27.65
353.152	162.81
353.363	-80.89
353.575	142.33
353.787	232.44
353.999	39.94
354.21	156.67
354.422	37.89
354.633	33.79
354.845	60.42
355.057	35.84
355.268	17.41
355.48	101.37
355.692	-25.6
355.903	76.8
356.115	-72.7
356.326	-21.5
356.538	160.77
356.749	93.18
356.961	123.9
357.172	-25.6
357.384	-41.98
357.595	128
357.807	-82.94
358.018	44.03
358.23	-58.37
358.441	152.57
358.653	89.09
358.864	29.7
359.075	-9.22
359.287	76.8
359.498	56.32
359.709	128
359.921	68.61
360.132	119.81
360.344	-15.36
360.555	134.14
360.766	15.36
360.977	-27.65
361.189	103.42
361.4	56.32
361.611	78.85
361.823	125.95
362.034	72.7
362.245	-13.31
362.456	-19.46
362.667	58.37
362.879	21.5
363.09	95.23
363.301	7.17
363.512	78.85
363.723	44.03
363.935	-23.55
364.146	56.32
364.357	35.84
364.568	128
364.779	-93.18
364.99	185.34
365.201	-52.22
365.412	103.42
365.623	-39.94
365.834	78.85
366.045	11.26
366.256	48.13
366.467	134.14
366.678	-58.37
366.889	84.99
367.1	-19.46
367.311	132.09
367.522	-48.13
367.733	115.71
367.944	117.76
368.155	82.94
368.366	95.23
368.577	125.95
368.788	84.99
368.999	-17.41
369.209	72.7
369.42	230.4
369.631	244.73
369.842	64.51
370.053	70.65
370.264	39.94
370.474	-25.6
370.685	70.65
370.896	44.03
371.107	168.96
371.317	97.28
371.528	33.79
371.739	82.94
371.95	146.43
372.16	80.89
372.371	-41.98
372.582	19.46
372.792	111.61
373.003	66.56
373.214	52.22
373.424	109.57
373.635	1.02
373.846	136.19
374.056	-9.22
374.267	68.61
374.477	48.13
374.688	-25.6
374.898	76.8
375.109	68.61
375.319	33.79
375.53	21.5
375.74	89.09
375.951	33.79
376.161	31.74
376.372	187.39
376.582	-29.7
376.793	50.18
377.003	11.26
377.214	5.12
377.424	52.22
377.635	44.03
377.845	37.89
378.055	142.33
378.266	-54.27
378.476	31.74
378.686	111.61
378.897	-56.32
379.107	123.9
379.317	-1.02
379.528	39.94
379.738	121.85
379.948	-80.89
380.158	164.86
380.369	105.47
380.579	33.79
380.789	-1.02
380.999	15.36
381.21	93.18
381.42	195.58
381.63	23.55
381.84	91.13
382.05	74.75
382.261	130.05
382.471	119.81
382.681	23.55
382.891	162.81
383.101	21.5
383.311	-9.22
383.521	95.23
383.731	44.03
383.941	111.61
384.151	99.33
384.361	21.5
384.571	48.13
384.781	113.66
384.991	164.86
385.201	162.81
385.411	150.53
385.621	56.32
385.831	84.99
386.041	5.12
386.251	107.52
386.461	78.85
386.671	70.65
386.881	46.08
387.091	-19.46
387.301	78.85
387.511	31.74
387.72	130.05
387.93	58.37
388.14	-37.89
388.35	68.61
388.56	89.09
388.769	164.86
388.979	89.09
389.189	-5.12
389.399	80.89
389.609	128
389.818	66.56
390.028	138.24
390.238	68.61
390.447	60.42
390.657	111.61
390.867	19.46
391.076	-29.7
391.286	39.94
391.496	39.94
391.705	54.27
391.915	177.15
392.125	144.38
392.334	48.13
392.544	109.57
392.753	72.7
392.963	13.31
393.172	82.94
393.382	13.31
393.591	130.05
393.801	17.41
394.01	226.3
394.22	54.27
394.429	64.51
394.639	103.42
394.848	15.36
395.058	41.98
395.267	-3.07
395.477	48.13
395.686	84.99
395.895	175.1
396.105	187.39
396.314	35.84
396.524	7.17
396.733	39.94
396.942	109.57
397.152	58.37
397.361	46.08
397.57	76.8
397.78	128
397.989	150.53
398.198	187.39
398.407	33.79
398.617	66.56
398.826	123.9
399.035	70.65
399.244	97.28
399.453	64.51
399.663	5.12
399.872	64.51
400.081	9.22
400.29	156.67
400.499	91.13
400.708	115.71
400.917	29.7
401.127	-37.89
401.336	31.74
401.545	189.44
401.754	109.57
401.963	27.65
402.172	37.89
402.381	-33.79
402.59	7.17
402.799	97.28
403.008	115.71
403.217	31.74
403.426	132.09
403.635	-54.27
403.844	23.55
404.053	50.18
404.262	68.61
404.471	166.91
404.68	97.28
404.888	17.41
405.097	109.57
405.306	56.32
405.515	125.95
405.724	46.08
405.933	31.74
406.142	74.75
406.35	134.14
406.559	13.31
406.768	103.42
406.977	207.87
407.185	97.28
407.394	89.09
407.603	-21.5
407.812	11.26
408.02	101.37
408.229	78.85
408.438	84.99
408.646	-33.79
408.855	23.55
409.064	80.89
409.272	13.31
409.481	23.55
409.69	60.42
409.898	-13.31
410.107	193.53
410.315	134.14
410.524	35.84
410.733	7.17
410.941	27.65
411.15	128
411.358	128
411.567	146.43
411.775	52.22
411.984	29.7
412.192	128
412.401	-25.6
412.609	216.06
412.818	50.18
413.026	132.09
413.234	44.03
413.443	48.13
413.651	84.99
413.86	27.65
414.068	62.46
414.276	82.94
414.485	-15.36
414.693	156.67
414.901	185.34
415.11	64.51
415.318	37.89
415.526	84.99
415.734	171.01
415.943	66.56
416.151	152.57
416.359	99.33
416.567	54.27
416.776	107.52
416.984	87.04
417.192	271.36
417.4	89.09
417.608	-3.07
417.817	31.74
418.025	82.94
418.233	156.67
418.441	-29.7
418.649	5.12
418.857	97.28
419.065	136.19
419.273	23.55
419.481	105.47
419.689	29.7
419.897	-41.98
420.105	-58.37
420.313	113.66
420.521	152.57
420.729	48.13
420.937	39.94
421.145	-1.02
421.353	142.33
421.561	171.01
421.769	80.89
421.977	37.89
422.185	132.09
422.393	19.46
422.601	175.1
422.809	87.04
423.017	54.27
423.224	70.65
423.432	162.81
423.64	21.5
423.848	185.34
424.056	29.7
424.263	103.42
424.471	31.74
424.679	95.23
424.887	41.98
425.094	140.29
425.302	121.85
425.51	97.28
425.718	62.46
425.925	113.66
426.133	84.99
426.341	234.49
426.548	54.27
426.756	72.7
426.964	142.33
427.171	-35.84
427.379	97.28
427.586	89.09
427.794	78.85
428.001	142.33
428.209	62.46
428.417	207.87
428.624	130.05
428.832	154.62
429.039	107.52
429.247	37.89
429.454	144.38
429.662	207.87
429.869	105.47
430.076	130.05
430.284	171.01
430.491	263.16
430.699	84.99
430.906	222.2
431.114	173.05
431.321	156.67
431.528	105.47
431.736	195.58
431.943	158.72
432.15	146.43
432.358	148.48
432.565	265.21
432.772	44.03
432.979	179.2
433.187	66.56
433.394	252.92
433.601	52.22
433.808	254.97
434.016	228.35
434.223	117.76
434.43	187.39
434.637	205.82
434.844	168.96
435.052	226.3
435.259	248.83
435.466	236.54
435.673	242.68
435.88	248.83
436.087	281.6
436.294	293.88
436.501	398.33
436.708	273.4
436.915	252.92
437.122	347.13
437.329	177.15
437.537	252.92
437.743	320.51
437.95	461.82
438.157	375.8
438.364	355.32
438.571	359.42
438.778	465.91
438.985	340.99
439.192	427
439.399	433.15
439.606	476.15
439.813	513.02
440.02	521.21
440.227	549.88
440.433	549.88
440.64	590.84
440.847	427
441.054	615.41
441.261	560.12
441.467	500.73
441.674	517.11
441.881	670.71
442.088	551.93
442.294	615.41
442.501	766.96
442.708	707.57
442.914	676.85
443.121	713.72
443.328	723.96
443.534	832.5
443.741	801.78
443.948	631.8
444.154	836.6
444.361	1063.92
444.568	904.18
444.774	912.37
444.981	914.42
445.187	1047.54
445.394	1031.15
445.6	979.95
445.807	1084.4
446.013	1119.21
446.22	1119.21
446.426	1264.62
446.633	1358.83
446.839	1405.93
447.046	1305.58
447.252	1407.98
447.459	1475.56
447.665	1330.16
447.871	1594.34
448.078	1666.02
448.284	1690.6
448.491	1838.05
448.697	1729.51
448.903	1926.11
449.11	1954.79
449.316	1987.55
449.522	2161.63
449.728	2206.69
449.935	2331.61
450.141	2259.93
450.347	2577.37
450.553	2368.48
450.76	2311.13
450.966	2644.95
451.172	2702.29
451.378	2769.88
451.584	2763.73
451.791	3103.7
451.997	3132.37
452.203	3118.03
452.409	3335.12
452.615	3488.71
452.821	3279.82
453.027	3417.04
453.233	3691.46
453.44	3640.26
453.646	3824.58
453.852	4135.87
454.058	4158.4
454.264	4367.29
454.47	4596.67
454.676	4725.69
454.882	5057.46
455.088	4946.87
455.294	5221.3
455.5	5434.29
455.705	5778.34
455.911	5802.92
456.117	5882.79
456.323	6063.01
456.529	6173.6
456.735	6781.85
456.941	6871.96
457.147	7103.38
457.352	7252.88
457.558	7596.94
457.764	8160.13
457.97	8080.26
458.176	8500.09
458.381	8938.36
458.587	9089.91
458.793	9456.5
458.999	9517.93
459.204	10640.22
459.41	11006.81
459.616	10896.22
459.821	11596.62
460.027	12006.22
460.233	12608.32
460.438	12618.56
460.644	13534
460.85	13443.89
461.055	14066.47
461.261	14705.44
461.466	14367.52
461.672	14807.84
461.878	16487.17
462.083	16161.55
462.289	16679.68
462.494	17234.68
462.7	17543.92
462.905	17773.3
463.111	19098.33
463.316	19911.38
463.522	20042.45
463.727	21013.18
463.932	21768.88
464.138	22330.03
464.343	23489.18
464.549	23573.14
464.754	25180.8
464.959	26098.29
465.165	26268.27
465.37	25877.11
465.575	26323.57
465.781	27621.98
465.986	28594.76
466.191	28437.07
466.397	28430.93
466.602	28009.04
466.807	29481.53
467.012	29647.42
467.218	30609.96
467.423	30685.74
467.628	31584.8
467.833	33094.15
468.038	32645.65
468.244	31920.66
468.449	33679.87
468.654	32918.03
468.859	33038.86
