Data from USB4F104151__28__10-42-15-284.txt Node

Date: Wed Feb 26 10:42:15 EST 2025
User: louis
Spectrometer: USB4F10415
Trigger mode: 4
Integration Time (sec): 1.000000E-1
Scans to average: 1
Electric dark correction enabled: true
Nonlinearity correction enabled: false
Boxcar width: 0
XAxis mode: Wavelengths
Number of Pixels in Spectrum: 3648
>>>>>Begin Spectral Data<<<<<
178.204	-344.74
178.424	-344.74
178.644	-344.74
178.864	-428.71
179.084	-408.23
179.304	-27.31
179.524	-41.64
179.744	81.24
179.964	5.46
180.184	124.24
180.404	32.08
180.624	-62.12
180.844	25.94
181.064	-193.19
181.283	30.04
181.503	-31.4
181.723	56.66
181.943	-78.51
182.163	148.82
182.383	1.37
182.602	34.13
182.822	130.39
183.042	36.18
183.262	-25.26
183.482	1.37
183.701	7.51
183.921	97.62
184.141	-17.07
184.361	97.62
184.58	109.91
184.8	13.65
185.02	7.51
185.239	91.48
185.459	38.23
185.679	136.53
185.898	-29.35
186.118	30.04
186.338	19.8
186.557	56.66
186.777	-76.46
186.997	25.94
187.216	32.08
187.436	202.07
187.655	79.19
187.875	114
188.095	-4.78
188.314	159.06
188.534	64.85
188.753	-41.64
188.973	105.81
189.192	128.34
189.412	15.7
189.631	27.99
189.851	27.99
190.07	83.28
190.29	-25.26
190.509	23.89
190.729	17.75
190.948	128.34
191.168	208.21
191.387	7.51
191.607	7.51
191.826	109.91
192.045	50.52
192.265	17.75
192.484	95.57
192.704	21.84
192.923	-101.03
193.142	173.39
193.362	120.15
193.581	159.06
193.8	116.05
194.02	64.85
194.239	89.43
194.458	75.09
194.678	32.08
194.897	-6.83
195.116	48.47
195.335	27.99
195.555	11.61
195.774	15.7
195.993	169.3
196.212	-25.26
196.432	-43.69
196.651	-31.4
196.87	5.46
197.089	243.03
197.308	89.43
197.528	32.08
197.747	-4.78
197.966	46.42
198.185	146.77
198.404	-31.4
198.623	107.86
198.842	146.77
199.062	71
199.281	17.75
199.5	142.68
199.719	105.81
199.938	27.99
200.157	44.37
200.376	7.51
200.595	163.15
200.814	11.61
201.033	25.94
201.252	161.11
201.471	34.13
201.69	66.9
201.909	54.61
202.128	89.43
202.347	-35.5
202.566	1.37
202.785	-21.16
203.004	-64.17
203.223	281.94
203.442	-0.68
203.661	-76.46
203.879	48.47
204.098	179.54
204.317	-80.55
204.536	71
204.755	97.62
204.974	159.06
205.193	5.46
205.411	187.73
205.63	101.72
205.849	71
206.068	21.84
206.287	11.61
206.505	83.28
206.724	27.99
206.943	-0.68
207.162	36.18
207.381	46.42
207.599	66.9
207.818	17.75
208.037	-2.73
208.255	42.32
208.474	46.42
208.693	91.48
208.911	75.09
209.13	130.39
209.349	66.9
209.567	21.84
209.786	66.9
210.005	60.76
210.223	89.43
210.442	-49.83
210.661	-33.45
210.879	52.56
211.098	40.28
211.316	46.42
211.535	50.52
211.753	36.18
211.972	120.15
212.191	46.42
212.409	42.32
212.628	116.05
212.846	-23.21
213.065	111.96
213.283	122.2
213.502	114
213.72	-6.83
213.938	7.51
214.157	-21.16
214.375	105.81
214.594	-21.16
214.812	34.13
215.031	42.32
215.249	-6.83
215.467	50.52
215.686	-29.35
215.904	25.94
216.122	52.56
216.341	161.11
216.559	1.37
216.778	93.52
216.996	101.72
217.214	81.24
217.432	38.23
217.651	-78.51
217.869	5.46
218.087	44.37
218.306	-17.07
218.524	38.23
218.742	-8.87
218.96	95.57
219.179	-62.12
219.397	7.51
219.615	161.11
219.833	118.1
220.051	-17.07
220.27	42.32
220.488	85.33
220.706	118.1
220.924	-41.64
221.142	-53.93
221.36	54.61
221.578	89.43
221.796	-82.6
222.015	101.72
222.233	11.61
222.451	236.88
222.669	19.8
222.887	-19.11
223.105	-131.75
223.323	15.7
223.541	-6.83
223.759	56.66
223.977	42.32
224.195	175.44
224.413	97.62
224.631	-6.83
224.849	128.34
225.067	206.16
225.285	73.04
225.503	-2.73
225.721	-119.46
225.939	15.7
226.157	103.76
226.375	179.54
226.592	-37.55
226.81	97.62
227.028	103.76
227.246	77.14
227.464	7.51
227.682	118.1
227.9	34.13
228.117	79.19
228.335	64.85
228.553	126.29
228.771	91.48
228.989	68.95
229.206	3.41
229.424	3.41
229.642	32.08
229.86	42.32
230.077	99.67
230.295	48.47
230.513	118.1
230.731	83.28
230.948	161.11
231.166	91.48
231.384	-43.69
231.601	-2.73
231.819	195.92
232.037	-60.07
232.254	-17.07
232.472	56.66
232.689	87.38
232.907	173.39
233.125	-23.21
233.342	-55.98
233.56	1.37
233.777	-2.73
233.995	-60.07
234.213	132.44
234.43	-4.78
234.648	13.65
234.865	42.32
235.083	81.24
235.3	13.65
235.518	142.68
235.735	183.63
235.953	134.48
236.17	52.56
236.388	50.52
236.605	17.75
236.822	165.2
237.04	109.91
237.257	34.13
237.475	-82.6
237.692	58.71
237.909	138.58
238.127	-23.21
238.344	114
238.562	97.62
238.779	-41.64
238.996	-66.22
239.214	122.2
239.431	95.57
239.648	15.7
239.865	134.48
240.083	138.58
240.3	5.46
240.517	27.99
240.735	46.42
240.952	183.63
241.169	68.95
241.386	58.71
241.603	25.94
241.821	19.8
242.038	77.14
242.255	101.72
242.472	-17.07
242.689	111.96
242.907	62.8
243.124	95.57
243.341	73.04
243.558	-10.92
243.775	-41.64
243.992	-49.83
244.209	111.96
244.426	120.15
244.643	103.76
244.86	79.19
245.078	68.95
245.295	89.43
245.512	9.56
245.729	-0.68
245.946	46.42
246.163	30.04
246.38	5.46
246.597	89.43
246.814	9.56
247.031	52.56
247.248	-45.74
247.464	101.72
247.681	30.04
247.898	62.8
248.115	68.95
248.332	3.41
248.549	154.96
248.766	116.05
248.983	183.63
249.2	62.8
249.417	148.82
249.633	36.18
249.85	85.33
250.067	19.8
250.284	130.39
250.501	103.76
250.717	40.28
250.934	-25.26
251.151	23.89
251.368	1.37
251.585	83.28
251.801	7.51
252.018	11.61
252.235	126.29
252.451	-70.31
252.668	-21.16
252.885	138.58
253.102	138.58
253.318	3.41
253.535	13.65
253.752	66.9
253.968	15.7
254.185	-58.03
254.401	-10.92
254.618	-25.26
254.835	7.51
255.051	140.63
255.268	120.15
255.484	-33.45
255.701	36.18
255.917	58.71
256.134	64.85
256.351	-55.98
256.567	-90.79
256.784	44.37
257	-53.93
257.217	75.09
257.433	85.33
257.65	54.61
257.866	89.43
258.082	13.65
258.299	13.65
258.515	134.48
258.732	52.56
258.948	-62.12
259.165	36.18
259.381	9.56
259.597	114
259.814	44.37
260.03	30.04
260.246	-33.45
260.463	161.11
260.679	126.29
260.895	44.37
261.112	142.68
261.328	13.65
261.544	7.51
261.761	75.09
261.977	13.65
262.193	34.13
262.409	118.1
262.626	64.85
262.842	68.95
263.058	-17.07
263.274	140.63
263.49	44.37
263.707	21.84
263.923	105.81
264.139	-55.98
264.355	62.8
264.571	140.63
264.787	95.57
265.004	157.01
265.22	46.42
265.436	50.52
265.652	-62.12
265.868	44.37
266.084	-6.83
266.3	-19.11
266.516	-135.85
266.732	79.19
266.948	93.52
267.164	17.75
267.38	50.52
267.596	87.38
267.812	210.26
268.028	118.1
268.244	7.51
268.46	21.84
268.676	48.47
268.892	99.67
269.108	105.81
269.324	-49.83
269.54	23.89
269.756	7.51
269.972	-86.7
270.188	77.14
270.403	-6.83
270.619	-4.78
270.835	83.28
271.051	77.14
271.267	15.7
271.483	52.56
271.698	85.33
271.914	191.83
272.13	30.04
272.346	56.66
272.562	46.42
272.777	128.34
272.993	19.8
273.209	25.94
273.425	73.04
273.64	-39.59
273.856	89.43
274.072	7.51
274.287	-10.92
274.503	130.39
274.719	9.56
274.934	42.32
275.15	-98.99
275.366	56.66
275.581	-45.74
275.797	3.41
276.012	52.56
276.228	-21.16
276.444	64.85
276.659	52.56
276.875	-6.83
277.09	44.37
277.306	-31.4
277.521	27.99
277.737	75.09
277.952	64.85
278.168	58.71
278.383	25.94
278.599	34.13
278.814	148.82
279.03	40.28
279.245	109.91
279.461	1.37
279.676	114
279.892	-43.69
280.107	3.41
280.322	-31.4
280.538	68.95
280.753	-31.4
280.969	-0.68
281.184	52.56
281.399	122.2
281.615	52.56
281.83	54.61
282.045	-60.07
282.26	38.23
282.476	62.8
282.691	142.68
282.906	103.76
283.122	142.68
283.337	-27.31
283.552	56.66
283.767	-19.11
283.983	210.26
284.198	27.99
284.413	21.84
284.628	-17.07
284.843	87.38
285.058	95.57
285.274	3.41
285.489	-31.4
285.704	73.04
285.919	27.99
286.134	-2.73
286.349	105.81
286.564	109.91
286.779	105.81
286.995	-4.78
287.21	-37.55
287.425	83.28
287.64	38.23
287.855	116.05
288.07	-25.26
288.285	126.29
288.5	50.52
288.715	77.14
288.93	-19.11
289.145	19.8
289.36	52.56
289.575	5.46
289.79	161.11
290.004	25.94
290.219	118.1
290.434	21.84
290.649	21.84
290.864	38.23
291.079	-4.78
291.294	66.9
291.509	32.08
291.724	-43.69
291.938	-6.83
292.153	32.08
292.368	15.7
292.583	130.39
292.798	75.09
293.012	79.19
293.227	32.08
293.442	38.23
293.657	130.39
293.871	128.34
294.086	23.89
294.301	261.46
294.516	52.56
294.73	1.37
294.945	19.8
295.16	40.28
295.374	126.29
295.589	157.01
295.804	60.76
296.018	111.96
296.233	167.25
296.447	103.76
296.662	-6.83
296.877	189.78
297.091	42.32
297.306	83.28
297.52	93.52
297.735	56.66
297.949	11.61
298.164	73.04
298.378	85.33
298.593	21.84
298.807	13.65
299.022	42.32
299.236	95.57
299.451	23.89
299.665	5.46
299.88	27.99
300.094	97.62
300.309	42.32
300.523	23.89
300.737	48.47
300.952	83.28
301.166	99.67
301.381	-55.98
301.595	5.46
301.809	19.8
302.024	77.14
302.238	-78.51
302.452	93.52
302.667	5.46
302.881	202.07
303.095	36.18
303.309	144.72
303.524	34.13
303.738	38.23
303.952	44.37
304.166	60.76
304.381	-88.75
304.595	185.68
304.809	-23.21
305.023	54.61
305.237	25.94
305.452	15.7
305.666	91.48
305.88	89.43
306.094	111.96
306.308	40.28
306.522	109.91
306.736	97.62
306.95	87.38
307.164	77.14
307.379	36.18
307.593	116.05
307.807	146.77
308.021	130.39
308.235	32.08
308.449	-45.74
308.663	109.91
308.877	173.39
309.091	30.04
309.305	87.38
309.519	-8.87
309.733	140.63
309.947	-10.92
310.161	140.63
310.374	118.1
310.588	60.76
310.802	-4.78
311.016	64.85
311.23	36.18
311.444	-60.07
311.658	5.46
311.872	91.48
312.085	85.33
312.299	118.1
312.513	89.43
312.727	75.09
312.941	-51.88
313.154	95.57
313.368	85.33
313.582	99.67
313.796	83.28
314.009	15.7
314.223	165.2
314.437	130.39
314.651	73.04
314.864	-25.26
315.078	73.04
315.292	-0.68
315.505	7.51
315.719	95.57
315.933	77.14
316.146	-17.07
316.36	30.04
316.573	79.19
316.787	204.11
317.001	87.38
317.214	34.13
317.428	103.76
317.641	19.8
317.855	21.84
318.068	116.05
318.282	85.33
318.495	154.96
318.709	91.48
318.922	15.7
319.136	144.72
319.349	40.28
319.563	-37.55
319.776	109.91
319.99	-4.78
320.203	81.24
320.417	103.76
320.63	99.67
320.843	175.44
321.057	128.34
321.27	73.04
321.483	95.57
321.697	118.1
321.91	1.37
322.124	38.23
322.337	111.96
322.55	-25.26
322.763	48.47
322.977	1.37
323.19	-39.59
323.403	-4.78
323.617	71
323.83	138.58
324.043	-29.35
324.256	81.24
324.469	-19.11
324.683	118.1
324.896	30.04
325.109	3.41
325.322	-41.64
325.535	124.24
325.748	48.47
325.962	48.47
326.175	93.52
326.388	9.56
326.601	83.28
326.814	99.67
327.027	58.71
327.24	118.1
327.453	-74.41
327.666	132.44
327.879	89.43
328.092	118.1
328.305	40.28
328.518	25.94
328.731	1.37
328.944	68.95
329.157	54.61
329.37	-41.64
329.583	183.63
329.796	140.63
330.009	36.18
330.222	64.85
330.435	58.71
330.648	130.39
330.861	77.14
331.073	19.8
331.286	71
331.499	105.81
331.712	17.75
331.925	77.14
332.138	42.32
332.35	126.29
332.563	48.47
332.776	148.82
332.989	32.08
333.202	-60.07
333.414	17.75
333.627	34.13
333.84	27.99
334.053	111.96
334.265	83.28
334.478	-37.55
334.691	-15.02
334.903	103.76
335.116	-6.83
335.329	-62.12
335.541	161.11
335.754	236.88
335.966	7.51
336.179	91.48
336.392	-6.83
336.604	25.94
336.817	103.76
337.029	85.33
337.242	85.33
337.454	89.43
337.667	32.08
337.88	136.53
338.092	34.13
338.305	105.81
338.517	-2.73
338.729	-66.22
338.942	25.94
339.154	-68.27
339.367	-21.16
339.579	97.62
339.792	7.51
340.004	109.91
340.217	54.61
340.429	77.14
340.641	-4.78
340.854	-35.5
341.066	54.61
341.278	81.24
341.491	144.72
341.703	-19.11
341.915	48.47
342.128	60.76
342.34	9.56
342.552	-58.03
342.764	25.94
342.977	-4.78
343.189	30.04
343.401	64.85
343.613	34.13
343.826	30.04
344.038	17.75
344.25	142.68
344.462	15.7
344.674	79.19
344.886	-21.16
345.099	99.67
345.311	77.14
345.523	-27.31
345.735	-80.55
345.947	89.43
346.159	64.85
346.371	15.7
346.583	30.04
346.795	216.4
347.007	-15.02
347.219	15.7
347.431	38.23
347.643	68.95
347.855	32.08
348.067	58.71
348.279	-25.26
348.491	-10.92
348.703	23.89
348.915	13.65
349.127	-6.83
349.339	66.9
349.551	13.65
349.763	68.95
349.975	75.09
350.187	111.96
350.399	130.39
350.61	81.24
350.822	44.37
351.034	46.42
351.246	48.47
351.458	75.09
351.669	144.72
351.881	146.77
352.093	140.63
352.305	11.61
352.517	38.23
352.728	128.34
352.94	54.61
353.152	109.91
353.363	11.61
353.575	75.09
353.787	99.67
353.999	38.23
354.21	169.3
354.422	-8.87
354.633	46.42
354.845	9.56
355.057	44.37
355.268	73.04
355.48	30.04
355.692	-17.07
355.903	13.65
356.115	-2.73
356.326	-15.02
356.538	140.63
356.749	148.82
356.961	195.92
357.172	36.18
357.384	9.56
357.595	187.73
357.807	34.13
358.018	15.7
358.23	109.91
358.441	220.5
358.653	81.24
358.864	130.39
359.075	-0.68
359.287	-37.55
359.498	93.52
359.709	48.47
359.921	19.8
360.132	73.04
360.344	11.61
360.555	-15.02
360.766	-58.03
360.977	-4.78
361.189	114
361.4	66.9
361.611	101.72
361.823	152.91
362.034	7.51
362.245	-19.11
362.456	5.46
362.667	56.66
362.879	40.28
363.09	62.8
363.301	54.61
363.512	44.37
363.723	-49.83
363.935	-39.59
364.146	118.1
364.357	32.08
364.568	64.85
364.779	-8.87
364.99	171.35
365.201	-12.97
365.412	95.57
365.623	-10.92
365.834	75.09
366.045	62.8
366.256	87.38
366.467	124.24
366.678	99.67
366.889	42.32
367.1	44.37
367.311	206.16
367.522	58.71
367.733	99.67
367.944	73.04
368.155	50.52
368.366	105.81
368.577	202.07
368.788	146.77
368.999	7.51
369.209	54.61
369.42	206.16
369.631	212.31
369.842	114
370.053	9.56
370.264	62.8
370.474	19.8
370.685	101.72
370.896	32.08
371.107	103.76
371.317	73.04
371.528	25.94
371.739	111.96
371.95	107.86
372.16	73.04
372.371	-33.45
372.582	42.32
372.792	101.72
373.003	-19.11
373.214	23.89
373.424	187.73
373.635	-66.22
373.846	189.78
374.056	25.94
374.267	27.99
374.477	89.43
374.688	-10.92
374.898	93.52
375.109	99.67
375.319	124.24
375.53	1.37
375.74	93.52
375.951	46.42
376.161	91.48
376.372	130.39
376.582	-10.92
376.793	97.62
377.003	46.42
377.214	-39.59
377.424	101.72
377.635	87.38
377.845	21.84
378.055	150.87
378.266	-45.74
378.476	77.14
378.686	136.53
378.897	93.52
379.107	150.87
379.317	48.47
379.528	-4.78
379.738	167.25
379.948	-78.51
380.158	111.96
380.369	15.7
380.579	85.33
380.789	17.75
380.999	111.96
381.21	181.59
381.42	243.03
381.63	122.2
381.84	97.62
382.05	118.1
382.261	130.39
382.471	167.25
382.681	-21.16
382.891	150.87
383.101	109.91
383.311	-92.84
383.521	21.84
383.731	81.24
383.941	150.87
384.151	101.72
384.361	-41.64
384.571	23.89
384.781	-0.68
384.991	214.35
385.201	165.2
385.411	122.2
385.621	77.14
385.831	75.09
386.041	46.42
386.251	9.56
386.461	161.11
386.671	25.94
386.881	101.72
387.091	21.84
387.301	122.2
387.511	25.94
387.72	81.24
387.93	163.15
388.14	-45.74
388.35	3.41
388.56	132.44
388.769	132.44
388.979	66.9
389.189	-21.16
389.399	83.28
389.609	101.72
389.818	101.72
390.028	136.53
390.238	99.67
390.447	-29.35
390.657	66.9
390.867	64.85
391.076	-10.92
391.286	95.57
391.496	32.08
391.705	89.43
391.915	152.91
392.125	101.72
392.334	13.65
392.544	75.09
392.753	30.04
392.963	58.71
393.172	77.14
393.382	85.33
393.591	165.2
393.801	1.37
394.01	150.87
394.22	40.28
394.429	46.42
394.639	-25.26
394.848	17.75
395.058	11.61
395.267	38.23
395.477	87.38
395.686	124.24
395.895	130.39
396.105	148.82
396.314	52.56
396.524	54.61
396.733	52.56
396.942	132.44
397.152	25.94
397.361	146.77
397.57	118.1
397.78	52.56
397.989	136.53
398.198	212.31
398.407	48.47
398.617	3.41
398.826	54.61
399.035	27.99
399.244	157.01
399.453	27.99
399.663	1.37
399.872	97.62
400.081	-37.55
400.29	126.29
400.499	-47.79
400.708	171.35
400.917	-4.78
401.127	-4.78
401.336	42.32
401.545	179.54
401.754	154.96
401.963	50.52
402.172	5.46
402.381	21.84
402.59	87.38
402.799	68.95
403.008	146.77
403.217	62.8
403.426	87.38
403.635	-51.88
403.844	-29.35
404.053	56.66
404.262	25.94
404.471	167.25
404.68	54.61
404.888	17.75
405.097	-8.87
405.306	36.18
405.515	154.96
405.724	93.52
405.933	68.95
406.142	68.95
406.35	134.48
406.559	30.04
406.768	87.38
406.977	183.63
407.185	81.24
407.394	50.52
407.603	-17.07
407.812	138.58
408.02	165.2
408.229	97.62
408.438	30.04
408.646	87.38
408.855	21.84
409.064	122.2
409.272	7.51
409.481	128.34
409.69	-12.97
409.898	23.89
410.107	128.34
410.315	107.86
410.524	54.61
410.733	62.8
410.941	99.67
411.15	60.76
411.358	126.29
411.567	165.2
411.775	89.43
411.984	13.65
412.192	157.01
412.401	46.42
412.609	171.35
412.818	103.76
413.026	171.35
413.234	116.05
413.443	40.28
413.651	5.46
413.86	21.84
414.068	103.76
414.276	171.35
414.485	46.42
414.693	128.34
414.901	181.59
415.11	118.1
415.318	56.66
415.526	95.57
415.734	193.87
415.943	71
416.151	140.63
416.359	-47.79
416.567	138.58
416.776	175.44
416.984	118.1
417.192	114
417.4	-19.11
417.608	19.8
417.817	99.67
418.025	128.34
418.233	214.35
418.441	-8.87
418.649	-10.92
418.857	126.29
419.065	157.01
419.273	21.84
419.481	62.8
419.689	124.24
419.897	83.28
420.105	3.41
420.313	159.06
420.521	193.87
420.729	208.21
420.937	13.65
421.145	-10.92
421.353	126.29
421.561	169.3
421.769	71
421.977	-6.83
422.185	165.2
422.393	34.13
422.601	197.97
422.809	56.66
423.017	77.14
423.224	126.29
423.432	111.96
423.64	144.72
423.848	64.85
424.056	17.75
424.263	124.24
424.471	93.52
424.679	234.83
424.887	-43.69
425.094	224.59
425.302	167.25
425.51	58.71
425.718	152.91
425.925	52.56
426.133	66.9
426.341	187.73
426.548	81.24
426.756	87.38
426.964	116.05
427.171	-17.07
427.379	179.54
427.586	130.39
427.794	60.76
428.001	161.11
428.209	93.52
428.417	312.66
428.624	152.91
428.832	126.29
429.039	138.58
429.247	152.91
429.454	204.11
429.662	181.59
429.869	126.29
430.076	183.63
430.284	261.46
430.491	226.64
430.699	193.87
430.906	265.55
431.114	152.91
431.321	296.27
431.528	200.02
431.736	216.4
431.943	179.54
432.15	144.72
432.358	261.46
432.565	290.13
432.772	91.48
432.979	300.37
433.187	167.25
433.394	337.23
433.601	183.63
433.808	218.45
434.016	365.9
434.223	300.37
434.43	271.7
434.637	326.99
434.844	322.9
435.052	308.56
435.259	378.19
435.466	421.2
435.673	378.19
435.88	372.05
436.087	472.4
436.294	546.12
436.501	431.44
436.708	392.53
436.915	468.3
437.122	437.58
437.329	445.77
437.537	447.82
437.743	445.77
437.95	611.66
438.157	523.6
438.364	484.69
438.571	570.7
438.778	671.05
438.985	607.56
439.192	767.31
439.399	697.67
439.606	699.72
439.813	740.68
440.02	806.22
440.227	916.81
440.433	908.62
440.64	763.21
440.847	734.54
441.054	873.8
441.261	1094.98
441.467	859.46
441.674	888.14
441.881	1064.26
442.088	1008.97
442.294	1142.08
442.501	1037.64
442.708	1125.7
442.914	1189.19
443.121	1199.43
443.328	1256.77
443.534	1365.31
443.741	1338.69
443.948	1256.77
444.154	1529.15
444.361	1674.56
444.568	1492.29
444.774	1553.73
444.981	1492.29
445.187	1752.38
445.394	1719.61
445.6	1654.08
445.807	2002.23
446.013	1961.27
446.22	1869.11
446.426	2071.86
446.633	2260.27
446.839	2395.44
447.046	2131.25
447.252	2420.02
447.459	2485.55
447.665	2506.03
447.871	2555.18
448.078	2878.76
448.284	2821.42
448.491	2968.87
448.697	3101.99
448.903	3206.44
449.11	3394.85
449.316	3323.17
449.522	3482.91
449.728	3593.5
449.935	3689.76
450.141	3831.07
450.347	4087.06
450.553	4001.05
450.76	4062.49
450.966	4418.83
451.172	4484.37
451.378	4666.64
451.584	4734.22
451.791	5031.18
451.997	5086.47
452.203	5383.43
452.409	5608.7
452.615	5811.45
452.821	5725.44
453.027	5733.63
453.233	6528.24
453.44	6313.2
453.646	6657.26
453.852	6874.35
454.058	7199.98
454.264	7439.59
454.47	7783.65
454.676	7843.04
454.882	8637.65
455.088	8318.17
455.294	8793.3
455.5	9428.17
455.705	9761.98
455.911	9739.46
456.117	10110.14
456.323	10591.41
456.529	10370.23
456.735	11394.22
456.941	11787.43
457.147	12051.61
457.352	12348.57
457.558	12911.76
457.764	13579.4
457.97	14023.81
458.176	14464.12
458.381	15428.71
458.587	15369.32
458.793	16374.88
458.999	16161.89
459.204	18445.37
459.41	19119.15
459.616	18822.2
459.821	19766.31
460.027	20706.33
460.233	21634.06
460.438	21693.45
460.644	22881.27
460.85	22848.5
461.055	24026.09
461.261	25105.37
461.466	24738.78
461.672	25000.92
461.878	27921.32
462.083	27892.65
462.289	28484.51
462.494	29647.76
462.7	29952.91
462.905	30079.88
463.111	32815.97
463.316	34290.51
463.522	34779.97
463.727	35701.56
463.932	37145.37
464.138	38431.5
464.343	39922.42
464.549	40225.52
464.754	43193.03
464.959	44255.92
465.165	44511.92
465.37	44636.84
465.575	44638.89
465.781	47538.82
465.986	48718.45
466.191	48128.63
466.397	48771.69
466.602	47522.43
466.807	49994.33
467.012	50877
467.218	51753.54
467.423	52169.27
467.628	53279.27
467.833	56066.56
468.038	54845.97
468.244	54485.53
468.449	56388.09
468.654	55695.88
468.859	55255.56
