Data from USB4F104151__21__10-41-59-486.txt Node

Date: Wed Feb 26 10:41:59 EST 2025
User: louis
Spectrometer: USB4F10415
Trigger mode: 4
Integration Time (sec): 1.000000E-1
Scans to average: 1
Electric dark correction enabled: true
Nonlinearity correction enabled: false
Boxcar width: 0
XAxis mode: Wavelengths
Number of Pixels in Spectrum: 3648
>>>>>Begin Spectral Data<<<<<
178.204	-444.58
178.424	-444.58
178.644	-444.58
178.864	-348.33
179.084	-356.52
179.304	-45.23
179.524	10.07
179.744	-2.22
179.964	69.46
180.184	46.93
180.404	57.17
180.624	-49.32
180.844	1.88
181.064	-110.76
181.283	8.02
181.503	-22.7
181.723	36.69
181.943	-86.19
182.163	135
182.383	10.07
182.602	40.79
182.822	178
183.042	69.46
183.262	65.36
183.482	-2.22
183.701	30.55
183.921	81.75
184.141	-73.9
184.361	141.14
184.58	75.6
184.8	87.89
185.02	-69.8
185.239	167.76
185.459	83.8
185.679	132.95
185.898	-59.56
186.118	116.56
186.338	53.08
186.557	128.85
186.777	-47.27
186.997	38.74
187.216	32.6
187.436	161.62
187.655	69.46
187.875	75.6
188.095	89.94
188.314	169.81
188.534	87.89
188.753	-65.71
188.973	173.91
189.192	116.56
189.412	-0.17
189.631	20.31
189.851	77.65
190.07	214.87
190.29	-24.75
190.509	-28.84
190.729	67.41
190.948	190.29
191.168	245.59
191.387	16.21
191.607	59.22
191.826	44.88
192.045	38.74
192.265	16.21
192.484	48.98
192.704	-10.41
192.923	-77.99
193.142	149.33
193.362	55.12
193.581	165.71
193.8	73.56
194.02	100.18
194.239	42.84
194.458	94.04
194.678	38.74
194.897	10.07
195.116	116.56
195.335	18.26
195.555	40.79
195.774	-0.17
195.993	139.09
196.212	128.85
196.432	-32.94
196.651	85.84
196.87	12.12
197.089	241.49
197.308	34.64
197.528	53.08
197.747	3.93
197.966	24.4
198.185	132.95
198.404	-24.75
198.623	163.67
198.842	91.99
199.062	110.42
199.281	184.15
199.5	100.18
199.719	130.9
199.938	24.4
200.157	94.04
200.376	153.43
200.595	255.83
200.814	91.99
201.033	-63.66
201.252	151.38
201.471	3.93
201.69	46.93
201.909	61.27
202.128	94.04
202.347	87.89
202.566	-8.36
202.785	-16.55
203.004	30.55
203.223	241.49
203.442	34.64
203.661	-37.03
203.879	96.08
204.098	67.41
204.317	-47.27
204.536	59.22
204.755	73.56
204.974	100.18
205.193	12.12
205.411	120.66
205.63	75.6
205.849	75.6
206.068	22.36
206.287	-37.03
206.505	194.39
206.724	69.46
206.943	14.17
207.162	20.31
207.381	69.46
207.599	57.17
207.818	-8.36
208.037	-8.36
208.255	32.6
208.474	12.12
208.693	89.94
208.911	26.45
209.13	91.99
209.349	85.84
209.567	67.41
209.786	69.46
210.005	28.5
210.223	-37.03
210.442	-100.52
210.661	20.31
210.879	130.9
211.098	38.74
211.316	24.4
211.535	46.93
211.753	112.47
211.972	75.6
212.191	57.17
212.409	106.32
212.628	124.76
212.846	-18.6
213.065	55.12
213.283	116.56
213.502	44.88
213.72	51.03
213.938	10.07
214.157	18.26
214.375	137.04
214.594	28.5
214.812	128.85
215.031	30.55
215.249	75.6
215.467	61.27
215.686	14.17
215.904	96.08
216.122	34.64
216.341	171.86
216.559	59.22
216.778	91.99
216.996	206.67
217.214	-24.75
217.432	12.12
217.651	-30.89
217.869	55.12
218.087	-8.36
218.306	-0.17
218.524	79.7
218.742	44.88
218.96	104.28
219.179	12.12
219.397	22.36
219.615	208.72
219.833	61.27
220.051	-28.84
220.27	77.65
220.488	36.69
220.706	65.36
220.924	1.88
221.142	28.5
221.36	55.12
221.578	67.41
221.796	-16.55
222.015	44.88
222.233	94.04
222.451	171.86
222.669	-28.84
222.887	124.76
223.105	-10.41
223.323	38.74
223.541	22.36
223.759	67.41
223.977	139.09
224.195	89.94
224.413	44.88
224.631	32.6
224.849	26.45
225.067	286.54
225.285	-14.51
225.503	34.64
225.721	-145.58
225.939	40.79
226.157	32.6
226.375	200.53
226.592	-45.23
226.81	22.36
227.028	171.86
227.246	118.61
227.464	59.22
227.682	163.67
227.9	51.03
228.117	122.71
228.335	77.65
228.553	44.88
228.771	102.23
228.989	75.6
229.206	18.26
229.424	77.65
229.642	14.17
229.86	-2.22
230.077	108.37
230.295	83.8
230.513	175.95
230.731	110.42
230.948	171.86
231.166	196.43
231.384	8.02
231.601	24.4
231.819	141.14
232.037	-24.75
232.254	-39.08
232.472	16.21
232.689	-26.79
232.907	89.94
233.125	-28.84
233.342	38.74
233.56	-2.22
233.777	-18.6
233.995	104.28
234.213	48.98
234.43	124.76
234.648	28.5
234.865	108.37
235.083	-26.79
235.3	53.08
235.518	139.09
235.735	116.56
235.953	81.75
236.17	53.08
236.388	-8.36
236.605	100.18
236.822	114.52
237.04	114.52
237.257	18.26
237.475	-45.23
237.692	18.26
237.909	46.93
238.127	-4.27
238.344	22.36
238.562	30.55
238.779	-49.32
238.996	-67.75
239.214	40.79
239.431	34.64
239.648	98.13
239.865	24.4
240.083	30.55
240.3	16.21
240.517	3.93
240.735	32.6
240.952	110.42
241.169	12.12
241.386	104.28
241.603	98.13
241.821	-75.95
242.038	87.89
242.255	120.66
242.472	-67.75
242.689	55.12
242.907	-0.17
243.124	24.4
243.341	51.03
243.558	-20.65
243.775	-53.42
243.992	-65.71
244.209	55.12
244.426	178
244.643	102.23
244.86	34.64
245.078	120.66
245.295	34.64
245.512	8.02
245.729	85.84
245.946	79.7
246.163	102.23
246.38	-0.17
246.597	65.36
246.814	55.12
247.031	40.79
247.248	94.04
247.464	100.18
247.681	44.88
247.898	18.26
248.115	40.79
248.332	10.07
248.549	169.81
248.766	126.8
248.983	85.84
249.2	55.12
249.417	128.85
249.633	-2.22
249.85	139.09
250.067	71.51
250.284	71.51
250.501	53.08
250.717	130.9
250.934	3.93
251.151	-45.23
251.368	77.65
251.585	85.84
251.801	57.17
252.018	-37.03
252.235	112.47
252.451	-6.31
252.668	40.79
252.885	112.47
253.102	57.17
253.318	-16.55
253.535	32.6
253.752	-12.46
253.968	28.5
254.185	-49.32
254.401	16.21
254.618	79.7
254.835	12.12
255.051	73.56
255.268	149.33
255.484	40.79
255.701	-16.55
255.917	46.93
256.134	-45.23
256.351	59.22
256.567	-77.99
256.784	22.36
257	-77.99
257.217	159.57
257.433	89.94
257.65	75.6
257.866	145.24
258.082	-28.84
258.299	-20.65
258.515	61.27
258.732	-51.37
258.948	-22.7
259.165	55.12
259.381	-12.46
259.597	63.32
259.814	40.79
260.03	38.74
260.246	63.32
260.463	141.14
260.679	85.84
260.895	20.31
261.112	28.5
261.328	100.18
261.544	-34.99
261.761	184.15
261.977	46.93
262.193	-86.19
262.409	171.86
262.626	71.51
262.842	-32.94
263.058	8.02
263.274	153.43
263.49	40.79
263.707	100.18
263.923	77.65
264.139	-18.6
264.355	81.75
264.571	116.56
264.787	122.71
265.004	85.84
265.22	102.23
265.436	-45.23
265.652	5.97
265.868	100.18
266.084	14.17
266.3	16.21
266.516	-32.94
266.732	106.32
266.948	83.8
267.164	55.12
267.38	122.71
267.596	104.28
267.812	163.67
268.028	30.55
268.244	-71.85
268.46	34.64
268.676	-45.23
268.892	85.84
269.108	18.26
269.324	-18.6
269.54	-45.23
269.756	169.81
269.972	-26.79
270.188	-26.79
270.403	-86.19
270.619	100.18
270.835	32.6
271.051	20.31
271.267	55.12
271.483	81.75
271.698	100.18
271.914	114.52
272.13	114.52
272.346	-0.17
272.562	-22.7
272.777	94.04
272.993	1.88
273.209	-59.56
273.425	153.43
273.64	-61.61
273.856	51.03
274.072	26.45
274.287	-34.99
274.503	108.37
274.719	59.22
274.934	-2.22
275.15	-75.95
275.366	32.6
275.581	36.69
275.797	14.17
276.012	87.89
276.228	-8.36
276.444	20.31
276.659	139.09
276.875	3.93
277.09	-18.6
277.306	24.4
277.521	112.47
277.737	67.41
277.952	67.41
278.168	69.46
278.383	77.65
278.599	71.51
278.814	5.97
279.03	-32.94
279.245	151.38
279.461	120.66
279.676	120.66
279.892	-16.55
280.107	-65.71
280.322	44.88
280.538	36.69
280.753	-57.51
280.969	89.94
281.184	42.84
281.399	147.28
281.615	14.17
281.83	61.27
282.045	-73.9
282.26	-18.6
282.476	24.4
282.691	83.8
282.906	3.93
283.122	53.08
283.337	-6.31
283.552	38.74
283.767	3.93
283.983	85.84
284.198	59.22
284.413	102.23
284.628	-28.84
284.843	59.22
285.058	69.46
285.274	65.36
285.489	-45.23
285.704	120.66
285.919	-39.08
286.134	30.55
286.349	48.98
286.564	53.08
286.779	91.99
286.995	-12.46
287.21	-65.71
287.425	85.84
287.64	-20.65
287.855	73.56
288.07	-16.55
288.285	137.04
288.5	110.42
288.715	53.08
288.93	-4.27
289.145	-22.7
289.36	124.76
289.575	-12.46
289.79	171.86
290.004	-20.65
290.219	169.81
290.434	-10.41
290.649	34.64
290.864	-4.27
291.079	57.17
291.294	40.79
291.509	132.95
291.724	24.4
291.938	32.6
292.153	132.95
292.368	57.17
292.583	102.23
292.798	108.37
293.012	104.28
293.227	81.75
293.442	104.28
293.657	79.7
293.871	139.09
294.086	18.26
294.301	132.95
294.516	98.13
294.73	65.36
294.945	-47.27
295.16	51.03
295.374	157.52
295.589	69.46
295.804	-20.65
296.018	100.18
296.233	126.8
296.447	55.12
296.662	-12.46
296.877	196.43
297.091	112.47
297.306	48.98
297.52	69.46
297.735	71.51
297.949	87.89
298.164	28.5
298.378	30.55
298.593	-108.71
298.807	3.93
299.022	44.88
299.236	157.52
299.451	-20.65
299.665	135
299.88	-104.62
300.094	122.71
300.309	75.6
300.523	57.17
300.737	57.17
300.952	14.17
301.166	46.93
301.381	-39.08
301.595	-45.23
301.809	61.27
302.024	24.4
302.238	3.93
302.452	128.85
302.667	34.64
302.881	141.14
303.095	161.62
303.309	112.47
303.524	38.74
303.738	57.17
303.952	8.02
304.166	73.56
304.381	-39.08
304.595	132.95
304.809	34.64
305.023	40.79
305.237	-22.7
305.452	-10.41
305.666	122.71
305.88	91.99
306.094	231.25
306.308	112.47
306.522	122.71
306.736	102.23
306.95	137.04
307.164	8.02
307.379	-16.55
307.593	159.57
307.807	153.43
308.021	139.09
308.235	94.04
308.449	-45.23
308.663	55.12
308.877	210.77
309.091	24.4
309.305	51.03
309.519	-65.71
309.733	114.52
309.947	-84.14
310.161	87.89
310.374	118.61
310.588	163.67
310.802	-49.32
311.016	18.26
311.23	-12.46
311.444	-32.94
311.658	3.93
311.872	100.18
312.085	163.67
312.299	130.9
312.513	130.9
312.727	61.27
312.941	20.31
313.154	87.89
313.368	91.99
313.582	59.22
313.796	67.41
314.009	53.08
314.223	100.18
314.437	116.56
314.651	139.09
314.864	16.21
315.078	18.26
315.292	-20.65
315.505	-24.75
315.719	51.03
315.933	192.34
316.146	20.31
316.36	1.88
316.573	137.04
316.787	112.47
317.001	91.99
317.214	18.26
317.428	87.89
317.641	-92.33
317.855	-88.23
318.068	20.31
318.282	40.79
318.495	161.62
318.709	149.33
318.922	57.17
319.136	157.52
319.349	24.4
319.563	-10.41
319.776	91.99
319.99	-84.14
320.203	89.94
320.417	-37.03
320.63	94.04
320.843	137.04
321.057	151.38
321.27	-28.84
321.483	100.18
321.697	145.24
321.91	-6.31
322.124	79.7
322.337	98.13
322.55	1.88
322.763	102.23
322.977	59.22
323.19	-96.43
323.403	-82.09
323.617	157.52
323.83	169.81
324.043	61.27
324.256	59.22
324.469	-45.23
324.683	155.47
324.896	67.41
325.109	3.93
325.322	8.02
325.535	77.65
325.748	98.13
325.962	73.56
326.175	75.6
326.388	20.31
326.601	81.75
326.814	96.08
327.027	-22.7
327.24	200.53
327.453	-45.23
327.666	130.9
327.879	110.42
328.092	100.18
328.305	40.79
328.518	-8.36
328.731	42.84
328.944	104.28
329.157	30.55
329.37	120.66
329.583	112.47
329.796	128.85
330.009	-12.46
330.222	108.37
330.435	61.27
330.648	53.08
330.861	51.03
331.073	36.69
331.286	116.56
331.499	53.08
331.712	-6.31
331.925	89.94
332.138	26.45
332.35	130.9
332.563	-20.65
332.776	75.6
332.989	-34.99
333.202	-22.7
333.414	96.08
333.627	46.93
333.84	28.5
334.053	94.04
334.265	12.12
334.478	38.74
334.691	-6.31
334.903	81.75
335.116	-84.14
335.329	-20.65
335.541	87.89
335.754	145.24
335.966	-8.36
336.179	10.07
336.392	38.74
336.604	57.17
336.817	108.37
337.029	-16.55
337.242	22.36
337.454	53.08
337.667	-8.36
337.88	147.28
338.092	94.04
338.305	126.8
338.517	-34.99
338.729	118.61
338.942	120.66
339.154	38.74
339.367	-55.47
339.579	-0.17
339.792	67.41
340.004	118.61
340.217	-12.46
340.429	83.8
340.641	-30.89
340.854	-69.8
341.066	24.4
341.278	51.03
341.491	149.33
341.703	67.41
341.915	32.6
342.128	51.03
342.34	63.32
342.552	63.32
342.764	10.07
342.977	34.64
343.189	32.6
343.401	26.45
343.613	-14.51
343.826	69.46
344.038	-57.51
344.25	46.93
344.462	-114.86
344.674	5.97
344.886	24.4
345.099	130.9
345.311	116.56
345.523	14.17
345.735	-96.43
345.947	63.32
346.159	16.21
346.371	10.07
346.583	-2.22
346.795	167.76
347.007	71.51
347.219	38.74
347.431	73.56
347.643	81.75
347.855	-4.27
348.067	89.94
348.279	-4.27
348.491	12.12
348.703	141.14
348.915	-6.31
349.127	20.31
349.339	34.64
349.551	42.84
349.763	175.95
349.975	79.7
350.187	83.8
350.399	161.62
350.61	98.13
350.822	42.84
351.034	87.89
351.246	69.46
351.458	102.23
351.669	153.43
351.881	100.18
352.093	67.41
352.305	182.1
352.517	8.02
352.728	169.81
352.94	81.75
353.152	46.93
353.363	32.6
353.575	53.08
353.787	200.53
353.999	18.26
354.21	178
354.422	10.07
354.633	1.88
354.845	67.41
355.057	104.28
355.268	24.4
355.48	130.9
355.692	1.88
355.903	61.27
356.115	5.97
356.326	-53.42
356.538	169.81
356.749	169.81
356.961	173.91
357.172	79.7
357.384	-20.65
357.595	212.82
357.807	5.97
358.018	59.22
358.23	12.12
358.441	89.94
358.653	98.13
358.864	73.56
359.075	-75.95
359.287	94.04
359.498	53.08
359.709	126.8
359.921	65.36
360.132	89.94
360.344	12.12
360.555	-2.22
360.766	81.75
360.977	16.21
361.189	118.61
361.4	20.31
361.611	165.71
361.823	36.69
362.034	38.74
362.245	-63.66
362.456	-16.55
362.667	87.89
362.879	18.26
363.09	112.47
363.301	87.89
363.512	98.13
363.723	-45.23
363.935	-2.22
364.146	190.29
364.357	36.69
364.568	55.12
364.779	20.31
364.99	110.42
365.201	12.12
365.412	110.42
365.623	-63.66
365.834	149.33
366.045	63.32
366.256	104.28
366.467	165.71
366.678	38.74
366.889	-73.9
367.1	-16.55
367.311	106.32
367.522	75.6
367.733	100.18
367.944	65.36
368.155	48.98
368.366	94.04
368.577	194.39
368.788	98.13
368.999	30.55
369.209	30.55
369.42	231.25
369.631	282.45
369.842	55.12
370.053	128.85
370.264	108.37
370.474	-43.18
370.685	51.03
370.896	61.27
371.107	110.42
371.317	100.18
371.528	40.79
371.739	100.18
371.95	57.17
372.16	114.52
372.371	-41.13
372.582	53.08
372.792	112.47
373.003	46.93
373.214	124.76
373.424	65.36
373.635	-8.36
373.846	186.19
374.056	94.04
374.267	59.22
374.477	73.56
374.688	120.66
374.898	91.99
375.109	89.94
375.319	63.32
375.53	147.28
375.74	53.08
375.951	-37.03
376.161	89.94
376.372	139.09
376.582	51.03
376.793	128.85
377.003	-0.17
377.214	20.31
377.424	96.08
377.635	61.27
377.845	18.26
378.055	106.32
378.266	112.47
378.476	48.98
378.686	63.32
378.897	91.99
379.107	159.57
379.317	89.94
379.528	-18.6
379.738	40.79
379.948	24.4
380.158	46.93
380.369	71.51
380.579	67.41
380.789	53.08
380.999	118.61
381.21	155.47
381.42	194.39
381.63	94.04
381.84	126.8
382.05	32.6
382.261	149.33
382.471	159.57
382.681	75.6
382.891	169.81
383.101	57.17
383.311	20.31
383.521	40.79
383.731	38.74
383.941	132.95
384.151	53.08
384.361	-16.55
384.571	75.6
384.781	3.93
384.991	188.24
385.201	188.24
385.411	106.32
385.621	44.88
385.831	61.27
386.041	18.26
386.251	32.6
386.461	139.09
386.671	67.41
386.881	143.19
387.091	-18.6
387.301	51.03
387.511	-16.55
387.72	59.22
387.93	118.61
388.14	-16.55
388.35	63.32
388.56	192.34
388.769	91.99
388.979	42.84
389.189	-8.36
389.399	112.47
389.609	38.74
389.818	96.08
390.028	81.75
390.238	91.99
390.447	28.5
390.657	83.8
390.867	28.5
391.076	-153.77
391.286	73.56
391.496	57.17
391.705	-0.17
391.915	112.47
392.125	206.67
392.334	-43.18
392.544	163.67
392.753	104.28
392.963	-0.17
393.172	48.98
393.382	34.64
393.591	196.43
393.801	3.93
394.01	120.66
394.22	61.27
394.429	-0.17
394.639	53.08
394.848	-14.51
395.058	69.46
395.267	24.4
395.477	69.46
395.686	12.12
395.895	223.06
396.105	108.37
396.314	77.65
396.524	53.08
396.733	61.27
396.942	135
397.152	63.32
397.361	159.57
397.57	18.26
397.78	28.5
397.989	85.84
398.198	261.97
398.407	-10.41
398.617	32.6
398.826	75.6
399.035	63.32
399.244	126.8
399.453	63.32
399.663	48.98
399.872	151.38
400.081	-10.41
400.29	112.47
400.499	18.26
400.708	130.9
400.917	71.51
401.127	8.02
401.336	57.17
401.545	192.34
401.754	188.24
401.963	81.75
402.172	57.17
402.381	-28.84
402.59	128.85
402.799	100.18
403.008	132.95
403.217	36.69
403.426	116.56
403.635	28.5
403.844	12.12
404.053	1.88
404.262	20.31
404.471	178
404.68	10.07
404.888	126.8
405.097	1.88
405.306	137.04
405.515	71.51
405.724	85.84
405.933	147.28
406.142	96.08
406.35	153.43
406.559	22.36
406.768	38.74
406.977	196.43
407.185	102.23
407.394	116.56
407.603	-45.23
407.812	112.47
408.02	130.9
408.229	32.6
408.438	102.23
408.646	-86.19
408.855	53.08
409.064	28.5
409.272	-0.17
409.481	81.75
409.69	-73.9
409.898	18.26
410.107	69.46
410.315	40.79
410.524	10.07
410.733	130.9
410.941	36.69
411.15	102.23
411.358	61.27
411.567	167.76
411.775	75.6
411.984	61.27
412.192	128.85
412.401	51.03
412.609	212.82
412.818	124.76
413.026	20.31
413.234	10.07
413.443	85.84
413.651	26.45
413.86	36.69
414.068	229.2
414.276	155.47
414.485	28.5
414.693	173.91
414.901	128.85
415.11	-6.31
415.318	57.17
415.526	1.88
415.734	163.67
415.943	145.24
416.151	89.94
416.359	-0.17
416.567	137.04
416.776	83.8
416.984	116.56
417.192	71.51
417.4	-49.32
417.608	55.12
417.817	-8.36
418.025	151.38
418.233	155.47
418.441	-51.37
418.649	30.55
418.857	149.33
419.065	186.19
419.273	48.98
419.481	67.41
419.689	85.84
419.897	77.65
420.105	-45.23
420.313	145.24
420.521	102.23
420.729	116.56
420.937	3.93
421.145	40.79
421.353	102.23
421.561	186.19
421.769	55.12
421.977	10.07
422.185	139.09
422.393	57.17
422.601	118.61
422.809	57.17
423.017	116.56
423.224	77.65
423.432	245.59
423.64	98.13
423.848	85.84
424.056	55.12
424.263	204.63
424.471	79.7
424.679	182.1
424.887	32.6
425.094	128.85
425.302	96.08
425.51	40.79
425.718	89.94
425.925	137.04
426.133	-37.03
426.341	229.2
426.548	69.46
426.756	28.5
426.964	218.96
427.171	28.5
427.379	79.7
427.586	61.27
427.794	155.47
428.001	208.72
428.209	180.05
428.417	139.09
428.624	155.47
428.832	210.77
429.039	104.28
429.247	89.94
429.454	298.83
429.662	251.73
429.869	165.71
430.076	151.38
430.284	61.27
430.491	198.48
430.699	227.15
430.906	309.07
431.114	212.82
431.321	241.49
431.528	151.38
431.736	153.43
431.943	196.43
432.15	208.72
432.358	218.96
432.565	249.68
432.772	114.52
432.979	270.16
433.187	116.56
433.394	227.15
433.601	75.6
433.808	354.13
434.016	253.78
434.223	335.7
434.43	259.92
434.637	294.74
434.844	366.42
435.052	296.78
435.259	300.88
435.466	397.14
435.673	354.13
435.88	339.79
436.087	395.09
436.294	364.37
436.501	399.18
436.708	374.61
436.915	378.7
437.122	483.15
437.329	337.74
437.537	417.61
437.743	368.46
437.95	509.77
438.157	466.77
438.364	442.19
438.571	556.88
438.778	472.91
438.985	530.25
439.192	438.09
439.399	546.64
439.606	513.87
439.813	636.75
440.02	651.08
440.227	712.52
440.433	661.32
440.64	714.57
440.847	681.8
441.054	733
441.261	796.49
441.467	755.53
441.674	755.53
441.881	917.32
442.088	821.06
442.294	831.3
442.501	921.42
442.708	976.71
442.914	917.32
443.121	984.9
443.328	962.37
443.534	1107.78
443.741	1093.44
443.948	997.19
444.154	1232.71
444.361	1337.15
444.568	1232.71
444.774	1150.79
444.981	1177.41
445.187	1343.3
445.394	1351.49
445.6	1386.3
445.807	1568.57
446.013	1476.41
446.22	1505.09
446.426	1656.64
446.633	1791.8
446.839	1976.12
447.046	1744.7
447.252	2047.8
447.459	2031.41
447.665	2000.69
447.871	2125.62
448.078	2416.43
448.284	2303.79
448.491	2449.2
448.697	2541.36
448.903	2572.08
449.11	2678.57
449.316	2596.65
449.522	2848.55
449.728	3073.83
449.935	3024.68
450.141	3133.22
450.347	3315.49
450.553	3403.55
450.76	3344.16
450.966	3751.71
451.172	3622.69
451.378	3815.2
451.584	3880.73
451.791	4187.93
451.997	4118.29
452.203	4314.9
452.409	4630.29
452.615	4845.32
452.821	4632.33
453.027	4736.78
453.233	5308.16
453.44	4869.9
453.646	5447.43
453.852	5551.87
454.058	5940.99
454.264	5895.93
454.47	6225.65
454.676	6495.99
454.882	6985.45
455.088	6618.86
455.294	7030.51
455.5	7689.95
455.705	8017.63
455.911	7933.66
456.117	8163.03
456.323	8408.79
456.529	8414.93
456.735	9221.83
456.941	9619.14
457.147	9899.71
457.352	10157.75
457.558	10376.89
457.764	10870.45
457.97	11450.02
458.176	11742.88
458.381	12428.95
458.587	12424.86
458.793	13217.42
458.999	13338.25
459.204	14950
459.41	15191.66
459.616	15130.22
459.821	16135.78
460.027	16883.28
460.233	17475.15
460.438	17460.81
460.644	18693.69
460.85	18865.72
461.055	19588.65
461.261	20651.55
461.466	19805.74
461.672	20567.58
461.878	22873.59
462.083	22453.76
462.289	22984.18
462.494	23932.39
462.7	24038.89
462.905	24565.21
463.111	26416.58
463.316	27553.2
463.522	28159.4
463.727	29490.58
463.932	30266.76
464.138	31147.39
464.343	32552.29
464.549	32738.66
464.754	35061.05
464.959	36093.23
465.165	36422.95
465.37	36074.8
465.575	36066.61
465.781	38886.66
465.986	39711.99
466.191	39202.05
466.397	39585.02
466.602	38714.63
466.807	40850.66
467.012	41700.57
467.218	41897.17
467.423	42556.62
467.628	43631.8
467.833	45708.44
468.038	44569.77
468.244	44203.19
468.449	46371.99
