Data from USB4F104151__87__10-44-28-870.txt Node

Date: Wed Feb 26 10:44:28 EST 2025
User: louis
Spectrometer: USB4F10415
Trigger mode: 4
Integration Time (sec): 1.000000E-1
Scans to average: 1
Electric dark correction enabled: true
Nonlinearity correction enabled: false
Boxcar width: 0
XAxis mode: Wavelengths
Number of Pixels in Spectrum: 3648
>>>>>Begin Spectral Data<<<<<
178.204	-386.9
178.424	-386.9
178.644	-386.9
178.864	-425.81
179.084	-378.7
179.304	-14.17
179.524	-42.84
179.744	34.99
179.964	16.55
180.184	8.36
180.404	37.03
180.624	-5.97
180.844	-3.93
181.064	-87.89
181.283	32.94
181.503	-28.5
181.723	53.42
181.943	-100.18
182.163	84.14
182.383	-3.93
182.602	102.57
182.822	47.27
183.042	32.94
183.262	51.37
183.482	-53.08
183.701	-8.02
183.921	16.55
184.141	-40.79
184.361	88.23
184.58	110.76
184.8	112.81
185.02	-40.79
185.239	104.62
185.459	37.03
185.679	116.9
185.898	-42.84
186.118	92.33
186.338	61.61
186.557	65.71
186.777	-46.93
186.997	49.32
187.216	32.94
187.436	90.28
187.655	12.46
187.875	77.99
188.095	24.75
188.314	108.71
188.534	161.96
188.753	-16.21
188.973	174.25
189.192	133.29
189.412	-3.93
189.631	22.7
189.851	100.52
190.07	161.96
190.29	-48.98
190.509	18.6
190.729	98.47
190.948	176.3
191.168	250.02
191.387	28.84
191.607	55.47
191.826	86.19
192.045	37.03
192.265	22.7
192.484	59.56
192.704	49.32
192.923	-14.17
193.142	135.34
193.362	49.32
193.581	102.57
193.8	77.99
194.02	65.71
194.239	18.6
194.458	16.55
194.678	-24.4
194.897	41.13
195.116	106.67
195.335	4.27
195.555	129.19
195.774	-65.36
195.993	16.55
196.212	61.61
196.432	22.7
196.651	-75.6
196.87	32.94
197.089	178.34
197.308	43.18
197.528	102.57
197.747	-12.12
197.966	137.38
198.185	104.62
198.404	-18.26
198.623	104.62
198.842	86.19
199.062	90.28
199.281	123.05
199.5	80.04
199.719	73.9
199.938	47.27
200.157	75.95
200.376	166.06
200.595	123.05
200.814	84.14
201.033	-34.64
201.252	96.43
201.471	75.95
201.69	67.75
201.909	41.13
202.128	104.62
202.347	118.95
202.566	67.75
202.785	-48.98
203.004	-59.22
203.223	217.26
203.442	63.66
203.661	-10.07
203.879	67.75
204.098	168.1
204.317	-32.6
204.536	125.1
204.755	41.13
204.974	118.95
205.193	-38.74
205.411	65.71
205.63	57.51
205.849	49.32
206.068	2.22
206.287	12.46
206.505	166.06
206.724	16.55
206.943	10.41
207.162	-26.45
207.381	71.85
207.599	61.61
207.818	26.79
208.037	-38.74
208.255	53.42
208.474	73.9
208.693	77.99
208.911	-36.69
209.13	125.1
209.349	129.19
209.567	88.23
209.786	18.6
210.005	231.59
210.223	65.71
210.442	-81.75
210.661	84.14
210.879	39.08
211.098	59.56
211.316	0.17
211.535	16.55
211.753	-1.88
211.972	6.31
212.191	-3.93
212.409	-14.17
212.628	135.34
212.846	-63.32
213.065	49.32
213.283	141.48
213.502	49.32
213.72	-10.07
213.938	51.37
214.157	-36.69
214.375	141.48
214.594	80.04
214.812	94.38
215.031	14.51
215.249	-8.02
215.467	61.61
215.686	37.03
215.904	55.47
216.122	-28.5
216.341	131.24
216.559	43.18
216.778	43.18
216.996	100.52
217.214	24.75
217.432	16.55
217.651	20.65
217.869	55.47
218.087	34.99
218.306	-20.31
218.524	67.75
218.742	-14.17
218.96	100.52
219.179	-69.46
219.397	49.32
219.615	290.98
219.833	71.85
220.051	-18.26
220.27	114.86
220.488	34.99
220.706	121
220.924	-40.79
221.142	-10.07
221.36	37.03
221.578	73.9
221.796	59.56
222.015	88.23
222.233	61.61
222.451	161.96
222.669	-24.4
222.887	98.47
223.105	-1.88
223.323	-3.93
223.541	-63.32
223.759	71.85
223.977	-5.97
224.195	209.06
224.413	65.71
224.631	-10.07
224.849	55.47
225.067	198.82
225.285	49.32
225.503	16.55
225.721	-75.6
225.939	12.46
226.157	39.08
226.375	278.69
226.592	-83.8
226.81	143.53
227.028	112.81
227.246	88.23
227.464	94.38
227.682	90.28
227.9	12.46
228.117	96.43
228.335	43.18
228.553	51.37
228.771	39.08
228.989	28.84
229.206	123.05
229.424	24.75
229.642	-20.31
229.86	-36.69
230.077	110.76
230.295	-40.79
230.513	129.19
230.731	47.27
230.948	71.85
231.166	129.19
231.384	-12.12
231.601	2.22
231.819	168.1
232.037	-1.88
232.254	12.46
232.472	41.13
232.689	45.23
232.907	145.58
233.125	-16.21
233.342	24.75
233.56	53.42
233.777	86.19
233.995	45.23
234.213	61.61
234.43	45.23
234.648	2.22
234.865	-24.4
235.083	127.14
235.3	30.89
235.518	63.66
235.735	75.95
235.953	67.75
236.17	28.84
236.388	-36.69
236.605	-10.07
236.822	61.61
237.04	219.3
237.257	8.36
237.475	24.75
237.692	55.47
237.909	41.13
238.127	28.84
238.344	24.75
238.562	123.05
238.779	-67.41
238.996	-81.75
239.214	6.31
239.431	41.13
239.648	-38.74
239.865	32.94
240.083	-3.93
240.3	-5.97
240.517	37.03
240.735	96.43
240.952	114.86
241.169	112.81
241.386	65.71
241.603	57.51
241.821	-83.8
242.038	65.71
242.255	71.85
242.472	-65.36
242.689	16.55
242.907	32.94
243.124	-8.02
243.341	12.46
243.558	-40.79
243.775	-65.36
243.992	-65.36
244.209	-3.93
244.426	100.52
244.643	26.79
244.86	39.08
245.078	145.58
245.295	92.33
245.512	26.79
245.729	4.27
245.946	86.19
246.163	63.66
246.38	10.41
246.597	65.71
246.814	-5.97
247.031	-14.17
247.248	16.55
247.464	100.52
247.681	129.19
247.898	59.56
248.115	123.05
248.332	28.84
248.549	110.76
248.766	182.44
248.983	20.65
249.2	147.62
249.417	26.79
249.633	53.42
249.85	80.04
250.067	53.42
250.284	57.51
250.501	34.99
250.717	90.28
250.934	-30.55
251.151	-5.97
251.368	39.08
251.585	92.33
251.801	112.81
252.018	-67.41
252.235	112.81
252.451	-75.6
252.668	6.31
252.885	155.82
253.102	57.51
253.318	8.36
253.535	49.32
253.752	37.03
253.968	-5.97
254.185	-65.36
254.401	39.08
254.618	43.18
254.835	-16.21
255.051	49.32
255.268	43.18
255.484	77.99
255.701	88.23
255.917	102.57
256.134	-40.79
256.351	-38.74
256.567	-5.97
256.784	65.71
257	-108.37
257.217	-8.02
257.433	123.05
257.65	164.01
257.866	108.71
258.082	-81.75
258.299	37.03
258.515	34.99
258.732	-18.26
258.948	-20.31
259.165	0.17
259.381	-8.02
259.597	141.48
259.814	20.65
260.03	16.55
260.246	16.55
260.463	145.58
260.679	100.52
260.895	102.57
261.112	6.31
261.328	20.65
261.544	-42.84
261.761	129.19
261.977	-1.88
262.193	41.13
262.409	30.89
262.626	88.23
262.842	-20.31
263.058	-48.98
263.274	108.71
263.49	-48.98
263.707	129.19
263.923	75.95
264.139	-102.23
264.355	22.7
264.571	63.66
264.787	22.7
265.004	106.67
265.22	41.13
265.436	-10.07
265.652	0.17
265.868	-28.5
266.084	2.22
266.3	8.36
266.516	-36.69
266.732	2.22
266.948	61.61
267.164	53.42
267.38	110.76
267.596	88.23
267.812	153.77
268.028	-3.93
268.244	65.71
268.46	75.95
268.676	61.61
268.892	188.58
269.108	-100.18
269.324	0.17
269.54	-26.45
269.756	127.14
269.972	-24.4
270.188	20.65
270.403	-3.93
270.619	65.71
270.835	106.67
271.051	47.27
271.267	18.6
271.483	-55.12
271.698	73.9
271.914	61.61
272.13	39.08
272.346	-20.31
272.562	55.47
272.777	151.72
272.993	-10.07
273.209	0.17
273.425	102.57
273.64	-24.4
273.856	2.22
274.072	18.6
274.287	39.08
274.503	77.99
274.719	92.33
274.934	-20.31
275.15	-53.08
275.366	2.22
275.581	-32.6
275.797	71.85
276.012	59.56
276.228	16.55
276.444	63.66
276.659	123.05
276.875	-14.17
277.09	18.6
277.306	2.22
277.521	59.56
277.737	69.8
277.952	22.7
278.168	34.99
278.383	-1.88
278.599	26.79
278.814	112.81
279.03	16.55
279.245	88.23
279.461	59.56
279.676	131.24
279.892	-32.6
280.107	12.46
280.322	-28.5
280.538	102.57
280.753	22.7
280.969	100.52
281.184	34.99
281.399	164.01
281.615	20.65
281.83	-12.12
282.045	-42.84
282.26	4.27
282.476	39.08
282.691	49.32
282.906	2.22
283.122	82.09
283.337	-10.07
283.552	71.85
283.767	-1.88
283.983	102.57
284.198	94.38
284.413	55.47
284.628	-57.17
284.843	53.42
285.058	153.77
285.274	-26.45
285.489	71.85
285.704	108.71
285.919	12.46
286.134	-71.51
286.349	37.03
286.564	-18.26
286.779	108.71
286.995	61.61
287.21	-48.98
287.425	73.9
287.64	-22.36
287.855	106.67
288.07	-94.04
288.285	188.58
288.5	145.58
288.715	8.36
288.93	57.51
289.145	51.37
289.36	-12.12
289.575	39.08
289.79	172.2
290.004	-1.88
290.219	118.95
290.434	14.51
290.649	-34.64
290.864	-36.69
291.079	0.17
291.294	67.75
291.509	110.76
291.724	51.37
291.938	24.75
292.153	67.75
292.368	34.99
292.583	112.81
292.798	82.09
293.012	30.89
293.227	53.42
293.442	-67.41
293.657	16.55
293.871	147.62
294.086	39.08
294.301	159.91
294.516	129.19
294.73	28.84
294.945	-40.79
295.16	-65.36
295.374	67.75
295.589	86.19
295.804	2.22
296.018	82.09
296.233	137.38
296.447	-3.93
296.662	45.23
296.877	133.29
297.091	96.43
297.306	30.89
297.52	-1.88
297.735	10.41
297.949	118.95
298.164	100.52
298.378	32.94
298.593	-53.08
298.807	8.36
299.022	-36.69
299.236	123.05
299.451	45.23
299.665	34.99
299.88	-8.02
300.094	61.61
300.309	37.03
300.523	86.19
300.737	-14.17
300.952	127.14
301.166	61.61
301.381	-36.69
301.595	14.51
301.809	28.84
302.024	-10.07
302.238	4.27
302.452	125.1
302.667	-1.88
302.881	170.15
303.095	86.19
303.309	88.23
303.524	-73.56
303.738	61.61
303.952	0.17
304.166	43.18
304.381	-57.17
304.595	159.91
304.809	24.75
305.023	32.94
305.237	-10.07
305.452	88.23
305.666	-12.12
305.88	84.14
306.094	102.57
306.308	104.62
306.522	77.99
306.736	-5.97
306.95	61.61
307.164	55.47
307.379	8.36
307.593	137.38
307.807	174.25
308.021	139.43
308.235	104.62
308.449	0.17
308.663	96.43
308.877	161.96
309.091	-3.93
309.305	69.8
309.519	-98.13
309.733	121
309.947	-67.41
310.161	145.58
310.374	80.04
310.588	116.9
310.802	-65.36
311.016	-1.88
311.23	96.43
311.444	-36.69
311.658	-18.26
311.872	116.9
312.085	192.68
312.299	147.62
312.513	139.43
312.727	82.09
312.941	-83.8
313.154	65.71
313.368	43.18
313.582	16.55
313.796	65.71
314.009	18.6
314.223	112.81
314.437	65.71
314.651	26.79
314.864	90.28
315.078	-30.55
315.292	-26.45
315.505	24.75
315.719	47.27
315.933	20.65
316.146	47.27
316.36	-91.99
316.573	77.99
316.787	125.1
317.001	90.28
317.214	-32.6
317.428	71.85
317.641	-55.12
317.855	-36.69
318.068	34.99
318.282	-14.17
318.495	194.73
318.709	88.23
318.922	24.75
319.136	157.86
319.349	145.58
319.563	-81.75
319.776	28.84
319.99	-65.36
320.203	57.51
320.417	-8.02
320.63	55.47
320.843	186.54
321.057	82.09
321.27	65.71
321.483	16.55
321.697	141.48
321.91	12.46
322.124	10.41
322.337	94.38
322.55	12.46
322.763	61.61
322.977	-40.79
323.19	-55.12
323.403	12.46
323.617	80.04
323.83	63.66
324.043	49.32
324.256	41.13
324.469	12.46
324.683	86.19
324.896	71.85
325.109	86.19
325.322	-57.17
325.535	100.52
325.748	84.14
325.962	12.46
326.175	32.94
326.388	18.6
326.601	90.28
326.814	14.51
327.027	-32.6
327.24	125.1
327.453	-61.27
327.666	116.9
327.879	80.04
328.092	112.81
328.305	37.03
328.518	-26.45
328.731	30.89
328.944	28.84
329.157	65.71
329.37	-40.79
329.583	180.39
329.796	108.71
330.009	45.23
330.222	157.86
330.435	65.71
330.648	49.32
330.861	59.56
331.073	86.19
331.286	213.16
331.499	6.31
331.712	-28.5
331.925	30.89
332.138	22.7
332.35	145.58
332.563	-30.55
332.776	145.58
332.989	-40.79
333.202	39.08
333.414	2.22
333.627	6.31
333.84	4.27
334.053	61.61
334.265	-28.5
334.478	69.8
334.691	-20.31
334.903	73.9
335.116	-16.21
335.329	14.51
335.541	53.42
335.754	125.1
335.966	39.08
336.179	10.41
336.392	-1.88
336.604	43.18
336.817	118.95
337.029	-40.79
337.242	-26.45
337.454	63.66
337.667	20.65
337.88	215.21
338.092	116.9
338.305	106.67
338.517	-1.88
338.729	55.47
338.942	139.43
339.154	22.7
339.367	-40.79
339.579	88.23
339.792	-22.36
340.004	8.36
340.217	43.18
340.429	90.28
340.641	-116.56
340.854	49.32
341.066	-34.64
341.278	164.01
341.491	157.86
341.703	82.09
341.915	-28.5
342.128	65.71
342.34	53.42
342.552	-81.75
342.764	26.79
342.977	43.18
343.189	45.23
343.401	32.94
343.613	-63.32
343.826	22.7
344.038	-3.93
344.25	45.23
344.462	53.42
344.674	53.42
344.886	34.99
345.099	55.47
345.311	10.41
345.523	-48.98
345.735	-85.84
345.947	59.56
346.159	53.42
346.371	41.13
346.583	47.27
346.795	204.97
347.007	4.27
347.219	26.79
347.431	-22.36
347.643	86.19
347.855	32.94
348.067	106.67
348.279	-24.4
348.491	-28.5
348.703	51.37
348.915	22.7
349.127	16.55
349.339	41.13
349.551	34.99
349.763	49.32
349.975	-22.36
350.187	67.75
350.399	108.71
350.61	63.66
350.822	2.22
351.034	55.47
351.246	67.75
351.458	67.75
351.669	16.55
351.881	123.05
352.093	51.37
352.305	135.34
352.517	20.65
352.728	164.01
352.94	53.42
353.152	90.28
353.363	14.51
353.575	106.67
353.787	200.87
353.999	55.47
354.21	149.67
354.422	-20.31
354.633	-8.02
354.845	-16.21
355.057	24.75
355.268	-1.88
355.48	63.66
355.692	14.51
355.903	63.66
356.115	-40.79
356.326	-30.55
356.538	108.71
356.749	41.13
356.961	153.77
357.172	-40.79
357.384	-14.17
357.595	260.26
357.807	-38.74
358.018	-16.21
358.23	-14.17
358.441	139.43
358.653	53.42
358.864	65.71
359.075	-8.02
359.287	59.56
359.498	98.47
359.709	94.38
359.921	34.99
360.132	100.52
360.344	14.51
360.555	-5.97
360.766	26.79
360.977	-22.36
361.189	125.1
361.4	0.17
361.611	143.53
361.823	125.1
362.034	-24.4
362.245	-81.75
362.456	18.6
362.667	71.85
362.879	-51.03
363.09	100.52
363.301	69.8
363.512	2.22
363.723	47.27
363.935	47.27
364.146	215.21
364.357	-63.32
364.568	-12.12
364.779	-34.64
364.99	69.8
365.201	-10.07
365.412	69.8
365.623	-91.99
365.834	47.27
366.045	67.75
366.256	43.18
366.467	121
366.678	16.55
366.889	-16.21
367.1	28.84
367.311	43.18
367.522	-28.5
367.733	37.03
367.944	71.85
368.155	20.65
368.366	106.67
368.577	161.96
368.788	53.42
368.999	-10.07
369.209	75.95
369.42	219.3
369.631	272.55
369.842	80.04
370.053	65.71
370.264	32.94
370.474	-57.17
370.685	49.32
370.896	47.27
371.107	217.26
371.317	61.61
371.528	30.89
371.739	116.9
371.95	123.05
372.16	51.37
372.371	-20.31
372.582	-65.36
372.792	104.62
373.003	80.04
373.214	65.71
373.424	75.95
373.635	-24.4
373.846	71.85
374.056	8.36
374.267	37.03
374.477	82.09
374.688	-14.17
374.898	39.08
375.109	84.14
375.319	98.47
375.53	106.67
375.74	67.75
375.951	-75.6
376.161	-10.07
376.372	104.62
376.582	-57.17
376.793	0.17
377.003	-5.97
377.214	-38.74
377.424	98.47
377.635	24.75
377.845	-10.07
378.055	198.82
378.266	37.03
378.476	24.75
378.686	2.22
378.897	104.62
379.107	198.82
379.317	41.13
379.528	63.66
379.738	57.51
379.948	-24.4
380.158	182.44
380.369	8.36
380.579	88.23
380.789	69.8
380.999	30.89
381.21	149.67
381.42	143.53
381.63	24.75
381.84	94.38
382.05	69.8
382.261	71.85
382.471	143.53
382.681	6.31
382.891	180.39
383.101	28.84
383.311	-36.69
383.521	71.85
383.731	86.19
383.941	43.18
384.151	80.04
384.361	-48.98
384.571	22.7
384.781	102.57
384.991	139.43
385.201	182.44
385.411	118.95
385.621	41.13
385.831	73.9
386.041	39.08
386.251	18.6
386.461	127.14
386.671	0.17
386.881	112.81
387.091	12.46
387.301	61.61
387.511	61.61
387.72	24.75
387.93	65.71
388.14	-104.28
388.35	-18.26
388.56	112.81
388.769	184.49
388.979	10.41
389.189	8.36
389.399	45.23
389.609	82.09
389.818	61.61
390.028	22.7
390.238	112.81
390.447	-8.02
390.657	84.14
390.867	-38.74
391.076	-59.22
391.286	-22.36
391.496	30.89
391.705	45.23
391.915	147.62
392.125	157.86
392.334	18.6
392.544	135.34
392.753	8.36
392.963	-5.97
393.172	61.61
393.382	55.47
393.591	151.72
393.801	-18.26
394.01	194.73
394.22	73.9
394.429	-5.97
394.639	63.66
394.848	47.27
395.058	88.23
395.267	12.46
395.477	98.47
395.686	100.52
395.895	194.73
396.105	135.34
396.314	61.61
396.524	106.67
396.733	20.65
396.942	4.27
397.152	92.33
397.361	71.85
397.57	84.14
397.78	20.65
397.989	55.47
398.198	174.25
398.407	-36.69
398.617	10.41
398.826	4.27
399.035	63.66
399.244	92.33
399.453	75.95
399.663	77.99
399.872	43.18
400.081	-44.88
400.29	69.8
400.499	34.99
400.708	84.14
400.917	43.18
401.127	6.31
401.336	69.8
401.545	147.62
401.754	61.61
401.963	2.22
402.172	-73.56
402.381	12.46
402.59	67.75
402.799	112.81
403.008	137.38
403.217	6.31
403.426	114.86
403.635	-34.64
403.844	77.99
404.053	12.46
404.262	4.27
404.471	172.2
404.68	69.8
404.888	49.32
405.097	32.94
405.306	73.9
405.515	75.95
405.724	-51.03
405.933	106.67
406.142	49.32
406.35	166.06
406.559	37.03
406.768	80.04
406.977	57.51
407.185	61.61
407.394	77.99
407.603	-57.17
407.812	116.9
408.02	129.19
408.229	37.03
408.438	86.19
408.646	8.36
408.855	39.08
409.064	22.7
409.272	96.43
409.481	198.82
409.69	-79.7
409.898	-12.12
410.107	106.67
410.315	141.48
410.524	26.79
410.733	49.32
410.941	39.08
411.15	143.53
411.358	32.94
411.567	26.79
411.775	12.46
411.984	32.94
412.192	94.38
412.401	28.84
412.609	182.44
412.818	118.95
413.026	108.71
413.234	-32.6
413.443	41.13
413.651	-55.12
413.86	65.71
414.068	112.81
414.276	172.2
414.485	24.75
414.693	131.24
414.901	69.8
415.11	43.18
415.318	86.19
415.526	-22.36
415.734	45.23
415.943	151.72
416.151	178.34
416.359	55.47
416.567	71.85
416.776	84.14
416.984	34.99
417.192	176.3
417.4	12.46
417.608	-10.07
417.817	-1.88
418.025	112.81
418.233	233.64
418.441	18.6
418.649	18.6
418.857	82.09
419.065	159.91
419.273	118.95
419.481	57.51
419.689	69.8
419.897	-46.93
420.105	-20.31
420.313	88.23
420.521	155.82
420.729	178.34
420.937	6.31
421.145	-24.4
421.353	26.79
421.561	69.8
421.769	61.61
421.977	-1.88
422.185	147.62
422.393	80.04
422.601	143.53
422.809	108.71
423.017	43.18
423.224	96.43
423.432	77.99
423.64	-8.02
423.848	151.72
424.056	-46.93
424.263	149.67
424.471	-1.88
424.679	139.43
424.887	28.84
425.094	96.43
425.302	59.56
425.51	53.42
425.718	155.82
425.925	-10.07
426.133	6.31
426.341	174.25
426.548	43.18
426.756	61.61
426.964	92.33
427.171	59.56
427.379	69.8
427.586	24.75
427.794	168.1
428.001	172.2
428.209	139.43
428.417	143.53
428.624	102.57
428.832	116.9
429.039	82.09
429.247	112.81
429.454	102.57
429.662	223.4
429.869	135.34
430.076	147.62
430.284	143.53
430.491	260.26
430.699	96.43
430.906	153.77
431.114	161.96
431.321	155.82
431.528	118.95
431.736	110.76
431.943	106.67
432.15	194.73
432.358	231.59
432.565	282.79
432.772	-36.69
432.979	90.28
433.187	77.99
433.394	166.06
433.601	202.92
433.808	131.24
434.016	200.87
434.223	196.78
434.43	186.54
434.637	225.45
434.844	288.93
435.052	262.31
435.259	274.6
435.466	245.93
435.673	241.83
435.88	225.45
436.087	243.88
436.294	342.18
436.501	309.41
436.708	260.26
436.915	299.17
437.122	354.47
437.329	301.22
437.537	317.61
437.743	284.84
437.95	467.11
438.157	379.04
438.364	290.98
438.571	354.47
438.778	415.91
438.985	487.59
439.192	491.68
439.399	430.24
439.606	407.72
439.813	546.98
440.02	581.79
440.227	600.23
440.433	587.94
440.64	524.45
440.847	530.59
441.054	571.55
441.261	680.1
441.467	602.27
441.674	592.03
441.881	798.88
442.088	608.42
442.294	710.82
442.501	710.82
442.708	843.93
442.914	737.44
443.121	727.2
443.328	850.08
443.534	882.85
443.741	868.51
443.948	841.89
444.154	1005.72
444.361	1144.99
444.568	979.1
444.774	999.58
444.981	876.7
445.187	1159.32
445.394	1099.93
445.6	1097.88
445.807	1341.59
446.013	1159.32
446.22	1136.79
446.426	1372.31
446.633	1464.47
446.839	1642.64
447.046	1347.73
447.252	1609.87
447.459	1521.81
447.665	1685.65
447.871	1771.66
448.078	1767.57
448.284	1812.62
448.491	1953.93
448.697	2093.19
448.903	2060.43
449.11	2019.47
449.316	2119.82
449.522	2300.04
449.728	2353.29
449.935	2431.11
450.141	2431.11
450.347	2676.87
450.553	2685.06
450.76	2621.57
450.966	2844.8
451.172	2924.67
451.378	3039.36
451.584	3182.71
451.791	3448.95
451.997	3500.15
452.203	3598.45
452.409	3657.84
452.615	3856.5
452.821	3711.09
453.027	3668.08
453.233	4268.14
453.44	4061.29
453.646	4218.99
453.852	4548.71
454.058	4702.31
454.264	4819.04
454.47	5154.91
454.676	5251.16
454.882	5591.13
455.088	5466.2
455.294	5691.48
455.5	6144.08
455.705	6348.87
455.911	6299.72
456.117	6631.49
456.323	6668.36
456.529	6662.21
456.735	7366.71
456.941	7419.96
457.147	7749.68
457.352	8175.66
457.558	8382.51
457.764	9003.04
457.97	9074.72
458.176	9506.84
458.381	9865.24
458.587	10047.51
458.793	10598.41
458.999	10463.24
459.204	11831.29
459.41	12048.37
459.616	12105.71
459.821	12896.23
460.027	13348.83
460.233	14059.48
460.438	14161.87
460.644	14944.2
460.85	15028.17
461.055	15445.95
461.261	16375.73
461.466	15968.18
461.672	16267.19
461.878	18345.87
462.083	18110.36
462.289	18362.26
462.494	19277.7
462.7	19445.63
462.905	19728.25
463.111	21395.3
463.316	22210.39
463.522	22591.31
463.727	23531.33
463.932	24010.56
464.138	24969.01
464.343	26052.38
464.549	26044.19
464.754	28217.08
464.959	28978.93
465.165	29325.04
465.37	29169.39
465.575	29284.08
465.781	31258.32
465.986	31897.28
466.191	31807.17
466.397	31704.77
466.602	31057.62
466.807	32843.45
467.012	33152.69
467.218	34152.1
467.423	34197.15
467.628	35255.95
467.833	36826.74
468.038	36349.57
468.244	35616.4
468.449	37367.41
468.654	36595.32
