Data from USB4F104151__139__11-04-12-340.txt Node

Date: Wed Feb 26 11:04:12 EST 2025
User: louis
Spectrometer: USB4F10415
Trigger mode: 4
Integration Time (sec): 1.000000E-1
Scans to average: 1
Electric dark correction enabled: true
Nonlinearity correction enabled: false
Boxcar width: 0
XAxis mode: Wavelengths
Number of Pixels in Spectrum: 3648
>>>>>Begin Spectral Data<<<<<
178.204	-434.17
178.424	-434.17
178.644	-434.17
178.864	-450.55
179.084	-372.73
179.304	-34.82
179.524	22.53
179.744	4.1
179.964	40.96
180.184	30.72
180.404	-20.48
180.624	16.38
180.844	-38.91
181.064	-22.53
181.283	-8.19
181.503	-24.58
181.723	34.82
181.943	-126.97
182.163	227.32
182.383	30.72
182.602	90.11
182.822	145.41
183.042	28.67
183.262	-6.14
183.482	57.34
183.701	51.2
183.921	28.67
184.141	-36.86
184.361	106.49
184.58	65.54
184.8	0
185.02	30.72
185.239	88.06
185.459	73.73
185.679	100.35
185.898	-69.63
186.118	-18.43
186.338	-2.05
186.557	96.25
186.777	-47.1
186.997	47.1
187.216	10.24
187.436	260.09
187.655	16.38
187.875	108.54
188.095	-43.01
188.314	71.68
188.534	133.12
188.753	8.19
188.973	131.07
189.192	129.02
189.412	-18.43
189.631	96.25
189.851	118.78
190.07	176.13
190.29	-51.2
190.509	8.19
190.729	77.82
190.948	104.45
191.168	182.27
191.387	110.59
191.607	81.92
191.826	88.06
192.045	34.82
192.265	40.96
192.484	77.82
192.704	18.43
192.923	-28.67
193.142	196.61
193.362	71.68
193.581	147.45
193.8	12.29
194.02	83.97
194.239	-4.1
194.458	67.58
194.678	63.49
194.897	-18.43
195.116	110.59
195.335	38.91
195.555	81.92
195.774	20.48
195.993	110.59
196.212	88.06
196.432	-6.14
196.651	30.72
196.87	38.91
197.089	192.51
197.308	51.2
197.528	18.43
197.747	-34.82
197.966	98.3
198.185	145.41
198.404	-8.19
198.623	100.35
198.842	40.96
199.062	129.02
199.281	51.2
199.5	73.73
199.719	129.02
199.938	59.39
200.157	34.82
200.376	145.41
200.595	106.49
200.814	100.35
201.033	-36.86
201.252	161.79
201.471	104.45
201.69	53.25
201.909	67.58
202.128	141.31
202.347	81.92
202.566	57.34
202.785	-55.3
203.004	-116.73
203.223	290.81
203.442	30.72
203.661	-47.1
203.879	114.69
204.098	102.4
204.317	-6.14
204.536	141.31
204.755	86.01
204.974	65.54
205.193	-81.92
205.411	81.92
205.63	139.26
205.849	88.06
206.068	65.54
206.287	40.96
206.505	145.41
206.724	0
206.943	-10.24
207.162	18.43
207.381	112.64
207.599	59.39
207.818	-38.91
208.037	-116.73
208.255	55.3
208.474	14.34
208.693	28.67
208.911	-6.14
209.13	53.25
209.349	38.91
209.567	47.1
209.786	81.92
210.005	110.59
210.223	77.82
210.442	-94.21
210.661	-14.34
210.879	100.35
211.098	43.01
211.316	14.34
211.535	92.16
211.753	57.34
211.972	20.48
212.191	16.38
212.409	32.77
212.628	24.58
212.846	-2.05
213.065	40.96
213.283	102.4
213.502	14.34
213.72	18.43
213.938	28.67
214.157	51.2
214.375	96.25
214.594	43.01
214.812	104.45
215.031	-22.53
215.249	-8.19
215.467	98.3
215.686	73.73
215.904	55.3
216.122	98.3
216.341	163.84
216.559	116.73
216.778	122.88
216.996	163.84
217.214	100.35
217.432	-63.49
217.651	4.1
217.869	104.45
218.087	32.77
218.306	38.91
218.524	34.82
218.742	40.96
218.96	92.16
219.179	67.58
219.397	-45.06
219.615	280.57
219.833	108.54
220.051	-2.05
220.27	131.07
220.488	53.25
220.706	83.97
220.924	-22.53
221.142	-14.34
221.36	114.69
221.578	79.87
221.796	2.05
222.015	34.82
222.233	90.11
222.451	147.45
222.669	-73.73
222.887	75.77
223.105	83.97
223.323	20.48
223.541	12.29
223.759	151.55
223.977	63.49
224.195	184.32
224.413	28.67
224.631	59.39
224.849	-10.24
225.067	204.8
225.285	-47.1
225.503	-4.1
225.721	-131.07
225.939	83.97
226.157	57.34
226.375	182.27
226.592	-20.48
226.81	67.58
227.028	186.37
227.246	94.21
227.464	75.77
227.682	45.06
227.9	57.34
228.117	28.67
228.335	69.63
228.553	6.14
228.771	-6.14
228.989	16.38
229.206	122.88
229.424	77.82
229.642	-2.05
229.86	-65.53
230.077	104.45
230.295	20.48
230.513	57.34
230.731	67.58
230.948	143.36
231.166	120.83
231.384	-45.06
231.601	-69.63
231.819	151.55
232.037	53.25
232.254	4.1
232.472	45.06
232.689	-2.05
232.907	118.78
233.125	26.62
233.342	18.43
233.56	34.82
233.777	-40.96
233.995	-4.1
234.213	81.92
234.43	88.06
234.648	40.96
234.865	-22.53
235.083	65.54
235.3	14.34
235.518	59.39
235.735	161.79
235.953	104.45
236.17	8.19
236.388	34.82
236.605	67.58
236.822	110.59
237.04	157.69
237.257	-2.05
237.475	-69.63
237.692	20.48
237.909	47.1
238.127	-18.43
238.344	36.86
238.562	20.48
238.779	-53.25
238.996	-26.62
239.214	-12.29
239.431	90.11
239.648	20.48
239.865	26.62
240.083	71.68
240.3	26.62
240.517	14.34
240.735	51.2
240.952	151.55
241.169	47.1
241.386	-6.14
241.603	40.96
241.821	-38.91
242.038	124.93
242.255	51.2
242.472	4.1
242.689	57.34
242.907	77.82
243.124	104.45
243.341	57.34
243.558	-47.1
243.775	-55.3
243.992	-18.43
244.209	94.21
244.426	174.08
244.643	57.34
244.86	16.38
245.078	172.03
245.295	10.24
245.512	-2.05
245.729	-34.82
245.946	106.49
246.163	57.34
246.38	-28.67
246.597	57.34
246.814	61.44
247.031	92.16
247.248	-24.58
247.464	86.01
247.681	45.06
247.898	51.2
248.115	34.82
248.332	-24.58
248.549	149.5
248.766	147.45
248.983	53.25
249.2	100.35
249.417	137.21
249.633	28.67
249.85	38.91
250.067	-4.1
250.284	73.73
250.501	110.59
250.717	110.59
250.934	-43.01
251.151	65.54
251.368	24.58
251.585	34.82
251.801	71.68
252.018	-59.39
252.235	161.79
252.451	-124.93
252.668	71.68
252.885	153.6
253.102	43.01
253.318	71.68
253.535	20.48
253.752	-18.43
253.968	53.25
254.185	-32.77
254.401	36.86
254.618	86.01
254.835	20.48
255.051	88.06
255.268	120.83
255.484	2.05
255.701	0
255.917	81.92
256.134	-10.24
256.351	8.19
256.567	-32.77
256.784	12.29
257	-47.1
257.217	83.97
257.433	57.34
257.65	6.14
257.866	108.54
258.082	8.19
258.299	47.1
258.515	61.44
258.732	49.15
258.948	69.63
259.165	45.06
259.381	-38.91
259.597	75.77
259.814	16.38
260.03	61.44
260.246	-6.14
260.463	120.83
260.679	131.07
260.895	49.15
261.112	22.53
261.328	-8.19
261.544	8.19
261.761	102.4
261.977	-2.05
262.193	-100.35
262.409	10.24
262.626	34.82
262.842	-10.24
263.058	-63.49
263.274	139.26
263.49	14.34
263.707	36.86
263.923	57.34
264.139	-43.01
264.355	30.72
264.571	159.74
264.787	51.2
265.004	131.07
265.22	32.77
265.436	-120.83
265.652	-61.44
265.868	28.67
266.084	14.34
266.3	43.01
266.516	-73.73
266.732	102.4
266.948	10.24
267.164	-30.72
267.38	131.07
267.596	65.54
267.812	194.56
268.028	49.15
268.244	26.62
268.46	20.48
268.676	59.39
268.892	-26.62
269.108	-47.1
269.324	-38.91
269.54	-59.39
269.756	98.3
269.972	-98.3
270.188	92.16
270.403	63.49
270.619	-10.24
270.835	-2.05
271.051	30.72
271.267	-16.38
271.483	-12.29
271.698	36.86
271.914	-32.77
272.13	53.25
272.346	10.24
272.562	63.49
272.777	145.41
272.993	4.1
273.209	-18.43
273.425	49.15
273.64	-77.82
273.856	81.92
274.072	-30.72
274.287	49.15
274.503	88.06
274.719	120.83
274.934	-53.25
275.15	-71.68
275.366	81.92
275.581	-40.96
275.797	55.3
276.012	135.17
276.228	-51.2
276.444	30.72
276.659	106.49
276.875	20.48
277.09	24.58
277.306	-26.62
277.521	55.3
277.737	45.06
277.952	36.86
278.168	26.62
278.383	16.38
278.599	98.3
278.814	67.58
279.03	57.34
279.245	153.6
279.461	98.3
279.676	110.59
279.892	-63.49
280.107	-14.34
280.322	53.25
280.538	55.3
280.753	-96.25
280.969	55.3
281.184	53.25
281.399	184.32
281.615	104.45
281.83	83.97
282.045	-59.39
282.26	-16.38
282.476	18.43
282.691	147.45
282.906	40.96
283.122	55.3
283.337	0
283.552	102.4
283.767	-8.19
283.983	79.87
284.198	4.1
284.413	92.16
284.628	-40.96
284.843	40.96
285.058	61.44
285.274	88.06
285.489	-28.67
285.704	57.34
285.919	-40.96
286.134	2.05
286.349	57.34
286.564	-49.15
286.779	116.73
286.995	6.14
287.21	-22.53
287.425	14.34
287.64	10.24
287.855	59.39
288.07	-47.1
288.285	137.21
288.5	135.17
288.715	26.62
288.93	88.06
289.145	-10.24
289.36	90.11
289.575	20.48
289.79	137.21
290.004	14.34
290.219	118.78
290.434	-36.86
290.649	-18.43
290.864	10.24
291.079	51.2
291.294	75.77
291.509	47.1
291.724	86.01
291.938	65.54
292.153	24.58
292.368	-24.58
292.583	-18.43
292.798	75.77
293.012	47.1
293.227	94.21
293.442	16.38
293.657	79.87
293.871	151.55
294.086	129.02
294.301	184.32
294.516	169.98
294.73	92.16
294.945	61.44
295.16	55.3
295.374	94.21
295.589	184.32
295.804	38.91
296.018	83.97
296.233	110.59
296.447	61.44
296.662	40.96
296.877	124.93
297.091	34.82
297.306	28.67
297.52	12.29
297.735	-8.19
297.949	73.73
298.164	114.69
298.378	6.14
298.593	-18.43
298.807	20.48
299.022	28.67
299.236	112.64
299.451	14.34
299.665	-8.19
299.88	-38.91
300.094	14.34
300.309	10.24
300.523	22.53
300.737	38.91
300.952	43.01
301.166	71.68
301.381	-114.69
301.595	-26.62
301.809	26.62
302.024	28.67
302.238	10.24
302.452	139.26
302.667	59.39
302.881	122.88
303.095	77.82
303.309	53.25
303.524	12.29
303.738	-55.3
303.952	-34.82
304.166	40.96
304.381	-204.8
304.595	90.11
304.809	77.82
305.023	40.96
305.237	2.05
305.452	45.06
305.666	83.97
305.88	18.43
306.094	83.97
306.308	145.41
306.522	81.92
306.736	30.72
306.95	110.59
307.164	51.2
307.379	-30.72
307.593	231.42
307.807	100.35
308.021	118.78
308.235	90.11
308.449	-114.69
308.663	57.34
308.877	241.66
309.091	135.17
309.305	131.07
309.519	-49.15
309.733	55.3
309.947	-2.05
310.161	108.54
310.374	75.77
310.588	167.93
310.802	-79.87
311.016	-6.14
311.23	118.78
311.444	2.05
311.658	55.3
311.872	141.31
312.085	169.98
312.299	141.31
312.513	45.06
312.727	81.92
312.941	-28.67
313.154	57.34
313.368	32.77
313.582	18.43
313.796	120.83
314.009	88.06
314.223	169.98
314.437	81.92
314.651	77.82
314.864	-20.48
315.078	28.67
315.292	-38.91
315.505	47.1
315.719	26.62
315.933	81.92
316.146	-75.77
316.36	-45.06
316.573	126.97
316.787	22.53
317.001	34.82
317.214	-28.67
317.428	18.43
317.641	-26.62
317.855	38.91
318.068	61.44
318.282	92.16
318.495	178.17
318.709	94.21
318.922	-16.38
319.136	174.08
319.349	43.01
319.563	4.1
319.776	26.62
319.99	-61.44
320.203	100.35
320.417	88.06
320.63	194.56
320.843	188.41
321.057	47.1
321.27	-63.49
321.483	61.44
321.697	45.06
321.91	-32.77
322.124	63.49
322.337	79.87
322.55	-28.67
322.763	28.67
322.977	0
323.19	40.96
323.403	26.62
323.617	79.87
323.83	116.73
324.043	61.44
324.256	55.3
324.469	-16.38
324.683	96.25
324.896	53.25
325.109	34.82
325.322	-47.1
325.535	88.06
325.748	96.25
325.962	-53.25
326.175	79.87
326.388	100.35
326.601	155.65
326.814	-16.38
327.027	-22.53
327.24	161.79
327.453	-124.93
327.666	104.45
327.879	135.17
328.092	129.02
328.305	75.77
328.518	-10.24
328.731	49.15
328.944	49.15
329.157	69.63
329.37	55.3
329.583	116.73
329.796	94.21
330.009	-16.38
330.222	118.78
330.435	71.68
330.648	90.11
330.861	110.59
331.073	45.06
331.286	102.4
331.499	120.83
331.712	-40.96
331.925	59.39
332.138	118.78
332.35	151.55
332.563	0
332.776	143.36
332.989	-14.34
333.202	-10.24
333.414	77.82
333.627	-28.67
333.84	71.68
334.053	22.53
334.265	-20.48
334.478	12.29
334.691	65.54
334.903	38.91
335.116	-57.34
335.329	40.96
335.541	67.58
335.754	235.52
335.966	10.24
336.179	12.29
336.392	106.49
336.604	36.86
336.817	96.25
337.029	71.68
337.242	38.91
337.454	36.86
337.667	-28.67
337.88	149.5
338.092	34.82
338.305	61.44
338.517	94.21
338.729	16.38
338.942	151.55
339.154	-59.39
339.367	-38.91
339.579	-4.1
339.792	6.14
340.004	94.21
340.217	43.01
340.429	34.82
340.641	18.43
340.854	28.67
341.066	-55.3
341.278	79.87
341.491	122.88
341.703	14.34
341.915	20.48
342.128	135.17
342.34	24.58
342.552	-20.48
342.764	92.16
342.977	24.58
343.189	98.3
343.401	28.67
343.613	32.77
343.826	55.3
344.038	-18.43
344.25	30.72
344.462	8.19
344.674	-2.05
344.886	-2.05
345.099	12.29
345.311	169.98
345.523	36.86
345.735	-10.24
345.947	75.77
346.159	43.01
346.371	126.97
346.583	-16.38
346.795	163.84
347.007	71.68
347.219	43.01
347.431	24.58
347.643	59.39
347.855	26.62
348.067	120.83
348.279	-28.67
348.491	12.29
348.703	61.44
348.915	22.53
349.127	-45.06
349.339	24.58
349.551	2.05
349.763	139.26
349.975	10.24
350.187	104.45
350.399	131.07
350.61	86.01
350.822	2.05
351.034	73.73
351.246	118.78
351.458	86.01
351.669	69.63
351.881	38.91
352.093	118.78
352.305	83.97
352.517	104.45
352.728	102.4
352.94	110.59
353.152	90.11
353.363	10.24
353.575	28.67
353.787	118.78
353.999	131.07
354.21	133.12
354.422	-12.29
354.633	8.19
354.845	59.39
355.057	34.82
355.268	63.49
355.48	135.17
355.692	2.05
355.903	108.54
356.115	-30.72
356.326	-88.06
356.538	210.94
356.749	88.06
356.961	159.74
357.172	38.91
357.384	-38.91
357.595	253.95
357.807	18.43
358.018	47.1
358.23	114.69
358.441	102.4
358.653	110.59
358.864	32.77
359.075	-26.62
359.287	24.58
359.498	104.45
359.709	40.96
359.921	108.54
360.132	110.59
360.344	20.48
360.555	55.3
360.766	34.82
360.977	-53.25
361.189	57.34
361.4	-55.3
361.611	53.25
361.823	155.65
362.034	86.01
362.245	-83.97
362.456	34.82
362.667	57.34
362.879	-61.44
363.09	30.72
363.301	86.01
363.512	16.38
363.723	6.14
363.935	14.34
364.146	118.78
364.357	26.62
364.568	55.3
364.779	-67.58
364.99	102.4
365.201	18.43
365.412	73.73
365.623	-110.59
365.834	96.25
366.045	75.77
366.256	106.49
366.467	112.64
366.678	83.97
366.889	51.2
367.1	92.16
367.311	100.35
367.522	-34.82
367.733	69.63
367.944	96.25
368.155	24.58
368.366	88.06
368.577	51.2
368.788	94.21
368.999	28.67
369.209	6.14
369.42	221.18
369.631	260.09
369.842	79.87
370.053	100.35
370.264	133.12
370.474	2.05
370.685	92.16
370.896	49.15
371.107	169.98
371.317	26.62
371.528	2.05
371.739	161.79
371.95	20.48
372.16	86.01
372.371	-55.3
372.582	22.53
372.792	45.06
373.003	108.54
373.214	102.4
373.424	114.69
373.635	-106.49
373.846	133.12
374.056	-12.29
374.267	55.3
374.477	10.24
374.688	-14.34
374.898	73.73
375.109	96.25
375.319	61.44
375.53	169.98
375.74	12.29
375.951	26.62
376.161	81.92
376.372	126.97
376.582	0
376.793	83.97
377.003	22.53
377.214	2.05
377.424	90.11
377.635	38.91
377.845	-20.48
378.055	96.25
378.266	43.01
378.476	30.72
378.686	6.14
378.897	69.63
379.107	45.06
379.317	77.82
379.528	28.67
379.738	30.72
379.948	-133.12
380.158	137.21
380.369	34.82
380.579	122.88
380.789	-14.34
380.999	106.49
381.21	65.54
381.42	204.8
381.63	-14.34
381.84	92.16
382.05	65.54
382.261	141.31
382.471	172.03
382.681	-12.29
382.891	137.21
383.101	45.06
383.311	-4.1
383.521	-4.1
383.731	114.69
383.941	86.01
384.151	137.21
384.361	71.68
384.571	30.72
384.781	108.54
384.991	194.56
385.201	143.36
385.411	88.06
385.621	69.63
385.831	49.15
386.041	61.44
386.251	71.68
386.461	92.16
386.671	38.91
386.881	12.29
387.091	77.82
387.301	43.01
387.511	122.88
387.72	141.31
387.93	71.68
388.14	-63.49
388.35	73.73
388.56	30.72
388.769	43.01
388.979	14.34
389.189	-28.67
389.399	43.01
389.609	131.07
389.818	90.11
390.028	139.26
390.238	100.35
390.447	53.25
390.657	49.15
390.867	-51.2
391.076	-28.67
391.286	26.62
391.496	30.72
391.705	65.54
391.915	71.68
392.125	88.06
392.334	24.58
392.544	151.55
392.753	73.73
392.963	8.19
393.172	59.39
393.382	-10.24
393.591	200.7
393.801	34.82
394.01	192.51
394.22	114.69
394.429	34.82
394.639	47.1
394.848	79.87
395.058	40.96
395.267	26.62
395.477	104.45
395.686	38.91
395.895	233.47
396.105	251.9
396.314	49.15
396.524	18.43
396.733	53.25
396.942	141.31
397.152	102.4
397.361	186.37
397.57	79.87
397.78	55.3
397.989	118.78
398.198	169.98
398.407	-10.24
398.617	36.86
398.826	104.45
399.035	59.39
399.244	124.93
399.453	55.3
399.663	43.01
399.872	73.73
400.081	-20.48
400.29	47.1
400.499	0
400.708	169.98
400.917	16.38
401.127	67.58
401.336	16.38
401.545	194.56
401.754	208.89
401.963	92.16
402.172	47.1
402.381	-69.63
402.59	-28.67
402.799	79.87
403.008	139.26
403.217	81.92
403.426	51.2
403.635	-28.67
403.844	139.26
404.053	106.49
404.262	-16.38
404.471	155.65
404.68	108.54
404.888	71.68
405.097	-2.05
405.306	32.77
405.515	190.46
405.724	67.58
405.933	133.12
406.142	49.15
406.35	43.01
406.559	43.01
406.768	75.77
406.977	137.21
407.185	114.69
407.394	34.82
407.603	-2.05
407.812	57.34
408.02	118.78
408.229	88.06
408.438	69.63
408.646	-20.48
408.855	137.21
409.064	65.54
409.272	18.43
409.481	163.84
409.69	98.3
409.898	-10.24
410.107	65.54
410.315	79.87
410.524	38.91
410.733	86.01
410.941	43.01
411.15	90.11
411.358	106.49
411.567	167.93
411.775	22.53
411.984	90.11
412.192	88.06
412.401	-22.53
412.609	169.98
412.818	143.36
413.026	73.73
413.234	-4.1
413.443	38.91
413.651	43.01
413.86	51.2
414.068	161.79
414.276	145.41
414.485	16.38
414.693	178.17
414.901	178.17
415.11	133.12
415.318	61.44
415.526	112.64
415.734	88.06
415.943	22.53
416.151	184.32
416.359	43.01
416.567	102.4
416.776	182.27
416.984	120.83
417.192	75.77
417.4	8.19
417.608	43.01
417.817	2.05
418.025	61.44
418.233	194.56
418.441	-22.53
418.649	-4.1
418.857	75.77
419.065	112.64
419.273	-8.19
419.481	43.01
419.689	51.2
419.897	0
420.105	-36.86
420.313	122.88
420.521	180.22
420.729	149.5
420.937	-36.86
421.145	-30.72
421.353	149.5
421.561	135.17
421.769	100.35
421.977	-12.29
422.185	106.49
422.393	81.92
422.601	112.64
422.809	79.87
423.017	71.68
423.224	61.44
423.432	176.13
423.64	20.48
423.848	182.27
424.056	2.05
424.263	145.41
424.471	-8.19
424.679	174.08
424.887	20.48
425.094	147.45
425.302	63.49
425.51	14.34
425.718	129.02
425.925	116.73
426.133	14.34
426.341	184.32
426.548	110.59
426.756	69.63
426.964	124.93
427.171	-30.72
427.379	-10.24
427.586	88.06
427.794	155.65
428.001	116.73
428.209	57.34
428.417	192.51
428.624	139.26
428.832	124.93
429.039	135.17
429.247	75.77
429.454	165.89
429.662	182.27
429.869	190.46
430.076	61.44
430.284	219.13
430.491	256
430.699	227.32
430.906	231.42
431.114	163.84
431.321	206.84
431.528	153.6
431.736	212.99
431.943	149.5
432.15	231.42
432.358	233.47
432.565	303.1
432.772	-16.38
432.979	174.08
433.187	180.22
433.394	278.52
433.601	184.32
433.808	245.76
434.016	292.86
434.223	301.05
434.43	161.79
434.637	256
434.844	200.7
435.052	120.83
435.259	290.81
435.466	321.53
435.673	358.39
435.88	321.53
436.087	299
436.294	419.83
436.501	417.79
436.708	202.75
436.915	329.72
437.122	464.89
437.329	253.95
437.537	432.12
437.743	327.68
437.95	419.83
438.157	366.59
438.364	348.15
438.571	481.27
438.778	389.11
438.985	479.22
439.192	483.32
439.399	413.69
439.606	434.17
439.813	538.62
440.02	608.25
440.227	671.73
440.433	555
440.64	581.62
440.847	528.38
441.054	569.34
441.261	811
441.467	712.69
441.674	624.63
441.881	755.7
442.088	626.68
442.294	851.96
442.501	839.67
442.708	835.57
442.914	782.32
443.121	884.72
443.328	886.77
443.534	1028.08
443.741	868.34
443.948	821.24
444.154	952.31
444.361	1282.03
444.568	1095.66
444.774	1095.66
444.981	1007.6
445.187	1216.49
445.394	1304.56
445.6	1204.21
445.807	1449.96
446.013	1482.73
446.22	1255.4
446.426	1421.29
446.633	1685.48
446.839	1691.62
447.046	1568.74
447.252	1665
447.459	1695.72
447.665	1779.68
447.871	1914.85
448.078	2052.06
448.284	2058.21
448.491	2082.78
448.697	2297.82
448.903	2310.11
449.11	2418.65
449.316	2289.63
449.522	2590.68
449.728	2578.39
449.935	2731.99
450.141	2703.32
450.347	2846.68
450.553	2871.25
450.76	2893.78
450.966	3102.67
451.172	3184.59
451.378	3174.35
451.584	3442.64
451.791	3594.19
451.997	3729.35
452.203	3622.86
452.409	3889.09
452.615	4112.32
452.821	4159.42
453.027	4069.31
453.233	4650.94
453.44	4521.91
453.646	4728.76
453.852	4765.62
454.058	5074.87
454.264	5388.21
454.47	5599.15
454.676	5613.48
454.882	6074.28
455.088	5877.67
455.294	6256.54
455.5	6606.75
455.705	7006.1
455.911	7083.92
456.117	7116.69
456.323	7509.9
456.529	7413.65
456.735	8050.57
456.941	8314.75
457.147	8787.83
457.352	8955.77
457.558	9207.67
457.764	9611.12
457.97	10237.8
458.176	10332
458.381	10757.98
458.587	10938.2
458.793	11657.04
458.999	11562.83
459.204	13160.25
459.41	13410.1
459.616	13248.31
459.821	14079.79
460.027	14710.56
460.233	15429.4
460.438	15415.06
460.644	16326.41
460.85	16662.27
461.055	17211.13
461.261	17821.42
461.466	17266.42
461.672	17829.62
461.878	20123.34
462.083	19996.37
462.289	20231.88
462.494	21024.45
462.7	21112.51
462.905	21317.31
463.111	23172.77
463.316	24331.92
463.522	24673.93
463.727	25646.71
463.932	26439.28
464.138	27242.08
464.343	28466.77
464.549	28384.85
464.754	30998.06
464.959	31194.66
465.165	32067.09
465.37	31655.45
465.575	31858.2
465.781	34078.2
465.986	34860.52
466.191	34336.24
466.397	34418.16
466.602	34027
466.807	35868.12
467.012	36308.44
467.218	36871.63
467.423	36722.13
467.628	38227.38
467.833	39880.1
468.038	38995.37
468.244	38356.41
468.449	40320.41
468.654	39968.16
468.859	39386.53
