Data from USB4F104151__263__11-20-27-233.txt Node

Date: Wed Feb 26 11:20:27 EST 2025
User: louis
Spectrometer: USB4F10415
Trigger mode: 4
Integration Time (sec): 1.000000E-1
Scans to average: 1
Electric dark correction enabled: true
Nonlinearity correction enabled: false
Boxcar width: 0
XAxis mode: Wavelengths
Number of Pixels in Spectrum: 3648
>>>>>Begin Spectral Data<<<<<
178.204	-384.34
178.424	-384.34
178.644	-384.34
178.864	-386.38
179.084	-388.43
179.304	-46.42
179.524	-48.47
179.744	12.97
179.964	68.27
180.184	-17.75
180.404	43.69
180.624	27.31
180.844	-71
181.064	-27.99
181.283	12.97
181.503	-13.65
181.723	60.07
181.943	-73.04
182.163	217.77
182.383	-7.51
182.602	-17.75
182.822	168.62
183.042	119.46
183.262	25.26
183.482	-23.89
183.701	0.68
183.921	-19.8
184.141	27.31
184.361	31.4
184.58	58.03
184.8	49.83
185.02	49.83
185.239	127.66
185.459	90.79
185.679	176.81
185.898	-124.24
186.118	47.79
186.338	6.83
186.557	17.07
186.777	-58.71
186.997	88.75
187.216	-17.75
187.436	215.72
187.655	109.22
187.875	19.11
188.095	-11.61
188.314	103.08
188.534	160.42
188.753	-25.94
188.973	121.51
189.192	164.52
189.412	2.73
189.631	27.31
189.851	123.56
190.07	207.53
190.29	-40.28
190.509	25.26
190.729	8.87
190.948	146.09
191.168	258.73
191.387	92.84
191.607	64.17
191.826	96.94
192.045	2.73
192.265	-15.7
192.484	74.41
192.704	27.31
192.923	-124.24
193.142	119.46
193.362	109.22
193.581	105.13
193.8	98.99
194.02	49.83
194.239	43.69
194.458	64.17
194.678	90.79
194.897	21.16
195.116	115.37
195.335	70.31
195.555	39.59
195.774	-34.13
195.993	113.32
196.212	53.93
196.432	33.45
196.651	4.78
196.87	35.5
197.089	277.16
197.308	29.35
197.528	41.64
197.747	-15.7
197.966	27.31
198.185	195.24
198.404	-58.71
198.623	115.37
198.842	45.74
199.062	111.27
199.281	62.12
199.5	29.35
199.719	41.64
199.938	88.75
200.157	96.94
200.376	94.89
200.595	111.27
200.814	-25.94
201.033	-48.47
201.252	111.27
201.471	0.68
201.69	35.5
201.909	68.27
202.128	43.69
202.347	66.22
202.566	19.11
202.785	-130.39
203.004	10.92
203.223	238.25
203.442	19.11
203.661	-42.32
203.879	133.8
204.098	117.42
204.317	-75.09
204.536	144.04
204.755	88.75
204.974	109.22
205.193	35.5
205.411	131.75
205.63	23.21
205.849	10.92
206.068	-54.61
206.287	-9.56
206.505	195.24
206.724	27.31
206.943	-81.24
207.162	-62.8
207.381	47.79
207.599	-1.37
207.818	103.08
208.037	-23.89
208.255	-3.41
208.474	21.16
208.693	74.41
208.911	6.83
209.13	113.32
209.349	98.99
209.567	121.51
209.786	55.98
210.005	131.75
210.223	88.75
210.442	-58.71
210.661	39.59
210.879	43.69
211.098	-9.56
211.316	17.07
211.535	80.55
211.753	31.4
211.972	60.07
212.191	-27.99
212.409	-13.65
212.628	53.93
212.846	-38.23
213.065	64.17
213.283	78.51
213.502	41.64
213.72	27.31
213.938	4.78
214.157	41.64
214.375	146.09
214.594	-58.71
214.812	90.79
215.031	45.74
215.249	66.22
215.467	-17.75
215.686	27.31
215.904	109.22
216.122	45.74
216.341	72.36
216.559	53.93
216.778	84.65
216.996	144.04
217.214	45.74
217.432	31.4
217.651	15.02
217.869	10.92
218.087	6.83
218.306	-9.56
218.524	2.73
218.742	-21.85
218.96	-11.61
219.179	125.61
219.397	-15.7
219.615	103.08
219.833	60.07
220.051	27.31
220.27	111.27
220.488	21.16
220.706	86.7
220.924	-40.28
221.142	51.88
221.36	72.36
221.578	19.11
221.796	41.64
222.015	51.88
222.233	45.74
222.451	107.18
222.669	2.73
222.887	96.94
223.105	4.78
223.323	15.02
223.541	-11.61
223.759	35.5
223.977	-9.56
224.195	197.29
224.413	137.9
224.631	98.99
224.849	105.13
225.067	211.62
225.285	64.17
225.503	8.87
225.721	-60.76
225.939	62.12
226.157	25.26
226.375	219.82
226.592	2.73
226.81	72.36
227.028	88.75
227.246	68.27
227.464	78.51
227.682	90.79
227.9	98.99
228.117	-5.46
228.335	76.46
228.553	15.02
228.771	-46.42
228.989	10.92
229.206	131.75
229.424	-25.94
229.642	4.78
229.86	-73.04
230.077	115.37
230.295	41.64
230.513	117.42
230.731	-5.46
230.948	174.76
231.166	137.9
231.384	-13.65
231.601	-73.04
231.819	182.95
232.037	-25.94
232.254	-25.94
232.472	35.5
232.689	19.11
232.907	127.66
233.125	-25.94
233.342	-15.7
233.56	0.68
233.777	17.07
233.995	-13.65
234.213	43.69
234.43	10.92
234.648	115.37
234.865	37.55
235.083	88.75
235.3	51.88
235.518	98.99
235.735	211.62
235.953	6.83
236.17	41.64
236.388	49.83
236.605	21.16
236.822	74.41
237.04	76.46
237.257	29.35
237.475	-19.8
237.692	43.69
237.909	45.74
238.127	-3.41
238.344	4.78
238.562	39.59
238.779	-11.61
238.996	-34.13
239.214	68.27
239.431	156.33
239.648	-1.37
239.865	98.99
240.083	55.98
240.3	-68.95
240.517	6.83
240.735	21.16
240.952	84.65
241.169	55.98
241.386	78.51
241.603	49.83
241.821	-32.08
242.038	123.56
242.255	191.14
242.472	-44.37
242.689	62.12
242.907	98.99
243.124	109.22
243.341	39.59
243.558	-64.85
243.775	-128.34
243.992	-5.46
244.209	92.84
244.426	72.36
244.643	23.21
244.86	41.64
245.078	103.08
245.295	-21.85
245.512	-1.37
245.729	-1.37
245.946	37.55
246.163	64.17
246.38	4.78
246.597	2.73
246.814	39.59
247.031	96.94
247.248	10.92
247.464	55.98
247.681	60.07
247.898	43.69
248.115	-11.61
248.332	-27.99
248.549	58.03
248.766	180.9
248.983	76.46
249.2	72.36
249.417	139.94
249.633	-34.13
249.85	58.03
250.067	64.17
250.284	23.21
250.501	47.79
250.717	68.27
250.934	-36.18
251.151	64.17
251.368	47.79
251.585	6.83
251.801	23.21
252.018	-66.9
252.235	168.62
252.451	-93.52
252.668	6.83
252.885	94.89
253.102	41.64
253.318	-3.41
253.535	43.69
253.752	-1.37
253.968	-23.89
254.185	19.11
254.401	68.27
254.618	10.92
254.835	-75.09
255.051	53.93
255.268	105.13
255.484	176.81
255.701	35.5
255.917	103.08
256.134	35.5
256.351	6.83
256.567	-17.75
256.784	-15.7
257	-81.24
257.217	-17.75
257.433	121.51
257.65	70.31
257.866	111.27
258.082	-44.37
258.299	-54.61
258.515	58.03
258.732	2.73
258.948	-13.65
259.165	10.92
259.381	-62.8
259.597	66.22
259.814	45.74
260.03	17.07
260.246	10.92
260.463	94.89
260.679	96.94
260.895	33.45
261.112	51.88
261.328	2.73
261.544	-5.46
261.761	86.7
261.977	-9.56
262.193	-27.99
262.409	107.18
262.626	90.79
262.842	35.5
263.058	-52.56
263.274	80.55
263.49	-11.61
263.707	66.22
263.923	103.08
264.139	-87.38
264.355	74.41
264.571	154.28
264.787	121.51
265.004	94.89
265.22	33.45
265.436	-46.42
265.652	2.73
265.868	37.55
266.084	-52.56
266.3	-32.08
266.516	-77.14
266.732	35.5
266.948	2.73
267.164	12.97
267.38	70.31
267.596	78.51
267.812	211.62
268.028	53.93
268.244	-23.89
268.46	-27.99
268.676	-7.51
268.892	17.07
269.108	51.88
269.324	-56.66
269.54	-75.09
269.756	88.75
269.972	-56.66
270.188	123.56
270.403	-116.05
270.619	33.45
270.835	88.75
271.051	-23.89
271.267	-60.76
271.483	66.22
271.698	84.65
271.914	96.94
272.13	39.59
272.346	-1.37
272.562	51.88
272.777	105.13
272.993	82.6
273.209	-71
273.425	21.16
273.64	-132.44
273.856	41.64
274.072	-25.94
274.287	29.35
274.503	101.03
274.719	37.55
274.934	2.73
275.15	-116.05
275.366	-7.51
275.581	-42.32
275.797	37.55
276.012	60.07
276.228	43.69
276.444	39.59
276.659	117.42
276.875	-48.47
277.09	-7.51
277.306	113.32
277.521	12.97
277.737	31.4
277.952	119.46
278.168	2.73
278.383	68.27
278.599	43.69
278.814	74.41
279.03	31.4
279.245	144.04
279.461	82.6
279.676	49.83
279.892	-58.71
280.107	-11.61
280.322	25.26
280.538	88.75
280.753	-7.51
280.969	60.07
281.184	76.46
281.399	146.09
281.615	2.73
281.83	98.99
282.045	-17.75
282.26	29.35
282.476	27.31
282.691	72.36
282.906	8.87
283.122	2.73
283.337	-3.41
283.552	74.41
283.767	-1.37
283.983	39.59
284.198	62.12
284.413	27.31
284.628	-101.72
284.843	39.59
285.058	35.5
285.274	-52.56
285.489	-77.14
285.704	164.52
285.919	-30.04
286.134	15.02
286.349	78.51
286.564	17.07
286.779	119.46
286.995	41.64
287.21	-42.32
287.425	82.6
287.64	23.21
287.855	70.31
288.07	-71
288.285	68.27
288.5	154.28
288.715	119.46
288.93	80.55
289.145	-81.24
289.36	78.51
289.575	8.87
289.79	133.8
290.004	15.02
290.219	94.89
290.434	29.35
290.649	-62.8
290.864	-21.85
291.079	4.78
291.294	12.97
291.509	76.46
291.724	55.98
291.938	15.02
292.153	88.75
292.368	101.03
292.583	31.4
292.798	39.59
293.012	90.79
293.227	78.51
293.442	-27.99
293.657	84.65
293.871	101.03
294.086	60.07
294.301	141.99
294.516	101.03
294.73	45.74
294.945	-58.71
295.16	86.7
295.374	115.37
295.589	105.13
295.804	19.11
296.018	39.59
296.233	162.47
296.447	98.99
296.662	0.68
296.877	137.9
297.091	68.27
297.306	45.74
297.52	-58.71
297.735	74.41
297.949	-21.85
298.164	19.11
298.378	12.97
298.593	29.35
298.807	55.98
299.022	43.69
299.236	176.81
299.451	15.02
299.665	17.07
299.88	6.83
300.094	17.07
300.309	19.11
300.523	62.12
300.737	70.31
300.952	92.84
301.166	51.88
301.381	-68.95
301.595	-50.52
301.809	58.03
302.024	55.98
302.238	-50.52
302.452	82.6
302.667	55.98
302.881	146.09
303.095	49.83
303.309	-7.51
303.524	45.74
303.738	-50.52
303.952	-30.04
304.166	58.03
304.381	-97.62
304.595	223.91
304.809	25.26
305.023	86.7
305.237	29.35
305.452	-75.09
305.666	107.18
305.88	82.6
306.094	96.94
306.308	-9.56
306.522	144.04
306.736	68.27
306.95	82.6
307.164	-38.23
307.379	-56.66
307.593	158.38
307.807	60.07
308.021	96.94
308.235	123.56
308.449	-46.42
308.663	27.31
308.877	236.2
309.091	-15.7
309.305	109.22
309.519	-111.96
309.733	201.38
309.947	-124.24
310.161	64.17
310.374	115.37
310.588	152.23
310.802	-62.8
311.016	29.35
311.23	29.35
311.444	-32.08
311.658	-48.47
311.872	156.33
312.085	127.66
312.299	221.86
312.513	152.23
312.727	27.31
312.941	-48.47
313.154	111.27
313.368	98.99
313.582	15.02
313.796	43.69
314.009	88.75
314.223	105.13
314.437	47.79
314.651	131.75
314.864	-13.65
315.078	35.5
315.292	-126.29
315.505	27.31
315.719	92.84
315.933	88.75
316.146	8.87
316.36	-32.08
316.573	125.61
316.787	15.02
317.001	6.83
317.214	-1.37
317.428	96.94
317.641	-77.14
317.855	-30.04
318.068	58.03
318.282	19.11
318.495	234.15
318.709	121.51
318.922	43.69
319.136	121.51
319.349	123.56
319.563	-25.94
319.776	41.64
319.99	-27.99
320.203	74.41
320.417	-68.95
320.63	-17.75
320.843	195.24
321.057	41.64
321.27	-44.37
321.483	23.21
321.697	49.83
321.91	12.97
322.124	12.97
322.337	17.07
322.55	-3.41
322.763	80.55
322.977	-48.47
323.19	2.73
323.403	23.21
323.617	78.51
323.83	133.8
324.043	-7.51
324.256	27.31
324.469	19.11
324.683	94.89
324.896	96.94
325.109	15.02
325.322	-79.19
325.535	-3.41
325.748	33.45
325.962	29.35
326.175	23.21
326.388	31.4
326.601	148.14
326.814	-32.08
327.027	-1.37
327.24	64.17
327.453	-40.28
327.666	19.11
327.879	178.86
328.092	119.46
328.305	43.69
328.518	10.92
328.731	-13.65
328.944	74.41
329.157	78.51
329.37	-27.99
329.583	107.18
329.796	47.79
330.009	-58.71
330.222	86.7
330.435	90.79
330.648	92.84
330.861	74.41
331.073	29.35
331.286	84.65
331.499	17.07
331.712	-25.94
331.925	-3.41
332.138	-36.18
332.35	92.84
332.563	-42.32
332.776	166.57
332.989	-27.99
333.202	39.59
333.414	49.83
333.627	94.89
333.84	25.26
334.053	82.6
334.265	0.68
334.478	21.16
334.691	35.5
334.903	12.97
335.116	-54.61
335.329	58.03
335.541	6.83
335.754	211.62
335.966	-13.65
336.179	-3.41
336.392	82.6
336.604	-15.7
336.817	37.55
337.029	25.26
337.242	8.87
337.454	10.92
337.667	78.51
337.88	162.47
338.092	0.68
338.305	49.83
338.517	-19.8
338.729	78.51
338.942	88.75
339.154	-79.19
339.367	4.78
339.579	62.12
339.792	6.83
340.004	107.18
340.217	66.22
340.429	58.03
340.641	-83.28
340.854	-38.23
341.066	49.83
341.278	68.27
341.491	123.56
341.703	53.93
341.915	-48.47
342.128	146.09
342.34	94.89
342.552	-40.28
342.764	76.46
342.977	72.36
343.189	115.37
343.401	84.65
343.613	-114
343.826	2.73
344.038	-97.62
344.25	6.83
344.462	60.07
344.674	49.83
344.886	33.45
345.099	45.74
345.311	10.92
345.523	-3.41
345.735	-116.05
345.947	64.17
346.159	96.94
346.371	45.74
346.583	37.55
346.795	221.86
347.007	37.55
347.219	0.68
347.431	-23.89
347.643	103.08
347.855	12.97
348.067	96.94
348.279	-71
348.491	60.07
348.703	49.83
348.915	84.65
349.127	37.55
349.339	86.7
349.551	66.22
349.763	68.27
349.975	62.12
350.187	98.99
350.399	113.32
350.61	62.12
350.822	84.65
351.034	84.65
351.246	-13.65
351.458	62.12
351.669	76.46
351.881	123.56
352.093	53.93
352.305	58.03
352.517	23.21
352.728	62.12
352.94	103.08
353.152	17.07
353.363	-44.37
353.575	86.7
353.787	191.14
353.999	37.55
354.21	199.34
354.422	-11.61
354.633	10.92
354.845	-3.41
355.057	35.5
355.268	55.98
355.48	76.46
355.692	-81.24
355.903	141.99
356.115	10.92
356.326	-101.72
356.538	148.14
356.749	33.45
356.961	156.33
357.172	66.22
357.384	-48.47
357.595	193.19
357.807	-11.61
358.018	2.73
358.23	-17.75
358.441	211.62
358.653	84.65
358.864	-52.56
359.075	-17.75
359.287	21.16
359.498	98.99
359.709	129.7
359.921	-9.56
360.132	58.03
360.344	29.35
360.555	-91.48
360.766	60.07
360.977	53.93
361.189	72.36
361.4	23.21
361.611	92.84
361.823	72.36
362.034	78.51
362.245	-79.19
362.456	0.68
362.667	49.83
362.879	10.92
363.09	-23.89
363.301	115.37
363.512	-11.61
363.723	-38.23
363.935	-54.61
364.146	119.46
364.357	60.07
364.568	-9.56
364.779	-54.61
364.99	125.61
365.201	-46.42
365.412	123.56
365.623	-46.42
365.834	70.31
366.045	86.7
366.256	58.03
366.467	105.13
366.678	51.88
366.889	8.87
367.1	103.08
367.311	111.27
367.522	-99.67
367.733	90.79
367.944	66.22
368.155	62.12
368.366	107.18
368.577	119.46
368.788	154.28
368.999	8.87
369.209	82.6
369.42	217.77
369.631	217.77
369.842	6.83
370.053	35.5
370.264	96.94
370.474	-19.8
370.685	92.84
370.896	25.26
371.107	162.47
371.317	88.75
371.528	51.88
371.739	133.8
371.95	19.11
372.16	-3.41
372.371	-30.04
372.582	-91.48
372.792	96.94
373.003	84.65
373.214	45.74
373.424	103.08
373.635	-27.99
373.846	176.81
374.056	53.93
374.267	94.89
374.477	33.45
374.688	-56.66
374.898	45.74
375.109	94.89
375.319	109.22
375.53	103.08
375.74	152.23
375.951	68.27
376.161	41.64
376.372	109.22
376.582	39.59
376.793	72.36
377.003	4.78
377.214	29.35
377.424	33.45
377.635	-21.85
377.845	43.69
378.055	105.13
378.266	-42.32
378.476	82.6
378.686	10.92
378.897	23.21
379.107	80.55
379.317	88.75
379.528	-15.7
379.738	37.55
379.948	-91.48
380.158	43.69
380.369	-17.75
380.579	121.51
380.789	8.87
380.999	74.41
381.21	96.94
381.42	180.9
381.63	53.93
381.84	58.03
382.05	25.26
382.261	180.9
382.471	103.08
382.681	-23.89
382.891	160.42
383.101	-34.13
383.311	-5.46
383.521	-1.37
383.731	76.46
383.941	55.98
384.151	31.4
384.361	37.55
384.571	35.5
384.781	29.35
384.991	135.85
385.201	158.38
385.411	84.65
385.621	-9.56
385.831	53.93
386.041	72.36
386.251	105.13
386.461	129.7
386.671	-9.56
386.881	39.59
387.091	-1.37
387.301	117.42
387.511	19.11
387.72	27.31
387.93	82.6
388.14	-52.56
388.35	6.83
388.56	101.03
388.769	111.27
388.979	-3.41
389.189	-25.94
389.399	74.41
389.609	98.99
389.818	172.71
390.028	21.16
390.238	141.99
390.447	-7.51
390.657	94.89
390.867	4.78
391.076	-46.42
391.286	60.07
391.496	4.78
391.705	76.46
391.915	94.89
392.125	98.99
392.334	-42.32
392.544	172.71
392.753	74.41
392.963	19.11
393.172	74.41
393.382	-40.28
393.591	203.43
393.801	31.4
394.01	144.04
394.22	53.93
394.429	49.83
394.639	109.22
394.848	23.21
395.058	43.69
395.267	-15.7
395.477	88.75
395.686	-32.08
395.895	209.58
396.105	172.71
396.314	39.59
396.524	60.07
396.733	37.55
396.942	207.53
397.152	115.37
397.361	125.61
397.57	86.7
397.78	21.16
397.989	39.59
398.198	182.95
398.407	37.55
398.617	92.84
398.826	129.7
399.035	60.07
399.244	156.33
399.453	17.07
399.663	31.4
399.872	53.93
400.081	-50.52
400.29	96.94
400.499	-3.41
400.708	135.85
400.917	60.07
401.127	29.35
401.336	-44.37
401.545	152.23
401.754	43.69
401.963	49.83
402.172	21.16
402.381	-58.71
402.59	-52.56
402.799	49.83
403.008	133.8
403.217	137.9
403.426	2.73
403.635	-60.76
403.844	125.61
404.053	41.64
404.262	105.13
404.471	178.86
404.68	141.99
404.888	25.26
405.097	84.65
405.306	53.93
405.515	90.79
405.724	21.16
405.933	70.31
406.142	47.79
406.35	144.04
406.559	25.26
406.768	51.88
406.977	178.86
407.185	60.07
407.394	189.1
407.603	15.02
407.812	-36.18
408.02	76.46
408.229	-42.32
408.438	111.27
408.646	-54.61
408.855	23.21
409.064	150.18
409.272	70.31
409.481	25.26
409.69	-32.08
409.898	-58.71
410.107	141.99
410.315	53.93
410.524	33.45
410.733	90.79
410.941	21.16
411.15	101.03
411.358	141.99
411.567	86.7
411.775	66.22
411.984	62.12
412.192	64.17
412.401	-15.7
412.609	225.96
412.818	129.7
413.026	78.51
413.234	-9.56
413.443	68.27
413.651	47.79
413.86	107.18
414.068	170.66
414.276	98.99
414.485	51.88
414.693	180.9
414.901	223.91
415.11	96.94
415.318	78.51
415.526	103.08
415.734	170.66
415.943	66.22
416.151	144.04
416.359	72.36
416.567	141.99
416.776	62.12
416.984	62.12
417.192	141.99
417.4	25.26
417.608	19.11
417.817	-36.18
418.025	82.6
418.233	185
418.441	-32.08
418.649	-71
418.857	70.31
419.065	154.28
419.273	-5.46
419.481	12.97
419.689	39.59
419.897	8.87
420.105	6.83
420.313	115.37
420.521	88.75
420.729	166.57
420.937	2.73
421.145	-15.7
421.353	111.27
421.561	166.57
421.769	10.92
421.977	53.93
422.185	53.93
422.393	98.99
422.601	72.36
422.809	66.22
423.017	-5.46
423.224	45.74
423.432	43.69
423.64	64.17
423.848	201.38
424.056	17.07
424.263	113.32
424.471	178.86
424.679	146.09
424.887	-97.62
425.094	137.9
425.302	96.94
425.51	15.02
425.718	129.7
425.925	164.52
426.133	53.93
426.341	209.58
426.548	49.83
426.756	105.13
426.964	66.22
427.171	17.07
427.379	19.11
427.586	180.9
427.794	144.04
428.001	156.33
428.209	141.99
428.417	141.99
428.624	144.04
428.832	105.13
429.039	45.74
429.247	31.4
429.454	109.22
429.662	166.57
429.869	88.75
430.076	82.6
430.284	213.67
430.491	256.68
430.699	129.7
430.906	150.18
431.114	174.76
431.321	242.34
431.528	119.46
431.736	191.14
431.943	123.56
432.15	125.61
432.358	178.86
432.565	258.73
432.772	53.93
432.979	244.39
433.187	101.03
433.394	203.43
433.601	62.12
433.808	232.1
434.016	230.06
434.223	295.59
434.43	291.49
434.637	279.21
434.844	240.29
435.052	166.57
435.259	277.16
435.466	357.03
435.673	334.5
435.88	281.25
436.087	303.78
436.294	305.83
436.501	381.6
436.708	352.93
436.915	324.26
437.122	418.47
437.329	234.15
437.537	383.65
437.743	479.91
437.95	508.58
438.157	459.43
438.364	465.57
438.571	404.13
438.778	522.91
438.985	567.97
439.192	533.15
439.399	498.34
439.606	455.33
439.813	645.79
440.02	676.51
440.227	692.9
440.433	563.87
440.64	537.25
440.847	578.21
441.054	662.18
441.261	740
441.467	674.46
441.674	674.46
441.881	783.01
442.088	674.46
442.294	780.96
442.501	836.25
442.708	932.51
442.914	905.88
443.121	969.37
443.328	924.32
443.534	946.84
443.741	912.03
443.948	965.28
444.154	1106.59
444.361	1157.78
444.568	1086.11
444.774	1102.49
444.981	1077.91
445.187	1276.57
445.394	1286.81
445.6	1190.55
445.807	1454.74
446.013	1409.69
446.22	1376.92
446.426	1573.52
446.633	1673.87
446.839	1813.13
447.046	1641.11
447.252	1845.9
447.459	1854.09
447.665	1839.76
447.871	2042.51
448.078	2185.87
448.284	2067.08
448.491	2218.63
448.697	2409.09
448.903	2394.76
449.11	2357.89
449.316	2507.4
449.522	2710.15
449.728	2779.78
449.935	2849.41
450.141	2673.28
450.347	3013.24
450.553	2943.61
450.76	3041.92
450.966	3154.55
451.172	3371.64
451.378	3345.02
451.584	3605.11
451.791	3854.96
451.997	3869.3
452.203	4000.37
452.409	4065.9
452.615	4405.86
452.821	4258.41
453.027	4309.61
453.233	4901.47
453.44	4790.88
453.646	4897.38
453.852	5067.36
454.058	5284.44
454.264	5464.66
454.47	5874.26
454.676	5978.7
454.882	6513.22
455.088	6109.77
455.294	6410.82
455.5	6920.77
455.705	7359.03
455.911	7195.2
456.117	7500.34
456.323	7565.88
456.529	7793.2
456.735	8401.45
456.941	8602.15
457.147	8935.97
457.352	9284.12
457.558	9540.12
457.764	10002.96
457.97	10377.74
458.176	10445.32
458.381	11139.58
458.587	11414.01
458.793	12020.21
458.999	12044.79
459.204	13476.32
459.41	14080.47
459.616	13746.65
459.821	14655.95
460.027	15102.4
460.233	15774.14
460.438	16058.81
460.644	16824.75
460.85	17146.28
461.055	17537.44
461.261	18731.4
461.466	18373.01
461.672	18323.86
461.878	20500.85
462.083	20289.91
462.289	20967.79
462.494	21741.92
462.7	21791.07
462.905	22309.21
463.111	24191.29
463.316	25323.82
463.522	25729.31
463.727	26562.84
463.932	27287.82
464.138	27975.94
464.343	29507.82
464.549	29573.35
464.754	31305.93
464.959	32508.09
465.165	32594.11
465.37	32739.51
465.575	32800.95
465.781	34863.25
465.986	36182.15
466.191	35281.04
466.397	35948.68
466.602	35408.01
466.807	37173.36
467.012	37687.4
467.218	38160.48
467.423	38328.42
467.628	39901.26
467.833	41359.41
468.038	40579.14
468.244	39866.44
468.449	41902.12
468.654	41226.29
