Data from USB4F104151__183__11-05-10-533.txt Node

Date: Wed Feb 26 11:05:10 EST 2025
User: louis
Spectrometer: USB4F10415
Trigger mode: 4
Integration Time (sec): 1.000000E-1
Scans to average: 1
Electric dark correction enabled: true
Nonlinearity correction enabled: false
Boxcar width: 0
XAxis mode: Wavelengths
Number of Pixels in Spectrum: 3648
>>>>>Begin Spectral Data<<<<<
178.204	-377.85
178.424	-377.85
178.644	-377.85
178.864	-459.77
179.084	-439.29
179.304	21.5
179.524	-9.22
179.744	31.74
179.964	35.84
180.184	33.79
180.404	-19.46
180.624	-50.18
180.844	-27.65
181.064	25.6
181.283	-17.41
181.503	-82.94
181.723	58.37
181.943	-82.94
182.163	203.77
182.383	-87.04
182.602	72.7
182.822	105.47
183.042	25.6
183.262	-17.41
183.482	-70.65
183.701	-9.22
183.921	-1.02
184.141	-56.32
184.361	121.85
184.58	130.05
184.8	35.84
185.02	-19.46
185.239	7.17
185.459	99.33
185.679	39.94
185.898	-74.75
186.118	68.61
186.338	33.79
186.557	121.85
186.777	-84.99
186.997	17.41
187.216	-52.22
187.436	183.29
187.655	1.02
187.875	62.46
188.095	-3.07
188.314	117.76
188.534	179.2
188.753	-44.03
188.973	123.9
189.192	173.05
189.412	23.55
189.631	-11.26
189.851	25.6
190.07	230.4
190.29	-117.76
190.509	48.13
190.729	52.22
190.948	95.23
191.168	232.44
191.387	19.46
191.607	27.65
191.826	9.22
192.045	84.99
192.265	1.02
192.484	134.14
192.704	-35.84
192.923	-29.7
193.142	214.01
193.362	54.27
193.581	148.48
193.8	74.75
194.02	52.22
194.239	11.26
194.458	107.52
194.678	107.52
194.897	-72.7
195.116	82.94
195.335	95.23
195.555	37.89
195.774	-3.07
195.993	29.7
196.212	3.07
196.432	-23.55
196.651	-35.84
196.87	33.79
197.089	244.73
197.308	21.5
197.528	54.27
197.747	9.22
197.966	27.65
198.185	175.1
198.404	41.98
198.623	111.61
198.842	152.57
199.062	29.7
199.281	62.46
199.5	15.36
199.719	115.71
199.938	52.22
200.157	66.56
200.376	115.71
200.595	68.61
200.814	68.61
201.033	5.12
201.252	136.19
201.471	11.26
201.69	134.14
201.909	-33.79
202.128	68.61
202.347	3.07
202.566	31.74
202.785	-93.18
203.004	-39.94
203.223	199.68
203.442	35.84
203.661	-95.23
203.879	46.08
204.098	80.89
204.317	-103.42
204.536	9.22
204.755	101.37
204.974	23.55
205.193	-21.5
205.411	168.96
205.63	91.13
205.849	64.51
206.068	35.84
206.287	35.84
206.505	39.94
206.724	50.18
206.943	-44.03
207.162	-5.12
207.381	82.94
207.599	9.22
207.818	76.8
208.037	-78.85
208.255	44.03
208.474	3.07
208.693	3.07
208.911	-23.55
209.13	48.13
209.349	50.18
209.567	70.65
209.786	70.65
210.005	117.76
210.223	54.27
210.442	-62.46
210.661	80.89
210.879	-19.46
211.098	19.46
211.316	17.41
211.535	89.09
211.753	52.22
211.972	31.74
212.191	-3.07
212.409	-60.42
212.628	132.09
212.846	-101.37
213.065	-7.17
213.283	121.85
213.502	-15.36
213.72	58.37
213.938	56.32
214.157	-21.5
214.375	138.24
214.594	29.7
214.812	82.94
215.031	11.26
215.249	17.41
215.467	-37.89
215.686	136.19
215.904	11.26
216.122	70.65
216.341	119.81
216.559	27.65
216.778	113.66
216.996	117.76
217.214	-19.46
217.432	41.98
217.651	-117.76
217.869	7.17
218.087	48.13
218.306	-27.65
218.524	78.85
218.742	31.74
218.96	89.09
219.179	60.42
219.397	-15.36
219.615	228.35
219.833	128
220.051	25.6
220.27	91.13
220.488	52.22
220.706	66.56
220.924	9.22
221.142	19.46
221.36	50.18
221.578	89.09
221.796	13.31
222.015	-52.22
222.233	37.89
222.451	146.43
222.669	-87.04
222.887	50.18
223.105	37.89
223.323	17.41
223.541	-119.81
223.759	64.51
223.977	46.08
224.195	58.37
224.413	66.56
224.631	62.46
224.849	56.32
225.067	259.07
225.285	-31.74
225.503	-70.65
225.721	-105.47
225.939	-29.7
226.157	39.94
226.375	166.91
226.592	-52.22
226.81	5.12
227.028	125.95
227.246	162.81
227.464	31.74
227.682	19.46
227.9	33.79
228.117	97.28
228.335	58.37
228.553	58.37
228.771	56.32
228.989	44.03
229.206	46.08
229.424	56.32
229.642	-23.55
229.86	11.26
230.077	62.46
230.295	58.37
230.513	109.57
230.731	29.7
230.948	138.24
231.166	173.05
231.384	-39.94
231.601	-11.26
231.819	128
232.037	13.31
232.254	39.94
232.472	-7.17
232.689	-25.6
232.907	150.53
233.125	13.31
233.342	9.22
233.56	21.5
233.777	31.74
233.995	3.07
234.213	87.04
234.43	130.05
234.648	25.6
234.865	33.79
235.083	84.99
235.3	50.18
235.518	146.43
235.735	160.77
235.953	82.94
236.17	-21.5
236.388	-41.98
236.605	3.07
236.822	60.42
237.04	62.46
237.257	9.22
237.475	-80.89
237.692	17.41
237.909	44.03
238.127	1.02
238.344	64.51
238.562	54.27
238.779	-11.26
238.996	-35.84
239.214	46.08
239.431	17.41
239.648	37.89
239.865	23.55
240.083	115.71
240.3	11.26
240.517	-41.98
240.735	60.42
240.952	113.66
241.169	64.51
241.386	74.75
241.603	-5.12
241.821	-33.79
242.038	89.09
242.255	44.03
242.472	-39.94
242.689	99.33
242.907	37.89
243.124	25.6
243.341	-1.02
243.558	17.41
243.775	-48.13
243.992	-3.07
244.209	142.33
244.426	179.2
244.643	66.56
244.86	17.41
245.078	84.99
245.295	-46.08
245.512	15.36
245.729	66.56
245.946	87.04
246.163	46.08
246.38	-21.5
246.597	58.37
246.814	17.41
247.031	25.6
247.248	-13.31
247.464	31.74
247.681	19.46
247.898	72.7
248.115	58.37
248.332	-35.84
248.549	134.14
248.766	91.13
248.983	78.85
249.2	35.84
249.417	107.52
249.633	17.41
249.85	23.55
250.067	48.13
250.284	7.17
250.501	23.55
250.717	35.84
250.934	-50.18
251.151	31.74
251.368	37.89
251.585	66.56
251.801	52.22
252.018	-37.89
252.235	109.57
252.451	-52.22
252.668	-121.85
252.885	162.81
253.102	46.08
253.318	72.7
253.535	-41.98
253.752	33.79
253.968	-19.46
254.185	-31.74
254.401	109.57
254.618	33.79
254.835	27.65
255.051	87.04
255.268	72.7
255.484	91.13
255.701	7.17
255.917	78.85
256.134	11.26
256.351	1.02
256.567	-101.37
256.784	62.46
257	-25.6
257.217	125.95
257.433	46.08
257.65	11.26
257.866	128
258.082	19.46
258.299	-46.08
258.515	27.65
258.732	-9.22
258.948	-17.41
259.165	23.55
259.381	-25.6
259.597	97.28
259.814	-27.65
260.03	82.94
260.246	-7.17
260.463	183.29
260.679	50.18
260.895	68.61
261.112	9.22
261.328	-21.5
261.544	25.6
261.761	123.9
261.977	-21.5
262.193	-19.46
262.409	27.65
262.626	66.56
262.842	-5.12
263.058	3.07
263.274	25.6
263.49	152.57
263.707	64.51
263.923	48.13
264.139	-119.81
264.355	84.99
264.571	166.91
264.787	99.33
265.004	125.95
265.22	31.74
265.436	-64.51
265.652	-91.13
265.868	56.32
266.084	11.26
266.3	-52.22
266.516	-1.02
266.732	11.26
266.948	44.03
267.164	29.7
267.38	50.18
267.596	7.17
267.812	119.81
268.028	72.7
268.244	-60.42
268.46	33.79
268.676	-1.02
268.892	-9.22
269.108	-13.31
269.324	-39.94
269.54	-41.98
269.756	84.99
269.972	-33.79
270.188	17.41
270.403	-82.94
270.619	62.46
270.835	37.89
271.051	50.18
271.267	-72.7
271.483	-66.56
271.698	68.61
271.914	50.18
272.13	58.37
272.346	-37.89
272.562	-35.84
272.777	60.42
272.993	21.5
273.209	-46.08
273.425	80.89
273.64	-117.76
273.856	21.5
274.072	-103.42
274.287	25.6
274.503	103.42
274.719	7.17
274.934	31.74
275.15	-29.7
275.366	99.33
275.581	-93.18
275.797	-7.17
276.012	44.03
276.228	33.79
276.444	50.18
276.659	138.24
276.875	-60.42
277.09	-54.27
277.306	-11.26
277.521	99.33
277.737	84.99
277.952	101.37
278.168	31.74
278.383	11.26
278.599	93.18
278.814	62.46
279.03	76.8
279.245	177.15
279.461	3.07
279.676	101.37
279.892	-13.31
280.107	25.6
280.322	-39.94
280.538	39.94
280.753	-48.13
280.969	21.5
281.184	80.89
281.399	156.67
281.615	44.03
281.83	3.07
282.045	-39.94
282.26	68.61
282.476	117.76
282.691	97.28
282.906	105.47
283.122	101.37
283.337	17.41
283.552	97.28
283.767	23.55
283.983	156.67
284.198	64.51
284.413	80.89
284.628	-66.56
284.843	64.51
285.058	23.55
285.274	-7.17
285.489	31.74
285.704	60.42
285.919	11.26
286.134	60.42
286.349	27.65
286.564	-19.46
286.779	66.56
286.995	-23.55
287.21	-78.85
287.425	121.85
287.64	-31.74
287.855	48.13
288.07	23.55
288.285	117.76
288.5	134.14
288.715	82.94
288.93	11.26
289.145	7.17
289.36	97.28
289.575	-13.31
289.79	91.13
290.004	15.36
290.219	166.91
290.434	-37.89
290.649	-60.42
290.864	-119.81
291.079	27.65
291.294	58.37
291.509	80.89
291.724	-5.12
291.938	39.94
292.153	76.8
292.368	35.84
292.583	123.9
292.798	58.37
293.012	3.07
293.227	-35.84
293.442	23.55
293.657	33.79
293.871	140.29
294.086	37.89
294.301	154.62
294.516	46.08
294.73	58.37
294.945	-117.76
295.16	68.61
295.374	84.99
295.589	95.23
295.804	-19.46
296.018	23.55
296.233	177.15
296.447	-29.7
296.662	-5.12
296.877	76.8
297.091	93.18
297.306	1.02
297.52	-13.31
297.735	62.46
297.949	-11.26
298.164	3.07
298.378	35.84
298.593	-125.95
298.807	-13.31
299.022	52.22
299.236	99.33
299.451	3.07
299.665	35.84
299.88	9.22
300.094	-52.22
300.309	31.74
300.523	31.74
300.737	-50.18
300.952	17.41
301.166	74.75
301.381	5.12
301.595	50.18
301.809	9.22
302.024	56.32
302.238	27.65
302.452	93.18
302.667	33.79
302.881	91.13
303.095	93.18
303.309	72.7
303.524	-17.41
303.738	7.17
303.952	44.03
304.166	111.61
304.381	-60.42
304.595	177.15
304.809	-78.85
305.023	54.27
305.237	44.03
305.452	-7.17
305.666	82.94
305.88	21.5
306.094	87.04
306.308	31.74
306.522	70.65
306.736	35.84
306.95	-23.55
307.164	15.36
307.379	-31.74
307.593	68.61
307.807	160.77
308.021	62.46
308.235	-25.6
308.449	-103.42
308.663	-25.6
308.877	179.2
309.091	11.26
309.305	54.27
309.519	-109.57
309.733	113.66
309.947	-84.99
310.161	128
310.374	109.57
310.588	93.18
310.802	-60.42
311.016	39.94
311.23	60.42
311.444	31.74
311.658	-31.74
311.872	146.43
312.085	138.24
312.299	148.48
312.513	111.61
312.727	37.89
312.941	-21.5
313.154	60.42
313.368	13.31
313.582	35.84
313.796	44.03
314.009	9.22
314.223	93.18
314.437	19.46
314.651	29.7
314.864	-80.89
315.078	-25.6
315.292	-58.37
315.505	-35.84
315.719	-41.98
315.933	31.74
316.146	-9.22
316.36	-37.89
316.573	123.9
316.787	95.23
317.001	72.7
317.214	-58.37
317.428	48.13
317.641	-39.94
317.855	-17.41
318.068	1.02
318.282	3.07
318.495	177.15
318.709	-11.26
318.922	50.18
319.136	99.33
319.349	74.75
319.563	-27.65
319.776	25.6
319.99	-138.24
320.203	80.89
320.417	17.41
320.63	105.47
320.843	248.83
321.057	13.31
321.27	54.27
321.483	46.08
321.697	160.77
321.91	128
322.124	1.02
322.337	21.5
322.55	-60.42
322.763	41.98
322.977	19.46
323.19	-31.74
323.403	46.08
323.617	62.46
323.83	130.05
324.043	62.46
324.256	3.07
324.469	-52.22
324.683	146.43
324.896	31.74
325.109	109.57
325.322	-99.33
325.535	89.09
325.748	101.37
325.962	1.02
326.175	72.7
326.388	46.08
326.601	82.94
326.814	15.36
327.027	7.17
327.24	128
327.453	-56.32
327.666	101.37
327.879	134.14
328.092	-11.26
328.305	23.55
328.518	-15.36
328.731	-21.5
328.944	-29.7
329.157	97.28
329.37	-17.41
329.583	168.96
329.796	160.77
330.009	-11.26
330.222	80.89
330.435	134.14
330.648	9.22
330.861	25.6
331.073	87.04
331.286	105.47
331.499	25.6
331.712	-121.85
331.925	-25.6
332.138	-25.6
332.35	191.49
332.563	25.6
332.776	72.7
332.989	-87.04
333.202	19.46
333.414	-11.26
333.627	23.55
333.84	-27.65
334.053	41.98
334.265	60.42
334.478	-54.27
334.691	-9.22
334.903	-3.07
335.116	31.74
335.329	54.27
335.541	87.04
335.754	113.66
335.966	-5.12
336.179	7.17
336.392	48.13
336.604	66.56
336.817	46.08
337.029	5.12
337.242	29.7
337.454	87.04
337.667	68.61
337.88	154.62
338.092	-1.02
338.305	-17.41
338.517	-50.18
338.729	117.76
338.942	95.23
339.154	-23.55
339.367	35.84
339.579	31.74
339.792	-17.41
340.004	48.13
340.217	3.07
340.429	101.37
340.641	-93.18
340.854	5.12
341.066	35.84
341.278	142.33
341.491	115.71
341.703	80.89
341.915	-76.8
342.128	68.61
342.34	35.84
342.552	-52.22
342.764	58.37
342.977	1.02
343.189	19.46
343.401	35.84
343.613	-76.8
343.826	25.6
344.038	-19.46
344.25	17.41
344.462	9.22
344.674	87.04
344.886	35.84
345.099	44.03
345.311	78.85
345.523	-5.12
345.735	-78.85
345.947	19.46
346.159	1.02
346.371	11.26
346.583	-11.26
346.795	195.58
347.007	-19.46
347.219	70.65
347.431	58.37
347.643	80.89
347.855	-25.6
348.067	123.9
348.279	31.74
348.491	101.37
348.703	46.08
348.915	-13.31
349.127	5.12
349.339	74.75
349.551	3.07
349.763	97.28
349.975	-11.26
350.187	125.95
350.399	117.76
350.61	15.36
350.822	-3.07
351.034	50.18
351.246	46.08
351.458	50.18
351.669	87.04
351.881	89.09
352.093	130.05
352.305	140.29
352.517	39.94
352.728	125.95
352.94	48.13
353.152	33.79
353.363	-52.22
353.575	15.36
353.787	121.85
353.999	117.76
354.21	125.95
354.422	3.07
354.633	72.7
354.845	52.22
355.057	21.5
355.268	128
355.48	9.22
355.692	-66.56
355.903	52.22
356.115	-91.13
356.326	-70.65
356.538	115.71
356.749	58.37
356.961	60.42
357.172	72.7
357.384	9.22
357.595	228.35
357.807	-1.02
358.018	-37.89
358.23	-21.5
358.441	146.43
358.653	7.17
358.864	46.08
359.075	-17.41
359.287	-23.55
359.498	101.37
359.709	89.09
359.921	13.31
360.132	19.46
360.344	17.41
360.555	-46.08
360.766	-21.5
360.977	48.13
361.189	41.98
361.4	48.13
361.611	119.81
361.823	-5.12
362.034	-39.94
362.245	-80.89
362.456	-31.74
362.667	78.85
362.879	-27.65
363.09	-9.22
363.301	99.33
363.512	-39.94
363.723	-13.31
363.935	13.31
364.146	72.7
364.357	-41.98
364.568	41.98
364.779	7.17
364.99	60.42
365.201	-78.85
365.412	21.5
365.623	-117.76
365.834	125.95
366.045	54.27
366.256	44.03
366.467	80.89
366.678	-3.07
366.889	50.18
367.1	17.41
367.311	105.47
367.522	-74.75
367.733	44.03
367.944	64.51
368.155	-50.18
368.366	-52.22
368.577	62.46
368.788	41.98
368.999	17.41
369.209	11.26
369.42	150.53
369.631	220.16
369.842	33.79
370.053	-23.55
370.264	150.53
370.474	-11.26
370.685	17.41
370.896	-56.32
371.107	111.61
371.317	74.75
371.528	25.6
371.739	128
371.95	35.84
372.16	150.53
372.371	-78.85
372.582	-41.98
372.792	27.65
373.003	-39.94
373.214	56.32
373.424	152.57
373.635	3.07
373.846	115.71
374.056	62.46
374.267	-1.02
374.477	154.62
374.688	-7.17
374.898	64.51
375.109	5.12
375.319	35.84
375.53	103.42
375.74	101.37
375.951	9.22
376.161	44.03
376.372	109.57
376.582	54.27
376.793	140.29
377.003	-19.46
377.214	-33.79
377.424	56.32
377.635	-3.07
377.845	39.94
378.055	56.32
378.266	-91.13
378.476	89.09
378.686	52.22
378.897	60.42
379.107	128
379.317	97.28
379.528	11.26
379.738	119.81
379.948	-15.36
380.158	82.94
380.369	46.08
380.579	21.5
380.789	-11.26
380.999	70.65
381.21	123.9
381.42	132.09
381.63	-11.26
381.84	50.18
382.05	76.8
382.261	87.04
382.471	109.57
382.681	3.07
382.891	160.77
383.101	33.79
383.311	-17.41
383.521	-39.94
383.731	80.89
383.941	103.42
384.151	80.89
384.361	44.03
384.571	27.65
384.781	70.65
384.991	142.33
385.201	187.39
385.411	84.99
385.621	48.13
385.831	56.32
386.041	13.31
386.251	17.41
386.461	84.99
386.671	48.13
386.881	46.08
387.091	-17.41
387.301	58.37
387.511	19.46
387.72	91.13
387.93	58.37
388.14	-13.31
388.35	97.28
388.56	46.08
388.769	103.42
388.979	68.61
389.189	-7.17
389.399	66.56
389.609	107.52
389.818	50.18
390.028	11.26
390.238	25.6
390.447	5.12
390.657	17.41
390.867	-1.02
391.076	-31.74
391.286	91.13
391.496	78.85
391.705	-33.79
391.915	82.94
392.125	87.04
392.334	-48.13
392.544	150.53
392.753	70.65
392.963	-25.6
393.172	-62.46
393.382	-29.7
393.591	246.78
393.801	48.13
394.01	168.96
394.22	54.27
394.429	-25.6
394.639	-23.55
394.848	66.56
395.058	41.98
395.267	-1.02
395.477	82.94
395.686	52.22
395.895	138.24
396.105	97.28
396.314	107.52
396.524	5.12
396.733	-9.22
396.942	37.89
397.152	82.94
397.361	132.09
397.57	52.22
397.78	33.79
397.989	54.27
398.198	78.85
398.407	-13.31
398.617	-23.55
398.826	9.22
399.035	60.42
399.244	162.81
399.453	72.7
399.663	-7.17
399.872	52.22
400.081	-64.51
400.29	125.95
400.499	-21.5
400.708	105.47
400.917	39.94
401.127	37.89
401.336	17.41
401.545	152.57
401.754	181.25
401.963	33.79
402.172	-3.07
402.381	-21.5
402.59	11.26
402.799	80.89
403.008	62.46
403.217	70.65
403.426	160.77
403.635	-56.32
403.844	27.65
404.053	7.17
404.262	-5.12
404.471	191.49
404.68	80.89
404.888	33.79
405.097	7.17
405.306	121.85
405.515	87.04
405.724	-33.79
405.933	130.05
406.142	37.89
406.35	109.57
406.559	74.75
406.768	29.7
406.977	87.04
407.185	130.05
407.394	134.14
407.603	-97.28
407.812	113.66
408.02	130.05
408.229	58.37
408.438	29.7
408.646	11.26
408.855	70.65
409.064	68.61
409.272	31.74
409.481	125.95
409.69	-64.51
409.898	50.18
410.107	119.81
410.315	17.41
410.524	-54.27
410.733	-41.98
410.941	52.22
411.15	160.77
411.358	56.32
411.567	46.08
411.775	-17.41
411.984	82.94
412.192	95.23
412.401	-19.46
412.609	187.39
412.818	64.51
413.026	60.42
413.234	99.33
413.443	68.61
413.651	-15.36
413.86	-48.13
414.068	144.38
414.276	74.75
414.485	-66.56
414.693	121.85
414.901	185.34
415.11	87.04
415.318	-3.07
415.526	56.32
415.734	76.8
415.943	54.27
416.151	136.19
416.359	23.55
416.567	29.7
416.776	76.8
416.984	130.05
417.192	228.35
417.4	33.79
417.608	62.46
417.817	-29.7
418.025	56.32
418.233	203.77
418.441	-37.89
418.649	-41.98
418.857	21.5
419.065	177.15
419.273	-50.18
419.481	23.55
419.689	-21.5
419.897	48.13
420.105	25.6
420.313	95.23
420.521	84.99
420.729	111.61
420.937	-37.89
421.145	-17.41
421.353	164.86
421.561	150.53
421.769	105.47
421.977	19.46
422.185	48.13
422.393	97.28
422.601	136.19
422.809	78.85
423.017	5.12
423.224	84.99
423.432	84.99
423.64	-23.55
423.848	162.81
424.056	-5.12
424.263	37.89
424.471	78.85
424.679	134.14
424.887	-9.22
425.094	78.85
425.302	99.33
425.51	17.41
425.718	46.08
425.925	39.94
426.133	-25.6
426.341	160.77
426.548	17.41
426.756	31.74
426.964	130.05
427.171	3.07
427.379	105.47
427.586	-23.55
427.794	7.17
428.001	115.71
428.209	101.37
428.417	109.57
428.624	80.89
428.832	97.28
429.039	82.94
429.247	132.09
429.454	101.37
429.662	214.01
429.869	173.05
430.076	76.8
430.284	93.18
430.491	226.3
430.699	103.42
430.906	224.25
431.114	84.99
431.321	111.61
431.528	91.13
431.736	101.37
431.943	148.48
432.15	209.92
432.358	125.95
432.565	248.83
432.772	-25.6
432.979	162.81
433.187	220.16
433.394	226.3
433.601	140.29
433.808	238.59
434.016	238.59
434.223	203.77
434.43	171.01
434.637	252.92
434.844	232.44
435.052	228.35
435.259	209.92
435.466	216.06
435.673	246.78
435.88	228.35
436.087	349.18
436.294	267.26
436.501	287.74
436.708	191.49
436.915	246.78
437.122	347.13
437.329	211.96
437.537	349.18
437.743	373.75
437.95	381.95
438.157	390.14
438.364	316.41
438.571	404.47
438.778	343.03
438.985	347.13
439.192	435.19
439.399	340.99
439.606	371.71
439.813	435.19
440.02	527.35
440.227	545.78
440.433	533.5
440.64	537.59
440.847	437.24
441.054	586.74
441.261	668.66
441.467	556.02
441.674	451.58
441.881	607.22
442.088	644.09
442.294	689.14
442.501	707.57
442.708	742.39
442.914	789.49
443.121	846.84
443.328	799.73
443.534	838.64
443.741	832.5
443.948	703.48
444.154	924.66
444.361	1039.34
444.568	920.56
444.774	951.28
444.981	867.31
445.187	1111.02
445.394	1043.44
445.6	1041.39
445.807	1166.32
446.013	1143.79
446.22	1076.21
446.426	1362.92
446.633	1502.19
446.839	1481.71
447.046	1240.05
447.252	1483.75
447.459	1510.38
447.665	1418.22
447.871	1682.41
448.078	1852.39
448.284	1682.41
448.491	1846.24
448.697	1942.5
448.903	1899.49
449.11	2040.8
449.316	1919.97
449.522	2282.46
449.728	2247.65
449.935	2341.85
450.141	2368.48
450.347	2690.01
450.553	2509.79
450.76	2679.77
450.966	2726.87
451.172	2810.84
451.378	2923.48
451.584	3027.92
451.791	3191.76
451.997	3212.24
452.203	3470.28
452.409	3380.17
452.615	3646.41
452.821	3613.64
453.027	3521.48
453.233	4213.7
453.44	4062.15
453.646	4121.54
453.852	4418.49
454.058	4504.51
454.264	4461.5
454.47	4891.57
454.676	4993.97
454.882	5446.57
455.088	5135.28
455.294	5460.91
455.5	5874.6
455.705	6071.2
455.911	6028.2
456.117	6370.21
456.323	6509.47
456.529	6607.77
456.735	7017.36
456.941	7474.06
457.147	7691.15
457.352	7652.24
457.558	8037.25
457.764	8715.13
457.97	8713.08
458.176	8915.83
458.381	9395.06
458.587	9767.79
458.793	10013.54
458.999	10152.81
459.204	11408.21
459.41	11930.44
459.616	11780.94
459.821	12331.84
460.027	12944.19
460.233	13497.14
460.438	13667.12
460.644	14132.01
460.85	14320.42
461.055	15078.17
461.261	15909.65
461.466	15362.84
461.672	15737.62
461.878	17744.63
462.083	17320.7
462.289	17828.59
462.494	18604.77
462.7	18653.92
462.905	18873.06
463.111	20583.11
463.316	21596.85
463.522	21875.38
463.727	22577.83
463.932	23591.58
464.138	24568.46
464.343	25363.07
464.549	25281.15
464.754	27116.13
464.959	27701.85
465.165	28258.9
465.37	28437.07
465.575	28111.44
465.781	30085.68
465.986	30757.42
466.191	30302.77
466.397	30929.45
466.602	29854.26
466.807	31658.52
467.012	32356.88
467.218	32885.26
467.423	33012.23
467.628	33942.01
467.833	35514.85
468.038	35099.11
468.244	34140.66
468.449	36067.8
468.654	35308.01
468.859	35076.58
469.064	35322.34
