Data from USB4F104151__242__11-06-36-113.txt Node

Date: Wed Feb 26 11:06:36 EST 2025
User: louis
Spectrometer: USB4F10415
Trigger mode: 4
Integration Time (sec): 1.000000E-1
Scans to average: 1
Electric dark correction enabled: true
Nonlinearity correction enabled: false
Boxcar width: 0
XAxis mode: Wavelengths
Number of Pixels in Spectrum: 3648
>>>>>Begin Spectral Data<<<<<
178.204	-453.28
178.424	-453.28
178.644	-453.28
178.864	-414.37
179.084	-381.6
179.304	-2.73
179.524	-39.59
179.744	32.08
179.964	54.61
180.184	38.23
180.404	19.8
180.624	-49.83
180.844	19.8
181.064	-76.46
181.283	60.76
181.503	-92.84
181.723	36.18
181.943	-88.75
182.163	116.05
182.383	36.18
182.602	66.9
182.822	146.77
183.042	-4.78
183.262	40.28
183.482	1.37
183.701	-27.31
183.921	81.24
184.141	23.89
184.361	114
184.58	144.72
184.8	60.76
185.02	-53.93
185.239	136.53
185.459	64.85
185.679	107.86
185.898	-37.55
186.118	93.52
186.338	42.32
186.557	148.82
186.777	-2.73
186.997	-15.02
187.216	27.99
187.436	157.01
187.655	-23.21
187.875	101.72
188.095	-23.21
188.314	103.76
188.534	56.66
188.753	-70.31
188.973	114
189.192	161.11
189.412	-17.07
189.631	48.47
189.851	89.43
190.07	118.1
190.29	-82.6
190.509	-39.59
190.729	25.94
190.948	73.04
191.168	206.16
191.387	118.1
191.607	-29.35
191.826	116.05
192.045	54.61
192.265	17.75
192.484	71
192.704	21.84
192.923	-17.07
193.142	157.01
193.362	120.15
193.581	118.1
193.8	60.76
194.02	105.81
194.239	-17.07
194.458	52.56
194.678	44.37
194.897	25.94
195.116	36.18
195.335	87.38
195.555	15.7
195.774	-12.97
195.993	167.25
196.212	1.37
196.432	48.47
196.651	99.67
196.87	44.37
197.089	206.16
197.308	50.52
197.528	130.39
197.747	-23.21
197.966	122.2
198.185	40.28
198.404	-0.68
198.623	181.59
198.842	120.15
199.062	91.48
199.281	97.62
199.5	-8.87
199.719	126.29
199.938	-4.78
200.157	85.33
200.376	89.43
200.595	138.58
200.814	138.58
201.033	56.66
201.252	134.48
201.471	21.84
201.69	120.15
201.909	50.52
202.128	81.24
202.347	109.91
202.566	83.28
202.785	-96.94
203.004	-15.02
203.223	224.59
203.442	62.8
203.661	-6.83
203.879	32.08
204.098	157.01
204.317	-86.7
204.536	101.72
204.755	111.96
204.974	50.52
205.193	-37.55
205.411	171.35
205.63	114
205.849	81.24
206.068	-33.45
206.287	66.9
206.505	126.29
206.724	-62.12
206.943	75.09
207.162	-35.5
207.381	64.85
207.599	54.61
207.818	34.13
208.037	-17.07
208.255	44.37
208.474	38.23
208.693	132.44
208.911	3.41
209.13	124.24
209.349	101.72
209.567	60.76
209.786	46.42
210.005	114
210.223	48.47
210.442	-144.04
210.661	36.18
210.879	66.9
211.098	9.56
211.316	95.57
211.535	95.57
211.753	85.33
211.972	107.86
212.191	87.38
212.409	1.37
212.628	150.87
212.846	17.75
213.065	132.44
213.283	62.8
213.502	-43.69
213.72	91.48
213.938	52.56
214.157	52.56
214.375	144.72
214.594	-6.83
214.812	116.05
215.031	15.7
215.249	5.46
215.467	44.37
215.686	48.47
215.904	36.18
216.122	1.37
216.341	99.67
216.559	54.61
216.778	111.96
216.996	81.24
217.214	32.08
217.432	-25.26
217.651	-12.97
217.869	40.28
218.087	93.52
218.306	5.46
218.524	60.76
218.742	27.99
218.96	111.96
219.179	87.38
219.397	-12.97
219.615	210.26
219.833	132.44
220.051	-43.69
220.27	116.05
220.488	171.35
220.706	114
220.924	-33.45
221.142	7.51
221.36	32.08
221.578	40.28
221.796	48.47
222.015	68.95
222.233	50.52
222.451	208.21
222.669	-82.6
222.887	97.62
223.105	56.66
223.323	46.42
223.541	-45.74
223.759	134.48
223.977	32.08
224.195	62.8
224.413	25.94
224.631	13.65
224.849	44.37
225.067	179.54
225.285	50.52
225.503	21.84
225.721	-62.12
225.939	23.89
226.157	34.13
226.375	220.5
226.592	34.13
226.81	46.42
227.028	132.44
227.246	181.59
227.464	36.18
227.682	95.57
227.9	93.52
228.117	44.37
228.335	71
228.553	30.04
228.771	73.04
228.989	17.75
229.206	120.15
229.424	101.72
229.642	-88.75
229.86	1.37
230.077	161.11
230.295	52.56
230.513	114
230.731	-10.92
230.948	118.1
231.166	197.97
231.384	-15.02
231.601	17.75
231.819	224.59
232.037	-96.94
232.254	-70.31
232.472	5.46
232.689	-25.26
232.907	83.28
233.125	38.23
233.342	19.8
233.56	9.56
233.777	85.33
233.995	-33.45
234.213	146.77
234.43	124.24
234.648	77.14
234.865	32.08
235.083	140.63
235.3	46.42
235.518	66.9
235.735	136.53
235.953	79.19
236.17	19.8
236.388	40.28
236.605	62.8
236.822	114
237.04	185.68
237.257	52.56
237.475	-39.59
237.692	34.13
237.909	93.52
238.127	25.94
238.344	144.72
238.562	87.38
238.779	-27.31
238.996	-41.64
239.214	19.8
239.431	99.67
239.648	30.04
239.865	91.48
240.083	132.44
240.3	58.71
240.517	-2.73
240.735	17.75
240.952	114
241.169	32.08
241.386	130.39
241.603	38.23
241.821	-37.55
242.038	89.43
242.255	89.43
242.472	15.7
242.689	38.23
242.907	56.66
243.124	171.35
243.341	13.65
243.558	-35.5
243.775	27.99
243.992	-58.03
244.209	79.19
244.426	138.58
244.643	-31.4
244.86	34.13
245.078	144.72
245.295	83.28
245.512	-21.16
245.729	30.04
245.946	99.67
246.163	27.99
246.38	11.61
246.597	85.33
246.814	15.7
247.031	-35.5
247.248	-27.31
247.464	62.8
247.681	23.89
247.898	77.14
248.115	81.24
248.332	-53.93
248.549	179.54
248.766	204.11
248.983	71
249.2	68.95
249.417	85.33
249.633	11.61
249.85	107.86
250.067	-47.79
250.284	77.14
250.501	27.99
250.717	83.28
250.934	-25.26
251.151	21.84
251.368	1.37
251.585	89.43
251.801	46.42
252.018	42.32
252.235	111.96
252.451	-58.03
252.668	75.09
252.885	122.2
253.102	40.28
253.318	-17.07
253.535	-4.78
253.752	-10.92
253.968	-2.73
254.185	-43.69
254.401	48.47
254.618	60.76
254.835	-113.32
255.051	79.19
255.268	77.14
255.484	93.52
255.701	64.85
255.917	79.19
256.134	-90.79
256.351	-10.92
256.567	-21.16
256.784	46.42
257	-62.12
257.217	142.68
257.433	23.89
257.65	58.71
257.866	197.97
258.082	-62.12
258.299	-27.31
258.515	81.24
258.732	30.04
258.948	38.23
259.165	-2.73
259.381	-6.83
259.597	3.41
259.814	42.32
260.03	62.8
260.246	103.76
260.463	154.96
260.679	79.19
260.895	77.14
261.112	97.62
261.328	48.47
261.544	-47.79
261.761	200.02
261.977	-12.97
262.193	-8.87
262.409	120.15
262.626	5.46
262.842	13.65
263.058	-33.45
263.274	64.85
263.49	97.62
263.707	132.44
263.923	128.34
264.139	-37.55
264.355	64.85
264.571	161.11
264.787	114
265.004	154.96
265.22	-10.92
265.436	54.61
265.652	42.32
265.868	15.7
266.084	-17.07
266.3	46.42
266.516	-49.83
266.732	52.56
266.948	-4.78
267.164	32.08
267.38	140.63
267.596	-17.07
267.812	204.11
268.028	87.38
268.244	54.61
268.46	-41.64
268.676	17.75
268.892	30.04
269.108	-27.31
269.324	-64.17
269.54	-25.26
269.756	95.57
269.972	-53.93
270.188	36.18
270.403	-90.79
270.619	-17.07
270.835	23.89
271.051	21.84
271.267	-4.78
271.483	-21.16
271.698	71
271.914	52.56
272.13	19.8
272.346	-21.16
272.562	87.38
272.777	140.63
272.993	-29.35
273.209	-43.69
273.425	95.57
273.64	-76.46
273.856	107.86
274.072	-51.88
274.287	23.89
274.503	97.62
274.719	118.1
274.934	-72.36
275.15	-43.69
275.366	1.37
275.581	-47.79
275.797	40.28
276.012	9.56
276.228	15.7
276.444	85.33
276.659	15.7
276.875	-23.21
277.09	42.32
277.306	-47.79
277.521	122.2
277.737	25.94
277.952	91.48
278.168	73.04
278.383	50.52
278.599	64.85
278.814	62.8
279.03	109.91
279.245	126.29
279.461	95.57
279.676	142.68
279.892	-51.88
280.107	-21.16
280.322	-31.4
280.538	-37.55
280.753	-41.64
280.969	79.19
281.184	44.37
281.399	163.15
281.615	13.65
281.83	89.43
282.045	52.56
282.26	3.41
282.476	21.84
282.691	40.28
282.906	1.37
283.122	27.99
283.337	-29.35
283.552	9.56
283.767	64.85
283.983	124.24
284.198	-12.97
284.413	68.95
284.628	-17.07
284.843	13.65
285.058	60.76
285.274	30.04
285.489	13.65
285.704	81.24
285.919	-62.12
286.134	-2.73
286.349	89.43
286.564	-64.17
286.779	173.39
286.995	-31.4
287.21	36.18
287.425	87.38
287.64	15.7
287.855	48.47
288.07	-103.08
288.285	87.38
288.5	144.72
288.715	116.05
288.93	116.05
289.145	-17.07
289.36	50.52
289.575	-6.83
289.79	202.07
290.004	5.46
290.219	91.48
290.434	-17.07
290.649	-35.5
290.864	-15.02
291.079	15.7
291.294	73.04
291.509	126.29
291.724	42.32
291.938	17.75
292.153	-0.68
292.368	3.41
292.583	50.52
292.798	77.14
293.012	118.1
293.227	56.66
293.442	73.04
293.657	140.63
293.871	130.39
294.086	95.57
294.301	220.5
294.516	95.57
294.73	48.47
294.945	40.28
295.16	21.84
295.374	66.9
295.589	40.28
295.804	-27.31
296.018	48.47
296.233	111.96
296.447	13.65
296.662	-29.35
296.877	99.67
297.091	109.91
297.306	48.47
297.52	32.08
297.735	91.48
297.949	17.75
298.164	89.43
298.378	56.66
298.593	7.51
298.807	27.99
299.022	56.66
299.236	89.43
299.451	-49.83
299.665	107.86
299.88	1.37
300.094	83.28
300.309	62.8
300.523	89.43
300.737	-23.21
300.952	91.48
301.166	81.24
301.381	-25.26
301.595	-66.22
301.809	54.61
302.024	30.04
302.238	-66.22
302.452	77.14
302.667	105.81
302.881	216.4
303.095	40.28
303.309	-8.87
303.524	-29.35
303.738	-41.64
303.952	-17.07
304.166	38.23
304.381	-80.55
304.595	101.72
304.809	15.7
305.023	48.47
305.237	-6.83
305.452	64.85
305.666	9.56
305.88	73.04
306.094	68.95
306.308	27.99
306.522	32.08
306.736	66.9
306.95	107.86
307.164	36.18
307.379	42.32
307.593	175.44
307.807	71
308.021	93.52
308.235	109.91
308.449	-45.74
308.663	-8.87
308.877	314.7
309.091	-15.02
309.305	103.76
309.519	-55.98
309.733	132.44
309.947	9.56
310.161	93.52
310.374	154.96
310.588	134.48
310.802	-21.16
311.016	46.42
311.23	87.38
311.444	-37.55
311.658	89.43
311.872	87.38
312.085	140.63
312.299	224.59
312.513	163.15
312.727	13.65
312.941	-2.73
313.154	-6.83
313.368	120.15
313.582	7.51
313.796	81.24
314.009	27.99
314.223	85.33
314.437	44.37
314.651	126.29
314.864	21.84
315.078	50.52
315.292	-21.16
315.505	-12.97
315.719	52.56
315.933	91.48
316.146	-51.88
316.36	-74.41
316.573	38.23
316.787	126.29
317.001	68.95
317.214	-105.13
317.428	140.63
317.641	-86.7
317.855	21.84
318.068	46.42
318.282	118.1
318.495	185.68
318.709	77.14
318.922	9.56
319.136	142.68
319.349	144.72
319.563	19.8
319.776	89.43
319.99	-58.03
320.203	15.7
320.417	93.52
320.63	87.38
320.843	132.44
321.057	9.56
321.27	89.43
321.483	91.48
321.697	163.15
321.91	7.51
322.124	116.05
322.337	122.2
322.55	-21.16
322.763	95.57
322.977	9.56
323.19	21.84
323.403	107.86
323.617	62.8
323.83	132.44
324.043	79.19
324.256	-31.4
324.469	-55.98
324.683	99.67
324.896	21.84
325.109	-60.07
325.322	-162.47
325.535	52.56
325.748	17.75
325.962	-8.87
326.175	91.48
326.388	107.86
326.601	52.56
326.814	-17.07
327.027	50.52
327.24	152.91
327.453	36.18
327.666	71
327.879	48.47
328.092	54.61
328.305	60.76
328.518	48.47
328.731	52.56
328.944	42.32
329.157	114
329.37	-37.55
329.583	173.39
329.796	154.96
330.009	-45.74
330.222	30.04
330.435	89.43
330.648	7.51
330.861	75.09
331.073	48.47
331.286	114
331.499	23.89
331.712	-35.5
331.925	81.24
332.138	87.38
332.35	136.53
332.563	87.38
332.776	77.14
332.989	-19.11
333.202	-33.45
333.414	17.75
333.627	15.7
333.84	38.23
334.053	50.52
334.265	-31.4
334.478	-0.68
334.691	1.37
334.903	64.85
335.116	-19.11
335.329	-55.98
335.541	5.46
335.754	118.1
335.966	-8.87
336.179	27.99
336.392	-15.02
336.604	3.41
336.817	75.09
337.029	54.61
337.242	77.14
337.454	46.42
337.667	56.66
337.88	148.82
338.092	46.42
338.305	50.52
338.517	27.99
338.729	89.43
338.942	101.72
339.154	-27.31
339.367	-121.51
339.579	109.91
339.792	-39.59
340.004	48.47
340.217	27.99
340.429	27.99
340.641	30.04
340.854	-12.97
341.066	21.84
341.278	109.91
341.491	216.4
341.703	5.46
341.915	7.51
342.128	95.57
342.34	122.2
342.552	-17.07
342.764	46.42
342.977	17.75
343.189	3.41
343.401	42.32
343.613	-43.69
343.826	66.9
344.038	-39.59
344.25	73.04
344.462	-41.64
344.674	11.61
344.886	52.56
345.099	105.81
345.311	48.47
345.523	21.84
345.735	-125.61
345.947	42.32
346.159	44.37
346.371	15.7
346.583	-27.31
346.795	191.83
347.007	40.28
347.219	101.72
347.431	23.89
347.643	175.44
347.855	-43.69
348.067	140.63
348.279	-10.92
348.491	52.56
348.703	40.28
348.915	-60.07
349.127	13.65
349.339	111.96
349.551	42.32
349.763	183.63
349.975	109.91
350.187	19.8
350.399	118.1
350.61	91.48
350.822	-4.78
351.034	15.7
351.246	114
351.458	93.52
351.669	66.9
351.881	77.14
352.093	103.76
352.305	109.91
352.517	27.99
352.728	109.91
352.94	38.23
353.152	97.62
353.363	-49.83
353.575	50.52
353.787	101.72
353.999	107.86
354.21	236.88
354.422	1.37
354.633	83.28
354.845	95.57
355.057	34.13
355.268	11.61
355.48	93.52
355.692	-70.31
355.903	15.7
356.115	25.94
356.326	-84.65
356.538	165.2
356.749	36.18
356.961	116.05
357.172	46.42
357.384	-29.35
357.595	238.93
357.807	-4.78
358.018	11.61
358.23	97.62
358.441	191.83
358.653	152.91
358.864	-10.92
359.075	105.81
359.287	87.38
359.498	89.43
359.709	32.08
359.921	42.32
360.132	77.14
360.344	36.18
360.555	-23.21
360.766	-17.07
360.977	-33.45
361.189	146.77
361.4	11.61
361.611	175.44
361.823	46.42
362.034	19.8
362.245	-62.12
362.456	21.84
362.667	126.29
362.879	-55.98
363.09	62.8
363.301	11.61
363.512	52.56
363.723	-45.74
363.935	-15.02
364.146	126.29
364.357	13.65
364.568	48.47
364.779	-10.92
364.99	208.21
365.201	1.37
365.412	85.33
365.623	-41.64
365.834	73.04
366.045	48.47
366.256	48.47
366.467	116.05
366.678	27.99
366.889	89.43
367.1	23.89
367.311	62.8
367.522	17.75
367.733	58.71
367.944	126.29
368.155	9.56
368.366	103.76
368.577	134.48
368.788	144.72
368.999	-41.64
369.209	27.99
369.42	118.1
369.631	208.21
369.842	50.52
370.053	36.18
370.264	89.43
370.474	-4.78
370.685	32.08
370.896	75.09
371.107	83.28
371.317	93.52
371.528	-21.16
371.739	144.72
371.95	64.85
372.16	58.71
372.371	-29.35
372.582	83.28
372.792	75.09
373.003	103.76
373.214	19.8
373.424	58.71
373.635	-64.17
373.846	159.06
374.056	40.28
374.267	142.68
374.477	15.7
374.688	-94.89
374.898	126.29
375.109	134.48
375.319	54.61
375.53	32.08
375.74	146.77
375.951	7.51
376.161	62.8
376.372	111.96
376.582	40.28
376.793	83.28
377.003	-2.73
377.214	19.8
377.424	109.91
377.635	42.32
377.845	-39.59
378.055	132.44
378.266	-2.73
378.476	85.33
378.686	-4.78
378.897	46.42
379.107	97.62
379.317	-12.97
379.528	-45.74
379.738	120.15
379.948	-25.26
380.158	95.57
380.369	89.43
380.579	107.86
380.789	7.51
380.999	107.86
381.21	171.35
381.42	138.58
381.63	36.18
381.84	118.1
382.05	109.91
382.261	85.33
382.471	34.13
382.681	-8.87
382.891	134.48
383.101	-10.92
383.311	40.28
383.521	17.75
383.731	87.38
383.941	132.44
384.151	40.28
384.361	38.23
384.571	58.71
384.781	148.82
384.991	247.12
385.201	208.21
385.411	167.25
385.621	71
385.831	64.85
386.041	11.61
386.251	79.19
386.461	161.11
386.671	79.19
386.881	36.18
387.091	5.46
387.301	116.05
387.511	30.04
387.72	50.52
387.93	56.66
388.14	21.84
388.35	97.62
388.56	38.23
388.769	118.1
388.979	25.94
389.189	3.41
389.399	95.57
389.609	54.61
389.818	114
390.028	138.58
390.238	77.14
390.447	-2.73
390.657	81.24
390.867	7.51
391.076	-33.45
391.286	30.04
391.496	-23.21
391.705	64.85
391.915	144.72
392.125	118.1
392.334	-6.83
392.544	136.53
392.753	-41.64
392.963	-76.46
393.172	79.19
393.382	-35.5
393.591	150.87
393.801	7.51
394.01	109.91
394.22	58.71
394.429	38.23
394.639	-17.07
394.848	152.91
395.058	71
395.267	89.43
395.477	48.47
395.686	60.76
395.895	130.39
396.105	163.15
396.314	152.91
396.524	75.09
396.733	-12.97
396.942	146.77
397.152	48.47
397.361	167.25
397.57	64.85
397.78	-8.87
397.989	85.33
398.198	288.08
398.407	68.95
398.617	3.41
398.826	120.15
399.035	99.67
399.244	81.24
399.453	-10.92
399.663	105.81
399.872	52.56
400.081	-0.68
400.29	89.43
400.499	-10.92
400.708	118.1
400.917	89.43
401.127	11.61
401.336	5.46
401.545	191.83
401.754	148.82
401.963	97.62
402.172	54.61
402.381	23.89
402.59	5.46
402.799	54.61
403.008	105.81
403.217	-21.16
403.426	68.95
403.635	-37.55
403.844	-8.87
404.053	34.13
404.262	5.46
404.471	109.91
404.68	-4.78
404.888	-8.87
405.097	44.37
405.306	77.14
405.515	83.28
405.724	27.99
405.933	105.81
406.142	62.8
406.35	167.25
406.559	66.9
406.768	42.32
406.977	150.87
407.185	95.57
407.394	122.2
407.603	-84.65
407.812	85.33
408.02	161.11
408.229	87.38
408.438	38.23
408.646	-86.7
408.855	73.04
409.064	58.71
409.272	-10.92
409.481	89.43
409.69	-68.27
409.898	93.52
410.107	105.81
410.315	79.19
410.524	-21.16
410.733	103.76
410.941	85.33
411.15	93.52
411.358	132.44
411.567	167.25
411.775	56.66
411.984	95.57
412.192	200.02
412.401	17.75
412.609	230.74
412.818	91.48
413.026	38.23
413.234	85.33
413.443	56.66
413.651	7.51
413.86	-2.73
414.068	175.44
414.276	177.49
414.485	54.61
414.693	245.07
414.901	152.91
415.11	126.29
415.318	44.37
415.526	81.24
415.734	89.43
415.943	103.76
416.151	73.04
416.359	56.66
416.567	60.76
416.776	134.48
416.984	107.86
417.192	224.59
417.4	15.7
417.608	42.32
417.817	-25.26
418.025	99.67
418.233	222.55
418.441	62.8
418.649	25.94
418.857	-0.68
419.065	150.87
419.273	62.8
419.481	58.71
419.689	93.52
419.897	42.32
420.105	40.28
420.313	138.58
420.521	189.78
420.729	161.11
420.937	48.47
421.145	-0.68
421.353	83.28
421.561	165.2
421.769	146.77
421.977	75.09
422.185	140.63
422.393	5.46
422.601	202.07
422.809	64.85
423.017	89.43
423.224	75.09
423.432	132.44
423.64	75.09
423.848	136.53
424.056	83.28
424.263	107.86
424.471	81.24
424.679	154.96
424.887	60.76
425.094	107.86
425.302	62.8
425.51	5.46
425.718	161.11
425.925	-2.73
426.133	38.23
426.341	232.79
426.548	68.95
426.756	77.14
426.964	99.67
427.171	83.28
427.379	138.58
427.586	77.14
427.794	181.59
428.001	130.39
428.209	42.32
428.417	159.06
428.624	175.44
428.832	171.35
429.039	105.81
429.247	44.37
429.454	132.44
429.662	232.79
429.869	173.39
430.076	181.59
430.284	187.73
430.491	200.02
430.699	148.82
430.906	181.59
431.114	195.92
431.321	245.07
431.528	236.88
431.736	140.63
431.943	183.63
432.15	132.44
432.358	173.39
432.565	255.31
432.772	91.48
432.979	220.5
433.187	157.01
433.394	204.11
433.601	214.35
433.808	238.93
434.016	245.07
434.223	271.7
434.43	294.22
434.637	290.13
434.844	363.86
435.052	275.79
435.259	273.75
435.466	283.98
435.673	281.94
435.88	388.43
436.087	357.71
436.294	298.32
436.501	378.19
436.708	363.86
436.915	308.56
437.122	429.39
437.329	329.04
437.537	382.29
437.743	374.1
437.95	496.97
438.157	507.21
438.364	361.81
438.571	468.3
438.778	458.06
438.985	523.6
439.192	535.89
439.399	509.26
439.606	525.65
439.813	609.61
440.02	691.53
440.227	732.49
440.433	677.19
440.64	640.33
440.847	570.7
441.054	685.39
441.261	832.84
441.467	705.87
441.674	609.61
441.881	775.5
442.088	738.63
442.294	894.28
442.501	914.76
442.708	896.33
442.914	902.47
443.121	996.68
443.328	996.68
443.534	1056.07
443.741	988.49
443.948	925
444.154	1197.38
444.361	1240.39
444.568	1271.11
444.774	1232.19
444.981	1228.1
445.187	1350.98
445.394	1432.9
445.6	1361.22
445.807	1512.77
446.013	1387.84
446.22	1467.71
446.426	1590.59
446.633	1666.36
446.839	1838.39
447.046	1701.18
447.252	1914.17
447.459	1951.03
447.665	1897.78
447.871	2186.55
448.078	2217.27
448.284	2168.12
448.491	2354.48
448.697	2491.7
448.903	2487.6
449.11	2604.33
449.316	2592.05
449.522	2710.83
449.728	2762.03
449.935	2960.68
450.141	2932.01
450.347	3251.49
450.553	3140.9
450.76	3255.59
450.966	3349.79
451.172	3530.02
451.378	3396.9
451.584	3624.22
451.791	4095.25
451.997	4144.41
452.203	4128.02
452.409	4324.63
452.615	4625.68
452.821	4404.5
453.027	4422.93
453.233	4889.87
453.44	4863.24
453.646	5223.69
453.852	5395.72
454.058	5657.85
454.264	5840.12
454.47	6282.49
454.676	6292.73
454.882	6608.11
455.088	6460.66
455.294	6817.01
455.5	7312.61
455.705	7570.66
455.911	7628
456.117	7976.16
456.323	8197.34
456.529	8158.42
456.735	8871.12
456.941	8959.18
457.147	9630.91
457.352	9653.44
457.558	9868.48
457.764	10521.78
457.97	10683.57
458.176	11279.53
458.381	11709.6
458.587	11898.02
458.793	12534.93
458.999	12610.71
459.204	14115.97
459.41	14793.84
459.616	14832.75
459.821	15189.1
460.027	16172.13
460.233	16854.1
460.438	17083.47
460.644	17757.25
460.85	18060.35
461.055	18824.25
461.261	19596.33
461.466	19301.42
461.672	19510.32
461.878	22156.29
462.083	21718.03
462.289	21949.45
462.494	22844.41
462.7	23182.32
462.905	23548.91
463.111	25349.07
463.316	27050.94
463.522	27057.08
463.727	27904.94
463.932	28816.29
464.138	29938.57
464.343	31275.9
464.549	31343.48
464.754	33416.02
464.959	34499.4
465.165	35208
465.37	34915.14
465.575	34876.23
465.781	37620.5
465.986	38234.89
466.191	37583.64
466.397	38257.42
466.602	37102.37
466.807	39314.17
467.012	40104.69
467.218	40387.31
467.423	40755.94
467.628	41913.05
467.833	44171.96
468.038	42965.7
468.244	42330.83
468.449	44331.7
468.654	43410.11
468.859	43461.31
469.064	43645.63
