Data from USB4F104151__209__11-05-44-530.txt Node

Date: Wed Feb 26 11:05:44 EST 2025
User: louis
Spectrometer: USB4F10415
Trigger mode: 4
Integration Time (sec): 1.000000E-1
Scans to average: 1
Electric dark correction enabled: true
Nonlinearity correction enabled: false
Boxcar width: 0
XAxis mode: Wavelengths
Number of Pixels in Spectrum: 3648
>>>>>Begin Spectral Data<<<<<
178.204	-443.04
178.424	-443.04
178.644	-443.04
178.864	-412.32
179.084	-400.04
179.304	-8.87
179.524	-23.21
179.744	56.66
179.964	68.95
180.184	7.51
180.404	30.04
180.624	-49.83
180.844	-31.4
181.064	-47.79
181.283	-0.68
181.503	-29.35
181.723	27.99
181.943	-107.18
182.163	138.58
182.383	-31.4
182.602	-8.87
182.822	144.72
183.042	114
183.262	-51.88
183.482	-70.31
183.701	13.65
183.921	44.37
184.141	-39.59
184.361	75.09
184.58	3.41
184.8	30.04
185.02	13.65
185.239	73.04
185.459	75.09
185.679	73.04
185.898	25.94
186.118	50.52
186.338	136.53
186.557	95.57
186.777	-37.55
186.997	-45.74
187.216	50.52
187.436	234.83
187.655	107.86
187.875	136.53
188.095	3.41
188.314	120.15
188.534	163.15
188.753	11.61
188.973	30.04
189.192	200.02
189.412	-12.97
189.631	50.52
189.851	21.85
190.07	228.69
190.29	-8.87
190.509	-21.16
190.729	-29.35
190.948	150.87
191.168	275.79
191.387	109.91
191.607	23.89
191.826	77.14
192.045	-17.07
192.265	-10.92
192.484	111.96
192.704	-37.55
192.923	-80.55
193.142	167.25
193.362	66.9
193.581	189.78
193.8	36.18
194.02	71
194.239	-21.16
194.458	89.43
194.678	11.61
194.897	38.23
195.116	13.65
195.335	75.09
195.555	81.24
195.774	-72.36
195.993	136.53
196.212	-12.97
196.432	36.18
196.651	44.37
196.87	64.85
197.089	224.59
197.308	111.96
197.528	105.81
197.747	34.13
197.966	5.46
198.185	136.53
198.404	7.51
198.623	54.61
198.842	95.57
199.062	107.86
199.281	122.2
199.5	27.99
199.719	89.43
199.938	40.28
200.157	46.42
200.376	99.67
200.595	122.2
200.814	103.76
201.033	11.61
201.252	132.44
201.471	75.09
201.69	46.42
201.909	66.9
202.128	134.48
202.347	95.57
202.566	27.99
202.785	-43.69
203.004	-10.92
203.223	214.35
203.442	7.51
203.661	-62.12
203.879	93.52
204.098	167.25
204.317	-84.65
204.536	128.34
204.755	95.57
204.974	171.35
205.193	-10.92
205.411	109.91
205.63	103.76
205.849	122.2
206.068	15.7
206.287	-8.87
206.505	148.82
206.724	62.8
206.943	11.61
207.162	11.61
207.381	23.89
207.599	9.56
207.818	-45.74
208.037	11.61
208.255	17.75
208.474	13.65
208.693	66.9
208.911	-8.87
209.13	25.94
209.349	64.85
209.567	5.46
209.786	46.42
210.005	66.9
210.223	48.47
210.442	-80.55
210.661	15.7
210.879	89.43
211.098	11.61
211.316	5.46
211.535	103.76
211.753	23.89
211.972	21.85
212.191	13.65
212.409	38.23
212.628	25.94
212.846	-98.99
213.065	114
213.283	152.91
213.502	83.28
213.72	11.61
213.938	42.32
214.157	30.04
214.375	126.29
214.594	77.14
214.812	32.08
215.031	54.61
215.249	17.75
215.467	27.99
215.686	38.23
215.904	93.52
216.122	68.95
216.341	157.01
216.559	83.28
216.778	132.44
216.996	66.9
217.214	17.75
217.432	-43.69
217.651	-86.7
217.869	99.67
218.087	77.14
218.306	44.37
218.524	101.72
218.742	23.89
218.96	79.19
219.179	-33.45
219.397	73.04
219.615	212.31
219.833	71
220.051	-10.92
220.27	138.58
220.488	169.3
220.706	118.1
220.924	-62.12
221.142	7.51
221.36	50.52
221.578	48.47
221.796	75.09
222.015	46.42
222.233	38.23
222.451	210.26
222.669	-2.73
222.887	87.38
223.105	-33.45
223.323	46.42
223.541	-49.83
223.759	42.32
223.977	58.71
224.195	181.59
224.413	68.95
224.631	79.19
224.849	23.89
225.067	220.5
225.285	21.85
225.503	11.61
225.721	-62.12
225.939	50.52
226.157	-21.16
226.375	226.64
226.592	46.42
226.81	-6.83
227.028	177.49
227.246	120.15
227.464	91.48
227.682	5.46
227.9	122.2
228.117	-15.02
228.335	58.71
228.553	58.71
228.771	25.94
228.989	44.37
229.206	159.06
229.424	9.56
229.642	-37.55
229.86	-47.79
230.077	120.15
230.295	97.62
230.513	83.28
230.731	54.61
230.948	181.59
231.166	159.06
231.384	27.99
231.601	3.41
231.819	138.58
232.037	13.65
232.254	-49.83
232.472	34.13
232.689	9.56
232.907	152.91
233.125	58.71
233.342	5.46
233.56	9.56
233.777	19.8
233.995	54.61
234.213	60.76
234.43	142.68
234.648	68.95
234.865	-35.5
235.083	105.81
235.3	30.04
235.518	138.58
235.735	224.59
235.953	36.18
236.17	17.75
236.388	-2.73
236.605	25.94
236.822	91.48
237.04	114
237.257	13.65
237.475	1.37
237.692	73.04
237.909	30.04
238.127	3.41
238.344	95.57
238.562	25.94
238.779	-6.83
238.996	-47.79
239.214	-21.16
239.431	75.09
239.648	-37.55
239.865	111.96
240.083	42.32
240.3	19.8
240.517	-58.03
240.735	11.61
240.952	91.48
241.169	111.96
241.386	7.51
241.603	-17.07
241.821	-47.79
242.038	58.71
242.255	157.01
242.472	-37.55
242.689	46.42
242.907	15.7
243.124	87.38
243.341	71
243.558	-37.55
243.775	-78.51
243.992	-43.69
244.209	107.86
244.426	136.53
244.643	11.61
244.86	3.41
245.078	132.44
245.295	107.86
245.512	11.61
245.729	54.61
245.946	-25.26
246.163	11.61
246.38	-21.16
246.597	79.19
246.814	36.18
247.031	75.09
247.248	-2.73
247.464	54.61
247.681	50.52
247.898	-12.97
248.115	107.86
248.332	-4.78
248.549	197.97
248.766	169.3
248.983	95.57
249.2	62.8
249.417	79.19
249.633	42.32
249.85	105.81
250.067	44.37
250.284	60.76
250.501	89.43
250.717	44.37
250.934	7.51
251.151	60.76
251.368	68.95
251.585	109.91
251.801	66.9
252.018	5.46
252.235	118.1
252.451	13.65
252.668	15.7
252.885	93.52
253.102	13.65
253.318	7.51
253.535	-23.21
253.752	-39.59
253.968	-23.21
254.185	-70.31
254.401	62.8
254.618	17.75
254.835	27.99
255.051	83.28
255.268	111.96
255.484	111.96
255.701	3.41
255.917	52.56
256.134	-19.11
256.351	7.51
256.567	-27.31
256.784	54.61
257	46.42
257.217	52.56
257.433	95.57
257.65	109.91
257.866	183.63
258.082	-37.55
258.299	-15.02
258.515	-25.26
258.732	62.8
258.948	15.7
259.165	58.71
259.381	-51.88
259.597	159.06
259.814	50.52
260.03	7.51
260.246	-15.02
260.463	148.82
260.679	44.37
260.895	40.28
261.112	54.61
261.328	40.28
261.544	-12.97
261.761	157.01
261.977	46.42
262.193	-39.59
262.409	60.76
262.626	136.53
262.842	77.14
263.058	-4.78
263.274	122.2
263.49	107.86
263.707	73.04
263.923	134.48
264.139	-62.12
264.355	-10.92
264.571	138.58
264.787	77.14
265.004	126.29
265.22	3.41
265.436	21.85
265.652	15.7
265.868	1.37
266.084	-10.92
266.3	38.23
266.516	-55.98
266.732	13.65
266.948	40.28
267.164	-72.36
267.38	64.85
267.596	50.52
267.812	163.15
268.028	-15.02
268.244	58.71
268.46	73.04
268.676	-51.88
268.892	75.09
269.108	-35.5
269.324	-37.55
269.54	-47.79
269.756	122.2
269.972	-4.78
270.188	-10.92
270.403	-27.31
270.619	60.76
270.835	130.39
271.051	52.56
271.267	3.41
271.483	-47.79
271.698	48.47
271.914	103.76
272.13	19.8
272.346	-29.35
272.562	25.94
272.777	71
272.993	42.32
273.209	38.23
273.425	75.09
273.64	-58.03
273.856	105.81
274.072	-41.64
274.287	46.42
274.503	93.52
274.719	116.05
274.934	-15.02
275.15	-62.12
275.366	9.56
275.581	-25.26
275.797	120.15
276.012	36.18
276.228	11.61
276.444	40.28
276.659	136.53
276.875	-35.5
277.09	44.37
277.306	27.99
277.521	128.34
277.737	-2.73
277.952	56.66
278.168	-33.45
278.383	56.66
278.599	54.61
278.814	62.8
279.03	44.37
279.245	171.35
279.461	42.32
279.676	64.85
279.892	-19.11
280.107	50.52
280.322	-15.02
280.538	132.44
280.753	-47.79
280.969	62.8
281.184	79.19
281.399	163.15
281.615	64.85
281.83	79.19
282.045	-8.87
282.26	9.56
282.476	68.95
282.691	148.82
282.906	44.37
283.122	40.28
283.337	-4.78
283.552	75.09
283.767	44.37
283.983	114
284.198	79.19
284.413	83.28
284.628	-64.17
284.843	64.85
285.058	85.33
285.274	58.71
285.489	-51.88
285.704	111.96
285.919	-0.68
286.134	44.37
286.349	107.86
286.564	-25.26
286.779	103.76
286.995	54.61
287.21	-55.98
287.425	54.61
287.64	13.65
287.855	77.14
288.07	-8.87
288.285	44.37
288.5	52.56
288.715	79.19
288.93	46.42
289.145	40.28
289.36	142.68
289.575	-58.03
289.79	189.78
290.004	66.9
290.219	105.81
290.434	36.18
290.649	3.41
290.864	-43.69
291.079	21.85
291.294	73.04
291.509	99.67
291.724	-41.64
291.938	60.76
292.153	109.91
292.368	-29.35
292.583	17.75
292.798	89.43
293.012	114
293.227	15.7
293.442	-45.74
293.657	97.62
293.871	30.04
294.086	21.85
294.301	281.94
294.516	44.37
294.73	34.13
294.945	-82.6
295.16	-47.79
295.374	71
295.589	95.57
295.804	50.52
296.018	-17.07
296.233	114
296.447	97.62
296.662	-33.45
296.877	136.53
297.091	23.89
297.306	-10.92
297.52	46.42
297.735	91.48
297.949	111.96
298.164	50.52
298.378	17.75
298.593	54.61
298.807	-17.07
299.022	19.8
299.236	109.91
299.451	-21.16
299.665	34.13
299.88	21.85
300.094	56.66
300.309	73.04
300.523	21.85
300.737	9.56
300.952	54.61
301.166	101.72
301.381	-78.51
301.595	36.18
301.809	42.32
302.024	40.28
302.238	-41.64
302.452	50.52
302.667	60.76
302.881	109.91
303.095	58.71
303.309	36.18
303.524	66.9
303.738	42.32
303.952	75.09
304.166	38.23
304.381	-80.55
304.595	124.24
304.809	-19.11
305.023	34.13
305.237	40.28
305.452	11.61
305.666	-2.73
305.88	60.76
306.094	105.81
306.308	71
306.522	132.44
306.736	40.28
306.95	150.87
307.164	71
307.379	34.13
307.593	130.39
307.807	191.83
308.021	93.52
308.235	66.9
308.449	-29.35
308.663	56.66
308.877	183.63
309.091	38.23
309.305	91.48
309.519	-92.84
309.733	50.52
309.947	-68.27
310.161	167.25
310.374	68.95
310.588	171.35
310.802	-17.07
311.016	-0.68
311.23	-62.12
311.444	-4.78
311.658	62.8
311.872	66.9
312.085	114
312.299	64.85
312.513	48.47
312.727	99.67
312.941	15.7
313.154	77.14
313.368	-21.16
313.582	95.57
313.796	136.53
314.009	30.04
314.223	118.1
314.437	107.86
314.651	77.14
314.864	5.46
315.078	23.89
315.292	-129.7
315.505	5.46
315.719	48.47
315.933	68.95
316.146	-43.69
316.36	-51.88
316.573	173.39
316.787	85.33
317.001	114
317.214	-37.55
317.428	38.23
317.641	30.04
317.855	-10.92
318.068	50.52
318.282	85.33
318.495	142.68
318.709	-8.87
318.922	77.14
319.136	107.86
319.349	128.34
319.563	46.42
319.776	56.66
319.99	21.85
320.203	161.11
320.417	40.28
320.63	95.57
320.843	165.2
321.057	73.04
321.27	11.61
321.483	103.76
321.697	116.05
321.91	91.48
322.124	52.56
322.337	30.04
322.55	13.65
322.763	46.42
322.977	-8.87
323.19	-6.83
323.403	54.61
323.617	32.08
323.83	71
324.043	38.23
324.256	64.85
324.469	-58.03
324.683	81.24
324.896	73.04
325.109	68.95
325.322	-60.07
325.535	128.34
325.748	111.96
325.962	46.42
326.175	5.46
326.388	44.37
326.601	107.86
326.814	23.89
327.027	40.28
327.24	222.55
327.453	-82.6
327.666	27.99
327.879	21.85
328.092	73.04
328.305	116.05
328.518	-21.16
328.731	-8.87
328.944	-25.26
329.157	19.8
329.37	-33.45
329.583	140.63
329.796	93.52
330.009	-78.51
330.222	99.67
330.435	68.95
330.648	87.38
330.861	64.85
331.073	11.61
331.286	64.85
331.499	60.76
331.712	-66.22
331.925	25.94
332.138	107.86
332.35	89.43
332.563	-25.26
332.776	73.04
332.989	-62.12
333.202	-55.98
333.414	36.18
333.627	19.8
333.84	-15.02
334.053	-31.4
334.265	71
334.478	-27.31
334.691	-15.02
334.903	50.52
335.116	-37.55
335.329	50.52
335.541	62.8
335.754	163.15
335.966	34.13
336.179	-33.45
336.392	7.51
336.604	36.18
336.817	138.58
337.029	91.48
337.242	44.37
337.454	107.86
337.667	64.85
337.88	50.52
338.092	60.76
338.305	46.42
338.517	-27.31
338.729	64.85
338.942	181.59
339.154	5.46
339.367	-96.94
339.579	101.72
339.792	1.37
340.004	157.01
340.217	-17.07
340.429	62.8
340.641	-47.79
340.854	-6.83
341.066	1.37
341.278	144.72
341.491	138.58
341.703	83.28
341.915	-62.12
342.128	77.14
342.34	83.28
342.552	-45.74
342.764	-12.97
342.977	34.13
343.189	116.05
343.401	73.04
343.613	-49.83
343.826	42.32
344.038	32.08
344.25	36.18
344.462	-45.74
344.674	52.56
344.886	48.47
345.099	97.62
345.311	-2.73
345.523	13.65
345.735	-27.31
345.947	40.28
346.159	5.46
346.371	-0.68
346.583	-15.02
346.795	216.4
347.007	105.81
347.219	87.38
347.431	50.52
347.643	48.47
347.855	-51.88
348.067	114
348.279	25.94
348.491	66.9
348.703	95.57
348.915	19.8
349.127	38.23
349.339	30.04
349.551	19.8
349.763	71
349.975	30.04
350.187	38.23
350.399	179.54
350.61	77.14
350.822	-2.73
351.034	42.32
351.246	62.8
351.458	116.05
351.669	120.15
351.881	91.48
352.093	87.38
352.305	85.33
352.517	109.91
352.728	71
352.94	9.56
353.152	83.28
353.363	11.61
353.575	60.76
353.787	157.01
353.999	58.71
354.21	181.59
354.422	52.56
354.633	54.61
354.845	11.61
355.057	75.09
355.268	9.56
355.48	159.06
355.692	-6.83
355.903	44.37
356.115	-55.98
356.326	27.99
356.538	163.15
356.749	81.24
356.961	210.26
357.172	81.24
357.384	-35.5
357.595	173.39
357.807	1.37
358.018	79.19
358.23	9.56
358.441	107.86
358.653	68.95
358.864	21.85
359.075	19.8
359.287	83.28
359.498	120.15
359.709	58.71
359.921	9.56
360.132	109.91
360.344	101.72
360.555	7.51
360.766	128.34
360.977	52.56
361.189	114
361.4	3.41
361.611	116.05
361.823	27.99
362.034	-15.02
362.245	-62.12
362.456	30.04
362.667	75.09
362.879	-80.55
363.09	87.38
363.301	91.48
363.512	11.61
363.723	-33.45
363.935	52.56
364.146	95.57
364.357	40.28
364.568	79.19
364.779	-21.16
364.99	134.48
365.201	-6.83
365.412	58.71
365.623	-68.27
365.834	7.51
366.045	50.52
366.256	91.48
366.467	25.94
366.678	-4.78
366.889	95.57
367.1	-8.87
367.311	89.43
367.522	-8.87
367.733	56.66
367.944	19.8
368.155	52.56
368.366	73.04
368.577	103.76
368.788	71
368.999	27.99
369.209	17.75
369.42	206.16
369.631	218.45
369.842	9.56
370.053	73.04
370.264	42.32
370.474	-29.35
370.685	54.61
370.896	-0.68
371.107	105.81
371.317	103.76
371.528	-6.83
371.739	83.28
371.95	114
372.16	130.39
372.371	-45.74
372.582	-21.16
372.792	105.81
373.003	34.13
373.214	122.2
373.424	52.56
373.635	-74.41
373.846	103.76
374.056	-31.4
374.267	105.81
374.477	87.38
374.688	-4.78
374.898	50.52
375.109	122.2
375.319	52.56
375.53	124.24
375.74	32.08
375.951	15.7
376.161	75.09
376.372	138.58
376.582	23.89
376.793	99.67
377.003	-64.17
377.214	-19.11
377.424	27.99
377.635	142.68
377.845	-8.87
378.055	142.68
378.266	30.04
378.476	30.04
378.686	32.08
378.897	120.15
379.107	73.04
379.317	105.81
379.528	5.46
379.738	87.38
379.948	-35.5
380.158	68.95
380.369	48.47
380.579	66.9
380.789	-4.78
380.999	62.8
381.21	64.85
381.42	128.34
381.63	-8.87
381.84	68.95
382.05	75.09
382.261	161.11
382.471	95.57
382.681	-6.83
382.891	271.7
383.101	101.72
383.311	-39.59
383.521	-47.79
383.731	68.95
383.941	130.39
384.151	-17.07
384.361	23.89
384.571	56.66
384.781	89.43
384.991	187.73
385.201	185.68
385.411	52.56
385.621	73.04
385.831	107.86
386.041	11.61
386.251	124.24
386.461	99.67
386.671	46.42
386.881	1.37
387.091	58.71
387.301	101.72
387.511	32.08
387.72	68.95
387.93	114
388.14	-139.94
388.35	48.47
388.56	58.71
388.769	60.76
388.979	-35.5
389.189	27.99
389.399	101.72
389.609	-6.83
389.818	75.09
390.028	52.56
390.238	-2.73
390.447	1.37
390.657	13.65
390.867	87.38
391.076	-72.36
391.286	44.37
391.496	-10.92
391.705	-12.97
391.915	128.34
392.125	79.19
392.334	-17.07
392.544	105.81
392.753	17.75
392.963	-55.98
393.172	34.13
393.382	-27.31
393.591	181.59
393.801	17.75
394.01	175.44
394.22	27.99
394.429	19.8
394.639	13.65
394.848	56.66
395.058	50.52
395.267	-6.83
395.477	134.48
395.686	87.38
395.895	154.96
396.105	240.98
396.314	40.28
396.524	107.86
396.733	68.95
396.942	118.1
397.152	116.05
397.361	103.76
397.57	101.72
397.78	-47.79
397.989	64.85
398.198	243.03
398.407	134.48
398.617	38.23
398.826	62.8
399.035	-2.73
399.244	159.06
399.453	3.41
399.663	62.8
399.872	75.09
400.081	-2.73
400.29	157.01
400.499	-41.64
400.708	120.15
400.917	50.52
401.127	-17.07
401.336	-10.92
401.545	208.21
401.754	130.39
401.963	130.39
402.172	42.32
402.381	-72.36
402.59	79.19
402.799	32.08
403.008	73.04
403.217	101.72
403.426	95.57
403.635	-19.11
403.844	-27.31
404.053	30.04
404.262	44.37
404.471	214.35
404.68	62.8
404.888	38.23
405.097	54.61
405.306	-8.87
405.515	56.66
405.724	44.37
405.933	13.65
406.142	142.68
406.35	122.2
406.559	-8.87
406.768	54.61
406.977	130.39
407.185	130.39
407.394	77.14
407.603	-47.79
407.812	44.37
408.02	163.15
408.229	-17.07
408.438	62.8
408.646	-17.07
408.855	71
409.064	25.94
409.272	62.8
409.481	134.48
409.69	36.18
409.898	32.08
410.107	95.57
410.315	120.15
410.524	58.71
410.733	58.71
410.941	167.25
411.15	30.04
411.358	114
411.567	126.29
411.775	128.34
411.984	73.04
412.192	101.72
412.401	25.94
412.609	349.52
412.818	42.32
413.026	30.04
413.234	1.37
413.443	34.13
413.651	15.7
413.86	64.85
414.068	159.06
414.276	171.35
414.485	21.85
414.693	175.44
414.901	200.02
415.11	95.57
415.318	71
415.526	27.99
415.734	71
415.943	101.72
416.151	191.83
416.359	124.24
416.567	7.51
416.776	89.43
416.984	116.05
417.192	152.91
417.4	23.89
417.608	-0.68
417.817	13.65
418.025	114
418.233	216.4
418.441	-2.73
418.649	54.61
418.857	30.04
419.065	134.48
419.273	95.57
419.481	89.43
419.689	-4.78
419.897	68.95
420.105	-23.21
420.313	161.11
420.521	212.31
420.729	142.68
420.937	3.41
421.145	32.08
421.353	128.34
421.561	120.15
421.769	101.72
421.977	-15.02
422.185	111.96
422.393	152.91
422.601	89.43
422.809	87.38
423.017	54.61
423.224	81.24
423.432	71
423.64	101.72
423.848	134.48
424.056	-31.4
424.263	116.05
424.471	-2.73
424.679	214.35
424.887	46.42
425.094	105.81
425.302	91.48
425.51	-35.5
425.718	134.48
425.925	52.56
426.133	9.56
426.341	165.2
426.548	118.1
426.756	-8.87
426.964	142.68
427.171	1.37
427.379	114
427.586	114
427.794	99.67
428.001	163.15
428.209	64.85
428.417	62.8
428.624	91.48
428.832	146.77
429.039	171.35
429.247	36.18
429.454	161.11
429.662	216.4
429.869	120.15
430.076	157.01
430.284	107.86
430.491	175.44
430.699	218.45
430.906	130.39
431.114	87.38
431.321	157.01
431.528	111.96
431.736	148.82
431.943	152.91
432.15	91.48
432.358	165.2
432.565	265.55
432.772	64.85
432.979	236.88
433.187	132.44
433.394	214.35
433.601	181.59
433.808	236.88
434.016	189.78
434.223	230.74
434.43	316.75
434.637	283.98
434.844	294.22
435.052	249.17
435.259	314.7
435.466	306.51
435.673	157.01
435.88	290.13
436.087	318.8
436.294	353.62
436.501	310.61
436.708	267.6
436.915	292.18
437.122	361.81
437.329	238.93
437.537	386.38
437.743	413.01
437.95	447.82
438.157	429.39
438.364	413.01
438.571	400.72
438.778	357.71
438.985	470.35
439.192	474.45
439.399	460.11
439.606	535.89
439.813	511.31
440.02	662.86
440.227	683.34
440.433	601.42
440.64	621.9
440.847	501.07
441.054	666.96
441.261	748.87
441.467	638.28
441.674	626
441.881	814.41
442.088	628.04
442.294	701.77
442.501	853.32
442.708	851.27
442.914	838.98
443.121	904.52
443.328	929.1
443.534	1080.64
443.741	877.9
443.948	800.07
444.154	1137.99
444.361	1207.62
444.568	1123.65
444.774	1230.15
444.981	1062.21
445.187	1185.09
445.394	1240.39
445.6	1236.29
445.807	1371.46
446.013	1377.6
446.22	1342.78
446.426	1516.86
446.633	1568.06
446.839	1731.9
447.046	1566.01
447.252	1813.82
447.459	1692.99
447.665	1717.56
447.871	1910.07
448.078	2043.19
448.284	1991.99
448.491	2045.24
448.697	2243.89
448.903	2325.81
449.11	2426.16
449.316	2305.33
449.522	2542.89
449.728	2512.18
449.935	2706.73
450.141	2630.96
450.347	2774.31
450.553	2868.52
450.76	3007.78
450.966	3089.7
451.172	3218.72
451.378	3362.08
451.584	3276.07
451.791	3673.37
451.997	3634.46
452.203	3743
452.409	3978.52
452.615	4134.17
452.821	4009.24
453.027	4089.11
453.233	4646.16
453.44	4455.7
453.646	4830.48
453.852	4801.8
454.058	4982.03
454.264	5254.41
454.47	5506.31
454.676	5477.63
454.882	6100.22
455.088	5833.98
455.294	6259.96
455.5	6487.28
455.705	6827.25
455.911	6968.56
456.117	7253.22
456.323	7412.96
456.529	7451.88
456.735	8133.85
456.941	8244.44
457.147	8660.18
457.352	9016.52
457.558	9137.35
457.764	9600.19
457.97	9876.67
458.176	10091.71
458.381	10878.13
458.587	10927.28
458.793	11619.49
458.999	11615.4
459.204	12760.21
459.41	13431.94
459.616	13063.31
459.821	13933.7
460.027	14615.67
460.233	15135.85
460.438	15271.02
460.644	16239.71
460.85	16086.11
461.055	16972.88
461.261	17933.38
461.466	17445.96
461.672	17425.48
461.878	19989.54
462.083	19477.55
462.289	20034.6
462.494	20866.07
462.7	20808.73
462.905	21163.03
463.111	22952.95
463.316	23997.42
463.522	24464.35
463.727	25177.05
463.932	26174.41
464.138	26975.16
464.343	27949.99
464.549	28060.59
464.754	30432.13
464.959	30833.53
465.165	31505.27
465.37	31175.55
465.575	31601.52
465.781	33618.77
465.986	34425.67
466.191	34157.39
466.397	34288.46
466.602	33270.62
466.807	35230.52
467.012	35984.18
467.218	36438.83
467.423	36756.26
467.628	37612.31
467.833	39908.08
468.038	38966.02
468.244	38345.48
468.449	39959.28
468.654	39097.09
468.859	39369.47
469.064	39256.83
469.269	38148.88
469.474	38812.42
