Data from USB4F104151__96__10-45-17-164.txt Node

Date: Wed Feb 26 10:45:17 EST 2025
User: louis
Spectrometer: USB4F10415
Trigger mode: 4
Integration Time (sec): 1.000000E-1
Scans to average: 1
Electric dark correction enabled: true
Nonlinearity correction enabled: false
Boxcar width: 0
XAxis mode: Wavelengths
Number of Pixels in Spectrum: 3648
>>>>>Begin Spectral Data<<<<<
178.204	-386.38
178.424	-386.38
178.644	-386.38
178.864	-374.1
179.084	-349.52
179.304	-58.71
179.524	-17.75
179.744	29.35
179.964	119.46
180.184	-13.65
180.404	-1.37
180.624	10.92
180.844	17.07
181.064	-144.72
181.283	45.74
181.503	-19.8
181.723	33.45
181.943	-68.95
182.163	225.96
182.383	62.12
182.602	74.41
182.822	170.66
183.042	88.75
183.262	-11.61
183.482	23.21
183.701	33.45
183.921	84.65
184.141	19.11
184.361	84.65
184.58	64.17
184.8	-3.41
185.02	-58.71
185.239	193.19
185.459	131.75
185.679	131.75
185.898	-83.28
186.118	25.26
186.338	92.84
186.557	170.66
186.777	8.87
186.997	-126.29
187.216	43.69
187.436	107.18
187.655	68.27
187.875	29.35
188.095	72.36
188.314	135.85
188.534	146.09
188.753	23.21
188.973	68.27
189.192	172.71
189.412	17.07
189.631	64.17
189.851	45.74
190.07	174.76
190.29	19.11
190.509	-19.8
190.729	131.75
190.948	197.29
191.168	287.4
191.387	119.46
191.607	35.5
191.826	82.6
192.045	37.55
192.265	-73.04
192.484	19.11
192.704	109.22
192.923	-54.61
193.142	152.23
193.362	146.09
193.581	131.75
193.8	10.92
194.02	74.41
194.239	23.21
194.458	23.21
194.678	-27.99
194.897	84.65
195.116	23.21
195.335	33.45
195.555	31.4
195.774	-30.04
195.993	135.85
196.212	103.08
196.432	39.59
196.651	-5.46
196.87	-1.37
197.089	180.9
197.308	23.21
197.528	115.37
197.747	-64.85
197.966	113.32
198.185	94.89
198.404	-32.08
198.623	107.18
198.842	133.8
199.062	2.73
199.281	121.51
199.5	137.9
199.719	19.11
199.938	58.03
200.157	86.7
200.376	135.85
200.595	172.71
200.814	107.18
201.033	15.02
201.252	232.1
201.471	113.32
201.69	101.03
201.909	53.93
202.128	123.56
202.347	111.27
202.566	31.4
202.785	-54.61
203.004	-30.04
203.223	242.34
203.442	135.85
203.661	6.83
203.879	72.36
204.098	129.7
204.317	-46.42
204.536	43.69
204.755	58.03
204.974	146.09
205.193	-50.52
205.411	94.89
205.63	74.41
205.849	19.11
206.068	-9.56
206.287	-93.52
206.505	74.41
206.724	29.35
206.943	-56.66
207.162	-54.61
207.381	19.11
207.599	-1.37
207.818	53.93
208.037	33.45
208.255	82.6
208.474	27.31
208.693	76.46
208.911	76.46
209.13	94.89
209.349	76.46
209.567	55.98
209.786	88.75
210.005	129.7
210.223	92.84
210.442	-134.48
210.661	21.16
210.879	117.42
211.098	88.75
211.316	53.93
211.535	17.07
211.753	17.07
211.972	62.12
212.191	-1.37
212.409	43.69
212.628	58.03
212.846	68.27
213.065	115.37
213.283	152.23
213.502	88.75
213.72	10.92
213.938	39.59
214.157	25.26
214.375	64.17
214.594	33.45
214.812	105.13
215.031	-52.56
215.249	49.83
215.467	76.46
215.686	53.93
215.904	117.42
216.122	6.83
216.341	125.61
216.559	43.69
216.778	135.85
216.996	158.38
217.214	-25.94
217.432	53.93
217.651	-27.99
217.869	37.55
218.087	105.13
218.306	33.45
218.524	121.51
218.742	35.5
218.96	152.23
219.179	2.73
219.397	64.17
219.615	201.38
219.833	137.9
220.051	-54.61
220.27	86.7
220.488	88.75
220.706	29.35
220.924	19.11
221.142	-50.52
221.36	2.73
221.578	111.27
221.796	-15.7
222.015	17.07
222.233	15.02
222.451	109.22
222.669	6.83
222.887	90.79
223.105	10.92
223.323	51.88
223.541	27.31
223.759	84.65
223.977	37.55
224.195	172.71
224.413	60.07
224.631	119.46
224.849	-11.61
225.067	156.33
225.285	10.92
225.503	29.35
225.721	-44.37
225.939	15.02
226.157	119.46
226.375	172.71
226.592	-30.04
226.81	19.11
227.028	176.81
227.246	125.61
227.464	39.59
227.682	119.46
227.9	94.89
228.117	51.88
228.335	82.6
228.553	4.78
228.771	72.36
228.989	105.13
229.206	60.07
229.424	39.59
229.642	70.31
229.86	-62.8
230.077	125.61
230.295	80.55
230.513	172.71
230.731	64.17
230.948	115.37
231.166	180.9
231.384	27.31
231.601	43.69
231.819	119.46
232.037	17.07
232.254	-23.89
232.472	17.07
232.689	37.55
232.907	78.51
233.125	-159.06
233.342	29.35
233.56	25.26
233.777	31.4
233.995	51.88
234.213	98.99
234.43	90.79
234.648	47.79
234.865	-5.46
235.083	144.04
235.3	41.64
235.518	117.42
235.735	92.84
235.953	146.09
236.17	53.93
236.388	-9.56
236.605	-9.56
236.822	178.86
237.04	121.51
237.257	96.94
237.475	-17.75
237.692	53.93
237.909	53.93
238.127	29.35
238.344	47.79
238.562	70.31
238.779	-38.23
238.996	-50.52
239.214	-9.56
239.431	37.55
239.648	-9.56
239.865	86.7
240.083	86.7
240.3	-87.38
240.517	-38.23
240.735	144.04
240.952	168.62
241.169	139.94
241.386	125.61
241.603	80.55
241.821	-32.08
242.038	115.37
242.255	105.13
242.472	-122.2
242.689	84.65
242.907	60.07
243.124	49.83
243.341	45.74
243.558	37.55
243.775	-71
243.992	27.31
244.209	129.7
244.426	205.48
244.643	86.7
244.86	60.07
245.078	113.32
245.295	68.27
245.512	60.07
245.729	-7.51
245.946	119.46
246.163	43.69
246.38	-34.13
246.597	86.7
246.814	31.4
247.031	101.03
247.248	49.83
247.464	80.55
247.681	39.59
247.898	78.51
248.115	74.41
248.332	6.83
248.549	37.55
248.766	199.34
248.983	47.79
249.2	66.22
249.417	98.99
249.633	-46.42
249.85	82.6
250.067	64.17
250.284	-1.37
250.501	17.07
250.717	144.04
250.934	21.16
251.151	8.87
251.368	64.17
251.585	66.22
251.801	88.75
252.018	-15.7
252.235	146.09
252.451	-73.04
252.668	8.87
252.885	92.84
253.102	127.66
253.318	-56.66
253.535	66.22
253.752	-21.85
253.968	-21.85
254.185	-34.13
254.401	92.84
254.618	45.74
254.835	35.5
255.051	178.86
255.268	156.33
255.484	111.27
255.701	0.68
255.917	133.8
256.134	-44.37
256.351	86.7
256.567	-40.28
256.784	-42.32
257	-27.99
257.217	146.09
257.433	86.7
257.65	51.88
257.866	158.38
258.082	-91.48
258.299	-5.46
258.515	43.69
258.732	78.51
258.948	-52.56
259.165	45.74
259.381	66.22
259.597	125.61
259.814	-50.52
260.03	45.74
260.246	6.83
260.463	70.31
260.679	115.37
260.895	37.55
261.112	23.21
261.328	111.27
261.544	21.16
261.761	150.18
261.977	-25.94
262.193	-97.62
262.409	146.09
262.626	47.79
262.842	92.84
263.058	-13.65
263.274	53.93
263.49	78.51
263.707	127.66
263.923	98.99
264.139	-36.18
264.355	0.68
264.571	150.18
264.787	60.07
265.004	80.55
265.22	-15.7
265.436	25.26
265.652	23.21
265.868	17.07
266.084	-50.52
266.3	164.52
266.516	-40.28
266.732	58.03
266.948	39.59
267.164	33.45
267.38	119.46
267.596	103.08
267.812	217.77
268.028	45.74
268.244	15.02
268.46	117.42
268.676	66.22
268.892	76.46
269.108	-79.19
269.324	6.83
269.54	-11.61
269.756	105.13
269.972	53.93
270.188	58.03
270.403	-21.85
270.619	2.73
270.835	70.31
271.051	17.07
271.267	-9.56
271.483	21.16
271.698	125.61
271.914	86.7
272.13	43.69
272.346	47.79
272.562	117.42
272.777	156.33
272.993	25.26
273.209	47.79
273.425	148.14
273.64	-21.85
273.856	49.83
274.072	-1.37
274.287	41.64
274.503	137.9
274.719	98.99
274.934	6.83
275.15	-3.41
275.366	37.55
275.581	-15.7
275.797	8.87
276.012	-9.56
276.228	21.16
276.444	96.94
276.659	84.65
276.875	-32.08
277.09	43.69
277.306	25.26
277.521	35.5
277.737	127.66
277.952	47.79
278.168	25.26
278.383	10.92
278.599	78.51
278.814	84.65
279.03	17.07
279.245	154.28
279.461	10.92
279.676	68.27
279.892	-99.67
280.107	-9.56
280.322	-54.61
280.538	47.79
280.753	-15.7
280.969	-25.94
281.184	35.5
281.399	125.61
281.615	0.68
281.83	8.87
282.045	31.4
282.26	-1.37
282.476	49.83
282.691	72.36
282.906	33.45
283.122	103.08
283.337	-54.61
283.552	55.98
283.767	0.68
283.983	72.36
284.198	41.64
284.413	43.69
284.628	-48.47
284.843	88.75
285.058	-7.51
285.274	23.21
285.489	37.55
285.704	105.13
285.919	-3.41
286.134	-44.37
286.349	55.98
286.564	-15.7
286.779	148.14
286.995	-3.41
287.21	-75.09
287.425	131.75
287.64	4.78
287.855	-11.61
288.07	-107.86
288.285	135.85
288.5	76.46
288.715	23.21
288.93	33.45
289.145	49.83
289.36	55.98
289.575	64.17
289.79	80.55
290.004	-34.13
290.219	109.22
290.434	51.88
290.649	55.98
290.864	19.11
291.079	10.92
291.294	-50.52
291.509	96.94
291.724	10.92
291.938	35.5
292.153	74.41
292.368	25.26
292.583	39.59
292.798	107.18
293.012	82.6
293.227	31.4
293.442	35.5
293.657	80.55
293.871	148.14
294.086	101.03
294.301	248.49
294.516	160.42
294.73	105.13
294.945	-34.13
295.16	2.73
295.374	164.52
295.589	107.18
295.804	-9.56
296.018	23.21
296.233	205.48
296.447	90.79
296.662	0.68
296.877	150.18
297.091	90.79
297.306	101.03
297.52	-1.37
297.735	90.79
297.949	39.59
298.164	98.99
298.378	19.11
298.593	-30.04
298.807	27.31
299.022	96.94
299.236	125.61
299.451	64.17
299.665	-58.71
299.88	31.4
300.094	49.83
300.309	31.4
300.523	62.12
300.737	23.21
300.952	27.31
301.166	125.61
301.381	-21.85
301.595	94.89
301.809	121.51
302.024	47.79
302.238	-79.19
302.452	156.33
302.667	23.21
302.881	166.57
303.095	90.79
303.309	141.99
303.524	45.74
303.738	-44.37
303.952	-40.28
304.166	72.36
304.381	-99.67
304.595	162.47
304.809	15.02
305.023	92.84
305.237	-5.46
305.452	12.97
305.666	111.27
305.88	80.55
306.094	150.18
306.308	35.5
306.522	64.17
306.736	74.41
306.95	96.94
307.164	70.31
307.379	-27.99
307.593	162.47
307.807	178.86
308.021	82.6
308.235	131.75
308.449	-120.15
308.663	49.83
308.877	207.53
309.091	125.61
309.305	43.69
309.519	-56.66
309.733	94.89
309.947	23.21
310.161	33.45
310.374	94.89
310.588	129.7
310.802	49.83
311.016	-1.37
311.23	70.31
311.444	-46.42
311.658	53.93
311.872	53.93
312.085	125.61
312.299	131.75
312.513	148.14
312.727	-13.65
312.941	90.79
313.154	43.69
313.368	70.31
313.582	43.69
313.796	125.61
314.009	-17.75
314.223	86.7
314.437	96.94
314.651	94.89
314.864	72.36
315.078	92.84
315.292	-15.7
315.505	-30.04
315.719	101.03
315.933	66.22
316.146	64.17
316.36	-36.18
316.573	98.99
316.787	90.79
317.001	127.66
317.214	64.17
317.428	152.23
317.641	-34.13
317.855	4.78
318.068	43.69
318.282	43.69
318.495	135.85
318.709	62.12
318.922	-15.7
319.136	88.75
319.349	137.9
319.563	6.83
319.776	94.89
319.99	-21.85
320.203	51.88
320.417	31.4
320.63	199.34
320.843	234.15
321.057	82.6
321.27	29.35
321.483	109.22
321.697	162.47
321.91	45.74
322.124	19.11
322.337	141.99
322.55	0.68
322.763	115.37
322.977	68.27
323.19	10.92
323.403	41.64
323.617	88.75
323.83	115.37
324.043	-36.18
324.256	66.22
324.469	-66.9
324.683	139.94
324.896	17.07
325.109	47.79
325.322	-99.67
325.535	141.99
325.748	127.66
325.962	-5.46
326.175	80.55
326.388	117.42
326.601	90.79
326.814	21.16
327.027	88.75
327.24	76.46
327.453	-50.52
327.666	64.17
327.879	150.18
328.092	64.17
328.305	39.59
328.518	4.78
328.731	2.73
328.944	64.17
329.157	117.42
329.37	70.31
329.583	162.47
329.796	150.18
330.009	-66.9
330.222	45.74
330.435	121.51
330.648	49.83
330.861	58.03
331.073	31.4
331.286	160.42
331.499	78.51
331.712	-38.23
331.925	4.78
332.138	-17.75
332.35	135.85
332.563	4.78
332.776	101.03
332.989	-25.94
333.202	2.73
333.414	68.27
333.627	47.79
333.84	74.41
334.053	45.74
334.265	-58.71
334.478	-44.37
334.691	-9.56
334.903	133.8
335.116	-25.94
335.329	-42.32
335.541	58.03
335.754	160.42
335.966	51.88
336.179	-1.37
336.392	6.83
336.604	43.69
336.817	88.75
337.029	49.83
337.242	29.35
337.454	96.94
337.667	90.79
337.88	70.31
338.092	70.31
338.305	78.51
338.517	70.31
338.729	70.31
338.942	148.14
339.154	-60.76
339.367	-36.18
339.579	80.55
339.792	-13.65
340.004	105.13
340.217	8.87
340.429	33.45
340.641	64.17
340.854	-38.23
341.066	62.12
341.278	113.32
341.491	193.19
341.703	47.79
341.915	66.22
342.128	15.02
342.34	80.55
342.552	60.07
342.764	76.46
342.977	66.22
343.189	109.22
343.401	129.7
343.613	-21.85
343.826	19.11
344.038	23.21
344.25	45.74
344.462	41.64
344.674	107.18
344.886	21.16
345.099	70.31
345.311	60.07
345.523	98.99
345.735	-11.61
345.947	41.64
346.159	-36.18
346.371	-5.46
346.583	-9.56
346.795	209.58
347.007	29.35
347.219	37.55
347.431	76.46
347.643	162.47
347.855	0.68
348.067	166.57
348.279	-75.09
348.491	64.17
348.703	51.88
348.915	4.78
349.127	-56.66
349.339	133.8
349.551	2.73
349.763	19.11
349.975	84.65
350.187	125.61
350.399	168.62
350.61	105.13
350.822	31.4
351.034	80.55
351.246	12.97
351.458	88.75
351.669	135.85
351.881	148.14
352.093	158.38
352.305	148.14
352.517	8.87
352.728	141.99
352.94	86.7
353.152	113.32
353.363	-17.75
353.575	141.99
353.787	191.14
353.999	62.12
354.21	107.18
354.422	2.73
354.633	21.16
354.845	49.83
355.057	31.4
355.268	101.03
355.48	70.31
355.692	-15.7
355.903	55.98
356.115	-91.48
356.326	-83.28
356.538	166.57
356.749	137.9
356.961	137.9
357.172	-36.18
357.384	-21.85
357.595	199.34
357.807	68.27
358.018	29.35
358.23	4.78
358.441	166.57
358.653	92.84
358.864	96.94
359.075	23.21
359.287	60.07
359.498	146.09
359.709	82.6
359.921	74.41
360.132	107.18
360.344	-48.47
360.555	43.69
360.766	66.22
360.977	31.4
361.189	74.41
361.4	37.55
361.611	166.57
361.823	162.47
362.034	31.4
362.245	-25.94
362.456	19.11
362.667	92.84
362.879	-21.85
363.09	164.52
363.301	127.66
363.512	31.4
363.723	-11.61
363.935	62.12
364.146	92.84
364.357	58.03
364.568	92.84
364.779	-56.66
364.99	133.8
365.201	-66.9
365.412	162.47
365.623	29.35
365.834	107.18
366.045	53.93
366.256	39.59
366.467	94.89
366.678	72.36
366.889	8.87
367.1	96.94
367.311	105.13
367.522	37.55
367.733	60.07
367.944	90.79
368.155	-5.46
368.366	164.52
368.577	90.79
368.788	66.22
368.999	-21.85
369.209	33.45
369.42	205.48
369.631	207.53
369.842	105.13
370.053	27.31
370.264	43.69
370.474	43.69
370.685	74.41
370.896	0.68
371.107	164.52
371.317	164.52
371.528	-34.13
371.739	152.23
371.95	47.79
372.16	43.69
372.371	19.11
372.582	10.92
372.792	82.6
373.003	119.46
373.214	55.98
373.424	107.18
373.635	-66.9
373.846	70.31
374.056	15.02
374.267	-30.04
374.477	156.33
374.688	17.07
374.898	88.75
375.109	10.92
375.319	51.88
375.53	154.28
375.74	119.46
375.951	39.59
376.161	72.36
376.372	51.88
376.582	55.98
376.793	55.98
377.003	29.35
377.214	-44.37
377.424	127.66
377.635	92.84
377.845	-5.46
378.055	139.94
378.266	4.78
378.476	98.99
378.686	98.99
378.897	86.7
379.107	135.85
379.317	92.84
379.528	21.16
379.738	53.93
379.948	31.4
380.158	94.89
380.369	-25.94
380.579	125.61
380.789	12.97
380.999	109.22
381.21	133.8
381.42	117.42
381.63	29.35
381.84	141.99
382.05	92.84
382.261	101.03
382.471	92.84
382.681	-15.7
382.891	127.66
383.101	21.16
383.311	23.21
383.521	-46.42
383.731	129.7
383.941	107.18
384.151	45.74
384.361	31.4
384.571	117.42
384.781	53.93
384.991	211.62
385.201	135.85
385.411	115.37
385.621	133.8
385.831	53.93
386.041	23.21
386.251	107.18
386.461	105.13
386.671	-13.65
386.881	70.31
387.091	109.22
387.301	154.28
387.511	6.83
387.72	43.69
387.93	88.75
388.14	-38.23
388.35	107.18
388.56	158.38
388.769	107.18
388.979	-58.71
389.189	-32.08
389.399	17.07
389.609	90.79
389.818	62.12
390.028	60.07
390.238	68.27
390.447	-38.23
390.657	51.88
390.867	-60.76
391.076	-5.46
391.286	121.51
391.496	23.21
391.705	51.88
391.915	141.99
392.125	129.7
392.334	-52.56
392.544	62.12
392.753	31.4
392.963	62.12
393.172	17.07
393.382	-1.37
393.591	221.86
393.801	21.16
394.01	125.61
394.22	150.18
394.429	-19.8
394.639	27.31
394.848	35.5
395.058	-17.75
395.267	37.55
395.477	-11.61
395.686	70.31
395.895	225.96
396.105	219.82
396.314	8.87
396.524	12.97
396.733	37.55
396.942	133.8
397.152	117.42
397.361	154.28
397.57	103.08
397.78	72.36
397.989	92.84
398.198	203.43
398.407	41.64
398.617	115.37
398.826	-32.08
399.035	8.87
399.244	111.27
399.453	39.59
399.663	68.27
399.872	76.46
400.081	-62.8
400.29	105.13
400.499	-17.75
400.708	117.42
400.917	60.07
401.127	-25.94
401.336	8.87
401.545	180.9
401.754	193.19
401.963	90.79
402.172	90.79
402.381	-9.56
402.59	49.83
402.799	43.69
403.008	94.89
403.217	103.08
403.426	111.27
403.635	-21.85
403.844	-15.7
404.053	-21.85
404.262	45.74
404.471	172.71
404.68	76.46
404.888	27.31
405.097	55.98
405.306	76.46
405.515	105.13
405.724	-91.48
405.933	109.22
406.142	141.99
406.35	119.46
406.559	23.21
406.768	25.26
406.977	223.91
407.185	37.55
407.394	94.89
407.603	15.02
407.812	60.07
408.02	121.51
408.229	86.7
408.438	90.79
408.646	-34.13
408.855	39.59
409.064	113.32
409.272	-13.65
409.481	90.79
409.69	17.07
409.898	-71
410.107	80.55
410.315	180.9
410.524	-1.37
410.733	43.69
410.941	68.27
411.15	90.79
411.358	127.66
411.567	146.09
411.775	92.84
411.984	12.97
412.192	115.37
412.401	74.41
412.609	201.38
412.818	135.85
413.026	64.17
413.234	12.97
413.443	76.46
413.651	68.27
413.86	23.21
414.068	154.28
414.276	86.7
414.485	25.26
414.693	191.14
414.901	215.72
415.11	72.36
415.318	105.13
415.526	111.27
415.734	74.41
415.943	84.65
416.151	156.33
416.359	23.21
416.567	53.93
416.776	49.83
416.984	137.9
417.192	137.9
417.4	64.17
417.608	64.17
417.817	64.17
418.025	82.6
418.233	178.86
418.441	0.68
418.649	0.68
418.857	0.68
419.065	131.75
419.273	35.5
419.481	90.79
419.689	78.51
419.897	23.21
420.105	6.83
420.313	139.94
420.521	178.86
420.729	111.27
420.937	21.16
421.145	-11.61
421.353	80.55
421.561	88.75
421.769	43.69
421.977	17.07
422.185	96.94
422.393	105.13
422.601	129.7
422.809	137.9
423.017	-1.37
423.224	84.65
423.432	129.7
423.64	6.83
423.848	127.66
424.056	78.51
424.263	146.09
424.471	66.22
424.679	152.23
424.887	-48.47
425.094	144.04
425.302	148.14
425.51	68.27
425.718	119.46
425.925	47.79
426.133	45.74
426.341	201.38
426.548	58.03
426.756	88.75
426.964	170.66
427.171	25.26
427.379	127.66
427.586	74.41
427.794	211.62
428.001	131.75
428.209	207.53
428.417	185
428.624	185
428.832	160.42
429.039	84.65
429.247	193.19
429.454	156.33
429.662	209.58
429.869	203.43
430.076	221.86
430.284	137.9
430.491	168.62
430.699	156.33
430.906	225.96
431.114	203.43
431.321	141.99
431.528	141.99
431.736	193.19
431.943	232.1
432.15	187.05
432.358	185
432.565	228.01
432.772	25.26
432.979	234.15
433.187	137.9
433.394	236.2
433.601	168.62
433.808	205.48
434.016	303.78
434.223	268.97
434.43	211.62
434.637	252.58
434.844	160.42
435.052	209.58
435.259	307.88
435.466	307.88
435.673	236.2
435.88	297.64
436.087	299.69
436.294	383.65
436.501	436.9
436.708	289.45
436.915	422.56
437.122	375.46
437.329	268.97
437.537	338.6
437.743	418.47
437.95	488.1
438.157	465.57
438.364	432.8
438.571	342.69
438.778	445.09
438.985	395.94
439.192	610.98
439.399	445.09
439.606	531.11
439.813	576.16
440.02	715.42
440.227	705.18
440.433	602.79
440.64	516.77
440.847	537.25
441.054	590.5
441.261	793.25
441.467	699.04
441.674	645.79
441.881	737.95
442.088	668.32
442.294	766.62
442.501	854.69
442.708	885.41
442.914	918.17
443.121	950.94
443.328	979.61
443.534	1094.3
443.741	907.93
443.948	928.41
444.154	998.04
444.361	1182.36
444.568	1063.58
444.774	1165.98
444.981	1039
445.187	1315.48
445.394	1280.66
445.6	1237.66
445.807	1417.88
446.013	1419.92
446.22	1366.68
446.426	1491.6
446.633	1516.18
446.839	1788.56
447.046	1536.66
447.252	1739.41
447.459	1686.16
447.665	1806.99
447.871	1903.25
448.078	2042.51
448.284	1979.02
448.491	2032.27
448.697	2249.35
448.903	2204.3
449.11	2415.24
449.316	2273.93
449.522	2464.39
449.728	2585.22
449.935	2640.51
450.141	2624.13
450.347	2941.57
450.553	2781.82
450.76	2976.38
450.966	3109.5
451.172	3189.37
451.378	3267.19
451.584	3400.31
451.791	3605.11
451.997	3693.17
452.203	3795.57
452.409	4010.61
452.615	4178.54
452.821	4043.37
453.027	3994.22
453.233	4551.27
453.44	4434.53
453.646	4749.92
453.852	4891.23
454.058	5063.26
454.264	5175.9
454.47	5515.86
454.676	5730.9
454.882	6044.24
455.088	5831.25
455.294	6128.21
455.5	6586.95
455.705	6754.88
455.911	6836.8
456.117	7047.74
456.323	7244.35
456.529	7342.65
456.735	7866.93
456.941	8141.36
457.147	8747.56
457.352	8636.97
457.558	9007.65
457.764	9646.62
457.97	9658.9
458.176	10117.65
458.381	10650.12
458.587	11031.04
458.793	11364.86
458.999	11549.18
459.204	12765.67
459.41	13205.99
459.616	12937.7
459.821	13787.61
460.027	14418.38
460.233	14961.09
460.438	15145.41
460.644	15944.12
460.85	16220.6
461.055	16988.58
461.261	17656.22
461.466	17086.89
461.672	17486.24
461.878	19712.38
462.083	19519.87
462.289	19855.74
462.494	20451.7
462.7	20853.1
462.905	20818.28
463.111	22923.6
463.316	23951.68
463.522	24187.19
463.727	25022.76
463.932	25813.28
464.138	26845.46
464.343	27969.79
464.549	28131.58
464.754	30083.3
464.959	30793.94
465.165	31486.15
465.37	30904.53
465.575	31336.65
465.781	33480.88
465.986	34252.96
466.191	33720.49
466.397	34228.38
466.602	33204.4
466.807	35379.34
467.012	35651.72
467.218	36235.39
467.423	36634.75
467.628	37744.75
467.833	39456.85
468.038	38377.57
468.244	37957.74
468.449	40009.8
