Data from USB4F104151__171__11-04-56-635.txt Node

Date: Wed Feb 26 11:04:56 EST 2025
User: louis
Spectrometer: USB4F10415
Trigger mode: 4
Integration Time (sec): 1.000000E-1
Scans to average: 1
Electric dark correction enabled: true
Nonlinearity correction enabled: false
Boxcar width: 0
XAxis mode: Wavelengths
Number of Pixels in Spectrum: 3648
>>>>>Begin Spectral Data<<<<<
178.204	-402.26
178.424	-402.26
178.644	-402.26
178.864	-414.54
179.084	-447.31
179.304	-43.86
179.524	-60.24
179.744	-45.91
179.964	19.63
180.184	27.82
180.404	111.78
180.624	-4.95
180.844	27.82
181.064	-52.05
181.283	-60.24
181.503	-17.24
181.723	97.45
181.943	-133.97
182.163	208.04
182.383	-37.72
182.602	-0.85
182.822	183.46
183.042	46.25
183.262	7.34
183.482	-29.52
183.701	-9.05
183.921	11.43
184.141	-2.9
184.361	50.35
184.58	48.3
184.8	19.63
185.02	-19.29
185.239	44.2
185.459	36.01
185.679	58.54
185.898	-88.92
186.118	91.31
186.338	33.96
186.557	138.41
186.777	-64.34
186.997	29.87
187.216	-45.91
187.436	126.12
187.655	-9.05
187.875	109.74
188.095	-17.24
188.314	40.11
188.534	70.83
188.753	-4.95
188.973	40.11
189.192	150.7
189.412	-2.9
189.631	31.91
189.851	87.21
190.07	162.98
190.29	-64.34
190.509	-60.24
190.729	48.3
190.948	122.02
191.168	214.18
191.387	87.21
191.607	56.49
191.826	31.91
192.045	-23.38
192.265	3.24
192.484	62.63
192.704	79.02
192.923	-9.05
193.142	173.22
193.362	99.5
193.581	33.96
193.8	9.39
194.02	15.53
194.239	44.2
194.458	27.82
194.678	-4.95
194.897	-50
195.116	68.78
195.335	-47.96
195.555	23.72
195.774	25.77
195.993	93.35
196.212	-4.95
196.432	-33.62
196.651	-2.9
196.87	50.35
197.089	304.29
197.308	95.4
197.528	19.63
197.747	-97.11
197.966	9.39
198.185	158.89
198.404	-43.86
198.623	83.11
198.842	115.88
199.062	42.15
199.281	79.02
199.5	46.25
199.719	85.16
199.938	52.39
200.157	23.72
200.376	-0.85
200.595	130.22
200.814	83.11
201.033	-21.33
201.252	105.64
201.471	46.25
201.69	117.93
201.909	-27.48
202.128	85.16
202.347	33.96
202.566	-29.52
202.785	-41.81
203.004	-37.72
203.223	224.42
203.442	-70.48
203.661	-39.76
203.879	79.02
204.098	97.45
204.317	-107.35
204.536	54.44
204.755	85.16
204.974	111.78
205.193	-52.05
205.411	97.45
205.63	54.44
205.849	46.25
206.068	58.54
206.287	-19.29
206.505	146.6
206.724	-58.2
206.943	-45.91
207.162	-37.72
207.381	36.01
207.599	11.43
207.818	-31.57
208.037	52.39
208.255	89.26
208.474	23.72
208.693	-33.62
208.911	13.48
209.13	42.15
209.349	81.07
209.567	11.43
209.786	44.2
210.005	64.68
210.223	62.63
210.442	-193.36
210.661	-41.81
210.879	60.59
211.098	58.54
211.316	81.07
211.535	117.93
211.753	87.21
211.972	109.74
212.191	23.72
212.409	21.67
212.628	140.46
212.846	-119.64
213.065	-11.09
213.283	105.64
213.502	3.24
213.72	40.11
213.938	1.19
214.157	5.29
214.375	46.25
214.594	-41.81
214.812	7.34
215.031	48.3
215.249	-21.33
215.467	60.59
215.686	40.11
215.904	31.91
216.122	48.3
216.341	79.02
216.559	33.96
216.778	101.55
216.996	144.55
217.214	17.58
217.432	-82.77
217.651	-84.82
217.869	-39.76
218.087	15.53
218.306	-76.63
218.524	42.15
218.742	-9.05
218.96	87.21
219.179	29.87
219.397	5.29
219.615	263.33
219.833	83.11
220.051	-72.53
220.27	124.07
220.488	83.11
220.706	42.15
220.924	-4.95
221.142	-0.85
221.36	72.87
221.578	87.21
221.796	-7
222.015	5.29
222.233	-15.19
222.451	117.93
222.669	-64.34
222.887	119.98
223.105	17.58
223.323	13.48
223.541	-101.2
223.759	50.35
223.977	64.68
224.195	205.99
224.413	17.58
224.631	25.77
224.849	52.39
225.067	210.09
225.285	-80.72
225.503	-52.05
225.721	-95.06
225.939	93.35
226.157	46.25
226.375	238.76
226.592	-43.86
226.81	56.49
227.028	144.55
227.246	91.31
227.464	38.06
227.682	13.48
227.9	99.5
228.117	38.06
228.335	103.59
228.553	-19.29
228.771	-15.19
228.989	13.48
229.206	117.93
229.424	-7
229.642	-103.25
229.86	-4.95
230.077	138.41
230.295	-43.86
230.513	70.83
230.731	68.78
230.948	31.91
231.166	169.13
231.384	-35.67
231.601	-4.95
231.819	81.07
232.037	-50
232.254	15.53
232.472	-35.67
232.689	-21.33
232.907	85.16
233.125	11.43
233.342	-9.05
233.56	-11.09
233.777	56.49
233.995	44.2
234.213	64.68
234.43	95.4
234.648	27.82
234.865	-27.48
235.083	150.7
235.3	-37.72
235.518	83.11
235.735	144.55
235.953	9.39
236.17	15.53
236.388	-17.24
236.605	27.82
236.822	103.59
237.04	144.55
237.257	-33.62
237.475	21.67
237.692	70.83
237.909	50.35
238.127	-0.85
238.344	31.91
238.562	83.11
238.779	-11.09
238.996	-90.96
239.214	15.53
239.431	89.26
239.648	13.48
239.865	56.49
240.083	27.82
240.3	11.43
240.517	21.67
240.735	52.39
240.952	91.31
241.169	95.4
241.386	83.11
241.603	27.82
241.821	-21.33
242.038	52.39
242.255	72.87
242.472	-80.72
242.689	52.39
242.907	27.82
243.124	64.68
243.341	3.24
243.558	27.82
243.775	-103.25
243.992	-93.01
244.209	74.92
244.426	140.46
244.643	19.63
244.86	-31.57
245.078	62.63
245.295	-9.05
245.512	-15.19
245.729	-54.1
245.946	68.78
246.163	44.2
246.38	-37.72
246.597	-17.24
246.814	13.48
247.031	40.11
247.248	-15.19
247.464	97.45
247.681	-27.48
247.898	-4.95
248.115	27.82
248.332	21.67
248.549	128.17
248.766	148.65
248.983	1.19
249.2	56.49
249.417	42.15
249.633	-105.3
249.85	66.73
250.067	36.01
250.284	17.58
250.501	9.39
250.717	17.58
250.934	-119.64
251.151	15.53
251.368	29.87
251.585	9.39
251.801	19.63
252.018	-7
252.235	142.5
252.451	11.43
252.668	15.53
252.885	-0.85
253.102	66.73
253.318	-11.09
253.535	-76.63
253.752	52.39
253.968	7.34
254.185	-95.06
254.401	-23.38
254.618	97.45
254.835	36.01
255.051	160.94
255.268	56.49
255.484	99.5
255.701	17.58
255.917	74.92
256.134	-2.9
256.351	17.58
256.567	-66.39
256.784	13.48
257	-123.73
257.217	56.49
257.433	128.17
257.65	-7
257.866	99.5
258.082	-52.05
258.299	-25.43
258.515	-41.81
258.732	46.25
258.948	29.87
259.165	74.92
259.381	-17.24
259.597	19.63
259.814	25.77
260.03	-35.67
260.246	-47.96
260.463	68.78
260.679	126.12
260.895	101.55
261.112	54.44
261.328	64.68
261.544	-27.48
261.761	173.22
261.977	-29.52
262.193	-76.63
262.409	17.58
262.626	83.11
262.842	56.49
263.058	-95.06
263.274	31.91
263.49	74.92
263.707	64.68
263.923	54.44
264.139	-54.1
264.355	68.78
264.571	54.44
264.787	76.97
265.004	132.26
265.22	36.01
265.436	-54.1
265.652	-56.15
265.868	54.44
266.084	-72.53
266.3	-35.67
266.516	-45.91
266.732	38.06
266.948	21.67
267.164	-11.09
267.38	81.07
267.596	13.48
267.812	111.78
268.028	3.24
268.244	-45.91
268.46	25.77
268.676	23.72
268.892	-43.86
269.108	-23.38
269.324	-45.91
269.54	-41.81
269.756	89.26
269.972	-0.85
270.188	60.59
270.403	-7
270.619	76.97
270.835	83.11
271.051	115.88
271.267	-0.85
271.483	25.77
271.698	105.64
271.914	-27.48
272.13	70.83
272.346	-9.05
272.562	50.35
272.777	85.16
272.993	31.91
273.209	-7
273.425	64.68
273.64	-113.49
273.856	64.68
274.072	-23.38
274.287	-25.43
274.503	29.87
274.719	124.07
274.934	-64.34
275.15	-125.78
275.366	42.15
275.581	-93.01
275.797	33.96
276.012	15.53
276.228	50.35
276.444	54.44
276.659	134.31
276.875	-107.35
277.09	81.07
277.306	7.34
277.521	9.39
277.737	7.34
277.952	1.19
278.168	9.39
278.383	21.67
278.599	76.97
278.814	74.92
279.03	9.39
279.245	126.12
279.461	19.63
279.676	119.98
279.892	-43.86
280.107	-39.76
280.322	-113.49
280.538	42.15
280.753	-9.05
280.969	-17.24
281.184	-9.05
281.399	208.04
281.615	-13.14
281.83	13.48
282.045	-66.39
282.26	23.72
282.476	-2.9
282.691	85.16
282.906	58.54
283.122	76.97
283.337	40.11
283.552	40.11
283.767	-9.05
283.983	132.26
284.198	56.49
284.413	72.87
284.628	-68.44
284.843	52.39
285.058	105.64
285.274	56.49
285.489	13.48
285.704	144.55
285.919	-19.29
286.134	17.58
286.349	-43.86
286.564	-11.09
286.779	134.31
286.995	-31.57
287.21	-76.63
287.425	36.01
287.64	36.01
287.855	19.63
288.07	-9.05
288.285	54.44
288.5	89.26
288.715	95.4
288.93	-4.95
289.145	-0.85
289.36	87.21
289.575	-80.72
289.79	76.97
290.004	-15.19
290.219	144.55
290.434	11.43
290.649	-21.33
290.864	-0.85
291.079	-13.14
291.294	29.87
291.509	-41.81
291.724	-39.76
291.938	33.96
292.153	81.07
292.368	5.29
292.583	64.68
292.798	21.67
293.012	52.39
293.227	27.82
293.442	-60.24
293.657	158.89
293.871	85.16
294.086	72.87
294.301	142.5
294.516	107.69
294.73	48.3
294.945	-50
295.16	-103.25
295.374	105.64
295.589	136.36
295.804	25.77
296.018	9.39
296.233	136.36
296.447	97.45
296.662	25.77
296.877	154.79
297.091	46.25
297.306	-33.62
297.52	-17.24
297.735	52.39
297.949	-19.29
298.164	70.83
298.378	62.63
298.593	-17.24
298.807	9.39
299.022	29.87
299.236	173.22
299.451	-56.15
299.665	-2.9
299.88	-37.72
300.094	74.92
300.309	44.2
300.523	50.35
300.737	-31.57
300.952	81.07
301.166	48.3
301.381	-45.91
301.595	23.72
301.809	52.39
302.024	-0.85
302.238	-66.39
302.452	162.98
302.667	-52.05
302.881	212.14
303.095	40.11
303.309	-0.85
303.524	-62.29
303.738	-33.62
303.952	21.67
304.166	3.24
304.381	-144.21
304.595	66.73
304.809	13.48
305.023	13.48
305.237	17.58
305.452	-50
305.666	81.07
305.88	62.63
306.094	113.83
306.308	3.24
306.522	17.58
306.736	76.97
306.95	83.11
307.164	-7
307.379	-2.9
307.593	109.74
307.807	189.61
308.021	130.22
308.235	70.83
308.449	-140.12
308.663	-9.05
308.877	140.46
309.091	72.87
309.305	23.72
309.519	-45.91
309.733	103.59
309.947	-70.48
310.161	60.59
310.374	70.83
310.588	101.55
310.802	-70.48
311.016	-7
311.23	38.06
311.444	-4.95
311.658	-39.76
311.872	101.55
312.085	99.5
312.299	136.36
312.513	146.6
312.727	85.16
312.941	-41.81
313.154	15.53
313.368	27.82
313.582	-9.05
313.796	52.39
314.009	-37.72
314.223	64.68
314.437	72.87
314.651	124.07
314.864	-17.24
315.078	-4.95
315.292	-2.9
315.505	-29.52
315.719	101.55
315.933	62.63
316.146	-45.91
316.36	-56.15
316.573	76.97
316.787	105.64
317.001	68.78
317.214	-86.87
317.428	11.43
317.641	-56.15
317.855	42.15
318.068	72.87
318.282	17.58
318.495	87.21
318.709	89.26
318.922	33.96
319.136	210.09
319.349	62.63
319.563	-33.62
319.776	25.77
319.99	-113.49
320.203	76.97
320.417	-37.72
320.63	42.15
320.843	171.18
321.057	40.11
321.27	11.43
321.483	126.12
321.697	148.65
321.91	85.16
322.124	91.31
322.337	-4.95
322.55	-35.67
322.763	-45.91
322.977	25.77
323.19	-23.38
323.403	101.55
323.617	33.96
323.83	128.17
324.043	33.96
324.256	36.01
324.469	3.24
324.683	119.98
324.896	54.44
325.109	33.96
325.322	-45.91
325.535	46.25
325.748	115.88
325.962	83.11
326.175	-7
326.388	83.11
326.601	113.83
326.814	7.34
327.027	68.78
327.24	95.4
327.453	-84.82
327.666	126.12
327.879	146.6
328.092	79.02
328.305	105.64
328.518	-33.62
328.731	-31.57
328.944	11.43
329.157	89.26
329.37	15.53
329.583	79.02
329.796	85.16
330.009	9.39
330.222	177.32
330.435	95.4
330.648	72.87
330.861	33.96
331.073	21.67
331.286	74.92
331.499	23.72
331.712	-25.43
331.925	-27.48
332.138	31.91
332.35	89.26
332.563	23.72
332.776	171.18
332.989	21.67
333.202	48.3
333.414	36.01
333.627	-88.92
333.84	-41.81
334.053	9.39
334.265	-35.67
334.478	-60.24
334.691	-27.48
334.903	113.83
335.116	-29.52
335.329	76.97
335.541	72.87
335.754	195.75
335.966	56.49
336.179	146.6
336.392	21.67
336.604	-2.9
336.817	38.06
337.029	5.29
337.242	-23.38
337.454	119.98
337.667	33.96
337.88	181.42
338.092	-33.62
338.305	124.07
338.517	-41.81
338.729	85.16
338.942	195.75
339.154	-35.67
339.367	11.43
339.579	70.83
339.792	19.63
340.004	83.11
340.217	-29.52
340.429	99.5
340.641	-21.33
340.854	-13.14
341.066	25.77
341.278	91.31
341.491	167.08
341.703	25.77
341.915	-15.19
342.128	103.59
342.34	-13.14
342.552	-54.1
342.764	58.54
342.977	17.58
343.189	89.26
343.401	36.01
343.613	-7
343.826	60.59
344.038	-31.57
344.25	40.11
344.462	19.63
344.674	85.16
344.886	44.2
345.099	50.35
345.311	50.35
345.523	36.01
345.735	-103.25
345.947	46.25
346.159	56.49
346.371	19.63
346.583	64.68
346.795	212.14
347.007	-45.91
347.219	44.2
347.431	36.01
347.643	89.26
347.855	-21.33
348.067	107.69
348.279	-23.38
348.491	17.58
348.703	79.02
348.915	-13.14
349.127	-41.81
349.339	25.77
349.551	-60.24
349.763	140.46
349.975	21.67
350.187	36.01
350.399	103.59
350.61	40.11
350.822	29.87
351.034	40.11
351.246	25.77
351.458	-19.29
351.669	74.92
351.881	111.78
352.093	148.65
352.305	126.12
352.517	40.11
352.728	144.55
352.94	44.2
353.152	93.35
353.363	-62.29
353.575	99.5
353.787	208.04
353.999	27.82
354.21	103.59
354.422	-19.29
354.633	-4.95
354.845	23.72
355.057	97.45
355.268	54.44
355.48	70.83
355.692	-15.19
355.903	5.29
356.115	29.87
356.326	-144.21
356.538	87.21
356.749	52.39
356.961	130.22
357.172	-19.29
357.384	15.53
357.595	261.29
357.807	-2.9
358.018	-11.09
358.23	36.01
358.441	76.97
358.653	23.72
358.864	17.58
359.075	11.43
359.287	117.93
359.498	81.07
359.709	40.11
359.921	64.68
360.132	99.5
360.344	-4.95
360.555	-64.34
360.766	95.4
360.977	-58.2
361.189	93.35
361.4	-25.43
361.611	38.06
361.823	83.11
362.034	-0.85
362.245	-58.2
362.456	-43.86
362.667	105.64
362.879	-2.9
363.09	95.4
363.301	62.63
363.512	-4.95
363.723	33.96
363.935	42.15
364.146	156.84
364.357	-27.48
364.568	66.73
364.779	-56.15
364.99	173.22
365.201	-99.16
365.412	81.07
365.623	-17.24
365.834	56.49
366.045	85.16
366.256	52.39
366.467	54.44
366.678	-15.19
366.889	52.39
367.1	-0.85
367.311	128.17
367.522	15.53
367.733	68.78
367.944	99.5
368.155	-2.9
368.366	95.4
368.577	105.64
368.788	50.35
368.999	-39.76
369.209	-2.9
369.42	189.61
369.631	130.22
369.842	76.97
370.053	9.39
370.264	101.55
370.474	-47.96
370.685	31.91
370.896	-43.86
371.107	62.63
371.317	79.02
371.528	29.87
371.739	83.11
371.95	68.78
372.16	54.44
372.371	-68.44
372.582	-17.24
372.792	107.69
373.003	38.06
373.214	17.58
373.424	42.15
373.635	-15.19
373.846	68.78
374.056	103.59
374.267	74.92
374.477	99.5
374.688	-39.76
374.898	68.78
375.109	89.26
375.319	48.3
375.53	156.84
375.74	83.11
375.951	81.07
376.161	21.67
376.372	111.78
376.582	17.58
376.793	85.16
377.003	-41.81
377.214	-62.29
377.424	27.82
377.635	36.01
377.845	-17.24
378.055	119.98
378.266	-25.43
378.476	3.24
378.686	33.96
378.897	79.02
379.107	115.88
379.317	150.7
379.528	50.35
379.738	113.83
379.948	-43.86
380.158	158.89
380.369	46.25
380.579	62.63
380.789	66.73
380.999	40.11
381.21	81.07
381.42	130.22
381.63	31.91
381.84	54.44
382.05	76.97
382.261	64.68
382.471	124.07
382.681	5.29
382.891	169.13
383.101	70.83
383.311	9.39
383.521	-21.33
383.731	58.54
383.941	113.83
384.151	15.53
384.361	-35.67
384.571	27.82
384.781	29.87
384.991	50.35
385.201	171.18
385.411	89.26
385.621	89.26
385.831	113.83
386.041	56.49
386.251	40.11
386.461	83.11
386.671	-2.9
386.881	36.01
387.091	-0.85
387.301	107.69
387.511	36.01
387.72	62.63
387.93	13.48
388.14	-37.72
388.35	138.41
388.56	95.4
388.769	111.78
388.979	44.2
389.189	-31.57
389.399	50.35
389.609	87.21
389.818	70.83
390.028	101.55
390.238	44.2
390.447	-4.95
390.657	83.11
390.867	42.15
391.076	-39.76
391.286	62.63
391.496	25.77
391.705	99.5
391.915	109.74
392.125	-7
392.334	7.34
392.544	199.85
392.753	74.92
392.963	3.24
393.172	-21.33
393.382	21.67
393.591	113.83
393.801	74.92
394.01	126.12
394.22	130.22
394.429	85.16
394.639	-52.05
394.848	40.11
395.058	21.67
395.267	56.49
395.477	105.64
395.686	60.59
395.895	105.64
396.105	171.18
396.314	83.11
396.524	17.58
396.733	42.15
396.942	58.54
397.152	109.74
397.361	117.93
397.57	89.26
397.78	109.74
397.989	113.83
398.198	107.69
398.407	27.82
398.617	31.91
398.826	76.97
399.035	11.43
399.244	140.46
399.453	58.54
399.663	-2.9
399.872	79.02
400.081	-21.33
400.29	66.73
400.499	29.87
400.708	19.63
400.917	-27.48
401.127	44.2
401.336	3.24
401.545	124.07
401.754	111.78
401.963	70.83
402.172	9.39
402.381	-33.62
402.59	107.69
402.799	54.44
403.008	19.63
403.217	62.63
403.426	54.44
403.635	-86.87
403.844	15.53
404.053	-60.24
404.262	56.49
404.471	136.36
404.68	-2.9
404.888	-39.76
405.097	33.96
405.306	9.39
405.515	72.87
405.724	-70.48
405.933	46.25
406.142	72.87
406.35	111.78
406.559	29.87
406.768	93.35
406.977	119.98
407.185	44.2
407.394	87.21
407.603	-54.1
407.812	62.63
408.02	183.46
408.229	93.35
408.438	74.92
408.646	-9.05
408.855	58.54
409.064	99.5
409.272	21.67
409.481	132.26
409.69	-88.92
409.898	62.63
410.107	83.11
410.315	103.59
410.524	-54.1
410.733	144.55
410.941	124.07
411.15	44.2
411.358	36.01
411.567	158.89
411.775	-2.9
411.984	101.55
412.192	111.78
412.401	42.15
412.609	240.81
412.818	109.74
413.026	-15.19
413.234	76.97
413.443	21.67
413.651	25.77
413.86	101.55
414.068	152.74
414.276	89.26
414.485	25.77
414.693	140.46
414.901	142.5
415.11	87.21
415.318	62.63
415.526	42.15
415.734	107.69
415.943	64.68
416.151	111.78
416.359	9.39
416.567	72.87
416.776	91.31
416.984	113.83
417.192	119.98
417.4	52.39
417.608	79.02
417.817	-0.85
418.025	97.45
418.233	150.7
418.441	9.39
418.649	-74.58
418.857	46.25
419.065	13.48
419.273	40.11
419.481	46.25
419.689	107.69
419.897	-2.9
420.105	-66.39
420.313	70.83
420.521	70.83
420.729	54.44
420.937	5.29
421.145	-17.24
421.353	165.03
421.561	132.26
421.769	54.44
421.977	5.29
422.185	95.4
422.393	-0.85
422.601	134.31
422.809	-7
423.017	-13.14
423.224	52.39
423.432	56.49
423.64	68.78
423.848	167.08
424.056	27.82
424.263	117.93
424.471	68.78
424.679	160.94
424.887	1.19
425.094	171.18
425.302	46.25
425.51	-23.38
425.718	107.69
425.925	122.02
426.133	76.97
426.341	210.09
426.548	38.06
426.756	-21.33
426.964	117.93
427.171	66.73
427.379	144.55
427.586	113.83
427.794	122.02
428.001	126.12
428.209	79.02
428.417	99.5
428.624	105.64
428.832	3.24
429.039	87.21
429.247	97.45
429.454	142.5
429.662	177.32
429.869	107.69
430.076	97.45
430.284	181.42
430.491	146.6
430.699	220.33
430.906	269.48
431.114	124.07
431.321	83.11
431.528	134.31
431.736	70.83
431.943	89.26
432.15	175.27
432.358	208.04
432.565	253.09
432.772	15.53
432.979	175.27
433.187	165.03
433.394	195.75
433.601	64.68
433.808	185.51
434.016	281.77
434.223	199.85
434.43	167.08
434.637	242.85
434.844	236.71
435.052	232.62
435.259	246.95
435.466	244.9
435.673	228.52
435.88	177.32
436.087	314.53
436.294	259.24
436.501	244.9
436.708	197.8
436.915	281.77
437.122	380.07
437.329	224.42
437.537	283.81
437.743	298.15
437.95	439.46
438.157	416.93
438.364	328.87
438.571	408.74
438.778	435.36
438.985	498.85
439.192	441.51
439.399	398.5
439.606	500.9
439.813	539.81
440.02	652.45
440.227	627.87
440.433	543.91
440.64	474.28
440.847	550.05
441.054	584.87
441.261	728.22
441.467	605.35
441.674	595.11
441.881	754.85
442.088	601.25
442.294	748.7
442.501	703.65
442.708	861.34
442.914	801.95
443.121	900.25
443.328	961.69
443.534	984.22
443.741	898.2
443.948	922.78
444.154	982.17
444.361	1125.53
444.568	1092.76
444.774	1162.39
444.981	980.12
445.187	1131.67
445.394	1082.52
445.6	1119.39
445.807	1424.53
446.013	1367.19
446.22	1250.46
446.426	1420.44
446.633	1635.47
446.839	1752.21
447.046	1430.68
447.252	1725.58
447.459	1715.34
447.665	1703.06
447.871	1873.04
448.078	2016.4
448.284	1952.91
448.491	2063.5
448.697	2174.09
448.903	2450.57
449.11	2333.83
449.316	2243.72
449.522	2409.61
449.728	2456.71
449.935	2663.55
450.141	2776.19
450.347	2901.12
450.553	2763.9
450.76	2899.07
450.966	2946.17
451.172	2985.09
451.378	3263.61
451.584	3372.15
451.791	3619.96
451.997	3691.63
452.203	3773.55
452.409	3906.67
452.615	4105.32
452.821	4017.26
453.027	4045.93
453.233	4621.41
453.44	4363.37
453.646	4734.05
453.852	4889.7
454.058	5104.73
454.264	5157.98
454.47	5553.24
454.676	5569.62
454.882	5868.63
455.088	5798.99
455.294	5950.54
455.5	6536.26
455.705	6839.36
455.911	6816.83
456.117	6863.94
456.323	7255.1
456.529	7410.75
456.735	8000.56
456.941	8109.1
457.147	8485.93
457.352	8660.01
457.558	9102.37
457.764	9581.59
457.97	9944.08
458.176	10259.47
458.381	10550.28
458.587	10904.58
458.793	11426.81
458.999	11463.68
459.204	12837.86
459.41	13327.33
459.616	13206.5
459.821	14085.08
460.027	14695.37
460.233	15182.79
460.438	15352.77
460.644	16016.31
460.85	16438.19
461.055	16878.51
461.261	18060.18
461.466	17142.69
461.672	17724.32
461.878	19774.33
462.083	19495.81
462.289	19991.42
462.494	20648.82
462.7	21197.67
462.905	21130.09
463.111	23098.19
463.316	24290.1
463.522	24861.49
463.727	25348.9
463.932	26450.71
464.138	26977.04
464.343	28390.14
464.549	28402.43
464.754	30622.42
464.959	31519.43
465.165	32180.93
465.37	31650.5
465.575	31441.61
465.781	33962.66
465.986	34865.81
466.191	34290.34
466.397	34300.58
466.602	33770.15
466.807	35453.58
467.012	36592.25
467.218	36835.96
467.423	36627.07
467.628	38269.54
467.833	40002.12
468.038	38965.85
468.244	38314.59
468.449	40256.07
468.654	39909.96
468.859	39715.4
