Data from USB4F104151__298__11-21-26-326.txt Node

Date: Wed Feb 26 11:21:26 EST 2025
User: louis
Spectrometer: USB4F10415
Trigger mode: 4
Integration Time (sec): 1.000000E-1
Scans to average: 1
Electric dark correction enabled: true
Nonlinearity correction enabled: false
Boxcar width: 0
XAxis mode: Wavelengths
Number of Pixels in Spectrum: 3648
>>>>>Begin Spectral Data<<<<<
178.204	-426.32
178.424	-426.32
178.644	-426.32
178.864	-422.22
179.084	-381.26
179.304	46.76
179.524	-29.01
179.744	-69.97
179.964	-0.34
180.184	38.57
180.404	114.34
180.624	-8.53
180.844	18.09
181.064	-76.12
181.283	11.95
181.503	-67.92
181.723	22.19
181.943	-139.6
182.163	157.35
182.383	13.99
182.602	32.43
182.822	220.84
183.042	79.53
183.262	-39.25
183.482	63.15
183.701	9.9
183.921	16.04
184.141	-41.3
184.361	28.33
184.58	18.09
184.8	48.81
185.02	-33.11
185.239	128.68
185.459	5.8
185.679	153.26
185.898	-137.56
186.118	18.09
186.338	52.91
186.557	136.87
186.777	-26.96
186.997	-24.92
187.216	59.05
187.436	116.39
187.655	32.43
187.875	151.21
188.095	-16.73
188.314	120.49
188.534	132.78
188.753	1.71
188.973	116.39
189.192	222.89
189.412	36.52
189.631	-16.73
189.851	75.43
190.07	93.87
190.29	-4.44
190.509	-49.49
190.729	61.1
190.948	165.54
191.168	231.08
191.387	112.3
191.607	48.81
191.826	59.05
192.045	16.04
192.265	75.43
192.484	65.19
192.704	52.91
192.923	-98.64
193.142	145.06
193.362	73.39
193.581	124.58
193.8	95.91
194.02	83.63
194.239	-8.53
194.458	149.16
194.678	-16.73
194.897	11.95
195.116	16.04
195.335	59.05
195.555	108.2
195.774	34.47
195.993	59.05
196.212	54.95
196.432	-49.49
196.651	22.19
196.87	-2.39
197.089	214.7
197.308	54.95
197.528	63.15
197.747	-108.88
197.966	67.24
198.185	93.87
198.404	-14.68
198.623	138.92
198.842	73.39
199.062	134.82
199.281	30.38
199.5	20.14
199.719	65.19
199.938	106.15
200.157	52.91
200.376	93.87
200.595	138.92
200.814	50.86
201.033	-22.87
201.252	59.05
201.471	73.39
201.69	40.62
201.909	-26.96
202.128	40.62
202.347	42.67
202.566	26.28
202.785	-6.49
203.004	48.81
203.223	153.26
203.442	-10.58
203.661	-69.97
203.879	11.95
204.098	81.58
204.317	-49.49
204.536	118.44
204.755	67.24
204.974	126.63
205.193	-49.49
205.411	126.63
205.63	95.91
205.849	75.43
206.068	42.67
206.287	-0.34
206.505	87.72
206.724	26.28
206.943	-59.73
207.162	-26.96
207.381	95.91
207.599	26.28
207.818	-14.68
208.037	-88.4
208.255	40.62
208.474	1.71
208.693	-49.49
208.911	-24.92
209.13	52.91
209.349	100.01
209.567	104.11
209.786	116.39
210.005	108.2
210.223	38.57
210.442	-141.65
210.661	91.82
210.879	24.23
211.098	-4.44
211.316	85.67
211.535	100.01
211.753	1.71
211.972	155.3
212.191	-22.87
212.409	48.81
212.628	40.62
212.846	-29.01
213.065	9.9
213.283	91.82
213.502	22.19
213.72	59.05
213.938	-47.44
214.157	9.9
214.375	20.14
214.594	3.75
214.812	42.67
215.031	-49.49
215.249	34.47
215.467	32.43
215.686	44.71
215.904	38.57
216.122	5.8
216.341	149.16
216.559	93.87
216.778	181.93
216.996	97.96
217.214	-92.5
217.432	87.72
217.651	-41.3
217.869	44.71
218.087	75.43
218.306	-39.25
218.524	-6.49
218.742	22.19
218.96	54.95
219.179	-20.82
219.397	-16.73
219.615	218.79
219.833	77.48
220.051	-63.83
220.27	97.96
220.488	106.15
220.706	9.9
220.924	-29.01
221.142	28.33
221.36	-6.49
221.578	69.29
221.796	54.95
222.015	106.15
222.233	13.99
222.451	226.98
222.669	-18.77
222.887	61.1
223.105	3.75
223.323	7.85
223.541	20.14
223.759	11.95
223.977	102.06
224.195	198.31
224.413	132.78
224.631	106.15
224.849	89.77
225.067	274.09
225.285	-29.01
225.503	28.33
225.721	-160.08
225.939	-6.49
226.157	71.34
226.375	241.32
226.592	50.86
226.81	-24.92
227.028	69.29
227.246	104.11
227.464	75.43
227.682	34.47
227.9	44.71
228.117	63.15
228.335	-0.34
228.553	-41.3
228.771	95.91
228.989	18.09
229.206	52.91
229.424	79.53
229.642	36.52
229.86	-12.63
230.077	126.63
230.295	67.24
230.513	124.58
230.731	46.76
230.948	118.44
231.166	181.93
231.384	-74.07
231.601	28.33
231.819	163.5
232.037	-10.58
232.254	-59.73
232.472	46.76
232.689	-33.11
232.907	136.87
233.125	-102.74
233.342	-39.25
233.56	-16.73
233.777	-74.07
233.995	7.85
234.213	93.87
234.43	196.26
234.648	-33.11
234.865	-12.63
235.083	-2.39
235.3	-24.92
235.518	48.81
235.735	89.77
235.953	110.25
236.17	-22.87
236.388	26.28
236.605	34.47
236.822	110.25
237.04	73.39
237.257	38.57
237.475	-10.58
237.692	69.29
237.909	48.81
238.127	48.81
238.344	61.1
238.562	65.19
238.779	-33.11
238.996	-4.44
239.214	-14.68
239.431	18.09
239.648	42.67
239.865	26.28
240.083	-14.68
240.3	18.09
240.517	-82.26
240.735	-33.11
240.952	120.49
241.169	-10.58
241.386	79.53
241.603	22.19
241.821	1.71
242.038	175.78
242.255	85.67
242.472	-49.49
242.689	71.34
242.907	116.39
243.124	1.71
243.341	44.71
243.558	-10.58
243.775	-22.87
243.992	-53.59
244.209	61.1
244.426	161.45
244.643	73.39
244.86	36.52
245.078	48.81
245.295	118.44
245.512	-16.73
245.729	-33.11
245.946	52.91
246.163	79.53
246.38	28.33
246.597	104.11
246.814	40.62
247.031	42.67
247.248	65.19
247.464	59.05
247.681	24.23
247.898	-37.2
248.115	13.99
248.332	-47.44
248.549	136.87
248.766	120.49
248.983	104.11
249.2	57
249.417	54.95
249.633	-18.77
249.85	63.15
250.067	54.95
250.284	114.34
250.501	73.39
250.717	100.01
250.934	-63.83
251.151	40.62
251.368	48.81
251.585	42.67
251.801	75.43
252.018	-51.54
252.235	108.2
252.451	-72.02
252.668	-45.4
252.885	83.63
253.102	75.43
253.318	57
253.535	-53.59
253.752	59.05
253.968	42.67
254.185	-4.44
254.401	91.82
254.618	61.1
254.835	9.9
255.051	136.87
255.268	42.67
255.484	118.44
255.701	-67.92
255.917	-29.01
256.134	-43.35
256.351	-2.39
256.567	-35.16
256.784	13.99
257	-51.54
257.217	91.82
257.433	202.41
257.65	-31.06
257.866	134.82
258.082	-67.92
258.299	-16.73
258.515	-35.16
258.732	32.43
258.948	-39.25
259.165	97.96
259.381	9.9
259.597	42.67
259.814	151.21
260.03	7.85
260.246	-8.53
260.463	69.29
260.679	104.11
260.895	26.28
261.112	36.52
261.328	-10.58
261.544	11.95
261.761	194.22
261.977	-86.36
262.193	-18.77
262.409	42.67
262.626	30.38
262.842	34.47
263.058	7.85
263.274	-33.11
263.49	75.43
263.707	30.38
263.923	44.71
264.139	11.95
264.355	71.34
264.571	118.44
264.787	-10.58
265.004	140.97
265.22	7.85
265.436	-24.92
265.652	-16.73
265.868	136.87
266.084	-47.44
266.3	50.86
266.516	-106.84
266.732	-43.35
266.948	143.02
267.164	-78.16
267.38	57
267.596	163.5
267.812	79.53
268.028	73.39
268.244	40.62
268.46	46.76
268.676	-63.83
268.892	34.47
269.108	-20.82
269.324	54.95
269.54	-43.35
269.756	24.23
269.972	-33.11
270.188	-33.11
270.403	-117.08
270.619	-8.53
270.835	-35.16
271.051	34.47
271.267	-4.44
271.483	-18.77
271.698	85.67
271.914	36.52
272.13	-8.53
272.346	-33.11
272.562	54.95
272.777	122.54
272.993	-6.49
273.209	-2.39
273.425	50.86
273.64	-61.78
273.856	102.06
274.072	-20.82
274.287	13.99
274.503	44.71
274.719	32.43
274.934	5.8
275.15	-72.02
275.366	-37.2
275.581	-53.59
275.797	-6.49
276.012	18.09
276.228	-16.73
276.444	7.85
276.659	95.91
276.875	9.9
277.09	3.75
277.306	-10.58
277.521	87.72
277.737	-8.53
277.952	69.29
278.168	-2.39
278.383	65.19
278.599	3.75
278.814	69.29
279.03	38.57
279.245	100.01
279.461	13.99
279.676	134.82
279.892	-96.6
280.107	-78.16
280.322	-98.64
280.538	73.39
280.753	-67.92
280.969	46.76
281.184	42.67
281.399	161.45
281.615	77.48
281.83	42.67
282.045	-59.73
282.26	26.28
282.476	16.04
282.691	108.2
282.906	61.1
283.122	108.2
283.337	-4.44
283.552	54.95
283.767	-37.2
283.983	85.67
284.198	5.8
284.413	54.95
284.628	-12.63
284.843	59.05
285.058	91.82
285.274	5.8
285.489	-49.49
285.704	75.43
285.919	-22.87
286.134	-35.16
286.349	48.81
286.564	20.14
286.779	59.05
286.995	50.86
287.21	-49.49
287.425	16.04
287.64	-43.35
287.855	63.15
288.07	-61.78
288.285	93.87
288.5	75.43
288.715	-16.73
288.93	13.99
289.145	-53.59
289.36	79.53
289.575	36.52
289.79	108.2
290.004	79.53
290.219	77.48
290.434	11.95
290.649	-55.64
290.864	87.72
291.079	-6.49
291.294	65.19
291.509	48.81
291.724	75.43
291.938	24.23
292.153	30.38
292.368	18.09
292.583	91.82
292.798	153.26
293.012	102.06
293.227	95.91
293.442	-31.06
293.657	57
293.871	153.26
294.086	32.43
294.301	149.16
294.516	179.88
294.73	20.14
294.945	48.81
295.16	-16.73
295.374	93.87
295.589	87.72
295.804	-57.68
296.018	13.99
296.233	116.39
296.447	83.63
296.662	-6.49
296.877	138.92
297.091	91.82
297.306	112.3
297.52	65.19
297.735	16.04
297.949	-16.73
298.164	18.09
298.378	40.62
298.593	-53.59
298.807	-41.3
299.022	-2.39
299.236	75.43
299.451	38.57
299.665	-2.39
299.88	5.8
300.094	97.96
300.309	46.76
300.523	93.87
300.737	77.48
300.952	30.38
301.166	73.39
301.381	-8.53
301.595	-35.16
301.809	-31.06
302.024	-4.44
302.238	-14.68
302.452	95.91
302.667	7.85
302.881	106.15
303.095	126.63
303.309	59.05
303.524	-16.73
303.738	59.05
303.952	73.39
304.166	46.76
304.381	-100.69
304.595	157.35
304.809	38.57
305.023	136.87
305.237	83.63
305.452	-33.11
305.666	73.39
305.88	-0.34
306.094	134.82
306.308	110.25
306.522	38.57
306.736	48.81
306.95	79.53
307.164	11.95
307.379	-35.16
307.593	65.19
307.807	13.99
308.021	100.01
308.235	210.6
308.449	-100.69
308.663	-6.49
308.877	218.79
309.091	22.19
309.305	87.72
309.519	-82.26
309.733	106.15
309.947	-82.26
310.161	57
310.374	93.87
310.588	110.25
310.802	-10.58
311.016	11.95
311.23	104.11
311.444	-90.45
311.658	50.86
311.872	140.97
312.085	59.05
312.299	122.54
312.513	136.87
312.727	52.91
312.941	-53.59
313.154	22.19
313.368	52.91
313.582	-10.58
313.796	-16.73
314.009	11.95
314.223	93.87
314.437	95.91
314.651	20.14
314.864	59.05
315.078	1.71
315.292	-33.11
315.505	63.15
315.719	93.87
315.933	81.58
316.146	-76.12
316.36	18.09
316.573	204.46
316.787	48.81
317.001	22.19
317.214	-45.4
317.428	-2.39
317.641	-96.6
317.855	67.24
318.068	44.71
318.282	136.87
318.495	153.26
318.709	71.34
318.922	83.63
319.136	89.77
319.349	81.58
319.563	-14.68
319.776	59.05
319.99	-76.12
320.203	106.15
320.417	48.81
320.63	91.82
320.843	259.75
321.057	7.85
321.27	7.85
321.483	110.25
321.697	206.5
321.91	38.57
322.124	75.43
322.337	32.43
322.55	-49.49
322.763	83.63
322.977	50.86
323.19	69.29
323.403	-14.68
323.617	79.53
323.83	79.53
324.043	-63.83
324.256	-55.64
324.469	-29.01
324.683	118.44
324.896	-14.68
325.109	87.72
325.322	-72.02
325.535	110.25
325.748	91.82
325.962	63.15
326.175	57
326.388	-33.11
326.601	136.87
326.814	26.28
327.027	-37.2
327.24	147.11
327.453	-2.39
327.666	69.29
327.879	95.91
328.092	89.77
328.305	59.05
328.518	-88.4
328.731	93.87
328.944	9.9
329.157	81.58
329.37	-39.25
329.583	126.63
329.796	73.39
330.009	-98.64
330.222	61.1
330.435	52.91
330.648	134.82
330.861	93.87
331.073	79.53
331.286	126.63
331.499	71.34
331.712	-59.73
331.925	16.04
332.138	-10.58
332.35	67.24
332.563	-0.34
332.776	132.78
332.989	-14.68
333.202	3.75
333.414	-33.11
333.627	32.43
333.84	22.19
334.053	42.67
334.265	-10.58
334.478	-55.64
334.691	-2.39
334.903	48.81
335.116	9.9
335.329	3.75
335.541	151.21
335.754	155.3
335.966	38.57
336.179	-24.92
336.392	-18.77
336.604	-51.54
336.817	63.15
337.029	59.05
337.242	57
337.454	134.82
337.667	83.63
337.88	177.83
338.092	97.96
338.305	151.21
338.517	-8.53
338.729	69.29
338.942	130.73
339.154	-16.73
339.367	-53.59
339.579	108.2
339.792	-35.16
340.004	36.52
340.217	1.71
340.429	24.23
340.641	-16.73
340.854	-24.92
341.066	71.34
341.278	75.43
341.491	210.6
341.703	-14.68
341.915	3.75
342.128	118.44
342.34	26.28
342.552	-53.59
342.764	50.86
342.977	-57.68
343.189	147.11
343.401	42.67
343.613	-76.12
343.826	5.8
344.038	-16.73
344.25	20.14
344.462	-31.06
344.674	71.34
344.886	3.75
345.099	100.01
345.311	22.19
345.523	18.09
345.735	-94.55
345.947	69.29
346.159	77.48
346.371	7.85
346.583	9.9
346.795	190.12
347.007	20.14
347.219	71.34
347.431	1.71
347.643	114.34
347.855	-35.16
348.067	77.48
348.279	-65.88
348.491	1.71
348.703	22.19
348.915	20.14
349.127	-2.39
349.339	73.39
349.551	-2.39
349.763	75.43
349.975	34.47
350.187	13.99
350.399	138.92
350.61	34.47
350.822	22.19
351.034	48.81
351.246	83.63
351.458	122.54
351.669	50.86
351.881	161.45
352.093	93.87
352.305	97.96
352.517	110.25
352.728	165.54
352.94	81.58
353.152	50.86
353.363	18.09
353.575	9.9
353.787	87.72
353.999	36.52
354.21	124.58
354.422	-72.02
354.633	42.67
354.845	69.29
355.057	59.05
355.268	-26.96
355.48	30.38
355.692	-31.06
355.903	42.67
356.115	-47.44
356.326	-55.64
356.538	157.35
356.749	36.52
356.961	89.77
357.172	-24.92
357.384	26.28
357.595	220.84
357.807	71.34
358.018	-67.92
358.23	102.06
358.441	128.68
358.653	95.91
358.864	89.77
359.075	7.85
359.287	108.2
359.498	122.54
359.709	26.28
359.921	5.8
360.132	1.71
360.344	-26.96
360.555	44.71
360.766	91.82
360.977	13.99
361.189	134.82
361.4	34.47
361.611	167.59
361.823	134.82
362.034	9.9
362.245	-92.5
362.456	40.62
362.667	69.29
362.879	40.62
363.09	20.14
363.301	42.67
363.512	-16.73
363.723	1.71
363.935	-26.96
364.146	130.73
364.357	-2.39
364.568	110.25
364.779	-82.26
364.99	85.67
365.201	-33.11
365.412	42.67
365.623	-63.83
365.834	28.33
366.045	61.1
366.256	20.14
366.467	108.2
366.678	-16.73
366.889	18.09
367.1	-78.16
367.311	161.45
367.522	18.09
367.733	22.19
367.944	48.81
368.155	95.91
368.366	89.77
368.577	57
368.788	122.54
368.999	-18.77
369.209	24.23
369.42	245.41
369.631	288.42
369.842	116.39
370.053	61.1
370.264	165.54
370.474	-45.4
370.685	7.85
370.896	11.95
371.107	138.92
371.317	24.23
371.528	34.47
371.739	77.48
371.95	38.57
372.16	106.15
372.371	-8.53
372.582	7.85
372.792	59.05
373.003	102.06
373.214	52.91
373.424	28.33
373.635	7.85
373.846	128.68
374.056	40.62
374.267	5.8
374.477	93.87
374.688	-41.3
374.898	57
375.109	97.96
375.319	83.63
375.53	124.58
375.74	112.3
375.951	-18.77
376.161	89.77
376.372	120.49
376.582	-2.39
376.793	128.68
377.003	32.43
377.214	-0.34
377.424	42.67
377.635	-2.39
377.845	9.9
378.055	89.77
378.266	26.28
378.476	-4.44
378.686	89.77
378.897	83.63
379.107	108.2
379.317	22.19
379.528	-2.39
379.738	57
379.948	-61.78
380.158	149.16
380.369	30.38
380.579	112.3
380.789	-4.44
380.999	102.06
381.21	157.35
381.42	183.98
381.63	57
381.84	114.34
382.05	48.81
382.261	75.43
382.471	206.5
382.681	-8.53
382.891	95.91
383.101	36.52
383.311	16.04
383.521	-72.02
383.731	81.58
383.941	159.4
384.151	34.47
384.361	32.43
384.571	48.81
384.781	46.76
384.991	196.26
385.201	173.74
385.411	73.39
385.621	89.77
385.831	71.34
386.041	75.43
386.251	-98.64
386.461	169.64
386.671	87.72
386.881	132.78
387.091	1.71
387.301	173.74
387.511	-4.44
387.72	69.29
387.93	93.87
388.14	-65.88
388.35	11.95
388.56	153.26
388.769	122.54
388.979	24.23
389.189	5.8
389.399	26.28
389.609	48.81
389.818	63.15
390.028	22.19
390.238	110.25
390.447	-2.39
390.657	87.72
390.867	7.85
391.076	-55.64
391.286	34.47
391.496	-41.3
391.705	83.63
391.915	136.87
392.125	87.72
392.334	-33.11
392.544	140.97
392.753	22.19
392.963	-31.06
393.172	63.15
393.382	-6.49
393.591	138.92
393.801	7.85
394.01	140.97
394.22	122.54
394.429	11.95
394.639	11.95
394.848	52.91
395.058	52.91
395.267	9.9
395.477	93.87
395.686	28.33
395.895	95.91
396.105	204.46
396.314	73.39
396.524	63.15
396.733	-18.77
396.942	163.5
397.152	97.96
397.361	102.06
397.57	61.1
397.78	134.82
397.989	122.54
398.198	222.89
398.407	87.72
398.617	59.05
398.826	65.19
399.035	32.43
399.244	167.59
399.453	-0.34
399.663	-10.58
399.872	67.24
400.081	-45.4
400.29	81.58
400.499	13.99
400.708	173.74
400.917	-53.59
401.127	-2.39
401.336	-24.92
401.545	261.8
401.754	130.73
401.963	93.87
402.172	7.85
402.381	-33.11
402.59	-12.63
402.799	100.01
403.008	54.95
403.217	-18.77
403.426	63.15
403.635	44.71
403.844	54.95
404.053	-61.78
404.262	28.33
404.471	155.3
404.68	26.28
404.888	46.76
405.097	-37.2
405.306	30.38
405.515	108.2
405.724	28.33
405.933	71.34
406.142	9.9
406.35	126.63
406.559	52.91
406.768	59.05
406.977	95.91
407.185	13.99
407.394	36.52
407.603	-10.58
407.812	73.39
408.02	46.76
408.229	65.19
408.438	48.81
408.646	-131.41
408.855	38.57
409.064	36.52
409.272	-6.49
409.481	40.62
409.69	48.81
409.898	-45.4
410.107	73.39
410.315	83.63
410.524	-47.44
410.733	46.76
410.941	-0.34
411.15	-10.58
411.358	134.82
411.567	192.17
411.775	38.57
411.984	95.91
412.192	59.05
412.401	46.76
412.609	183.98
412.818	210.6
413.026	110.25
413.234	42.67
413.443	20.14
413.651	-78.16
413.86	-8.53
414.068	132.78
414.276	202.41
414.485	-16.73
414.693	114.34
414.901	167.59
415.11	75.43
415.318	36.52
415.526	18.09
415.734	122.54
415.943	9.9
416.151	138.92
416.359	42.67
416.567	26.28
416.776	20.14
416.984	81.58
417.192	130.73
417.4	20.14
417.608	-24.92
417.817	-4.44
418.025	69.29
418.233	140.97
418.441	-61.78
418.649	18.09
418.857	97.96
419.065	140.97
419.273	106.15
419.481	-16.73
419.689	7.85
419.897	40.62
420.105	-43.35
420.313	116.39
420.521	177.83
420.729	143.02
420.937	9.9
421.145	-33.11
421.353	128.68
421.561	124.58
421.769	36.52
421.977	-6.49
422.185	79.53
422.393	61.1
422.601	124.58
422.809	97.96
423.017	65.19
423.224	-6.49
423.432	130.73
423.64	81.58
423.848	122.54
424.056	40.62
424.263	165.54
424.471	18.09
424.679	102.06
424.887	16.04
425.094	124.58
425.302	75.43
425.51	87.72
425.718	147.11
425.925	67.24
426.133	-39.25
426.341	124.58
426.548	22.19
426.756	83.63
426.964	73.39
427.171	11.95
427.379	59.05
427.586	52.91
427.794	3.75
428.001	124.58
428.209	89.77
428.417	136.87
428.624	222.89
428.832	83.63
429.039	77.48
429.247	36.52
429.454	85.67
429.662	151.21
429.869	220.84
430.076	93.87
430.284	97.96
430.491	204.46
430.699	102.06
430.906	206.5
431.114	157.35
431.321	59.05
431.528	83.63
431.736	210.6
431.943	95.91
432.15	190.12
432.358	175.78
432.565	202.41
432.772	52.91
432.979	163.5
433.187	106.15
433.394	210.6
433.601	85.67
433.808	210.6
434.016	235.18
434.223	247.46
434.43	140.97
434.637	298.66
434.844	196.26
435.052	161.45
435.259	243.37
435.466	231.08
435.673	220.84
435.88	292.52
436.087	351.91
436.294	257.7
436.501	341.67
436.708	233.13
436.915	259.75
437.122	298.66
437.329	288.42
437.537	310.95
437.743	247.46
437.95	454.31
438.157	313
438.364	337.57
438.571	329.38
438.778	415.4
438.985	489.12
439.192	384.68
439.399	456.36
439.606	403.11
439.813	495.27
440.02	591.52
440.227	609.95
440.433	609.95
440.64	532.13
440.847	437.92
441.054	581.28
441.261	636.58
441.467	528.03
441.674	622.24
441.881	628.39
442.088	614.05
442.294	708.26
442.501	718.5
442.708	786.08
442.914	675.49
443.121	779.93
443.328	806.56
443.534	818.85
443.741	827.04
443.948	642.72
444.154	925.34
444.361	1105.56
444.568	855.71
444.774	927.39
444.981	908.96
445.187	1027.74
445.394	1064.6
445.6	1089.18
445.807	1195.67
446.013	1111.71
446.22	1080.99
446.426	1302.17
446.633	1351.32
446.839	1517.2
447.046	1265.3
447.252	1539.73
447.459	1574.55
447.665	1427.09
447.871	1697.42
448.078	1730.19
448.284	1748.62
448.491	1758.86
448.697	2004.62
448.903	1984.14
449.11	1902.22
449.316	1982.09
449.522	2270.86
449.728	2199.18
449.935	2363.01
450.141	2295.43
450.347	2516.61
450.553	2385.54
450.76	2553.48
450.966	2729.6
451.172	2829.95
451.378	2963.07
451.584	2911.87
451.791	3161.72
451.997	3137.15
452.203	3210.87
452.409	3530.36
452.615	3632.76
452.821	3407.48
453.027	3520.12
453.233	3976.81
453.44	3841.65
453.646	4132.46
453.852	4165.23
454.058	4486.76
454.264	4572.77
454.47	4863.58
454.676	4953.7
454.882	5301.85
455.088	5078.62
455.294	5412.44
455.5	5725.78
455.705	5885.52
455.911	6059.6
456.117	6243.92
456.323	6321.74
456.529	6426.18
456.735	6942.27
456.941	7067.2
457.147	7413.31
457.352	7734.84
457.558	7710.26
457.764	8355.37
457.97	8472.11
458.176	8906.27
458.381	9291.29
458.587	9477.66
458.793	9899.54
458.999	10042.9
459.204	11068.93
459.41	11519.48
459.616	11412.99
459.821	12101.11
460.027	12543.47
460.233	13133.28
460.438	13276.64
460.644	13823.45
460.85	14007.76
461.055	14585.29
461.261	15234.5
461.466	15138.24
461.672	15121.86
461.878	17128.87
462.083	16991.66
462.289	17360.29
462.494	17984.92
462.7	18148.76
462.905	18464.14
463.111	19662.21
463.316	20899.18
463.522	21167.46
463.727	22021.47
463.932	22865.23
464.138	23354.69
464.343	24436.02
464.549	24524.08
464.754	26473.75
464.959	26795.28
465.165	27315.47
465.37	27251.98
465.575	27157.77
465.781	28695.8
465.986	30469.34
466.191	29394.15
466.397	29727.97
466.602	29328.62
466.807	30899.41
467.012	31124.69
467.218	31718.6
467.423	31837.38
467.628	33184.94
467.833	34503.84
468.038	33954.98
468.244	33420.46
468.449	35167.38
468.654	34462.88
468.859	34329.76
