Data from USB4F104151__253__11-20-06-534.txt Node

Date: Wed Feb 26 11:20:06 EST 2025
User: louis
Spectrometer: USB4F10415
Trigger mode: 4
Integration Time (sec): 1.000000E-1
Scans to average: 1
Electric dark correction enabled: true
Nonlinearity correction enabled: false
Boxcar width: 0
XAxis mode: Wavelengths
Number of Pixels in Spectrum: 3648
>>>>>Begin Spectral Data<<<<<
178.204	-395.09
178.424	-395.09
178.644	-395.09
178.864	-436.05
179.084	-386.9
179.304	30.89
179.524	-61.27
179.744	59.56
179.964	37.03
180.184	61.61
180.404	-18.26
180.624	39.08
180.844	14.51
181.064	-73.56
181.283	-32.6
181.503	-65.36
181.723	8.36
181.943	-104.28
182.163	129.19
182.383	-67.41
182.602	84.14
182.822	133.29
183.042	59.56
183.262	20.65
183.482	22.7
183.701	43.18
183.921	-22.36
184.141	-22.36
184.361	47.27
184.58	75.95
184.8	6.31
185.02	-16.21
185.239	125.1
185.459	127.14
185.679	106.67
185.898	-26.45
186.118	16.55
186.338	49.32
186.557	96.43
186.777	-42.84
186.997	65.71
187.216	32.94
187.436	272.55
187.655	59.56
187.875	100.52
188.095	61.61
188.314	153.77
188.534	106.67
188.753	8.36
188.973	112.81
189.192	151.72
189.412	-36.69
189.631	67.75
189.851	88.23
190.07	108.71
190.29	-53.08
190.509	14.51
190.729	14.51
190.948	106.67
191.168	256.17
191.387	16.55
191.607	-20.31
191.826	45.23
192.045	43.18
192.265	47.27
192.484	133.29
192.704	102.57
192.923	16.55
193.142	188.58
193.362	114.86
193.581	127.14
193.8	14.51
194.02	59.56
194.239	61.61
194.458	77.99
194.678	2.22
194.897	22.7
195.116	88.23
195.335	84.14
195.555	65.71
195.774	-22.36
195.993	116.9
196.212	41.13
196.432	-51.03
196.651	-18.26
196.87	96.43
197.089	297.13
197.308	37.03
197.528	77.99
197.747	-32.6
197.966	116.9
198.185	123.05
198.404	-38.74
198.623	96.43
198.842	94.38
199.062	102.57
199.281	37.03
199.5	18.6
199.719	157.86
199.938	10.41
200.157	51.37
200.376	65.71
200.595	149.67
200.814	30.89
201.033	-44.88
201.252	84.14
201.471	67.75
201.69	61.61
201.909	37.03
202.128	112.81
202.347	88.23
202.566	10.41
202.785	-53.08
203.004	-5.97
203.223	235.69
203.442	32.94
203.661	-48.98
203.879	12.46
204.098	151.72
204.317	-65.36
204.536	12.46
204.755	184.49
204.974	47.27
205.193	-3.93
205.411	92.33
205.63	94.38
205.849	2.22
206.068	43.18
206.287	-34.64
206.505	84.14
206.724	34.99
206.943	-5.97
207.162	-51.03
207.381	65.71
207.599	-26.45
207.818	80.04
208.037	-8.02
208.255	26.79
208.474	43.18
208.693	63.66
208.911	2.22
209.13	96.43
209.349	129.19
209.567	92.33
209.786	28.84
210.005	86.19
210.223	20.65
210.442	-128.85
210.661	-46.93
210.879	-5.97
211.098	-26.45
211.316	39.08
211.535	84.14
211.753	73.9
211.972	94.38
212.191	43.18
212.409	43.18
212.628	59.56
212.846	22.7
213.065	45.23
213.283	102.57
213.502	98.47
213.72	24.75
213.938	-44.88
214.157	-34.64
214.375	164.01
214.594	-32.6
214.812	47.27
215.031	4.27
215.249	-12.12
215.467	-48.98
215.686	82.09
215.904	75.95
216.122	133.29
216.341	88.23
216.559	86.19
216.778	164.01
216.996	153.77
217.214	67.75
217.432	41.13
217.651	-36.69
217.869	77.99
218.087	84.14
218.306	18.6
218.524	37.03
218.742	-20.31
218.96	176.3
219.179	22.7
219.397	90.28
219.615	280.74
219.833	96.43
220.051	-81.75
220.27	145.58
220.488	112.81
220.706	102.57
220.924	-57.17
221.142	-14.17
221.36	57.51
221.578	59.56
221.796	-1.88
222.015	-32.6
222.233	14.51
222.451	147.62
222.669	-44.88
222.887	45.23
223.105	8.36
223.323	-1.88
223.541	-42.84
223.759	37.03
223.977	8.36
224.195	250.02
224.413	39.08
224.631	127.14
224.849	69.8
225.067	155.82
225.285	-46.93
225.503	-44.88
225.721	-130.9
225.939	-22.36
226.157	-36.69
226.375	233.64
226.592	-3.93
226.81	-30.55
227.028	55.47
227.246	104.62
227.464	59.56
227.682	114.86
227.9	-22.36
228.117	24.75
228.335	159.91
228.553	73.9
228.771	-8.02
228.989	37.03
229.206	28.84
229.424	-75.6
229.642	45.23
229.86	-38.74
230.077	141.48
230.295	-30.55
230.513	80.04
230.731	16.55
230.948	118.95
231.166	164.01
231.384	20.65
231.601	-40.79
231.819	153.77
232.037	-36.69
232.254	-28.5
232.472	2.22
232.689	12.46
232.907	147.62
233.125	-10.07
233.342	-36.69
233.56	-22.36
233.777	-83.8
233.995	-12.12
234.213	137.38
234.43	157.86
234.648	-57.17
234.865	12.46
235.083	39.08
235.3	77.99
235.518	135.34
235.735	141.48
235.953	4.27
236.17	-22.36
236.388	-16.21
236.605	59.56
236.822	92.33
237.04	149.67
237.257	61.61
237.475	-3.93
237.692	22.7
237.909	34.99
238.127	18.6
238.344	53.42
238.562	96.43
238.779	-96.08
238.996	-5.97
239.214	-67.41
239.431	77.99
239.648	-14.17
239.865	88.23
240.083	106.67
240.3	-24.4
240.517	63.66
240.735	75.95
240.952	84.14
241.169	94.38
241.386	75.95
241.603	-40.79
241.821	-38.74
242.038	100.52
242.255	65.71
242.472	-44.88
242.689	147.62
242.907	51.37
243.124	82.09
243.341	92.33
243.558	-83.8
243.775	-46.93
243.992	-8.02
244.209	90.28
244.426	69.8
244.643	43.18
244.86	34.99
245.078	28.84
245.295	92.33
245.512	73.9
245.729	47.27
245.946	20.65
246.163	14.51
246.38	-24.4
246.597	22.7
246.814	-8.02
247.031	6.31
247.248	39.08
247.464	6.31
247.681	8.36
247.898	73.9
248.115	96.43
248.332	41.13
248.549	202.92
248.766	204.97
248.983	39.08
249.2	28.84
249.417	63.66
249.633	0.17
249.85	102.57
250.067	28.84
250.284	37.03
250.501	-30.55
250.717	96.43
250.934	24.75
251.151	30.89
251.368	55.47
251.585	63.66
251.801	84.14
252.018	-28.5
252.235	77.99
252.451	-91.99
252.668	-22.36
252.885	49.32
253.102	6.31
253.318	-30.55
253.535	-59.22
253.752	-18.26
253.968	-46.93
254.185	-106.32
254.401	94.38
254.618	75.95
254.835	-87.89
255.051	159.91
255.268	73.9
255.484	59.56
255.701	75.95
255.917	57.51
256.134	-46.93
256.351	61.61
256.567	-53.08
256.784	28.84
257	-81.75
257.217	147.62
257.433	121
257.65	77.99
257.866	106.67
258.082	-59.22
258.299	49.32
258.515	-20.31
258.732	43.18
258.948	14.51
259.165	94.38
259.381	49.32
259.597	104.62
259.814	30.89
260.03	45.23
260.246	49.32
260.463	135.34
260.679	135.34
260.895	2.22
261.112	100.52
261.328	-18.26
261.544	-38.74
261.761	104.62
261.977	51.37
262.193	-48.98
262.409	182.44
262.626	0.17
262.842	96.43
263.058	0.17
263.274	20.65
263.49	61.61
263.707	90.28
263.923	71.85
264.139	-42.84
264.355	47.27
264.571	137.38
264.787	16.55
265.004	71.85
265.22	-20.31
265.436	-20.31
265.652	-3.93
265.868	8.36
266.084	-65.36
266.3	51.37
266.516	-24.4
266.732	94.38
266.948	18.6
267.164	-12.12
267.38	92.33
267.596	61.61
267.812	149.67
268.028	-26.45
268.244	12.46
268.46	67.75
268.676	45.23
268.892	59.56
269.108	-36.69
269.324	-65.36
269.54	6.31
269.756	75.95
269.972	-59.22
270.188	71.85
270.403	-18.26
270.619	26.79
270.835	106.67
271.051	55.47
271.267	-96.08
271.483	-53.08
271.698	104.62
271.914	28.84
272.13	22.7
272.346	63.66
272.562	82.09
272.777	176.3
272.993	80.04
273.209	-1.88
273.425	80.04
273.64	-26.45
273.856	102.57
274.072	-8.02
274.287	-22.36
274.503	172.2
274.719	110.76
274.934	-1.88
275.15	-110.42
275.366	22.7
275.581	-71.51
275.797	22.7
276.012	67.75
276.228	-1.88
276.444	37.03
276.659	118.95
276.875	-24.4
277.09	61.61
277.306	-14.17
277.521	121
277.737	24.75
277.952	34.99
278.168	34.99
278.383	77.99
278.599	37.03
278.814	90.28
279.03	92.33
279.245	82.09
279.461	18.6
279.676	22.7
279.892	-53.08
280.107	-61.27
280.322	-42.84
280.538	135.34
280.753	14.51
280.969	16.55
281.184	55.47
281.399	196.78
281.615	37.03
281.83	30.89
282.045	-59.22
282.26	-8.02
282.476	8.36
282.691	57.51
282.906	57.51
283.122	147.62
283.337	69.8
283.552	2.22
283.767	8.36
283.983	100.52
284.198	43.18
284.413	0.17
284.628	32.94
284.843	75.95
285.058	28.84
285.274	-26.45
285.489	-48.98
285.704	71.85
285.919	-1.88
286.134	75.95
286.349	43.18
286.564	-42.84
286.779	215.21
286.995	-75.6
287.21	-40.79
287.425	139.43
287.64	84.14
287.855	82.09
288.07	-85.84
288.285	90.28
288.5	96.43
288.715	37.03
288.93	30.89
289.145	22.7
289.36	8.36
289.575	2.22
289.79	125.1
290.004	51.37
290.219	102.57
290.434	-8.02
290.649	24.75
290.864	22.7
291.079	14.51
291.294	67.75
291.509	153.77
291.724	-32.6
291.938	6.31
292.153	125.1
292.368	16.55
292.583	41.13
292.798	75.95
293.012	82.09
293.227	63.66
293.442	-14.17
293.657	239.78
293.871	149.67
294.086	137.38
294.301	186.54
294.516	121
294.73	65.71
294.945	-26.45
295.16	59.56
295.374	114.86
295.589	20.65
295.804	-48.98
296.018	26.79
296.233	112.81
296.447	10.41
296.662	-28.5
296.877	110.76
297.091	53.42
297.306	22.7
297.52	-16.21
297.735	22.7
297.949	73.9
298.164	2.22
298.378	82.09
298.593	34.99
298.807	20.65
299.022	-53.08
299.236	92.33
299.451	8.36
299.665	-51.03
299.88	-65.36
300.094	47.27
300.309	8.36
300.523	-36.69
300.737	39.08
300.952	88.23
301.166	-8.02
301.381	6.31
301.595	-34.64
301.809	39.08
302.024	73.9
302.238	-28.5
302.452	139.43
302.667	2.22
302.881	57.51
303.095	28.84
303.309	61.61
303.524	-32.6
303.738	-10.07
303.952	-34.64
304.166	98.47
304.381	-91.99
304.595	207.02
304.809	-5.97
305.023	4.27
305.237	34.99
305.452	-69.46
305.666	73.9
305.88	84.14
306.094	139.43
306.308	82.09
306.522	131.24
306.736	-36.69
306.95	61.61
307.164	69.8
307.379	-1.88
307.593	172.2
307.807	141.48
308.021	43.18
308.235	24.75
308.449	-71.51
308.663	12.46
308.877	211.11
309.091	96.43
309.305	49.32
309.519	-57.17
309.733	135.34
309.947	-59.22
310.161	61.61
310.374	108.71
310.588	145.58
310.802	-34.64
311.016	47.27
311.23	118.95
311.444	-63.32
311.658	32.94
311.872	90.28
312.085	67.75
312.299	143.53
312.513	141.48
312.727	75.95
312.941	26.79
313.154	92.33
313.368	80.04
313.582	41.13
313.796	82.09
314.009	49.32
314.223	155.82
314.437	6.31
314.651	-10.07
314.864	2.22
315.078	32.94
315.292	32.94
315.505	45.23
315.719	4.27
315.933	57.51
316.146	-53.08
316.36	6.31
316.573	172.2
316.787	94.38
317.001	84.14
317.214	-40.79
317.428	45.23
317.641	2.22
317.855	-28.5
318.068	63.66
318.282	16.55
318.495	192.68
318.709	80.04
318.922	34.99
319.136	192.68
319.349	51.37
319.563	30.89
319.776	30.89
319.99	-63.32
320.203	0.17
320.417	-10.07
320.63	61.61
320.843	198.82
321.057	-12.12
321.27	26.79
321.483	22.7
321.697	168.1
321.91	118.95
322.124	69.8
322.337	77.99
322.55	12.46
322.763	43.18
322.977	-3.93
323.19	-22.36
323.403	28.84
323.617	49.32
323.83	49.32
324.043	37.03
324.256	28.84
324.469	-40.79
324.683	53.42
324.896	53.42
325.109	14.51
325.322	-77.65
325.535	47.27
325.748	121
325.962	-24.4
326.175	34.99
326.388	84.14
326.601	174.25
326.814	84.14
327.027	45.23
327.24	141.48
327.453	-40.79
327.666	63.66
327.879	139.43
328.092	10.41
328.305	92.33
328.518	-12.12
328.731	-53.08
328.944	30.89
329.157	88.23
329.37	30.89
329.583	180.39
329.796	186.54
330.009	-34.64
330.222	57.51
330.435	69.8
330.648	71.85
330.861	10.41
331.073	57.51
331.286	123.05
331.499	88.23
331.712	30.89
331.925	2.22
332.138	22.7
332.35	125.1
332.563	-36.69
332.776	77.99
332.989	51.37
333.202	47.27
333.414	26.79
333.627	73.9
333.84	26.79
334.053	108.71
334.265	-34.64
334.478	10.41
334.691	43.18
334.903	90.28
335.116	49.32
335.329	34.99
335.541	112.81
335.754	98.47
335.966	10.41
336.179	-30.55
336.392	-1.88
336.604	49.32
336.817	73.9
337.029	98.47
337.242	6.31
337.454	106.67
337.667	106.67
337.88	188.58
338.092	26.79
338.305	110.76
338.517	-67.41
338.729	73.9
338.942	39.08
339.154	-38.74
339.367	-20.31
339.579	125.1
339.792	8.36
340.004	108.71
340.217	2.22
340.429	-30.55
340.641	-34.64
340.854	10.41
341.066	10.41
341.278	139.43
341.491	166.06
341.703	32.94
341.915	-65.36
342.128	108.71
342.34	26.79
342.552	-22.36
342.764	30.89
342.977	14.51
343.189	37.03
343.401	88.23
343.613	-59.22
343.826	-3.93
344.038	-14.17
344.25	51.37
344.462	45.23
344.674	141.48
344.886	71.85
345.099	51.37
345.311	12.46
345.523	14.51
345.735	-143.19
345.947	34.99
346.159	131.24
346.371	47.27
346.583	28.84
346.795	207.02
347.007	8.36
347.219	71.85
347.431	-8.02
347.643	110.76
347.855	12.46
348.067	61.61
348.279	-30.55
348.491	-1.88
348.703	102.57
348.915	88.23
349.127	-40.79
349.339	69.8
349.551	-8.02
349.763	182.44
349.975	61.61
350.187	141.48
350.399	61.61
350.61	20.65
350.822	4.27
351.034	32.94
351.246	102.57
351.458	121
351.669	92.33
351.881	114.86
352.093	98.47
352.305	71.85
352.517	61.61
352.728	139.43
352.94	106.67
353.152	45.23
353.363	-46.93
353.575	10.41
353.787	223.4
353.999	12.46
354.21	166.06
354.422	-87.89
354.633	-32.6
354.845	82.09
355.057	41.13
355.268	39.08
355.48	59.56
355.692	-89.94
355.903	4.27
356.115	-63.32
356.326	-46.93
356.538	118.95
356.749	118.95
356.961	65.71
357.172	26.79
357.384	-16.21
357.595	245.93
357.807	0.17
358.018	53.42
358.23	28.84
358.441	174.25
358.653	10.41
358.864	39.08
359.075	-48.98
359.287	92.33
359.498	180.39
359.709	43.18
359.921	2.22
360.132	88.23
360.344	71.85
360.555	12.46
360.766	39.08
360.977	55.47
361.189	86.19
361.4	-22.36
361.611	57.51
361.823	55.47
362.034	69.8
362.245	-46.93
362.456	55.47
362.667	57.51
362.879	-32.6
363.09	41.13
363.301	73.9
363.512	47.27
363.723	-3.93
363.935	20.65
364.146	65.71
364.357	43.18
364.568	59.56
364.779	-48.98
364.99	139.43
365.201	-20.31
365.412	133.29
365.623	-98.13
365.834	47.27
366.045	-8.02
366.256	82.09
366.467	26.79
366.678	104.62
366.889	16.55
367.1	2.22
367.311	90.28
367.522	-57.17
367.733	161.96
367.944	49.32
368.155	6.31
368.366	116.9
368.577	118.95
368.788	88.23
368.999	-14.17
369.209	49.32
369.42	227.5
369.631	225.45
369.842	53.42
370.053	-8.02
370.264	100.52
370.474	-18.26
370.685	77.99
370.896	-5.97
371.107	170.15
371.317	61.61
371.528	10.41
371.739	102.57
371.95	110.76
372.16	116.9
372.371	6.31
372.582	20.65
372.792	61.61
373.003	43.18
373.214	157.86
373.424	59.56
373.635	-32.6
373.846	139.43
374.056	34.99
374.267	-8.02
374.477	-20.31
374.688	96.43
374.898	49.32
375.109	10.41
375.319	73.9
375.53	57.51
375.74	92.33
375.951	24.75
376.161	2.22
376.372	24.75
376.582	41.13
376.793	118.95
377.003	-5.97
377.214	-40.79
377.424	59.56
377.635	61.61
377.845	14.51
378.055	143.53
378.266	-42.84
378.476	-57.17
378.686	123.05
378.897	22.7
379.107	151.72
379.317	49.32
379.528	-55.12
379.738	84.14
379.948	-5.97
380.158	86.19
380.369	57.51
380.579	88.23
380.789	10.41
380.999	43.18
381.21	151.72
381.42	268.45
381.63	8.36
381.84	112.81
382.05	51.37
382.261	123.05
382.471	104.62
382.681	6.31
382.891	190.63
383.101	114.86
383.311	-100.18
383.521	-42.84
383.731	170.15
383.941	125.1
384.151	82.09
384.361	-10.07
384.571	2.22
384.781	59.56
384.991	221.35
385.201	131.24
385.411	75.95
385.621	65.71
385.831	32.94
386.041	104.62
386.251	96.43
386.461	139.43
386.671	-16.21
386.881	41.13
387.091	2.22
387.301	100.52
387.511	43.18
387.72	86.19
387.93	151.72
388.14	-18.26
388.35	75.95
388.56	108.71
388.769	63.66
388.979	41.13
389.189	2.22
389.399	-38.74
389.609	88.23
389.818	166.06
390.028	82.09
390.238	73.9
390.447	6.31
390.657	45.23
390.867	28.84
391.076	-22.36
391.286	4.27
391.496	47.27
391.705	90.28
391.915	225.45
392.125	26.79
392.334	24.75
392.544	182.44
392.753	51.37
392.963	-26.45
393.172	14.51
393.382	0.17
393.591	100.52
393.801	-12.12
394.01	159.91
394.22	30.89
394.429	24.75
394.639	28.84
394.848	125.1
395.058	88.23
395.267	49.32
395.477	131.24
395.686	34.99
395.895	217.26
396.105	209.06
396.314	88.23
396.524	47.27
396.733	24.75
396.942	82.09
397.152	153.77
397.361	139.43
397.57	37.03
397.78	32.94
397.989	145.58
398.198	32.94
398.407	137.38
398.617	12.46
398.826	108.71
399.035	131.24
399.244	153.77
399.453	53.42
399.663	10.41
399.872	37.03
400.081	8.36
400.29	106.67
400.499	-61.27
400.708	90.28
400.917	45.23
401.127	24.75
401.336	-44.88
401.545	174.25
401.754	114.86
401.963	104.62
402.172	67.75
402.381	-20.31
402.59	-32.6
402.799	49.32
403.008	151.72
403.217	37.03
403.426	41.13
403.635	-98.13
403.844	22.7
404.053	-10.07
404.262	16.55
404.471	182.44
404.68	34.99
404.888	104.62
405.097	61.61
405.306	10.41
405.515	71.85
405.724	0.17
405.933	16.55
406.142	71.85
406.35	168.1
406.559	73.9
406.768	59.56
406.977	168.1
407.185	57.51
407.394	106.67
407.603	8.36
407.812	84.14
408.02	88.23
408.229	6.31
408.438	-3.93
408.646	0.17
408.855	77.99
409.064	100.52
409.272	37.03
409.481	123.05
409.69	73.9
409.898	-26.45
410.107	147.62
410.315	73.9
410.524	45.23
410.733	34.99
410.941	12.46
411.15	28.84
411.358	73.9
411.567	137.38
411.775	-10.07
411.984	96.43
412.192	61.61
412.401	18.6
412.609	110.76
412.818	137.38
413.026	96.43
413.234	49.32
413.443	65.71
413.651	-38.74
413.86	-1.88
414.068	110.76
414.276	168.1
414.485	14.51
414.693	139.43
414.901	219.3
415.11	100.52
415.318	-16.21
415.526	106.67
415.734	118.95
415.943	118.95
416.151	147.62
416.359	57.51
416.567	196.78
416.776	108.71
416.984	43.18
417.192	155.82
417.4	-16.21
417.608	-14.17
417.817	14.51
418.025	151.72
418.233	147.62
418.441	-51.03
418.649	-16.21
418.857	59.56
419.065	127.14
419.273	14.51
419.481	61.61
419.689	98.47
419.897	53.42
420.105	18.6
420.313	-10.07
420.521	182.44
420.729	172.2
420.937	-94.04
421.145	22.7
421.353	118.95
421.561	123.05
421.769	57.51
421.977	32.94
422.185	75.95
422.393	6.31
422.601	104.62
422.809	94.38
423.017	102.57
423.224	28.84
423.432	143.53
423.64	57.51
423.848	116.9
424.056	20.65
424.263	108.71
424.471	51.37
424.679	141.48
424.887	-12.12
425.094	82.09
425.302	153.77
425.51	0.17
425.718	73.9
425.925	39.08
426.133	80.04
426.341	282.79
426.548	59.56
426.756	-14.17
426.964	114.86
427.171	125.1
427.379	98.47
427.586	118.95
427.794	108.71
428.001	174.25
428.209	112.81
428.417	202.92
428.624	131.24
428.832	90.28
429.039	202.92
429.247	129.19
429.454	98.47
429.662	215.21
429.869	127.14
430.076	207.02
430.284	164.01
430.491	186.54
430.699	168.1
430.906	151.72
431.114	118.95
431.321	170.15
431.528	104.62
431.736	131.24
431.943	202.92
432.15	121
432.358	190.63
432.565	231.59
432.772	28.84
432.979	254.12
433.187	139.43
433.394	194.73
433.601	98.47
433.808	159.91
434.016	276.65
434.223	204.97
434.43	270.5
434.637	225.45
434.844	317.61
435.052	252.07
435.259	372.9
435.466	270.5
435.673	286.89
435.88	231.59
436.087	258.21
436.294	325.8
436.501	338.09
436.708	254.12
436.915	377
437.122	358.57
437.329	270.5
437.537	338.09
437.743	329.89
437.95	473.25
438.157	409.76
438.364	348.33
438.571	454.82
438.778	397.48
438.985	422.05
439.192	600.23
439.399	477.35
439.606	518.31
439.813	540.83
440.02	661.66
440.227	698.53
440.433	594.08
440.64	518.31
440.847	557.22
441.054	567.46
441.261	802.97
441.467	610.47
441.674	602.27
441.881	848.03
442.088	714.91
442.294	753.82
442.501	862.37
442.708	917.66
442.914	825.5
443.121	821.41
443.328	864.41
443.534	897.18
443.741	903.32
443.948	903.32
444.154	1056.92
444.361	1167.51
444.568	1122.46
444.774	1149.08
444.981	1003.68
445.187	1245.34
445.394	1194.14
445.6	1175.7
445.807	1357.97
446.013	1233.05
446.22	1265.82
446.426	1433.75
446.633	1534.1
446.839	1673.36
447.046	1398.93
447.252	1661.07
447.459	1691.79
447.665	1745.04
447.871	1908.88
448.078	2021.52
448.284	1984.65
448.491	2150.54
448.697	2164.87
448.903	2269.32
449.11	2125.96
449.316	2189.45
449.522	2388.1
449.728	2576.52
449.935	2601.09
450.141	2627.71
450.347	2926.72
450.553	2838.66
450.76	2904.19
450.966	2977.92
451.172	3156.09
451.378	3354.74
451.584	3145.85
451.791	3592.31
451.997	3608.69
452.203	3709.04
452.409	3876.98
452.615	4067.44
452.821	3962.99
453.027	3960.94
453.233	4454.5
453.44	4270.19
453.646	4503.65
453.852	4606.05
454.058	5003.36
454.264	5052.51
454.47	5558.36
454.676	5513.3
454.882	5865.55
455.088	5730.39
455.294	5978.19
455.5	6445.13
455.705	6680.64
455.911	6844.48
456.117	6989.89
456.323	7247.93
456.529	7180.35
456.735	7833.65
456.941	8046.64
457.147	8298.54
457.352	8751.14
457.558	8894.5
457.764	9564.18
457.97	9490.46
458.176	9924.63
458.381	10539.02
458.587	10819.59
458.793	11128.83
458.999	11255.81
459.204	12521.45
459.41	13088.74
459.616	12664.81
459.821	13701.08
460.027	14254.03
460.233	14870.47
460.438	15040.45
460.644	15914.94
460.85	16017.33
461.055	16115.64
461.261	17215.4
461.466	17229.73
461.672	17407.91
461.878	19376
462.083	19189.64
462.289	19388.29
462.494	20326.26
462.7	20479.86
462.905	20731.76
463.111	22472.53
463.316	23590.72
463.522	23994.17
463.727	24829.74
463.932	25786.15
464.138	26404.63
464.343	27373.32
464.549	27893.51
464.754	29779.68
464.959	30435.03
465.165	30987.99
465.37	30617.3
465.575	31143.63
465.781	32970.42
465.986	33849
466.191	33232.56
466.397	34023.08
466.602	33017.52
466.807	34750.1
467.012	35706.51
467.218	35903.11
467.423	36025.99
467.628	36980.34
467.833	38874.71
468.038	37955.18
468.244	37824.11
468.449	39538.26
468.654	39005.78
