Data from USB4F104151__82__10-44-22-769.txt Node

Date: Wed Feb 26 10:44:22 EST 2025
User: louis
Spectrometer: USB4F10415
Trigger mode: 4
Integration Time (sec): 1.000000E-1
Scans to average: 1
Electric dark correction enabled: true
Nonlinearity correction enabled: false
Boxcar width: 0
XAxis mode: Wavelengths
Number of Pixels in Spectrum: 3648
>>>>>Begin Spectral Data<<<<<
178.204	-403.45
178.424	-403.45
178.644	-403.45
178.864	-430.07
179.084	-403.45
179.304	-59.39
179.524	10.24
179.744	43.01
179.964	34.82
180.184	10.24
180.404	8.19
180.624	-2.05
180.844	-22.53
181.064	-65.54
181.283	-12.29
181.503	-55.3
181.723	110.59
181.943	-40.96
182.163	151.55
182.383	14.34
182.602	92.16
182.822	200.7
183.042	59.39
183.262	18.43
183.482	61.44
183.701	-18.43
183.921	69.63
184.141	-45.06
184.361	92.16
184.58	32.77
184.8	34.82
185.02	-2.05
185.239	59.39
185.459	122.88
185.679	124.93
185.898	-145.41
186.118	53.25
186.338	12.29
186.557	151.55
186.777	-20.48
186.997	53.25
187.216	0
187.436	208.89
187.655	139.26
187.875	73.73
188.095	63.49
188.314	94.21
188.534	83.97
188.753	-45.06
188.973	112.64
189.192	196.61
189.412	22.53
189.631	38.91
189.851	55.3
190.07	178.17
190.29	40.96
190.509	18.43
190.729	-55.3
190.948	114.69
191.168	243.71
191.387	88.06
191.607	16.38
191.826	106.49
192.045	43.01
192.265	63.49
192.484	75.77
192.704	14.34
192.923	-126.97
193.142	204.8
193.362	139.26
193.581	141.31
193.8	53.25
194.02	122.88
194.239	67.58
194.458	81.92
194.678	20.48
194.897	90.11
195.116	32.77
195.335	69.63
195.555	81.92
195.774	14.34
195.993	129.02
196.212	57.34
196.432	157.69
196.651	10.24
196.87	45.06
197.089	305.15
197.308	40.96
197.528	126.97
197.747	-28.67
197.966	22.53
198.185	120.83
198.404	8.19
198.623	122.88
198.842	120.83
199.062	167.93
199.281	165.89
199.5	100.35
199.719	24.58
199.938	36.86
200.157	131.07
200.376	116.73
200.595	108.54
200.814	36.86
201.033	47.1
201.252	153.6
201.471	24.58
201.69	34.82
201.909	53.25
202.128	112.64
202.347	49.15
202.566	92.16
202.785	2.05
203.004	-14.34
203.223	231.42
203.442	16.38
203.661	-90.11
203.879	122.88
204.098	120.83
204.317	-73.73
204.536	137.21
204.755	45.06
204.974	147.45
205.193	-14.34
205.411	116.73
205.63	83.97
205.849	141.31
206.068	-73.73
206.287	20.48
206.505	96.25
206.724	14.34
206.943	14.34
207.162	10.24
207.381	151.55
207.599	51.2
207.818	53.25
208.037	2.05
208.255	65.54
208.474	98.3
208.693	-4.1
208.911	26.62
209.13	94.21
209.349	-30.72
209.567	141.31
209.786	67.58
210.005	61.44
210.223	79.87
210.442	-141.31
210.661	38.91
210.879	135.17
211.098	81.92
211.316	24.58
211.535	73.73
211.753	81.92
211.972	102.4
212.191	22.53
212.409	34.82
212.628	40.96
212.846	-75.77
213.065	51.2
213.283	118.78
213.502	12.29
213.72	65.54
213.938	36.86
214.157	43.01
214.375	182.27
214.594	2.05
214.812	69.63
215.031	47.1
215.249	96.25
215.467	77.82
215.686	47.1
215.904	59.39
216.122	90.11
216.341	86.01
216.559	100.35
216.778	75.77
216.996	149.5
217.214	40.96
217.432	51.2
217.651	-110.59
217.869	104.45
218.087	69.63
218.306	86.01
218.524	55.3
218.742	-24.58
218.96	92.16
219.179	-12.29
219.397	55.3
219.615	301.05
219.833	108.54
220.051	-40.96
220.27	114.69
220.488	104.45
220.706	53.25
220.924	12.29
221.142	-28.67
221.36	55.3
221.578	112.64
221.796	45.06
222.015	-2.05
222.233	69.63
222.451	184.32
222.669	-77.82
222.887	81.92
223.105	-2.05
223.323	32.77
223.541	-4.1
223.759	30.72
223.977	4.1
224.195	139.26
224.413	63.49
224.631	51.2
224.849	122.88
225.067	282.62
225.285	-57.34
225.503	-26.62
225.721	-81.92
225.939	32.77
226.157	36.86
226.375	182.27
226.592	63.49
226.81	73.73
227.028	122.88
227.246	26.62
227.464	75.77
227.682	106.49
227.9	149.5
228.117	49.15
228.335	98.3
228.553	-12.29
228.771	55.3
228.989	45.06
229.206	55.3
229.424	30.72
229.642	75.77
229.86	0
230.077	129.02
230.295	38.91
230.513	53.25
230.731	59.39
230.948	120.83
231.166	202.75
231.384	-38.91
231.601	20.48
231.819	112.64
232.037	18.43
232.254	-8.19
232.472	16.38
232.689	14.34
232.907	147.45
233.125	26.62
233.342	34.82
233.56	26.62
233.777	51.2
233.995	16.38
234.213	151.55
234.43	77.82
234.648	18.43
234.865	-81.92
235.083	131.07
235.3	24.58
235.518	153.6
235.735	81.92
235.953	77.82
236.17	59.39
236.388	26.62
236.605	40.96
236.822	143.36
237.04	100.35
237.257	38.91
237.475	24.58
237.692	65.54
237.909	57.34
238.127	26.62
238.344	45.06
238.562	65.54
238.779	-34.82
238.996	-69.63
239.214	24.58
239.431	163.84
239.648	61.44
239.865	151.55
240.083	135.17
240.3	22.53
240.517	12.29
240.735	-36.86
240.952	77.82
241.169	40.96
241.386	94.21
241.603	10.24
241.821	-14.34
242.038	106.49
242.255	116.73
242.472	-49.15
242.689	79.87
242.907	86.01
243.124	81.92
243.341	26.62
243.558	-2.05
243.775	-38.91
243.992	-57.34
244.209	100.35
244.426	73.73
244.643	120.83
244.86	0
245.078	59.39
245.295	38.91
245.512	20.48
245.729	-30.72
245.946	131.07
246.163	57.34
246.38	-22.53
246.597	92.16
246.814	77.82
247.031	-10.24
247.248	-20.48
247.464	106.49
247.681	8.19
247.898	94.21
248.115	14.34
248.332	-36.86
248.549	135.17
248.766	188.41
248.983	73.73
249.2	55.3
249.417	86.01
249.633	-83.97
249.85	86.01
250.067	83.97
250.284	88.06
250.501	51.2
250.717	112.64
250.934	2.05
251.151	102.4
251.368	53.25
251.585	137.21
251.801	14.34
252.018	45.06
252.235	75.77
252.451	-112.64
252.668	-26.62
252.885	172.03
253.102	135.17
253.318	61.44
253.535	-34.82
253.752	-34.82
253.968	2.05
254.185	-45.06
254.401	16.38
254.618	16.38
254.835	22.53
255.051	118.78
255.268	-14.34
255.484	47.1
255.701	57.34
255.917	92.16
256.134	-69.63
256.351	26.62
256.567	-6.14
256.784	-16.38
257	-47.1
257.217	92.16
257.433	129.02
257.65	55.3
257.866	202.75
258.082	-47.1
258.299	-22.53
258.515	38.91
258.732	16.38
258.948	24.58
259.165	71.68
259.381	34.82
259.597	67.58
259.814	53.25
260.03	-40.96
260.246	32.77
260.463	186.37
260.679	104.45
260.895	45.06
261.112	51.2
261.328	4.1
261.544	-4.1
261.761	163.84
261.977	-38.91
262.193	-36.86
262.409	49.15
262.626	104.45
262.842	-2.05
263.058	73.73
263.274	53.25
263.49	126.97
263.707	67.58
263.923	135.17
264.139	-14.34
264.355	18.43
264.571	59.39
264.787	88.06
265.004	92.16
265.22	86.01
265.436	-8.19
265.652	22.53
265.868	47.1
266.084	4.1
266.3	10.24
266.516	0
266.732	-8.19
266.948	104.45
267.164	40.96
267.38	102.4
267.596	120.83
267.812	215.04
268.028	53.25
268.244	4.1
268.46	20.48
268.676	83.97
268.892	69.63
269.108	10.24
269.324	10.24
269.54	-30.72
269.756	36.86
269.972	-18.43
270.188	6.14
270.403	38.91
270.619	59.39
270.835	75.77
271.051	120.83
271.267	88.06
271.483	8.19
271.698	145.41
271.914	65.54
272.13	43.01
272.346	53.25
272.562	81.92
272.777	149.5
272.993	71.68
273.209	43.01
273.425	96.25
273.64	-81.92
273.856	92.16
274.072	43.01
274.287	-32.77
274.503	120.83
274.719	88.06
274.934	65.54
275.15	-12.29
275.366	77.82
275.581	2.05
275.797	-49.15
276.012	47.1
276.228	30.72
276.444	0
276.659	79.87
276.875	8.19
277.09	77.82
277.306	6.14
277.521	77.82
277.737	135.17
277.952	77.82
278.168	36.86
278.383	-34.82
278.599	34.82
278.814	184.32
279.03	47.1
279.245	192.51
279.461	20.48
279.676	186.37
279.892	-67.58
280.107	-32.77
280.322	-28.67
280.538	102.4
280.753	-20.48
280.969	118.78
281.184	71.68
281.399	196.61
281.615	98.3
281.83	49.15
282.045	-53.25
282.26	-32.77
282.476	6.14
282.691	88.06
282.906	8.19
283.122	79.87
283.337	32.77
283.552	55.3
283.767	-2.05
283.983	118.78
284.198	34.82
284.413	59.39
284.628	6.14
284.843	57.34
285.058	124.93
285.274	-22.53
285.489	-49.15
285.704	55.3
285.919	0
286.134	14.34
286.349	-22.53
286.564	-34.82
286.779	88.06
286.995	-4.1
287.21	-36.86
287.425	118.78
287.64	26.62
287.855	75.77
288.07	-51.2
288.285	184.32
288.5	126.97
288.715	163.84
288.93	0
289.145	8.19
289.36	77.82
289.575	-6.14
289.79	161.79
290.004	-14.34
290.219	126.97
290.434	-40.96
290.649	36.86
290.864	-73.73
291.079	-22.53
291.294	88.06
291.509	22.53
291.724	20.48
291.938	-24.58
292.153	59.39
292.368	45.06
292.583	98.3
292.798	55.3
293.012	100.35
293.227	96.25
293.442	-20.48
293.657	77.82
293.871	79.87
294.086	110.59
294.301	90.11
294.516	143.36
294.73	86.01
294.945	4.1
295.16	28.67
295.374	88.06
295.589	106.49
295.804	61.44
296.018	124.93
296.233	120.83
296.447	79.87
296.662	-16.38
296.877	165.89
297.091	141.31
297.306	69.63
297.52	14.34
297.735	81.92
297.949	36.86
298.164	55.3
298.378	22.53
298.593	-8.19
298.807	-10.24
299.022	40.96
299.236	120.83
299.451	20.48
299.665	22.53
299.88	-6.14
300.094	100.35
300.309	57.34
300.523	57.34
300.737	-61.44
300.952	63.49
301.166	28.67
301.381	139.26
301.595	-90.11
301.809	51.2
302.024	28.67
302.238	61.44
302.452	145.41
302.667	100.35
302.881	202.75
303.095	92.16
303.309	79.87
303.524	55.3
303.738	-49.15
303.952	2.05
304.166	83.97
304.381	-116.73
304.595	145.41
304.809	98.3
305.023	65.54
305.237	65.54
305.452	-14.34
305.666	77.82
305.88	79.87
306.094	112.64
306.308	79.87
306.522	38.91
306.736	106.49
306.95	155.65
307.164	88.06
307.379	67.58
307.593	153.6
307.807	88.06
308.021	43.01
308.235	45.06
308.449	-83.97
308.663	75.77
308.877	196.61
309.091	86.01
309.305	108.54
309.519	-118.78
309.733	55.3
309.947	-79.87
310.161	92.16
310.374	106.49
310.588	149.5
310.802	-47.1
311.016	-38.91
311.23	71.68
311.444	-94.21
311.658	71.68
311.872	122.88
312.085	145.41
312.299	143.36
312.513	167.93
312.727	-16.38
312.941	4.1
313.154	-30.72
313.368	-28.67
313.582	40.96
313.796	65.54
314.009	45.06
314.223	118.78
314.437	57.34
314.651	147.45
314.864	40.96
315.078	-57.34
315.292	-112.64
315.505	26.62
315.719	106.49
315.933	81.92
316.146	16.38
316.36	16.38
316.573	108.54
316.787	131.07
317.001	73.73
317.214	-12.29
317.428	53.25
317.641	-12.29
317.855	14.34
318.068	69.63
318.282	18.43
318.495	200.7
318.709	81.92
318.922	40.96
319.136	157.69
319.349	141.31
319.563	-55.3
319.776	30.72
319.99	-10.24
320.203	81.92
320.417	69.63
320.63	118.78
320.843	165.89
321.057	75.77
321.27	34.82
321.483	90.11
321.697	79.87
321.91	135.17
322.124	47.1
322.337	129.02
322.55	16.38
322.763	38.91
322.977	75.77
323.19	10.24
323.403	75.77
323.617	94.21
323.83	155.65
324.043	57.34
324.256	10.24
324.469	-20.48
324.683	67.58
324.896	-12.29
325.109	92.16
325.322	-38.91
325.535	77.82
325.748	122.88
325.962	49.15
326.175	47.1
326.388	-16.38
326.601	124.93
326.814	-30.72
327.027	77.82
327.24	133.12
327.453	-106.49
327.666	18.43
327.879	32.77
328.092	63.49
328.305	71.68
328.518	92.16
328.731	16.38
328.944	61.44
329.157	69.63
329.37	-6.14
329.583	206.84
329.796	137.21
330.009	-120.83
330.222	124.93
330.435	32.77
330.648	49.15
330.861	75.77
331.073	77.82
331.286	169.98
331.499	40.96
331.712	-10.24
331.925	61.44
332.138	36.86
332.35	137.21
332.563	-61.44
332.776	116.73
332.989	65.54
333.202	18.43
333.414	34.82
333.627	63.49
333.84	69.63
334.053	32.77
334.265	0
334.478	14.34
334.691	0
334.903	83.97
335.116	12.29
335.329	36.86
335.541	55.3
335.754	131.07
335.966	0
336.179	43.01
336.392	-12.29
336.604	34.82
336.817	120.83
337.029	-16.38
337.242	2.05
337.454	28.67
337.667	49.15
337.88	163.84
338.092	63.49
338.305	133.12
338.517	49.15
338.729	88.06
338.942	143.36
339.154	-40.96
339.367	-34.82
339.579	102.4
339.792	-4.1
340.004	12.29
340.217	16.38
340.429	100.35
340.641	-55.3
340.854	-61.44
341.066	79.87
341.278	75.77
341.491	165.89
341.703	6.14
341.915	40.96
342.128	73.73
342.34	90.11
342.552	-10.24
342.764	4.1
342.977	151.55
343.189	47.1
343.401	114.69
343.613	-118.78
343.826	73.73
344.038	-40.96
344.25	94.21
344.462	45.06
344.674	133.12
344.886	16.38
345.099	34.82
345.311	22.53
345.523	2.05
345.735	-67.58
345.947	40.96
346.159	73.73
346.371	30.72
346.583	14.34
346.795	155.65
347.007	32.77
347.219	38.91
347.431	-34.82
347.643	102.4
347.855	-40.96
348.067	184.32
348.279	40.96
348.491	-30.72
348.703	116.73
348.915	-61.44
349.127	26.62
349.339	83.97
349.551	-6.14
349.763	92.16
349.975	40.96
350.187	24.58
350.399	137.21
350.61	47.1
350.822	53.25
351.034	174.08
351.246	90.11
351.458	69.63
351.669	67.58
351.881	57.34
352.093	172.03
352.305	118.78
352.517	59.39
352.728	90.11
352.94	55.3
353.152	61.44
353.363	24.58
353.575	38.91
353.787	104.45
353.999	94.21
354.21	73.73
354.422	-45.06
354.633	61.44
354.845	73.73
355.057	129.02
355.268	-2.05
355.48	18.43
355.692	-86.01
355.903	-2.05
356.115	-47.1
356.326	-59.39
356.538	96.25
356.749	47.1
356.961	182.27
357.172	34.82
357.384	-14.34
357.595	194.56
357.807	86.01
358.018	-22.53
358.23	-6.14
358.441	155.65
358.653	108.54
358.864	65.54
359.075	-6.14
359.287	126.97
359.498	30.72
359.709	100.35
359.921	10.24
360.132	86.01
360.344	71.68
360.555	-18.43
360.766	100.35
360.977	12.29
361.189	92.16
361.4	75.77
361.611	108.54
361.823	100.35
362.034	32.77
362.245	-8.19
362.456	38.91
362.667	102.4
362.879	16.38
363.09	40.96
363.301	36.86
363.512	38.91
363.723	-4.1
363.935	63.49
364.146	112.64
364.357	24.58
364.568	26.62
364.779	-51.2
364.99	141.31
365.201	51.2
365.412	141.31
365.623	-55.3
365.834	114.69
366.045	38.91
366.256	94.21
366.467	59.39
366.678	49.15
366.889	92.16
367.1	16.38
367.311	120.83
367.522	22.53
367.733	77.82
367.944	116.73
368.155	-2.05
368.366	61.44
368.577	215.04
368.788	104.45
368.999	-26.62
369.209	57.34
369.42	237.56
369.631	196.61
369.842	141.31
370.053	40.96
370.264	83.97
370.474	75.77
370.685	57.34
370.896	83.97
371.107	57.34
371.317	73.73
371.528	4.1
371.739	129.02
371.95	100.35
372.16	120.83
372.371	-59.39
372.582	32.77
372.792	86.01
373.003	129.02
373.214	53.25
373.424	36.86
373.635	-18.43
373.846	112.64
374.056	102.4
374.267	8.19
374.477	0
374.688	8.19
374.898	61.44
375.109	106.49
375.319	92.16
375.53	145.41
375.74	45.06
375.951	40.96
376.161	124.93
376.372	176.13
376.582	59.39
376.793	135.17
377.003	-4.1
377.214	10.24
377.424	79.87
377.635	83.97
377.845	14.34
378.055	108.54
378.266	-57.34
378.476	-40.96
378.686	59.39
378.897	67.58
379.107	157.69
379.317	4.1
379.528	59.39
379.738	131.07
379.948	-34.82
380.158	73.73
380.369	67.58
380.579	2.05
380.789	26.62
380.999	38.91
381.21	65.54
381.42	178.17
381.63	22.53
381.84	137.21
382.05	98.3
382.261	118.78
382.471	169.98
382.681	16.38
382.891	108.54
383.101	86.01
383.311	-14.34
383.521	20.48
383.731	98.3
383.941	71.68
384.151	26.62
384.361	8.19
384.571	43.01
384.781	65.54
384.991	200.7
385.201	260.09
385.411	145.41
385.621	12.29
385.831	8.19
386.041	51.2
386.251	-4.1
386.461	79.87
386.671	16.38
386.881	73.73
387.091	32.77
387.301	49.15
387.511	-6.14
387.72	71.68
387.93	88.06
388.14	-63.49
388.35	122.88
388.56	108.54
388.769	174.08
388.979	28.67
389.189	-51.2
389.399	22.53
389.609	135.17
389.818	137.21
390.028	86.01
390.238	47.1
390.447	-67.58
390.657	63.49
390.867	-2.05
391.076	-55.3
391.286	98.3
391.496	-2.05
391.705	-71.68
391.915	96.25
392.125	155.65
392.334	81.92
392.544	192.51
392.753	51.2
392.963	-26.62
393.172	92.16
393.382	12.29
393.591	227.32
393.801	-6.14
394.01	151.55
394.22	114.69
394.429	22.53
394.639	71.68
394.848	118.78
395.058	71.68
395.267	26.62
395.477	34.82
395.686	77.82
395.895	116.73
396.105	219.13
396.314	88.06
396.524	34.82
396.733	92.16
396.942	90.11
397.152	108.54
397.361	135.17
397.57	40.96
397.78	34.82
397.989	51.2
398.198	204.8
398.407	30.72
398.617	22.53
398.826	32.77
399.035	0
399.244	71.68
399.453	63.49
399.663	2.05
399.872	75.77
400.081	-4.1
400.29	100.35
400.499	-75.77
400.708	86.01
400.917	100.35
401.127	16.38
401.336	-2.05
401.545	124.93
401.754	178.17
401.963	131.07
402.172	0
402.381	-24.58
402.59	26.62
402.799	61.44
403.008	126.97
403.217	47.1
403.426	65.54
403.635	-22.53
403.844	79.87
404.053	65.54
404.262	8.19
404.471	163.84
404.68	90.11
404.888	81.92
405.097	8.19
405.306	104.45
405.515	147.45
405.724	71.68
405.933	126.97
406.142	-59.39
406.35	163.84
406.559	71.68
406.768	71.68
406.977	155.65
407.185	69.63
407.394	36.86
407.603	32.77
407.812	10.24
408.02	174.08
408.229	92.16
408.438	14.34
408.646	-55.3
408.855	63.49
409.064	120.83
409.272	-6.14
409.481	43.01
409.69	6.14
409.898	30.72
410.107	108.54
410.315	139.26
410.524	24.58
410.733	92.16
410.941	71.68
411.15	120.83
411.358	118.78
411.567	73.73
411.775	53.25
411.984	83.97
412.192	145.41
412.401	-10.24
412.609	202.75
412.818	90.11
413.026	90.11
413.234	40.96
413.443	8.19
413.651	-49.15
413.86	49.15
414.068	221.18
414.276	182.27
414.485	-2.05
414.693	165.89
414.901	196.61
415.11	22.53
415.318	59.39
415.526	-10.24
415.734	161.79
415.943	77.82
416.151	110.59
416.359	26.62
416.567	14.34
416.776	159.74
416.984	53.25
417.192	208.89
417.4	12.29
417.608	-20.48
417.817	-34.82
418.025	110.59
418.233	231.42
418.441	-43.01
418.649	-77.82
418.857	22.53
419.065	174.08
419.273	92.16
419.481	65.54
419.689	32.77
419.897	14.34
420.105	4.1
420.313	73.73
420.521	161.79
420.729	100.35
420.937	-28.67
421.145	-6.14
421.353	49.15
421.561	241.66
421.769	49.15
421.977	81.92
422.185	69.63
422.393	51.2
422.601	43.01
422.809	79.87
423.017	71.68
423.224	81.92
423.432	51.2
423.64	61.44
423.848	229.37
424.056	30.72
424.263	139.26
424.471	6.14
424.679	96.25
424.887	-75.77
425.094	153.6
425.302	184.32
425.51	59.39
425.718	141.31
425.925	98.3
426.133	-2.05
426.341	198.65
426.548	-16.38
426.756	77.82
426.964	88.06
427.171	8.19
427.379	69.63
427.586	86.01
427.794	151.55
428.001	161.79
428.209	47.1
428.417	161.79
428.624	200.7
428.832	104.45
429.039	139.26
429.247	73.73
429.454	114.69
429.662	212.99
429.869	118.78
430.076	118.78
430.284	67.58
430.491	149.5
430.699	172.03
430.906	145.41
431.114	126.97
431.321	198.65
431.528	73.73
431.736	133.12
431.943	221.18
432.15	180.22
432.358	126.97
432.565	225.28
432.772	88.06
432.979	180.22
433.187	75.77
433.394	202.75
433.601	100.35
433.808	210.94
434.016	266.24
434.223	161.79
434.43	180.22
434.637	157.69
434.844	270.33
435.052	188.41
435.259	202.75
435.466	198.65
435.673	186.37
435.88	278.52
436.087	337.91
436.294	292.86
436.501	251.9
436.708	215.04
436.915	301.05
437.122	286.72
437.329	272.38
437.537	266.24
437.743	260.09
437.95	436.22
438.157	339.96
438.364	239.61
438.571	360.44
438.778	321.53
438.985	387.07
439.192	423.93
439.399	391.16
439.606	350.2
439.813	501.75
440.02	579.58
440.227	587.77
440.433	507.9
440.64	501.75
440.847	382.97
441.054	567.29
441.261	589.82
441.467	569.34
441.674	600.05
441.881	555
442.088	520.18
442.294	636.92
442.501	776.18
442.708	655.35
442.914	604.15
443.121	743.41
443.328	770.04
443.534	774.13
443.741	854
443.948	708.6
444.154	864.24
444.361	972.79
444.568	878.58
444.774	966.64
444.981	835.57
445.187	983.03
445.394	917.49
445.6	1103.86
445.807	1169.39
446.013	1157.1
446.22	958.45
446.426	1193.97
446.633	1241.07
446.839	1382.38
447.046	1316.84
447.252	1439.72
447.459	1392.62
447.665	1353.71
447.871	1529.83
448.078	1695.72
448.284	1607.66
448.491	1769.44
448.697	1783.78
448.903	1867.75
449.11	1867.75
449.316	1839.08
449.522	2080.74
449.728	2095.07
449.935	2275.29
450.141	2195.42
450.347	2359.26
450.553	2314.2
450.76	2330.59
450.966	2623.45
451.172	2617.3
451.378	2736.09
451.584	2768.85
451.791	3018.71
451.997	3012.56
452.203	2973.65
452.409	3260.37
452.615	3291.09
452.821	3319.76
453.027	3409.87
453.233	3606.47
453.44	3583.95
453.646	3850.18
453.852	4009.92
454.058	4227.01
454.264	4116.42
454.47	4566.97
454.676	4708.28
454.882	5007.28
455.088	4894.65
455.294	4978.61
455.5	5326.77
455.705	5607.34
455.911	5724.07
456.117	5693.35
456.323	5916.58
456.529	6012.84
456.735	6502.3
456.941	6610.84
457.147	7135.12
457.352	7088.02
457.558	7370.64
457.764	7856.01
457.97	8222.59
458.176	8349.57
458.381	8736.63
458.587	9006.97
458.793	9439.09
458.999	9363.31
459.204	10444.64
459.41	10807.13
459.616	10712.92
459.821	11401.04
460.027	11927.37
460.233	12506.95
460.438	12422.98
460.644	13346.61
460.85	13463.35
461.055	13635.38
461.261	14497.57
461.466	14182.18
461.672	14384.93
461.878	15961.87
462.083	15845.13
462.289	16174.86
462.494	16832.26
462.7	17196.79
462.905	17481.46
463.111	18771.68
463.316	19648.21
463.522	19889.87
463.727	20631.24
463.932	21405.37
464.138	21855.92
464.343	23115.42
464.549	23266.97
464.754	24766.09
464.959	25482.88
465.165	25630.33
465.37	25685.62
465.575	26007.16
465.781	27567.71
465.986	28333.65
466.191	27854.42
466.397	27991.64
466.602	27852.38
466.807	29034.05
467.012	29689.4
467.218	30168.63
467.423	29920.82
467.628	31172.13
467.833	32271.89
468.038	31890.97
468.244	31524.38
468.449	32941.58
468.654	32341.52
468.859	32349.71
469.064	32273.94
469.269	31692.32
