Data from USB4F104151__134__10-46-48-653.txt Node

Date: Wed Feb 26 10:46:48 EST 2025
User: louis
Spectrometer: USB4F10415
Trigger mode: 4
Integration Time (sec): 1.000000E-1
Scans to average: 1
Electric dark correction enabled: true
Nonlinearity correction enabled: false
Boxcar width: 0
XAxis mode: Wavelengths
Number of Pixels in Spectrum: 3648
>>>>>Begin Spectral Data<<<<<
178.204	-412.15
178.424	-412.15
178.644	-412.15
178.864	-403.96
179.084	-369.15
179.304	28.16
179.524	-20.99
179.744	56.83
179.964	56.83
180.184	36.35
180.404	7.68
180.624	-47.62
180.844	13.82
181.064	-121.34
181.283	22.02
181.503	-6.66
181.723	-25.09
181.943	-80.38
182.163	187.9
182.383	52.74
182.602	32.26
182.822	103.93
183.042	122.37
183.262	9.73
183.482	-18.94
183.701	48.64
183.921	34.3
184.141	-76.29
184.361	62.98
184.58	17.92
184.8	28.16
185.02	-45.57
185.239	89.6
185.459	77.31
185.679	112.13
185.898	-107.01
186.118	32.26
186.338	-18.94
186.557	81.41
186.777	-68.09
186.997	-6.66
187.216	5.63
187.436	165.37
187.655	116.22
187.875	34.3
188.095	11.78
188.314	185.85
188.534	97.79
188.753	-18.94
188.973	69.12
189.192	161.28
189.412	-8.7
189.631	-49.66
189.851	-31.23
190.07	140.8
190.29	-80.38
190.509	40.45
190.729	-2.56
190.948	255.48
191.168	210.43
191.387	124.41
191.607	114.17
191.826	34.3
192.045	-12.8
192.265	36.35
192.484	3.58
192.704	11.78
192.923	-92.67
193.142	165.37
193.362	126.46
193.581	58.88
193.8	-20.99
194.02	101.89
194.239	95.74
194.458	73.21
194.678	75.26
194.897	-20.99
195.116	17.92
195.335	79.36
195.555	77.31
195.774	-29.18
195.993	110.08
196.212	-12.8
196.432	-25.09
196.651	-49.66
196.87	65.02
197.089	226.81
197.308	60.93
197.528	103.93
197.747	-100.86
197.966	-29.18
198.185	75.26
198.404	-127.49
198.623	169.47
198.842	91.65
199.062	112.13
199.281	114.17
199.5	91.65
199.719	58.88
199.938	-25.09
200.157	75.26
200.376	83.45
200.595	179.71
200.814	-4.61
201.033	-41.47
201.252	126.46
201.471	69.12
201.69	144.89
201.909	28.16
202.128	93.69
202.347	11.78
202.566	-6.66
202.785	-127.49
203.004	34.3
203.223	200.19
203.442	87.55
203.661	-104.96
203.879	36.35
204.098	138.75
204.317	-10.75
204.536	134.65
204.755	56.83
204.974	116.22
205.193	40.45
205.411	130.56
205.63	97.79
205.849	7.68
206.068	-14.85
206.287	-37.38
206.505	134.65
206.724	-61.95
206.943	48.64
207.162	-41.47
207.381	-14.85
207.599	19.97
207.818	40.45
208.037	-41.47
208.255	17.92
208.474	11.78
208.693	-14.85
208.911	-27.14
209.13	140.8
209.349	177.66
209.567	3.58
209.786	81.41
210.005	50.69
210.223	56.83
210.442	-111.1
210.661	32.26
210.879	85.5
211.098	65.02
211.316	140.8
211.535	146.94
211.753	38.4
211.972	67.07
212.191	26.11
212.409	67.07
212.628	17.92
212.846	-14.85
213.065	-25.09
213.283	5.63
213.502	105.98
213.72	65.02
213.938	58.88
214.157	-4.61
214.375	87.55
214.594	-20.99
214.812	95.74
215.031	-29.18
215.249	65.02
215.467	-18.94
215.686	52.74
215.904	48.64
216.122	-18.94
216.341	99.84
216.559	-2.56
216.778	34.3
216.996	142.85
217.214	-72.19
217.432	-0.51
217.651	-51.71
217.869	79.36
218.087	3.58
218.306	-6.66
218.524	40.45
218.742	13.82
218.96	48.64
219.179	-8.7
219.397	-2.56
219.615	232.96
219.833	91.65
220.051	-31.23
220.27	95.74
220.488	112.13
220.706	56.83
220.924	-39.42
221.142	1.54
221.36	50.69
221.578	62.98
221.796	-25.09
222.015	32.26
222.233	105.98
222.451	187.9
222.669	30.21
222.887	112.13
223.105	5.63
223.323	19.97
223.541	-45.57
223.759	19.97
223.977	71.17
224.195	138.75
224.413	108.03
224.631	9.73
224.849	52.74
225.067	189.95
225.285	-41.47
225.503	-14.85
225.721	-92.67
225.939	5.63
226.157	97.79
226.375	253.44
226.592	-57.86
226.81	9.73
227.028	89.6
227.246	128.51
227.464	95.74
227.682	-14.85
227.9	93.69
228.117	3.58
228.335	65.02
228.553	58.88
228.771	38.4
228.989	93.69
229.206	112.13
229.424	-0.51
229.642	42.5
229.86	-33.28
230.077	148.99
230.295	69.12
230.513	110.08
230.731	83.45
230.948	140.8
231.166	136.7
231.384	-55.81
231.601	-16.9
231.819	185.85
232.037	-25.09
232.254	42.5
232.472	32.26
232.689	3.58
232.907	75.26
233.125	-14.85
233.342	-12.8
233.56	-53.76
233.777	-0.51
233.995	13.82
234.213	85.5
234.43	148.99
234.648	62.98
234.865	40.45
235.083	73.21
235.3	1.54
235.518	69.12
235.735	105.98
235.953	77.31
236.17	17.92
236.388	-12.8
236.605	-12.8
236.822	116.22
237.04	11.78
237.257	91.65
237.475	-68.09
237.692	13.82
237.909	108.03
238.127	-2.56
238.344	26.11
238.562	46.59
238.779	-12.8
238.996	-37.38
239.214	-2.56
239.431	13.82
239.648	36.35
239.865	77.31
240.083	38.4
240.3	-66.05
240.517	-45.57
240.735	101.89
240.952	122.37
241.169	75.26
241.386	22.02
241.603	19.97
241.821	-82.43
242.038	116.22
242.255	120.32
242.472	-78.33
242.689	-45.57
242.907	30.21
243.124	36.35
243.341	17.92
243.558	-25.09
243.775	9.73
243.992	-78.33
244.209	40.45
244.426	157.18
244.643	-2.56
244.86	101.89
245.078	32.26
245.295	67.07
245.512	36.35
245.729	-82.43
245.946	-20.99
246.163	40.45
246.38	15.87
246.597	99.84
246.814	110.08
247.031	-23.04
247.248	67.07
247.464	30.21
247.681	50.69
247.898	28.16
248.115	28.16
248.332	-72.19
248.549	224.76
248.766	122.37
248.983	101.89
249.2	75.26
249.417	65.02
249.633	-2.56
249.85	169.47
250.067	7.68
250.284	58.88
250.501	159.23
250.717	22.02
250.934	-94.72
251.151	83.45
251.368	11.78
251.585	138.75
251.801	122.37
252.018	22.02
252.235	65.02
252.451	-31.23
252.668	-8.7
252.885	171.52
253.102	52.74
253.318	-64
253.535	3.58
253.752	42.5
253.968	-47.62
254.185	-39.42
254.401	36.35
254.618	26.11
254.835	-51.71
255.051	99.84
255.268	112.13
255.484	1.54
255.701	32.26
255.917	85.5
256.134	-6.66
256.351	22.02
256.567	15.87
256.784	83.45
257	-57.86
257.217	124.41
257.433	95.74
257.65	87.55
257.866	159.23
258.082	-2.56
258.299	38.4
258.515	24.06
258.732	24.06
258.948	-47.62
259.165	7.68
259.381	24.06
259.597	75.26
259.814	9.73
260.03	3.58
260.246	22.02
260.463	77.31
260.679	155.13
260.895	1.54
261.112	48.64
261.328	54.78
261.544	-111.1
261.761	73.21
261.977	28.16
262.193	-84.48
262.409	58.88
262.626	5.63
262.842	42.5
263.058	46.59
263.274	48.64
263.49	48.64
263.707	108.03
263.923	101.89
264.139	-129.53
264.355	11.78
264.571	75.26
264.787	22.02
265.004	110.08
265.22	34.3
265.436	-4.61
265.652	32.26
265.868	22.02
266.084	-107.01
266.3	44.54
266.516	-27.14
266.732	22.02
266.948	24.06
267.164	46.59
267.38	79.36
267.596	124.41
267.812	99.84
268.028	19.97
268.244	34.3
268.46	-33.28
268.676	-20.99
268.892	24.06
269.108	-6.66
269.324	77.31
269.54	-33.28
269.756	69.12
269.972	5.63
270.188	26.11
270.403	-51.71
270.619	9.73
270.835	56.83
271.051	-57.86
271.267	-12.8
271.483	-59.9
271.698	173.57
271.914	13.82
272.13	3.58
272.346	44.54
272.562	60.93
272.777	108.03
272.993	9.73
273.209	11.78
273.425	124.41
273.64	15.87
273.856	46.59
274.072	30.21
274.287	-20.99
274.503	81.41
274.719	91.65
274.934	17.92
275.15	-102.91
275.366	-12.8
275.581	-31.23
275.797	48.64
276.012	81.41
276.228	38.4
276.444	-37.38
276.659	54.78
276.875	-14.85
277.09	-16.9
277.306	52.74
277.521	83.45
277.737	-10.75
277.952	118.27
278.168	22.02
278.383	15.87
278.599	-20.99
278.814	97.79
279.03	-25.09
279.245	89.6
279.461	48.64
279.676	1.54
279.892	-29.18
280.107	-35.33
280.322	-18.94
280.538	48.64
280.753	56.83
280.969	118.27
281.184	-23.04
281.399	192
281.615	50.69
281.83	91.65
282.045	-23.04
282.26	-45.57
282.476	19.97
282.691	122.37
282.906	46.59
283.122	58.88
283.337	40.45
283.552	110.08
283.767	-55.81
283.983	73.21
284.198	-31.23
284.413	7.68
284.628	-51.71
284.843	-23.04
285.058	-8.7
285.274	-23.04
285.489	-12.8
285.704	194.05
285.919	58.88
286.134	28.16
286.349	17.92
286.564	-86.53
286.779	77.31
286.995	83.45
287.21	-59.9
287.425	77.31
287.64	32.26
287.855	19.97
288.07	-4.61
288.285	65.02
288.5	73.21
288.715	32.26
288.93	40.45
289.145	-8.7
289.36	93.69
289.575	-35.33
289.79	81.41
290.004	-0.51
290.219	101.89
290.434	-35.33
290.649	-76.29
290.864	-6.66
291.079	28.16
291.294	46.59
291.509	50.69
291.724	65.02
291.938	-2.56
292.153	-23.04
292.368	56.83
292.583	38.4
292.798	46.59
293.012	85.5
293.227	87.55
293.442	50.69
293.657	-4.61
293.871	124.41
294.086	22.02
294.301	118.27
294.516	85.5
294.73	11.78
294.945	-53.76
295.16	19.97
295.374	91.65
295.589	169.47
295.804	-57.86
296.018	32.26
296.233	122.37
296.447	24.06
296.662	-61.95
296.877	122.37
297.091	-23.04
297.306	40.45
297.52	85.5
297.735	-37.38
297.949	56.83
298.164	75.26
298.378	-18.94
298.593	-2.56
298.807	-29.18
299.022	95.74
299.236	114.17
299.451	-12.8
299.665	5.63
299.88	-39.42
300.094	42.5
300.309	5.63
300.523	17.92
300.737	65.02
300.952	1.54
301.166	114.17
301.381	-49.66
301.595	17.92
301.809	-4.61
302.024	-18.94
302.238	-45.57
302.452	44.54
302.667	44.54
302.881	146.94
303.095	71.17
303.309	28.16
303.524	-55.81
303.738	-6.66
303.952	-8.7
304.166	24.06
304.381	-66.05
304.595	159.23
304.809	-8.7
305.023	11.78
305.237	24.06
305.452	-33.28
305.666	85.5
305.88	32.26
306.094	148.99
306.308	85.5
306.522	116.22
306.736	67.07
306.95	93.69
307.164	22.02
307.379	60.93
307.593	77.31
307.807	128.51
308.021	148.99
308.235	116.22
308.449	-98.81
308.663	-10.75
308.877	171.52
309.091	24.06
309.305	26.11
309.519	-53.76
309.733	214.52
309.947	-20.99
310.161	101.89
310.374	-45.57
310.588	69.12
310.802	-78.33
311.016	-20.99
311.23	91.65
311.444	-64
311.658	-57.86
311.872	85.5
312.085	65.02
312.299	95.74
312.513	153.09
312.727	32.26
312.941	-45.57
313.154	91.65
313.368	-10.75
313.582	3.58
313.796	42.5
314.009	19.97
314.223	26.11
314.437	65.02
314.651	75.26
314.864	-8.7
315.078	-0.51
315.292	1.54
315.505	-53.76
315.719	99.84
315.933	-4.61
316.146	-12.8
316.36	54.78
316.573	171.52
316.787	32.26
317.001	81.41
317.214	19.97
317.428	42.5
317.641	-12.8
317.855	44.54
318.068	17.92
318.282	58.88
318.495	128.51
318.709	118.27
318.922	26.11
319.136	177.66
319.349	54.78
319.563	-68.09
319.776	136.7
319.99	-55.81
320.203	99.84
320.417	15.87
320.63	97.79
320.843	214.52
321.057	42.5
321.27	-64
321.483	79.36
321.697	136.7
321.91	26.11
322.124	34.3
322.337	17.92
322.55	-66.05
322.763	65.02
322.977	32.26
323.19	60.93
323.403	28.16
323.617	91.65
323.83	103.93
324.043	-16.9
324.256	13.82
324.469	-70.14
324.683	73.21
324.896	5.63
325.109	95.74
325.322	-74.24
325.535	138.75
325.748	122.37
325.962	-12.8
326.175	132.61
326.388	36.35
326.601	93.69
326.814	30.21
327.027	58.88
327.24	97.79
327.453	-84.48
327.666	62.98
327.879	99.84
328.092	36.35
328.305	32.26
328.518	-6.66
328.731	19.97
328.944	-16.9
329.157	38.4
329.37	44.54
329.583	167.42
329.796	140.8
330.009	-57.86
330.222	120.32
330.435	81.41
330.648	1.54
330.861	50.69
331.073	-0.51
331.286	54.78
331.499	73.21
331.712	7.68
331.925	1.54
332.138	34.3
332.35	142.85
332.563	38.4
332.776	140.8
332.989	26.11
333.202	13.82
333.414	36.35
333.627	32.26
333.84	-4.61
334.053	93.69
334.265	30.21
334.478	22.02
334.691	-4.61
334.903	95.74
335.116	-25.09
335.329	67.07
335.541	60.93
335.754	81.41
335.966	-18.94
336.179	38.4
336.392	28.16
336.604	-6.66
336.817	93.69
337.029	62.98
337.242	-2.56
337.454	52.74
337.667	62.98
337.88	142.85
338.092	67.07
338.305	97.79
338.517	-31.23
338.729	38.4
338.942	42.5
339.154	-0.51
339.367	-6.66
339.579	101.89
339.792	3.58
340.004	108.03
340.217	-0.51
340.429	87.55
340.641	-74.24
340.854	-8.7
341.066	97.79
341.278	110.08
341.491	126.46
341.703	-27.14
341.915	-57.86
342.128	103.93
342.34	13.82
342.552	-31.23
342.764	-41.47
342.977	46.59
343.189	79.36
343.401	67.07
343.613	-96.77
343.826	87.55
344.038	-68.09
344.25	34.3
344.462	17.92
344.674	65.02
344.886	56.83
345.099	79.36
345.311	-2.56
345.523	19.97
345.735	-57.86
345.947	32.26
346.159	77.31
346.371	69.12
346.583	-35.33
346.795	163.33
347.007	9.73
347.219	71.17
347.431	-10.75
347.643	97.79
347.855	11.78
348.067	73.21
348.279	-45.57
348.491	-6.66
348.703	75.26
348.915	46.59
349.127	-18.94
349.339	30.21
349.551	15.87
349.763	118.27
349.975	-0.51
350.187	83.45
350.399	95.74
350.61	83.45
350.822	19.97
351.034	95.74
351.246	38.4
351.458	46.59
351.669	56.83
351.881	30.21
352.093	132.61
352.305	65.02
352.517	124.41
352.728	132.61
352.94	71.17
353.152	85.5
353.363	-66.05
353.575	32.26
353.787	73.21
353.999	56.83
354.21	136.7
354.422	-59.9
354.633	-6.66
354.845	1.54
355.057	87.55
355.268	77.31
355.48	73.21
355.692	-100.86
355.903	56.83
356.115	-23.04
356.326	-156.16
356.538	73.21
356.749	46.59
356.961	179.71
357.172	-27.14
357.384	-35.33
357.595	327.16
357.807	-4.61
358.018	13.82
358.23	26.11
358.441	130.56
358.653	77.31
358.864	69.12
359.075	-51.71
359.287	38.4
359.498	40.45
359.709	89.6
359.921	77.31
360.132	1.54
360.344	-29.18
360.555	-104.96
360.766	22.02
360.977	-84.48
361.189	83.45
361.4	3.58
361.611	46.59
361.823	167.42
362.034	9.73
362.245	-107.01
362.456	73.21
362.667	15.87
362.879	46.59
363.09	103.93
363.301	-18.94
363.512	9.73
363.723	17.92
363.935	5.63
364.146	120.32
364.357	24.06
364.568	-14.85
364.779	-43.52
364.99	108.03
365.201	-10.75
365.412	116.22
365.623	-82.43
365.834	26.11
366.045	85.5
366.256	42.5
366.467	124.41
366.678	-10.75
366.889	-12.8
367.1	-59.9
367.311	130.56
367.522	38.4
367.733	73.21
367.944	56.83
368.155	7.68
368.366	122.37
368.577	77.31
368.788	58.88
368.999	-70.14
369.209	9.73
369.42	202.24
369.631	310.78
369.842	40.45
370.053	15.87
370.264	65.02
370.474	-76.29
370.685	77.31
370.896	50.69
371.107	165.37
371.317	85.5
371.528	67.07
371.739	132.61
371.95	75.26
372.16	65.02
372.371	-82.43
372.582	-18.94
372.792	28.16
373.003	48.64
373.214	-2.56
373.424	101.89
373.635	-45.57
373.846	163.33
374.056	-27.14
374.267	-4.61
374.477	75.26
374.688	9.73
374.898	101.89
375.109	52.74
375.319	83.45
375.53	159.23
375.74	118.27
375.951	-20.99
376.161	79.36
376.372	165.37
376.582	36.35
376.793	99.84
377.003	-25.09
377.214	3.58
377.424	52.74
377.635	-12.8
377.845	-6.66
378.055	101.89
378.266	-86.53
378.476	-31.23
378.686	69.12
378.897	46.59
379.107	58.88
379.317	118.27
379.528	-8.7
379.738	77.31
379.948	-51.71
380.158	108.03
380.369	7.68
380.579	99.84
380.789	77.31
380.999	-2.56
381.21	124.41
381.42	185.85
381.63	-43.52
381.84	65.02
382.05	101.89
382.261	85.5
382.471	-2.56
382.681	-31.23
382.891	171.52
383.101	108.03
383.311	-0.51
383.521	-31.23
383.731	118.27
383.941	83.45
384.151	65.02
384.361	32.26
384.571	97.79
384.781	42.5
384.991	196.09
385.201	124.41
385.411	93.69
385.621	87.55
385.831	120.32
386.041	38.4
386.251	120.32
386.461	60.93
386.671	-47.62
386.881	42.5
387.091	-8.7
387.301	85.5
387.511	101.89
387.72	52.74
387.93	108.03
388.14	-59.9
388.35	99.84
388.56	179.71
388.769	99.84
388.979	17.92
389.189	-100.86
389.399	89.6
389.609	19.97
389.818	40.45
390.028	58.88
390.238	50.69
390.447	77.31
390.657	75.26
390.867	48.64
391.076	-37.38
391.286	9.73
391.496	67.07
391.705	52.74
391.915	134.65
392.125	110.08
392.334	48.64
392.544	114.17
392.753	17.92
392.963	-10.75
393.172	67.07
393.382	28.16
393.591	202.24
393.801	17.92
394.01	105.98
394.22	122.37
394.429	38.4
394.639	-14.85
394.848	44.54
395.058	89.6
395.267	-39.42
395.477	85.5
395.686	36.35
395.895	157.18
396.105	161.28
396.314	36.35
396.524	46.59
396.733	36.35
396.942	122.37
397.152	42.5
397.361	177.66
397.57	89.6
397.78	-4.61
397.989	36.35
398.198	243.2
398.407	71.17
398.617	-35.33
398.826	26.11
399.035	50.69
399.244	71.17
399.453	-4.61
399.663	22.02
399.872	32.26
400.081	42.5
400.29	132.61
400.499	-16.9
400.708	30.21
400.917	24.06
401.127	46.59
401.336	93.69
401.545	218.62
401.754	81.41
401.963	103.93
402.172	17.92
402.381	-25.09
402.59	17.92
402.799	40.45
403.008	138.75
403.217	11.78
403.426	91.65
403.635	-59.9
403.844	69.12
404.053	1.54
404.262	-4.61
404.471	153.09
404.68	56.83
404.888	15.87
405.097	67.07
405.306	34.3
405.515	34.3
405.724	-4.61
405.933	163.33
406.142	36.35
406.35	140.8
406.559	60.93
406.768	95.74
406.977	216.57
407.185	-4.61
407.394	22.02
407.603	69.12
407.812	65.02
408.02	153.09
408.229	-20.99
408.438	73.21
408.646	-66.05
408.855	7.68
409.064	1.54
409.272	-8.7
409.481	130.56
409.69	-49.66
409.898	-41.47
410.107	-33.28
410.315	136.7
410.524	-4.61
410.733	9.73
410.941	42.5
411.15	32.26
411.358	83.45
411.567	85.5
411.775	54.78
411.984	89.6
412.192	52.74
412.401	-31.23
412.609	192
412.818	89.6
413.026	110.08
413.234	-33.28
413.443	-72.19
413.651	5.63
413.86	-41.47
414.068	194.05
414.276	97.79
414.485	-23.04
414.693	134.65
414.901	138.75
415.11	34.3
415.318	81.41
415.526	83.45
415.734	138.75
415.943	58.88
416.151	192
416.359	40.45
416.567	99.84
416.776	30.21
416.984	138.75
417.192	114.17
417.4	28.16
417.608	-10.75
417.817	-90.62
418.025	81.41
418.233	206.33
418.441	-23.04
418.649	-47.62
418.857	69.12
419.065	196.09
419.273	67.07
419.481	11.78
419.689	-27.14
419.897	-2.56
420.105	-37.38
420.313	77.31
420.521	161.28
420.729	165.37
420.937	50.69
421.145	-39.42
421.353	130.56
421.561	214.52
421.769	140.8
421.977	85.5
422.185	103.93
422.393	-23.04
422.601	91.65
422.809	58.88
423.017	38.4
423.224	130.56
423.432	114.17
423.64	11.78
423.848	54.78
424.056	15.87
424.263	67.07
424.471	1.54
424.679	161.28
424.887	-47.62
425.094	187.9
425.302	83.45
425.51	-2.56
425.718	79.36
425.925	54.78
426.133	67.07
426.341	235
426.548	87.55
426.756	46.59
426.964	81.41
427.171	-51.71
427.379	177.66
427.586	159.23
427.794	151.04
428.001	132.61
428.209	214.52
428.417	181.76
428.624	116.22
428.832	142.85
429.039	62.98
429.247	9.73
429.454	110.08
429.662	228.86
429.869	91.65
430.076	144.89
430.284	93.69
430.491	200.19
430.699	157.18
430.906	187.9
431.114	52.74
431.321	89.6
431.528	153.09
431.736	97.79
431.943	159.23
432.15	140.8
432.358	85.5
432.565	259.58
432.772	116.22
432.979	169.47
433.187	140.8
433.394	177.66
433.601	65.02
433.808	155.13
434.016	212.48
434.223	198.14
434.43	146.94
434.637	220.67
434.844	253.44
435.052	249.34
435.259	210.43
435.466	292.35
435.673	265.72
435.88	243.2
436.087	337.4
436.294	343.55
436.501	353.79
436.708	216.57
436.915	321.02
437.122	445.95
437.329	286.2
437.537	380.41
437.743	333.31
437.95	517.62
438.157	382.46
438.364	384.51
438.571	427.51
438.778	454.14
438.985	462.33
439.192	478.71
439.399	413.18
439.606	491
439.813	497.14
440.02	527.86
440.227	620.02
440.433	599.54
440.64	593.4
440.847	439.8
441.054	591.35
441.261	691.7
441.467	671.22
441.674	525.82
441.881	790
442.088	564.73
442.294	693.75
442.501	753.14
442.708	816.63
442.914	720.37
443.121	796.15
443.328	869.87
443.534	923.12
443.741	945.65
443.948	837.11
444.154	959.99
444.361	1080.82
444.568	974.32
444.774	1013.23
444.981	964.08
445.187	1236.46
445.394	1181.17
445.6	1109.49
445.807	1242.61
446.013	1312.24
446.22	1193.45
446.426	1394.15
446.633	1547.75
446.839	1644.01
447.046	1263.08
447.252	1650.15
447.459	1596.9
447.665	1662.44
447.871	1801.7
448.078	1893.86
448.284	1859.04
448.491	1971.68
448.697	2131.42
448.903	2127.33
449.11	2082.27
449.316	2143.71
449.522	2393.56
449.728	2368.99
449.935	2502.11
450.141	2588.12
450.347	2809.3
450.553	2760.15
450.76	2723.29
450.966	2889.17
451.172	2946.52
451.378	3128.78
451.584	3096.02
451.791	3442.12
451.997	3478.99
452.203	3519.95
452.409	3651.02
452.615	3804.61
452.821	3673.54
453.027	3732.94
453.233	4433.34
453.44	4189.63
453.646	4410.81
453.852	4629.95
454.058	4576.7
454.264	4806.07
454.47	5176.75
454.676	5201.33
454.882	5864.87
455.088	5490.09
455.294	5627.31
455.5	6139.3
455.705	6487.45
455.911	6643.1
456.117	6639
456.323	6907.29
456.529	6831.51
456.735	7716.23
456.941	7687.56
457.147	7812.49
457.352	8240.51
457.558	8404.35
457.764	9053.56
457.97	9272.69
458.176	9385.33
458.381	10065.25
458.587	10349.92
458.793	10956.12
458.999	10771.8
459.204	12195.14
459.41	12422.47
459.616	12283.2
459.821	12848.44
460.027	13585.71
460.233	14038.31
460.438	14296.36
460.644	15162.65
460.85	15222.04
461.055	15774.99
461.261	16680.19
461.466	16076.04
461.672	16661.76
461.878	18234.6
462.083	18107.63
462.289	18562.28
462.494	19150.04
462.7	19496.15
462.905	19926.22
463.111	21390.52
463.316	22318.25
463.522	22430.89
463.727	23467.16
463.932	24493.19
464.138	25033.86
464.343	26442.86
464.549	26352.75
464.754	28273.74
464.959	28976.2
465.165	29633.6
465.37	28941.38
465.575	29406.27
465.781	31433.76
465.986	32009.24
466.191	31710.24
466.397	32140.31
466.602	31491.1
466.807	32728.08
467.012	33555.46
467.218	33971.19
467.423	34143.22
467.628	35093.48
467.833	36705.23
468.038	36113.37
468.244	35474.4
468.449	37911.49
468.654	36651.98
468.859	36674.51
469.064	36803.53
469.269	35732.45
