Data from USB4F104151__303__11-21-39-225.txt Node

Date: Wed Feb 26 11:21:39 EST 2025
User: louis
Spectrometer: USB4F10415
Trigger mode: 4
Integration Time (sec): 1.000000E-1
Scans to average: 1
Electric dark correction enabled: true
Nonlinearity correction enabled: false
Boxcar width: 0
XAxis mode: Wavelengths
Number of Pixels in Spectrum: 3648
>>>>>Begin Spectral Data<<<<<
178.204	-405.67
178.424	-405.67
178.644	-405.67
178.864	-356.52
179.084	-428.2
179.304	-65.71
179.524	-12.46
179.744	24.4
179.964	38.74
180.184	46.93
180.404	55.12
180.624	-22.7
180.844	-45.23
181.064	-34.99
181.283	20.31
181.503	1.88
181.723	-6.31
181.943	-102.57
182.163	173.91
182.383	-39.08
182.602	65.36
182.822	147.28
183.042	55.12
183.262	-39.08
183.482	-28.84
183.701	-2.22
183.921	106.32
184.141	44.88
184.361	1.88
184.58	100.18
184.8	61.27
185.02	-86.19
185.239	71.51
185.459	94.04
185.679	75.6
185.898	-20.65
186.118	34.64
186.338	102.23
186.557	132.95
186.777	-82.09
186.997	28.5
187.216	-22.7
187.436	147.28
187.655	106.32
187.875	85.84
188.095	63.32
188.314	69.46
188.534	12.12
188.753	32.6
188.973	122.71
189.192	186.19
189.412	57.17
189.631	32.6
189.851	75.6
190.07	110.42
190.29	-37.03
190.509	5.97
190.729	40.79
190.948	100.18
191.168	239.44
191.387	55.12
191.607	67.41
191.826	89.94
192.045	55.12
192.265	26.45
192.484	42.84
192.704	14.17
192.923	-98.47
193.142	182.1
193.362	124.76
193.581	96.08
193.8	14.17
194.02	57.17
194.239	18.26
194.458	14.17
194.678	-77.99
194.897	8.02
195.116	28.5
195.335	57.17
195.555	128.85
195.774	8.02
195.993	73.56
196.212	1.88
196.432	-28.84
196.651	28.5
196.87	34.64
197.089	231.25
197.308	16.21
197.528	114.52
197.747	-26.79
197.966	94.04
198.185	110.42
198.404	-24.75
198.623	40.79
198.842	69.46
199.062	139.09
199.281	71.51
199.5	-2.22
199.719	67.41
199.938	77.65
200.157	61.27
200.376	137.04
200.595	137.04
200.814	57.17
201.033	14.17
201.252	157.52
201.471	151.38
201.69	44.88
201.909	16.21
202.128	65.36
202.347	83.8
202.566	46.93
202.785	-125.1
203.004	14.17
203.223	274.26
203.442	85.84
203.661	-26.79
203.879	104.28
204.098	175.95
204.317	22.36
204.536	36.69
204.755	128.85
204.974	73.56
205.193	-14.51
205.411	178
205.63	132.95
205.849	98.13
206.068	3.93
206.287	-6.31
206.505	69.46
206.724	91.99
206.943	-32.94
207.162	-12.46
207.381	83.8
207.599	8.02
207.818	32.6
208.037	-69.8
208.255	44.88
208.474	-20.65
208.693	143.19
208.911	-2.22
209.13	40.79
209.349	81.75
209.567	79.7
209.786	108.37
210.005	89.94
210.223	124.76
210.442	-80.04
210.661	16.21
210.879	79.7
211.098	-20.65
211.316	14.17
211.535	114.52
211.753	65.36
211.972	112.47
212.191	-0.17
212.409	-16.55
212.628	75.6
212.846	-45.23
213.065	-47.27
213.283	77.65
213.502	8.02
213.72	30.55
213.938	30.55
214.157	-37.03
214.375	120.66
214.594	-41.13
214.812	5.97
215.031	8.02
215.249	51.03
215.467	18.26
215.686	59.22
215.904	132.95
216.122	-8.36
216.341	83.8
216.559	16.21
216.778	114.52
216.996	147.28
217.214	-82.09
217.432	10.07
217.651	-41.13
217.869	73.56
218.087	-47.27
218.306	-49.32
218.524	46.93
218.742	-6.31
218.96	102.23
219.179	-61.61
219.397	-37.03
219.615	221.01
219.833	51.03
220.051	-55.47
220.27	161.62
220.488	91.99
220.706	71.51
220.924	-37.03
221.142	-37.03
221.36	63.32
221.578	-10.41
221.796	16.21
222.015	22.36
222.233	57.17
222.451	149.33
222.669	3.93
222.887	44.88
223.105	44.88
223.323	20.31
223.541	-0.17
223.759	67.41
223.977	59.22
224.195	157.52
224.413	89.94
224.631	77.65
224.849	75.6
225.067	171.86
225.285	-0.17
225.503	16.21
225.721	-90.28
225.939	8.02
226.157	100.18
226.375	202.58
226.592	-28.84
226.81	10.07
227.028	149.33
227.246	79.7
227.464	53.08
227.682	167.76
227.9	83.8
228.117	67.41
228.335	61.27
228.553	87.89
228.771	-26.79
228.989	112.47
229.206	71.51
229.424	-37.03
229.642	14.17
229.86	-20.65
230.077	126.8
230.295	53.08
230.513	98.13
230.731	57.17
230.948	171.86
231.166	149.33
231.384	10.07
231.601	-47.27
231.819	204.63
232.037	20.31
232.254	-41.13
232.472	38.74
232.689	18.26
232.907	161.62
233.125	5.97
233.342	18.26
233.56	3.93
233.777	16.21
233.995	20.31
234.213	106.32
234.43	153.43
234.648	36.69
234.865	-86.19
235.083	94.04
235.3	-12.46
235.518	55.12
235.735	79.7
235.953	30.55
236.17	18.26
236.388	48.98
236.605	16.21
236.822	110.42
237.04	87.89
237.257	-14.51
237.475	-28.84
237.692	71.51
237.909	40.79
238.127	48.98
238.344	28.5
238.562	153.43
238.779	8.02
238.996	-34.99
239.214	42.84
239.431	51.03
239.648	-39.08
239.865	104.28
240.083	153.43
240.3	-45.23
240.517	28.5
240.735	34.64
240.952	104.28
241.169	85.84
241.386	46.93
241.603	-16.55
241.821	18.26
242.038	79.7
242.255	91.99
242.472	-28.84
242.689	75.6
242.907	91.99
243.124	120.66
243.341	-37.03
243.558	16.21
243.775	-20.65
243.992	20.31
244.209	40.79
244.426	231.25
244.643	42.84
244.86	34.64
245.078	83.8
245.295	44.88
245.512	34.64
245.729	1.88
245.946	61.27
246.163	83.8
246.38	-59.56
246.597	18.26
246.814	20.31
247.031	73.56
247.248	-6.31
247.464	81.75
247.681	-47.27
247.898	3.93
248.115	61.27
248.332	-57.51
248.549	153.43
248.766	141.14
248.983	5.97
249.2	42.84
249.417	79.7
249.633	-67.75
249.85	40.79
250.067	38.74
250.284	24.4
250.501	85.84
250.717	94.04
250.934	-45.23
251.151	30.55
251.368	20.31
251.585	59.22
251.801	55.12
252.018	-34.99
252.235	71.51
252.451	-116.9
252.668	-8.36
252.885	128.85
253.102	132.95
253.318	34.64
253.535	3.93
253.752	-2.22
253.968	22.36
254.185	-20.65
254.401	24.4
254.618	71.51
254.835	-51.37
255.051	161.62
255.268	34.64
255.484	91.99
255.701	30.55
255.917	89.94
256.134	1.88
256.351	55.12
256.567	-55.47
256.784	30.55
257	-55.47
257.217	28.5
257.433	53.08
257.65	-24.75
257.866	42.84
258.082	-80.04
258.299	24.4
258.515	36.69
258.732	-20.65
258.948	36.69
259.165	12.12
259.381	-63.66
259.597	120.66
259.814	26.45
260.03	-14.51
260.246	16.21
260.463	196.43
260.679	104.28
260.895	10.07
261.112	55.12
261.328	-0.17
261.544	40.79
261.761	85.84
261.977	-45.23
262.193	-26.79
262.409	36.69
262.626	57.17
262.842	40.79
263.058	-37.03
263.274	94.04
263.49	67.41
263.707	120.66
263.923	98.13
264.139	-77.99
264.355	48.98
264.571	143.19
264.787	44.88
265.004	63.32
265.22	24.4
265.436	-16.55
265.652	57.17
265.868	61.27
266.084	-18.6
266.3	44.88
266.516	-12.46
266.732	30.55
266.948	1.88
267.164	5.97
267.38	104.28
267.596	132.95
267.812	149.33
268.028	-30.89
268.244	-65.71
268.46	16.21
268.676	38.74
268.892	71.51
269.108	-24.75
269.324	5.97
269.54	-12.46
269.756	36.69
269.972	-39.08
270.188	89.94
270.403	-39.08
270.619	-8.36
270.835	132.95
271.051	10.07
271.267	-32.94
271.483	-45.23
271.698	106.32
271.914	57.17
272.13	73.56
272.346	24.4
272.562	65.36
272.777	59.22
272.993	67.41
273.209	3.93
273.425	89.94
273.64	3.93
273.856	36.69
274.072	-61.61
274.287	-47.27
274.503	61.27
274.719	40.79
274.934	38.74
275.15	-75.95
275.366	1.88
275.581	44.88
275.797	77.65
276.012	-6.31
276.228	-37.03
276.444	180.05
276.659	118.61
276.875	-71.85
277.09	16.21
277.306	-45.23
277.521	46.93
277.737	-26.79
277.952	67.41
278.168	24.4
278.383	128.85
278.599	12.12
278.814	130.9
279.03	57.17
279.245	128.85
279.461	16.21
279.676	38.74
279.892	16.21
280.107	-34.99
280.322	-8.36
280.538	-18.6
280.753	96.08
280.969	-10.41
281.184	67.41
281.399	100.18
281.615	1.88
281.83	57.17
282.045	-8.36
282.26	22.36
282.476	26.45
282.691	204.63
282.906	116.56
283.122	63.32
283.337	-92.33
283.552	87.89
283.767	-12.46
283.983	98.13
284.198	1.88
284.413	20.31
284.628	-26.79
284.843	14.17
285.058	-0.17
285.274	-92.33
285.489	-8.36
285.704	194.39
285.919	-20.65
286.134	40.79
286.349	83.8
286.564	10.07
286.779	135
286.995	-47.27
287.21	-41.13
287.425	71.51
287.64	-10.41
287.855	85.84
288.07	-0.17
288.285	192.34
288.5	118.61
288.715	137.04
288.93	34.64
289.145	-73.9
289.36	65.36
289.575	-12.46
289.79	153.43
290.004	-63.66
290.219	114.52
290.434	-67.75
290.649	-57.51
290.864	-8.36
291.079	22.36
291.294	139.09
291.509	22.36
291.724	-65.71
291.938	20.31
292.153	63.32
292.368	10.07
292.583	44.88
292.798	102.23
293.012	-16.55
293.227	67.41
293.442	-8.36
293.657	96.08
293.871	67.41
294.086	69.46
294.301	163.67
294.516	57.17
294.73	53.08
294.945	-45.23
295.16	57.17
295.374	155.47
295.589	143.19
295.804	-45.23
296.018	63.32
296.233	124.76
296.447	-2.22
296.662	-10.41
296.877	85.84
297.091	40.79
297.306	-26.79
297.52	22.36
297.735	38.74
297.949	63.32
298.164	53.08
298.378	53.08
298.593	5.97
298.807	40.79
299.022	59.22
299.236	159.57
299.451	-49.32
299.665	46.93
299.88	-2.22
300.094	100.18
300.309	36.69
300.523	55.12
300.737	-45.23
300.952	85.84
301.166	141.14
301.381	-10.41
301.595	-16.55
301.809	12.12
302.024	-47.27
302.238	-8.36
302.452	96.08
302.667	-16.55
302.881	190.29
303.095	89.94
303.309	57.17
303.524	32.6
303.738	36.69
303.952	8.02
304.166	40.79
304.381	-94.38
304.595	186.19
304.809	-53.42
305.023	63.32
305.237	38.74
305.452	-20.65
305.666	57.17
305.88	96.08
306.094	61.27
306.308	48.98
306.522	128.85
306.736	32.6
306.95	112.47
307.164	75.6
307.379	-32.94
307.593	128.85
307.807	79.7
308.021	116.56
308.235	87.89
308.449	-114.86
308.663	-6.31
308.877	227.15
309.091	67.41
309.305	44.88
309.519	-8.36
309.733	130.9
309.947	-86.19
310.161	106.32
310.374	135
310.588	151.38
310.802	-14.51
311.016	-10.41
311.23	116.56
311.444	-16.55
311.658	83.8
311.872	132.95
312.085	81.75
312.299	100.18
312.513	163.67
312.727	114.52
312.941	-82.09
313.154	89.94
313.368	18.26
313.582	16.21
313.796	65.36
314.009	20.31
314.223	106.32
314.437	91.99
314.651	38.74
314.864	-67.75
315.078	42.84
315.292	-43.18
315.505	-6.31
315.719	59.22
315.933	100.18
316.146	18.26
316.36	-53.42
316.573	126.8
316.787	91.99
317.001	87.89
317.214	14.17
317.428	36.69
317.641	-45.23
317.855	-34.99
318.068	24.4
318.282	44.88
318.495	225.11
318.709	77.65
318.922	65.36
319.136	149.33
319.349	126.8
319.563	16.21
319.776	-4.27
319.99	-75.95
320.203	104.28
320.417	28.5
320.63	96.08
320.843	194.39
321.057	44.88
321.27	16.21
321.483	46.93
321.697	178
321.91	110.42
322.124	77.65
322.337	55.12
322.55	-14.51
322.763	30.55
322.977	-10.41
323.19	14.17
323.403	-4.27
323.617	75.6
323.83	130.9
324.043	-49.32
324.256	87.89
324.469	5.97
324.683	61.27
324.896	-4.27
325.109	5.97
325.322	-82.09
325.535	28.5
325.748	139.09
325.962	67.41
326.175	83.8
326.388	1.88
326.601	94.04
326.814	12.12
327.027	94.04
327.24	112.47
327.453	-30.89
327.666	91.99
327.879	108.37
328.092	114.52
328.305	75.6
328.518	22.36
328.731	63.32
328.944	38.74
329.157	87.89
329.37	-57.51
329.583	75.6
329.796	231.25
330.009	-32.94
330.222	145.24
330.435	40.79
330.648	-34.99
330.861	24.4
331.073	38.74
331.286	85.84
331.499	26.45
331.712	-57.51
331.925	85.84
332.138	-49.32
332.35	96.08
332.563	46.93
332.776	151.38
332.989	14.17
333.202	-2.22
333.414	128.85
333.627	8.02
333.84	65.36
334.053	94.04
334.265	-4.27
334.478	-61.61
334.691	-12.46
334.903	89.94
335.116	-12.46
335.329	69.46
335.541	61.27
335.754	143.19
335.966	16.21
336.179	-8.36
336.392	-16.55
336.604	16.21
336.817	38.74
337.029	-12.46
337.242	-14.51
337.454	114.52
337.667	10.07
337.88	216.91
338.092	73.56
338.305	46.93
338.517	18.26
338.729	55.12
338.942	85.84
339.154	-59.56
339.367	-32.94
339.579	32.6
339.792	-51.37
340.004	87.89
340.217	63.32
340.429	63.32
340.641	-24.75
340.854	-141.48
341.066	126.8
341.278	83.8
341.491	132.95
341.703	75.6
341.915	8.02
342.128	22.36
342.34	-0.17
342.552	-125.1
342.764	14.17
342.977	-45.23
343.189	8.02
343.401	83.8
343.613	-53.42
343.826	42.84
344.038	-65.71
344.25	24.4
344.462	-67.75
344.674	46.93
344.886	20.31
345.099	79.7
345.311	-73.9
345.523	55.12
345.735	-88.23
345.947	81.75
346.159	5.97
346.371	3.93
346.583	20.31
346.795	137.04
347.007	40.79
347.219	5.97
347.431	1.88
347.643	81.75
347.855	-6.31
348.067	151.38
348.279	-45.23
348.491	24.4
348.703	8.02
348.915	12.12
349.127	-6.31
349.339	63.32
349.551	89.94
349.763	104.28
349.975	3.93
350.187	108.37
350.399	116.56
350.61	108.37
350.822	-53.42
351.034	30.55
351.246	94.04
351.458	44.88
351.669	32.6
351.881	85.84
352.093	116.56
352.305	137.04
352.517	-10.41
352.728	122.71
352.94	85.84
353.152	55.12
353.363	-12.46
353.575	79.7
353.787	149.33
353.999	28.5
354.21	184.15
354.422	24.4
354.633	-39.08
354.845	71.51
355.057	8.02
355.268	34.64
355.48	137.04
355.692	-106.67
355.903	16.21
356.115	-18.6
356.326	-71.85
356.538	135
356.749	130.9
356.961	196.43
357.172	55.12
357.384	-63.66
357.595	241.49
357.807	32.6
358.018	53.08
358.23	1.88
358.441	184.15
358.653	89.94
358.864	46.93
359.075	-28.84
359.287	38.74
359.498	55.12
359.709	122.71
359.921	18.26
360.132	65.36
360.344	61.27
360.555	-0.17
360.766	38.74
360.977	16.21
361.189	100.18
361.4	24.4
361.611	106.32
361.823	145.24
362.034	18.26
362.245	-96.43
362.456	-4.27
362.667	118.61
362.879	1.88
363.09	38.74
363.301	104.28
363.512	36.69
363.723	24.4
363.935	-26.79
364.146	182.1
364.357	1.88
364.568	48.98
364.779	-90.28
364.99	169.81
365.201	5.97
365.412	139.09
365.623	-61.61
365.834	24.4
366.045	65.36
366.256	126.8
366.467	100.18
366.678	-2.22
366.889	34.64
367.1	20.31
367.311	114.52
367.522	38.74
367.733	65.36
367.944	77.65
368.155	20.31
368.366	22.36
368.577	102.23
368.788	87.89
368.999	26.45
369.209	-8.36
369.42	247.63
369.631	257.87
369.842	87.89
370.053	-49.32
370.264	91.99
370.474	-8.36
370.685	102.23
370.896	26.45
371.107	139.09
371.317	83.8
371.528	-10.41
371.739	79.7
371.95	75.6
372.16	69.46
372.371	-92.33
372.582	-41.13
372.792	-6.31
373.003	12.12
373.214	147.28
373.424	83.8
373.635	22.36
373.846	198.48
374.056	-12.46
374.267	75.6
374.477	38.74
374.688	-26.79
374.898	38.74
375.109	73.56
375.319	-6.31
375.53	59.22
375.74	94.04
375.951	79.7
376.161	85.84
376.372	71.51
376.582	-28.84
376.793	48.98
377.003	-6.31
377.214	-49.32
377.424	104.28
377.635	-34.99
377.845	-63.66
378.055	225.11
378.266	-18.6
378.476	-26.79
378.686	73.56
378.897	-10.41
379.107	137.04
379.317	48.98
379.528	36.69
379.738	79.7
379.948	-22.7
380.158	87.89
380.369	73.56
380.579	3.93
380.789	10.07
380.999	110.42
381.21	91.99
381.42	178
381.63	5.97
381.84	110.42
382.05	91.99
382.261	104.28
382.471	79.7
382.681	34.64
382.891	184.15
383.101	63.32
383.311	8.02
383.521	-22.7
383.731	42.84
383.941	98.13
384.151	81.75
384.361	5.97
384.571	102.23
384.781	30.55
384.991	180.05
385.201	186.19
385.411	137.04
385.621	69.46
385.831	28.5
386.041	63.32
386.251	-39.08
386.461	89.94
386.671	65.36
386.881	100.18
387.091	-8.36
387.301	83.8
387.511	100.18
387.72	32.6
387.93	171.86
388.14	-112.81
388.35	36.69
388.56	145.24
388.769	24.4
388.979	-84.14
389.189	-49.32
389.399	-53.42
389.609	67.41
389.818	77.65
390.028	53.08
390.238	122.71
390.447	28.5
390.657	57.17
390.867	30.55
391.076	-8.36
391.286	8.02
391.496	-16.55
391.705	-4.27
391.915	26.45
392.125	55.12
392.334	46.93
392.544	147.28
392.753	-2.22
392.963	-41.13
393.172	98.13
393.382	-26.79
393.591	173.91
393.801	-53.42
394.01	114.52
394.22	83.8
394.429	38.74
394.639	-10.41
394.848	63.32
395.058	8.02
395.267	30.55
395.477	57.17
395.686	108.37
395.895	200.53
396.105	149.33
396.314	87.89
396.524	61.27
396.733	55.12
396.942	161.62
397.152	34.64
397.361	137.04
397.57	51.03
397.78	118.61
397.989	85.84
398.198	89.94
398.407	8.02
398.617	44.88
398.826	100.18
399.035	10.07
399.244	24.4
399.453	75.6
399.663	8.02
399.872	104.28
400.081	-53.42
400.29	155.47
400.499	-34.99
400.708	81.75
400.917	18.26
401.127	-12.46
401.336	-20.65
401.545	161.62
401.754	112.47
401.963	141.14
402.172	40.79
402.381	-14.51
402.59	69.46
402.799	24.4
403.008	26.45
403.217	85.84
403.426	94.04
403.635	-67.75
403.844	53.08
404.053	36.69
404.262	30.55
404.471	116.56
404.68	114.52
404.888	91.99
405.097	77.65
405.306	30.55
405.515	120.66
405.724	57.17
405.933	114.52
406.142	57.17
406.35	132.95
406.559	-30.89
406.768	163.67
406.977	186.19
407.185	98.13
407.394	51.03
407.603	42.84
407.812	73.56
408.02	145.24
408.229	36.69
408.438	79.7
408.646	-22.7
408.855	-12.46
409.064	71.51
409.272	-4.27
409.481	147.28
409.69	1.88
409.898	-32.94
410.107	69.46
410.315	75.6
410.524	-69.8
410.733	36.69
410.941	-41.13
411.15	65.36
411.358	126.8
411.567	163.67
411.775	1.88
411.984	79.7
412.192	153.43
412.401	1.88
412.609	118.61
412.818	114.52
413.026	157.52
413.234	22.36
413.443	67.41
413.651	14.17
413.86	-32.94
414.068	161.62
414.276	163.67
414.485	-34.99
414.693	182.1
414.901	247.63
415.11	36.69
415.318	16.21
415.526	-20.65
415.734	165.71
415.943	91.99
416.151	91.99
416.359	26.45
416.567	38.74
416.776	77.65
416.984	110.42
417.192	75.6
417.4	32.6
417.608	-32.94
417.817	-8.36
418.025	83.8
418.233	112.47
418.441	5.97
418.649	34.64
418.857	65.36
419.065	100.18
419.273	63.32
419.481	153.43
419.689	16.21
419.897	-2.22
420.105	-37.03
420.313	98.13
420.521	163.67
420.729	139.09
420.937	22.36
421.145	-37.03
421.353	106.32
421.561	102.23
421.769	42.84
421.977	-10.41
422.185	83.8
422.393	24.4
422.601	65.36
422.809	87.89
423.017	55.12
423.224	108.37
423.432	110.42
423.64	51.03
423.848	83.8
424.056	94.04
424.263	106.32
424.471	63.32
424.679	71.51
424.887	51.03
425.094	167.76
425.302	128.85
425.51	61.27
425.718	141.14
425.925	83.8
426.133	141.14
426.341	212.82
426.548	8.02
426.756	65.36
426.964	155.47
427.171	-4.27
427.379	112.47
427.586	124.76
427.794	44.88
428.001	118.61
428.209	67.41
428.417	79.7
428.624	120.66
428.832	112.47
429.039	71.51
429.247	118.61
429.454	149.33
429.662	243.54
429.869	128.85
430.076	94.04
430.284	91.99
430.491	200.53
430.699	71.51
430.906	221.01
431.114	171.86
431.321	104.28
431.528	46.93
431.736	175.95
431.943	202.58
432.15	157.52
432.358	147.28
432.565	241.49
432.772	-4.27
432.979	204.63
433.187	104.28
433.394	233.3
433.601	28.5
433.808	216.91
434.016	169.81
434.223	200.53
434.43	141.14
434.637	274.26
434.844	225.11
435.052	247.63
435.259	167.76
435.466	235.35
435.673	151.38
435.88	331.6
436.087	292.69
436.294	347.98
436.501	298.83
436.708	190.29
436.915	247.63
437.122	335.7
437.329	231.25
437.537	354.13
437.743	333.65
437.95	382.8
438.157	364.37
438.364	343.89
438.571	395.09
438.778	411.47
438.985	413.52
439.192	417.61
439.399	352.08
439.606	427.85
439.813	472.91
440.02	603.98
440.227	530.25
440.433	538.45
440.64	462.67
440.847	380.75
441.054	548.68
441.261	624.46
441.467	591.69
441.674	530.25
441.881	530.25
442.088	511.82
442.294	657.23
442.501	749.39
442.708	710.47
442.914	720.71
443.121	798.54
443.328	782.15
443.534	827.21
443.741	685.9
443.948	712.52
444.154	894.79
444.361	1038.15
444.568	876.36
444.774	1044.29
444.981	870.22
445.187	1089.35
445.394	1118.02
445.6	974.66
445.807	1171.27
446.013	1195.84
446.22	1091.4
446.426	1308.48
446.633	1378.11
446.839	1554.24
447.046	1218.37
447.252	1560.38
447.459	1482.56
447.665	1533.76
447.871	1552.19
448.078	1718.08
448.284	1709.88
448.491	1847.1
448.697	1939.26
448.903	1933.11
449.11	1943.35
449.316	1875.77
449.522	2172.72
449.728	2273.07
449.935	2330.42
450.141	2285.36
450.347	2445.1
450.553	2338.61
450.76	2510.64
450.966	2615.09
451.172	2750.25
451.378	2873.13
451.584	2959.14
451.791	3110.69
451.997	3239.72
452.203	3264.29
452.409	3401.51
452.615	3555.1
452.821	3536.67
453.027	3378.98
453.233	4067.1
453.44	3901.21
453.646	3974.94
453.852	4042.52
454.058	4359.95
454.264	4443.92
454.47	4759.31
454.676	4796.17
454.882	5119.75
455.088	5050.12
455.294	5213.96
455.5	5672.7
455.705	5912.32
455.911	5787.39
456.117	6012.67
456.323	6438.64
456.529	6397.68
456.735	6657.78
456.941	7112.42
457.147	7341.8
457.352	7433.96
457.558	7833.31
457.764	8120.03
457.97	8351.45
458.176	8756.94
458.381	9238.22
458.587	9410.25
458.793	9774.78
458.999	9713.35
459.204	11284.14
459.41	11544.23
459.616	11148.97
459.821	11964.06
460.027	12441.24
460.233	13008.53
460.438	13215.37
460.644	13684.36
460.85	14016.13
461.055	14341.75
461.261	15289.96
461.466	14624.37
461.672	15236.72
461.878	16924.24
462.083	16576.09
462.289	17102.42
462.494	17630.79
462.7	17806.92
462.905	18056.77
463.111	19779.11
463.316	20481.56
463.522	21179.92
463.727	21622.28
463.932	22285.83
464.138	23238.13
464.343	24233.44
464.549	24516.06
464.754	26258.88
464.959	26725.82
465.165	27235.77
465.37	26838.46
465.575	26920.38
465.781	28863.9
465.986	29740.43
466.191	29035.93
466.397	29590.93
466.602	29005.21
466.807	30569.86
467.012	31210.87
467.218	31372.66
467.423	31774.06
467.628	32449.89
467.833	34336.07
468.038	33752.4
468.244	32732.51
468.449	34694.47
468.654	34182.48
468.859	34170.19
