Data from USB4F104151__205__11-05-39-629.txt Node

Date: Wed Feb 26 11:05:39 EST 2025
User: louis
Spectrometer: USB4F10415
Trigger mode: 4
Integration Time (sec): 1.000000E-1
Scans to average: 1
Electric dark correction enabled: true
Nonlinearity correction enabled: false
Boxcar width: 0
XAxis mode: Wavelengths
Number of Pixels in Spectrum: 3648
>>>>>Begin Spectral Data<<<<<
178.204	-368.98
178.424	-368.98
178.644	-368.98
178.864	-405.84
179.084	-409.94
179.304	-6.49
179.524	18.09
179.744	-10.58
179.964	26.28
180.184	34.47
180.404	97.96
180.624	-35.16
180.844	-26.96
181.064	-102.74
181.283	61.1
181.503	-82.26
181.723	26.28
181.943	-67.92
182.163	255.65
182.383	-49.49
182.602	112.3
182.822	218.79
183.042	122.54
183.262	9.9
183.482	69.29
183.701	120.49
183.921	77.48
184.141	-18.77
184.361	67.24
184.58	120.49
184.8	63.15
185.02	-2.39
185.239	100.01
185.459	36.52
185.679	149.16
185.898	-78.16
186.118	87.72
186.338	65.19
186.557	69.29
186.777	16.04
186.997	-26.96
187.216	9.9
187.436	265.89
187.655	79.53
187.875	138.92
188.095	59.05
188.314	159.4
188.534	93.87
188.753	-72.02
188.973	186.02
189.192	155.3
189.412	50.86
189.631	-6.49
189.851	118.44
190.07	100.01
190.29	-47.44
190.509	7.85
190.729	116.39
190.948	167.59
191.168	259.75
191.387	95.91
191.607	71.34
191.826	89.77
192.045	83.63
192.265	61.1
192.484	71.34
192.704	-6.49
192.923	-26.96
193.142	247.46
193.362	126.63
193.581	138.92
193.8	95.91
194.02	143.02
194.239	100.01
194.458	161.45
194.678	26.28
194.897	93.87
195.116	134.82
195.335	59.05
195.555	61.1
195.774	11.95
195.993	138.92
196.212	48.81
196.432	40.62
196.651	-10.58
196.87	126.63
197.089	259.75
197.308	26.28
197.528	73.39
197.747	-14.68
197.966	69.29
198.185	186.02
198.404	91.82
198.623	100.01
198.842	110.25
199.062	145.06
199.281	97.96
199.5	9.9
199.719	54.95
199.938	36.52
200.157	77.48
200.376	122.54
200.595	97.96
200.814	77.48
201.033	-45.4
201.252	222.89
201.471	59.05
201.69	196.26
201.909	69.29
202.128	61.1
202.347	106.15
202.566	50.86
202.785	-61.78
203.004	-37.2
203.223	202.41
203.442	5.8
203.661	-10.58
203.879	1.71
204.098	130.73
204.317	-41.3
204.536	100.01
204.755	85.67
204.974	24.23
205.193	-4.44
205.411	128.68
205.63	128.68
205.849	69.29
206.068	67.24
206.287	9.9
206.505	163.5
206.724	73.39
206.943	1.71
207.162	46.76
207.381	140.97
207.599	79.53
207.818	52.91
208.037	65.19
208.255	38.57
208.474	18.09
208.693	132.78
208.911	38.57
209.13	130.73
209.349	93.87
209.567	34.47
209.786	77.48
210.005	73.39
210.223	104.11
210.442	-51.54
210.661	112.3
210.879	102.06
211.098	11.95
211.316	75.43
211.535	50.86
211.753	57
211.972	124.58
212.191	3.75
212.409	87.72
212.628	138.92
212.846	-12.63
213.065	95.91
213.283	151.21
213.502	16.04
213.72	75.43
213.938	122.54
214.157	-26.96
214.375	175.78
214.594	71.34
214.812	100.01
215.031	-14.68
215.249	91.82
215.467	48.81
215.686	-4.44
215.904	57
216.122	20.14
216.341	134.82
216.559	89.77
216.778	143.02
216.996	100.01
217.214	24.23
217.432	-0.34
217.651	-26.96
217.869	48.81
218.087	54.95
218.306	-20.82
218.524	18.09
218.742	48.81
218.96	128.68
219.179	93.87
219.397	1.71
219.615	265.89
219.833	120.49
220.051	1.71
220.27	126.63
220.488	175.78
220.706	87.72
220.924	-10.58
221.142	-16.73
221.36	32.43
221.578	122.54
221.796	32.43
222.015	118.44
222.233	61.1
222.451	181.93
222.669	-20.82
222.887	120.49
223.105	-59.73
223.323	65.19
223.541	26.28
223.759	3.75
223.977	124.58
224.195	231.08
224.413	159.4
224.631	54.95
224.849	122.54
225.067	171.69
225.285	71.34
225.503	73.39
225.721	-90.45
225.939	61.1
226.157	89.77
226.375	239.27
226.592	-8.53
226.81	118.44
227.028	100.01
227.246	143.02
227.464	5.8
227.682	93.87
227.9	210.6
228.117	71.34
228.335	83.63
228.553	87.72
228.771	5.8
228.989	79.53
229.206	79.53
229.424	-43.35
229.642	-33.11
229.86	-12.63
230.077	97.96
230.295	106.15
230.513	73.39
230.731	91.82
230.948	194.22
231.166	147.11
231.384	44.71
231.601	44.71
231.819	233.13
232.037	-22.87
232.254	-20.82
232.472	34.47
232.689	-16.73
232.907	79.53
233.125	9.9
233.342	-12.63
233.56	-69.97
233.777	-49.49
233.995	83.63
234.213	134.82
234.43	57
234.648	46.76
234.865	-2.39
235.083	93.87
235.3	52.91
235.518	159.4
235.735	192.17
235.953	165.54
236.17	40.62
236.388	3.75
236.605	71.34
236.822	73.39
237.04	93.87
237.257	102.06
237.475	-16.73
237.692	114.34
237.909	124.58
238.127	-92.5
238.344	87.72
238.562	30.38
238.779	11.95
238.996	40.62
239.214	65.19
239.431	67.24
239.648	36.52
239.865	75.43
240.083	48.81
240.3	22.19
240.517	22.19
240.735	91.82
240.952	173.74
241.169	132.78
241.386	145.06
241.603	26.28
241.821	1.71
242.038	147.11
242.255	81.58
242.472	-37.2
242.689	65.19
242.907	124.58
243.124	54.95
243.341	83.63
243.558	-6.49
243.775	-2.39
243.992	-31.06
244.209	3.75
244.426	173.74
244.643	87.72
244.86	-0.34
245.078	38.57
245.295	57
245.512	77.48
245.729	1.71
245.946	57
246.163	93.87
246.38	5.8
246.597	42.67
246.814	42.67
247.031	40.62
247.248	-8.53
247.464	28.33
247.681	114.34
247.898	61.1
248.115	50.86
248.332	28.33
248.549	153.26
248.766	138.92
248.983	93.87
249.2	73.39
249.417	112.3
249.633	73.39
249.85	54.95
250.067	20.14
250.284	149.16
250.501	114.34
250.717	52.91
250.934	7.85
251.151	42.67
251.368	79.53
251.585	-0.34
251.801	32.43
252.018	48.81
252.235	165.54
252.451	-41.3
252.668	77.48
252.885	100.01
253.102	110.25
253.318	-6.49
253.535	-26.96
253.752	24.23
253.968	-0.34
254.185	-94.55
254.401	20.14
254.618	59.05
254.835	-22.87
255.051	145.06
255.268	140.97
255.484	50.86
255.701	83.63
255.917	65.19
256.134	-0.34
256.351	40.62
256.567	-47.44
256.784	87.72
257	20.14
257.217	128.68
257.433	71.34
257.65	81.58
257.866	173.74
258.082	-12.63
258.299	28.33
258.515	77.48
258.732	9.9
258.948	-12.63
259.165	24.23
259.381	-10.58
259.597	112.3
259.814	77.48
260.03	-24.92
260.246	83.63
260.463	134.82
260.679	118.44
260.895	16.04
261.112	57
261.328	-0.34
261.544	30.38
261.761	171.69
261.977	13.99
262.193	-29.01
262.409	38.57
262.626	54.95
262.842	16.04
263.058	-53.59
263.274	157.35
263.49	87.72
263.707	122.54
263.923	181.93
264.139	-29.01
264.355	44.71
264.571	116.39
264.787	81.58
265.004	100.01
265.22	13.99
265.436	36.52
265.652	7.85
265.868	7.85
266.084	7.85
266.3	71.34
266.516	48.81
266.732	67.24
266.948	38.57
267.164	28.33
267.38	126.63
267.596	106.15
267.812	167.59
268.028	77.48
268.244	77.48
268.46	100.01
268.676	32.43
268.892	32.43
269.108	-57.68
269.324	-8.53
269.54	-4.44
269.756	69.29
269.972	-10.58
270.188	-12.63
270.403	85.67
270.619	5.8
270.835	108.2
271.051	7.85
271.267	102.06
271.483	-2.39
271.698	89.77
271.914	38.57
272.13	95.91
272.346	106.15
272.562	87.72
272.777	77.48
272.993	18.09
273.209	-20.82
273.425	106.15
273.64	-96.6
273.856	130.73
274.072	-4.44
274.287	50.86
274.503	116.39
274.719	65.19
274.934	-39.25
275.15	-35.16
275.366	67.24
275.581	-2.39
275.797	77.48
276.012	73.39
276.228	28.33
276.444	95.91
276.659	147.11
276.875	40.62
277.09	3.75
277.306	100.01
277.521	44.71
277.737	42.67
277.952	44.71
278.168	34.47
278.383	97.96
278.599	151.21
278.814	26.28
279.03	59.05
279.245	132.78
279.461	114.34
279.676	155.3
279.892	-49.49
280.107	-4.44
280.322	97.96
280.538	145.06
280.753	59.05
280.969	48.81
281.184	65.19
281.399	175.78
281.615	97.96
281.83	30.38
282.045	20.14
282.26	50.86
282.476	-18.77
282.691	140.97
282.906	73.39
283.122	132.78
283.337	18.09
283.552	87.72
283.767	42.67
283.983	138.92
284.198	32.43
284.413	155.3
284.628	-43.35
284.843	1.71
285.058	69.29
285.274	69.29
285.489	-45.4
285.704	91.82
285.919	38.57
286.134	100.01
286.349	77.48
286.564	20.14
286.779	161.45
286.995	36.52
287.21	-26.96
287.425	73.39
287.64	28.33
287.855	130.73
288.07	-100.69
288.285	255.65
288.5	134.82
288.715	83.63
288.93	36.52
289.145	28.33
289.36	54.95
289.575	-2.39
289.79	106.15
290.004	-14.68
290.219	145.06
290.434	26.28
290.649	-41.3
290.864	91.82
291.079	20.14
291.294	67.24
291.509	118.44
291.724	7.85
291.938	22.19
292.153	63.15
292.368	67.24
292.583	116.39
292.798	145.06
293.012	28.33
293.227	110.25
293.442	7.85
293.657	183.98
293.871	104.11
294.086	91.82
294.301	165.54
294.516	91.82
294.73	75.43
294.945	-0.34
295.16	-16.73
295.374	149.16
295.589	95.91
295.804	73.39
296.018	95.91
296.233	165.54
296.447	89.77
296.662	-8.53
296.877	149.16
297.091	124.58
297.306	50.86
297.52	50.86
297.735	67.24
297.949	44.71
298.164	24.23
298.378	54.95
298.593	9.9
298.807	-26.96
299.022	93.87
299.236	198.31
299.451	11.95
299.665	-6.49
299.88	93.87
300.094	38.57
300.309	22.19
300.523	54.95
300.737	13.99
300.952	124.58
301.166	95.91
301.381	-53.59
301.595	9.9
301.809	114.34
302.024	91.82
302.238	5.8
302.452	190.12
302.667	81.58
302.881	128.68
303.095	169.64
303.309	24.23
303.524	40.62
303.738	5.8
303.952	18.09
304.166	61.1
304.381	-33.11
304.595	128.68
304.809	48.81
305.023	65.19
305.237	52.91
305.452	-14.68
305.666	67.24
305.88	126.63
306.094	112.3
306.308	116.39
306.522	132.78
306.736	52.91
306.95	169.64
307.164	102.06
307.379	59.05
307.593	157.35
307.807	200.36
308.021	110.25
308.235	110.25
308.449	11.95
308.663	44.71
308.877	243.37
309.091	136.87
309.305	67.24
309.519	-102.74
309.733	136.87
309.947	-37.2
310.161	59.05
310.374	20.14
310.588	159.4
310.802	-10.58
311.016	34.47
311.23	106.15
311.444	24.23
311.658	34.47
311.872	128.68
312.085	112.3
312.299	104.11
312.513	233.13
312.727	89.77
312.941	-14.68
313.154	65.19
313.368	110.25
313.582	85.67
313.796	30.38
314.009	57
314.223	108.2
314.437	87.72
314.651	65.19
314.864	-20.82
315.078	28.33
315.292	-41.3
315.505	-8.53
315.719	44.71
315.933	75.43
316.146	-20.82
316.36	-2.39
316.573	181.93
316.787	143.02
317.001	93.87
317.214	28.33
317.428	24.23
317.641	-16.73
317.855	54.95
318.068	91.82
318.282	36.52
318.495	163.5
318.709	140.97
318.922	65.19
319.136	155.3
319.349	145.06
319.563	71.34
319.776	93.87
319.99	-59.73
320.203	114.34
320.417	54.95
320.63	79.53
320.843	218.79
321.057	79.53
321.27	-43.35
321.483	67.24
321.697	157.35
321.91	61.1
322.124	30.38
322.337	143.02
322.55	-47.44
322.763	36.52
322.977	16.04
323.19	-47.44
323.403	24.23
323.617	87.72
323.83	122.54
324.043	20.14
324.256	102.06
324.469	-45.4
324.683	114.34
324.896	54.95
325.109	95.91
325.322	-43.35
325.535	77.48
325.748	87.72
325.962	48.81
326.175	46.76
326.388	65.19
326.601	120.49
326.814	-6.49
327.027	-20.82
327.24	147.11
327.453	-10.58
327.666	77.48
327.879	118.44
328.092	71.34
328.305	24.23
328.518	3.75
328.731	11.95
328.944	61.1
329.157	16.04
329.37	-24.92
329.583	192.17
329.796	233.13
330.009	26.28
330.222	130.73
330.435	116.39
330.648	30.38
330.861	91.82
331.073	122.54
331.286	114.34
331.499	61.1
331.712	-10.58
331.925	-2.39
332.138	97.96
332.35	87.72
332.563	-6.49
332.776	186.02
332.989	-57.68
333.202	77.48
333.414	102.06
333.627	54.95
333.84	-4.44
334.053	42.67
334.265	9.9
334.478	20.14
334.691	7.85
334.903	71.34
335.116	28.33
335.329	85.67
335.541	-4.44
335.754	147.11
335.966	44.71
336.179	13.99
336.392	-55.64
336.604	91.82
336.817	163.5
337.029	65.19
337.242	13.99
337.454	93.87
337.667	50.86
337.88	155.3
338.092	-0.34
338.305	95.91
338.517	22.19
338.729	132.78
338.942	132.78
339.154	-41.3
339.367	28.33
339.579	24.23
339.792	-24.92
340.004	140.97
340.217	48.81
340.429	73.39
340.641	-53.59
340.854	-61.78
341.066	38.57
341.278	149.16
341.491	179.88
341.703	44.71
341.915	-55.64
342.128	28.33
342.34	140.97
342.552	20.14
342.764	73.39
342.977	-51.54
343.189	97.96
343.401	71.34
343.613	-0.34
343.826	28.33
344.038	93.87
344.25	163.5
344.462	50.86
344.674	57
344.886	-0.34
345.099	106.15
345.311	143.02
345.523	-8.53
345.735	-24.92
345.947	118.44
346.159	136.87
346.371	93.87
346.583	-14.68
346.795	153.26
347.007	-41.3
347.219	38.57
347.431	-18.77
347.643	112.3
347.855	46.76
348.067	138.92
348.279	5.8
348.491	122.54
348.703	134.82
348.915	79.53
349.127	-14.68
349.339	20.14
349.551	40.62
349.763	116.39
349.975	75.43
350.187	124.58
350.399	226.98
350.61	110.25
350.822	-61.78
351.034	42.67
351.246	81.58
351.458	77.48
351.669	69.29
351.881	46.76
352.093	169.64
352.305	151.21
352.517	118.44
352.728	130.73
352.94	77.48
353.152	93.87
353.363	11.95
353.575	106.15
353.787	190.12
353.999	13.99
354.21	130.73
354.422	46.76
354.633	54.95
354.845	73.39
355.057	40.62
355.268	59.05
355.48	134.82
355.692	-102.74
355.903	38.57
356.115	-14.68
356.326	-24.92
356.538	136.87
356.749	54.95
356.961	222.89
357.172	97.96
357.384	38.57
357.595	231.08
357.807	-35.16
358.018	-12.63
358.23	57
358.441	134.82
358.653	100.01
358.864	5.8
359.075	-18.77
359.287	106.15
359.498	44.71
359.709	65.19
359.921	75.43
360.132	-4.44
360.344	44.71
360.555	54.95
360.766	192.17
360.977	-14.68
361.189	30.38
361.4	42.67
361.611	91.82
361.823	167.59
362.034	138.92
362.245	-76.12
362.456	3.75
362.667	194.22
362.879	1.71
363.09	81.58
363.301	46.76
363.512	30.38
363.723	42.67
363.935	-47.44
364.146	171.69
364.357	54.95
364.568	52.91
364.779	-55.64
364.99	171.69
365.201	-18.77
365.412	120.49
365.623	-80.21
365.834	63.15
366.045	34.47
366.256	120.49
366.467	34.47
366.678	40.62
366.889	30.38
367.1	24.23
367.311	175.78
367.522	3.75
367.733	128.68
367.944	132.78
368.155	-33.11
368.366	159.4
368.577	157.35
368.788	159.4
368.999	-8.53
369.209	112.3
369.42	237.22
369.631	302.76
369.842	112.3
370.053	38.57
370.264	75.43
370.474	-39.25
370.685	93.87
370.896	112.3
371.107	134.82
371.317	32.43
371.528	48.81
371.739	181.93
371.95	128.68
372.16	71.34
372.371	-12.63
372.582	95.91
372.792	77.48
373.003	50.86
373.214	71.34
373.424	132.78
373.635	-0.34
373.846	216.74
374.056	38.57
374.267	22.19
374.477	167.59
374.688	24.23
374.898	93.87
375.109	149.16
375.319	157.35
375.53	120.49
375.74	100.01
375.951	59.05
376.161	79.53
376.372	169.64
376.582	57
376.793	36.52
377.003	67.24
377.214	40.62
377.424	132.78
377.635	77.48
377.845	36.52
378.055	235.18
378.266	-18.77
378.476	95.91
378.686	79.53
378.897	28.33
379.107	132.78
379.317	163.5
379.528	-24.92
379.738	114.34
379.948	-47.44
380.158	151.21
380.369	52.91
380.579	128.68
380.789	30.38
380.999	97.96
381.21	224.94
381.42	222.89
381.63	108.2
381.84	65.19
382.05	79.53
382.261	130.73
382.471	140.97
382.681	-2.39
382.891	255.65
383.101	132.78
383.311	54.95
383.521	46.76
383.731	136.87
383.941	91.82
384.151	153.26
384.361	73.39
384.571	61.1
384.781	85.67
384.991	206.5
385.201	157.35
385.411	114.34
385.621	81.58
385.831	81.58
386.041	59.05
386.251	69.29
386.461	136.87
386.671	16.04
386.881	59.05
387.091	116.39
387.301	69.29
387.511	28.33
387.72	190.12
387.93	130.73
388.14	-2.39
388.35	30.38
388.56	165.54
388.769	138.92
388.979	73.39
389.189	-2.39
389.399	61.1
389.609	106.15
389.818	136.87
390.028	52.91
390.238	67.24
390.447	40.62
390.657	83.63
390.867	52.91
391.076	-51.54
391.286	114.34
391.496	91.82
391.705	50.86
391.915	147.11
392.125	81.58
392.334	26.28
392.544	151.21
392.753	143.02
392.963	57
393.172	57
393.382	61.1
393.591	245.41
393.801	67.24
394.01	134.82
394.22	97.96
394.429	30.38
394.639	63.15
394.848	126.63
395.058	147.11
395.267	85.67
395.477	106.15
395.686	140.97
395.895	190.12
396.105	208.55
396.314	104.11
396.524	93.87
396.733	-6.49
396.942	196.26
397.152	83.63
397.361	102.06
397.57	42.67
397.78	85.67
397.989	100.01
398.198	233.13
398.407	-14.68
398.617	122.54
398.826	30.38
399.035	24.23
399.244	108.2
399.453	75.43
399.663	32.43
399.872	149.16
400.081	-14.68
400.29	183.98
400.499	34.47
400.708	71.34
400.917	30.38
401.127	16.04
401.336	32.43
401.545	198.31
401.754	93.87
401.963	102.06
402.172	-115.03
402.381	-65.88
402.59	67.24
402.799	110.25
403.008	108.2
403.217	38.57
403.426	128.68
403.635	32.43
403.844	-26.96
404.053	57
404.262	28.33
404.471	151.21
404.68	106.15
404.888	73.39
405.097	106.15
405.306	143.02
405.515	73.39
405.724	48.81
405.933	132.78
406.142	114.34
406.35	192.17
406.559	-35.16
406.768	149.16
406.977	161.45
407.185	50.86
407.394	93.87
407.603	-0.34
407.812	102.06
408.02	95.91
408.229	120.49
408.438	75.43
408.646	-55.64
408.855	93.87
409.064	136.87
409.272	93.87
409.481	116.39
409.69	-20.82
409.898	-14.68
410.107	124.58
410.315	50.86
410.524	-41.3
410.733	81.58
410.941	54.95
411.15	134.82
411.358	134.82
411.567	153.26
411.775	40.62
411.984	30.38
412.192	97.96
412.401	34.47
412.609	233.13
412.818	200.36
413.026	89.77
413.234	59.05
413.443	69.29
413.651	24.23
413.86	44.71
414.068	97.96
414.276	183.98
414.485	28.33
414.693	257.7
414.901	216.74
415.11	32.43
415.318	69.29
415.526	20.14
415.734	122.54
415.943	145.06
416.151	179.88
416.359	79.53
416.567	87.72
416.776	106.15
416.984	61.1
417.192	126.63
417.4	3.75
417.608	1.71
417.817	26.28
418.025	87.72
418.233	181.93
418.441	73.39
418.649	13.99
418.857	147.11
419.065	202.41
419.273	106.15
419.481	124.58
419.689	20.14
419.897	79.53
420.105	32.43
420.313	106.15
420.521	114.34
420.729	114.34
420.937	69.29
421.145	-37.2
421.353	143.02
421.561	22.19
421.769	132.78
421.977	-86.36
422.185	134.82
422.393	77.48
422.601	95.91
422.809	151.21
423.017	77.48
423.224	163.5
423.432	183.98
423.64	42.67
423.848	181.93
424.056	59.05
424.263	110.25
424.471	95.91
424.679	208.55
424.887	22.19
425.094	196.26
425.302	153.26
425.51	116.39
425.718	169.64
425.925	65.19
426.133	65.19
426.341	151.21
426.548	145.06
426.756	38.57
426.964	71.34
427.171	93.87
427.379	106.15
427.586	48.81
427.794	126.63
428.001	155.3
428.209	151.21
428.417	118.44
428.624	91.82
428.832	157.35
429.039	85.67
429.247	106.15
429.454	177.83
429.662	190.12
429.869	173.74
430.076	204.46
430.284	77.48
430.491	253.61
430.699	165.54
430.906	259.75
431.114	120.49
431.321	147.11
431.528	138.92
431.736	204.46
431.943	278.18
432.15	216.74
432.358	282.28
432.565	302.76
432.772	54.95
432.979	323.24
433.187	126.63
433.394	288.42
433.601	104.11
433.808	286.37
434.016	302.76
434.223	224.94
434.43	317.09
434.637	356.01
434.844	308.9
435.052	272.04
435.259	274.09
435.466	341.67
435.673	319.14
435.88	376.48
436.087	446.12
436.294	366.25
436.501	394.92
436.708	384.68
436.915	372.39
437.122	429.73
437.329	364.2
437.537	409.25
437.743	407.2
437.95	515.75
438.157	468.64
438.364	454.31
438.571	487.08
438.778	470.69
438.985	607.91
439.192	525.99
439.399	497.32
439.606	454.31
439.813	614.05
440.02	605.86
440.227	689.82
440.433	630.43
440.64	630.43
440.847	622.24
441.054	632.48
441.261	872.09
441.467	714.4
441.674	753.31
441.881	843.42
442.088	808.61
442.294	876.19
442.501	874.14
442.708	1005.21
442.914	880.29
443.121	1007.26
443.328	933.53
443.534	1164.95
443.741	999.07
443.948	874.14
444.154	1080.99
444.361	1314.45
444.568	1146.52
444.774	1330.84
444.981	1119.9
445.187	1347.22
445.394	1287.83
445.6	1431.19
445.807	1638.03
446.013	1498.77
446.22	1472.15
446.426	1689.23
446.633	1742.48
446.839	1883.79
447.046	1666.71
447.252	1908.37
447.459	1810.06
447.665	1861.26
447.871	2164.36
448.078	2223.75
448.284	2121.35
448.491	2416.26
448.697	2537.09
448.903	2545.28
449.11	2713.22
449.316	2637.44
449.522	2690.69
449.728	2987.65
449.935	2928.25
450.141	2997.88
450.347	3237.5
450.553	3217.02
450.76	3229.31
450.966	3583.6
451.172	3520.12
451.378	3473.01
451.584	3782.26
451.791	4083.31
451.997	4023.92
452.203	4187.75
452.409	4353.64
452.615	4523.62
452.821	4570.72
453.027	4529.77
453.233	5191.26
453.44	4990.56
453.646	5228.12
453.852	5459.54
454.058	5721.68
454.264	5668.44
454.47	6174.28
454.676	6184.52
454.882	6921.79
455.088	6547.01
455.294	6972.99
455.5	7368.25
455.705	7798.32
455.911	7859.76
456.117	8013.36
456.323	8279.6
456.529	8308.27
456.735	9076.26
456.941	9244.19
457.147	9578.01
457.352	9903.64
457.558	10122.77
457.764	10626.57
457.97	10954.24
458.176	11322.88
458.381	11984.37
458.587	11992.56
458.793	12801.51
458.999	12791.27
459.204	14517.71
459.41	14714.31
459.616	14562.76
459.821	15369.66
460.027	16082.36
460.233	16967.08
460.438	17042.85
460.644	18144.66
460.85	18359.7
461.055	18875.79
461.261	19748.22
461.466	19068.3
461.672	19451.27
461.878	22297.94
462.083	21988.7
462.289	22271.32
462.494	23211.34
462.7	23391.56
462.905	23526.72
463.111	25513.25
463.316	26742.03
463.522	27161.87
463.727	28148.99
463.932	29375.72
464.138	29850.85
464.343	31261.9
464.549	31796.42
464.754	33924.26
464.959	34626.71
465.165	35077.27
465.37	35038.36
465.575	35144.85
465.781	37239.92
465.986	38480.99
466.191	37981.29
466.397	38274.15
466.602	37364.85
466.807	39238.74
467.012	40160.33
467.218	40277.06
467.423	40713.28
467.628	42021.93
467.833	43998.22
