Data from USB4F104151__36__10-42-34-882.txt Node

Date: Wed Feb 26 10:42:34 EST 2025
User: louis
Spectrometer: USB4F10415
Trigger mode: 4
Integration Time (sec): 1.000000E-1
Scans to average: 1
Electric dark correction enabled: true
Nonlinearity correction enabled: false
Boxcar width: 0
XAxis mode: Wavelengths
Number of Pixels in Spectrum: 3648
>>>>>Begin Spectral Data<<<<<
178.204	-360.27
178.424	-360.27
178.644	-360.27
178.864	-454.48
179.084	-403.28
179.304	-51.03
179.524	12.46
179.744	-18.26
179.964	10.41
180.184	53.42
180.404	16.55
180.624	-20.31
180.844	-26.45
181.064	-79.7
181.283	45.23
181.503	-16.21
181.723	73.9
181.943	-34.64
182.163	135.34
182.383	-3.93
182.602	86.19
182.822	80.04
183.042	24.75
183.262	-1.88
183.482	-14.17
183.701	8.36
183.921	57.51
184.141	12.46
184.361	114.86
184.58	32.94
184.8	166.06
185.02	0.17
185.239	108.71
185.459	43.18
185.679	123.05
185.898	-51.03
186.118	92.33
186.338	77.99
186.557	73.9
186.777	-94.04
186.997	4.27
187.216	34.99
187.436	94.38
187.655	88.23
187.875	59.56
188.095	26.79
188.314	92.33
188.534	112.81
188.753	22.7
188.973	118.95
189.192	143.53
189.412	94.38
189.631	37.03
189.851	100.52
190.07	192.68
190.29	4.27
190.509	-12.12
190.729	-24.4
190.948	106.67
191.168	227.5
191.387	88.23
191.607	22.7
191.826	96.43
192.045	65.71
192.265	-26.45
192.484	53.42
192.704	61.61
192.923	-40.79
193.142	153.77
193.362	80.04
193.581	135.34
193.8	41.13
194.02	43.18
194.239	45.23
194.458	-34.64
194.678	-12.12
194.897	-34.64
195.116	71.85
195.335	80.04
195.555	-8.02
195.774	-3.93
195.993	45.23
196.212	39.08
196.432	-18.26
196.651	-38.74
196.87	41.13
197.089	213.16
197.308	102.57
197.528	20.65
197.747	-71.51
197.966	55.47
198.185	143.53
198.404	-53.08
198.623	63.66
198.842	108.71
199.062	96.43
199.281	37.03
199.5	63.66
199.719	90.28
199.938	59.56
200.157	71.85
200.376	59.56
200.595	116.9
200.814	57.51
201.033	30.89
201.252	192.68
201.471	106.67
201.69	63.66
201.909	55.47
202.128	139.43
202.347	47.27
202.566	30.89
202.785	-73.56
203.004	-67.41
203.223	252.07
203.442	57.51
203.661	-28.5
203.879	43.18
204.098	127.14
204.317	-61.27
204.536	86.19
204.755	61.61
204.974	123.05
205.193	-128.85
205.411	131.24
205.63	80.04
205.849	104.62
206.068	0.17
206.287	-8.02
206.505	137.38
206.724	-34.64
206.943	-22.36
207.162	-57.17
207.381	110.76
207.599	-10.07
207.818	-18.26
208.037	10.41
208.255	59.56
208.474	24.75
208.693	-53.08
208.911	10.41
209.13	63.66
209.349	98.47
209.567	106.67
209.786	121
210.005	61.61
210.223	51.37
210.442	-65.36
210.661	43.18
210.879	63.66
211.098	94.38
211.316	59.56
211.535	139.43
211.753	137.38
211.972	67.75
212.191	-53.08
212.409	4.27
212.628	65.71
212.846	-8.02
213.065	47.27
213.283	67.75
213.502	-40.79
213.72	8.36
213.938	10.41
214.157	-75.6
214.375	118.95
214.594	-5.97
214.812	57.51
215.031	77.99
215.249	22.7
215.467	-5.97
215.686	32.94
215.904	121
216.122	-24.4
216.341	59.56
216.559	45.23
216.778	104.62
216.996	90.28
217.214	-24.4
217.432	6.31
217.651	-48.98
217.869	-14.17
218.087	71.85
218.306	12.46
218.524	47.27
218.742	-22.36
218.96	112.81
219.179	10.41
219.397	10.41
219.615	237.74
219.833	108.71
220.051	-30.55
220.27	116.9
220.488	131.24
220.706	75.95
220.924	12.46
221.142	28.84
221.36	26.79
221.578	49.32
221.796	30.89
222.015	53.42
222.233	47.27
222.451	125.1
222.669	-46.93
222.887	73.9
223.105	-20.31
223.323	8.36
223.541	-137.04
223.759	39.08
223.977	92.33
224.195	204.97
224.413	61.61
224.631	8.36
224.849	98.47
225.067	186.54
225.285	-22.36
225.503	69.8
225.721	-112.47
225.939	-5.97
226.157	71.85
226.375	131.24
226.592	-53.08
226.81	43.18
227.028	125.1
227.246	213.16
227.464	73.9
227.682	116.9
227.9	137.38
228.117	8.36
228.335	104.62
228.553	32.94
228.771	-85.84
228.989	98.47
229.206	73.9
229.424	0.17
229.642	6.31
229.86	-63.32
230.077	88.23
230.295	67.75
230.513	67.75
230.731	12.46
230.948	137.38
231.166	106.67
231.384	-12.12
231.601	-104.28
231.819	186.54
232.037	71.85
232.254	-91.99
232.472	84.14
232.689	18.6
232.907	143.53
233.125	-14.17
233.342	-53.08
233.56	-112.47
233.777	22.7
233.995	18.6
234.213	63.66
234.43	57.51
234.648	32.94
234.865	32.94
235.083	86.19
235.3	34.99
235.518	61.61
235.735	147.62
235.953	47.27
236.17	45.23
236.388	-10.07
236.605	28.84
236.822	73.9
237.04	32.94
237.257	39.08
237.475	-57.17
237.692	-10.07
237.909	121
238.127	34.99
238.344	82.09
238.562	100.52
238.779	-28.5
238.996	14.51
239.214	4.27
239.431	100.52
239.648	16.55
239.865	45.23
240.083	82.09
240.3	-63.32
240.517	-36.69
240.735	90.28
240.952	164.01
241.169	102.57
241.386	6.31
241.603	-53.08
241.821	-81.75
242.038	71.85
242.255	96.43
242.472	-57.17
242.689	127.14
242.907	112.81
243.124	127.14
243.341	18.6
243.558	-32.6
243.775	-18.26
243.992	20.65
244.209	45.23
244.426	176.3
244.643	28.84
244.86	43.18
245.078	108.71
245.295	61.61
245.512	63.66
245.729	-8.02
245.946	108.71
246.163	32.94
246.38	41.13
246.597	43.18
246.814	32.94
247.031	43.18
247.248	-51.03
247.464	63.66
247.681	65.71
247.898	57.51
248.115	129.19
248.332	-26.45
248.549	252.07
248.766	241.83
248.983	90.28
249.2	61.61
249.417	135.34
249.633	8.36
249.85	34.99
250.067	47.27
250.284	47.27
250.501	135.34
250.717	49.32
250.934	-10.07
251.151	0.17
251.368	2.22
251.585	73.9
251.801	59.56
252.018	-8.02
252.235	139.43
252.451	-114.52
252.668	20.65
252.885	155.82
253.102	94.38
253.318	67.75
253.535	8.36
253.752	37.03
253.968	14.51
254.185	-28.5
254.401	26.79
254.618	61.61
254.835	-53.08
255.051	131.24
255.268	123.05
255.484	28.84
255.701	34.99
255.917	32.94
256.134	20.65
256.351	-40.79
256.567	-14.17
256.784	-16.21
257	-32.6
257.217	104.62
257.433	143.53
257.65	49.32
257.866	133.29
258.082	-42.84
258.299	-3.93
258.515	84.14
258.732	47.27
258.948	-46.93
259.165	-8.02
259.381	-94.04
259.597	80.04
259.814	49.32
260.03	-36.69
260.246	49.32
260.463	73.9
260.679	139.43
260.895	-42.84
261.112	86.19
261.328	37.03
261.544	55.47
261.761	159.91
261.977	22.7
262.193	-5.97
262.409	108.71
262.626	26.79
262.842	28.84
263.058	-3.93
263.274	77.99
263.49	-28.5
263.707	94.38
263.923	67.75
264.139	-102.23
264.355	65.71
264.571	59.56
264.787	96.43
265.004	82.09
265.22	26.79
265.436	0.17
265.652	0.17
265.868	6.31
266.084	-118.61
266.3	34.99
266.516	-16.21
266.732	-5.97
266.948	45.23
267.164	28.84
267.38	75.95
267.596	59.56
267.812	190.63
268.028	30.89
268.244	39.08
268.46	53.42
268.676	-24.4
268.892	77.99
269.108	-20.31
269.324	-28.5
269.54	-26.45
269.756	137.38
269.972	4.27
270.188	8.36
270.403	-42.84
270.619	4.27
270.835	82.09
271.051	24.75
271.267	10.41
271.483	49.32
271.698	108.71
271.914	96.43
272.13	80.04
272.346	-14.17
272.562	73.9
272.777	43.18
272.993	-1.88
273.209	-3.93
273.425	22.7
273.64	-42.84
273.856	82.09
274.072	-22.36
274.287	-53.08
274.503	22.7
274.719	69.8
274.934	-10.07
275.15	-18.26
275.366	98.47
275.581	-12.12
275.797	69.8
276.012	37.03
276.228	-32.6
276.444	55.47
276.659	125.1
276.875	14.51
277.09	45.23
277.306	10.41
277.521	80.04
277.737	14.51
277.952	45.23
278.168	43.18
278.383	10.41
278.599	47.27
278.814	37.03
279.03	6.31
279.245	114.86
279.461	16.55
279.676	98.47
279.892	18.6
280.107	41.13
280.322	-98.13
280.538	80.04
280.753	16.55
280.969	49.32
281.184	59.56
281.399	133.29
281.615	32.94
281.83	37.03
282.045	0.17
282.26	-12.12
282.476	69.8
282.691	84.14
282.906	94.38
283.122	73.9
283.337	-12.12
283.552	65.71
283.767	-34.64
283.983	106.67
284.198	-1.88
284.413	104.62
284.628	-38.74
284.843	77.99
285.058	90.28
285.274	47.27
285.489	-34.64
285.704	114.86
285.919	-5.97
286.134	90.28
286.349	26.79
286.564	-53.08
286.779	106.67
286.995	49.32
287.21	-20.31
287.425	10.41
287.64	-3.93
287.855	61.61
288.07	-46.93
288.285	182.44
288.5	59.56
288.715	24.75
288.93	112.81
289.145	-28.5
289.36	100.52
289.575	-38.74
289.79	108.71
290.004	6.31
290.219	57.51
290.434	-38.74
290.649	-3.93
290.864	32.94
291.079	34.99
291.294	51.37
291.509	112.81
291.724	14.51
291.938	65.71
292.153	41.13
292.368	-28.5
292.583	32.94
292.798	67.75
293.012	55.47
293.227	108.71
293.442	10.41
293.657	114.86
293.871	215.21
294.086	71.85
294.301	184.49
294.516	127.14
294.73	57.51
294.945	-1.88
295.16	110.76
295.374	131.24
295.589	127.14
295.804	8.36
296.018	65.71
296.233	151.72
296.447	59.56
296.662	8.36
296.877	204.97
297.091	4.27
297.306	77.99
297.52	41.13
297.735	125.1
297.949	61.61
298.164	53.42
298.378	37.03
298.593	47.27
298.807	43.18
299.022	41.13
299.236	186.54
299.451	-22.36
299.665	20.65
299.88	65.71
300.094	63.66
300.309	53.42
300.523	2.22
300.737	18.6
300.952	51.37
301.166	127.14
301.381	24.75
301.595	-1.88
301.809	47.27
302.024	-81.75
302.238	14.51
302.452	55.47
302.667	94.38
302.881	139.43
303.095	106.67
303.309	67.75
303.524	24.75
303.738	16.55
303.952	-14.17
304.166	104.62
304.381	-87.89
304.595	98.47
304.809	-5.97
305.023	71.85
305.237	8.36
305.452	114.86
305.666	53.42
305.88	51.37
306.094	157.86
306.308	34.99
306.522	110.76
306.736	80.04
306.95	67.75
307.164	32.94
307.379	30.89
307.593	164.01
307.807	92.33
308.021	59.56
308.235	43.18
308.449	-28.5
308.663	-16.21
308.877	186.54
309.091	92.33
309.305	59.56
309.519	-126.8
309.733	84.14
309.947	-81.75
310.161	151.72
310.374	131.24
310.588	63.66
310.802	49.32
311.016	12.46
311.23	53.42
311.444	-1.88
311.658	-12.12
311.872	131.24
312.085	168.1
312.299	114.86
312.513	192.68
312.727	67.75
312.941	32.94
313.154	59.56
313.368	55.47
313.582	147.62
313.796	73.9
314.009	8.36
314.223	219.3
314.437	84.14
314.651	41.13
314.864	39.08
315.078	12.46
315.292	-59.22
315.505	12.46
315.719	61.61
315.933	53.42
316.146	14.51
316.36	-10.07
316.573	141.48
316.787	90.28
317.001	90.28
317.214	-116.56
317.428	90.28
317.641	-65.36
317.855	-8.02
318.068	45.23
318.282	80.04
318.495	108.71
318.709	69.8
318.922	51.37
319.136	129.19
319.349	57.51
319.563	24.75
319.776	24.75
319.99	-14.17
320.203	59.56
320.417	47.27
320.63	65.71
320.843	264.36
321.057	26.79
321.27	16.55
321.483	71.85
321.697	123.05
321.91	61.61
322.124	18.6
322.337	80.04
322.55	30.89
322.763	22.7
322.977	2.22
323.19	73.9
323.403	57.51
323.617	90.28
323.83	49.32
324.043	20.65
324.256	-20.31
324.469	-55.12
324.683	125.1
324.896	73.9
325.109	100.52
325.322	41.13
325.535	147.62
325.748	102.57
325.962	28.84
326.175	14.51
326.388	112.81
326.601	112.81
326.814	6.31
327.027	53.42
327.24	84.14
327.453	-53.08
327.666	123.05
327.879	102.57
328.092	123.05
328.305	57.51
328.518	-18.26
328.731	22.7
328.944	41.13
329.157	53.42
329.37	-40.79
329.583	250.02
329.796	116.9
330.009	-46.93
330.222	121
330.435	96.43
330.648	-16.21
330.861	61.61
331.073	30.89
331.286	129.19
331.499	133.29
331.712	-28.5
331.925	37.03
332.138	-20.31
332.35	65.71
332.563	-112.47
332.776	135.34
332.989	-59.22
333.202	108.71
333.414	2.22
333.627	-5.97
333.84	20.65
334.053	24.75
334.265	20.65
334.478	-40.79
334.691	98.47
334.903	57.51
335.116	59.56
335.329	-63.32
335.541	82.09
335.754	137.38
335.966	-3.93
336.179	41.13
336.392	67.75
336.604	71.85
336.817	94.38
337.029	80.04
337.242	28.84
337.454	141.48
337.667	-44.88
337.88	174.25
338.092	127.14
338.305	82.09
338.517	-8.02
338.729	151.72
338.942	90.28
339.154	-26.45
339.367	-44.88
339.579	75.95
339.792	-48.98
340.004	82.09
340.217	59.56
340.429	131.24
340.641	-1.88
340.854	-36.69
341.066	2.22
341.278	116.9
341.491	131.24
341.703	8.36
341.915	12.46
342.128	86.19
342.34	43.18
342.552	18.6
342.764	80.04
342.977	-1.88
343.189	94.38
343.401	63.66
343.613	-71.51
343.826	32.94
344.038	-71.51
344.25	0.17
344.462	-3.93
344.674	53.42
344.886	28.84
345.099	129.19
345.311	39.08
345.523	-18.26
345.735	-106.32
345.947	8.36
346.159	53.42
346.371	71.85
346.583	6.31
346.795	155.82
347.007	61.61
347.219	82.09
347.431	26.79
347.643	143.53
347.855	12.46
348.067	88.23
348.279	-36.69
348.491	47.27
348.703	26.79
348.915	65.71
349.127	-42.84
349.339	43.18
349.551	32.94
349.763	108.71
349.975	84.14
350.187	73.9
350.399	98.47
350.61	49.32
350.822	-42.84
351.034	88.23
351.246	10.41
351.458	71.85
351.669	41.13
351.881	112.81
352.093	104.62
352.305	108.71
352.517	30.89
352.728	176.3
352.94	110.76
353.152	80.04
353.363	-20.31
353.575	43.18
353.787	161.96
353.999	84.14
354.21	106.67
354.422	-24.4
354.633	-8.02
354.845	8.36
355.057	100.52
355.268	61.61
355.48	82.09
355.692	2.22
355.903	24.75
356.115	2.22
356.326	-106.32
356.538	145.58
356.749	34.99
356.961	63.66
357.172	20.65
357.384	-24.4
357.595	180.39
357.807	14.51
358.018	18.6
358.23	55.47
358.441	184.49
358.653	159.91
358.864	69.8
359.075	-75.6
359.287	82.09
359.498	139.43
359.709	73.9
359.921	2.22
360.132	67.75
360.344	16.55
360.555	59.56
360.766	59.56
360.977	-28.5
361.189	82.09
361.4	28.84
361.611	143.53
361.823	112.81
362.034	80.04
362.245	-73.56
362.456	32.94
362.667	45.23
362.879	-16.21
363.09	57.51
363.301	75.95
363.512	67.75
363.723	24.75
363.935	39.08
364.146	73.9
364.357	37.03
364.568	69.8
364.779	-36.69
364.99	170.15
365.201	-28.5
365.412	92.33
365.623	-67.41
365.834	67.75
366.045	24.75
366.256	65.71
366.467	86.19
366.678	22.7
366.889	65.71
367.1	-42.84
367.311	106.67
367.522	-34.64
367.733	63.66
367.944	34.99
368.155	59.56
368.366	123.05
368.577	98.47
368.788	67.75
368.999	-67.41
369.209	69.8
369.42	153.77
369.631	215.21
369.842	80.04
370.053	39.08
370.264	47.27
370.474	-42.84
370.685	80.04
370.896	53.42
371.107	100.52
371.317	2.22
371.528	28.84
371.739	112.81
371.95	188.58
372.16	116.9
372.371	80.04
372.582	26.79
372.792	37.03
373.003	71.85
373.214	127.14
373.424	116.9
373.635	-42.84
373.846	186.54
374.056	69.8
374.267	125.1
374.477	73.9
374.688	-8.02
374.898	69.8
375.109	73.9
375.319	12.46
375.53	129.19
375.74	94.38
375.951	77.99
376.161	63.66
376.372	86.19
376.582	75.95
376.793	121
377.003	-10.07
377.214	-22.36
377.424	16.55
377.635	49.32
377.845	12.46
378.055	196.78
378.266	2.22
378.476	8.36
378.686	59.56
378.897	61.61
379.107	102.57
379.317	57.51
379.528	28.84
379.738	127.14
379.948	-75.6
380.158	106.67
380.369	-67.41
380.579	57.51
380.789	45.23
380.999	80.04
381.21	71.85
381.42	170.15
381.63	-12.12
381.84	108.71
382.05	43.18
382.261	10.41
382.471	30.89
382.681	-34.64
382.891	159.91
383.101	131.24
383.311	2.22
383.521	8.36
383.731	88.23
383.941	131.24
384.151	121
384.361	10.41
384.571	114.86
384.781	18.6
384.991	159.91
385.201	164.01
385.411	139.43
385.621	73.9
385.831	43.18
386.041	118.95
386.251	-8.02
386.461	131.24
386.671	-48.98
386.881	53.42
387.091	2.22
387.301	80.04
387.511	32.94
387.72	118.95
387.93	82.09
388.14	-77.65
388.35	-5.97
388.56	110.76
388.769	127.14
388.979	73.9
389.189	8.36
389.399	-1.88
389.609	168.1
389.818	59.56
390.028	51.37
390.238	88.23
390.447	-30.55
390.657	110.76
390.867	108.71
391.076	-36.69
391.286	121
391.496	49.32
391.705	164.01
391.915	88.23
392.125	149.67
392.334	-28.5
392.544	114.86
392.753	49.32
392.963	4.27
393.172	20.65
393.382	16.55
393.591	229.54
393.801	67.75
394.01	112.81
394.22	49.32
394.429	-42.84
394.639	71.85
394.848	28.84
395.058	51.37
395.267	12.46
395.477	86.19
395.686	96.43
395.895	155.82
396.105	186.54
396.314	6.31
396.524	84.14
396.733	14.51
396.942	67.75
397.152	118.95
397.361	80.04
397.57	92.33
397.78	80.04
397.989	71.85
398.198	229.54
398.407	47.27
398.617	45.23
398.826	69.8
399.035	63.66
399.244	159.91
399.453	-5.97
399.663	96.43
399.872	28.84
400.081	47.27
400.29	145.58
400.499	-16.21
400.708	43.18
400.917	12.46
401.127	71.85
401.336	-5.97
401.545	137.38
401.754	110.76
401.963	168.1
402.172	18.6
402.381	14.51
402.59	77.99
402.799	47.27
403.008	143.53
403.217	47.27
403.426	67.75
403.635	-34.64
403.844	53.42
404.053	2.22
404.262	-3.93
404.471	186.54
404.68	69.8
404.888	82.09
405.097	-14.17
405.306	-24.4
405.515	131.24
405.724	14.51
405.933	110.76
406.142	57.51
406.35	80.04
406.559	18.6
406.768	16.55
406.977	135.34
407.185	102.57
407.394	127.14
407.603	16.55
407.812	47.27
408.02	137.38
408.229	39.08
408.438	94.38
408.646	39.08
408.855	61.61
409.064	96.43
409.272	-8.02
409.481	188.58
409.69	0.17
409.898	-73.56
410.107	61.61
410.315	121
410.524	6.31
410.733	67.75
410.941	39.08
411.15	96.43
411.358	94.38
411.567	245.93
411.775	4.27
411.984	147.62
412.192	67.75
412.401	-26.45
412.609	270.5
412.818	123.05
413.026	84.14
413.234	51.37
413.443	90.28
413.651	0.17
413.86	28.84
414.068	104.62
414.276	164.01
414.485	45.23
414.693	159.91
414.901	174.25
415.11	63.66
415.318	53.42
415.526	86.19
415.734	125.1
415.943	104.62
416.151	121
416.359	67.75
416.567	82.09
416.776	118.95
416.984	73.9
417.192	235.69
417.4	-24.4
417.608	41.13
417.817	6.31
418.025	127.14
418.233	241.83
418.441	-69.46
418.649	-26.45
418.857	65.71
419.065	22.7
419.273	94.38
419.481	92.33
419.689	86.19
419.897	92.33
420.105	-40.79
420.313	129.19
420.521	57.51
420.729	135.34
420.937	61.61
421.145	34.99
421.353	49.32
421.561	82.09
421.769	153.77
421.977	63.66
422.185	102.57
422.393	82.09
422.601	139.43
422.809	63.66
423.017	96.43
423.224	24.75
423.432	172.2
423.64	71.85
423.848	69.8
424.056	-10.07
424.263	143.53
424.471	22.7
424.679	166.06
424.887	69.8
425.094	190.63
425.302	43.18
425.51	86.19
425.718	143.53
425.925	57.51
426.133	-8.02
426.341	170.15
426.548	51.37
426.756	100.52
426.964	137.38
427.171	8.36
427.379	67.75
427.586	69.8
427.794	157.86
428.001	202.92
428.209	131.24
428.417	190.63
428.624	188.58
428.832	43.18
429.039	84.14
429.247	59.56
429.454	143.53
429.662	235.69
429.869	110.76
430.076	161.96
430.284	182.44
430.491	209.06
430.699	180.39
430.906	204.97
431.114	69.8
431.321	174.25
431.528	178.34
431.736	219.3
431.943	290.98
432.15	227.5
432.358	264.36
432.565	301.22
432.772	73.9
432.979	225.45
433.187	174.25
433.394	194.73
433.601	231.59
433.808	213.16
434.016	278.69
434.223	231.59
434.43	252.07
434.637	379.04
434.844	270.5
435.052	344.23
435.259	344.23
435.466	366.76
435.673	323.75
435.88	405.67
436.087	428.2
436.294	460.96
436.501	381.09
436.708	379.04
436.915	358.57
437.122	508.07
437.329	331.94
437.537	385.19
437.743	413.86
437.95	538.79
438.157	487.59
438.364	475.3
438.571	473.25
438.778	585.89
438.985	577.7
439.192	549.03
439.399	561.31
439.606	587.94
439.813	673.95
440.02	741.54
440.227	671.9
440.433	661.66
440.64	651.42
440.847	680.1
441.054	755.87
441.261	829.6
441.467	764.06
441.674	733.34
441.881	827.55
442.088	880.8
442.294	983.2
442.501	981.15
442.708	964.76
442.914	927.9
443.121	1140.89
443.328	1108.12
443.534	1142.94
443.741	1149.08
443.948	977.05
444.154	1271.96
444.361	1409.17
444.568	1177.75
444.774	1351.83
444.981	1304.73
445.187	1507.48
445.394	1446.04
445.6	1456.28
445.807	1728.66
446.013	1663.12
446.22	1589.39
446.426	1800.34
446.633	1941.65
446.839	2076.81
447.046	1884.3
447.252	2058.38
447.459	2007.18
447.665	1974.41
447.871	2398.34
448.078	2449.54
448.284	2447.49
448.491	2529.41
448.697	2713.73
448.903	2769.02
449.11	2738.3
449.316	2785.41
449.522	2996.35
449.728	3057.79
449.935	3199.1
450.141	3371.13
450.347	3403.89
450.553	3430.52
450.76	3534.96
450.966	3631.22
451.172	3960.94
451.378	4180.07
451.584	4016.24
451.791	4251.75
451.997	4524.13
452.203	4677.73
452.409	4683.88
452.615	4862.05
452.821	4843.62
453.027	5118.04
453.233	5644.37
453.44	5402.71
453.646	5763.15
453.852	5886.03
454.058	6213.71
454.264	6383.69
454.47	6922.31
454.676	6811.71
454.882	7630.9
455.088	7266.36
455.294	7632.95
455.5	8085.55
455.705	8478.76
455.911	8382.51
456.117	8667.17
456.323	8806.44
456.529	8882.21
456.735	9924.63
456.941	10176.53
457.147	10594.31
457.352	10784.77
457.558	11034.63
457.764	11640.83
457.97	12074.99
458.176	12554.22
458.381	13189.09
458.587	13453.28
458.793	13885.4
458.999	14249.94
459.204	15884.22
459.41	16648.11
459.616	16054.2
459.821	16988.07
460.027	17860.51
460.233	18708.37
460.438	18509.71
460.644	19675.01
460.85	20457.33
461.055	20658.03
461.261	21985.12
461.466	21421.92
461.672	21663.58
461.878	24381.24
462.083	23967.55
462.289	24596.28
462.494	25650.98
462.7	25909.02
462.905	25970.46
463.111	28456.7
463.316	29677.29
463.522	30207.71
463.727	31035.09
463.932	32253.63
464.138	33060.53
464.343	34522.78
464.549	34625.18
464.754	37402.22
464.959	38190.69
465.165	38987.35
465.37	38456.93
465.575	38762.08
465.781	41086.52
465.986	42421.8
466.191	41735.73
466.397	42145.32
466.602	40969.79
466.807	43607.57
467.012	44011.02
467.218	44846.59
467.423	44928.51
467.628	46413.29
467.833	48422.34
468.038	48076.24
468.244	46740.96
468.449	49706.42
468.654	48424.39
468.859	48448.97
