Data from USB4F104151__166__11-04-49-136.txt Node

Date: Wed Feb 26 11:04:49 EST 2025
User: louis
Spectrometer: USB4F10415
Trigger mode: 4
Integration Time (sec): 1.000000E-1
Scans to average: 1
Electric dark correction enabled: true
Nonlinearity correction enabled: false
Boxcar width: 0
XAxis mode: Wavelengths
Number of Pixels in Spectrum: 3648
>>>>>Begin Spectral Data<<<<<
178.204	-458.4
178.424	-458.4
178.644	-458.4
178.864	-392.87
179.084	-399.01
179.304	10.58
179.524	-9.9
179.744	-16.04
179.964	8.53
180.184	-40.62
180.404	67.92
180.624	-52.91
180.844	45.4
181.064	-34.47
181.283	33.11
181.503	-26.28
181.723	14.68
181.943	-95.91
182.163	119.12
182.383	-71.34
182.602	12.63
182.822	137.56
183.042	125.27
183.262	-46.76
183.482	-59.05
183.701	31.06
183.921	14.68
184.141	-93.87
184.361	26.96
184.58	6.49
184.8	12.63
185.02	-79.53
185.239	14.68
185.459	31.06
185.679	115.03
185.898	-59.05
186.118	12.63
186.338	37.2
186.557	92.5
186.777	-77.48
186.997	-11.95
187.216	2.39
187.436	229.71
187.655	69.97
187.875	141.65
188.095	-11.95
188.314	133.46
188.534	131.41
188.753	-18.09
188.973	76.12
189.192	112.98
189.412	18.77
189.631	4.44
189.851	78.16
190.07	69.97
190.29	-1.71
190.509	-59.05
190.729	26.96
190.948	78.16
191.168	233.81
191.387	51.54
191.607	-13.99
191.826	86.36
192.045	-46.76
192.265	-20.14
192.484	22.87
192.704	-30.38
192.923	51.54
193.142	164.18
193.362	69.97
193.581	141.65
193.8	98.64
194.02	100.69
194.239	18.77
194.458	88.4
194.678	-77.48
194.897	76.12
195.116	37.2
195.335	86.36
195.555	51.54
195.774	-38.57
195.993	112.98
196.212	8.53
196.432	-54.95
196.651	-11.95
196.87	10.58
197.089	233.81
197.308	12.63
197.528	41.3
197.747	-91.82
197.966	78.16
198.185	137.56
198.404	2.39
198.623	141.65
198.842	47.44
199.062	94.55
199.281	82.26
199.5	100.69
199.719	57.68
199.938	76.12
200.157	67.92
200.376	72.02
200.595	170.32
200.814	49.49
201.033	20.82
201.252	88.4
201.471	100.69
201.69	76.12
201.909	67.92
202.128	104.79
202.347	61.78
202.566	-30.38
202.785	-102.06
203.004	43.35
203.223	270.67
203.442	115.03
203.661	-40.62
203.879	170.32
204.098	59.73
204.317	-63.15
204.536	125.27
204.755	94.55
204.974	121.17
205.193	-32.43
205.411	72.02
205.63	139.6
205.849	43.35
206.068	39.25
206.287	0.34
206.505	102.74
206.724	96.6
206.943	16.73
207.162	-13.99
207.381	6.49
207.599	108.88
207.818	45.4
208.037	-22.19
208.255	26.96
208.474	-50.86
208.693	-7.85
208.911	33.11
209.13	115.03
209.349	16.73
209.567	57.68
209.786	123.22
210.005	59.73
210.223	16.73
210.442	-87.72
210.661	16.73
210.879	-22.19
211.098	-36.52
211.316	14.68
211.535	90.45
211.753	88.4
211.972	137.56
212.191	-7.85
212.409	-22.19
212.628	133.46
212.846	10.58
213.065	72.02
213.283	90.45
213.502	0.34
213.72	51.54
213.938	-26.28
214.157	-32.43
214.375	153.94
214.594	-42.67
214.812	61.78
215.031	33.11
215.249	20.82
215.467	29.01
215.686	-7.85
215.904	35.16
216.122	39.25
216.341	98.64
216.559	-32.43
216.778	88.4
216.996	213.33
217.214	67.92
217.432	10.58
217.651	-134.82
217.869	43.35
218.087	-16.04
218.306	53.59
218.524	20.82
218.742	49.49
218.96	57.68
219.179	-11.95
219.397	45.4
219.615	153.94
219.833	100.69
220.051	-50.86
220.27	108.88
220.488	43.35
220.706	57.68
220.924	61.78
221.142	-28.33
221.36	82.26
221.578	127.32
221.796	69.97
222.015	127.32
222.233	74.07
222.451	133.46
222.669	6.49
222.887	12.63
223.105	24.92
223.323	-16.04
223.541	-16.04
223.759	90.45
223.977	20.82
224.195	149.84
224.413	88.4
224.631	33.11
224.849	88.4
225.067	170.32
225.285	0.34
225.503	14.68
225.721	-126.63
225.939	-54.95
226.157	-9.9
226.375	239.95
226.592	37.2
226.81	65.88
227.028	92.5
227.246	143.7
227.464	51.54
227.682	90.45
227.9	80.21
228.117	98.64
228.335	94.55
228.553	43.35
228.771	78.16
228.989	65.88
229.206	92.5
229.424	39.25
229.642	29.01
229.86	-24.23
230.077	96.6
230.295	53.59
230.513	131.41
230.731	67.92
230.948	174.42
231.166	186.71
231.384	-46.76
231.601	-77.48
231.819	160.08
232.037	12.63
232.254	-42.67
232.472	-42.67
232.689	-63.15
232.907	72.02
233.125	24.92
233.342	55.64
233.56	10.58
233.777	37.2
233.995	14.68
234.213	55.64
234.43	35.16
234.648	51.54
234.865	20.82
235.083	24.92
235.3	106.84
235.518	96.6
235.735	86.36
235.953	72.02
236.17	0.34
236.388	69.97
236.605	67.92
236.822	123.22
237.04	84.31
237.257	-36.52
237.475	37.2
237.692	-18.09
237.909	61.78
238.127	35.16
238.344	51.54
238.562	-1.71
238.779	-16.04
238.996	-65.19
239.214	39.25
239.431	82.26
239.648	4.44
239.865	121.17
240.083	123.22
240.3	-32.43
240.517	-26.28
240.735	6.49
240.952	133.46
241.169	53.59
241.386	-28.33
241.603	24.92
241.821	0.34
242.038	-1.71
242.255	106.84
242.472	-34.47
242.689	24.92
242.907	129.36
243.124	39.25
243.341	80.21
243.558	57.68
243.775	-100.01
243.992	-95.91
244.209	112.98
244.426	153.94
244.643	37.2
244.86	-36.52
245.078	29.01
245.295	53.59
245.512	-63.15
245.729	-69.29
245.946	37.2
246.163	69.97
246.38	-18.09
246.597	18.77
246.814	47.44
247.031	92.5
247.248	63.83
247.464	78.16
247.681	31.06
247.898	86.36
248.115	112.98
248.332	-54.95
248.549	133.46
248.766	59.73
248.983	135.51
249.2	31.06
249.417	104.79
249.633	-69.29
249.85	61.78
250.067	-9.9
250.284	55.64
250.501	26.96
250.717	67.92
250.934	29.01
251.151	20.82
251.368	-1.71
251.585	78.16
251.801	-1.71
252.018	8.53
252.235	149.84
252.451	-38.57
252.668	55.64
252.885	117.08
253.102	49.49
253.318	65.88
253.535	67.92
253.752	80.21
253.968	-34.47
254.185	-93.87
254.401	92.5
254.618	84.31
254.835	-34.47
255.051	117.08
255.268	76.12
255.484	96.6
255.701	22.87
255.917	-9.9
256.134	-22.19
256.351	-9.9
256.567	-1.71
256.784	-18.09
257	-77.48
257.217	112.98
257.433	74.07
257.65	16.73
257.866	115.03
258.082	-44.71
258.299	16.73
258.515	14.68
258.732	31.06
258.948	-50.86
259.165	14.68
259.381	37.2
259.597	43.35
259.814	-46.76
260.03	2.39
260.246	45.4
260.463	151.89
260.679	24.92
260.895	49.49
261.112	0.34
261.328	-30.38
261.544	14.68
261.761	168.27
261.977	-28.33
262.193	-36.52
262.409	84.31
262.626	69.97
262.842	41.3
263.058	-75.43
263.274	57.68
263.49	115.03
263.707	24.92
263.923	90.45
264.139	-124.58
264.355	8.53
264.571	94.55
264.787	37.2
265.004	172.37
265.22	-28.33
265.436	-52.91
265.652	22.87
265.868	86.36
266.084	0.34
266.3	43.35
266.516	-22.19
266.732	76.12
266.948	35.16
267.164	14.68
267.38	94.55
267.596	147.8
267.812	194.9
268.028	41.3
268.244	-42.67
268.46	16.73
268.676	-28.33
268.892	-42.67
269.108	-65.19
269.324	2.39
269.54	-52.91
269.756	72.02
269.972	-7.85
270.188	45.4
270.403	-11.95
270.619	-30.38
270.835	102.74
271.051	6.49
271.267	10.58
271.483	-28.33
271.698	74.07
271.914	92.5
272.13	-36.52
272.346	43.35
272.562	2.39
272.777	155.99
272.993	33.11
273.209	51.54
273.425	33.11
273.64	-67.24
273.856	96.6
274.072	-34.47
274.287	6.49
274.503	86.36
274.719	102.74
274.934	-13.99
275.15	-46.76
275.366	14.68
275.581	-18.09
275.797	20.82
276.012	47.44
276.228	-24.23
276.444	135.51
276.659	53.59
276.875	-24.23
277.09	-11.95
277.306	8.53
277.521	31.06
277.737	4.44
277.952	29.01
278.168	2.39
278.383	20.82
278.599	16.73
278.814	57.68
279.03	8.53
279.245	94.55
279.461	-18.09
279.676	80.21
279.892	-7.85
280.107	-73.39
280.322	-42.67
280.538	6.49
280.753	-26.28
280.969	26.96
281.184	-30.38
281.399	112.98
281.615	-54.95
281.83	57.68
282.045	-65.19
282.26	-30.38
282.476	6.49
282.691	149.84
282.906	61.78
283.122	14.68
283.337	-11.95
283.552	80.21
283.767	12.63
283.983	96.6
284.198	72.02
284.413	125.27
284.628	-83.63
284.843	41.3
285.058	12.63
285.274	-20.14
285.489	-126.63
285.704	135.51
285.919	-11.95
286.134	8.53
286.349	20.82
286.564	-36.52
286.779	149.84
286.995	14.68
287.21	-89.77
287.425	37.2
287.64	22.87
287.855	37.2
288.07	-26.28
288.285	69.97
288.5	139.6
288.715	51.54
288.93	4.44
289.145	-20.14
289.36	57.68
289.575	-5.8
289.79	12.63
290.004	-52.91
290.219	139.6
290.434	-52.91
290.649	-85.67
290.864	0.34
291.079	-18.09
291.294	14.68
291.509	65.88
291.724	10.58
291.938	67.92
292.153	92.5
292.368	-20.14
292.583	39.25
292.798	121.17
293.012	65.88
293.227	72.02
293.442	12.63
293.657	102.74
293.871	135.51
294.086	72.02
294.301	198.99
294.516	96.6
294.73	55.64
294.945	-30.38
295.16	16.73
295.374	49.49
295.589	86.36
295.804	8.53
296.018	-32.43
296.233	131.41
296.447	108.88
296.662	33.11
296.877	123.22
297.091	174.42
297.306	0.34
297.52	43.35
297.735	65.88
297.949	65.88
298.164	102.74
298.378	14.68
298.593	-59.05
298.807	-67.24
299.022	12.63
299.236	170.32
299.451	-28.33
299.665	-83.63
299.88	-9.9
300.094	69.97
300.309	39.25
300.523	92.5
300.737	-18.09
300.952	22.87
301.166	20.82
301.381	-85.67
301.595	-52.91
301.809	6.49
302.024	24.92
302.238	-34.47
302.452	92.5
302.667	29.01
302.881	102.74
303.095	92.5
303.309	49.49
303.524	-48.81
303.738	2.39
303.952	-59.05
304.166	47.44
304.381	-126.63
304.595	112.98
304.809	65.88
305.023	55.64
305.237	-30.38
305.452	-91.82
305.666	100.69
305.88	117.08
306.094	104.79
306.308	16.73
306.522	94.55
306.736	115.03
306.95	135.51
307.164	26.96
307.379	-22.19
307.593	108.88
307.807	102.74
308.021	123.22
308.235	92.5
308.449	-102.06
308.663	-3.75
308.877	160.08
309.091	51.54
309.305	82.26
309.519	-63.15
309.733	143.7
309.947	-79.53
310.161	108.88
310.374	14.68
310.588	121.17
310.802	16.73
311.016	72.02
311.23	49.49
311.444	-16.04
311.658	-36.52
311.872	49.49
312.085	74.07
312.299	123.22
312.513	149.84
312.727	100.69
312.941	-75.43
313.154	108.88
313.368	-9.9
313.582	0.34
313.796	57.68
314.009	24.92
314.223	141.65
314.437	131.41
314.651	143.7
314.864	35.16
315.078	-26.28
315.292	-42.67
315.505	-3.75
315.719	86.36
315.933	-22.19
316.146	33.11
316.36	-40.62
316.573	31.06
316.787	78.16
317.001	55.64
317.214	-7.85
317.428	-65.19
317.641	-13.99
317.855	-16.04
318.068	10.58
318.282	33.11
318.495	250.19
318.709	115.03
318.922	24.92
319.136	133.46
319.349	139.6
319.563	53.59
319.776	108.88
319.99	16.73
320.203	106.84
320.417	115.03
320.63	80.21
320.843	192.85
321.057	4.44
321.27	-16.04
321.483	78.16
321.697	55.64
321.91	51.54
322.124	0.34
322.337	-1.71
322.55	8.53
322.763	59.73
322.977	14.68
323.19	12.63
323.403	-40.62
323.617	2.39
323.83	55.64
324.043	-50.86
324.256	33.11
324.469	-65.19
324.683	78.16
324.896	35.16
325.109	22.87
325.322	-3.75
325.535	137.56
325.748	39.25
325.962	45.4
326.175	14.68
326.388	4.44
326.601	178.51
326.814	18.77
327.027	35.16
327.24	182.61
327.453	-61.1
327.666	74.07
327.879	31.06
328.092	53.59
328.305	51.54
328.518	-28.33
328.731	-69.29
328.944	-42.67
329.157	78.16
329.37	-40.62
329.583	96.6
329.796	18.77
330.009	-42.67
330.222	90.45
330.435	96.6
330.648	51.54
330.861	82.26
331.073	33.11
331.286	72.02
331.499	39.25
331.712	22.87
331.925	-9.9
332.138	45.4
332.35	90.45
332.563	-5.8
332.776	170.32
332.989	-5.8
333.202	53.59
333.414	37.2
333.627	41.3
333.84	24.92
334.053	82.26
334.265	-106.15
334.478	-7.85
334.691	20.82
334.903	-7.85
335.116	-52.91
335.329	-26.28
335.541	65.88
335.754	153.94
335.966	-1.71
336.179	6.49
336.392	33.11
336.604	33.11
336.817	98.64
337.029	61.78
337.242	112.98
337.454	55.64
337.667	10.58
337.88	123.22
338.092	61.78
338.305	98.64
338.517	6.49
338.729	88.4
338.942	139.6
339.154	-42.67
339.367	-95.91
339.579	6.49
339.792	22.87
340.004	63.83
340.217	20.82
340.429	141.65
340.641	-59.05
340.854	24.92
341.066	31.06
341.278	145.75
341.491	201.04
341.703	67.92
341.915	-71.34
342.128	96.6
342.34	20.82
342.552	12.63
342.764	67.92
342.977	29.01
343.189	145.75
343.401	39.25
343.613	-81.58
343.826	63.83
344.038	-69.29
344.25	98.64
344.462	-48.81
344.674	47.44
344.886	10.58
345.099	186.71
345.311	147.8
345.523	-5.8
345.735	-87.72
345.947	4.44
346.159	33.11
346.371	-1.71
346.583	12.63
346.795	137.56
347.007	-5.8
347.219	31.06
347.431	-11.95
347.643	112.98
347.855	-24.23
348.067	149.84
348.279	-30.38
348.491	61.78
348.703	57.68
348.915	100.69
349.127	43.35
349.339	-1.71
349.551	-112.3
349.763	80.21
349.975	67.92
350.187	43.35
350.399	192.85
350.61	78.16
350.822	43.35
351.034	35.16
351.246	65.88
351.458	26.96
351.669	-11.95
351.881	108.88
352.093	-3.75
352.305	55.64
352.517	8.53
352.728	121.17
352.94	59.73
353.152	29.01
353.363	-120.49
353.575	43.35
353.787	153.94
353.999	61.78
354.21	170.32
354.422	63.83
354.633	-20.14
354.845	-7.85
355.057	84.31
355.268	-54.95
355.48	63.83
355.692	-71.34
355.903	63.83
356.115	12.63
356.326	-28.33
356.538	209.23
356.749	49.49
356.961	180.56
357.172	-34.47
357.384	-24.23
357.595	186.71
357.807	2.39
358.018	-28.33
358.23	-18.09
358.441	123.22
358.653	74.07
358.864	-26.28
359.075	-1.71
359.287	90.45
359.498	61.78
359.709	104.79
359.921	29.01
360.132	37.2
360.344	88.4
360.555	26.96
360.766	92.5
360.977	41.3
361.189	117.08
361.4	-38.57
361.611	174.42
361.823	80.21
362.034	59.73
362.245	-71.34
362.456	10.58
362.667	72.02
362.879	22.87
363.09	110.93
363.301	-16.04
363.512	112.98
363.723	-18.09
363.935	-38.57
364.146	59.73
364.357	31.06
364.568	86.36
364.779	-75.43
364.99	166.23
365.201	-61.1
365.412	22.87
365.623	-65.19
365.834	18.77
366.045	92.5
366.256	141.65
366.467	35.16
366.678	-1.71
366.889	51.54
367.1	57.68
367.311	45.4
367.522	2.39
367.733	31.06
367.944	39.25
368.155	-46.76
368.366	-30.38
368.577	158.03
368.788	10.58
368.999	84.31
369.209	-1.71
369.42	233.81
369.631	203.09
369.842	119.12
370.053	78.16
370.264	92.5
370.474	-114.34
370.685	94.55
370.896	18.77
371.107	121.17
371.317	84.31
371.528	82.26
371.739	164.18
371.95	47.44
372.16	57.68
372.371	-73.39
372.582	0.34
372.792	49.49
373.003	10.58
373.214	45.4
373.424	63.83
373.635	-30.38
373.846	22.87
374.056	22.87
374.267	24.92
374.477	76.12
374.688	12.63
374.898	72.02
375.109	90.45
375.319	90.45
375.53	82.26
375.74	110.93
375.951	-57
376.161	2.39
376.372	110.93
376.582	33.11
376.793	41.3
377.003	-30.38
377.214	-20.14
377.424	39.25
377.635	12.63
377.845	12.63
378.055	137.56
378.266	-1.71
378.476	-3.75
378.686	61.78
378.897	53.59
379.107	127.32
379.317	69.97
379.528	-16.04
379.738	112.98
379.948	-75.43
380.158	49.49
380.369	-22.19
380.579	61.78
380.789	41.3
380.999	76.12
381.21	115.03
381.42	162.13
381.63	26.96
381.84	129.36
382.05	90.45
382.261	117.08
382.471	59.73
382.681	-36.52
382.891	172.37
383.101	51.54
383.311	-83.63
383.521	-24.23
383.731	67.92
383.941	172.37
384.151	22.87
384.361	49.49
384.571	18.77
384.781	35.16
384.991	123.22
385.201	178.51
385.411	43.35
385.621	29.01
385.831	29.01
386.041	51.54
386.251	-50.86
386.461	123.22
386.671	57.68
386.881	4.44
387.091	84.31
387.301	117.08
387.511	39.25
387.72	67.92
387.93	65.88
388.14	-73.39
388.35	-57
388.56	45.4
388.769	104.79
388.979	53.59
389.189	-30.38
389.399	69.97
389.609	133.46
389.818	78.16
390.028	29.01
390.238	76.12
390.447	-34.47
390.657	84.31
390.867	47.44
391.076	-73.39
391.286	78.16
391.496	10.58
391.705	47.44
391.915	65.88
392.125	117.08
392.334	49.49
392.544	141.65
392.753	-20.14
392.963	-79.53
393.172	-11.95
393.382	-26.28
393.591	201.04
393.801	-20.14
394.01	84.31
394.22	94.55
394.429	-11.95
394.639	37.2
394.848	39.25
395.058	26.96
395.267	47.44
395.477	45.4
395.686	35.16
395.895	164.18
396.105	121.17
396.314	45.4
396.524	47.44
396.733	63.83
396.942	45.4
397.152	98.64
397.361	155.99
397.57	47.44
397.78	78.16
397.989	47.44
398.198	188.75
398.407	82.26
398.617	88.4
398.826	76.12
399.035	26.96
399.244	133.46
399.453	80.21
399.663	-3.75
399.872	69.97
400.081	-5.8
400.29	78.16
400.499	29.01
400.708	67.92
400.917	94.55
401.127	-61.1
401.336	-7.85
401.545	135.51
401.754	53.59
401.963	45.4
402.172	10.58
402.381	-54.95
402.59	-28.33
402.799	51.54
403.008	78.16
403.217	90.45
403.426	-22.19
403.635	39.25
403.844	4.44
404.053	39.25
404.262	6.49
404.471	166.23
404.68	51.54
404.888	26.96
405.097	0.34
405.306	76.12
405.515	80.21
405.724	49.49
405.933	121.17
406.142	86.36
406.35	112.98
406.559	-73.39
406.768	29.01
406.977	186.71
407.185	31.06
407.394	65.88
407.603	-61.1
407.812	12.63
408.02	155.99
408.229	39.25
408.438	74.07
408.646	-67.24
408.855	-7.85
409.064	59.73
409.272	10.58
409.481	14.68
409.69	-36.52
409.898	-52.91
410.107	78.16
410.315	121.17
410.524	-5.8
410.733	59.73
410.941	59.73
411.15	104.79
411.358	94.55
411.567	198.99
411.775	-26.28
411.984	61.78
412.192	84.31
412.401	39.25
412.609	123.22
412.818	74.07
413.026	102.74
413.234	98.64
413.443	-9.9
413.651	29.01
413.86	35.16
414.068	72.02
414.276	223.57
414.485	-52.91
414.693	96.6
414.901	186.71
415.11	82.26
415.318	53.59
415.526	53.59
415.734	131.41
415.943	133.46
416.151	39.25
416.359	-11.95
416.567	88.4
416.776	117.08
416.984	98.64
417.192	180.56
417.4	-28.33
417.608	51.54
417.817	-28.33
418.025	98.64
418.233	147.8
418.441	-1.71
418.649	-52.91
418.857	35.16
419.065	162.13
419.273	-9.9
419.481	88.4
419.689	82.26
419.897	-5.8
420.105	45.4
420.313	112.98
420.521	76.12
420.729	143.7
420.937	72.02
421.145	4.44
421.353	51.54
421.561	160.08
421.769	59.73
421.977	-32.43
422.185	139.6
422.393	37.2
422.601	96.6
422.809	26.96
423.017	59.73
423.224	8.53
423.432	96.6
423.64	39.25
423.848	53.59
424.056	-22.19
424.263	115.03
424.471	78.16
424.679	160.08
424.887	2.39
425.094	129.36
425.302	88.4
425.51	-65.19
425.718	155.99
425.925	106.84
426.133	12.63
426.341	168.27
426.548	47.44
426.756	88.4
426.964	112.98
427.171	37.2
427.379	115.03
427.586	55.64
427.794	92.5
428.001	182.61
428.209	47.44
428.417	127.32
428.624	110.93
428.832	61.78
429.039	-3.75
429.247	127.32
429.454	162.13
429.662	229.71
429.869	127.32
430.076	82.26
430.284	196.95
430.491	188.75
430.699	117.08
430.906	162.13
431.114	127.32
431.321	166.23
431.528	100.69
431.736	153.94
431.943	205.14
432.15	147.8
432.358	170.32
432.565	192.85
432.772	-20.14
432.979	160.08
433.187	176.47
433.394	209.23
433.601	61.78
433.808	162.13
434.016	229.71
434.223	174.42
434.43	158.03
434.637	282.96
434.844	287.06
435.052	223.57
435.259	258.39
435.466	188.75
435.673	244.05
435.88	262.48
436.087	313.68
436.294	297.3
436.501	203.09
436.708	225.62
436.915	291.15
437.122	393.55
437.329	244.05
437.537	295.25
437.743	317.78
437.95	440.65
438.157	338.26
438.364	301.39
438.571	405.84
438.778	442.7
438.985	381.26
439.192	467.28
439.399	438.61
439.606	407.89
439.813	446.8
440.02	686.41
440.227	657.74
440.433	526.67
440.64	479.57
440.847	491.85
441.054	563.53
441.261	665.93
441.467	602.44
441.674	557.39
441.881	713.03
442.088	612.68
442.294	692.55
442.501	809.29
442.708	782.67
442.914	745.8
443.121	862.54
443.328	852.3
443.534	831.82
443.741	887.11
443.948	827.72
444.154	870.73
444.361	1053
444.568	1003.85
444.774	977.22
444.981	917.83
445.187	1147.2
445.394	1057.09
445.6	1175.88
445.807	1270.08
446.013	1235.27
446.22	1206.59
446.426	1390.91
446.633	1431.87
446.839	1569.09
447.046	1321.28
447.252	1669.44
447.459	1630.52
447.665	1671.48
447.871	1775.93
448.078	1917.24
448.284	1812.79
448.491	1911.1
448.697	2050.36
448.903	2175.28
449.11	2062.65
449.316	2064.69
449.522	2275.63
449.728	2400.56
449.935	2576.69
450.141	2517.29
450.347	2654.51
450.553	2627.89
450.76	2718
450.966	2916.65
451.172	2912.55
451.378	3064.1
451.584	3199.27
451.791	3408.16
451.997	3492.13
452.203	3510.56
452.409	3883.29
452.615	3795.23
452.821	3696.92
453.027	3852.57
453.233	4364.56
453.44	4071.7
453.646	4475.15
453.852	4446.48
454.058	4829.45
454.264	4915.47
454.47	5040.39
454.676	5042.44
454.882	5884.16
455.088	5546.24
455.294	5853.44
455.5	6209.78
455.705	6465.78
455.911	6420.72
456.117	6451.44
456.323	6854.89
456.529	7022.83
456.735	7540.96
456.941	7680.22
457.147	8098.01
457.352	8186.07
457.558	8360.15
457.764	9107.66
457.97	9328.84
458.176	9652.42
458.381	9996.48
458.587	10356.92
458.793	10690.74
458.999	10635.44
459.204	12144.8
459.41	12593.3
459.616	12296.35
459.821	13006.99
460.027	13785.22
460.233	14356.6
460.438	14397.56
460.644	15183.98
460.85	15204.46
461.055	15716.45
461.261	16640.09
461.466	16240.73
461.672	16670.81
461.878	18923.57
462.083	18446.4
462.289	18872.37
462.494	19714.09
462.7	19564.59
462.905	20099.11
463.111	21438.48
463.316	22798.33
463.522	22904.82
463.727	23959.53
463.932	24555.49
464.138	25724.88
464.343	26720.19
464.549	26867.64
464.754	28643.23
464.959	29521.81
465.165	29949.84
465.37	29605.78
465.575	29685.65
465.781	31684.47
465.986	32632.68
466.191	32370.54
466.397	32530.28
466.602	31666.03
466.807	33666.9
467.012	33918.8
467.218	34754.37
467.423	34508.61
467.628	36038.45
467.833	37576.47
468.038	36837.16
468.244	36069.17
468.449	38014.74
468.654	37336.86
468.859	37162.78
