Data from USB4F104151__271__11-20-42-231.txt Node

Date: Wed Feb 26 11:20:42 EST 2025
User: louis
Spectrometer: USB4F10415
Trigger mode: 4
Integration Time (sec): 1.000000E-1
Scans to average: 1
Electric dark correction enabled: true
Nonlinearity correction enabled: false
Boxcar width: 0
XAxis mode: Wavelengths
Number of Pixels in Spectrum: 3648
>>>>>Begin Spectral Data<<<<<
178.204	-406.52
178.424	-406.52
178.644	-406.52
178.864	-408.57
179.084	-390.14
179.304	33.79
179.524	-15.36
179.744	-23.55
179.964	52.22
180.184	9.22
180.404	11.26
180.624	-64.51
180.844	-50.18
181.064	-76.8
181.283	27.65
181.503	-21.5
181.723	117.76
181.943	-109.57
182.163	183.29
182.383	1.02
182.602	13.31
182.822	64.51
183.042	142.33
183.262	-70.65
183.482	-29.7
183.701	76.8
183.921	19.46
184.141	-1.02
184.361	70.65
184.58	46.08
184.8	41.98
185.02	87.04
185.239	48.13
185.459	111.61
185.679	87.04
185.898	-58.37
186.118	31.74
186.338	78.85
186.557	101.37
186.777	11.26
186.997	46.08
187.216	25.6
187.436	160.77
187.655	70.65
187.875	111.61
188.095	7.17
188.314	187.39
188.534	123.9
188.753	-60.42
188.973	128
189.192	91.13
189.412	-15.36
189.631	48.13
189.851	87.04
190.07	134.14
190.29	56.32
190.509	-23.55
190.729	44.03
190.948	109.57
191.168	201.72
191.387	60.42
191.607	7.17
191.826	58.37
192.045	21.5
192.265	25.6
192.484	103.42
192.704	5.12
192.923	-50.18
193.142	148.48
193.362	130.05
193.581	107.52
193.8	74.75
194.02	89.09
194.239	44.03
194.458	123.9
194.678	-5.12
194.897	19.46
195.116	123.9
195.335	37.89
195.555	80.89
195.774	31.74
195.993	134.14
196.212	19.46
196.432	21.5
196.651	21.5
196.87	-19.46
197.089	330.75
197.308	21.5
197.528	58.37
197.747	-31.74
197.966	80.89
198.185	168.96
198.404	-31.74
198.623	74.75
198.842	107.52
199.062	130.05
199.281	162.81
199.5	76.8
199.719	103.42
199.938	19.46
200.157	64.51
200.376	103.42
200.595	146.43
200.814	87.04
201.033	25.6
201.252	201.72
201.471	11.26
201.69	72.7
201.909	113.66
202.128	82.94
202.347	181.25
202.566	54.27
202.785	-109.57
203.004	-56.32
203.223	152.57
203.442	66.56
203.661	-48.13
203.879	50.18
204.098	197.63
204.317	7.17
204.536	103.42
204.755	44.03
204.974	87.04
205.193	39.94
205.411	207.87
205.63	160.77
205.849	-56.32
206.068	13.31
206.287	54.27
206.505	13.31
206.724	82.94
206.943	1.02
207.162	11.26
207.381	144.38
207.599	125.95
207.818	44.03
208.037	-31.74
208.255	39.94
208.474	19.46
208.693	56.32
208.911	72.7
209.13	175.1
209.349	107.52
209.567	134.14
209.786	156.67
210.005	72.7
210.223	25.6
210.442	-56.32
210.661	62.46
210.879	-15.36
211.098	64.51
211.316	52.22
211.535	89.09
211.753	70.65
211.972	76.8
212.191	78.85
212.409	-33.79
212.628	154.62
212.846	7.17
213.065	33.79
213.283	80.89
213.502	33.79
213.72	72.7
213.938	-3.07
214.157	3.07
214.375	31.74
214.594	76.8
214.812	132.09
215.031	68.61
215.249	-3.07
215.467	58.37
215.686	84.99
215.904	33.79
216.122	76.8
216.341	132.09
216.559	3.07
216.778	23.55
216.996	132.09
217.214	48.13
217.432	48.13
217.651	-46.08
217.869	35.84
218.087	64.51
218.306	27.65
218.524	87.04
218.742	54.27
218.96	82.94
219.179	3.07
219.397	29.7
219.615	242.68
219.833	128
220.051	-15.36
220.27	111.61
220.488	72.7
220.706	115.71
220.924	11.26
221.142	-37.89
221.36	70.65
221.578	58.37
221.796	103.42
222.015	17.41
222.233	25.6
222.451	211.96
222.669	5.12
222.887	138.24
223.105	-48.13
223.323	31.74
223.541	37.89
223.759	103.42
223.977	70.65
224.195	146.43
224.413	117.76
224.631	78.85
224.849	62.46
225.067	175.1
225.285	-109.57
225.503	-3.07
225.721	-123.9
225.939	39.94
226.157	7.17
226.375	211.96
226.592	1.02
226.81	9.22
227.028	150.53
227.246	89.09
227.464	13.31
227.682	107.52
227.9	78.85
228.117	48.13
228.335	74.75
228.553	74.75
228.771	136.19
228.989	101.37
229.206	54.27
229.424	-31.74
229.642	39.94
229.86	21.5
230.077	166.91
230.295	-82.94
230.513	115.71
230.731	89.09
230.948	201.72
231.166	191.49
231.384	29.7
231.601	-25.6
231.819	183.29
232.037	-13.31
232.254	-50.18
232.472	56.32
232.689	52.22
232.907	152.57
233.125	-7.17
233.342	-50.18
233.56	64.51
233.777	-11.26
233.995	39.94
234.213	95.23
234.43	134.14
234.648	50.18
234.865	41.98
235.083	91.13
235.3	64.51
235.518	89.09
235.735	179.2
235.953	58.37
236.17	23.55
236.388	29.7
236.605	107.52
236.822	93.18
237.04	132.09
237.257	41.98
237.475	-35.84
237.692	41.98
237.909	150.53
238.127	121.85
238.344	52.22
238.562	37.89
238.779	-19.46
238.996	-68.61
239.214	9.22
239.431	142.33
239.648	44.03
239.865	35.84
240.083	44.03
240.3	-19.46
240.517	56.32
240.735	54.27
240.952	107.52
241.169	17.41
241.386	93.18
241.603	66.56
241.821	-46.08
242.038	117.76
242.255	87.04
242.472	-37.89
242.689	93.18
242.907	56.32
243.124	50.18
243.341	46.08
243.558	23.55
243.775	-68.61
243.992	-97.28
244.209	105.47
244.426	240.64
244.643	29.7
244.86	5.12
245.078	15.36
245.295	109.57
245.512	29.7
245.729	-1.02
245.946	27.65
246.163	84.99
246.38	78.85
246.597	41.98
246.814	41.98
247.031	82.94
247.248	-17.41
247.464	82.94
247.681	93.18
247.898	103.42
248.115	-1.02
248.332	-37.89
248.549	128
248.766	203.77
248.983	109.57
249.2	125.95
249.417	91.13
249.633	-15.36
249.85	123.9
250.067	91.13
250.284	64.51
250.501	76.8
250.717	103.42
250.934	-35.84
251.151	-46.08
251.368	80.89
251.585	93.18
251.801	95.23
252.018	21.5
252.235	156.67
252.451	-41.98
252.668	58.37
252.885	93.18
253.102	84.99
253.318	25.6
253.535	15.36
253.752	35.84
253.968	64.51
254.185	-84.99
254.401	37.89
254.618	84.99
254.835	50.18
255.051	97.28
255.268	142.33
255.484	54.27
255.701	-37.89
255.917	35.84
256.134	5.12
256.351	41.98
256.567	-80.89
256.784	23.55
257	5.12
257.217	150.53
257.433	111.61
257.65	82.94
257.866	123.9
258.082	-48.13
258.299	-35.84
258.515	128
258.732	-15.36
258.948	25.6
259.165	29.7
259.381	19.46
259.597	80.89
259.814	64.51
260.03	23.55
260.246	107.52
260.463	173.05
260.679	111.61
260.895	37.89
261.112	-11.26
261.328	111.61
261.544	-41.98
261.761	136.19
261.977	-58.37
262.193	-29.7
262.409	74.75
262.626	103.42
262.842	76.8
263.058	11.26
263.274	66.56
263.49	132.09
263.707	136.19
263.923	37.89
264.139	-68.61
264.355	82.94
264.571	156.67
264.787	60.42
265.004	62.46
265.22	23.55
265.436	56.32
265.652	76.8
265.868	44.03
266.084	13.31
266.3	3.07
266.516	-11.26
266.732	13.31
266.948	35.84
267.164	37.89
267.38	107.52
267.596	50.18
267.812	183.29
268.028	13.31
268.244	107.52
268.46	60.42
268.676	15.36
268.892	101.37
269.108	35.84
269.324	-15.36
269.54	-9.22
269.756	113.66
269.972	-27.65
270.188	48.13
270.403	-7.17
270.619	60.42
270.835	138.24
271.051	15.36
271.267	19.46
271.483	-29.7
271.698	156.67
271.914	-46.08
272.13	23.55
272.346	60.42
272.562	48.13
272.777	211.96
272.993	-15.36
273.209	11.26
273.425	193.53
273.64	-64.51
273.856	119.81
274.072	-25.6
274.287	-1.02
274.503	113.66
274.719	82.94
274.934	17.41
275.15	-41.98
275.366	97.28
275.581	21.5
275.797	56.32
276.012	54.27
276.228	48.13
276.444	130.05
276.659	179.2
276.875	-97.28
277.09	15.36
277.306	-5.12
277.521	19.46
277.737	52.22
277.952	123.9
278.168	140.29
278.383	21.5
278.599	89.09
278.814	97.28
279.03	70.65
279.245	160.77
279.461	-9.22
279.676	113.66
279.892	-111.61
280.107	15.36
280.322	7.17
280.538	58.37
280.753	56.32
280.969	119.81
281.184	70.65
281.399	154.62
281.615	136.19
281.83	74.75
282.045	-101.37
282.26	11.26
282.476	-23.55
282.691	91.13
282.906	54.27
283.122	25.6
283.337	-84.99
283.552	48.13
283.767	76.8
283.983	109.57
284.198	-1.02
284.413	93.18
284.628	-66.56
284.843	46.08
285.058	97.28
285.274	19.46
285.489	31.74
285.704	84.99
285.919	-1.02
286.134	33.79
286.349	50.18
286.564	13.31
286.779	175.1
286.995	5.12
287.21	-123.9
287.425	39.94
287.64	-15.36
287.855	99.33
288.07	-60.42
288.285	162.81
288.5	115.71
288.715	128
288.93	-3.07
289.145	-68.61
289.36	60.42
289.575	-58.37
289.79	136.19
290.004	-29.7
290.219	115.71
290.434	-17.41
290.649	-25.6
290.864	-15.36
291.079	70.65
291.294	58.37
291.509	50.18
291.724	-31.74
291.938	9.22
292.153	48.13
292.368	52.22
292.583	128
292.798	72.7
293.012	58.37
293.227	78.85
293.442	-19.46
293.657	111.61
293.871	95.23
294.086	107.52
294.301	185.34
294.516	89.09
294.73	15.36
294.945	-39.94
295.16	37.89
295.374	140.29
295.589	82.94
295.804	-21.5
296.018	15.36
296.233	80.89
296.447	121.85
296.662	39.94
296.877	113.66
297.091	82.94
297.306	13.31
297.52	62.46
297.735	66.56
297.949	44.03
298.164	76.8
298.378	105.47
298.593	-35.84
298.807	48.13
299.022	113.66
299.236	183.29
299.451	15.36
299.665	-84.99
299.88	50.18
300.094	58.37
300.309	25.6
300.523	5.12
300.737	-31.74
300.952	39.94
301.166	84.99
301.381	-31.74
301.595	-37.89
301.809	78.85
302.024	64.51
302.238	-7.17
302.452	109.57
302.667	50.18
302.881	195.58
303.095	68.61
303.309	44.03
303.524	-37.89
303.738	68.61
303.952	37.89
304.166	68.61
304.381	-76.8
304.595	224.25
304.809	-33.79
305.023	39.94
305.237	48.13
305.452	21.5
305.666	68.61
305.88	107.52
306.094	74.75
306.308	66.56
306.522	50.18
306.736	13.31
306.95	91.13
307.164	3.07
307.379	35.84
307.593	236.54
307.807	136.19
308.021	70.65
308.235	150.53
308.449	-103.42
308.663	-56.32
308.877	189.44
309.091	-23.55
309.305	48.13
309.519	-80.89
309.733	158.72
309.947	-76.8
310.161	117.76
310.374	138.24
310.588	130.05
310.802	41.98
311.016	-15.36
311.23	27.65
311.444	17.41
311.658	39.94
311.872	134.14
312.085	111.61
312.299	177.15
312.513	130.05
312.727	23.55
312.941	23.55
313.154	80.89
313.368	46.08
313.582	27.65
313.796	87.04
314.009	35.84
314.223	142.33
314.437	101.37
314.651	50.18
314.864	-31.74
315.078	-52.22
315.292	-52.22
315.505	-1.02
315.719	142.33
315.933	82.94
316.146	62.46
316.36	-62.46
316.573	109.57
316.787	76.8
317.001	25.6
317.214	-35.84
317.428	68.61
317.641	70.65
317.855	35.84
318.068	68.61
318.282	19.46
318.495	171.01
318.709	144.38
318.922	11.26
319.136	125.95
319.349	87.04
319.563	-29.7
319.776	80.89
319.99	-64.51
320.203	156.67
320.417	56.32
320.63	109.57
320.843	152.57
321.057	13.31
321.27	-3.07
321.483	97.28
321.697	177.15
321.91	144.38
322.124	113.66
322.337	82.94
322.55	-50.18
322.763	87.04
322.977	84.99
323.19	58.37
323.403	95.23
323.617	117.76
323.83	113.66
324.043	41.98
324.256	82.94
324.469	-70.65
324.683	142.33
324.896	13.31
325.109	58.37
325.322	-17.41
325.535	68.61
325.748	117.76
325.962	37.89
326.175	97.28
326.388	87.04
326.601	39.94
326.814	-21.5
327.027	66.56
327.24	207.87
327.453	-17.41
327.666	64.51
327.879	93.18
328.092	105.47
328.305	35.84
328.518	-13.31
328.731	62.46
328.944	-66.56
329.157	54.27
329.37	-33.79
329.583	226.3
329.796	109.57
330.009	-84.99
330.222	132.09
330.435	46.08
330.648	64.51
330.861	19.46
331.073	107.52
331.286	191.49
331.499	84.99
331.712	1.02
331.925	25.6
332.138	89.09
332.35	95.23
332.563	-35.84
332.776	146.43
332.989	-33.79
333.202	15.36
333.414	74.75
333.627	25.6
333.84	74.75
334.053	50.18
334.265	-9.22
334.478	64.51
334.691	50.18
334.903	76.8
335.116	-48.13
335.329	37.89
335.541	66.56
335.754	160.77
335.966	7.17
336.179	37.89
336.392	-17.41
336.604	44.03
336.817	132.09
337.029	56.32
337.242	78.85
337.454	62.46
337.667	-41.98
337.88	144.38
338.092	70.65
338.305	35.84
338.517	7.17
338.729	97.28
338.942	189.44
339.154	-56.32
339.367	-23.55
339.579	128
339.792	-7.17
340.004	62.46
340.217	7.17
340.429	37.89
340.641	-80.89
340.854	99.33
341.066	54.27
341.278	78.85
341.491	240.64
341.703	82.94
341.915	23.55
342.128	84.99
342.34	148.48
342.552	50.18
342.764	35.84
342.977	66.56
343.189	62.46
343.401	31.74
343.613	-35.84
343.826	64.51
344.038	-68.61
344.25	-17.41
344.462	13.31
344.674	175.1
344.886	7.17
345.099	60.42
345.311	107.52
345.523	29.7
345.735	-19.46
345.947	87.04
346.159	123.9
346.371	72.7
346.583	-33.79
346.795	240.64
347.007	21.5
347.219	78.85
347.431	52.22
347.643	109.57
347.855	-52.22
348.067	130.05
348.279	11.26
348.491	60.42
348.703	144.38
348.915	70.65
349.127	66.56
349.339	37.89
349.551	31.74
349.763	142.33
349.975	41.98
350.187	119.81
350.399	130.05
350.61	160.77
350.822	-23.55
351.034	107.52
351.246	64.51
351.458	76.8
351.669	128
351.881	138.24
352.093	66.56
352.305	128
352.517	35.84
352.728	146.43
352.94	-44.03
353.152	56.32
353.363	-1.02
353.575	80.89
353.787	134.14
353.999	68.61
354.21	58.37
354.422	44.03
354.633	33.79
354.845	160.77
355.057	72.7
355.268	56.32
355.48	54.27
355.692	-48.13
355.903	109.57
356.115	5.12
356.326	-132.09
356.538	205.82
356.749	70.65
356.961	130.05
357.172	93.18
357.384	-89.09
357.595	189.44
357.807	-78.85
358.018	7.17
358.23	37.89
358.441	146.43
358.653	-29.7
358.864	101.37
359.075	7.17
359.287	56.32
359.498	99.33
359.709	29.7
359.921	50.18
360.132	62.46
360.344	31.74
360.555	105.47
360.766	33.79
360.977	21.5
361.189	232.44
361.4	23.55
361.611	162.81
361.823	89.09
362.034	17.41
362.245	-74.75
362.456	5.12
362.667	107.52
362.879	-76.8
363.09	44.03
363.301	31.74
363.512	115.71
363.723	25.6
363.935	41.98
364.146	140.29
364.357	21.5
364.568	64.51
364.779	15.36
364.99	144.38
365.201	21.5
365.412	160.77
365.623	23.55
365.834	76.8
366.045	33.79
366.256	87.04
366.467	123.9
366.678	23.55
366.889	29.7
367.1	-13.31
367.311	78.85
367.522	-3.07
367.733	111.61
367.944	54.27
368.155	48.13
368.366	99.33
368.577	101.37
368.788	125.95
368.999	46.08
369.209	44.03
369.42	160.77
369.631	246.78
369.842	181.25
370.053	37.89
370.264	39.94
370.474	-11.26
370.685	50.18
370.896	44.03
371.107	150.53
371.317	25.6
371.528	27.65
371.739	162.81
371.95	111.61
372.16	138.24
372.371	-33.79
372.582	-33.79
372.792	140.29
373.003	7.17
373.214	48.13
373.424	138.24
373.635	-13.31
373.846	191.49
374.056	123.9
374.267	-50.18
374.477	136.19
374.688	-27.65
374.898	80.89
375.109	58.37
375.319	95.23
375.53	138.24
375.74	128
375.951	48.13
376.161	52.22
376.372	56.32
376.582	27.65
376.793	105.47
377.003	-46.08
377.214	9.22
377.424	78.85
377.635	41.98
377.845	-35.84
378.055	138.24
378.266	-119.81
378.476	17.41
378.686	87.04
378.897	99.33
379.107	117.76
379.317	62.46
379.528	29.7
379.738	226.3
379.948	-50.18
380.158	72.7
380.369	97.28
380.579	78.85
380.789	121.85
380.999	72.7
381.21	123.9
381.42	205.82
381.63	35.84
381.84	123.9
382.05	95.23
382.261	130.05
382.471	168.96
382.681	62.46
382.891	84.99
383.101	35.84
383.311	46.08
383.521	19.46
383.731	76.8
383.941	148.48
384.151	68.61
384.361	5.12
384.571	128
384.781	70.65
384.991	211.96
385.201	199.68
385.411	50.18
385.621	64.51
385.831	82.94
386.041	23.55
386.251	74.75
386.461	154.62
386.671	31.74
386.881	33.79
387.091	-11.26
387.301	125.95
387.511	50.18
387.72	17.41
387.93	152.57
388.14	-48.13
388.35	70.65
388.56	130.05
388.769	187.39
388.979	87.04
389.189	64.51
389.399	52.22
389.609	154.62
389.818	87.04
390.028	93.18
390.238	89.09
390.447	13.31
390.657	89.09
390.867	9.22
391.076	-82.94
391.286	48.13
391.496	82.94
391.705	29.7
391.915	173.05
392.125	99.33
392.334	11.26
392.544	144.38
392.753	103.42
392.963	-56.32
393.172	13.31
393.382	125.95
393.591	257.02
393.801	-9.22
394.01	125.95
394.22	154.62
394.429	-7.17
394.639	52.22
394.848	17.41
395.058	132.09
395.267	19.46
395.477	115.71
395.686	62.46
395.895	205.82
396.105	152.57
396.314	64.51
396.524	5.12
396.733	41.98
396.942	158.72
397.152	109.57
397.361	128
397.57	142.33
397.78	-58.37
397.989	123.9
398.198	207.87
398.407	66.56
398.617	-7.17
398.826	50.18
399.035	54.27
399.244	138.24
399.453	70.65
399.663	-3.07
399.872	80.89
400.081	-48.13
400.29	175.1
400.499	11.26
400.708	173.05
400.917	41.98
401.127	9.22
401.336	-29.7
401.545	218.11
401.754	136.19
401.963	97.28
402.172	58.37
402.381	-54.27
402.59	52.22
402.799	117.76
403.008	56.32
403.217	19.46
403.426	80.89
403.635	-119.81
403.844	-3.07
404.053	25.6
404.262	76.8
404.471	150.53
404.68	97.28
404.888	74.75
405.097	37.89
405.306	78.85
405.515	87.04
405.724	3.07
405.933	189.44
406.142	78.85
406.35	109.57
406.559	70.65
406.768	109.57
406.977	146.43
407.185	21.5
407.394	87.04
407.603	-31.74
407.812	78.85
408.02	136.19
408.229	15.36
408.438	123.9
408.646	-68.61
408.855	31.74
409.064	111.61
409.272	-7.17
409.481	66.56
409.69	-5.12
409.898	-41.98
410.107	41.98
410.315	80.89
410.524	52.22
410.733	58.37
410.941	50.18
411.15	128
411.358	76.8
411.567	105.47
411.775	105.47
411.984	29.7
412.192	115.71
412.401	11.26
412.609	123.9
412.818	173.05
413.026	130.05
413.234	56.32
413.443	103.42
413.651	52.22
413.86	21.5
414.068	93.18
414.276	224.25
414.485	23.55
414.693	130.05
414.901	156.67
415.11	70.65
415.318	-44.03
415.526	177.15
415.734	117.76
415.943	103.42
416.151	177.15
416.359	115.71
416.567	113.66
416.776	130.05
416.984	168.96
417.192	164.86
417.4	3.07
417.608	76.8
417.817	-23.55
418.025	136.19
418.233	177.15
418.441	58.37
418.649	-56.32
418.857	39.94
419.065	189.44
419.273	31.74
419.481	97.28
419.689	76.8
419.897	9.22
420.105	-52.22
420.313	140.29
420.521	136.19
420.729	211.96
420.937	56.32
421.145	1.02
421.353	193.53
421.561	232.44
421.769	87.04
421.977	31.74
422.185	113.66
422.393	35.84
422.601	97.28
422.809	125.95
423.017	17.41
423.224	64.51
423.432	119.81
423.64	72.7
423.848	111.61
424.056	19.46
424.263	91.13
424.471	39.94
424.679	152.57
424.887	95.23
425.094	128
425.302	162.81
425.51	66.56
425.718	168.96
425.925	128
426.133	5.12
426.341	238.59
426.548	50.18
426.756	35.84
426.964	101.37
427.171	78.85
427.379	91.13
427.586	52.22
427.794	115.71
428.001	136.19
428.209	128
428.417	197.63
428.624	89.09
428.832	91.13
429.039	46.08
429.247	111.61
429.454	123.9
429.662	238.59
429.869	123.9
430.076	119.81
430.284	148.48
430.491	226.3
430.699	130.05
430.906	177.15
431.114	99.33
431.321	132.09
431.528	78.85
431.736	189.44
431.943	214.01
432.15	150.53
432.358	214.01
432.565	293.88
432.772	7.17
432.979	160.77
433.187	95.23
433.394	230.4
433.601	132.09
433.808	189.44
434.016	195.58
434.223	244.73
434.43	195.58
434.637	214.01
434.844	273.4
435.052	250.88
435.259	246.78
435.466	306.17
435.673	236.54
435.88	283.64
436.087	269.31
436.294	332.79
436.501	234.49
436.708	265.21
436.915	257.02
437.122	396.28
437.329	226.3
437.537	312.32
437.743	326.65
437.95	349.18
438.157	420.86
438.364	326.65
438.571	326.65
438.778	406.52
438.985	396.28
439.192	381.95
439.399	381.95
439.606	398.33
439.813	478.2
440.02	623.61
440.227	590.84
440.433	498.68
440.64	474.1
440.847	343.03
441.054	504.82
441.261	707.57
441.467	603.13
441.674	461.82
441.881	670.71
442.088	486.39
442.294	691.19
442.501	685.05
442.708	691.19
442.914	617.46
443.121	766.96
443.328	723.96
443.534	857.07
443.741	861.17
443.948	771.06
444.154	850.93
444.361	1086.45
444.568	869.36
444.774	996.34
444.981	842.74
445.187	1020.91
445.394	979.95
445.6	1123.31
445.807	1147.89
446.013	1174.51
446.22	1092.59
446.426	1194.99
446.633	1338.35
446.839	1504.23
447.046	1248.24
447.252	1545.19
447.459	1498.09
447.665	1407.98
447.871	1637.35
448.078	1747.94
448.284	1604.58
448.491	1809.38
448.697	1823.72
448.903	2016.23
449.11	1997.79
449.316	1909.73
449.522	2102.24
449.728	2139.1
449.935	2163.68
450.141	2184.16
450.347	2438.11
450.553	2436.06
450.76	2534.36
450.966	2630.62
451.172	2665.43
451.378	2946
451.584	2780.12
451.791	3105.74
451.997	3085.26
452.203	3075.03
452.409	3519.43
452.615	3646.41
452.821	3509.19
453.027	3412.94
453.233	3769.29
453.44	3695.56
453.646	3904.45
453.852	4047.81
454.058	4205.5
454.264	4344.77
454.47	4670.39
454.676	4551.61
454.882	5084.08
455.088	4965.3
455.294	5082.03
455.5	5456.81
455.705	5610.41
455.911	5792.68
456.117	5940.13
456.323	6081.44
456.529	6079.4
456.735	6618.01
456.941	6792.09
457.147	7060.37
457.352	7373.71
457.558	7381.9
457.764	8022.92
457.97	8252.29
458.176	8489.85
458.381	9126.77
458.587	9073.53
458.793	9630.57
458.999	9540.46
459.204	10724.19
459.41	11086.68
459.616	10883.93
459.821	11463.51
460.027	12012.36
460.233	12616.51
460.438	12571.46
460.644	13466.42
460.85	13536.05
461.055	13984.55
461.261	14662.43
461.466	14439.2
461.672	14873.37
461.878	16345.86
462.083	15966.99
462.289	16524.04
462.494	17269.5
462.7	17263.35
462.905	17650.42
463.111	19065.57
463.316	20021.97
463.522	20366.03
463.727	21101.25
463.932	21854.9
464.138	22555.3
464.343	23480.99
464.549	23655.06
464.754	25367.16
464.959	25944.69
465.165	26307.18
465.37	26331.76
465.575	26139.25
465.781	27906.65
465.986	28799.56
466.191	27990.61
466.397	28842.57
466.602	27937.37
466.807	29194.82
467.012	29936.18
467.218	30571.05
467.423	30487.09
467.628	31908.38
467.833	33096.2
468.038	32762.38
468.244	32012.82
468.449	33288.71
468.654	32725.52
468.859	33331.72
