Data from USB4F104151__44__10-43-14-777.txt Node

Date: Wed Feb 26 10:43:14 EST 2025
User: louis
Spectrometer: USB4F10415
Trigger mode: 4
Integration Time (sec): 1.000000E-1
Scans to average: 1
Electric dark correction enabled: true
Nonlinearity correction enabled: false
Boxcar width: 0
XAxis mode: Wavelengths
Number of Pixels in Spectrum: 3648
>>>>>Begin Spectral Data<<<<<
178.204	-442.87
178.424	-442.87
178.644	-442.87
178.864	-459.26
179.084	-381.43
179.304	60.93
179.524	-47.62
179.744	-16.9
179.964	105.98
180.184	-6.66
180.404	85.5
180.624	-16.9
180.844	-29.18
181.064	-104.96
181.283	32.26
181.503	-111.1
181.723	48.64
181.943	-133.63
182.163	185.85
182.383	-29.18
182.602	3.58
182.822	224.76
183.042	54.78
183.262	-57.86
183.482	-127.49
183.701	-74.24
183.921	17.92
184.141	1.54
184.361	46.59
184.58	91.65
184.8	89.6
185.02	-23.04
185.239	67.07
185.459	65.02
185.679	99.84
185.898	-43.52
186.118	32.26
186.338	-43.52
186.557	97.79
186.777	-102.91
186.997	52.74
187.216	50.69
187.436	157.18
187.655	81.41
187.875	-14.85
188.095	-35.33
188.314	148.99
188.534	85.5
188.753	-37.38
188.973	101.89
189.192	108.03
189.412	30.21
189.631	38.4
189.851	26.11
190.07	105.98
190.29	-92.67
190.509	26.11
190.729	-16.9
190.948	112.13
191.168	177.66
191.387	101.89
191.607	134.65
191.826	69.12
192.045	65.02
192.265	-0.51
192.484	105.98
192.704	34.3
192.923	-78.33
193.142	210.43
193.362	122.37
193.581	85.5
193.8	46.59
194.02	83.45
194.239	-4.61
194.458	19.97
194.678	44.54
194.897	34.3
195.116	-2.56
195.335	40.45
195.555	30.21
195.774	-12.8
195.993	169.47
196.212	-12.8
196.432	-23.04
196.651	-72.19
196.87	46.59
197.089	204.28
197.308	-12.8
197.528	38.4
197.747	-55.81
197.966	1.54
198.185	140.8
198.404	-47.62
198.623	108.03
198.842	60.93
199.062	110.08
199.281	124.41
199.5	24.06
199.719	126.46
199.938	1.54
200.157	89.6
200.376	87.55
200.595	118.27
200.814	140.8
201.033	-16.9
201.252	155.13
201.471	24.06
201.69	-18.94
201.909	-2.56
202.128	114.17
202.347	85.5
202.566	-10.75
202.785	-53.76
203.004	-55.81
203.223	218.62
203.442	44.54
203.661	15.87
203.879	5.63
204.098	157.18
204.317	-45.57
204.536	93.69
204.755	138.75
204.974	122.37
205.193	-61.95
205.411	140.8
205.63	124.41
205.849	-14.85
206.068	60.93
206.287	17.92
206.505	151.04
206.724	13.82
206.943	-37.38
207.162	-43.52
207.381	71.17
207.599	-4.61
207.818	-4.61
208.037	54.78
208.255	93.69
208.474	56.83
208.693	50.69
208.911	9.73
209.13	58.88
209.349	7.68
209.567	83.45
209.786	75.26
210.005	58.88
210.223	9.73
210.442	-80.38
210.661	46.59
210.879	103.93
211.098	-8.7
211.316	99.84
211.535	81.41
211.753	69.12
211.972	32.26
212.191	71.17
212.409	-47.62
212.628	13.82
212.846	15.87
213.065	19.97
213.283	116.22
213.502	-6.66
213.72	15.87
213.938	87.55
214.157	46.59
214.375	103.93
214.594	34.3
214.812	124.41
215.031	17.92
215.249	34.3
215.467	24.06
215.686	60.93
215.904	89.6
216.122	9.73
216.341	120.32
216.559	79.36
216.778	138.75
216.996	87.55
217.214	15.87
217.432	-31.23
217.651	-33.28
217.869	48.64
218.087	3.58
218.306	79.36
218.524	-16.9
218.742	-31.23
218.96	91.65
219.179	26.11
219.397	-20.99
219.615	249.34
219.833	67.07
220.051	-49.66
220.27	87.55
220.488	67.07
220.706	-23.04
220.924	17.92
221.142	3.58
221.36	124.41
221.578	73.21
221.796	24.06
222.015	36.35
222.233	17.92
222.451	183.81
222.669	-8.7
222.887	73.21
223.105	-72.19
223.323	42.5
223.541	-14.85
223.759	69.12
223.977	48.64
224.195	214.52
224.413	67.07
224.631	-0.51
224.849	-8.7
225.067	181.76
225.285	-31.23
225.503	32.26
225.721	-78.33
225.939	34.3
226.157	28.16
226.375	228.86
226.592	-33.28
226.81	-27.14
227.028	99.84
227.246	30.21
227.464	95.74
227.682	71.17
227.9	50.69
228.117	19.97
228.335	85.5
228.553	38.4
228.771	11.78
228.989	34.3
229.206	-0.51
229.424	11.78
229.642	24.06
229.86	-59.9
230.077	196.09
230.295	-74.24
230.513	120.32
230.731	75.26
230.948	200.19
231.166	194.05
231.384	-25.09
231.601	-88.57
231.819	206.33
232.037	-55.81
232.254	-25.09
232.472	15.87
232.689	1.54
232.907	40.45
233.125	-51.71
233.342	-10.75
233.56	-45.57
233.777	-72.19
233.995	46.59
234.213	58.88
234.43	108.03
234.648	-2.56
234.865	-20.99
235.083	79.36
235.3	28.16
235.518	85.5
235.735	130.56
235.953	36.35
236.17	97.79
236.388	30.21
236.605	48.64
236.822	3.58
237.04	118.27
237.257	22.02
237.475	-43.52
237.692	-37.38
237.909	32.26
238.127	58.88
238.344	120.32
238.562	95.74
238.779	-20.99
238.996	-78.33
239.214	54.78
239.431	58.88
239.648	11.78
239.865	138.75
240.083	83.45
240.3	-68.09
240.517	-45.57
240.735	-31.23
240.952	128.51
241.169	95.74
241.386	128.51
241.603	-27.14
241.821	-55.81
242.038	60.93
242.255	79.36
242.472	-107.01
242.689	54.78
242.907	56.83
243.124	-14.85
243.341	15.87
243.558	7.68
243.775	-43.52
243.992	-53.76
244.209	42.5
244.426	204.28
244.643	114.17
244.86	-2.56
245.078	103.93
245.295	17.92
245.512	69.12
245.729	7.68
245.946	54.78
246.163	-35.33
246.38	40.45
246.597	1.54
246.814	58.88
247.031	54.78
247.248	24.06
247.464	73.21
247.681	50.69
247.898	120.32
248.115	54.78
248.332	-47.62
248.549	224.76
248.766	151.04
248.983	19.97
249.2	77.31
249.417	42.5
249.633	-23.04
249.85	5.63
250.067	89.6
250.284	-12.8
250.501	30.21
250.717	24.06
250.934	-88.57
251.151	62.98
251.368	126.46
251.585	-10.75
251.801	89.6
252.018	-88.57
252.235	91.65
252.451	-33.28
252.668	46.59
252.885	177.66
253.102	50.69
253.318	-2.56
253.535	13.82
253.752	-39.42
253.968	42.5
254.185	-94.72
254.401	-4.61
254.618	148.99
254.835	-2.56
255.051	48.64
255.268	62.98
255.484	89.6
255.701	-18.94
255.917	40.45
256.134	-88.57
256.351	15.87
256.567	-31.23
256.784	-39.42
257	-10.75
257.217	44.54
257.433	83.45
257.65	-10.75
257.866	105.98
258.082	-92.67
258.299	-14.85
258.515	22.02
258.732	-16.9
258.948	-41.47
259.165	30.21
259.381	-72.19
259.597	30.21
259.814	9.73
260.03	24.06
260.246	-55.81
260.463	204.28
260.679	128.51
260.895	50.69
261.112	93.69
261.328	-18.94
261.544	-20.99
261.761	161.28
261.977	-33.28
262.193	-31.23
262.409	148.99
262.626	1.54
262.842	40.45
263.058	-18.94
263.274	67.07
263.49	48.64
263.707	50.69
263.923	87.55
264.139	-49.66
264.355	71.17
264.571	81.41
264.787	79.36
265.004	79.36
265.22	93.69
265.436	-43.52
265.652	24.06
265.868	54.78
266.084	-10.75
266.3	34.3
266.516	-35.33
266.732	-43.52
266.948	36.35
267.164	-51.71
267.38	58.88
267.596	79.36
267.812	169.47
268.028	52.74
268.244	-66.05
268.46	112.13
268.676	-33.28
268.892	-2.56
269.108	-70.14
269.324	-45.57
269.54	-76.29
269.756	58.88
269.972	-100.86
270.188	19.97
270.403	-43.52
270.619	-35.33
270.835	60.93
271.051	62.98
271.267	48.64
271.483	38.4
271.698	48.64
271.914	124.41
272.13	48.64
272.346	11.78
272.562	71.17
272.777	118.27
272.993	-0.51
273.209	11.78
273.425	81.41
273.64	-51.71
273.856	42.5
274.072	-119.29
274.287	-57.86
274.503	128.51
274.719	118.27
274.934	-55.81
275.15	-23.04
275.366	-27.14
275.581	-64
275.797	52.74
276.012	42.5
276.228	-10.75
276.444	99.84
276.659	148.99
276.875	32.26
277.09	28.16
277.306	22.02
277.521	132.61
277.737	7.68
277.952	87.55
278.168	-33.28
278.383	-20.99
278.599	99.84
278.814	132.61
279.03	36.35
279.245	40.45
279.461	97.79
279.676	95.74
279.892	-88.57
280.107	-55.81
280.322	-68.09
280.538	56.83
280.753	-6.66
280.969	97.79
281.184	38.4
281.399	151.04
281.615	-2.56
281.83	40.45
282.045	-33.28
282.26	-61.95
282.476	38.4
282.691	140.8
282.906	-6.66
283.122	56.83
283.337	-2.56
283.552	48.64
283.767	-53.76
283.983	144.89
284.198	34.3
284.413	124.41
284.628	-51.71
284.843	67.07
285.058	1.54
285.274	-33.28
285.489	-53.76
285.704	50.69
285.919	-39.42
286.134	97.79
286.349	22.02
286.564	5.63
286.779	126.46
286.995	77.31
287.21	-76.29
287.425	69.12
287.64	56.83
287.855	73.21
288.07	-66.05
288.285	120.32
288.5	60.93
288.715	58.88
288.93	-14.85
289.145	-57.86
289.36	138.75
289.575	34.3
289.79	159.23
290.004	-20.99
290.219	99.84
290.434	-74.24
290.649	32.26
290.864	11.78
291.079	19.97
291.294	40.45
291.509	91.65
291.724	5.63
291.938	17.92
292.153	54.78
292.368	17.92
292.583	48.64
292.798	112.13
293.012	44.54
293.227	17.92
293.442	108.03
293.657	79.36
293.871	138.75
294.086	95.74
294.301	151.04
294.516	93.69
294.73	85.5
294.945	52.74
295.16	48.64
295.374	62.98
295.589	79.36
295.804	-6.66
296.018	17.92
296.233	89.6
296.447	65.02
296.662	-82.43
296.877	122.37
297.091	118.27
297.306	34.3
297.52	9.73
297.735	30.21
297.949	79.36
298.164	32.26
298.378	75.26
298.593	-35.33
298.807	-8.7
299.022	73.21
299.236	79.36
299.451	15.87
299.665	-27.14
299.88	50.69
300.094	50.69
300.309	52.74
300.523	-20.99
300.737	-31.23
300.952	26.11
301.166	-14.85
301.381	-18.94
301.595	-31.23
301.809	60.93
302.024	-12.8
302.238	-96.77
302.452	163.33
302.667	71.17
302.881	67.07
303.095	101.89
303.309	13.82
303.524	69.12
303.738	26.11
303.952	13.82
304.166	7.68
304.381	-84.48
304.595	165.37
304.809	22.02
305.023	32.26
305.237	13.82
305.452	9.73
305.666	157.18
305.88	81.41
306.094	60.93
306.308	132.61
306.522	105.98
306.736	-49.66
306.95	54.78
307.164	54.78
307.379	-4.61
307.593	153.09
307.807	93.69
308.021	101.89
308.235	69.12
308.449	-80.38
308.663	34.3
308.877	208.38
309.091	26.11
309.305	54.78
309.519	-129.53
309.733	167.42
309.947	-102.91
310.161	87.55
310.374	83.45
310.588	95.74
310.802	-68.09
311.016	26.11
311.23	110.08
311.444	34.3
311.658	-31.23
311.872	118.27
312.085	105.98
312.299	46.59
312.513	161.28
312.727	-2.56
312.941	-90.62
313.154	11.78
313.368	36.35
313.582	71.17
313.796	15.87
314.009	17.92
314.223	99.84
314.437	77.31
314.651	36.35
314.864	-20.99
315.078	-45.57
315.292	-8.7
315.505	42.5
315.719	30.21
315.933	73.21
316.146	-33.28
316.36	-2.56
316.573	192
316.787	42.5
317.001	81.41
317.214	-94.72
317.428	85.5
317.641	-51.71
317.855	26.11
318.068	40.45
318.282	36.35
318.495	155.13
318.709	58.88
318.922	36.35
319.136	110.08
319.349	132.61
319.563	-29.18
319.776	93.69
319.99	-70.14
320.203	85.5
320.417	73.21
320.63	138.75
320.843	128.51
321.057	13.82
321.27	-0.51
321.483	83.45
321.697	130.56
321.91	85.5
322.124	36.35
322.337	69.12
322.55	-82.43
322.763	-57.86
322.977	26.11
323.19	-6.66
323.403	44.54
323.617	22.02
323.83	99.84
324.043	126.46
324.256	40.45
324.469	7.68
324.683	122.37
324.896	-18.94
325.109	62.98
325.322	-135.68
325.535	44.54
325.748	108.03
325.962	-41.47
326.175	130.56
326.388	71.17
326.601	54.78
326.814	-0.51
327.027	19.97
327.24	136.7
327.453	-66.05
327.666	101.89
327.879	136.7
328.092	24.06
328.305	83.45
328.518	42.5
328.731	-35.33
328.944	-16.9
329.157	42.5
329.37	-0.51
329.583	216.57
329.796	165.37
330.009	-96.77
330.222	38.4
330.435	103.93
330.648	-4.61
330.861	85.5
331.073	7.68
331.286	99.84
331.499	9.73
331.712	-29.18
331.925	-4.61
332.138	48.64
332.35	91.65
332.563	-23.04
332.776	93.69
332.989	-82.43
333.202	15.87
333.414	83.45
333.627	-55.81
333.84	-33.28
334.053	-33.28
334.265	-0.51
334.478	13.82
334.691	132.61
334.903	108.03
335.116	-86.53
335.329	40.45
335.541	105.98
335.754	122.37
335.966	-20.99
336.179	44.54
336.392	17.92
336.604	48.64
336.817	116.22
337.029	60.93
337.242	79.36
337.454	54.78
337.667	-12.8
337.88	151.04
338.092	38.4
338.305	-2.56
338.517	-16.9
338.729	67.07
338.942	198.14
339.154	13.82
339.367	-0.51
339.579	56.83
339.792	-37.38
340.004	124.41
340.217	3.58
340.429	62.98
340.641	-68.09
340.854	40.45
341.066	3.58
341.278	79.36
341.491	101.89
341.703	38.4
341.915	-31.23
342.128	165.37
342.34	99.84
342.552	-41.47
342.764	118.27
342.977	-2.56
343.189	54.78
343.401	58.88
343.613	-41.47
343.826	24.06
344.038	93.69
344.25	75.26
344.462	17.92
344.674	58.88
344.886	-31.23
345.099	9.73
345.311	46.59
345.523	-72.19
345.735	-84.48
345.947	19.97
346.159	118.27
346.371	17.92
346.583	40.45
346.795	202.24
347.007	-27.14
347.219	65.02
347.431	28.16
347.643	67.07
347.855	-18.94
348.067	153.09
348.279	-53.76
348.491	67.07
348.703	124.41
348.915	-12.8
349.127	-10.75
349.339	99.84
349.551	32.26
349.763	79.36
349.975	-14.85
350.187	103.93
350.399	148.99
350.61	71.17
350.822	-72.19
351.034	69.12
351.246	34.3
351.458	112.13
351.669	85.5
351.881	112.13
352.093	52.74
352.305	81.41
352.517	58.88
352.728	105.98
352.94	26.11
353.152	95.74
353.363	-6.66
353.575	-18.94
353.787	216.57
353.999	65.02
354.21	103.93
354.422	-84.48
354.633	38.4
354.845	22.02
355.057	73.21
355.268	-14.85
355.48	54.78
355.692	93.69
355.903	44.54
356.115	-39.42
356.326	-98.81
356.538	91.65
356.749	103.93
356.961	155.13
357.172	22.02
357.384	-45.57
357.595	237.05
357.807	-78.33
358.018	38.4
358.23	60.93
358.441	130.56
358.653	17.92
358.864	75.26
359.075	-12.8
359.287	11.78
359.498	73.21
359.709	32.26
359.921	38.4
360.132	87.55
360.344	22.02
360.555	-14.85
360.766	81.41
360.977	7.68
361.189	89.6
361.4	-64
361.611	87.55
361.823	175.61
362.034	9.73
362.245	-49.66
362.456	32.26
362.667	151.04
362.879	-0.51
363.09	22.02
363.301	71.17
363.512	58.88
363.723	-33.28
363.935	1.54
364.146	138.75
364.357	-12.8
364.568	32.26
364.779	-98.81
364.99	95.74
365.201	-27.14
365.412	136.7
365.623	-74.24
365.834	77.31
366.045	46.59
366.256	91.65
366.467	185.85
366.678	-20.99
366.889	-16.9
367.1	71.17
367.311	91.65
367.522	-2.56
367.733	103.93
367.944	93.69
368.155	42.5
368.366	58.88
368.577	130.56
368.788	38.4
368.999	-61.95
369.209	52.74
369.42	206.33
369.631	228.86
369.842	122.37
370.053	-20.99
370.264	142.85
370.474	-12.8
370.685	-12.8
370.896	9.73
371.107	130.56
371.317	5.63
371.528	9.73
371.739	101.89
371.95	52.74
372.16	26.11
372.371	-16.9
372.582	60.93
372.792	24.06
373.003	-23.04
373.214	134.65
373.424	144.89
373.635	19.97
373.846	95.74
374.056	26.11
374.267	17.92
374.477	116.22
374.688	-49.66
374.898	34.3
375.109	40.45
375.319	30.21
375.53	19.97
375.74	151.04
375.951	87.55
376.161	124.41
376.372	112.13
376.582	24.06
376.793	42.5
377.003	-12.8
377.214	-25.09
377.424	67.07
377.635	58.88
377.845	3.58
378.055	142.85
378.266	-66.05
378.476	44.54
378.686	46.59
378.897	-0.51
379.107	148.99
379.317	99.84
379.528	-10.75
379.738	48.64
379.948	-80.38
380.158	169.47
380.369	-2.56
380.579	7.68
380.789	38.4
380.999	50.69
381.21	36.35
381.42	208.38
381.63	73.21
381.84	26.11
382.05	132.61
382.261	65.02
382.471	95.74
382.681	22.02
382.891	187.9
383.101	108.03
383.311	-84.48
383.521	-33.28
383.731	91.65
383.941	97.79
384.151	69.12
384.361	17.92
384.571	97.79
384.781	42.5
384.991	187.9
385.201	161.28
385.411	83.45
385.621	60.93
385.831	52.74
386.041	73.21
386.251	34.3
386.461	89.6
386.671	-12.8
386.881	-4.61
387.091	22.02
387.301	110.08
387.511	-18.94
387.72	91.65
387.93	40.45
388.14	-68.09
388.35	75.26
388.56	110.08
388.769	118.27
388.979	54.78
389.189	1.54
389.399	5.63
389.609	13.82
389.818	52.74
390.028	54.78
390.238	-27.14
390.447	26.11
390.657	13.82
390.867	3.58
391.076	-6.66
391.286	26.11
391.496	40.45
391.705	-39.42
391.915	75.26
392.125	185.85
392.334	-4.61
392.544	210.43
392.753	-2.56
392.963	-45.57
393.172	77.31
393.382	-88.57
393.591	114.17
393.801	-0.51
394.01	185.85
394.22	116.22
394.429	42.5
394.639	-14.85
394.848	116.22
395.058	87.55
395.267	-53.76
395.477	87.55
395.686	58.88
395.895	288.25
396.105	196.09
396.314	65.02
396.524	65.02
396.733	32.26
396.942	118.27
397.152	108.03
397.361	118.27
397.57	73.21
397.78	71.17
397.989	56.83
398.198	179.71
398.407	-10.75
398.617	3.58
398.826	40.45
399.035	-35.33
399.244	101.89
399.453	34.3
399.663	71.17
399.872	77.31
400.081	-27.14
400.29	52.74
400.499	-98.81
400.708	105.98
400.917	9.73
401.127	85.5
401.336	-2.56
401.545	187.9
401.754	91.65
401.963	81.41
402.172	60.93
402.381	-61.95
402.59	-6.66
402.799	99.84
403.008	67.07
403.217	81.41
403.426	36.35
403.635	-20.99
403.844	42.5
404.053	-10.75
404.262	-51.71
404.471	177.66
404.68	91.65
404.888	112.13
405.097	-0.51
405.306	91.65
405.515	118.27
405.724	9.73
405.933	130.56
406.142	114.17
406.35	159.23
406.559	13.82
406.768	13.82
406.977	155.13
407.185	71.17
407.394	54.78
407.603	-12.8
407.812	79.36
408.02	120.32
408.229	13.82
408.438	101.89
408.646	-18.94
408.855	-12.8
409.064	5.63
409.272	-18.94
409.481	79.36
409.69	62.98
409.898	-27.14
410.107	136.7
410.315	69.12
410.524	-84.48
410.733	7.68
410.941	67.07
411.15	65.02
411.358	81.41
411.567	189.95
411.775	50.69
411.984	105.98
412.192	120.32
412.401	-31.23
412.609	136.7
412.818	153.09
413.026	58.88
413.234	46.59
413.443	-57.86
413.651	-47.62
413.86	19.97
414.068	146.94
414.276	179.71
414.485	42.5
414.693	230.91
414.901	181.76
415.11	103.93
415.318	69.12
415.526	-12.8
415.734	97.79
415.943	101.89
416.151	212.48
416.359	32.26
416.567	89.6
416.776	97.79
416.984	89.6
417.192	196.09
417.4	52.74
417.608	73.21
417.817	-51.71
418.025	175.61
418.233	126.46
418.441	34.3
418.649	-10.75
418.857	7.68
419.065	220.67
419.273	69.12
419.481	19.97
419.689	65.02
419.897	-8.7
420.105	-4.61
420.313	24.06
420.521	116.22
420.729	138.75
420.937	1.54
421.145	-37.38
421.353	65.02
421.561	93.69
421.769	52.74
421.977	40.45
422.185	136.7
422.393	103.93
422.601	103.93
422.809	97.79
423.017	52.74
423.224	67.07
423.432	128.51
423.64	28.16
423.848	146.94
424.056	-10.75
424.263	163.33
424.471	30.21
424.679	157.18
424.887	-18.94
425.094	163.33
425.302	97.79
425.51	26.11
425.718	87.55
425.925	73.21
426.133	56.83
426.341	155.13
426.548	-2.56
426.756	44.54
426.964	157.18
427.171	71.17
427.379	52.74
427.586	73.21
427.794	77.31
428.001	157.18
428.209	130.56
428.417	232.96
428.624	153.09
428.832	101.89
429.039	151.04
429.247	95.74
429.454	136.7
429.662	165.37
429.869	95.74
430.076	204.28
430.284	114.17
430.491	245.24
430.699	116.22
430.906	216.57
431.114	136.7
431.321	132.61
431.528	200.19
431.736	87.55
431.943	142.85
432.15	196.09
432.358	218.62
432.565	284.16
432.772	81.41
432.979	183.81
433.187	120.32
433.394	192
433.601	171.52
433.808	241.15
434.016	210.43
434.223	153.09
434.43	269.82
434.637	230.91
434.844	247.29
435.052	226.81
435.259	255.48
435.466	290.3
435.673	243.2
435.88	261.63
436.087	226.81
436.294	337.4
436.501	380.41
436.708	212.48
436.915	290.3
437.122	439.8
437.329	316.92
437.537	226.81
437.743	333.31
437.95	515.58
438.157	464.38
438.364	394.75
438.571	388.6
438.778	447.99
438.985	558.58
439.192	523.77
439.399	456.19
439.606	552.44
439.813	587.26
440.02	579.06
440.227	722.42
440.433	716.28
440.64	632.31
440.847	548.34
441.054	615.93
441.261	738.8
441.467	798.2
441.674	699.89
441.881	695.8
442.088	699.89
442.294	843.25
442.501	880.11
442.708	890.35
442.914	787.96
443.121	849.4
443.328	976.37
443.534	1050.1
443.741	1037.81
443.948	914.93
444.154	1244.65
444.361	1205.74
444.568	1140.21
444.774	1195.5
444.981	1043.95
445.187	1302
445.394	1258.99
445.6	1381.87
445.807	1523.18
446.013	1410.54
446.22	1345
446.426	1748.45
446.633	1734.12
446.839	1834.47
447.046	1637.86
447.252	1912.29
447.459	1859.04
447.665	1877.48
447.871	2012.64
448.078	2237.92
448.284	2084.32
448.491	2291.17
448.697	2297.31
448.903	2444.76
449.11	2586.07
449.316	2508.25
449.522	2721.24
449.728	2790.87
449.935	2831.83
450.141	2866.64
450.347	3241.42
450.553	2975.19
450.76	3184.08
450.966	3233.23
451.172	3407.31
451.378	3603.91
451.584	3747.27
451.791	3876.29
451.997	4025.79
452.203	4023.75
452.409	4302.27
452.615	4623.8
452.821	4300.22
453.027	4406.72
453.233	5117.36
453.44	4703.67
453.646	5008.82
453.852	5146.03
454.058	5543.34
454.264	5766.57
454.47	5934.5
454.676	6000.04
454.882	6620.57
455.088	6294.94
455.294	6682.01
455.5	7042.45
455.705	7314.83
455.911	7308.69
456.117	7669.13
456.323	8095.11
456.529	7855.5
456.735	8723.83
456.941	8889.72
457.147	9278.83
457.352	9504.11
457.558	9807.21
457.764	10216.8
457.97	10784.09
458.176	11027.8
458.381	11666.77
458.587	11978.06
458.793	12367.17
458.999	12508.48
459.204	14157.1
459.41	14566.69
459.616	14300.45
459.821	15176.98
460.027	15846.67
460.233	16409.86
460.438	16747.78
460.644	17483
460.85	17609.97
461.055	18275.56
461.261	19360.98
461.466	18781.41
461.672	19299.55
461.878	21370.04
462.083	21396.67
462.289	21167.29
462.494	22584.49
462.7	22729.89
462.905	22987.94
463.111	24833.16
463.316	26188.91
463.522	26496.11
463.727	27630.68
463.932	28585.04
464.138	29269.06
464.343	30387.25
464.549	30643.24
464.754	32828.43
464.959	33860.6
465.165	34345.97
465.37	33940.47
465.575	34296.82
465.781	36074.46
465.986	37624.77
466.191	36471.76
466.397	37157.83
466.602	36244.44
466.807	38335.42
467.012	39236.52
467.218	39660.45
467.423	39865.25
467.628	40940.43
467.833	42754.93
468.038	42167.16
468.244	41472.9
