Data from USB4F104151__227__11-06-15-226.txt Node

Date: Wed Feb 26 11:06:15 EST 2025
User: louis
Spectrometer: USB4F10415
Trigger mode: 4
Integration Time (sec): 1.000000E-1
Scans to average: 1
Electric dark correction enabled: true
Nonlinearity correction enabled: false
Boxcar width: 0
XAxis mode: Wavelengths
Number of Pixels in Spectrum: 3648
>>>>>Begin Spectral Data<<<<<
178.204	-376.66
178.424	-376.66
178.644	-376.66
178.864	-403.28
179.084	-399.18
179.304	-3.93
179.524	-141.14
179.744	-24.4
179.964	32.94
180.184	69.8
180.404	57.51
180.624	-1.88
180.844	-32.6
181.064	20.65
181.283	-14.17
181.503	-26.45
181.723	63.66
181.943	-147.28
182.163	184.49
182.383	-10.07
182.602	39.08
182.822	145.58
183.042	51.37
183.262	-3.93
183.482	-3.93
183.701	55.47
183.921	10.41
184.141	-53.08
184.361	65.71
184.58	4.27
184.8	-20.31
185.02	-18.26
185.239	118.95
185.459	104.62
185.679	71.85
185.898	-94.04
186.118	90.28
186.338	30.89
186.557	75.95
186.777	-53.08
186.997	-14.17
187.216	6.31
187.436	159.91
187.655	12.46
187.875	161.96
188.095	53.42
188.314	168.1
188.534	118.95
188.753	0.17
188.973	59.56
189.192	143.53
189.412	-3.93
189.631	53.42
189.851	8.36
190.07	200.87
190.29	-12.12
190.509	18.6
190.729	-8.02
190.948	172.2
191.168	204.97
191.387	94.38
191.607	-3.93
191.826	80.04
192.045	51.37
192.265	-12.12
192.484	92.33
192.704	90.28
192.923	-65.36
193.142	135.34
193.362	147.62
193.581	112.81
193.8	41.13
194.02	127.14
194.239	141.48
194.458	90.28
194.678	53.42
194.897	92.33
195.116	28.84
195.335	34.99
195.555	12.46
195.774	43.18
195.993	57.51
196.212	92.33
196.432	-10.07
196.651	-77.65
196.87	2.22
197.089	252.07
197.308	32.94
197.528	114.86
197.747	-67.41
197.966	51.37
198.185	135.34
198.404	-3.93
198.623	145.58
198.842	145.58
199.062	30.89
199.281	118.95
199.5	69.8
199.719	139.43
199.938	92.33
200.157	61.61
200.376	45.23
200.595	84.14
200.814	28.84
201.033	12.46
201.252	92.33
201.471	45.23
201.69	37.03
201.909	28.84
202.128	45.23
202.347	86.19
202.566	32.94
202.785	-3.93
203.004	-12.12
203.223	319.65
203.442	49.32
203.661	-69.46
203.879	43.18
204.098	182.44
204.317	-44.88
204.536	80.04
204.755	80.04
204.974	139.43
205.193	-24.4
205.411	190.63
205.63	57.51
205.849	57.51
206.068	41.13
206.287	-18.26
206.505	88.23
206.724	73.9
206.943	-1.88
207.162	-5.97
207.381	116.9
207.599	24.75
207.818	61.61
208.037	-12.12
208.255	59.56
208.474	2.22
208.693	12.46
208.911	96.43
209.13	75.95
209.349	69.8
209.567	32.94
209.786	80.04
210.005	104.62
210.223	77.99
210.442	-130.9
210.661	14.51
210.879	102.57
211.098	24.75
211.316	80.04
211.535	65.71
211.753	69.8
211.972	20.65
212.191	32.94
212.409	-12.12
212.628	26.79
212.846	-12.12
213.065	41.13
213.283	71.85
213.502	84.14
213.72	26.79
213.938	32.94
214.157	80.04
214.375	65.71
214.594	16.55
214.812	75.95
215.031	84.14
215.249	108.71
215.467	45.23
215.686	86.19
215.904	51.37
216.122	49.32
216.341	102.57
216.559	30.89
216.778	133.29
216.996	194.73
217.214	67.75
217.432	41.13
217.651	-28.5
217.869	61.61
218.087	69.8
218.306	-1.88
218.524	-36.69
218.742	6.31
218.96	106.67
219.179	-20.31
219.397	-14.17
219.615	243.88
219.833	57.51
220.051	-42.84
220.27	71.85
220.488	39.08
220.706	55.47
220.924	-48.98
221.142	-18.26
221.36	90.28
221.578	-20.31
221.796	51.37
222.015	30.89
222.233	34.99
222.451	123.05
222.669	-28.5
222.887	65.71
223.105	-5.97
223.323	24.75
223.541	-102.23
223.759	10.41
223.977	37.03
224.195	106.67
224.413	176.3
224.631	61.61
224.849	28.84
225.067	116.9
225.285	-67.41
225.503	-3.93
225.721	-122.71
225.939	28.84
226.157	12.46
226.375	184.49
226.592	92.33
226.81	43.18
227.028	157.86
227.246	96.43
227.464	82.09
227.682	129.19
227.9	45.23
228.117	-5.97
228.335	77.99
228.553	4.27
228.771	-16.21
228.989	53.42
229.206	53.42
229.424	34.99
229.642	8.36
229.86	-59.22
230.077	121
230.295	28.84
230.513	133.29
230.731	16.55
230.948	145.58
231.166	139.43
231.384	-14.17
231.601	32.94
231.819	180.39
232.037	67.75
232.254	-28.5
232.472	16.55
232.689	-8.02
232.907	104.62
233.125	-14.17
233.342	-96.08
233.56	-22.36
233.777	30.89
233.995	10.41
234.213	127.14
234.43	80.04
234.648	45.23
234.865	-22.36
235.083	133.29
235.3	26.79
235.518	53.42
235.735	192.68
235.953	80.04
236.17	28.84
236.388	4.27
236.605	8.36
236.822	118.95
237.04	159.91
237.257	82.09
237.475	-51.03
237.692	94.38
237.909	32.94
238.127	-51.03
238.344	98.47
238.562	22.7
238.779	-51.03
238.996	-73.56
239.214	-1.88
239.431	24.75
239.648	-34.64
239.865	43.18
240.083	73.9
240.3	-22.36
240.517	73.9
240.735	51.37
240.952	161.96
241.169	102.57
241.386	20.65
241.603	-53.08
241.821	71.85
242.038	41.13
242.255	114.86
242.472	-26.45
242.689	110.76
242.907	96.43
243.124	-46.93
243.341	-48.98
243.558	10.41
243.775	-24.4
243.992	-34.64
244.209	82.09
244.426	196.78
244.643	98.47
244.86	45.23
245.078	131.24
245.295	86.19
245.512	32.94
245.729	-79.7
245.946	63.66
246.163	16.55
246.38	-10.07
246.597	28.84
246.814	71.85
247.031	43.18
247.248	39.08
247.464	45.23
247.681	77.99
247.898	67.75
248.115	28.84
248.332	-5.97
248.549	100.52
248.766	96.43
248.983	45.23
249.2	43.18
249.417	161.96
249.633	20.65
249.85	102.57
250.067	-28.5
250.284	49.32
250.501	94.38
250.717	94.38
250.934	30.89
251.151	-8.02
251.368	37.03
251.585	26.79
251.801	59.56
252.018	-36.69
252.235	71.85
252.451	-77.65
252.668	63.66
252.885	125.1
253.102	77.99
253.318	2.22
253.535	43.18
253.752	49.32
253.968	-53.08
254.185	-65.36
254.401	168.1
254.618	77.99
254.835	-46.93
255.051	137.38
255.268	61.61
255.484	37.03
255.701	73.9
255.917	20.65
256.134	-3.93
256.351	84.14
256.567	-55.12
256.784	37.03
257	-34.64
257.217	139.43
257.433	34.99
257.65	73.9
257.866	82.09
258.082	-102.23
258.299	-89.94
258.515	28.84
258.732	0.17
258.948	-16.21
259.165	57.51
259.381	-32.6
259.597	75.95
259.814	0.17
260.03	24.75
260.246	28.84
260.463	53.42
260.679	65.71
260.895	69.8
261.112	22.7
261.328	28.84
261.544	-1.88
261.761	121
261.977	45.23
262.193	-38.74
262.409	106.67
262.626	14.51
262.842	32.94
263.058	18.6
263.274	174.25
263.49	45.23
263.707	-1.88
263.923	61.61
264.139	-53.08
264.355	2.22
264.571	108.71
264.787	71.85
265.004	137.38
265.22	110.76
265.436	-32.6
265.652	49.32
265.868	75.95
266.084	-38.74
266.3	8.36
266.516	-28.5
266.732	69.8
266.948	24.75
267.164	6.31
267.38	114.86
267.596	51.37
267.812	159.91
268.028	55.47
268.244	43.18
268.46	51.37
268.676	16.55
268.892	63.66
269.108	-38.74
269.324	-1.88
269.54	20.65
269.756	100.52
269.972	65.71
270.188	30.89
270.403	-38.74
270.619	-14.17
270.835	104.62
271.051	6.31
271.267	-38.74
271.483	-16.21
271.698	71.85
271.914	26.79
272.13	121
272.346	4.27
272.562	80.04
272.777	110.76
272.993	20.65
273.209	24.75
273.425	80.04
273.64	-36.69
273.856	43.18
274.072	2.22
274.287	43.18
274.503	84.14
274.719	75.95
274.934	-30.55
275.15	-118.61
275.366	69.8
275.581	6.31
275.797	-14.17
276.012	-30.55
276.228	-1.88
276.444	-32.6
276.659	157.86
276.875	-22.36
277.09	39.08
277.306	30.89
277.521	100.52
277.737	2.22
277.952	84.14
278.168	-18.26
278.383	14.51
278.599	77.99
278.814	100.52
279.03	53.42
279.245	131.24
279.461	8.36
279.676	53.42
279.892	-65.36
280.107	14.51
280.322	-53.08
280.538	116.9
280.753	8.36
280.969	-8.02
281.184	8.36
281.399	147.62
281.615	14.51
281.83	80.04
282.045	-40.79
282.26	-34.64
282.476	49.32
282.691	157.86
282.906	80.04
283.122	-69.46
283.337	12.46
283.552	86.19
283.767	-42.84
283.983	92.33
284.198	92.33
284.413	24.75
284.628	-81.75
284.843	32.94
285.058	110.76
285.274	-22.36
285.489	-1.88
285.704	37.03
285.919	73.9
286.134	-14.17
286.349	16.55
286.564	0.17
286.779	211.11
286.995	26.79
287.21	-81.75
287.425	110.76
287.64	14.51
287.855	14.51
288.07	-40.79
288.285	67.75
288.5	98.47
288.715	65.71
288.93	14.51
289.145	-57.17
289.36	26.79
289.575	90.28
289.79	155.82
290.004	16.55
290.219	137.38
290.434	43.18
290.649	-5.97
290.864	6.31
291.079	-10.07
291.294	32.94
291.509	-5.97
291.724	-20.31
291.938	-65.36
292.153	71.85
292.368	43.18
292.583	55.47
292.798	-26.45
293.012	43.18
293.227	88.23
293.442	0.17
293.657	55.47
293.871	108.71
294.086	34.99
294.301	168.1
294.516	88.23
294.73	71.85
294.945	2.22
295.16	-8.02
295.374	143.53
295.589	98.47
295.804	-10.07
296.018	18.6
296.233	123.05
296.447	4.27
296.662	-16.21
296.877	127.14
297.091	186.54
297.306	-3.93
297.52	-32.6
297.735	22.7
297.949	51.37
298.164	55.47
298.378	80.04
298.593	-96.08
298.807	-14.17
299.022	-28.5
299.236	170.15
299.451	39.08
299.665	65.71
299.88	14.51
300.094	22.7
300.309	34.99
300.523	32.94
300.737	-42.84
300.952	22.7
301.166	73.9
301.381	45.23
301.595	-5.97
301.809	-8.02
302.024	32.94
302.238	-44.88
302.452	153.77
302.667	90.28
302.881	143.53
303.095	88.23
303.309	-3.93
303.524	-8.02
303.738	4.27
303.952	-20.31
304.166	67.75
304.381	-147.28
304.595	121
304.809	-44.88
305.023	0.17
305.237	30.89
305.452	-14.17
305.666	-10.07
305.88	43.18
306.094	-3.93
306.308	53.42
306.522	82.09
306.736	8.36
306.95	110.76
307.164	45.23
307.379	-18.26
307.593	168.1
307.807	88.23
308.021	174.25
308.235	41.13
308.449	-91.99
308.663	116.9
308.877	219.3
309.091	65.71
309.305	123.05
309.519	-104.28
309.733	80.04
309.947	-81.75
310.161	84.14
310.374	125.1
310.588	121
310.802	-12.12
311.016	-26.45
311.23	106.67
311.444	53.42
311.658	20.65
311.872	161.96
312.085	92.33
312.299	123.05
312.513	139.43
312.727	73.9
312.941	6.31
313.154	45.23
313.368	14.51
313.582	71.85
313.796	59.56
314.009	14.51
314.223	116.9
314.437	59.56
314.651	73.9
314.864	-32.6
315.078	12.46
315.292	6.31
315.505	32.94
315.719	90.28
315.933	-1.88
316.146	-48.98
316.36	-71.51
316.573	178.34
316.787	59.56
317.001	71.85
317.214	-44.88
317.428	63.66
317.641	-26.45
317.855	2.22
318.068	18.6
318.282	61.61
318.495	176.3
318.709	67.75
318.922	-24.4
319.136	104.62
319.349	106.67
319.563	41.13
319.776	26.79
319.99	14.51
320.203	90.28
320.417	26.79
320.63	71.85
320.843	90.28
321.057	90.28
321.27	8.36
321.483	123.05
321.697	147.62
321.91	47.27
322.124	75.95
322.337	14.51
322.55	28.84
322.763	53.42
322.977	45.23
323.19	-14.17
323.403	61.61
323.617	67.75
323.83	104.62
324.043	-118.61
324.256	135.34
324.469	-69.46
324.683	141.48
324.896	73.9
325.109	-12.12
325.322	-69.46
325.535	153.77
325.748	84.14
325.962	51.37
326.175	47.27
326.388	94.38
326.601	102.57
326.814	4.27
327.027	51.37
327.24	198.82
327.453	-89.94
327.666	135.34
327.879	125.1
328.092	53.42
328.305	41.13
328.518	28.84
328.731	10.41
328.944	20.65
329.157	71.85
329.37	8.36
329.583	125.1
329.796	196.78
330.009	-46.93
330.222	20.65
330.435	67.75
330.648	88.23
330.861	71.85
331.073	69.8
331.286	24.75
331.499	118.95
331.712	59.56
331.925	-32.6
332.138	-5.97
332.35	123.05
332.563	-22.36
332.776	135.34
332.989	8.36
333.202	-5.97
333.414	0.17
333.627	24.75
333.84	51.37
334.053	77.99
334.265	2.22
334.478	34.99
334.691	28.84
334.903	53.42
335.116	24.75
335.329	100.52
335.541	30.89
335.754	182.44
335.966	86.19
336.179	20.65
336.392	-51.03
336.604	34.99
336.817	51.37
337.029	24.75
337.242	98.47
337.454	92.33
337.667	106.67
337.88	133.29
338.092	98.47
338.305	71.85
338.517	22.7
338.729	65.71
338.942	133.29
339.154	-53.08
339.367	-77.65
339.579	34.99
339.792	24.75
340.004	121
340.217	4.27
340.429	30.89
340.641	-46.93
340.854	-46.93
341.066	8.36
341.278	92.33
341.491	155.82
341.703	71.85
341.915	-32.6
342.128	57.51
342.34	20.65
342.552	-42.84
342.764	-24.4
342.977	6.31
343.189	77.99
343.401	80.04
343.613	-69.46
343.826	37.03
344.038	32.94
344.25	106.67
344.462	-126.8
344.674	82.09
344.886	30.89
345.099	135.34
345.311	32.94
345.523	-12.12
345.735	-81.75
345.947	22.7
346.159	22.7
346.371	39.08
346.583	6.31
346.795	133.29
347.007	-3.93
347.219	90.28
347.431	80.04
347.643	57.51
347.855	-40.79
348.067	116.9
348.279	-42.84
348.491	59.56
348.703	82.09
348.915	47.27
349.127	-61.27
349.339	98.47
349.551	-67.41
349.763	133.29
349.975	18.6
350.187	69.8
350.399	147.62
350.61	118.95
350.822	0.17
351.034	57.51
351.246	108.71
351.458	61.61
351.669	4.27
351.881	39.08
352.093	133.29
352.305	166.06
352.517	71.85
352.728	92.33
352.94	73.9
353.152	116.9
353.363	22.7
353.575	149.67
353.787	143.53
353.999	82.09
354.21	133.29
354.422	-30.55
354.633	39.08
354.845	135.34
355.057	94.38
355.268	73.9
355.48	121
355.692	-73.56
355.903	34.99
356.115	-16.21
356.326	-124.76
356.538	57.51
356.749	77.99
356.961	94.38
357.172	26.79
357.384	20.65
357.595	204.97
357.807	-24.4
358.018	22.7
358.23	59.56
358.441	77.99
358.653	43.18
358.864	34.99
359.075	34.99
359.287	8.36
359.498	116.9
359.709	63.66
359.921	61.61
360.132	63.66
360.344	63.66
360.555	-18.26
360.766	71.85
360.977	75.95
361.189	106.67
361.4	12.46
361.611	188.58
361.823	161.96
362.034	-40.79
362.245	-32.6
362.456	47.27
362.667	57.51
362.879	-71.51
363.09	63.66
363.301	26.79
363.512	73.9
363.723	16.55
363.935	2.22
364.146	59.56
364.357	-14.17
364.568	77.99
364.779	-130.9
364.99	96.43
365.201	30.89
365.412	80.04
365.623	-75.6
365.834	32.94
366.045	57.51
366.256	108.71
366.467	6.31
366.678	22.7
366.889	108.71
367.1	39.08
367.311	86.19
367.522	6.31
367.733	80.04
367.944	2.22
368.155	20.65
368.366	90.28
368.577	137.38
368.788	118.95
368.999	0.17
369.209	4.27
369.42	164.01
369.631	223.4
369.842	84.14
370.053	18.6
370.264	69.8
370.474	-96.08
370.685	73.9
370.896	41.13
371.107	135.34
371.317	-51.03
371.528	45.23
371.739	63.66
371.95	61.61
372.16	86.19
372.371	-8.02
372.582	47.27
372.792	32.94
373.003	98.47
373.214	30.89
373.424	41.13
373.635	-34.64
373.846	129.19
374.056	94.38
374.267	49.32
374.477	69.8
374.688	26.79
374.898	20.65
375.109	45.23
375.319	-5.97
375.53	127.14
375.74	145.58
375.951	67.75
376.161	39.08
376.372	43.18
376.582	-32.6
376.793	73.9
377.003	-57.17
377.214	-34.64
377.424	57.51
377.635	16.55
377.845	-20.31
378.055	161.96
378.266	-44.88
378.476	65.71
378.686	116.9
378.897	153.77
379.107	63.66
379.317	57.51
379.528	12.46
379.738	39.08
379.948	-79.7
380.158	135.34
380.369	59.56
380.579	114.86
380.789	26.79
380.999	102.57
381.21	53.42
381.42	164.01
381.63	37.03
381.84	110.76
382.05	41.13
382.261	71.85
382.471	166.06
382.681	4.27
382.891	180.39
383.101	34.99
383.311	-32.6
383.521	6.31
383.731	94.38
383.941	65.71
384.151	108.71
384.361	80.04
384.571	57.51
384.781	110.76
384.991	143.53
385.201	233.64
385.411	82.09
385.621	28.84
385.831	55.47
386.041	28.84
386.251	-5.97
386.461	80.04
386.671	-24.4
386.881	127.14
387.091	-8.02
387.301	90.28
387.511	8.36
387.72	125.1
387.93	34.99
388.14	-10.07
388.35	116.9
388.56	71.85
388.769	102.57
388.979	53.42
389.189	10.41
389.399	-12.12
389.609	92.33
389.818	65.71
390.028	121
390.238	71.85
390.447	-3.93
390.657	116.9
390.867	65.71
391.076	-108.37
391.286	65.71
391.496	-20.31
391.705	34.99
391.915	139.43
392.125	110.76
392.334	100.52
392.544	139.43
392.753	108.71
392.963	18.6
393.172	96.43
393.382	37.03
393.591	84.14
393.801	65.71
394.01	127.14
394.22	51.37
394.429	110.76
394.639	61.61
394.848	30.89
395.058	112.81
395.267	63.66
395.477	127.14
395.686	45.23
395.895	209.06
396.105	157.86
396.314	53.42
396.524	28.84
396.733	127.14
396.942	90.28
397.152	71.85
397.361	43.18
397.57	49.32
397.78	39.08
397.989	102.57
398.198	204.97
398.407	20.65
398.617	59.56
398.826	59.56
399.035	55.47
399.244	161.96
399.453	16.55
399.663	94.38
399.872	84.14
400.081	51.37
400.29	125.1
400.499	28.84
400.708	149.67
400.917	-20.31
401.127	-61.27
401.336	-20.31
401.545	161.96
401.754	184.49
401.963	131.24
402.172	24.75
402.381	-26.45
402.59	8.36
402.799	61.61
403.008	82.09
403.217	34.99
403.426	28.84
403.635	-57.17
403.844	-18.26
404.053	30.89
404.262	28.84
404.471	186.54
404.68	90.28
404.888	67.75
405.097	43.18
405.306	51.37
405.515	82.09
405.724	18.6
405.933	114.86
406.142	102.57
406.35	127.14
406.559	73.9
406.768	73.9
406.977	223.4
407.185	112.81
407.394	129.19
407.603	-18.26
407.812	14.51
408.02	112.81
408.229	10.41
408.438	94.38
408.646	20.65
408.855	96.43
409.064	94.38
409.272	8.36
409.481	98.47
409.69	-32.6
409.898	-26.45
410.107	4.27
410.315	84.14
410.524	51.37
410.733	-12.12
410.941	10.41
411.15	92.33
411.358	32.94
411.567	186.54
411.775	88.23
411.984	61.61
412.192	102.57
412.401	-20.31
412.609	204.97
412.818	96.43
413.026	102.57
413.234	34.99
413.443	-10.07
413.651	-8.02
413.86	-16.21
414.068	178.34
414.276	159.91
414.485	18.6
414.693	153.77
414.901	331.94
415.11	20.65
415.318	131.24
415.526	0.17
415.734	86.19
415.943	47.27
416.151	139.43
416.359	-26.45
416.567	133.29
416.776	43.18
416.984	53.42
417.192	159.91
417.4	22.7
417.608	110.76
417.817	-14.17
418.025	88.23
418.233	280.74
418.441	8.36
418.649	-10.07
418.857	82.09
419.065	178.34
419.273	30.89
419.481	22.7
419.689	41.13
419.897	14.51
420.105	61.61
420.313	90.28
420.521	170.15
420.729	166.06
420.937	4.27
421.145	12.46
421.353	90.28
421.561	51.37
421.769	43.18
421.977	51.37
422.185	133.29
422.393	26.79
422.601	88.23
422.809	22.7
423.017	139.43
423.224	63.66
423.432	125.1
423.64	16.55
423.848	182.44
424.056	0.17
424.263	139.43
424.471	32.94
424.679	196.78
424.887	-44.88
425.094	137.38
425.302	96.43
425.51	32.94
425.718	49.32
425.925	86.19
426.133	71.85
426.341	139.43
426.548	49.32
426.756	61.61
426.964	102.57
427.171	24.75
427.379	77.99
427.586	104.62
427.794	90.28
428.001	164.01
428.209	145.58
428.417	258.21
428.624	184.49
428.832	102.57
429.039	96.43
429.247	73.9
429.454	69.8
429.662	198.82
429.869	131.24
430.076	159.91
430.284	215.21
430.491	278.69
430.699	157.86
430.906	178.34
431.114	96.43
431.321	237.74
431.528	65.71
431.736	196.78
431.943	194.73
432.15	149.67
432.358	196.78
432.565	198.82
432.772	53.42
432.979	153.77
433.187	110.76
433.394	252.07
433.601	123.05
433.808	221.35
434.016	284.84
434.223	184.49
434.43	153.77
434.637	243.88
434.844	245.93
435.052	223.4
435.259	264.36
435.466	243.88
435.673	268.45
435.88	245.93
436.087	309.41
436.294	438.44
436.501	237.74
436.708	256.17
436.915	317.61
437.122	325.8
437.329	270.5
437.537	295.08
437.743	383.14
437.95	362.66
438.157	362.66
438.364	362.66
438.571	340.13
438.778	401.57
438.985	510.11
439.192	499.88
439.399	381.09
439.606	497.83
439.813	495.78
440.02	559.27
440.227	628.9
440.433	557.22
440.64	520.35
440.847	503.97
441.054	551.07
441.261	700.58
441.467	534.69
441.674	690.34
441.881	745.63
442.088	639.14
442.294	778.4
442.501	684.19
442.708	786.59
442.914	798.88
443.121	1001.63
443.328	780.45
443.534	942.24
443.741	807.07
443.948	819.36
444.154	954.52
444.361	1183.9
444.568	1032.35
444.774	1024.16
444.981	964.76
445.187	1278.1
445.394	1106.07
445.6	1079.45
445.807	1284.25
446.013	1276.06
446.22	1276.06
446.426	1388.69
446.633	1423.51
446.839	1669.27
447.046	1513.62
447.252	1613.97
447.459	1624.21
447.665	1613.97
447.871	1800.34
448.078	2050.19
448.284	1878.16
448.491	1831.05
448.697	2144.39
448.903	2232.46
449.11	2326.66
449.316	2205.83
449.522	2334.86
449.728	2384.01
449.935	2453.64
450.141	2556.04
450.347	2910.33
450.553	2699.39
450.76	2666.63
450.966	2934.91
451.172	2984.06
451.378	3000.44
451.584	3135.61
451.791	3477.62
451.997	3391.61
452.203	3580.02
452.409	3795.06
452.615	3981.42
452.821	3917.93
453.027	3756.15
453.233	4302.95
453.44	4147.31
453.646	4434.02
453.852	4675.68
454.058	4784.23
454.264	4923.49
454.47	5367.9
454.676	5206.11
454.882	5779.54
455.088	5527.64
455.294	5789.78
455.5	6156.36
455.705	6326.35
455.911	6459.46
456.117	6733.89
456.323	6918.21
456.529	6955.07
456.735	7630.9
456.941	7991.34
457.147	7964.72
457.352	8304.68
457.558	8527.91
457.764	9091.1
457.97	9345.05
458.176	9637.91
458.381	10145.81
458.587	10461.2
458.793	10858.5
458.999	10872.84
459.204	12232.69
459.41	12763.11
459.616	12566.51
459.821	13176.8
460.027	13973.46
460.233	14417.87
460.438	14405.58
460.644	15310.79
460.85	15349.7
461.055	15810.49
461.261	16967.59
461.466	16361.39
461.672	16568.24
461.878	18700.17
462.083	18653.07
462.289	18839.44
462.494	19644.29
462.7	19935.1
462.905	20152.18
463.111	21679.97
463.316	22703.95
463.522	22978.38
463.727	24102.71
463.932	24799.02
464.138	25954.08
464.343	26861.33
464.549	26758.93
464.754	28657.4
464.959	29187.82
465.165	30043.87
465.37	30404.31
465.575	29728.49
465.781	31688.39
465.986	32892.6
466.191	32116.42
466.397	32812.73
466.602	32286.4
466.807	33642.15
467.012	34516.64
467.218	34940.57
467.423	35020.44
467.628	35808.9
467.833	37887.59
468.038	37045.88
468.244	36677.24
468.449	38348.39
468.654	37801.58
468.859	37615.21
469.064	37535.34
