Data from USB4F104151__91__10-44-41-467.txt Node

Date: Wed Feb 26 10:44:41 EST 2025
User: louis
Spectrometer: USB4F10415
Trigger mode: 4
Integration Time (sec): 1.000000E-1
Scans to average: 1
Electric dark correction enabled: true
Nonlinearity correction enabled: false
Boxcar width: 0
XAxis mode: Wavelengths
Number of Pixels in Spectrum: 3648
>>>>>Begin Spectral Data<<<<<
178.204	-341.5
178.424	-341.5
178.644	-341.5
178.864	-433.66
179.084	-421.37
179.304	41.47
179.524	-46.59
179.744	27.14
179.964	12.8
180.184	0.51
180.404	16.9
180.624	-77.31
180.844	86.53
181.064	-46.59
181.283	37.38
181.503	-108.03
181.723	55.81
181.943	-22.02
182.163	197.12
182.383	51.71
182.602	53.76
182.822	190.97
183.042	86.53
183.262	-5.63
183.482	27.14
183.701	-19.97
183.921	31.23
184.141	-38.4
184.361	8.7
184.58	119.29
184.8	37.38
185.02	-44.54
185.239	72.19
185.459	107.01
185.679	119.29
185.898	-13.82
186.118	70.14
186.338	70.14
186.557	154.11
186.777	-36.35
186.997	-58.88
187.216	14.85
187.436	201.21
187.655	88.57
187.875	100.86
188.095	80.38
188.314	100.86
188.534	113.15
188.753	-26.11
188.973	12.8
189.192	174.59
189.412	-52.74
189.631	23.04
189.851	59.9
190.07	135.68
190.29	-48.64
190.509	-9.73
190.729	29.18
190.948	160.25
191.168	256.51
191.387	35.33
191.607	61.95
191.826	66.05
192.045	145.92
192.265	-28.16
192.484	-19.97
192.704	-28.16
192.923	-48.64
193.142	109.05
193.362	131.58
193.581	104.96
193.8	68.09
194.02	18.94
194.239	57.86
194.458	14.85
194.678	37.38
194.897	59.9
195.116	-15.87
195.335	18.94
195.555	102.91
195.774	23.04
195.993	162.3
196.212	72.19
196.432	2.56
196.651	41.47
196.87	70.14
197.089	260.6
197.308	16.9
197.528	14.85
197.747	8.7
197.966	68.09
198.185	143.87
198.404	-5.63
198.623	100.86
198.842	131.58
199.062	90.62
199.281	16.9
199.5	94.72
199.719	102.91
199.938	27.14
200.157	115.2
200.376	123.39
200.595	78.33
200.814	64
201.033	-22.02
201.252	117.25
201.471	16.9
201.69	107.01
201.909	-17.92
202.128	119.29
202.347	39.42
202.566	98.81
202.785	-87.55
203.004	-1.54
203.223	236.03
203.442	57.86
203.661	-79.36
203.879	115.2
204.098	164.35
204.317	-93.69
204.536	117.25
204.755	66.05
204.974	33.28
205.193	4.61
205.411	100.86
205.63	121.34
205.849	174.59
206.068	27.14
206.287	-9.73
206.505	57.86
206.724	2.56
206.943	-36.35
207.162	29.18
207.381	86.53
207.599	59.9
207.818	119.29
208.037	-3.58
208.255	10.75
208.474	68.09
208.693	72.19
208.911	4.61
209.13	104.96
209.349	18.94
209.567	98.81
209.786	64
210.005	84.48
210.223	76.29
210.442	-120.32
210.661	70.14
210.879	102.91
211.098	6.66
211.316	39.42
211.535	166.4
211.753	82.43
211.972	43.52
212.191	-26.11
212.409	70.14
212.628	117.25
212.846	29.18
213.065	25.09
213.283	109.05
213.502	49.66
213.72	70.14
213.938	-7.68
214.157	43.52
214.375	55.81
214.594	-3.58
214.812	70.14
215.031	-26.11
215.249	25.09
215.467	86.53
215.686	27.14
215.904	61.95
216.122	35.33
216.341	127.49
216.559	78.33
216.778	154.11
216.996	125.44
217.214	-28.16
217.432	37.38
217.651	-28.16
217.869	121.34
218.087	35.33
218.306	78.33
218.524	25.09
218.742	-19.97
218.96	78.33
219.179	16.9
219.397	78.33
219.615	227.84
219.833	47.62
220.051	-54.78
220.27	166.4
220.488	84.48
220.706	70.14
220.924	-32.26
221.142	6.66
221.36	31.23
221.578	94.72
221.796	41.47
222.015	55.81
222.233	78.33
222.451	119.29
222.669	-77.31
222.887	4.61
223.105	14.85
223.323	31.23
223.541	82.43
223.759	43.52
223.977	-1.54
224.195	162.3
224.413	43.52
224.631	47.62
224.849	100.86
225.067	178.69
225.285	-81.41
225.503	31.23
225.721	-93.69
225.939	115.2
226.157	27.14
226.375	254.46
226.592	33.28
226.81	-44.54
227.028	96.77
227.246	143.87
227.464	109.05
227.682	104.96
227.9	25.09
228.117	82.43
228.335	41.47
228.553	88.57
228.771	111.1
228.989	37.38
229.206	123.39
229.424	-28.16
229.642	31.23
229.86	-62.98
230.077	147.97
230.295	78.33
230.513	119.29
230.731	98.81
230.948	195.07
231.166	143.87
231.384	29.18
231.601	31.23
231.819	131.58
232.037	-13.82
232.254	4.61
232.472	61.95
232.689	10.75
232.907	135.68
233.125	-24.06
233.342	-34.3
233.56	20.99
233.777	-65.02
233.995	66.05
234.213	70.14
234.43	6.66
234.648	10.75
234.865	10.75
235.083	98.81
235.3	102.91
235.518	82.43
235.735	100.86
235.953	98.81
236.17	107.01
236.388	78.33
236.605	47.62
236.822	158.21
237.04	139.77
237.257	23.04
237.475	-17.92
237.692	39.42
237.909	25.09
238.127	-73.21
238.344	66.05
238.562	68.09
238.779	39.42
238.996	-15.87
239.214	18.94
239.431	145.92
239.648	37.38
239.865	45.57
240.083	137.73
240.3	12.8
240.517	-7.68
240.735	84.48
240.952	174.59
241.169	8.7
241.386	94.72
241.603	-22.02
241.821	0.51
242.038	76.29
242.255	59.9
242.472	-93.69
242.689	57.86
242.907	59.9
243.124	86.53
243.341	35.33
243.558	8.7
243.775	-73.21
243.992	-91.65
244.209	43.52
244.426	72.19
244.643	53.76
244.86	-34.3
245.078	18.94
245.295	33.28
245.512	25.09
245.729	-144.89
245.946	16.9
246.163	57.86
246.38	80.38
246.597	111.1
246.814	47.62
247.031	78.33
247.248	8.7
247.464	61.95
247.681	68.09
247.898	-38.4
248.115	68.09
248.332	0.51
248.549	35.33
248.766	158.21
248.983	80.38
249.2	55.81
249.417	166.4
249.633	39.42
249.85	80.38
250.067	-44.54
250.284	86.53
250.501	90.62
250.717	84.48
250.934	-75.26
251.151	-32.26
251.368	43.52
251.585	94.72
251.801	102.91
252.018	-30.21
252.235	107.01
252.451	4.61
252.668	-15.87
252.885	109.05
253.102	4.61
253.318	61.95
253.535	6.66
253.752	-40.45
253.968	74.24
254.185	-54.78
254.401	31.23
254.618	117.25
254.835	8.7
255.051	141.82
255.268	43.52
255.484	-1.54
255.701	8.7
255.917	31.23
256.134	12.8
256.351	6.66
256.567	-11.78
256.784	-7.68
257	-36.35
257.217	107.01
257.433	92.67
257.65	76.29
257.866	115.2
258.082	-95.74
258.299	6.66
258.515	117.25
258.732	61.95
258.948	-71.17
259.165	20.99
259.381	-34.3
259.597	-3.58
259.814	-7.68
260.03	49.66
260.246	-11.78
260.463	113.15
260.679	117.25
260.895	8.7
261.112	55.81
261.328	-7.68
261.544	-3.58
261.761	227.84
261.977	25.09
262.193	-19.97
262.409	10.75
262.626	16.9
262.842	2.56
263.058	-26.11
263.274	6.66
263.49	59.9
263.707	109.05
263.923	127.49
264.139	-34.3
264.355	43.52
264.571	12.8
264.787	57.86
265.004	94.72
265.22	53.76
265.436	-34.3
265.652	-11.78
265.868	20.99
266.084	-60.93
266.3	41.47
266.516	4.61
266.732	49.66
266.948	82.43
267.164	23.04
267.38	94.72
267.596	137.73
267.812	150.01
268.028	90.62
268.244	107.01
268.46	-5.63
268.676	27.14
268.892	29.18
269.108	10.75
269.324	-17.92
269.54	10.75
269.756	152.06
269.972	-118.27
270.188	23.04
270.403	47.62
270.619	25.09
270.835	107.01
271.051	-19.97
271.267	53.76
271.483	-42.5
271.698	86.53
271.914	82.43
272.13	68.09
272.346	-44.54
272.562	82.43
272.777	119.29
272.993	-30.21
273.209	94.72
273.425	96.77
273.64	-1.54
273.856	86.53
274.072	59.9
274.287	-17.92
274.503	82.43
274.719	143.87
274.934	27.14
275.15	4.61
275.366	8.7
275.581	-7.68
275.797	-3.58
276.012	55.81
276.228	107.01
276.444	-1.54
276.659	143.87
276.875	-3.58
277.09	2.56
277.306	-15.87
277.521	80.38
277.737	25.09
277.952	96.77
278.168	20.99
278.383	4.61
278.599	45.57
278.814	123.39
279.03	47.62
279.245	92.67
279.461	31.23
279.676	100.86
279.892	-28.16
280.107	-24.06
280.322	-73.21
280.538	82.43
280.753	-81.41
280.969	53.76
281.184	115.2
281.399	47.62
281.615	31.23
281.83	109.05
282.045	41.47
282.26	-24.06
282.476	80.38
282.691	119.29
282.906	0.51
283.122	31.23
283.337	-38.4
283.552	88.57
283.767	4.61
283.983	213.5
284.198	59.9
284.413	14.85
284.628	-67.07
284.843	0.51
285.058	98.81
285.274	-3.58
285.489	20.99
285.704	188.93
285.919	-110.08
286.134	-5.63
286.349	-42.5
286.564	4.61
286.779	168.45
286.995	35.33
287.21	-75.26
287.425	-36.35
287.64	-9.73
287.855	45.57
288.07	8.7
288.285	188.93
288.5	104.96
288.715	86.53
288.93	80.38
289.145	57.86
289.36	113.15
289.575	-52.74
289.79	156.16
290.004	-30.21
290.219	82.43
290.434	74.24
290.649	0.51
290.864	-46.59
291.079	0.51
291.294	121.34
291.509	96.77
291.724	-19.97
291.938	14.85
292.153	18.94
292.368	-3.58
292.583	78.33
292.798	76.29
293.012	154.11
293.227	2.56
293.442	27.14
293.657	70.14
293.871	82.43
294.086	57.86
294.301	197.12
294.516	127.49
294.73	27.14
294.945	-22.02
295.16	92.67
295.374	86.53
295.589	207.36
295.804	86.53
296.018	43.52
296.233	78.33
296.447	37.38
296.662	-62.98
296.877	100.86
297.091	127.49
297.306	55.81
297.52	-7.68
297.735	25.09
297.949	107.01
298.164	20.99
298.378	20.99
298.593	-50.69
298.807	-44.54
299.022	37.38
299.236	78.33
299.451	27.14
299.665	41.47
299.88	10.75
300.094	90.62
300.309	98.81
300.523	88.57
300.737	-40.45
300.952	80.38
301.166	102.91
301.381	107.01
301.595	80.38
301.809	43.52
302.024	49.66
302.238	-34.3
302.452	98.81
302.667	90.62
302.881	119.29
303.095	139.77
303.309	10.75
303.524	-105.98
303.738	0.51
303.952	-17.92
304.166	88.57
304.381	-157.18
304.595	117.25
304.809	-42.5
305.023	84.48
305.237	84.48
305.452	-26.11
305.666	107.01
305.88	104.96
306.094	133.63
306.308	43.52
306.522	88.57
306.736	55.81
306.95	49.66
307.164	94.72
307.379	10.75
307.593	164.35
307.807	72.19
308.021	59.9
308.235	98.81
308.449	-3.58
308.663	-19.97
308.877	199.16
309.091	12.8
309.305	61.95
309.519	-13.82
309.733	176.64
309.947	57.86
310.161	92.67
310.374	33.28
310.588	20.99
310.802	-1.54
311.016	-7.68
311.23	66.05
311.444	-36.35
311.658	20.99
311.872	84.48
312.085	88.57
312.299	172.54
312.513	156.16
312.727	115.2
312.941	-13.82
313.154	51.71
313.368	55.81
313.582	-24.06
313.796	33.28
314.009	16.9
314.223	104.96
314.437	47.62
314.651	8.7
314.864	14.85
315.078	59.9
315.292	-3.58
315.505	16.9
315.719	102.91
315.933	10.75
316.146	70.14
316.36	-24.06
316.573	184.83
316.787	68.09
317.001	-24.06
317.214	12.8
317.428	90.62
317.641	8.7
317.855	29.18
318.068	72.19
318.282	109.05
318.495	117.25
318.709	4.61
318.922	31.23
319.136	113.15
319.349	49.66
319.563	94.72
319.776	41.47
319.99	-73.21
320.203	25.09
320.417	20.99
320.63	37.38
320.843	223.74
321.057	33.28
321.27	43.52
321.483	147.97
321.697	98.81
321.91	88.57
322.124	29.18
322.337	98.81
322.55	-44.54
322.763	72.19
322.977	25.09
323.19	-7.68
323.403	68.09
323.617	8.7
323.83	64
324.043	29.18
324.256	20.99
324.469	-34.3
324.683	125.44
324.896	78.33
325.109	27.14
325.322	-77.31
325.535	66.05
325.748	141.82
325.962	35.33
326.175	35.33
326.388	74.24
326.601	127.49
326.814	47.62
327.027	16.9
327.24	76.29
327.453	-73.21
327.666	104.96
327.879	2.56
328.092	51.71
328.305	25.09
328.518	10.75
328.731	0.51
328.944	2.56
329.157	80.38
329.37	-28.16
329.583	190.97
329.796	102.91
330.009	-46.59
330.222	57.86
330.435	158.21
330.648	107.01
330.861	16.9
331.073	45.57
331.286	78.33
331.499	119.29
331.712	-56.83
331.925	-17.92
332.138	12.8
332.35	90.62
332.563	20.99
332.776	117.25
332.989	-77.31
333.202	43.52
333.414	43.52
333.627	90.62
333.84	47.62
334.053	25.09
334.265	6.66
334.478	84.48
334.691	-17.92
334.903	109.05
335.116	37.38
335.329	0.51
335.541	78.33
335.754	72.19
335.966	-13.82
336.179	8.7
336.392	57.86
336.604	2.56
336.817	53.76
337.029	61.95
337.242	14.85
337.454	20.99
337.667	53.76
337.88	33.28
338.092	84.48
338.305	59.9
338.517	-9.73
338.729	-11.78
338.942	158.21
339.154	-7.68
339.367	-24.06
339.579	88.57
339.792	-103.93
340.004	41.47
340.217	25.09
340.429	31.23
340.641	57.86
340.854	-50.69
341.066	-38.4
341.278	121.34
341.491	152.06
341.703	53.76
341.915	27.14
342.128	68.09
342.34	92.67
342.552	-5.63
342.764	33.28
342.977	-71.17
343.189	55.81
343.401	96.77
343.613	-9.73
343.826	55.81
344.038	-19.97
344.25	49.66
344.462	0.51
344.674	86.53
344.886	33.28
345.099	109.05
345.311	14.85
345.523	-44.54
345.735	-155.13
345.947	-17.92
346.159	33.28
346.371	-7.68
346.583	-3.58
346.795	229.88
347.007	82.43
347.219	41.47
347.431	6.66
347.643	111.1
347.855	-38.4
348.067	66.05
348.279	-28.16
348.491	53.76
348.703	102.91
348.915	53.76
349.127	-15.87
349.339	31.23
349.551	37.38
349.763	115.2
349.975	2.56
350.187	109.05
350.399	94.72
350.61	74.24
350.822	14.85
351.034	-30.21
351.246	117.25
351.458	78.33
351.669	147.97
351.881	123.39
352.093	127.49
352.305	168.45
352.517	55.81
352.728	119.29
352.94	31.23
353.152	6.66
353.363	-52.74
353.575	64
353.787	109.05
353.999	41.47
354.21	182.78
354.422	-5.63
354.633	37.38
354.845	61.95
355.057	29.18
355.268	82.43
355.48	107.01
355.692	-26.11
355.903	98.81
356.115	-9.73
356.326	-60.93
356.538	127.49
356.749	127.49
356.961	125.44
357.172	37.38
357.384	41.47
357.595	182.78
357.807	-19.97
358.018	41.47
358.23	23.04
358.441	145.92
358.653	55.81
358.864	23.04
359.075	88.57
359.287	35.33
359.498	147.97
359.709	47.62
359.921	64
360.132	43.52
360.344	35.33
360.555	49.66
360.766	-5.63
360.977	20.99
361.189	113.15
361.4	25.09
361.611	78.33
361.823	129.53
362.034	23.04
362.245	-30.21
362.456	-3.58
362.667	137.73
362.879	18.94
363.09	23.04
363.301	78.33
363.512	45.57
363.723	-38.4
363.935	47.62
364.146	27.14
364.357	-15.87
364.568	29.18
364.779	2.56
364.99	170.49
365.201	-36.35
365.412	113.15
365.623	-71.17
365.834	53.76
366.045	41.47
366.256	47.62
366.467	57.86
366.678	76.29
366.889	66.05
367.1	-1.54
367.311	123.39
367.522	66.05
367.733	70.14
367.944	156.16
368.155	-1.54
368.366	66.05
368.577	55.81
368.788	43.52
368.999	-46.59
369.209	-5.63
369.42	233.98
369.631	260.6
369.842	86.53
370.053	14.85
370.264	86.53
370.474	4.61
370.685	29.18
370.896	12.8
371.107	223.74
371.317	18.94
371.528	39.42
371.739	121.34
371.95	33.28
372.16	14.85
372.371	2.56
372.582	-36.35
372.792	51.71
373.003	64
373.214	43.52
373.424	109.05
373.635	12.8
373.846	78.33
374.056	53.76
374.267	82.43
374.477	84.48
374.688	68.09
374.898	145.92
375.109	51.71
375.319	94.72
375.53	135.68
375.74	100.86
375.951	-15.87
376.161	59.9
376.372	98.81
376.582	53.76
376.793	123.39
377.003	-58.88
377.214	-83.45
377.424	12.8
377.635	-48.64
377.845	-32.26
378.055	129.53
378.266	-24.06
378.476	16.9
378.686	121.34
378.897	119.29
379.107	86.53
379.317	78.33
379.528	33.28
379.738	6.66
379.948	-13.82
380.158	127.49
380.369	14.85
380.579	78.33
380.789	107.01
380.999	84.48
381.21	98.81
381.42	176.64
381.63	61.95
381.84	68.09
382.05	41.47
382.261	86.53
382.471	133.63
382.681	4.61
382.891	113.15
383.101	92.67
383.311	-36.35
383.521	-26.11
383.731	180.73
383.941	90.62
384.151	115.2
384.361	6.66
384.571	74.24
384.781	20.99
384.991	221.69
385.201	174.59
385.411	123.39
385.621	33.28
385.831	82.43
386.041	27.14
386.251	-28.16
386.461	111.1
386.671	86.53
386.881	41.47
387.091	-87.55
387.301	90.62
387.511	82.43
387.72	39.42
387.93	76.29
388.14	-87.55
388.35	43.52
388.56	123.39
388.769	147.97
388.979	84.48
389.189	-26.11
389.399	14.85
389.609	133.63
389.818	84.48
390.028	45.57
390.238	82.43
390.447	31.23
390.657	68.09
390.867	45.57
391.076	10.75
391.286	76.29
391.496	-81.41
391.705	78.33
391.915	195.07
392.125	37.38
392.334	72.19
392.544	117.25
392.753	74.24
392.963	33.28
393.172	45.57
393.382	55.81
393.591	205.31
393.801	33.28
394.01	123.39
394.22	154.11
394.429	35.33
394.639	-7.68
394.848	92.67
395.058	98.81
395.267	-44.54
395.477	92.67
395.686	92.67
395.895	186.88
396.105	207.36
396.314	68.09
396.524	61.95
396.733	-5.63
396.942	121.34
397.152	143.87
397.361	147.97
397.57	92.67
397.78	6.66
397.989	10.75
398.198	240.12
398.407	-11.78
398.617	-22.02
398.826	25.09
399.035	14.85
399.244	94.72
399.453	102.91
399.663	66.05
399.872	109.05
400.081	-30.21
400.29	104.96
400.499	10.75
400.708	88.57
400.917	31.23
401.127	57.86
401.336	59.9
401.545	215.55
401.754	109.05
401.963	123.39
402.172	55.81
402.381	-34.3
402.59	6.66
402.799	53.76
403.008	88.57
403.217	2.56
403.426	68.09
403.635	-5.63
403.844	55.81
404.053	-1.54
404.262	43.52
404.471	139.77
404.68	12.8
404.888	100.86
405.097	70.14
405.306	53.76
405.515	41.47
405.724	55.81
405.933	137.73
406.142	16.9
406.35	119.29
406.559	55.81
406.768	82.43
406.977	201.21
407.185	104.96
407.394	127.49
407.603	-19.97
407.812	80.38
408.02	168.45
408.229	29.18
408.438	49.66
408.646	-56.83
408.855	55.81
409.064	23.04
409.272	-3.58
409.481	37.38
409.69	-1.54
409.898	12.8
410.107	64
410.315	109.05
410.524	-5.63
410.733	57.86
410.941	-17.92
411.15	131.58
411.358	166.4
411.567	156.16
411.775	59.9
411.984	55.81
412.192	150.01
412.401	25.09
412.609	174.59
412.818	113.15
413.026	57.86
413.234	-30.21
413.443	-24.06
413.651	-15.87
413.86	-5.63
414.068	176.64
414.276	203.26
414.485	61.95
414.693	100.86
414.901	152.06
415.11	143.87
415.318	-52.74
415.526	53.76
415.734	86.53
415.943	47.62
416.151	188.93
416.359	41.47
416.567	152.06
416.776	70.14
416.984	102.91
417.192	135.68
417.4	55.81
417.608	33.28
417.817	8.7
418.025	90.62
418.233	166.4
418.441	-19.97
418.649	33.28
418.857	16.9
419.065	143.87
419.273	10.75
419.481	119.29
419.689	70.14
419.897	-7.68
420.105	-9.73
420.313	94.72
420.521	96.77
420.729	150.01
420.937	31.23
421.145	23.04
421.353	129.53
421.561	154.11
421.769	55.81
421.977	-15.87
422.185	117.25
422.393	31.23
422.601	170.49
422.809	59.9
423.017	59.9
423.224	82.43
423.432	102.91
423.64	-9.73
423.848	113.15
424.056	6.66
424.263	109.05
424.471	4.61
424.679	139.77
424.887	-26.11
425.094	129.53
425.302	70.14
425.51	64
425.718	107.01
425.925	20.99
426.133	-1.54
426.341	156.16
426.548	102.91
426.756	31.23
426.964	184.83
427.171	-5.63
427.379	94.72
427.586	133.63
427.794	115.2
428.001	109.05
428.209	117.25
428.417	115.2
428.624	115.2
428.832	137.73
429.039	31.23
429.247	6.66
429.454	102.91
429.662	193.02
429.869	135.68
430.076	104.96
430.284	156.16
430.491	211.45
430.699	195.07
430.906	178.69
431.114	135.68
431.321	107.01
431.528	74.24
431.736	92.67
431.943	160.25
432.15	176.64
432.358	197.12
432.565	227.84
432.772	0.51
432.979	291.32
433.187	104.96
433.394	150.01
433.601	88.57
433.808	233.98
434.016	330.23
434.223	168.45
434.43	141.82
434.637	262.65
434.844	295.42
435.052	317.95
435.259	309.76
435.466	244.22
435.673	315.9
435.88	301.56
436.087	330.23
436.294	317.95
436.501	324.09
436.708	246.27
436.915	293.37
437.122	389.63
437.329	231.93
437.537	221.69
437.743	287.23
437.95	418.3
438.157	367.1
438.364	340.47
438.571	322.04
438.778	397.82
438.985	408.06
439.192	512.5
439.399	446.97
439.606	420.35
439.813	512.5
440.02	612.85
440.227	688.63
440.433	553.46
440.64	545.27
440.847	496.12
441.054	598.52
441.261	713.21
441.467	649.72
441.674	590.33
441.881	723.44
442.088	662.01
442.294	801.27
442.501	791.03
442.708	793.08
442.914	754.16
443.121	811.51
443.328	879.09
443.534	901.62
443.741	895.47
443.948	821.75
444.154	997.87
444.361	1135.09
444.568	1067.5
444.774	1106.42
444.981	918
445.187	1116.65
445.394	1223.15
445.6	1178.09
445.807	1366.51
446.013	1270.25
446.22	1196.53
446.426	1475.05
446.633	1409.51
446.839	1640.93
447.046	1454.57
447.252	1589.74
447.459	1708.52
447.665	1642.98
447.871	1905.12
448.078	1991.14
448.284	1964.51
448.491	2040.29
448.697	2183.65
448.903	2122.21
449.11	2161.12
449.316	2204.13
449.522	2335.2
449.728	2370.01
449.935	2539.99
450.141	2564.57
450.347	2709.97
450.553	2658.78
450.76	2806.23
450.966	2929.11
451.172	3109.33
451.378	3172.82
451.584	3334.61
451.791	3447.24
451.997	3453.39
452.203	3533.26
452.409	3912.13
452.615	3942.85
452.821	3938.76
453.027	3887.56
453.233	4452.8
453.44	4291.01
453.646	4514.24
453.852	4583.87
454.058	4753.85
454.264	4985.27
454.47	5271.98
454.676	5226.93
454.882	5831.08
455.088	5538.22
455.294	5923.24
455.5	6115.75
455.705	6605.21
455.911	6648.22
456.117	6754.71
456.323	7131.54
456.529	7098.77
456.735	7811.46
456.941	7799.18
457.147	8309.12
457.352	8403.33
457.558	8618.36
457.764	9136.5
457.97	9300.34
458.176	9791.85
458.381	10494.3
458.587	10449.25
458.793	11055.45
458.999	10893.66
459.204	12325.19
459.41	12689.73
459.616	12575.04
459.821	13336.88
460.027	13758.77
460.233	14463.27
460.438	14516.51
460.644	15452.44
460.85	15493.4
461.055	16128.27
461.261	16935.17
461.466	16474.37
461.672	16900.35
461.878	18755.81
462.083	18680.03
462.289	18981.09
462.494	19796.18
462.7	19814.61
462.905	20375.75
463.111	22188.21
463.316	23167.13
463.522	23480.47
463.727	24334.48
463.932	25028.74
464.138	25860.21
464.343	26652.78
464.549	27005.03
464.754	29114.44
464.959	29993.01
465.165	30367.79
465.37	29978.68
465.575	30320.69
465.781	32000.02
465.986	32958.47
466.191	32497.68
466.397	32679.95
466.602	31928.34
466.807	34281.46
467.012	34568.18
467.218	35080.17
467.423	35106.79
467.628	36239.32
467.833	37695.42
468.038	37259.21
468.244	36691.92
468.449	38385.59
468.654	37676.99
468.859	37701.57
469.064	38111.16
