Data from USB4F104151__194__11-05-24-132.txt Node

Date: Wed Feb 26 11:05:24 EST 2025
User: louis
Spectrometer: USB4F10415
Trigger mode: 4
Integration Time (sec): 1.000000E-1
Scans to average: 1
Electric dark correction enabled: true
Nonlinearity correction enabled: false
Boxcar width: 0
XAxis mode: Wavelengths
Number of Pixels in Spectrum: 3648
>>>>>Begin Spectral Data<<<<<
178.204	-381.6
178.424	-381.6
178.644	-381.6
178.864	-432.8
179.084	-420.52
179.304	-70.31
179.524	71
179.744	27.99
179.964	-4.78
180.184	-21.16
180.404	71
180.624	-80.55
180.844	38.23
181.064	-37.55
181.283	21.84
181.503	-82.6
181.723	66.9
181.943	-27.31
182.163	222.55
182.383	-8.87
182.602	71
182.822	191.83
183.042	-23.21
183.262	-51.88
183.482	-21.16
183.701	66.9
183.921	89.43
184.141	-33.45
184.361	81.24
184.58	54.61
184.8	66.9
185.02	-23.21
185.239	114
185.459	58.71
185.679	118.1
185.898	-129.7
186.118	58.71
186.338	60.76
186.557	169.3
186.777	-31.4
186.997	-27.31
187.216	-10.92
187.436	185.68
187.655	120.15
187.875	83.28
188.095	-8.87
188.314	79.19
188.534	126.29
188.753	-33.45
188.973	75.09
189.192	189.78
189.412	-4.78
189.631	3.41
189.851	32.08
190.07	142.68
190.29	-35.5
190.509	-55.98
190.729	-8.87
190.948	111.96
191.168	177.49
191.387	89.43
191.607	-35.5
191.826	73.04
192.045	17.75
192.265	17.75
192.484	-33.45
192.704	46.42
192.923	-105.13
193.142	187.73
193.362	64.85
193.581	200.02
193.8	48.47
194.02	91.48
194.239	71
194.458	36.18
194.678	1.37
194.897	3.41
195.116	-4.78
195.335	44.37
195.555	99.67
195.774	-72.36
195.993	93.52
196.212	15.7
196.432	11.61
196.651	-31.4
196.87	-0.68
197.089	228.69
197.308	73.04
197.528	60.76
197.747	-37.55
197.966	19.8
198.185	85.33
198.404	-33.45
198.623	50.52
198.842	159.06
199.062	64.85
199.281	114
199.5	54.61
199.719	66.9
199.938	48.47
200.157	5.46
200.376	66.9
200.595	124.24
200.814	34.13
201.033	77.14
201.252	146.77
201.471	11.61
201.69	50.52
201.909	7.51
202.128	99.67
202.347	79.19
202.566	1.37
202.785	-51.88
203.004	-43.69
203.223	206.16
203.442	54.61
203.661	-15.02
203.879	48.47
204.098	277.84
204.317	-76.46
204.536	91.48
204.755	97.62
204.974	17.75
205.193	-41.64
205.411	105.81
205.63	134.48
205.849	15.7
206.068	-17.07
206.287	-19.11
206.505	93.52
206.724	-62.12
206.943	-31.4
207.162	19.8
207.381	-15.02
207.599	-39.59
207.818	46.42
208.037	-29.35
208.255	95.57
208.474	62.8
208.693	40.28
208.911	83.28
209.13	62.8
209.349	-21.16
209.567	9.56
209.786	93.52
210.005	68.95
210.223	77.14
210.442	-101.03
210.661	38.23
210.879	111.96
211.098	27.99
211.316	7.51
211.535	60.76
211.753	23.89
211.972	9.56
212.191	38.23
212.409	1.37
212.628	38.23
212.846	27.99
213.065	-12.97
213.283	-8.87
213.502	81.24
213.72	1.37
213.938	-17.07
214.157	-0.68
214.375	134.48
214.594	58.71
214.812	75.09
215.031	23.89
215.249	-15.02
215.467	21.84
215.686	-19.11
215.904	114
216.122	126.29
216.341	173.39
216.559	1.37
216.778	163.15
216.996	105.81
217.214	11.61
217.432	44.37
217.651	-53.93
217.869	71
218.087	-41.64
218.306	-23.21
218.524	66.9
218.742	89.43
218.96	75.09
219.179	-33.45
219.397	-62.12
219.615	181.59
219.833	73.04
220.051	-96.94
220.27	50.52
220.488	128.34
220.706	52.56
220.924	15.7
221.142	3.41
221.36	38.23
221.578	124.24
221.796	-25.26
222.015	17.75
222.233	11.61
222.451	138.58
222.669	-37.55
222.887	56.66
223.105	-35.5
223.323	44.37
223.541	-41.64
223.759	44.37
223.977	32.08
224.195	152.91
224.413	44.37
224.631	5.46
224.849	73.04
225.067	200.02
225.285	-12.97
225.503	23.89
225.721	-129.7
225.939	114
226.157	25.94
226.375	294.22
226.592	46.42
226.81	77.14
227.028	111.96
227.246	124.24
227.464	40.28
227.682	58.71
227.9	60.76
228.117	34.13
228.335	103.76
228.553	-17.07
228.771	13.65
228.989	25.94
229.206	56.66
229.424	25.94
229.642	-29.35
229.86	-49.83
230.077	163.15
230.295	1.37
230.513	134.48
230.731	-17.07
230.948	138.58
231.166	202.07
231.384	48.47
231.601	-70.31
231.819	183.63
232.037	34.13
232.254	13.65
232.472	-55.98
232.689	71
232.907	87.38
233.125	-64.17
233.342	1.37
233.56	-8.87
233.777	-39.59
233.995	5.46
234.213	142.68
234.43	3.41
234.648	52.56
234.865	-76.46
235.083	50.52
235.3	-10.92
235.518	27.99
235.735	138.58
235.953	64.85
236.17	60.76
236.388	66.9
236.605	-23.21
236.822	54.61
237.04	-19.11
237.257	68.95
237.475	-31.4
237.692	60.76
237.909	52.56
238.127	42.32
238.344	40.28
238.562	27.99
238.779	-107.18
238.996	-8.87
239.214	3.41
239.431	177.49
239.648	-70.31
239.865	27.99
240.083	-39.59
240.3	-49.83
240.517	-27.31
240.735	19.8
240.952	128.34
241.169	-53.93
241.386	124.24
241.603	-66.22
241.821	-70.31
242.038	5.46
242.255	40.28
242.472	1.37
242.689	38.23
242.907	60.76
243.124	83.28
243.341	15.7
243.558	27.99
243.775	-47.79
243.992	15.7
244.209	95.57
244.426	185.68
244.643	111.96
244.86	-37.55
245.078	60.76
245.295	30.04
245.512	30.04
245.729	-101.03
245.946	128.34
246.163	89.43
246.38	56.66
246.597	44.37
246.814	-60.07
247.031	79.19
247.248	19.8
247.464	71
247.681	73.04
247.898	95.57
248.115	13.65
248.332	-8.87
248.549	118.1
248.766	91.48
248.983	89.43
249.2	73.04
249.417	32.08
249.633	56.66
249.85	38.23
250.067	79.19
250.284	13.65
250.501	60.76
250.717	50.52
250.934	-29.35
251.151	-31.4
251.368	27.99
251.585	85.33
251.801	34.13
252.018	-82.6
252.235	56.66
252.451	1.37
252.668	40.28
252.885	152.91
253.102	-4.78
253.318	40.28
253.535	60.76
253.752	44.37
253.968	30.04
254.185	-29.35
254.401	54.61
254.618	68.95
254.835	-15.02
255.051	93.52
255.268	48.47
255.484	103.76
255.701	-27.31
255.917	19.8
256.134	-70.31
256.351	27.99
256.567	-80.55
256.784	-29.35
257	-58.03
257.217	122.2
257.433	175.44
257.65	32.08
257.866	105.81
258.082	-72.36
258.299	-55.98
258.515	128.34
258.732	27.99
258.948	-21.16
259.165	5.46
259.381	-37.55
259.597	97.62
259.814	-2.73
260.03	54.61
260.246	17.75
260.463	11.61
260.679	163.15
260.895	32.08
261.112	114
261.328	32.08
261.544	-55.98
261.761	111.96
261.977	83.28
262.193	-49.83
262.409	128.34
262.626	13.65
262.842	-6.83
263.058	-64.17
263.274	75.09
263.49	48.47
263.707	138.58
263.923	32.08
264.139	-74.41
264.355	58.71
264.571	-12.97
264.787	15.7
265.004	30.04
265.22	-29.35
265.436	3.41
265.652	40.28
265.868	77.14
266.084	-37.55
266.3	83.28
266.516	-39.59
266.732	85.33
266.948	46.42
267.164	27.99
267.38	81.24
267.596	101.72
267.812	109.91
268.028	-0.68
268.244	23.89
268.46	42.32
268.676	23.89
268.892	52.56
269.108	-78.51
269.324	3.41
269.54	-86.7
269.756	64.85
269.972	-0.68
270.188	1.37
270.403	1.37
270.619	17.75
270.835	132.44
271.051	85.33
271.267	50.52
271.483	-70.31
271.698	105.81
271.914	-33.45
272.13	30.04
272.346	-23.21
272.562	73.04
272.777	150.87
272.993	48.47
273.209	44.37
273.425	5.46
273.64	3.41
273.856	81.24
274.072	85.33
274.287	58.71
274.503	58.71
274.719	54.61
274.934	-19.11
275.15	-76.46
275.366	66.9
275.581	5.46
275.797	52.56
276.012	19.8
276.228	-31.4
276.444	42.32
276.659	189.78
276.875	17.75
277.09	36.18
277.306	15.7
277.521	97.62
277.737	27.99
277.952	77.14
278.168	-51.88
278.383	1.37
278.599	27.99
278.814	136.53
279.03	9.56
279.245	157.01
279.461	81.24
279.676	83.28
279.892	-2.73
280.107	-107.18
280.322	-86.7
280.538	34.13
280.753	-29.35
280.969	9.56
281.184	21.84
281.399	126.29
281.615	23.89
281.83	85.33
282.045	-78.51
282.26	38.23
282.476	1.37
282.691	68.95
282.906	3.41
283.122	79.19
283.337	-84.65
283.552	21.84
283.767	32.08
283.983	116.05
284.198	19.8
284.413	85.33
284.628	-70.31
284.843	46.42
285.058	17.75
285.274	-66.22
285.489	-15.02
285.704	109.91
285.919	1.37
286.134	-12.97
286.349	30.04
286.564	-45.74
286.779	105.81
286.995	3.41
287.21	-105.13
287.425	109.91
287.64	60.76
287.855	48.47
288.07	-51.88
288.285	71
288.5	118.1
288.715	93.52
288.93	-19.11
289.145	-39.59
289.36	64.85
289.575	3.41
289.79	40.28
290.004	-4.78
290.219	122.2
290.434	68.95
290.649	-8.87
290.864	1.37
291.079	17.75
291.294	62.8
291.509	93.52
291.724	1.37
291.938	-0.68
292.153	60.76
292.368	-6.83
292.583	21.84
292.798	81.24
293.012	85.33
293.227	38.23
293.442	36.18
293.657	38.23
293.871	77.14
294.086	-15.02
294.301	197.97
294.516	202.07
294.73	58.71
294.945	15.7
295.16	46.42
295.374	134.48
295.589	38.23
295.804	64.85
296.018	83.28
296.233	99.67
296.447	68.95
296.662	-60.07
296.877	132.44
297.091	163.15
297.306	7.51
297.52	-4.78
297.735	42.32
297.949	-12.97
298.164	-15.02
298.378	-0.68
298.593	-76.46
298.807	15.7
299.022	54.61
299.236	175.44
299.451	-25.26
299.665	56.66
299.88	105.81
300.094	58.71
300.309	36.18
300.523	48.47
300.737	15.7
300.952	87.38
301.166	56.66
301.381	-35.5
301.595	7.51
301.809	64.85
302.024	75.09
302.238	7.51
302.452	134.48
302.667	-4.78
302.881	85.33
303.095	54.61
303.309	107.86
303.524	46.42
303.738	-10.92
303.952	-37.55
304.166	93.52
304.381	-43.69
304.595	91.48
304.809	-35.5
305.023	40.28
305.237	50.52
305.452	-84.65
305.666	136.53
305.88	79.19
306.094	38.23
306.308	107.86
306.522	54.61
306.736	101.72
306.95	132.44
307.164	-60.07
307.379	50.52
307.593	187.73
307.807	148.82
308.021	101.72
308.235	36.18
308.449	-121.51
308.663	50.52
308.877	269.65
309.091	36.18
309.305	56.66
309.519	-62.12
309.733	81.24
309.947	-45.74
310.161	-12.97
310.374	40.28
310.588	124.24
310.802	-31.4
311.016	89.43
311.23	13.65
311.444	-53.93
311.658	-17.07
311.872	132.44
312.085	210.26
312.299	91.48
312.513	95.57
312.727	62.8
312.941	11.61
313.154	15.7
313.368	21.84
313.582	52.56
313.796	73.04
314.009	-51.88
314.223	120.15
314.437	11.61
314.651	89.43
314.864	-23.21
315.078	19.8
315.292	-41.64
315.505	40.28
315.719	73.04
315.933	7.51
316.146	56.66
316.36	25.94
316.573	130.39
316.787	36.18
317.001	-8.87
317.214	-84.65
317.428	-45.74
317.641	-19.11
317.855	105.81
318.068	36.18
318.282	58.71
318.495	185.68
318.709	85.33
318.922	-19.11
319.136	124.24
319.349	114
319.563	48.47
319.776	107.86
319.99	-133.8
320.203	124.24
320.417	13.65
320.63	50.52
320.843	167.25
321.057	75.09
321.27	56.66
321.483	85.33
321.697	109.91
321.91	95.57
322.124	66.9
322.337	17.75
322.55	-4.78
322.763	-0.68
322.977	-29.35
323.19	62.8
323.403	62.8
323.617	27.99
323.83	79.19
324.043	48.47
324.256	-2.73
324.469	-17.07
324.683	87.38
324.896	-10.92
325.109	7.51
325.322	-43.69
325.535	85.33
325.748	87.38
325.962	-6.83
326.175	81.24
326.388	52.56
326.601	134.48
326.814	-10.92
327.027	83.28
327.24	163.15
327.453	-37.55
327.666	50.52
327.879	83.28
328.092	13.65
328.305	73.04
328.518	44.37
328.731	-31.4
328.944	5.46
329.157	38.23
329.37	32.08
329.583	159.06
329.796	66.9
330.009	-70.31
330.222	66.9
330.435	83.28
330.648	97.62
330.861	58.71
331.073	81.24
331.286	71
331.499	48.47
331.712	-0.68
331.925	56.66
332.138	103.76
332.35	64.85
332.563	-53.93
332.776	107.86
332.989	-37.55
333.202	38.23
333.414	85.33
333.627	68.95
333.84	-47.79
334.053	42.32
334.265	36.18
334.478	23.89
334.691	75.09
334.903	38.23
335.116	-8.87
335.329	13.65
335.541	52.56
335.754	148.82
335.966	-84.65
336.179	27.99
336.392	-58.03
336.604	9.56
336.817	66.9
337.029	52.56
337.242	11.61
337.454	13.65
337.667	109.91
337.88	195.92
338.092	58.71
338.305	36.18
338.517	-12.97
338.729	71
338.942	146.77
339.154	-86.7
339.367	-62.12
339.579	3.41
339.792	-55.98
340.004	27.99
340.217	58.71
340.429	7.51
340.641	-39.59
340.854	-19.11
341.066	-31.4
341.278	114
341.491	136.53
341.703	-2.73
341.915	34.13
342.128	83.28
342.34	19.8
342.552	-19.11
342.764	-15.02
342.977	-8.87
343.189	81.24
343.401	116.05
343.613	-33.45
343.826	30.04
344.038	-148.14
344.25	83.28
344.462	38.23
344.674	-27.31
344.886	32.08
345.099	40.28
345.311	105.81
345.523	-55.98
345.735	-80.55
345.947	87.38
346.159	23.89
346.371	-53.93
346.583	7.51
346.795	177.49
347.007	-31.4
347.219	75.09
347.431	56.66
347.643	122.2
347.855	-17.07
348.067	152.91
348.279	-37.55
348.491	-15.02
348.703	91.48
348.915	-6.83
349.127	7.51
349.339	1.37
349.551	25.94
349.763	91.48
349.975	97.62
350.187	146.77
350.399	163.15
350.61	68.95
350.822	-31.4
351.034	71
351.246	111.96
351.458	68.95
351.669	107.86
351.881	34.13
352.093	97.62
352.305	116.05
352.517	60.76
352.728	138.58
352.94	30.04
353.152	38.23
353.363	-74.41
353.575	97.62
353.787	212.31
353.999	68.95
354.21	91.48
354.422	75.09
354.633	21.84
354.845	-53.93
355.057	87.38
355.268	9.56
355.48	99.67
355.692	15.7
355.903	58.71
356.115	36.18
356.326	-78.51
356.538	167.25
356.749	52.56
356.961	218.45
357.172	46.42
357.384	-45.74
357.595	243.03
357.807	46.42
358.018	-17.07
358.23	-0.68
358.441	189.78
358.653	89.43
358.864	-8.87
359.075	17.75
359.287	-23.21
359.498	85.33
359.709	64.85
359.921	50.52
360.132	46.42
360.344	50.52
360.555	-10.92
360.766	32.08
360.977	50.52
361.189	77.14
361.4	-49.83
361.611	79.19
361.823	204.11
362.034	-23.21
362.245	19.8
362.456	25.94
362.667	15.7
362.879	68.95
363.09	38.23
363.301	50.52
363.512	30.04
363.723	103.76
363.935	-113.32
364.146	85.33
364.357	85.33
364.568	5.46
364.779	-90.79
364.99	126.29
365.201	-0.68
365.412	107.86
365.623	-29.35
365.834	116.05
366.045	25.94
366.256	56.66
366.467	66.9
366.678	-21.16
366.889	161.11
367.1	30.04
367.311	152.91
367.522	1.37
367.733	111.96
367.944	64.85
368.155	1.37
368.366	50.52
368.577	73.04
368.788	111.96
368.999	-39.59
369.209	79.19
369.42	257.36
369.631	259.41
369.842	42.32
370.053	32.08
370.264	32.08
370.474	56.66
370.685	66.9
370.896	-68.27
371.107	79.19
371.317	40.28
371.528	17.75
371.739	146.77
371.95	44.37
372.16	32.08
372.371	-29.35
372.582	3.41
372.792	99.67
373.003	27.99
373.214	52.56
373.424	111.96
373.635	-4.78
373.846	101.72
374.056	128.34
374.267	114
374.477	68.95
374.688	44.37
374.898	38.23
375.109	30.04
375.319	81.24
375.53	97.62
375.74	173.39
375.951	-45.74
376.161	56.66
376.372	87.38
376.582	38.23
376.793	17.75
377.003	44.37
377.214	-68.27
377.424	58.71
377.635	13.65
377.845	-27.31
378.055	165.2
378.266	-55.98
378.476	-0.68
378.686	48.47
378.897	136.53
379.107	126.29
379.317	-6.83
379.528	-10.92
379.738	95.57
379.948	21.84
380.158	52.56
380.369	-29.35
380.579	52.56
380.789	13.65
380.999	32.08
381.21	56.66
381.42	206.16
381.63	73.04
381.84	95.57
382.05	38.23
382.261	52.56
382.471	144.72
382.681	48.47
382.891	159.06
383.101	25.94
383.311	-49.83
383.521	3.41
383.731	118.1
383.941	204.11
384.151	103.76
384.361	-37.55
384.571	11.61
384.781	54.61
384.991	179.54
385.201	138.58
385.411	73.04
385.621	-35.5
385.831	38.23
386.041	30.04
386.251	44.37
386.461	66.9
386.671	30.04
386.881	15.7
387.091	23.89
387.301	81.24
387.511	15.7
387.72	97.62
387.93	95.57
388.14	-88.75
388.35	52.56
388.56	124.24
388.769	85.33
388.979	5.46
389.189	-90.79
389.399	-53.93
389.609	101.72
389.818	77.14
390.028	91.48
390.238	58.71
390.447	23.89
390.657	21.84
390.867	3.41
391.076	-101.03
391.286	71
391.496	1.37
391.705	19.8
391.915	126.29
392.125	118.1
392.334	-45.74
392.544	62.8
392.753	50.52
392.963	25.94
393.172	21.84
393.382	-51.88
393.591	165.2
393.801	-72.36
394.01	197.97
394.22	97.62
394.429	60.76
394.639	68.95
394.848	73.04
395.058	21.84
395.267	79.19
395.477	150.87
395.686	19.8
395.895	130.39
396.105	197.97
396.314	46.42
396.524	25.94
396.733	-21.16
396.942	105.81
397.152	58.71
397.361	81.24
397.57	79.19
397.78	30.04
397.989	-15.02
398.198	140.63
398.407	7.51
398.617	7.51
398.826	3.41
399.035	5.46
399.244	122.2
399.453	85.33
399.663	103.76
399.872	25.94
400.081	-6.83
400.29	116.05
400.499	-0.68
400.708	91.48
400.917	42.32
401.127	9.56
401.336	-10.92
401.545	165.2
401.754	154.96
401.963	144.72
402.172	-6.83
402.381	62.8
402.59	58.71
402.799	23.89
403.008	116.05
403.217	44.37
403.426	58.71
403.635	-68.27
403.844	103.76
404.053	-8.87
404.262	3.41
404.471	154.96
404.68	97.62
404.888	52.56
405.097	58.71
405.306	68.95
405.515	83.28
405.724	50.52
405.933	91.48
406.142	83.28
406.35	124.24
406.559	58.71
406.768	-10.92
406.977	189.78
407.185	25.94
407.394	17.75
407.603	-78.51
407.812	52.56
408.02	109.91
408.229	19.8
408.438	42.32
408.646	-113.32
408.855	48.47
409.064	87.38
409.272	68.95
409.481	40.28
409.69	50.52
409.898	-33.45
410.107	68.95
410.315	124.24
410.524	-29.35
410.733	73.04
410.941	73.04
411.15	50.52
411.358	56.66
411.567	85.33
411.775	52.56
411.984	34.13
412.192	44.37
412.401	46.42
412.609	187.73
412.818	120.15
413.026	154.96
413.234	27.99
413.443	15.7
413.651	-6.83
413.86	48.47
414.068	138.58
414.276	177.49
414.485	-55.98
414.693	152.91
414.901	202.07
415.11	154.96
415.318	9.56
415.526	58.71
415.734	105.81
415.943	85.33
416.151	124.24
416.359	46.42
416.567	75.09
416.776	138.58
416.984	181.59
417.192	175.44
417.4	40.28
417.608	34.13
417.817	-45.74
418.025	144.72
418.233	148.82
418.441	-45.74
418.649	1.37
418.857	52.56
419.065	161.11
419.273	17.75
419.481	58.71
419.689	56.66
419.897	-2.73
420.105	-66.22
420.313	126.29
420.521	132.44
420.729	116.05
420.937	87.38
421.145	40.28
421.353	77.14
421.561	122.2
421.769	126.29
421.977	-12.97
422.185	146.77
422.393	58.71
422.601	150.87
422.809	7.51
423.017	60.76
423.224	17.75
423.432	140.63
423.64	68.95
423.848	85.33
424.056	9.56
424.263	93.52
424.471	93.52
424.679	157.01
424.887	-47.79
425.094	157.01
425.302	48.47
425.51	64.85
425.718	197.97
425.925	81.24
426.133	-17.07
426.341	232.79
426.548	38.23
426.756	44.37
426.964	142.68
427.171	50.52
427.379	120.15
427.586	105.81
427.794	73.04
428.001	220.5
428.209	75.09
428.417	214.35
428.624	171.35
428.832	83.28
429.039	150.87
429.247	91.48
429.454	91.48
429.662	193.87
429.869	124.24
430.076	109.91
430.284	154.96
430.491	243.03
430.699	169.3
430.906	294.22
431.114	175.44
431.321	175.44
431.528	175.44
431.736	144.72
431.943	159.06
432.15	286.03
432.358	210.26
432.565	281.94
432.772	11.61
432.979	224.59
433.187	167.25
433.394	216.4
433.601	116.05
433.808	269.65
434.016	189.78
434.223	273.75
434.43	288.08
434.637	228.69
434.844	232.79
435.052	208.21
435.259	283.98
435.466	335.18
435.673	236.88
435.88	347.47
436.087	419.15
436.294	374.1
436.501	380.24
436.708	273.75
436.915	294.22
437.122	429.39
437.329	294.22
437.537	333.14
437.743	402.77
437.95	484.69
438.157	384.34
438.364	505.17
438.571	380.24
438.778	417.1
438.985	478.54
439.192	519.5
439.399	439.63
439.606	441.68
439.813	576.84
440.02	613.71
440.227	728.39
440.433	646.48
440.64	546.12
440.847	537.93
441.054	628.04
441.261	847.18
441.467	689.48
441.674	728.39
441.881	722.25
442.088	683.34
442.294	814.41
442.501	857.42
442.708	949.57
442.914	804.17
443.121	861.51
443.328	931.14
443.534	1021.25
443.741	1015.11
443.948	824.65
444.154	1099.08
444.361	1342.78
444.568	1129.8
444.774	1115.46
444.981	1146.18
445.187	1283.39
445.394	1314.11
445.6	1273.15
445.807	1336.64
446.013	1422.66
446.22	1316.16
446.426	1430.85
446.633	1641.79
446.839	1828.15
447.046	1600.83
447.252	1901.88
447.459	1791.29
447.665	1701.18
447.871	2075.96
448.078	2141.49
448.284	2047.29
448.491	2114.87
448.697	2266.42
448.903	2374.96
449.11	2381.1
449.316	2346.29
449.522	2557.23
449.728	2731.31
449.935	2837.8
450.141	2923.82
450.347	3132.71
450.553	2903.34
450.76	3132.71
450.966	3339.55
451.172	3380.51
451.378	3487.01
451.584	3568.93
451.791	3820.83
451.997	3941.66
452.203	4066.58
452.409	4121.88
452.615	4422.93
452.821	4263.19
453.027	4379.92
453.233	4824.33
453.44	4787.47
453.646	4828.43
453.852	5158.15
454.058	5403.91
454.264	5514.5
454.47	5848.32
454.676	5950.71
454.882	6378.74
455.088	6237.43
455.294	6468.85
455.5	6941.93
455.705	7314.66
455.911	7333.09
456.117	7597.28
456.323	7843.04
456.529	7720.16
456.735	8662.23
456.941	8744.14
457.147	9241.8
457.352	9358.53
457.558	9546.95
457.764	10325.18
457.97	10233.02
458.176	10738.87
458.381	11431.08
458.587	11474.09
458.793	12100.76
458.999	12117.15
459.204	13696.13
459.41	14412.92
459.616	14103.68
459.821	14857.33
460.027	15414.38
460.233	16116.83
460.438	16227.42
460.644	17222.73
460.85	17398.86
461.055	17951.81
461.261	18971.7
461.466	18504.76
461.672	18926.64
461.878	20816.92
462.083	20829.21
462.289	21208.08
462.494	21818.38
462.7	22152.2
462.905	22563.84
463.111	24298.47
463.316	25666.51
463.522	25684.94
463.727	26747.84
463.932	27990.95
464.138	28609.44
464.343	30131.08
464.549	30032.78
464.754	32263.02
464.959	32785.25
465.165	33137.5
465.37	33448.79
465.575	33282.91
465.781	35896.11
465.986	36725.54
466.191	36084.53
466.397	36139.82
466.602	35468.09
466.807	37366.56
467.012	38382.35
467.218	38658.82
467.423	39136
467.628	39703.29
467.833	41679.58
468.038	40776.42
468.244	40403.69
468.449	42687.18
468.654	41452.25
468.859	41736.92
469.064	41521.88
469.269	40616.68
