Data from USB4F104151__29__10-42-16-484.txt Node

Date: Wed Feb 26 10:42:16 EST 2025
User: louis
Spectrometer: USB4F10415
Trigger mode: 4
Integration Time (sec): 1.000000E-1
Scans to average: 1
Electric dark correction enabled: true
Nonlinearity correction enabled: false
Boxcar width: 0
XAxis mode: Wavelengths
Number of Pixels in Spectrum: 3648
>>>>>Begin Spectral Data<<<<<
178.204	-350.03
178.424	-350.03
178.644	-350.03
178.864	-399.18
179.084	-386.9
179.304	-32.6
179.524	-5.97
179.744	28.84
179.964	4.27
180.184	30.89
180.404	4.27
180.624	-59.22
180.844	26.79
181.064	-51.03
181.283	73.9
181.503	-40.79
181.723	20.65
181.943	-87.89
182.163	159.91
182.383	6.31
182.602	149.67
182.822	98.47
183.042	88.23
183.262	28.84
183.482	0.17
183.701	-1.88
183.921	20.65
184.141	-132.95
184.361	135.34
184.58	41.13
184.8	34.99
185.02	10.41
185.239	86.19
185.459	69.8
185.679	102.57
185.898	-87.89
186.118	90.28
186.338	67.75
186.557	30.89
186.777	-75.6
186.997	61.61
187.216	-32.6
187.436	161.96
187.655	73.9
187.875	22.7
188.095	14.51
188.314	98.47
188.534	96.43
188.753	-24.4
188.973	131.24
189.192	172.2
189.412	-22.36
189.631	67.75
189.851	82.09
190.07	137.38
190.29	-100.18
190.509	8.36
190.729	49.32
190.948	176.3
191.168	254.12
191.387	98.47
191.607	2.22
191.826	77.99
192.045	-18.26
192.265	26.79
192.484	-5.97
192.704	86.19
192.923	-100.18
193.142	129.19
193.362	135.34
193.581	137.38
193.8	20.65
194.02	86.19
194.239	30.89
194.458	47.27
194.678	-18.26
194.897	47.27
195.116	39.08
195.335	16.55
195.555	14.51
195.774	-8.02
195.993	161.96
196.212	135.34
196.432	-26.45
196.651	-57.17
196.87	-1.88
197.089	221.35
197.308	34.99
197.528	102.57
197.747	-28.5
197.966	14.51
198.185	108.71
198.404	-42.84
198.623	94.38
198.842	86.19
199.062	80.04
199.281	147.62
199.5	71.85
199.719	-14.17
199.938	28.84
200.157	47.27
200.376	168.1
200.595	143.53
200.814	86.19
201.033	-5.97
201.252	153.77
201.471	90.28
201.69	69.8
201.909	47.27
202.128	114.86
202.347	37.03
202.566	82.09
202.785	-20.31
203.004	8.36
203.223	280.74
203.442	43.18
203.661	-81.75
203.879	127.14
204.098	71.85
204.317	-71.51
204.536	32.94
204.755	41.13
204.974	131.24
205.193	-38.74
205.411	121
205.63	123.05
205.849	0.17
206.068	14.51
206.287	-8.02
206.505	157.86
206.724	12.46
206.943	-65.36
207.162	6.31
207.381	131.24
207.599	26.79
207.818	22.7
208.037	-40.79
208.255	108.71
208.474	-24.4
208.693	104.62
208.911	28.84
209.13	69.8
209.349	86.19
209.567	96.43
209.786	45.23
210.005	92.33
210.223	82.09
210.442	-120.66
210.661	24.75
210.879	55.47
211.098	53.42
211.316	41.13
211.535	34.99
211.753	30.89
211.972	104.62
212.191	-102.23
212.409	-8.02
212.628	139.43
212.846	-12.12
213.065	16.55
213.283	116.9
213.502	84.14
213.72	10.41
213.938	65.71
214.157	34.99
214.375	65.71
214.594	51.37
214.812	-10.07
215.031	-5.97
215.249	14.51
215.467	-10.07
215.686	16.55
215.904	100.52
216.122	-14.17
216.341	207.02
216.559	37.03
216.778	69.8
216.996	127.14
217.214	4.27
217.432	86.19
217.651	-73.56
217.869	-12.12
218.087	-10.07
218.306	30.89
218.524	84.14
218.742	4.27
218.96	98.47
219.179	-48.98
219.397	0.17
219.615	235.69
219.833	61.61
220.051	24.75
220.27	133.29
220.488	108.71
220.706	-12.12
220.924	-34.64
221.142	-22.36
221.36	77.99
221.578	82.09
221.796	-42.84
222.015	88.23
222.233	161.96
222.451	151.72
222.669	30.89
222.887	90.28
223.105	-44.88
223.323	37.03
223.541	-51.03
223.759	59.56
223.977	0.17
224.195	90.28
224.413	123.05
224.631	98.47
224.849	211.11
225.067	258.21
225.285	10.41
225.503	6.31
225.721	-163.67
225.939	30.89
226.157	32.94
226.375	186.54
226.592	-69.46
226.81	26.79
227.028	129.19
227.246	139.43
227.464	-3.93
227.682	145.58
227.9	10.41
228.117	65.71
228.335	96.43
228.553	30.89
228.771	-22.36
228.989	41.13
229.206	30.89
229.424	-8.02
229.642	-38.74
229.86	-87.89
230.077	73.9
230.295	55.47
230.513	86.19
230.731	61.61
230.948	157.86
231.166	198.82
231.384	39.08
231.601	34.99
231.819	114.86
232.037	-59.22
232.254	-30.55
232.472	37.03
232.689	2.22
232.907	75.95
233.125	55.47
233.342	20.65
233.56	2.22
233.777	-3.93
233.995	71.85
234.213	116.9
234.43	147.62
234.648	77.99
234.865	26.79
235.083	53.42
235.3	4.27
235.518	110.76
235.735	112.81
235.953	125.1
236.17	-12.12
236.388	63.66
236.605	37.03
236.822	77.99
237.04	174.25
237.257	-5.97
237.475	-8.02
237.692	28.84
237.909	82.09
238.127	16.55
238.344	90.28
238.562	71.85
238.779	-24.4
238.996	-24.4
239.214	-38.74
239.431	102.57
239.648	12.46
239.865	28.84
240.083	69.8
240.3	2.22
240.517	49.32
240.735	110.76
240.952	190.63
241.169	14.51
241.386	82.09
241.603	-12.12
241.821	-73.56
242.038	75.95
242.255	137.38
242.472	-46.93
242.689	0.17
242.907	92.33
243.124	47.27
243.341	8.36
243.558	-73.56
243.775	-79.7
243.992	-42.84
244.209	49.32
244.426	164.01
244.643	0.17
244.86	-12.12
245.078	164.01
245.295	114.86
245.512	-3.93
245.729	73.9
245.946	84.14
246.163	84.14
246.38	-104.28
246.597	59.56
246.814	82.09
247.031	59.56
247.248	-38.74
247.464	61.61
247.681	59.56
247.898	80.04
248.115	-5.97
248.332	8.36
248.549	125.1
248.766	180.39
248.983	92.33
249.2	88.23
249.417	118.95
249.633	16.55
249.85	125.1
250.067	-28.5
250.284	92.33
250.501	69.8
250.717	69.8
250.934	-16.21
251.151	37.03
251.368	4.27
251.585	65.71
251.801	28.84
252.018	-26.45
252.235	41.13
252.451	6.31
252.668	51.37
252.885	82.09
253.102	67.75
253.318	-46.93
253.535	22.7
253.752	-48.98
253.968	-14.17
254.185	-10.07
254.401	59.56
254.618	41.13
254.835	14.51
255.051	135.34
255.268	71.85
255.484	61.61
255.701	71.85
255.917	47.27
256.134	-28.5
256.351	65.71
256.567	-38.74
256.784	34.99
257	-36.69
257.217	137.38
257.433	34.99
257.65	32.94
257.866	182.44
258.082	-18.26
258.299	-40.79
258.515	129.19
258.732	2.22
258.948	-5.97
259.165	37.03
259.381	-51.03
259.597	131.24
259.814	-18.26
260.03	-1.88
260.246	-46.93
260.463	67.75
260.679	141.48
260.895	80.04
261.112	63.66
261.328	18.6
261.544	-34.64
261.761	137.38
261.977	-8.02
262.193	-8.02
262.409	71.85
262.626	-22.36
262.842	0.17
263.058	-14.17
263.274	51.37
263.49	41.13
263.707	86.19
263.923	121
264.139	-57.17
264.355	-30.55
264.571	168.1
264.787	6.31
265.004	137.38
265.22	63.66
265.436	-79.7
265.652	143.53
265.868	32.94
266.084	-1.88
266.3	18.6
266.516	-40.79
266.732	-18.26
266.948	-1.88
267.164	55.47
267.38	118.95
267.596	16.55
267.812	151.72
268.028	24.75
268.244	-5.97
268.46	75.95
268.676	55.47
268.892	28.84
269.108	20.65
269.324	-14.17
269.54	-42.84
269.756	106.67
269.972	-71.51
270.188	-26.45
270.403	-26.45
270.619	18.6
270.835	82.09
271.051	71.85
271.267	34.99
271.483	2.22
271.698	53.42
271.914	30.89
272.13	12.46
272.346	55.47
272.562	39.08
272.777	118.95
272.993	39.08
273.209	-18.26
273.425	112.81
273.64	-89.94
273.856	112.81
274.072	-14.17
274.287	2.22
274.503	59.56
274.719	77.99
274.934	8.36
275.15	-30.55
275.366	18.6
275.581	-28.5
275.797	34.99
276.012	-22.36
276.228	28.84
276.444	16.55
276.659	123.05
276.875	-16.21
277.09	-28.5
277.306	51.37
277.521	96.43
277.737	10.41
277.952	77.99
278.168	41.13
278.383	12.46
278.599	28.84
278.814	127.14
279.03	16.55
279.245	104.62
279.461	-18.26
279.676	86.19
279.892	-44.88
280.107	-5.97
280.322	73.9
280.538	39.08
280.753	-22.36
280.969	94.38
281.184	10.41
281.399	157.86
281.615	80.04
281.83	98.47
282.045	-81.75
282.26	51.37
282.476	26.79
282.691	112.81
282.906	71.85
283.122	47.27
283.337	-42.84
283.552	30.89
283.767	32.94
283.983	94.38
284.198	-38.74
284.413	84.14
284.628	-51.03
284.843	-34.64
285.058	116.9
285.274	39.08
285.489	51.37
285.704	59.56
285.919	-36.69
286.134	-38.74
286.349	30.89
286.564	37.03
286.779	102.57
286.995	12.46
287.21	-104.28
287.425	88.23
287.64	34.99
287.855	88.23
288.07	-30.55
288.285	139.43
288.5	86.19
288.715	41.13
288.93	96.43
289.145	-18.26
289.36	32.94
289.575	-83.8
289.79	106.67
290.004	75.95
290.219	88.23
290.434	-28.5
290.649	16.55
290.864	16.55
291.079	-16.21
291.294	108.71
291.509	94.38
291.724	26.79
291.938	-18.26
292.153	125.1
292.368	51.37
292.583	10.41
292.798	114.86
293.012	59.56
293.227	24.75
293.442	-8.02
293.657	96.43
293.871	94.38
294.086	45.23
294.301	174.25
294.516	139.43
294.73	-3.93
294.945	-145.24
295.16	-10.07
295.374	143.53
295.589	71.85
295.804	30.89
296.018	84.14
296.233	123.05
296.447	75.95
296.662	-32.6
296.877	116.9
297.091	92.33
297.306	-18.26
297.52	49.32
297.735	131.24
297.949	-3.93
298.164	55.47
298.378	18.6
298.593	-73.56
298.807	-24.4
299.022	73.9
299.236	135.34
299.451	-34.64
299.665	2.22
299.88	-10.07
300.094	32.94
300.309	51.37
300.523	22.7
300.737	-8.02
300.952	90.28
301.166	22.7
301.381	-57.17
301.595	-1.88
301.809	110.76
302.024	-20.31
302.238	-8.02
302.452	98.47
302.667	-104.28
302.881	131.24
303.095	96.43
303.309	75.95
303.524	-24.4
303.738	37.03
303.952	6.31
304.166	37.03
304.381	-75.6
304.595	184.49
304.809	12.46
305.023	49.32
305.237	49.32
305.452	28.84
305.666	86.19
305.88	75.95
306.094	63.66
306.308	43.18
306.522	86.19
306.736	104.62
306.95	80.04
307.164	49.32
307.379	22.7
307.593	80.04
307.807	161.96
308.021	84.14
308.235	37.03
308.449	-61.27
308.663	-32.6
308.877	231.59
309.091	55.47
309.305	24.75
309.519	-40.79
309.733	84.14
309.947	14.51
310.161	133.29
310.374	14.51
310.588	129.19
310.802	-59.22
311.016	2.22
311.23	127.14
311.444	-67.41
311.658	61.61
311.872	102.57
312.085	137.38
312.299	116.9
312.513	155.82
312.727	47.27
312.941	-67.41
313.154	96.43
313.368	82.09
313.582	-42.84
313.796	26.79
314.009	10.41
314.223	125.1
314.437	26.79
314.651	125.1
314.864	14.51
315.078	22.7
315.292	-63.32
315.505	0.17
315.719	47.27
315.933	6.31
316.146	16.55
316.36	-22.36
316.573	174.25
316.787	131.24
317.001	57.51
317.214	-46.93
317.428	88.23
317.641	-51.03
317.855	-28.5
318.068	55.47
318.282	2.22
318.495	172.2
318.709	-1.88
318.922	12.46
319.136	172.2
319.349	71.85
319.563	16.55
319.776	98.47
319.99	-98.13
320.203	123.05
320.417	34.99
320.63	125.1
320.843	180.39
321.057	34.99
321.27	4.27
321.483	157.86
321.697	164.01
321.91	-30.55
322.124	75.95
322.337	-3.93
322.55	26.79
322.763	43.18
322.977	96.43
323.19	-16.21
323.403	43.18
323.617	116.9
323.83	104.62
324.043	10.41
324.256	57.51
324.469	-10.07
324.683	121
324.896	86.19
325.109	63.66
325.322	-24.4
325.535	170.15
325.748	86.19
325.962	-26.45
326.175	86.19
326.388	110.76
326.601	110.76
326.814	14.51
327.027	45.23
327.24	104.62
327.453	-65.36
327.666	51.37
327.879	82.09
328.092	135.34
328.305	45.23
328.518	28.84
328.731	41.13
328.944	-16.21
329.157	47.27
329.37	-38.74
329.583	112.81
329.796	127.14
330.009	-59.22
330.222	98.47
330.435	110.76
330.648	82.09
330.861	86.19
331.073	43.18
331.286	69.8
331.499	8.36
331.712	-96.08
331.925	80.04
332.138	0.17
332.35	90.28
332.563	-34.64
332.776	186.54
332.989	20.65
333.202	73.9
333.414	2.22
333.627	63.66
333.84	63.66
334.053	26.79
334.265	47.27
334.478	12.46
334.691	108.71
334.903	47.27
335.116	53.42
335.329	59.56
335.541	-3.93
335.754	129.19
335.966	-77.65
336.179	12.46
336.392	6.31
336.604	22.7
336.817	131.24
337.029	41.13
337.242	16.55
337.454	53.42
337.667	4.27
337.88	143.53
338.092	51.37
338.305	53.42
338.517	-5.97
338.729	55.47
338.942	176.3
339.154	-18.26
339.367	20.65
339.579	-24.4
339.792	-12.12
340.004	192.68
340.217	51.37
340.429	127.14
340.641	-28.5
340.854	24.75
341.066	51.37
341.278	106.67
341.491	176.3
341.703	82.09
341.915	-5.97
342.128	145.58
342.34	84.14
342.552	-8.02
342.764	18.6
342.977	86.19
343.189	4.27
343.401	96.43
343.613	-73.56
343.826	41.13
344.038	-55.12
344.25	34.99
344.462	6.31
344.674	69.8
344.886	-40.79
345.099	61.61
345.311	30.89
345.523	-44.88
345.735	-22.36
345.947	65.71
346.159	16.55
346.371	86.19
346.583	20.65
346.795	133.29
347.007	57.51
347.219	94.38
347.431	41.13
347.643	219.3
347.855	55.47
348.067	127.14
348.279	4.27
348.491	43.18
348.703	49.32
348.915	-18.26
349.127	-67.41
349.339	12.46
349.551	-10.07
349.763	84.14
349.975	28.84
350.187	59.56
350.399	100.52
350.61	88.23
350.822	59.56
351.034	88.23
351.246	102.57
351.458	108.71
351.669	59.56
351.881	86.19
352.093	164.01
352.305	123.05
352.517	10.41
352.728	94.38
352.94	41.13
353.152	90.28
353.363	-73.56
353.575	41.13
353.787	121
353.999	57.51
354.21	164.01
354.422	26.79
354.633	-12.12
354.845	106.67
355.057	59.56
355.268	77.99
355.48	149.67
355.692	-18.26
355.903	18.6
356.115	-18.26
356.326	-120.66
356.538	184.49
356.749	73.9
356.961	127.14
357.172	86.19
357.384	-34.64
357.595	247.97
357.807	57.51
358.018	-36.69
358.23	28.84
358.441	139.43
358.653	61.61
358.864	65.71
359.075	-59.22
359.287	84.14
359.498	65.71
359.709	145.58
359.921	-20.31
360.132	90.28
360.344	86.19
360.555	-18.26
360.766	90.28
360.977	-12.12
361.189	139.43
361.4	51.37
361.611	133.29
361.823	106.67
362.034	30.89
362.245	-48.98
362.456	104.62
362.667	71.85
362.879	-83.8
363.09	153.77
363.301	51.37
363.512	34.99
363.723	-57.17
363.935	-18.26
364.146	133.29
364.357	59.56
364.568	59.56
364.779	-83.8
364.99	180.39
365.201	4.27
365.412	180.39
365.623	-96.08
365.834	90.28
366.045	30.89
366.256	180.39
366.467	88.23
366.678	-34.64
366.889	-30.55
367.1	22.7
367.311	28.84
367.522	4.27
367.733	61.61
367.944	57.51
368.155	86.19
368.366	110.76
368.577	161.96
368.788	90.28
368.999	0.17
369.209	131.24
369.42	180.39
369.631	276.65
369.842	141.48
370.053	67.75
370.264	168.1
370.474	-34.64
370.685	77.99
370.896	-22.36
371.107	172.2
371.317	86.19
371.528	63.66
371.739	129.19
371.95	127.14
372.16	69.8
372.371	-38.74
372.582	-34.64
372.792	47.27
373.003	63.66
373.214	49.32
373.424	159.91
373.635	49.32
373.846	153.77
374.056	6.31
374.267	86.19
374.477	90.28
374.688	61.61
374.898	116.9
375.109	98.47
375.319	153.77
375.53	129.19
375.74	116.9
375.951	43.18
376.161	92.33
376.372	168.1
376.582	-32.6
376.793	80.04
377.003	-36.69
377.214	63.66
377.424	47.27
377.635	-14.17
377.845	4.27
378.055	96.43
378.266	-18.26
378.476	41.13
378.686	55.47
378.897	88.23
379.107	155.82
379.317	26.79
379.528	116.9
379.738	82.09
379.948	-18.26
380.158	139.43
380.369	30.89
380.579	71.85
380.789	-26.45
380.999	133.29
381.21	164.01
381.42	245.93
381.63	34.99
381.84	129.19
382.05	141.48
382.261	114.86
382.471	196.78
382.681	80.04
382.891	143.53
383.101	57.51
383.311	12.46
383.521	8.36
383.731	145.58
383.941	84.14
384.151	18.6
384.361	67.75
384.571	-3.93
384.781	53.42
384.991	178.34
385.201	90.28
385.411	59.56
385.621	65.71
385.831	104.62
386.041	80.04
386.251	53.42
386.461	139.43
386.671	43.18
386.881	92.33
387.091	73.9
387.301	176.3
387.511	2.22
387.72	100.52
387.93	125.1
388.14	24.75
388.35	51.37
388.56	170.15
388.769	112.81
388.979	61.61
389.189	39.08
389.399	4.27
389.609	86.19
389.818	84.14
390.028	100.52
390.238	69.8
390.447	28.84
390.657	-28.5
390.867	26.79
391.076	-28.5
391.286	30.89
391.496	57.51
391.705	39.08
391.915	127.14
392.125	147.62
392.334	22.7
392.544	202.92
392.753	63.66
392.963	-8.02
393.172	98.47
393.382	16.55
393.591	172.2
393.801	55.47
394.01	151.72
394.22	121
394.429	47.27
394.639	16.55
394.848	94.38
395.058	57.51
395.267	59.56
395.477	94.38
395.686	55.47
395.895	196.78
396.105	235.69
396.314	90.28
396.524	49.32
396.733	43.18
396.942	112.81
397.152	65.71
397.361	161.96
397.57	34.99
397.78	123.05
397.989	63.66
398.198	221.35
398.407	55.47
398.617	-22.36
398.826	65.71
399.035	51.37
399.244	114.86
399.453	61.61
399.663	51.37
399.872	34.99
400.081	65.71
400.29	121
400.499	20.65
400.708	114.86
400.917	14.51
401.127	-24.4
401.336	22.7
401.545	176.3
401.754	104.62
401.963	121
402.172	8.36
402.381	-67.41
402.59	73.9
402.799	-18.26
403.008	108.71
403.217	153.77
403.426	88.23
403.635	-12.12
403.844	37.03
404.053	30.89
404.262	100.52
404.471	161.96
404.68	55.47
404.888	82.09
405.097	10.41
405.306	69.8
405.515	149.67
405.724	61.61
405.933	168.1
406.142	61.61
406.35	129.19
406.559	116.9
406.768	-1.88
406.977	166.06
407.185	45.23
407.394	139.43
407.603	-42.84
407.812	6.31
408.02	153.77
408.229	90.28
408.438	172.2
408.646	-3.93
408.855	2.22
409.064	61.61
409.272	26.79
409.481	90.28
409.69	-16.21
409.898	-65.36
410.107	84.14
410.315	166.06
410.524	-8.02
410.733	80.04
410.941	77.99
411.15	168.1
411.358	110.76
411.567	157.86
411.775	110.76
411.984	96.43
412.192	59.56
412.401	14.51
412.609	168.1
412.818	90.28
413.026	30.89
413.234	-24.4
413.443	57.51
413.651	-10.07
413.86	37.03
414.068	166.06
414.276	182.44
414.485	-22.36
414.693	149.67
414.901	250.02
415.11	32.94
415.318	86.19
415.526	100.52
415.734	118.95
415.943	41.13
416.151	184.49
416.359	59.56
416.567	63.66
416.776	88.23
416.984	114.86
417.192	135.34
417.4	4.27
417.608	98.47
417.817	-34.64
418.025	147.62
418.233	192.68
418.441	-44.88
418.649	55.47
418.857	53.42
419.065	166.06
419.273	45.23
419.481	84.14
419.689	28.84
419.897	65.71
420.105	-12.12
420.313	137.38
420.521	168.1
420.729	133.29
420.937	34.99
421.145	10.41
421.353	51.37
421.561	245.93
421.769	73.9
421.977	2.22
422.185	131.24
422.393	84.14
422.601	225.45
422.809	92.33
423.017	141.48
423.224	30.89
423.432	129.19
423.64	12.46
423.848	137.38
424.056	67.75
424.263	153.77
424.471	143.53
424.679	131.24
424.887	30.89
425.094	194.73
425.302	75.95
425.51	104.62
425.718	198.82
425.925	182.44
426.133	12.46
426.341	325.8
426.548	164.01
426.756	61.61
426.964	137.38
427.171	-26.45
427.379	114.86
427.586	104.62
427.794	184.49
428.001	207.02
428.209	141.48
428.417	196.78
428.624	106.67
428.832	209.06
429.039	139.43
429.247	202.92
429.454	159.91
429.662	250.02
429.869	200.87
430.076	71.85
430.284	161.96
430.491	317.61
430.699	178.34
430.906	245.93
431.114	178.34
431.321	209.06
431.528	151.72
431.736	145.58
431.943	161.96
432.15	198.82
432.358	252.07
432.565	313.51
432.772	39.08
432.979	243.88
433.187	211.11
433.394	282.79
433.601	209.06
433.808	254.12
434.016	415.91
434.223	338.09
434.43	317.61
434.637	352.42
434.844	389.28
435.052	340.13
435.259	354.47
435.466	313.51
435.673	366.76
435.88	352.42
436.087	489.64
436.294	463.01
436.501	420
436.708	331.94
436.915	444.58
437.122	460.96
437.329	368.81
437.537	465.06
437.743	485.54
437.95	551.07
438.157	495.78
438.364	553.12
438.571	563.36
438.778	546.98
438.985	688.29
439.192	690.34
439.399	614.56
439.606	714.91
439.813	645.28
440.02	778.4
440.227	888.99
440.433	837.79
440.64	829.6
440.847	772.25
441.054	872.61
441.261	960.67
441.467	915.61
441.674	897.18
441.881	1087.64
442.088	934.04
442.294	1093.79
442.501	1075.35
442.708	1214.62
442.914	1114.27
443.121	1208.47
443.328	1286.3
443.534	1409.17
443.741	1317.01
443.948	1196.18
444.154	1446.04
444.361	1554.58
444.568	1472.66
444.774	1560.72
444.981	1544.34
445.187	1697.94
445.394	1767.57
445.6	1702.03
445.807	1972.36
446.013	1894.54
446.22	1837.2
446.426	2193.55
446.633	2209.93
446.839	2414.73
447.046	2082.95
447.252	2422.92
447.459	2539.65
447.665	2412.68
447.871	2631.81
448.078	2883.71
448.284	2820.22
448.491	2881.66
448.697	3061.88
448.903	3367.03
449.11	3348.6
449.316	3180.67
449.522	3487.86
449.728	3657.84
449.935	3739.76
450.141	3801.2
450.347	4020.33
450.553	4192.36
450.76	4253.8
450.966	4257.9
451.172	4397.16
451.378	4700.26
451.584	4878.43
451.791	5150.81
451.997	5183.58
452.203	5234.78
452.409	5609.56
452.615	5785.68
452.821	5673.04
453.027	5775.44
453.233	6692.93
453.44	6269
453.646	6721.6
453.852	6891.59
454.058	7268.41
454.264	7407.67
454.47	7733.3
454.676	7878.71
454.882	8765.48
455.088	8278.06
455.294	8796.2
455.5	9240.61
455.705	9766.93
455.911	9838.61
456.117	10180.62
456.323	10479.63
456.529	10373.13
456.735	11417.6
456.941	11827.19
457.147	12126.19
457.352	12363.76
457.558	12795.88
457.764	13733.85
457.97	14153.68
458.176	14421.97
458.381	15130.56
458.587	15669.18
458.793	16314.29
458.999	16320.43
459.204	18448.27
459.41	18683.79
459.616	18677.65
459.821	19922.81
460.027	20742
460.233	21682.02
460.438	21749.6
460.644	23195.46
460.85	23140.17
461.055	23994.17
461.261	25448.23
461.466	24872.75
461.672	25102.12
461.878	28258.04
462.083	27944.7
462.289	28653.3
462.494	29587.18
462.7	29630.18
462.905	30357.21
463.111	32681.66
463.316	33959.59
463.522	35135.12
463.727	36060.8
463.932	37668.46
464.138	38209.12
464.343	39894.6
464.549	40382.02
464.754	43187.74
464.959	44248.58
465.165	45067.77
465.37	44535.3
465.575	44680.7
465.781	47896.02
465.986	49126.85
466.191	48555.46
466.397	49055.17
466.602	47619.54
466.807	50197.93
467.012	51619.22
467.218	51752.34
467.423	52002.19
467.628	53300.61
467.833	56055.12
468.038	54877.54
468.244	54109.55
