Data from USB4F104151__251__11-20-04-635.txt Node

Date: Wed Feb 26 11:20:04 EST 2025
User: louis
Spectrometer: USB4F10415
Trigger mode: 4
Integration Time (sec): 1.000000E-1
Scans to average: 1
Electric dark correction enabled: true
Nonlinearity correction enabled: false
Boxcar width: 0
XAxis mode: Wavelengths
Number of Pixels in Spectrum: 3648
>>>>>Begin Spectral Data<<<<<
178.204	-428.03
178.424	-428.03
178.644	-428.03
178.864	-425.98
179.084	-413.69
179.304	32.77
179.524	-30.72
179.744	12.29
179.964	26.62
180.184	-34.82
180.404	0
180.624	-57.34
180.844	-28.67
181.064	-38.91
181.283	73.73
181.503	-38.91
181.723	83.97
181.943	-92.16
182.163	137.21
182.383	22.53
182.602	-49.15
182.822	120.83
183.042	71.68
183.262	-32.77
183.482	-38.91
183.701	-49.15
183.921	28.67
184.141	-88.06
184.361	-16.38
184.58	90.11
184.8	-20.48
185.02	-40.96
185.239	94.21
185.459	96.25
185.679	45.06
185.898	-94.21
186.118	61.44
186.338	-18.43
186.557	32.77
186.777	-90.11
186.997	-20.48
187.216	-43.01
187.436	200.7
187.655	122.88
187.875	69.63
188.095	-16.38
188.314	92.16
188.534	20.48
188.753	-118.78
188.973	112.64
189.192	118.78
189.412	-61.44
189.631	-81.92
189.851	-36.86
190.07	75.77
190.29	-28.67
190.509	0
190.729	38.91
190.948	49.15
191.168	227.32
191.387	79.87
191.607	20.48
191.826	34.82
192.045	-106.49
192.265	-47.1
192.484	32.77
192.704	-14.34
192.923	-63.49
193.142	104.45
193.362	81.92
193.581	100.35
193.8	81.92
194.02	10.24
194.239	32.77
194.458	30.72
194.678	16.38
194.897	-34.82
195.116	10.24
195.335	20.48
195.555	86.01
195.774	-24.58
195.993	26.62
196.212	18.43
196.432	-12.29
196.651	-12.29
196.87	-10.24
197.089	260.09
197.308	38.91
197.528	53.25
197.747	-104.45
197.966	26.62
198.185	88.06
198.404	-86.01
198.623	120.83
198.842	94.21
199.062	34.82
199.281	92.16
199.5	-38.91
199.719	-6.14
199.938	81.92
200.157	18.43
200.376	102.4
200.595	118.78
200.814	43.01
201.033	-43.01
201.252	90.11
201.471	65.53
201.69	28.67
201.909	86.01
202.128	120.83
202.347	28.67
202.566	-36.86
202.785	-71.68
203.004	-32.77
203.223	251.9
203.442	-14.34
203.661	-45.06
203.879	51.2
204.098	143.36
204.317	-47.1
204.536	12.29
204.755	8.19
204.974	73.73
205.193	-55.3
205.411	106.49
205.63	57.34
205.849	38.91
206.068	-4.1
206.287	-77.82
206.505	77.82
206.724	53.25
206.943	-45.06
207.162	-102.4
207.381	-34.82
207.599	43.01
207.818	-10.24
208.037	-45.06
208.255	24.58
208.474	51.2
208.693	47.1
208.911	-96.25
209.13	65.53
209.349	65.53
209.567	75.77
209.786	51.2
210.005	67.58
210.223	16.38
210.442	-34.82
210.661	6.14
210.879	34.82
211.098	-20.48
211.316	106.49
211.535	98.3
211.753	-20.48
211.972	110.59
212.191	-45.06
212.409	47.1
212.628	18.43
212.846	-69.63
213.065	63.49
213.283	88.06
213.502	14.34
213.72	-4.1
213.938	-26.62
214.157	4.1
214.375	98.3
214.594	-61.44
214.812	-26.62
215.031	-53.25
215.249	-40.96
215.467	16.38
215.686	-38.91
215.904	83.97
216.122	-16.38
216.341	63.49
216.559	14.34
216.778	122.88
216.996	135.17
217.214	12.29
217.432	-71.68
217.651	-120.83
217.869	-24.58
218.087	24.58
218.306	38.91
218.524	-10.24
218.742	20.48
218.96	104.45
219.179	-24.58
219.397	14.34
219.615	149.5
219.833	133.12
220.051	0
220.27	63.49
220.488	94.21
220.706	88.06
220.924	-34.82
221.142	10.24
221.36	30.72
221.578	36.86
221.796	-10.24
222.015	20.48
222.233	16.38
222.451	165.89
222.669	-65.54
222.887	26.62
223.105	-79.87
223.323	18.43
223.541	-59.39
223.759	-47.1
223.977	16.38
224.195	122.88
224.413	28.67
224.631	-30.72
224.849	22.53
225.067	206.84
225.285	-57.34
225.503	-69.63
225.721	-45.06
225.939	-36.86
226.157	59.39
226.375	169.98
226.592	-40.96
226.81	-32.77
227.028	90.11
227.246	53.25
227.464	12.29
227.682	24.58
227.9	-8.19
228.117	43.01
228.335	69.63
228.553	2.05
228.771	-26.62
228.989	-12.29
229.206	45.06
229.424	-59.39
229.642	-4.1
229.86	16.38
230.077	100.35
230.295	45.06
230.513	36.86
230.731	30.72
230.948	120.83
231.166	141.31
231.384	-43.01
231.601	-40.96
231.819	167.93
232.037	-2.05
232.254	-73.73
232.472	-77.82
232.689	-43.01
232.907	163.84
233.125	-20.48
233.342	-10.24
233.56	-47.1
233.777	-73.73
233.995	-30.72
234.213	59.39
234.43	135.17
234.648	-2.05
234.865	-122.88
235.083	36.86
235.3	57.34
235.518	147.45
235.735	26.62
235.953	81.92
236.17	4.1
236.388	-30.72
236.605	20.48
236.822	43.01
237.04	96.25
237.257	28.67
237.475	14.34
237.692	-8.19
237.909	51.2
238.127	-10.24
238.344	-43.01
238.562	63.49
238.779	-112.64
238.996	-63.49
239.214	-18.43
239.431	106.49
239.648	-22.53
239.865	149.5
240.083	-22.53
240.3	-63.49
240.517	-36.86
240.735	-12.29
240.952	141.31
241.169	-16.38
241.386	-2.05
241.603	-32.77
241.821	-45.06
242.038	18.43
242.255	83.97
242.472	-94.21
242.689	18.43
242.907	8.19
243.124	104.45
243.341	-12.29
243.558	-51.2
243.775	-77.82
243.992	-96.25
244.209	2.05
244.426	143.36
244.643	34.82
244.86	45.06
245.078	34.82
245.295	4.1
245.512	-14.34
245.729	-71.68
245.946	-4.1
246.163	-102.4
246.38	10.24
246.597	18.43
246.814	-4.1
247.031	-34.82
247.248	-55.3
247.464	-10.24
247.681	47.1
247.898	49.15
248.115	26.62
248.332	-98.3
248.549	126.97
248.766	143.36
248.983	43.01
249.2	81.92
249.417	88.06
249.633	-47.1
249.85	28.67
250.067	-81.92
250.284	10.24
250.501	73.73
250.717	-20.48
250.934	-69.63
251.151	-28.67
251.368	-45.06
251.585	8.19
251.801	-4.1
252.018	-63.49
252.235	102.4
252.451	-24.58
252.668	28.67
252.885	83.97
253.102	65.53
253.318	-102.4
253.535	-28.67
253.752	-2.05
253.968	-79.87
254.185	-124.93
254.401	-73.73
254.618	47.1
254.835	-55.3
255.051	63.49
255.268	55.3
255.484	18.43
255.701	-18.43
255.917	18.43
256.134	-2.05
256.351	22.53
256.567	-108.54
256.784	-6.14
257	-90.11
257.217	71.68
257.433	20.48
257.65	0
257.866	186.37
258.082	-16.38
258.299	-28.67
258.515	30.72
258.732	-53.25
258.948	-32.77
259.165	51.2
259.381	-49.15
259.597	-16.38
259.814	53.25
260.03	-12.29
260.246	-51.2
260.463	126.97
260.679	147.45
260.895	49.15
261.112	73.73
261.328	14.34
261.544	-124.93
261.761	65.53
261.977	-18.43
262.193	-47.1
262.409	86.01
262.626	57.34
262.842	-8.19
263.058	-36.86
263.274	65.53
263.49	-49.15
263.707	36.86
263.923	6.14
264.139	-102.4
264.355	8.19
264.571	57.34
264.787	-16.38
265.004	92.16
265.22	-16.38
265.436	-49.15
265.652	69.63
265.868	36.86
266.084	-94.21
266.3	40.96
266.516	-67.58
266.732	-20.48
266.948	86.01
267.164	-45.06
267.38	90.11
267.596	61.44
267.812	67.58
268.028	61.44
268.244	32.77
268.46	55.3
268.676	2.05
268.892	-24.58
269.108	-65.54
269.324	-45.06
269.54	-98.3
269.756	47.1
269.972	-32.77
270.188	18.43
270.403	-86.01
270.619	0
270.835	77.82
271.051	-22.53
271.267	-8.19
271.483	-43.01
271.698	65.53
271.914	83.97
272.13	61.44
272.346	-43.01
272.562	77.82
272.777	102.4
272.993	-34.82
273.209	-32.77
273.425	102.4
273.64	-36.86
273.856	100.35
274.072	-67.58
274.287	12.29
274.503	57.34
274.719	49.15
274.934	10.24
275.15	-139.26
275.366	-30.72
275.581	-102.4
275.797	0
276.012	38.91
276.228	-38.91
276.444	79.87
276.659	83.97
276.875	-22.53
277.09	-6.14
277.306	16.38
277.521	75.77
277.737	20.48
277.952	77.82
278.168	-47.1
278.383	47.1
278.599	14.34
278.814	57.34
279.03	38.91
279.245	59.39
279.461	86.01
279.676	120.83
279.892	-34.82
280.107	-47.1
280.322	-22.53
280.538	18.43
280.753	-32.77
280.969	53.25
281.184	55.3
281.399	157.69
281.615	43.01
281.83	94.21
282.045	-8.19
282.26	-20.48
282.476	24.58
282.691	28.67
282.906	16.38
283.122	45.06
283.337	-49.15
283.552	63.49
283.767	-59.39
283.983	83.97
284.198	32.77
284.413	16.38
284.628	-28.67
284.843	32.77
285.058	40.96
285.274	-14.34
285.489	-8.19
285.704	71.68
285.919	-38.91
286.134	-20.48
286.349	4.1
286.564	-36.86
286.779	120.83
286.995	30.72
287.21	-32.77
287.425	104.45
287.64	57.34
287.855	10.24
288.07	-38.91
288.285	120.83
288.5	75.77
288.715	-12.29
288.93	16.38
289.145	-61.44
289.36	129.02
289.575	16.38
289.79	88.06
290.004	-20.48
290.219	59.39
290.434	-32.77
290.649	-100.35
290.864	-20.48
291.079	-6.14
291.294	-10.24
291.509	36.86
291.724	-45.06
291.938	-12.29
292.153	88.06
292.368	-61.44
292.583	0
292.798	90.11
293.012	-18.43
293.227	77.82
293.442	0
293.657	-14.34
293.871	147.45
294.086	30.72
294.301	139.26
294.516	165.89
294.73	4.1
294.945	-88.06
295.16	0
295.374	106.49
295.589	71.68
295.804	-24.58
296.018	36.86
296.233	118.78
296.447	14.34
296.662	-14.34
296.877	36.86
297.091	38.91
297.306	-45.06
297.52	-65.54
297.735	28.67
297.949	65.53
298.164	79.87
298.378	108.54
298.593	-102.4
298.807	-98.3
299.022	20.48
299.236	61.44
299.451	-6.14
299.665	6.14
299.88	0
300.094	38.91
300.309	122.88
300.523	14.34
300.737	22.53
300.952	55.3
301.166	174.08
301.381	-18.43
301.595	-98.3
301.809	-55.3
302.024	-4.1
302.238	-102.4
302.452	129.02
302.667	71.68
302.881	161.79
303.095	92.16
303.309	36.86
303.524	-47.1
303.738	43.01
303.952	-24.58
304.166	-2.05
304.381	-118.78
304.595	118.78
304.809	-2.05
305.023	12.29
305.237	-32.77
305.452	53.25
305.666	104.45
305.88	90.11
306.094	61.44
306.308	65.53
306.522	55.3
306.736	28.67
306.95	63.49
307.164	-73.73
307.379	-18.43
307.593	131.07
307.807	36.86
308.021	106.49
308.235	122.88
308.449	-106.49
308.663	-26.62
308.877	143.36
309.091	57.34
309.305	24.58
309.519	-63.49
309.733	100.35
309.947	-110.59
310.161	34.82
310.374	24.58
310.588	92.16
310.802	-47.1
311.016	32.77
311.23	38.91
311.444	-49.15
311.658	12.29
311.872	122.88
312.085	67.58
312.299	120.83
312.513	149.5
312.727	32.77
312.941	-77.82
313.154	2.05
313.368	-34.82
313.582	65.53
313.796	61.44
314.009	6.14
314.223	114.69
314.437	104.45
314.651	51.2
314.864	-38.91
315.078	71.68
315.292	-69.63
315.505	-26.62
315.719	34.82
315.933	61.44
316.146	6.14
316.36	-8.19
316.573	0
316.787	30.72
317.001	77.82
317.214	-12.29
317.428	71.68
317.641	4.1
317.855	-14.34
318.068	40.96
318.282	20.48
318.495	141.31
318.709	126.97
318.922	-6.14
319.136	110.59
319.349	51.2
319.563	-67.58
319.776	79.87
319.99	-94.21
320.203	63.49
320.417	94.21
320.63	104.45
320.843	137.21
321.057	38.91
321.27	14.34
321.483	71.68
321.697	112.64
321.91	28.67
322.124	67.58
322.337	92.16
322.55	-34.82
322.763	47.1
322.977	-24.58
323.19	-18.43
323.403	12.29
323.617	71.68
323.83	4.1
324.043	-8.19
324.256	16.38
324.469	-28.67
324.683	-4.1
324.896	-86.01
325.109	-10.24
325.322	-124.93
325.535	34.82
325.748	165.89
325.962	-2.05
326.175	28.67
326.388	26.62
326.601	88.06
326.814	-40.96
327.027	90.11
327.24	73.73
327.453	-77.82
327.666	49.15
327.879	61.44
328.092	22.53
328.305	22.53
328.518	-61.44
328.731	-55.3
328.944	-8.19
329.157	49.15
329.37	-53.25
329.583	212.99
329.796	51.2
330.009	-47.1
330.222	102.4
330.435	34.82
330.648	-6.14
330.861	51.2
331.073	-22.53
331.286	86.01
331.499	18.43
331.712	-90.11
331.925	18.43
332.138	32.77
332.35	12.29
332.563	-47.1
332.776	151.55
332.989	-32.77
333.202	-26.62
333.414	57.34
333.627	6.14
333.84	-36.86
334.053	-4.1
334.265	10.24
334.478	-12.29
334.691	0
334.903	6.14
335.116	-61.44
335.329	-47.1
335.541	69.63
335.754	155.65
335.966	-55.3
336.179	53.25
336.392	-8.19
336.604	-61.44
336.817	30.72
337.029	2.05
337.242	69.63
337.454	30.72
337.667	-43.01
337.88	79.87
338.092	-14.34
338.305	40.96
338.517	-114.69
338.729	0
338.942	96.25
339.154	-32.77
339.367	-102.4
339.579	92.16
339.792	-6.14
340.004	10.24
340.217	28.67
340.429	12.29
340.641	-47.1
340.854	-43.01
341.066	0
341.278	96.25
341.491	167.93
341.703	38.91
341.915	-71.68
342.128	34.82
342.34	24.58
342.552	-102.4
342.764	-40.96
342.977	77.82
343.189	20.48
343.401	32.77
343.613	-55.3
343.826	22.53
344.038	-38.91
344.25	24.58
344.462	-32.77
344.674	4.1
344.886	-71.68
345.099	-2.05
345.311	75.77
345.523	-34.82
345.735	-102.4
345.947	2.05
346.159	28.67
346.371	-20.48
346.583	38.91
346.795	106.49
347.007	-108.54
347.219	20.48
347.431	-16.38
347.643	104.45
347.855	-51.2
348.067	88.06
348.279	-45.06
348.491	-4.1
348.703	71.68
348.915	16.38
349.127	-43.01
349.339	38.91
349.551	-86.01
349.763	49.15
349.975	47.1
350.187	36.86
350.399	16.38
350.61	59.39
350.822	-71.68
351.034	43.01
351.246	55.3
351.458	-12.29
351.669	16.38
351.881	40.96
352.093	90.11
352.305	112.64
352.517	24.58
352.728	45.06
352.94	67.58
353.152	-2.05
353.363	-139.26
353.575	53.25
353.787	188.41
353.999	79.87
354.21	172.03
354.422	-14.34
354.633	32.77
354.845	96.25
355.057	14.34
355.268	16.38
355.48	8.19
355.692	-22.53
355.903	49.15
356.115	-43.01
356.326	-149.5
356.538	69.63
356.749	139.26
356.961	88.06
357.172	8.19
357.384	-30.72
357.595	182.27
357.807	4.1
358.018	-40.96
358.23	-26.62
358.441	151.55
358.653	98.3
358.864	40.96
359.075	-18.43
359.287	16.38
359.498	-8.19
359.709	106.49
359.921	34.82
360.132	12.29
360.344	-10.24
360.555	-98.3
360.766	104.45
360.977	-110.59
361.189	-16.38
361.4	-55.3
361.611	10.24
361.823	178.17
362.034	24.58
362.245	-131.07
362.456	26.62
362.667	79.87
362.879	-45.06
363.09	-6.14
363.301	102.4
363.512	0
363.723	-38.91
363.935	-63.49
364.146	71.68
364.357	-45.06
364.568	-28.67
364.779	-98.3
364.99	57.34
365.201	-30.72
365.412	63.49
365.623	-73.73
365.834	6.14
366.045	102.4
366.256	88.06
366.467	45.06
366.678	-43.01
366.889	0
367.1	-67.58
367.311	-6.14
367.522	-32.77
367.733	77.82
367.944	96.25
368.155	40.96
368.366	51.2
368.577	86.01
368.788	45.06
368.999	-40.96
369.209	-26.62
369.42	219.13
369.631	217.08
369.842	88.06
370.053	34.82
370.264	90.11
370.474	-92.16
370.685	8.19
370.896	-10.24
371.107	108.54
371.317	61.44
371.528	10.24
371.739	122.88
371.95	36.86
372.16	108.54
372.371	-49.15
372.582	4.1
372.792	63.49
373.003	90.11
373.214	40.96
373.424	141.31
373.635	-22.53
373.846	69.63
374.056	71.68
374.267	32.77
374.477	-47.1
374.688	-81.92
374.898	22.53
375.109	-10.24
375.319	49.15
375.53	77.82
375.74	114.69
375.951	55.3
376.161	53.25
376.372	161.79
376.582	-22.53
376.793	65.53
377.003	-18.43
377.214	0
377.424	4.1
377.635	51.2
377.845	0
378.055	59.39
378.266	-86.01
378.476	-22.53
378.686	88.06
378.897	-22.53
379.107	114.69
379.317	-6.14
379.528	-34.82
379.738	-24.58
379.948	55.3
380.158	92.16
380.369	-22.53
380.579	71.68
380.789	-26.62
380.999	169.98
381.21	10.24
381.42	192.51
381.63	-28.67
381.84	51.2
382.05	-32.77
382.261	81.92
382.471	73.73
382.681	-114.69
382.891	118.78
383.101	-28.67
383.311	-94.21
383.521	51.2
383.731	86.01
383.941	71.68
384.151	49.15
384.361	-8.19
384.571	65.53
384.781	53.25
384.991	139.26
385.201	155.65
385.411	24.58
385.621	20.48
385.831	-32.77
386.041	57.34
386.251	-71.68
386.461	45.06
386.671	-61.44
386.881	0
387.091	18.43
387.301	104.45
387.511	-24.58
387.72	36.86
387.93	-30.72
388.14	-28.67
388.35	12.29
388.56	106.49
388.769	40.96
388.979	36.86
389.189	-83.97
389.399	-14.34
389.609	-10.24
389.818	75.77
390.028	-18.43
390.238	149.5
390.447	-86.01
390.657	22.53
390.867	-51.2
391.076	-88.06
391.286	2.05
391.496	57.34
391.705	-8.19
391.915	73.73
392.125	22.53
392.334	-32.77
392.544	129.02
392.753	36.86
392.963	-67.58
393.172	-43.01
393.382	-106.49
393.591	116.73
393.801	20.48
394.01	155.65
394.22	65.53
394.429	-12.29
394.639	28.67
394.848	-14.34
395.058	-12.29
395.267	-26.62
395.477	32.77
395.686	-10.24
395.895	169.98
396.105	229.37
396.314	45.06
396.524	-4.1
396.733	-40.96
396.942	67.58
397.152	4.1
397.361	45.06
397.57	59.39
397.78	34.82
397.989	24.58
398.198	112.64
398.407	-2.05
398.617	18.43
398.826	-18.43
399.035	-40.96
399.244	114.69
399.453	34.82
399.663	26.62
399.872	96.25
400.081	-32.77
400.29	98.3
400.499	-8.19
400.708	26.62
400.917	-40.96
401.127	8.19
401.336	-67.58
401.545	157.69
401.754	67.58
401.963	6.14
402.172	-120.83
402.381	-45.06
402.59	32.77
402.799	26.62
403.008	102.4
403.217	10.24
403.426	77.82
403.635	-26.62
403.844	65.53
404.053	-75.77
404.262	32.77
404.471	83.97
404.68	57.34
404.888	14.34
405.097	51.2
405.306	4.1
405.515	30.72
405.724	32.77
405.933	81.92
406.142	57.34
406.35	67.58
406.559	94.21
406.768	2.05
406.977	10.24
407.185	34.82
407.394	40.96
407.603	-73.73
407.812	-53.25
408.02	151.55
408.229	49.15
408.438	14.34
408.646	-49.15
408.855	83.97
409.064	-2.05
409.272	-16.38
409.481	59.39
409.69	-69.63
409.898	-10.24
410.107	61.44
410.315	108.54
410.524	-102.4
410.733	-16.38
410.941	-51.2
411.15	157.69
411.358	49.15
411.567	61.44
411.775	-88.06
411.984	12.29
412.192	38.91
412.401	32.77
412.609	153.6
412.818	104.45
413.026	24.58
413.234	-55.3
413.443	30.72
413.651	71.68
413.86	-45.06
414.068	143.36
414.276	159.74
414.485	-32.77
414.693	159.74
414.901	116.73
415.11	30.72
415.318	-36.86
415.526	38.91
415.734	104.45
415.943	-30.72
416.151	126.97
416.359	6.14
416.567	53.25
416.776	20.48
416.984	40.96
417.192	79.87
417.4	-67.58
417.608	-43.01
417.817	-79.87
418.025	106.49
418.233	92.16
418.441	-16.38
418.649	-86.01
418.857	69.63
419.065	149.5
419.273	24.58
419.481	30.72
419.689	10.24
419.897	6.14
420.105	-94.21
420.313	137.21
420.521	165.89
420.729	161.79
420.937	8.19
421.145	-20.48
421.353	28.67
421.561	63.49
421.769	71.68
421.977	26.62
422.185	137.21
422.393	12.29
422.601	116.73
422.809	69.63
423.017	36.86
423.224	96.25
423.432	73.73
423.64	43.01
423.848	83.97
424.056	81.92
424.263	16.38
424.471	77.82
424.679	98.3
424.887	43.01
425.094	122.88
425.302	53.25
425.51	4.1
425.718	47.1
425.925	-12.29
426.133	-26.62
426.341	83.97
426.548	-10.24
426.756	26.62
426.964	143.36
427.171	-6.14
427.379	96.25
427.586	63.49
427.794	106.49
428.001	77.82
428.209	159.74
428.417	118.78
428.624	157.69
428.832	122.88
429.039	6.14
429.247	71.68
429.454	98.3
429.662	178.17
429.869	129.02
430.076	169.98
430.284	112.64
430.491	118.78
430.699	137.21
430.906	143.36
431.114	100.35
431.321	231.42
431.528	61.44
431.736	124.93
431.943	124.93
432.15	43.01
432.358	145.41
432.565	286.72
432.772	-53.25
432.979	94.21
433.187	49.15
433.394	180.22
433.601	122.88
433.808	157.69
434.016	223.23
434.223	270.33
434.43	208.89
434.637	208.89
434.844	241.66
435.052	200.7
435.259	356.35
435.466	284.67
435.673	184.32
435.88	286.72
436.087	339.96
436.294	339.96
436.501	292.86
436.708	212.99
436.915	258.04
437.122	286.72
437.329	270.33
437.537	208.89
437.743	241.66
437.95	446.46
438.157	403.45
438.364	354.3
438.571	350.2
438.778	415.74
438.985	481.27
439.192	446.46
439.399	466.94
439.606	364.54
439.813	573.43
440.02	606.2
440.227	653.3
440.433	565.24
440.64	536.57
440.847	468.98
441.054	483.32
441.261	716.79
441.467	540.66
441.674	546.81
441.881	696.31
442.088	651.25
442.294	618.49
442.501	757.75
442.708	796.66
442.914	780.28
443.121	765.94
443.328	854
443.534	909.3
443.741	958.45
443.948	862.19
444.154	962.55
444.361	1134.57
444.568	1011.7
444.774	1066.99
444.981	993.26
445.187	1191.92
445.394	1226.73
445.6	1150.96
445.807	1357.8
446.013	1265.64
446.22	1261.55
446.426	1384.43
446.633	1523.69
446.839	1781.73
447.046	1388.52
447.252	1630.18
447.459	1742.82
447.665	1640.42
447.871	1900.51
448.078	1920.99
448.284	1980.39
448.491	2009.06
448.697	2125.79
448.903	2308.06
449.11	2289.63
449.316	2220
449.522	2490.33
449.728	2516.95
449.935	2559.96
450.141	2580.44
450.347	2877.4
450.553	2717.65
450.76	2830.29
450.966	3084.24
451.172	3102.67
451.378	3311.57
451.584	3325.9
451.791	3528.65
451.997	3618.76
452.203	3612.62
452.409	3878.85
452.615	4007.87
452.821	3813.32
453.027	3934.15
453.233	4480.96
453.44	4364.22
453.646	4478.91
453.852	4812.73
454.058	5013.43
454.264	4984.76
454.47	5363.63
454.676	5425.07
454.882	5982.12
455.088	5603.24
455.294	5961.64
455.5	6414.24
455.705	6770.58
455.911	6657.95
456.117	6950.81
456.323	7096.21
456.529	7118.74
456.735	7817.1
456.941	8011.65
457.147	8312.71
457.352	8740.73
457.558	8791.93
457.764	9525.1
457.97	9424.75
458.176	9772.91
458.381	10461.02
458.587	10616.67
458.793	11288.4
458.999	11206.48
459.204	12646.21
459.41	13088.57
459.616	12926.78
459.821	13719.34
460.027	14307.11
460.233	15097.63
460.438	15019.8
460.644	15591.19
460.85	15976.2
461.055	16498.44
461.261	17327.86
461.466	17004.28
461.672	17590
461.878	19226.33
462.083	19052.25
462.289	19568.34
462.494	20551.37
462.7	20569.8
462.905	20580.04
463.111	22503.08
463.316	23537.3
463.522	24063.63
463.727	24712.84
463.932	25622.14
464.138	26435.18
464.343	27801.18
464.549	27317.86
464.754	29748.79
464.959	30641.71
465.165	30735.91
465.37	30799.4
465.575	30797.35
465.781	32824.84
465.986	33945.08
466.191	33144.33
466.397	33867.26
466.602	32736.78
466.807	34586.1
467.012	35579.36
467.218	35980.76
467.423	36185.56
467.628	37193.16
467.833	38839.73
468.038	37643.71
468.244	37512.64
468.449	39572.9
