Data from USB4F104151__275__11-20-47-231.txt Node

Date: Wed Feb 26 11:20:47 EST 2025
User: louis
Spectrometer: USB4F10415
Trigger mode: 4
Integration Time (sec): 1.000000E-1
Scans to average: 1
Electric dark correction enabled: true
Nonlinearity correction enabled: false
Boxcar width: 0
XAxis mode: Wavelengths
Number of Pixels in Spectrum: 3648
>>>>>Begin Spectral Data<<<<<
178.204	-361.13
178.424	-361.13
178.644	-361.13
178.864	-406.18
179.084	-359.08
179.304	-33.45
179.524	-66.22
179.744	85.33
179.964	46.42
180.184	46.42
180.404	95.57
180.624	-70.31
180.844	-17.07
181.064	-113.32
181.283	-15.02
181.503	-66.22
181.723	107.86
181.943	-133.8
182.163	136.53
182.383	-0.68
182.602	54.61
182.822	132.44
183.042	79.19
183.262	-17.07
183.482	-4.78
183.701	75.09
183.921	120.15
184.141	-25.26
184.361	128.34
184.58	75.09
184.8	77.14
185.02	9.56
185.239	87.38
185.459	58.71
185.679	140.63
185.898	-12.97
186.118	9.56
186.338	95.57
186.557	11.61
186.777	-31.4
186.997	-82.6
187.216	-51.88
187.436	216.4
187.655	77.14
187.875	122.2
188.095	109.91
188.314	140.63
188.534	146.77
188.753	-39.59
188.973	111.96
189.192	171.35
189.412	32.08
189.631	34.13
189.851	66.9
190.07	128.34
190.29	-66.22
190.509	7.51
190.729	71
190.948	124.24
191.168	234.83
191.387	81.24
191.607	-49.83
191.826	-27.31
192.045	-15.02
192.265	25.94
192.484	122.2
192.704	38.23
192.923	-74.41
193.142	218.45
193.362	134.48
193.581	64.85
193.8	120.15
194.02	83.28
194.239	66.9
194.458	189.78
194.678	62.8
194.897	-49.83
195.116	66.9
195.335	77.14
195.555	50.52
195.774	9.56
195.993	101.72
196.212	-21.16
196.432	-107.18
196.651	-35.5
196.87	-15.02
197.089	253.27
197.308	40.28
197.528	36.18
197.747	-8.87
197.966	56.66
198.185	116.05
198.404	-17.07
198.623	122.2
198.842	93.52
199.062	116.05
199.281	150.87
199.5	56.66
199.719	-8.87
199.938	34.13
200.157	68.95
200.376	64.85
200.595	163.15
200.814	30.04
201.033	42.32
201.252	144.72
201.471	77.14
201.69	93.52
201.909	-19.11
202.128	136.53
202.347	116.05
202.566	-4.78
202.785	-70.31
203.004	-12.97
203.223	247.12
203.442	52.56
203.661	-12.97
203.879	58.71
204.098	91.48
204.317	-12.97
204.536	62.8
204.755	99.67
204.974	118.1
205.193	27.99
205.411	150.87
205.63	66.9
205.849	23.89
206.068	23.89
206.287	-27.31
206.505	122.2
206.724	23.89
206.943	13.65
207.162	48.47
207.381	52.56
207.599	3.41
207.818	-19.11
208.037	-47.79
208.255	73.04
208.474	3.41
208.693	44.37
208.911	-27.31
209.13	130.39
209.349	66.9
209.567	62.8
209.786	75.09
210.005	89.43
210.223	97.62
210.442	-146.09
210.661	-41.64
210.879	-17.07
211.098	-25.26
211.316	32.08
211.535	64.85
211.753	-8.87
211.972	71
212.191	-27.31
212.409	40.28
212.628	58.71
212.846	-39.59
213.065	64.85
213.283	138.58
213.502	-31.4
213.72	-21.16
213.938	44.37
214.157	-47.79
214.375	85.33
214.594	73.04
214.812	87.38
215.031	34.13
215.249	23.89
215.467	91.48
215.686	9.56
215.904	132.44
216.122	25.94
216.341	187.73
216.559	-41.64
216.778	62.8
216.996	159.06
217.214	-4.78
217.432	19.8
217.651	-47.79
217.869	-10.92
218.087	71
218.306	9.56
218.524	60.76
218.742	-49.83
218.96	114
219.179	30.04
219.397	46.42
219.615	204.11
219.833	46.42
220.051	-37.55
220.27	77.14
220.488	105.81
220.706	44.37
220.924	58.71
221.142	99.67
221.36	-15.02
221.578	60.76
221.796	77.14
222.015	44.37
222.233	17.75
222.451	165.2
222.669	-25.26
222.887	-15.02
223.105	1.37
223.323	3.41
223.541	-41.64
223.759	56.66
223.977	40.28
224.195	197.97
224.413	87.38
224.631	103.76
224.849	19.8
225.067	159.06
225.285	-55.98
225.503	3.41
225.721	-129.7
225.939	44.37
226.157	50.52
226.375	290.13
226.592	42.32
226.81	62.8
227.028	152.92
227.246	71
227.464	120.15
227.682	130.39
227.9	101.72
228.117	21.85
228.335	73.04
228.553	50.52
228.771	23.89
228.989	75.09
229.206	95.57
229.424	17.75
229.642	32.08
229.86	23.89
230.077	103.76
230.295	-37.55
230.513	99.67
230.731	58.71
230.948	136.53
231.166	177.49
231.384	87.38
231.601	30.04
231.819	189.78
232.037	83.28
232.254	-4.78
232.472	34.13
232.689	-33.45
232.907	99.67
233.125	42.32
233.342	11.61
233.56	-68.27
233.777	64.85
233.995	9.56
234.213	77.14
234.43	132.44
234.648	38.23
234.865	-0.68
235.083	68.95
235.3	60.76
235.518	95.57
235.735	93.52
235.953	171.35
236.17	71
236.388	62.8
236.605	140.63
236.822	116.05
237.04	87.38
237.257	75.09
237.475	15.7
237.692	105.81
237.909	136.53
238.127	17.75
238.344	101.72
238.562	68.95
238.779	-92.84
238.996	-101.03
239.214	79.19
239.431	71
239.648	40.28
239.865	46.42
240.083	54.61
240.3	3.41
240.517	-31.4
240.735	30.04
240.952	161.11
241.169	122.2
241.386	124.24
241.603	66.9
241.821	-43.69
242.038	85.33
242.255	79.19
242.472	-43.69
242.689	23.89
242.907	89.43
243.124	1.37
243.341	38.23
243.558	9.56
243.775	-33.45
243.992	-98.99
244.209	21.85
244.426	179.54
244.643	30.04
244.86	15.7
245.078	83.28
245.295	34.13
245.512	34.13
245.729	-4.78
245.946	46.42
246.163	21.85
246.38	-19.11
246.597	124.24
246.814	42.32
247.031	93.52
247.248	89.43
247.464	60.76
247.681	30.04
247.898	62.8
248.115	42.32
248.332	-47.79
248.549	128.34
248.766	146.77
248.983	134.48
249.2	87.38
249.417	130.39
249.633	54.61
249.85	77.14
250.067	21.85
250.284	75.09
250.501	138.58
250.717	91.48
250.934	-27.31
251.151	32.08
251.368	3.41
251.585	9.56
251.801	120.15
252.018	-74.41
252.235	148.82
252.451	-39.59
252.668	-47.79
252.885	66.9
253.102	13.65
253.318	-10.92
253.535	27.99
253.752	66.9
253.968	64.85
254.185	-29.35
254.401	21.85
254.618	36.18
254.835	1.37
255.051	105.81
255.268	128.34
255.484	62.8
255.701	-39.59
255.917	52.56
256.134	-35.5
256.351	-10.92
256.567	64.85
256.784	19.8
257	-51.88
257.217	167.25
257.433	142.68
257.65	54.61
257.866	107.86
258.082	-21.16
258.299	-43.69
258.515	56.66
258.732	17.75
258.948	-25.26
259.165	52.56
259.381	-90.79
259.597	89.43
259.814	99.67
260.03	38.23
260.246	-21.16
260.463	83.28
260.679	157.01
260.895	56.66
261.112	62.8
261.328	3.41
261.544	36.18
261.761	200.02
261.977	-0.68
262.193	-96.94
262.409	107.86
262.626	44.37
262.842	11.61
263.058	-76.46
263.274	79.19
263.49	50.52
263.707	146.77
263.923	77.14
264.139	-47.79
264.355	32.08
264.571	42.32
264.787	-6.83
265.004	120.15
265.22	75.09
265.436	21.85
265.652	5.46
265.868	23.89
266.084	9.56
266.3	21.85
266.516	-62.12
266.732	52.56
266.948	42.32
267.164	101.72
267.38	124.24
267.596	64.85
267.812	161.11
268.028	99.67
268.244	1.37
268.46	62.8
268.676	1.37
268.892	54.61
269.108	-62.12
269.324	-12.97
269.54	-4.78
269.756	134.48
269.972	-39.59
270.188	81.24
270.403	21.85
270.619	-15.02
270.835	44.37
271.051	23.89
271.267	15.7
271.483	60.76
271.698	132.44
271.914	23.89
272.13	118.1
272.346	-10.92
272.562	13.65
272.777	152.92
272.993	40.28
273.209	-10.92
273.425	75.09
273.64	-82.6
273.856	136.53
274.072	40.28
274.287	13.65
274.503	60.76
274.719	42.32
274.934	38.23
275.15	-27.31
275.366	-21.16
275.581	19.8
275.797	54.61
276.012	111.96
276.228	25.94
276.444	71
276.659	185.68
276.875	-70.31
277.09	-27.31
277.306	30.04
277.521	85.33
277.737	15.7
277.952	177.49
278.168	-6.83
278.383	56.66
278.599	91.48
278.814	85.33
279.03	7.51
279.245	202.07
279.461	17.75
279.676	75.09
279.892	-84.65
280.107	-47.79
280.322	52.56
280.538	11.61
280.753	-53.93
280.969	79.19
281.184	48.47
281.399	163.15
281.615	85.33
281.83	146.77
282.045	-101.03
282.26	-37.55
282.476	-41.64
282.691	103.76
282.906	95.57
283.122	48.47
283.337	-23.21
283.552	34.13
283.767	19.8
283.983	64.85
284.198	9.56
284.413	19.8
284.628	-66.22
284.843	73.04
285.058	48.47
285.274	25.94
285.489	34.13
285.704	40.28
285.919	-8.87
286.134	83.28
286.349	25.94
286.564	23.89
286.779	175.44
286.995	-23.21
287.21	17.75
287.425	95.57
287.64	44.37
287.855	120.15
288.07	-68.27
288.285	101.72
288.5	142.68
288.715	97.62
288.93	-27.31
289.145	34.13
289.36	134.48
289.575	32.08
289.79	83.28
290.004	-8.87
290.219	83.28
290.434	5.46
290.649	-2.73
290.864	-21.16
291.079	11.61
291.294	-0.68
291.509	54.61
291.724	56.66
291.938	-10.92
292.153	36.18
292.368	17.75
292.583	120.15
292.798	64.85
293.012	48.47
293.227	75.09
293.442	23.89
293.657	111.96
293.871	197.97
294.086	3.41
294.301	120.15
294.516	99.67
294.73	56.66
294.945	-0.68
295.16	1.37
295.374	148.82
295.589	101.72
295.804	15.7
296.018	66.9
296.233	103.76
296.447	40.28
296.662	68.95
296.877	120.15
297.091	75.09
297.306	95.57
297.52	40.28
297.735	68.95
297.949	77.14
298.164	36.18
298.378	56.66
298.593	-6.83
298.807	30.04
299.022	85.33
299.236	171.35
299.451	-33.45
299.665	36.18
299.88	56.66
300.094	93.52
300.309	50.52
300.523	64.85
300.737	23.89
300.952	27.99
301.166	146.77
301.381	-60.07
301.595	54.61
301.809	93.52
302.024	75.09
302.238	9.56
302.452	97.62
302.667	62.8
302.881	52.56
303.095	187.73
303.309	40.28
303.524	-47.79
303.738	38.23
303.952	-33.45
304.166	114
304.381	3.41
304.595	91.48
304.809	-0.68
305.023	34.13
305.237	11.61
305.452	68.95
305.666	111.96
305.88	42.32
306.094	150.87
306.308	32.08
306.522	120.15
306.736	71
306.95	54.61
307.164	23.89
307.379	17.75
307.593	25.94
307.807	97.62
308.021	97.62
308.235	89.43
308.449	-82.6
308.663	116.05
308.877	247.12
309.091	66.9
309.305	134.48
309.519	-109.22
309.733	128.34
309.947	-64.17
310.161	66.9
310.374	111.96
310.588	150.87
310.802	-10.92
311.016	-8.87
311.23	13.65
311.444	-0.68
311.658	40.28
311.872	56.66
312.085	150.87
312.299	148.82
312.513	140.63
312.727	68.95
312.941	-68.27
313.154	48.47
313.368	64.85
313.582	7.51
313.796	89.43
314.009	40.28
314.223	103.76
314.437	56.66
314.651	171.35
314.864	-70.31
315.078	-10.92
315.292	-6.83
315.505	97.62
315.719	75.09
315.933	128.34
316.146	-10.92
316.36	-19.11
316.573	169.3
316.787	120.15
317.001	179.54
317.214	-12.97
317.428	95.57
317.641	-12.97
317.855	-53.93
318.068	15.7
318.282	54.61
318.495	152.92
318.709	122.2
318.922	-23.21
319.136	222.55
319.349	111.96
319.563	1.37
319.776	136.53
319.99	-80.55
320.203	85.33
320.417	42.32
320.63	169.3
320.843	138.58
321.057	77.14
321.27	23.89
321.483	91.48
321.697	179.54
321.91	48.47
322.124	-4.78
322.337	68.95
322.55	-10.92
322.763	48.47
322.977	-2.73
323.19	68.95
323.403	60.76
323.617	146.77
323.83	101.72
324.043	-8.87
324.256	85.33
324.469	1.37
324.683	107.86
324.896	-4.78
325.109	-12.97
325.322	-47.79
325.535	50.52
325.748	116.05
325.962	19.8
326.175	81.24
326.388	44.37
326.601	21.85
326.814	27.99
327.027	36.18
327.24	185.68
327.453	13.65
327.666	95.57
327.879	134.48
328.092	122.2
328.305	111.96
328.518	-43.69
328.731	-15.02
328.944	30.04
329.157	93.52
329.37	-17.07
329.583	126.29
329.796	118.1
330.009	-96.94
330.222	81.24
330.435	159.06
330.648	9.56
330.861	-19.11
331.073	44.37
331.286	95.57
331.499	23.89
331.712	9.56
331.925	1.37
332.138	9.56
332.35	-0.68
332.563	42.32
332.776	204.11
332.989	-72.36
333.202	5.46
333.414	46.42
333.627	103.76
333.84	15.7
334.053	23.89
334.265	40.28
334.478	-29.35
334.691	93.52
334.903	87.38
335.116	56.66
335.329	25.94
335.541	144.72
335.754	161.11
335.966	44.37
336.179	13.65
336.392	-6.83
336.604	75.09
336.817	66.9
337.029	132.44
337.242	17.75
337.454	103.76
337.667	5.46
337.88	212.31
338.092	60.76
338.305	81.24
338.517	1.37
338.729	50.52
338.942	161.11
339.154	-125.61
339.367	-70.31
339.579	97.62
339.792	-10.92
340.004	66.9
340.217	40.28
340.429	71
340.641	48.47
340.854	19.8
341.066	77.14
341.278	101.72
341.491	152.92
341.703	13.65
341.915	-0.68
342.128	122.2
342.34	89.43
342.552	-19.11
342.764	30.04
342.977	42.32
343.189	60.76
343.401	27.99
343.613	-64.17
343.826	56.66
344.038	-31.4
344.25	36.18
344.462	-86.7
344.674	103.76
344.886	66.9
345.099	56.66
345.311	118.1
345.523	21.85
345.735	-64.17
345.947	83.28
346.159	-15.02
346.371	64.85
346.583	13.65
346.795	187.73
347.007	-51.88
347.219	87.38
347.431	17.75
347.643	128.34
347.855	-133.8
348.067	154.96
348.279	-76.46
348.491	30.04
348.703	150.87
348.915	101.72
349.127	34.13
349.339	54.61
349.551	48.47
349.763	126.29
349.975	50.52
350.187	146.77
350.399	144.72
350.61	58.71
350.822	-2.73
351.034	89.43
351.246	66.9
351.458	79.19
351.669	89.43
351.881	105.81
352.093	77.14
352.305	97.62
352.517	142.68
352.728	97.62
352.94	52.56
353.152	136.53
353.363	-23.21
353.575	103.76
353.787	173.39
353.999	42.32
354.21	218.45
354.422	23.89
354.633	1.37
354.845	15.7
355.057	27.99
355.268	75.09
355.48	144.72
355.692	13.65
355.903	-4.78
356.115	5.46
356.326	-70.31
356.538	200.02
356.749	116.05
356.961	68.95
357.172	17.75
357.384	-35.5
357.595	236.88
357.807	17.75
358.018	-6.83
358.23	87.38
358.441	236.88
358.653	122.2
358.864	44.37
359.075	-31.4
359.287	19.8
359.498	165.2
359.709	68.95
359.921	46.42
360.132	202.07
360.344	85.33
360.555	13.65
360.766	75.09
360.977	95.57
361.189	48.47
361.4	62.8
361.611	107.86
361.823	50.52
362.034	73.04
362.245	-29.35
362.456	3.41
362.667	95.57
362.879	-60.07
363.09	60.76
363.301	81.24
363.512	-15.02
363.723	9.56
363.935	11.61
364.146	140.63
364.357	3.41
364.568	48.47
364.779	-74.41
364.99	175.44
365.201	5.46
365.412	116.05
365.623	-12.97
365.834	32.08
366.045	42.32
366.256	95.57
366.467	126.29
366.678	66.9
366.889	93.52
367.1	15.7
367.311	165.2
367.522	15.7
367.733	103.76
367.944	111.96
368.155	21.85
368.366	83.28
368.577	27.99
368.788	21.85
368.999	-19.11
369.209	-49.83
369.42	197.97
369.631	240.98
369.842	111.96
370.053	1.37
370.264	111.96
370.474	-49.83
370.685	95.57
370.896	-47.79
371.107	142.68
371.317	77.14
371.528	66.9
371.739	206.16
371.95	81.24
372.16	150.87
372.371	-64.17
372.582	36.18
372.792	60.76
373.003	79.19
373.214	105.81
373.424	89.43
373.635	-47.79
373.846	136.53
374.056	48.47
374.267	128.34
374.477	87.38
374.688	17.75
374.898	66.9
375.109	21.85
375.319	-8.87
375.53	124.24
375.74	34.13
375.951	52.56
376.161	60.76
376.372	114
376.582	-31.4
376.793	60.76
377.003	-72.36
377.214	-4.78
377.424	114
377.635	87.38
377.845	9.56
378.055	140.63
378.266	-31.4
378.476	-8.87
378.686	50.52
378.897	30.04
379.107	140.63
379.317	23.89
379.528	-41.64
379.738	85.33
379.948	-55.98
380.158	105.81
380.369	5.46
380.579	75.09
380.789	56.66
380.999	17.75
381.21	126.29
381.42	177.49
381.63	17.75
381.84	77.14
382.05	81.24
382.261	148.82
382.471	167.25
382.681	62.8
382.891	107.86
383.101	107.86
383.311	30.04
383.521	-49.83
383.731	91.48
383.941	124.24
384.151	126.29
384.361	-96.94
384.571	36.18
384.781	44.37
384.991	224.59
385.201	183.63
385.411	142.68
385.621	11.61
385.831	95.57
386.041	109.91
386.251	-12.97
386.461	111.96
386.671	36.18
386.881	44.37
387.091	21.85
387.301	25.94
387.511	7.51
387.72	17.75
387.93	105.81
388.14	-33.45
388.35	81.24
388.56	85.33
388.769	154.96
388.979	7.51
389.189	60.76
389.399	81.24
389.609	103.76
389.818	126.29
390.028	87.38
390.238	34.13
390.447	40.28
390.657	38.23
390.867	-0.68
391.076	-98.99
391.286	54.61
391.496	-6.83
391.705	71
391.915	173.39
392.125	161.11
392.334	1.37
392.544	138.58
392.753	46.42
392.963	11.61
393.172	23.89
393.382	9.56
393.591	171.35
393.801	-21.16
394.01	105.81
394.22	124.24
394.429	-21.16
394.639	13.65
394.848	68.95
395.058	101.72
395.267	36.18
395.477	56.66
395.686	23.89
395.895	167.25
396.105	148.82
396.314	197.97
396.524	40.28
396.733	25.94
396.942	130.39
397.152	52.56
397.361	99.67
397.57	87.38
397.78	42.32
397.989	44.37
398.198	175.44
398.407	34.13
398.617	36.18
398.826	38.23
399.035	42.32
399.244	124.24
399.453	79.19
399.663	58.71
399.872	130.39
400.081	-6.83
400.29	122.2
400.499	103.76
400.708	128.34
400.917	32.08
401.127	46.42
401.336	19.8
401.545	175.44
401.754	163.15
401.963	126.29
402.172	79.19
402.381	3.41
402.59	34.13
402.799	66.9
403.008	146.77
403.217	-0.68
403.426	107.86
403.635	-12.97
403.844	60.76
404.053	73.04
404.262	36.18
404.471	54.61
404.68	44.37
404.888	9.56
405.097	36.18
405.306	58.71
405.515	114
405.724	15.7
405.933	163.15
406.142	79.19
406.35	81.24
406.559	79.19
406.768	71
406.977	64.85
407.185	62.8
407.394	-29.35
407.603	-105.13
407.812	99.67
408.02	79.19
408.229	1.37
408.438	60.76
408.646	64.85
408.855	-29.35
409.064	132.44
409.272	64.85
409.481	81.24
409.69	-12.97
409.898	3.41
410.107	138.58
410.315	89.43
410.524	44.37
410.733	109.91
410.941	25.94
411.15	93.52
411.358	181.59
411.567	126.29
411.775	62.8
411.984	83.28
412.192	91.48
412.401	36.18
412.609	132.44
412.818	134.48
413.026	68.95
413.234	58.71
413.443	118.1
413.651	48.47
413.86	40.28
414.068	173.39
414.276	175.44
414.485	13.65
414.693	191.83
414.901	224.59
415.11	103.76
415.318	114
415.526	71
415.734	103.76
415.943	60.76
416.151	17.75
416.359	19.8
416.567	40.28
416.776	46.42
416.984	146.77
417.192	169.3
417.4	116.05
417.608	-23.21
417.817	-10.92
418.025	23.89
418.233	191.83
418.441	-23.21
418.649	-33.45
418.857	111.96
419.065	152.92
419.273	-8.87
419.481	77.14
419.689	56.66
419.897	34.13
420.105	-109.22
420.313	146.77
420.521	157.01
420.729	103.76
420.937	40.28
421.145	5.46
421.353	89.43
421.561	212.31
421.769	46.42
421.977	1.37
422.185	142.68
422.393	103.76
422.601	73.04
422.809	122.2
423.017	46.42
423.224	7.51
423.432	126.29
423.64	15.7
423.848	179.54
424.056	-2.73
424.263	150.87
424.471	30.04
424.679	136.53
424.887	-31.4
425.094	111.96
425.302	81.24
425.51	66.9
425.718	138.58
425.925	120.15
426.133	7.51
426.341	206.16
426.548	25.94
426.756	75.09
426.964	64.85
427.171	11.61
427.379	161.11
427.586	111.96
427.794	99.67
428.001	91.48
428.209	68.95
428.417	128.34
428.624	73.04
428.832	105.81
429.039	7.51
429.247	122.2
429.454	181.59
429.662	173.39
429.869	118.1
430.076	101.72
430.284	187.73
430.491	116.05
430.699	93.52
430.906	148.82
431.114	122.2
431.321	114
431.528	234.83
431.736	193.87
431.943	202.07
432.15	177.49
432.358	140.63
432.565	304.46
432.772	5.46
432.979	185.68
433.187	77.14
433.394	222.55
433.601	83.28
433.808	224.59
434.016	228.69
434.223	230.74
434.43	189.78
434.637	255.31
434.844	240.98
435.052	300.37
435.259	247.12
435.466	259.41
435.673	206.16
435.88	253.27
436.087	275.79
436.294	267.6
436.501	322.9
436.708	220.5
436.915	269.65
437.122	343.38
437.329	210.26
437.537	320.85
437.743	290.13
437.95	390.48
438.157	367.95
438.364	238.93
438.571	363.86
438.778	476.49
438.985	400.72
439.192	406.86
439.399	372.05
439.606	445.77
439.813	437.58
440.02	435.53
440.227	582.99
440.433	437.58
440.64	480.59
440.847	361.81
441.054	527.69
441.261	529.74
441.467	515.41
441.674	439.63
441.881	646.48
442.088	529.74
442.294	531.79
442.501	730.44
442.708	732.49
442.914	615.76
443.121	748.87
443.328	734.54
443.534	914.76
443.741	847.18
443.948	775.5
444.154	828.74
444.361	1066.31
444.568	945.48
444.774	994.63
444.981	886.09
445.187	1068.36
445.394	935.24
445.6	970.05
445.807	1117.51
446.013	1123.65
446.22	1068.36
446.426	1246.53
446.633	1224
446.839	1430.85
447.046	1228.1
447.252	1371.46
447.459	1332.55
447.665	1510.72
447.871	1602.88
448.078	1598.78
448.284	1668.41
448.491	1754.43
448.697	1819.96
448.903	1803.58
449.11	1848.63
449.316	1848.63
449.522	2026.81
449.728	2139.44
449.935	2129.2
450.141	2196.79
450.347	2368.82
450.553	2272.56
450.76	2368.82
450.966	2471.22
451.172	2669.87
451.378	2716.97
451.584	2780.46
451.791	2862.38
451.997	2975.02
452.203	3081.51
452.409	3306.79
452.615	3280.16
452.821	3138.85
453.027	3212.58
453.233	3800.35
453.44	3589.41
453.646	3857.69
453.852	3984.66
454.058	4164.89
454.264	4242.71
454.47	4449.55
454.676	4420.88
454.882	5002.51
455.088	4783.37
455.294	5053.7
455.5	5356.8
455.705	5786.88
455.911	5604.61
456.117	5817.6
456.323	5883.13
456.529	5971.19
456.735	6503.67
456.941	6659.31
457.147	6939.88
457.352	7165.16
457.558	7331.05
457.764	7802.08
457.97	7947.48
458.176	8213.72
458.381	8412.37
458.587	8901.84
458.793	9211.08
458.999	9028.81
459.204	10333.37
459.41	10757.3
459.616	10448.05
459.821	11328.68
460.027	11830.43
460.233	12301.47
460.438	12426.39
460.644	13067.41
460.85	13008.01
461.055	13399.18
461.261	14236.8
461.466	13956.22
461.672	14191.74
461.878	15854.69
462.083	15606.89
462.289	16176.22
462.494	16763.99
462.7	16888.92
462.905	17040.47
463.111	18652.22
463.316	19407.92
463.522	19794.98
463.727	20380.7
463.932	20976.66
464.138	21896.2
464.343	23006.2
464.549	22707.19
464.754	24665.05
464.959	25101.27
465.165	25777.1
465.37	25242.58
465.575	25482.19
465.781	27329.46
465.986	27804.59
466.191	27315.12
466.397	27960.23
466.602	27001.79
466.807	28654.5
467.012	29434.77
467.218	29899.66
467.423	29647.76
467.628	30571.39
467.833	32418.66
468.038	31417.21
468.244	31439.73
468.449	32846.69
468.654	32240.49
468.859	31824.75
469.064	31982.45
469.269	31216.5
