Data from USB4F104151__174__11-04-59-135.txt Node

Date: Wed Feb 26 11:04:59 EST 2025
User: louis
Spectrometer: USB4F10415
Trigger mode: 4
Integration Time (sec): 1.000000E-1
Scans to average: 1
Electric dark correction enabled: true
Nonlinearity correction enabled: false
Boxcar width: 0
XAxis mode: Wavelengths
Number of Pixels in Spectrum: 3648
>>>>>Begin Spectral Data<<<<<
178.204	-388.94
178.424	-388.94
178.644	-388.94
178.864	-384.85
179.084	-329.55
179.304	16.55
179.524	-69.46
179.744	-8.02
179.964	18.6
180.184	45.23
180.404	84.14
180.624	-69.46
180.844	14.51
181.064	-71.51
181.283	18.6
181.503	-38.74
181.723	59.56
181.943	6.31
182.163	266.41
182.383	8.36
182.602	73.9
182.822	121
183.042	69.8
183.262	-3.93
183.482	37.03
183.701	53.42
183.921	71.85
184.141	-1.88
184.361	77.99
184.58	59.56
184.8	67.75
185.02	2.22
185.239	168.1
185.459	157.86
185.679	92.33
185.898	-30.55
186.118	94.38
186.338	34.99
186.557	139.43
186.777	-30.55
186.997	-30.55
187.216	47.27
187.436	180.39
187.655	143.53
187.875	114.86
188.095	63.66
188.314	102.57
188.534	121
188.753	-51.03
188.973	204.97
189.192	96.43
189.412	-5.97
189.631	-18.26
189.851	123.05
190.07	194.73
190.29	-5.97
190.509	-57.17
190.729	16.55
190.948	184.49
191.168	194.73
191.387	102.57
191.607	59.56
191.826	166.06
192.045	53.42
192.265	4.27
192.484	151.72
192.704	57.51
192.923	-100.18
193.142	231.59
193.362	24.75
193.581	178.34
193.8	73.9
194.02	67.75
194.239	102.57
194.458	155.82
194.678	67.75
194.897	26.79
195.116	39.08
195.335	59.56
195.555	77.99
195.774	39.08
195.993	80.04
196.212	-10.07
196.432	41.13
196.651	12.46
196.87	118.95
197.089	215.21
197.308	34.99
197.528	98.47
197.747	-16.21
197.966	71.85
198.185	129.19
198.404	-3.93
198.623	114.86
198.842	186.54
199.062	94.38
199.281	190.63
199.5	26.79
199.719	121
199.938	100.52
200.157	123.05
200.376	133.29
200.595	180.39
200.814	82.09
201.033	-10.07
201.252	174.25
201.471	139.43
201.69	129.19
201.909	145.58
202.128	92.33
202.347	67.75
202.566	67.75
202.785	10.41
203.004	30.89
203.223	274.6
203.442	104.62
203.661	26.79
203.879	92.33
204.098	180.39
204.317	37.03
204.536	143.53
204.755	141.48
204.974	182.44
205.193	49.32
205.411	254.12
205.63	161.96
205.849	114.86
206.068	-1.88
206.287	39.08
206.505	147.62
206.724	-32.6
206.943	51.37
207.162	32.94
207.381	88.23
207.599	123.05
207.818	-20.31
208.037	16.55
208.255	0.17
208.474	28.84
208.693	73.9
208.911	-28.5
209.13	39.08
209.349	65.71
209.567	155.82
209.786	61.61
210.005	59.56
210.223	82.09
210.442	-77.65
210.661	30.89
210.879	94.38
211.098	80.04
211.316	94.38
211.535	71.85
211.753	123.05
211.972	69.8
212.191	49.32
212.409	28.84
212.628	41.13
212.846	51.37
213.065	-38.74
213.283	86.19
213.502	71.85
213.72	112.81
213.938	104.62
214.157	28.84
214.375	98.47
214.594	45.23
214.812	96.43
215.031	61.61
215.249	67.75
215.467	108.71
215.686	94.38
215.904	108.71
216.122	55.47
216.341	112.81
216.559	110.76
216.778	102.57
216.996	178.34
217.214	116.9
217.432	65.71
217.651	-48.98
217.869	82.09
218.087	88.23
218.306	51.37
218.524	100.52
218.742	32.94
218.96	61.61
219.179	32.94
219.397	14.51
219.615	264.36
219.833	98.47
220.051	34.99
220.27	127.14
220.488	73.9
220.706	75.95
220.924	47.27
221.142	102.57
221.36	147.62
221.578	110.76
221.796	73.9
222.015	18.6
222.233	84.14
222.451	233.64
222.669	-24.4
222.887	135.34
223.105	51.37
223.323	10.41
223.541	-8.02
223.759	96.43
223.977	28.84
224.195	174.25
224.413	139.43
224.631	77.99
224.849	73.9
225.067	227.5
225.285	-53.08
225.503	-22.36
225.721	-73.56
225.939	84.14
226.157	67.75
226.375	178.34
226.592	41.13
226.81	75.95
227.028	121
227.246	161.96
227.464	37.03
227.682	143.53
227.9	73.9
228.117	67.75
228.335	135.34
228.553	24.75
228.771	30.89
228.989	43.18
229.206	141.48
229.424	16.55
229.642	88.23
229.86	24.75
230.077	180.39
230.295	65.71
230.513	110.76
230.731	37.03
230.948	207.02
231.166	166.06
231.384	39.08
231.601	-10.07
231.819	153.77
232.037	-46.93
232.254	-22.36
232.472	47.27
232.689	67.75
232.907	114.86
233.125	73.9
233.342	20.65
233.56	-1.88
233.777	-16.21
233.995	10.41
234.213	202.92
234.43	92.33
234.648	80.04
234.865	28.84
235.083	98.47
235.3	49.32
235.518	209.06
235.735	84.14
235.953	92.33
236.17	100.52
236.388	22.7
236.605	45.23
236.822	106.67
237.04	131.24
237.257	53.42
237.475	28.84
237.692	98.47
237.909	94.38
238.127	108.71
238.344	151.72
238.562	172.2
238.779	8.36
238.996	-65.36
239.214	34.99
239.431	153.77
239.648	118.95
239.865	67.75
240.083	75.95
240.3	-71.51
240.517	43.18
240.735	24.75
240.952	149.67
241.169	82.09
241.386	32.94
241.603	57.51
241.821	86.19
242.038	65.71
242.255	90.28
242.472	32.94
242.689	49.32
242.907	112.81
243.124	71.85
243.341	73.9
243.558	73.9
243.775	-46.93
243.992	-40.79
244.209	116.9
244.426	250.02
244.643	63.66
244.86	123.05
245.078	98.47
245.295	100.52
245.512	94.38
245.729	4.27
245.946	63.66
246.163	45.23
246.38	90.28
246.597	65.71
246.814	-36.69
247.031	100.52
247.248	-53.08
247.464	59.56
247.681	114.86
247.898	112.81
248.115	26.79
248.332	-1.88
248.549	92.33
248.766	172.2
248.983	108.71
249.2	98.47
249.417	125.1
249.633	39.08
249.85	73.9
250.067	114.86
250.284	100.52
250.501	155.82
250.717	221.35
250.934	-12.12
251.151	73.9
251.368	131.24
251.585	112.81
251.801	73.9
252.018	-42.84
252.235	108.71
252.451	-36.69
252.668	32.94
252.885	209.06
253.102	51.37
253.318	14.51
253.535	41.13
253.752	-26.45
253.968	32.94
254.185	-40.79
254.401	73.9
254.618	80.04
254.835	39.08
255.051	211.11
255.268	34.99
255.484	159.91
255.701	-1.88
255.917	71.85
256.134	-36.69
256.351	63.66
256.567	-14.17
256.784	65.71
257	-51.03
257.217	98.47
257.433	129.19
257.65	94.38
257.866	131.24
258.082	-26.45
258.299	51.37
258.515	108.71
258.732	-14.17
258.948	-42.84
259.165	2.22
259.381	-10.07
259.597	151.72
259.814	2.22
260.03	30.89
260.246	10.41
260.463	88.23
260.679	125.1
260.895	-5.97
261.112	90.28
261.328	10.41
261.544	84.14
261.761	202.92
261.977	37.03
262.193	-96.08
262.409	118.95
262.626	71.85
262.842	96.43
263.058	53.42
263.274	151.72
263.49	2.22
263.707	131.24
263.923	139.43
264.139	2.22
264.355	96.43
264.571	168.1
264.787	110.76
265.004	172.2
265.22	94.38
265.436	18.6
265.652	-20.31
265.868	73.9
266.084	-12.12
266.3	28.84
266.516	6.31
266.732	151.72
266.948	80.04
267.164	-36.69
267.38	178.34
267.596	77.99
267.812	180.39
268.028	67.75
268.244	37.03
268.46	55.47
268.676	-10.07
268.892	47.27
269.108	2.22
269.324	30.89
269.54	-30.55
269.756	118.95
269.972	-12.12
270.188	45.23
270.403	-14.17
270.619	41.13
270.835	43.18
271.051	69.8
271.267	47.27
271.483	-34.64
271.698	98.47
271.914	104.62
272.13	61.61
272.346	12.46
272.562	98.47
272.777	135.34
272.993	118.95
273.209	14.51
273.425	143.53
273.64	-3.93
273.856	104.62
274.072	39.08
274.287	86.19
274.503	43.18
274.719	63.66
274.934	-28.5
275.15	-16.21
275.366	75.95
275.581	-98.13
275.797	32.94
276.012	92.33
276.228	12.46
276.444	71.85
276.659	207.02
276.875	0.17
277.09	14.51
277.306	8.36
277.521	71.85
277.737	47.27
277.952	106.67
278.168	-8.02
278.383	49.32
278.599	116.9
278.814	94.38
279.03	51.37
279.245	147.62
279.461	45.23
279.676	129.19
279.892	-67.41
280.107	-8.02
280.322	43.18
280.538	151.72
280.753	0.17
280.969	53.42
281.184	28.84
281.399	245.93
281.615	69.8
281.83	90.28
282.045	-48.98
282.26	10.41
282.476	-16.21
282.691	147.62
282.906	75.95
283.122	71.85
283.337	-38.74
283.552	102.57
283.767	129.19
283.983	157.86
284.198	16.55
284.413	108.71
284.628	2.22
284.843	-10.07
285.058	77.99
285.274	53.42
285.489	41.13
285.704	98.47
285.919	51.37
286.134	59.56
286.349	20.65
286.564	32.94
286.779	155.82
286.995	28.84
287.21	2.22
287.425	49.32
287.64	-16.21
287.855	127.14
288.07	-10.07
288.285	143.53
288.5	94.38
288.715	59.56
288.93	100.52
289.145	10.41
289.36	131.24
289.575	-32.6
289.79	192.68
290.004	-63.32
290.219	153.77
290.434	77.99
290.649	-12.12
290.864	34.99
291.079	73.9
291.294	53.42
291.509	84.14
291.724	51.37
291.938	41.13
292.153	141.48
292.368	10.41
292.583	94.38
292.798	90.28
293.012	88.23
293.227	69.8
293.442	-8.02
293.657	211.11
293.871	178.34
294.086	26.79
294.301	266.41
294.516	145.58
294.73	118.95
294.945	-16.21
295.16	63.66
295.374	147.62
295.589	200.87
295.804	28.84
296.018	26.79
296.233	168.1
296.447	65.71
296.662	-10.07
296.877	47.27
297.091	69.8
297.306	147.62
297.52	45.23
297.735	39.08
297.949	88.23
298.164	131.24
298.378	49.32
298.593	86.19
298.807	55.47
299.022	75.95
299.236	131.24
299.451	16.55
299.665	24.75
299.88	53.42
300.094	102.57
300.309	26.79
300.523	71.85
300.737	-28.5
300.952	73.9
301.166	129.19
301.381	63.66
301.595	16.55
301.809	157.86
302.024	69.8
302.238	-61.27
302.452	106.67
302.667	73.9
302.881	26.79
303.095	135.34
303.309	53.42
303.524	30.89
303.738	86.19
303.952	86.19
304.166	57.51
304.381	-46.93
304.595	207.02
304.809	26.79
305.023	166.06
305.237	28.84
305.452	131.24
305.666	86.19
305.88	104.62
306.094	186.54
306.308	77.99
306.522	61.61
306.736	129.19
306.95	102.57
307.164	32.94
307.379	-44.88
307.593	157.86
307.807	149.67
308.021	161.96
308.235	106.67
308.449	-44.88
308.663	71.85
308.877	262.31
309.091	12.46
309.305	110.76
309.519	-1.88
309.733	157.86
309.947	45.23
310.161	82.09
310.374	49.32
310.588	161.96
310.802	16.55
311.016	34.99
311.23	116.9
311.444	18.6
311.658	37.03
311.872	77.99
312.085	159.91
312.299	123.05
312.513	188.58
312.727	30.89
312.941	-20.31
313.154	43.18
313.368	114.86
313.582	67.75
313.796	63.66
314.009	73.9
314.223	108.71
314.437	45.23
314.651	161.96
314.864	53.42
315.078	63.66
315.292	-51.03
315.505	34.99
315.719	-18.26
315.933	75.95
316.146	24.75
316.36	-8.02
316.573	133.29
316.787	90.28
317.001	118.95
317.214	16.55
317.428	121
317.641	-51.03
317.855	-16.21
318.068	98.47
318.282	49.32
318.495	168.1
318.709	143.53
318.922	47.27
319.136	127.14
319.349	98.47
319.563	86.19
319.776	133.29
319.99	6.31
320.203	168.1
320.417	102.57
320.63	151.72
320.843	221.35
321.057	41.13
321.27	8.36
321.483	49.32
321.697	67.75
321.91	-38.74
322.124	6.31
322.337	137.38
322.55	-14.17
322.763	112.81
322.977	77.99
323.19	6.31
323.403	75.95
323.617	164.01
323.83	49.32
324.043	49.32
324.256	37.03
324.469	14.51
324.683	108.71
324.896	65.71
325.109	65.71
325.322	-57.17
325.535	159.91
325.748	157.86
325.962	71.85
326.175	61.61
326.388	43.18
326.601	106.67
326.814	77.99
327.027	127.14
327.24	225.45
327.453	-5.97
327.666	90.28
327.879	77.99
328.092	98.47
328.305	90.28
328.518	84.14
328.731	69.8
328.944	69.8
329.157	116.9
329.37	-14.17
329.583	135.34
329.796	204.97
330.009	-10.07
330.222	57.51
330.435	139.43
330.648	102.57
330.861	65.71
331.073	65.71
331.286	108.71
331.499	114.86
331.712	16.55
331.925	88.23
332.138	63.66
332.35	92.33
332.563	6.31
332.776	102.57
332.989	59.56
333.202	69.8
333.414	55.47
333.627	71.85
333.84	75.95
334.053	127.14
334.265	127.14
334.478	65.71
334.691	12.46
334.903	80.04
335.116	-12.12
335.329	71.85
335.541	155.82
335.754	290.98
335.966	57.51
336.179	98.47
336.392	20.65
336.604	51.37
336.817	116.9
337.029	137.38
337.242	41.13
337.454	133.29
337.667	82.09
337.88	198.82
338.092	59.56
338.305	92.33
338.517	-1.88
338.729	198.82
338.942	143.53
339.154	69.8
339.367	6.31
339.579	75.95
339.792	63.66
340.004	75.95
340.217	-32.6
340.429	59.56
340.641	24.75
340.854	55.47
341.066	94.38
341.278	184.49
341.491	178.34
341.703	55.47
341.915	-46.93
342.128	112.81
342.34	82.09
342.552	12.46
342.764	65.71
342.977	80.04
343.189	121
343.401	73.9
343.613	-40.79
343.826	84.14
344.038	34.99
344.25	-1.88
344.462	32.94
344.674	49.32
344.886	39.08
345.099	24.75
345.311	102.57
345.523	6.31
345.735	-12.12
345.947	135.34
346.159	57.51
346.371	-1.88
346.583	26.79
346.795	225.45
347.007	-3.93
347.219	114.86
347.431	57.51
347.643	133.29
347.855	-55.12
348.067	151.72
348.279	8.36
348.491	2.22
348.703	127.14
348.915	14.51
349.127	4.27
349.339	102.57
349.551	-20.31
349.763	166.06
349.975	80.04
350.187	149.67
350.399	184.49
350.61	112.81
350.822	61.61
351.034	98.47
351.246	127.14
351.458	129.19
351.669	139.43
351.881	118.95
352.093	125.1
352.305	131.24
352.517	108.71
352.728	63.66
352.94	86.19
353.152	63.66
353.363	20.65
353.575	114.86
353.787	155.82
353.999	71.85
354.21	145.58
354.422	-28.5
354.633	0.17
354.845	32.94
355.057	139.43
355.268	84.14
355.48	24.75
355.692	-12.12
355.903	22.7
356.115	-3.93
356.326	-44.88
356.538	110.76
356.749	149.67
356.961	233.64
357.172	114.86
357.384	-46.93
357.595	229.54
357.807	2.22
358.018	16.55
358.23	55.47
358.441	213.16
358.653	24.75
358.864	106.67
359.075	63.66
359.287	94.38
359.498	135.34
359.709	149.67
359.921	26.79
360.132	73.9
360.344	34.99
360.555	47.27
360.766	80.04
360.977	104.62
361.189	149.67
361.4	-32.6
361.611	143.53
361.823	170.15
362.034	34.99
362.245	-87.89
362.456	75.95
362.667	69.8
362.879	-75.6
363.09	139.43
363.301	20.65
363.512	82.09
363.723	-1.88
363.935	28.84
364.146	82.09
364.357	131.24
364.568	80.04
364.779	61.61
364.99	166.06
365.201	28.84
365.412	96.43
365.623	-128.85
365.834	141.48
366.045	118.95
366.256	110.76
366.467	139.43
366.678	4.27
366.889	32.94
367.1	-40.79
367.311	116.9
367.522	-51.03
367.733	102.57
367.944	59.56
368.155	65.71
368.366	41.13
368.577	184.49
368.788	69.8
368.999	41.13
369.209	22.7
369.42	229.54
369.631	209.06
369.842	80.04
370.053	84.14
370.264	166.06
370.474	112.81
370.685	108.71
370.896	24.75
371.107	172.2
371.317	30.89
371.528	110.76
371.739	182.44
371.95	102.57
372.16	129.19
372.371	53.42
372.582	45.23
372.792	129.19
373.003	129.19
373.214	121
373.424	77.99
373.635	16.55
373.846	176.3
374.056	43.18
374.267	75.95
374.477	69.8
374.688	92.33
374.898	129.19
375.109	73.9
375.319	75.95
375.53	178.34
375.74	94.38
375.951	65.71
376.161	108.71
376.372	192.68
376.582	6.31
376.793	100.52
377.003	39.08
377.214	8.36
377.424	49.32
377.635	0.17
377.845	67.75
378.055	151.72
378.266	-63.32
378.476	45.23
378.686	108.71
378.897	155.82
379.107	151.72
379.317	104.62
379.528	-1.88
379.738	196.78
379.948	-24.4
380.158	96.43
380.369	92.33
380.579	75.95
380.789	92.33
380.999	149.67
381.21	80.04
381.42	241.83
381.63	98.47
381.84	108.71
382.05	110.76
382.261	159.91
382.471	131.24
382.681	-73.56
382.891	223.4
383.101	86.19
383.311	53.42
383.521	-3.93
383.731	61.61
383.941	145.58
384.151	133.29
384.361	14.51
384.571	84.14
384.781	159.91
384.991	176.3
385.201	225.45
385.411	137.38
385.621	131.24
385.831	80.04
386.041	96.43
386.251	80.04
386.461	225.45
386.671	32.94
386.881	106.67
387.091	6.31
387.301	114.86
387.511	80.04
387.72	131.24
387.93	86.19
388.14	-48.98
388.35	178.34
388.56	190.63
388.769	161.96
388.979	55.47
389.189	14.51
389.399	10.41
389.609	12.46
389.818	141.48
390.028	125.1
390.238	116.9
390.447	8.36
390.657	39.08
390.867	63.66
391.076	20.65
391.286	75.95
391.496	39.08
391.705	63.66
391.915	125.1
392.125	84.14
392.334	2.22
392.544	190.63
392.753	90.28
392.963	-36.69
393.172	-5.97
393.382	12.46
393.591	176.3
393.801	49.32
394.01	221.35
394.22	102.57
394.429	69.8
394.639	94.38
394.848	174.25
395.058	45.23
395.267	108.71
395.477	129.19
395.686	55.47
395.895	213.16
396.105	164.01
396.314	108.71
396.524	16.55
396.733	80.04
396.942	176.3
397.152	143.53
397.361	145.58
397.57	125.1
397.78	43.18
397.989	57.51
398.198	227.5
398.407	215.21
398.617	75.95
398.826	88.23
399.035	47.27
399.244	88.23
399.453	84.14
399.663	51.37
399.872	65.71
400.081	24.75
400.29	159.91
400.499	4.27
400.708	135.34
400.917	84.14
401.127	112.81
401.336	4.27
401.545	229.54
401.754	200.87
401.963	94.38
402.172	0.17
402.381	-26.45
402.59	55.47
402.799	57.51
403.008	67.75
403.217	90.28
403.426	32.94
403.635	-61.27
403.844	129.19
404.053	10.41
404.262	39.08
404.471	229.54
404.68	86.19
404.888	47.27
405.097	86.19
405.306	118.95
405.515	135.34
405.724	-20.31
405.933	73.9
406.142	43.18
406.35	229.54
406.559	67.75
406.768	118.95
406.977	172.2
407.185	94.38
407.394	53.42
407.603	-65.36
407.812	75.95
408.02	180.39
408.229	67.75
408.438	121
408.646	53.42
408.855	86.19
409.064	143.53
409.272	51.37
409.481	127.14
409.69	47.27
409.898	-16.21
410.107	121
410.315	190.63
410.524	43.18
410.733	88.23
410.941	43.18
411.15	229.54
411.358	123.05
411.567	116.9
411.775	14.51
411.984	18.6
412.192	198.82
412.401	45.23
412.609	139.43
412.818	108.71
413.026	69.8
413.234	104.62
413.443	106.67
413.651	0.17
413.86	18.6
414.068	207.02
414.276	188.58
414.485	57.51
414.693	123.05
414.901	241.83
415.11	61.61
415.318	65.71
415.526	129.19
415.734	84.14
415.943	147.62
416.151	108.71
416.359	-36.69
416.567	82.09
416.776	116.9
416.984	190.63
417.192	174.25
417.4	51.37
417.608	45.23
417.817	4.27
418.025	49.32
418.233	231.59
418.441	-63.32
418.649	41.13
418.857	133.29
419.065	200.87
419.273	45.23
419.481	114.86
419.689	12.46
419.897	69.8
420.105	20.65
420.313	94.38
420.521	190.63
420.729	221.35
420.937	-75.6
421.145	49.32
421.353	125.1
421.561	204.97
421.769	84.14
421.977	102.57
422.185	196.78
422.393	63.66
422.601	139.43
422.809	43.18
423.017	133.29
423.224	53.42
423.432	96.43
423.64	75.95
423.848	178.34
424.056	-22.36
424.263	137.38
424.471	73.9
424.679	221.35
424.887	69.8
425.094	170.15
425.302	100.52
425.51	59.56
425.718	157.86
425.925	155.82
426.133	80.04
426.341	215.21
426.548	106.67
426.756	73.9
426.964	135.34
427.171	61.61
427.379	114.86
427.586	96.43
427.794	123.05
428.001	223.4
428.209	129.19
428.417	233.64
428.624	157.86
428.832	184.49
429.039	180.39
429.247	39.08
429.454	143.53
429.662	264.36
429.869	129.19
430.076	198.82
430.284	215.21
430.491	190.63
430.699	186.54
430.906	186.54
431.114	84.14
431.321	157.86
431.528	116.9
431.736	194.73
431.943	237.74
432.15	227.5
432.358	229.54
432.565	243.88
432.772	71.85
432.979	270.5
433.187	159.91
433.394	223.4
433.601	200.87
433.808	284.84
434.016	204.97
434.223	233.64
434.43	282.79
434.637	348.33
434.844	364.71
435.052	274.6
435.259	286.89
435.466	297.13
435.673	270.5
435.88	313.51
436.087	387.24
436.294	309.41
436.501	311.46
436.708	299.17
436.915	317.61
437.122	385.19
437.329	319.65
437.537	307.37
437.743	356.52
437.95	460.96
438.157	299.17
438.364	329.89
438.571	379.04
438.778	409.76
438.985	448.68
439.192	542.88
439.399	508.07
439.606	465.06
439.813	567.46
440.02	708.77
440.227	708.77
440.433	600.23
440.64	598.18
440.847	571.55
441.054	657.57
441.261	819.36
441.467	594.08
441.674	647.33
441.881	780.45
442.088	661.66
442.294	835.74
442.501	837.79
442.708	800.93
442.914	886.94
443.121	948.38
443.328	913.56
443.534	999.58
443.741	964.76
443.948	913.56
444.154	966.81
444.361	1222.81
444.568	1085.59
444.774	1142.94
444.981	1063.07
445.187	1394.84
445.394	1220.76
445.6	1171.61
445.807	1413.27
446.013	1276.06
446.22	1360.02
446.426	1556.63
446.633	1505.43
446.839	1702.03
447.046	1532.05
447.252	1771.66
447.459	1732.75
447.665	1716.37
447.871	1966.22
448.078	2035.85
448.284	1949.84
448.491	2019.47
448.697	2236.55
448.903	2242.7
449.11	2343.05
449.316	2386.05
449.522	2482.31
449.728	2556.04
449.935	2723.97
450.141	2558.08
450.347	2824.32
450.553	2769.02
450.76	2887.81
450.966	3102.84
451.172	3170.43
451.378	3307.64
451.584	3299.45
451.791	3618.93
451.997	3641.46
452.203	3721.33
452.409	3997.81
452.615	3995.76
452.821	4044.91
453.027	4018.29
453.233	4577.38
453.44	4305
453.646	4618.34
453.852	4939.87
454.058	5128.28
454.264	5066.85
454.47	5554.26
454.676	5660.76
454.882	6074.45
455.088	6010.96
455.294	6117.45
455.5	6467.66
455.705	6752.32
455.911	7004.22
456.117	7028.8
456.323	7385.15
456.529	7061.57
456.735	7890.99
456.941	8335.4
457.147	8638.5
457.352	8755.24
457.558	9041.95
457.764	9502.75
457.97	9900.05
458.176	10240.01
458.381	10727.43
458.587	10950.66
458.793	11583.48
458.999	11526.14
459.204	12875.75
459.41	13588.44
459.616	13098.98
459.821	14022.61
460.027	14663.63
460.233	15165.38
460.438	15273.92
460.644	16101.3
460.85	16201.65
461.055	16967.59
461.261	17801.12
461.466	17450.91
461.672	18067.35
461.878	19718.01
462.083	19781.5
462.289	19865.47
462.494	21102.44
462.7	21041
462.905	21301.09
463.111	22882.13
463.316	24115
463.522	24557.36
463.727	25251.63
463.932	26539.8
464.138	27098.89
464.343	28167.93
464.549	28432.12
464.754	30469.85
464.959	31512.27
465.165	31987.39
465.37	31674.06
465.575	31606.47
465.781	33572.52
465.986	35006.1
466.191	34195.1
466.397	34492.06
466.602	33971.88
466.807	35796.62
467.012	35915.4
467.218	36869.75
467.423	36544.13
467.628	37946.98
467.833	40107.59
468.038	39052.89
