Data from USB4F104151__0__10-40-43-406.txt Node

Date: Wed Feb 26 10:40:43 EST 2025
User: louis
Spectrometer: USB4F10415
Trigger mode: 4
Integration Time (sec): 1.000000E-1
Scans to average: 1
Electric dark correction enabled: true
Nonlinearity correction enabled: false
Boxcar width: 0
XAxis mode: Wavelengths
Number of Pixels in Spectrum: 3648
>>>>>Begin Spectral Data<<<<<
178.204	-421.2
178.424	-421.2
178.644	-421.2
178.864	-355.66
179.084	-351.57
179.304	12.97
179.524	-36.18
179.744	-52.56
179.964	-7.51
180.184	88.75
180.404	-34.13
180.624	43.69
180.844	68.27
181.064	-103.76
181.283	45.74
181.503	-60.76
181.723	35.5
181.943	-109.91
182.163	215.72
182.383	-56.66
182.602	86.7
182.822	156.33
183.042	51.88
183.262	-85.33
183.482	-54.61
183.701	49.83
183.921	0.68
184.141	31.4
184.361	62.12
184.58	80.55
184.8	94.89
185.02	33.45
185.239	187.05
185.459	12.97
185.679	152.23
185.898	-42.32
186.118	92.84
186.338	39.59
186.557	115.37
186.777	-15.7
186.997	-40.28
187.216	55.98
187.436	154.28
187.655	133.8
187.875	-19.8
188.095	80.55
188.314	103.08
188.534	139.94
188.753	-62.8
188.973	-1.37
189.192	172.71
189.412	-30.04
189.631	0.68
189.851	78.51
190.07	119.46
190.29	-46.42
190.509	45.74
190.729	-34.13
190.948	144.04
191.168	262.82
191.387	133.8
191.607	92.84
191.826	31.4
192.045	21.16
192.265	21.16
192.484	39.59
192.704	27.31
192.923	8.87
193.142	178.86
193.362	80.55
193.581	141.99
193.8	23.21
194.02	49.83
194.239	74.41
194.458	96.94
194.678	-1.37
194.897	19.11
195.116	55.98
195.335	60.07
195.555	41.64
195.774	17.07
195.993	86.7
196.212	15.02
196.432	76.46
196.651	25.26
196.87	62.12
197.089	230.06
197.308	41.64
197.528	33.45
197.747	-9.56
197.966	62.12
198.185	129.7
198.404	-52.56
198.623	47.79
198.842	109.22
199.062	45.74
199.281	47.79
199.5	96.94
199.719	19.11
199.938	15.02
200.157	78.51
200.376	117.42
200.595	178.86
200.814	113.32
201.033	-1.37
201.252	240.29
201.471	101.03
201.69	37.55
201.909	23.21
202.128	117.42
202.347	125.61
202.566	-27.99
202.785	-71
203.004	25.26
203.223	275.11
203.442	35.5
203.661	-17.75
203.879	96.94
204.098	148.14
204.317	-15.7
204.536	115.37
204.755	88.75
204.974	119.46
205.193	45.74
205.411	74.41
205.63	141.99
205.849	90.79
206.068	39.59
206.287	-23.89
206.505	133.8
206.724	39.59
206.943	-21.85
207.162	84.65
207.381	33.45
207.599	-15.7
207.818	41.64
208.037	-42.32
208.255	82.6
208.474	51.88
208.693	-1.37
208.911	-58.71
209.13	90.79
209.349	19.11
209.567	88.75
209.786	39.59
210.005	43.69
210.223	33.45
210.442	-140.63
210.661	25.26
210.879	25.26
211.098	23.21
211.316	111.27
211.535	41.64
211.753	55.98
211.972	139.94
212.191	-21.85
212.409	21.16
212.628	62.12
212.846	12.97
213.065	68.27
213.283	223.91
213.502	10.92
213.72	109.22
213.938	51.88
214.157	113.32
214.375	101.03
214.594	10.92
214.812	60.07
215.031	43.69
215.249	-23.89
215.467	80.55
215.686	92.84
215.904	74.41
216.122	98.99
216.341	176.81
216.559	-7.51
216.778	101.03
216.996	168.62
217.214	25.26
217.432	-7.51
217.651	-46.42
217.869	43.69
218.087	55.98
218.306	80.55
218.524	-11.61
218.742	47.79
218.96	78.51
219.179	84.65
219.397	2.73
219.615	178.86
219.833	55.98
220.051	-34.13
220.27	111.27
220.488	109.22
220.706	33.45
220.924	6.83
221.142	-44.37
221.36	43.69
221.578	135.85
221.796	-9.56
222.015	27.31
222.233	135.85
222.451	164.52
222.669	-23.89
222.887	12.97
223.105	35.5
223.323	90.79
223.541	-30.04
223.759	70.31
223.977	53.93
224.195	139.94
224.413	19.11
224.631	43.69
224.849	101.03
225.067	219.82
225.285	21.16
225.503	58.03
225.721	-95.57
225.939	-48.47
226.157	33.45
226.375	187.05
226.592	-52.56
226.81	35.5
227.028	129.7
227.246	170.66
227.464	0.68
227.682	64.17
227.9	105.13
228.117	21.16
228.335	51.88
228.553	15.02
228.771	43.69
228.989	51.88
229.206	84.65
229.424	62.12
229.642	-7.51
229.86	-13.65
230.077	148.14
230.295	19.11
230.513	127.66
230.731	109.22
230.948	221.86
231.166	203.43
231.384	-23.89
231.601	33.45
231.819	180.9
232.037	-64.85
232.254	-1.37
232.472	35.5
232.689	-7.51
232.907	127.66
233.125	21.16
233.342	17.07
233.56	10.92
233.777	45.74
233.995	-1.37
234.213	125.61
234.43	103.08
234.648	41.64
234.865	119.46
235.083	66.22
235.3	21.16
235.518	88.75
235.735	166.57
235.953	105.13
236.17	-83.28
236.388	17.07
236.605	68.27
236.822	92.84
237.04	-9.56
237.257	23.21
237.475	-77.14
237.692	12.97
237.909	33.45
238.127	-7.51
238.344	94.89
238.562	41.64
238.779	-38.23
238.996	-60.76
239.214	-19.8
239.431	125.61
239.648	21.16
239.865	-5.46
240.083	182.95
240.3	25.26
240.517	23.21
240.735	53.93
240.952	121.51
241.169	-7.51
241.386	41.64
241.603	82.6
241.821	-19.8
242.038	94.89
242.255	47.79
242.472	-40.28
242.689	70.31
242.907	74.41
243.124	156.33
243.341	29.35
243.558	39.59
243.775	-91.48
243.992	-36.18
244.209	19.11
244.426	166.57
244.643	82.6
244.86	74.41
245.078	148.14
245.295	105.13
245.512	31.4
245.729	-13.65
245.946	82.6
246.163	115.37
246.38	23.21
246.597	15.02
246.814	66.22
247.031	25.26
247.248	8.87
247.464	17.07
247.681	60.07
247.898	82.6
248.115	84.65
248.332	41.64
248.549	109.22
248.766	201.38
248.983	94.89
249.2	86.7
249.417	107.18
249.633	-13.65
249.85	101.03
250.067	-27.99
250.284	10.92
250.501	70.31
250.717	84.65
250.934	-46.42
251.151	27.31
251.368	12.97
251.585	2.73
251.801	62.12
252.018	6.83
252.235	133.8
252.451	-77.14
252.668	84.65
252.885	111.27
253.102	12.97
253.318	-11.61
253.535	-60.76
253.752	-19.8
253.968	6.83
254.185	-56.66
254.401	101.03
254.618	64.17
254.835	64.17
255.051	107.18
255.268	84.65
255.484	74.41
255.701	82.6
255.917	146.09
256.134	-52.56
256.351	47.79
256.567	-89.43
256.784	49.83
257	-40.28
257.217	115.37
257.433	88.75
257.65	84.65
257.866	234.15
258.082	-73.04
258.299	-13.65
258.515	31.4
258.732	-7.51
258.948	-1.37
259.165	58.03
259.381	-34.13
259.597	107.18
259.814	2.73
260.03	35.5
260.246	29.35
260.463	94.89
260.679	109.22
260.895	74.41
261.112	58.03
261.328	25.26
261.544	-83.28
261.761	174.76
261.977	-75.09
262.193	21.16
262.409	55.98
262.626	47.79
262.842	60.07
263.058	-42.32
263.274	115.37
263.49	45.74
263.707	164.52
263.923	62.12
264.139	-44.37
264.355	17.07
264.571	37.55
264.787	74.41
265.004	129.7
265.22	43.69
265.436	-17.75
265.652	74.41
265.868	80.55
266.084	35.5
266.3	84.65
266.516	-46.42
266.732	113.32
266.948	68.27
267.164	21.16
267.38	107.18
267.596	-50.52
267.812	101.03
268.028	41.64
268.244	37.55
268.46	-7.51
268.676	0.68
268.892	111.27
269.108	0.68
269.324	8.87
269.54	15.02
269.756	78.51
269.972	39.59
270.188	45.74
270.403	-27.99
270.619	17.07
270.835	117.42
271.051	35.5
271.267	-17.75
271.483	6.83
271.698	37.55
271.914	35.5
272.13	105.13
272.346	27.31
272.562	6.83
272.777	119.46
272.993	-17.75
273.209	-13.65
273.425	60.07
273.64	-62.8
273.856	131.75
274.072	-9.56
274.287	-54.61
274.503	82.6
274.719	6.83
274.934	27.31
275.15	10.92
275.366	47.79
275.581	-56.66
275.797	-50.52
276.012	90.79
276.228	-19.8
276.444	51.88
276.659	98.99
276.875	-21.85
277.09	25.26
277.306	8.87
277.521	49.83
277.737	-1.37
277.952	51.88
278.168	-75.09
278.383	49.83
278.599	-11.61
278.814	84.65
279.03	76.46
279.245	127.66
279.461	31.4
279.676	10.92
279.892	23.21
280.107	-91.48
280.322	-27.99
280.538	66.22
280.753	23.21
280.969	0.68
281.184	23.21
281.399	172.71
281.615	12.97
281.83	10.92
282.045	17.07
282.26	2.73
282.476	41.64
282.691	62.12
282.906	21.16
283.122	105.13
283.337	6.83
283.552	55.98
283.767	-23.89
283.983	123.56
284.198	19.11
284.413	101.03
284.628	-118.1
284.843	19.11
285.058	70.31
285.274	19.11
285.489	8.87
285.704	121.51
285.919	12.97
286.134	39.59
286.349	55.98
286.564	-79.19
286.779	152.23
286.995	-89.43
287.21	-75.09
287.425	144.04
287.64	19.11
287.855	47.79
288.07	-13.65
288.285	66.22
288.5	125.61
288.715	60.07
288.93	72.36
289.145	78.51
289.36	158.38
289.575	4.78
289.79	121.51
290.004	33.45
290.219	105.13
290.434	-25.94
290.649	0.68
290.864	-54.61
291.079	70.31
291.294	111.27
291.509	2.73
291.724	4.78
291.938	62.12
292.153	86.7
292.368	-13.65
292.583	127.66
292.798	8.87
293.012	105.13
293.227	70.31
293.442	-38.23
293.657	146.09
293.871	76.46
294.086	37.55
294.301	178.86
294.516	70.31
294.73	62.12
294.945	8.87
295.16	25.26
295.374	107.18
295.589	47.79
295.804	-40.28
296.018	74.41
296.233	109.22
296.447	72.36
296.662	-21.85
296.877	176.81
297.091	105.13
297.306	55.98
297.52	68.27
297.735	96.94
297.949	-30.04
298.164	17.07
298.378	31.4
298.593	-38.23
298.807	-1.37
299.022	-36.18
299.236	103.08
299.451	8.87
299.665	47.79
299.88	4.78
300.094	70.31
300.309	-44.37
300.523	0.68
300.737	12.97
300.952	76.46
301.166	94.89
301.381	-44.37
301.595	-58.71
301.809	29.35
302.024	-17.75
302.238	-25.94
302.452	148.14
302.667	154.28
302.881	139.94
303.095	105.13
303.309	58.03
303.524	31.4
303.738	37.55
303.952	-30.04
304.166	115.37
304.381	-189.78
304.595	174.76
304.809	12.97
305.023	45.74
305.237	-42.32
305.452	39.59
305.666	76.46
305.88	58.03
306.094	76.46
306.308	12.97
306.522	76.46
306.736	2.73
306.95	80.55
307.164	21.16
307.379	64.17
307.593	129.7
307.807	113.32
308.021	70.31
308.235	55.98
308.449	35.5
308.663	6.83
308.877	176.81
309.091	-17.75
309.305	86.7
309.519	-75.09
309.733	90.79
309.947	-81.24
310.161	64.17
310.374	117.42
310.588	158.38
310.802	-50.52
311.016	-42.32
311.23	60.07
311.444	6.83
311.658	0.68
311.872	119.46
312.085	166.57
312.299	137.9
312.513	166.57
312.727	49.83
312.941	-36.18
313.154	45.74
313.368	2.73
313.582	72.36
313.796	23.21
314.009	17.07
314.223	158.38
314.437	111.27
314.651	121.51
314.864	-9.56
315.078	-13.65
315.292	-83.28
315.505	2.73
315.719	76.46
315.933	119.46
316.146	-30.04
316.36	43.69
316.573	150.18
316.787	-9.56
317.001	29.35
317.214	-48.47
317.428	68.27
317.641	-9.56
317.855	41.64
318.068	80.55
318.282	-19.8
318.495	115.37
318.709	4.78
318.922	41.64
319.136	152.23
319.349	117.42
319.563	19.11
319.776	90.79
319.99	-60.76
320.203	127.66
320.417	84.65
320.63	88.75
320.843	148.14
321.057	72.36
321.27	-44.37
321.483	49.83
321.697	150.18
321.91	37.55
322.124	25.26
322.337	51.88
322.55	2.73
322.763	17.07
322.977	21.16
323.19	-42.32
323.403	4.78
323.617	68.27
323.83	111.27
324.043	35.5
324.256	-19.8
324.469	19.11
324.683	90.79
324.896	-13.65
325.109	78.51
325.322	-15.7
325.535	94.89
325.748	109.22
325.962	39.59
326.175	55.98
326.388	76.46
326.601	86.7
326.814	-7.51
327.027	-34.13
327.24	148.14
327.453	-105.81
327.666	131.75
327.879	111.27
328.092	92.84
328.305	-9.56
328.518	10.92
328.731	41.64
328.944	-58.71
329.157	66.22
329.37	-7.51
329.583	141.99
329.796	76.46
330.009	-62.8
330.222	31.4
330.435	121.51
330.648	84.65
330.861	96.94
331.073	8.87
331.286	115.37
331.499	4.78
331.712	-46.42
331.925	47.79
332.138	60.07
332.35	98.99
332.563	-50.52
332.776	121.51
332.989	0.68
333.202	31.4
333.414	43.69
333.627	58.03
333.84	-9.56
334.053	92.84
334.265	-36.18
334.478	25.26
334.691	-19.8
334.903	-15.7
335.116	23.21
335.329	17.07
335.541	148.14
335.754	172.71
335.966	35.5
336.179	-7.51
336.392	-85.33
336.604	47.79
336.817	60.07
337.029	55.98
337.242	45.74
337.454	113.32
337.667	53.93
337.88	90.79
338.092	8.87
338.305	82.6
338.517	-5.46
338.729	76.46
338.942	72.36
339.154	-34.13
339.367	-19.8
339.579	80.55
339.792	-68.95
340.004	107.18
340.217	2.73
340.429	105.13
340.641	-5.46
340.854	0.68
341.066	78.51
341.278	141.99
341.491	189.1
341.703	4.78
341.915	4.78
342.128	111.27
342.34	-21.85
342.552	-75.09
342.764	-36.18
342.977	45.74
343.189	187.05
343.401	27.31
343.613	-11.61
343.826	8.87
344.038	-17.75
344.25	35.5
344.462	45.74
344.674	58.03
344.886	62.12
345.099	107.18
345.311	45.74
345.523	-85.33
345.735	-101.72
345.947	29.35
346.159	53.93
346.371	55.98
346.583	58.03
346.795	182.95
347.007	6.83
347.219	64.17
347.431	6.83
347.643	129.7
347.855	-7.51
348.067	164.52
348.279	-42.32
348.491	21.16
348.703	86.7
348.915	12.97
349.127	-42.32
349.339	90.79
349.551	-27.99
349.763	113.32
349.975	21.16
350.187	82.6
350.399	92.84
350.61	127.66
350.822	43.69
351.034	49.83
351.246	62.12
351.458	41.64
351.669	2.73
351.881	103.08
352.093	84.65
352.305	53.93
352.517	72.36
352.728	168.62
352.94	111.27
353.152	23.21
353.363	17.07
353.575	98.99
353.787	176.81
353.999	92.84
354.21	160.42
354.422	-11.61
354.633	115.37
354.845	94.89
355.057	39.59
355.268	58.03
355.48	72.36
355.692	-75.09
355.903	23.21
356.115	-62.8
356.326	-71
356.538	152.23
356.749	-15.7
356.961	55.98
357.172	-46.42
357.384	-85.33
357.595	189.1
357.807	53.93
358.018	-60.76
358.23	49.83
358.441	174.76
358.653	133.8
358.864	35.5
359.075	-68.95
359.287	51.88
359.498	101.03
359.709	68.27
359.921	49.83
360.132	27.31
360.344	31.4
360.555	-36.18
360.766	23.21
360.977	35.5
361.189	156.33
361.4	60.07
361.611	121.51
361.823	195.24
362.034	66.22
362.245	-75.09
362.456	41.64
362.667	70.31
362.879	-21.85
363.09	70.31
363.301	90.79
363.512	58.03
363.723	39.59
363.935	-40.28
364.146	43.69
364.357	-5.46
364.568	68.27
364.779	-36.18
364.99	119.46
365.201	-56.66
365.412	70.31
365.623	-85.33
365.834	4.78
366.045	113.32
366.256	109.22
366.467	66.22
366.678	-9.56
366.889	-27.99
367.1	-42.32
367.311	64.17
367.522	-5.46
367.733	55.98
367.944	92.84
368.155	33.45
368.366	113.32
368.577	109.22
368.788	119.46
368.999	-13.65
369.209	37.55
369.42	154.28
369.631	273.06
369.842	74.41
370.053	-64.85
370.264	123.56
370.474	-66.9
370.685	2.73
370.896	2.73
371.107	156.33
371.317	21.16
371.528	55.98
371.739	86.7
371.95	109.22
372.16	84.65
372.371	-73.04
372.582	-19.8
372.792	66.22
373.003	98.99
373.214	60.07
373.424	121.51
373.635	-48.47
373.846	162.47
374.056	62.12
374.267	62.12
374.477	98.99
374.688	-40.28
374.898	49.83
375.109	45.74
375.319	39.59
375.53	35.5
375.74	119.46
375.951	-13.65
376.161	72.36
376.372	148.14
376.582	19.11
376.793	25.26
377.003	-15.7
377.214	-13.65
377.424	127.66
377.635	-7.51
377.845	-99.67
378.055	58.03
378.266	17.07
378.476	29.35
378.686	41.64
378.897	25.26
379.107	127.66
379.317	29.35
379.528	29.35
379.738	111.27
379.948	21.16
380.158	66.22
380.369	27.31
380.579	164.52
380.789	-19.8
380.999	51.88
381.21	115.37
381.42	244.39
381.63	-48.47
381.84	94.89
382.05	12.97
382.261	66.22
382.471	133.8
382.681	-38.23
382.891	80.55
383.101	107.18
383.311	27.31
383.521	-93.52
383.731	84.65
383.941	84.65
384.151	82.6
384.361	15.02
384.571	80.55
384.781	-5.46
384.991	129.7
385.201	131.75
385.411	94.89
385.621	146.09
385.831	2.73
386.041	29.35
386.251	39.59
386.461	55.98
386.671	-9.56
386.881	133.8
387.091	29.35
387.301	39.59
387.511	15.02
387.72	125.61
387.93	53.93
388.14	-85.33
388.35	88.75
388.56	84.65
388.769	141.99
388.979	-17.75
389.189	-107.86
389.399	53.93
389.609	133.8
389.818	98.99
390.028	101.03
390.238	19.11
390.447	-1.37
390.657	109.22
390.867	-52.56
391.076	-81.24
391.286	127.66
391.496	-32.08
391.705	78.51
391.915	125.61
392.125	117.42
392.334	35.5
392.544	62.12
392.753	78.51
392.963	-21.85
393.172	8.87
393.382	15.02
393.591	150.18
393.801	72.36
394.01	150.18
394.22	78.51
394.429	-85.33
394.639	0.68
394.848	55.98
395.058	80.55
395.267	66.22
395.477	74.41
395.686	29.35
395.895	94.89
396.105	199.34
396.314	33.45
396.524	39.59
396.733	101.03
396.942	133.8
397.152	121.51
397.361	49.83
397.57	111.27
397.78	0.68
397.989	74.41
398.198	248.49
398.407	21.16
398.617	25.26
398.826	47.79
399.035	-1.37
399.244	72.36
399.453	-1.37
399.663	131.75
399.872	105.13
400.081	0.68
400.29	80.55
400.499	-62.8
400.708	154.28
400.917	-11.61
401.127	31.4
401.336	41.64
401.545	187.05
401.754	105.13
401.963	41.64
402.172	21.16
402.381	-32.08
402.59	41.64
402.799	15.02
403.008	84.65
403.217	90.79
403.426	-9.56
403.635	58.03
403.844	23.21
404.053	-48.47
404.262	45.74
404.471	189.1
404.68	133.8
404.888	123.56
405.097	2.73
405.306	135.85
405.515	92.84
405.724	39.59
405.933	125.61
406.142	25.26
406.35	152.23
406.559	66.22
406.768	51.88
406.977	148.14
407.185	70.31
407.394	86.7
407.603	0.68
407.812	103.08
408.02	201.38
408.229	25.26
408.438	105.13
408.646	-58.71
408.855	90.79
409.064	92.84
409.272	51.88
409.481	131.75
409.69	-77.14
409.898	-66.9
410.107	105.13
410.315	64.17
410.524	27.31
410.733	88.75
410.941	41.64
411.15	123.56
411.358	33.45
411.567	135.85
411.775	35.5
411.984	19.11
412.192	76.46
412.401	51.88
412.609	154.28
412.818	103.08
413.026	43.69
413.234	8.87
413.443	37.55
413.651	-50.52
413.86	10.92
414.068	125.61
414.276	162.47
414.485	-34.13
414.693	293.54
414.901	197.29
415.11	80.55
415.318	37.55
415.526	-1.37
415.734	101.03
415.943	62.12
416.151	158.38
416.359	23.21
416.567	68.27
416.776	27.31
416.984	156.33
417.192	166.57
417.4	51.88
417.608	8.87
417.817	-7.51
418.025	115.37
418.233	123.56
418.441	-23.89
418.649	-79.19
418.857	98.99
419.065	127.66
419.273	-25.94
419.481	117.42
419.689	17.07
419.897	2.73
420.105	-66.9
420.313	92.84
420.521	170.66
420.729	141.99
420.937	-13.65
421.145	-15.7
421.353	72.36
421.561	109.22
421.769	35.5
421.977	8.87
422.185	25.26
422.393	45.74
422.601	180.9
422.809	53.93
423.017	86.7
423.224	119.46
423.432	103.08
423.64	15.02
423.848	105.13
424.056	62.12
424.263	84.65
424.471	76.46
424.679	123.56
424.887	19.11
425.094	96.94
425.302	-23.89
425.51	17.07
425.718	123.56
425.925	31.4
426.133	45.74
426.341	240.29
426.548	37.55
426.756	41.64
426.964	193.19
427.171	66.22
427.379	84.65
427.586	80.55
427.794	166.57
428.001	172.71
428.209	62.12
428.417	86.7
428.624	178.86
428.832	182.95
429.039	86.7
429.247	51.88
429.454	144.04
429.662	246.44
429.869	111.27
430.076	133.8
430.284	148.14
430.491	207.53
430.699	162.47
430.906	266.92
431.114	158.38
431.321	146.09
431.528	111.27
431.736	51.88
431.943	131.75
432.15	162.47
432.358	195.24
432.565	240.29
432.772	45.74
432.979	232.1
433.187	115.37
433.394	133.8
433.601	80.55
433.808	223.91
434.016	238.25
434.223	193.19
434.43	193.19
434.637	262.82
434.844	279.21
435.052	197.29
435.259	291.49
435.466	281.25
435.673	211.62
435.88	309.93
436.087	230.06
436.294	352.93
436.501	328.36
436.708	234.15
436.915	303.78
437.122	291.49
437.329	258.73
437.537	228.01
437.743	225.96
437.95	363.17
438.157	357.03
438.364	352.93
438.571	303.78
438.778	354.98
438.985	363.17
439.192	383.65
439.399	314.02
439.606	408.23
439.813	535.2
440.02	572.07
440.227	627.36
440.433	559.78
440.64	529.06
440.847	449.19
441.054	580.26
441.261	678.56
441.467	547.49
441.674	520.87
441.881	715.42
442.088	637.6
442.294	678.56
442.501	688.8
442.708	662.18
442.914	637.6
443.121	793.25
443.328	907.93
443.534	789.15
443.741	848.54
443.948	715.42
444.154	889.5
444.361	971.42
444.568	983.71
444.774	973.47
444.981	756.38
445.187	1079.96
445.394	1098.39
445.6	979.61
445.807	1149.59
446.013	1122.97
446.22	1133.21
446.426	1286.81
446.633	1340.05
446.839	1522.32
447.046	1317.53
447.252	1571.47
447.459	1526.42
447.665	1522.32
447.871	1604.24
448.078	1870.48
448.284	1714.83
448.491	1946.25
448.697	1950.35
448.903	1970.83
449.11	1981.07
449.316	1964.68
449.522	2126.47
449.728	2228.87
449.935	2282.12
450.141	2310.79
450.347	2523.78
450.553	2353.8
450.76	2497.16
450.966	2718.34
451.172	2808.45
451.378	2951.81
451.584	2927.23
451.791	3275.38
451.997	3203.71
452.203	3197.56
452.409	3590.77
452.615	3519.09
452.821	3586.68
453.027	3531.38
453.233	3990.13
453.44	3723.89
453.646	4029.04
453.852	4282.99
454.058	4321.9
454.264	4678.24
454.47	4821.6
454.676	4930.14
454.882	5255.77
455.088	5050.97
455.294	5392.98
455.5	5669.46
455.705	6015.57
455.911	5894.74
456.117	6105.68
456.323	6421.06
456.529	6322.76
456.735	6996.54
456.941	7330.36
457.147	7457.34
457.352	7635.51
457.558	7895.6
457.764	8364.59
457.97	8817.19
458.176	8890.92
458.381	9308.7
458.587	9613.85
458.793	10072.59
458.999	9996.82
459.204	11184.64
459.41	11639.29
459.616	11229.7
459.821	12106.23
460.027	12599.79
460.233	13181.41
460.438	13171.17
460.644	14100.95
460.85	14043.6
461.055	14453.2
461.261	15333.82
461.466	14758.35
461.672	15184.32
461.878	17037.73
462.083	16929.19
462.289	17629.6
462.494	18000.28
462.7	18299.28
462.905	18383.25
463.111	19925.37
463.316	20703.6
463.522	21080.42
463.727	22057.31
463.932	22866.25
464.138	23335.24
464.343	24435
464.549	24647.99
464.754	26532.12
464.959	26816.79
465.165	27373.83
465.37	27359.5
465.575	27562.25
465.781	28772.6
465.986	30236.89
466.191	29466.86
466.397	29962.47
466.602	29198.57
466.807	30568.66
467.012	31441.1
467.218	31893.7
467.423	32204.99
467.628	32856.25
467.833	34578.59
468.038	33802.41
468.244	32813.24
468.449	35192.98
468.654	34134.18
