Data from USB4F104151__197__11-05-27-832.txt Node

Date: Wed Feb 26 11:05:27 EST 2025
User: louis
Spectrometer: USB4F10415
Trigger mode: 4
Integration Time (sec): 1.000000E-1
Scans to average: 1
Electric dark correction enabled: true
Nonlinearity correction enabled: false
Boxcar width: 0
XAxis mode: Wavelengths
Number of Pixels in Spectrum: 3648
>>>>>Begin Spectral Data<<<<<
178.204	-345.77
178.424	-345.77
178.644	-345.77
178.864	-347.81
179.084	-458.4
179.304	53.59
179.524	-59.05
179.744	29.01
179.964	41.3
180.184	26.96
180.404	29.01
180.624	43.35
180.844	-32.43
181.064	-71.34
181.283	-3.75
181.503	-79.53
181.723	22.87
181.943	-57
182.163	221.52
182.383	-69.29
182.602	49.49
182.822	88.4
183.042	90.45
183.262	72.02
183.482	51.54
183.701	2.39
183.921	74.07
184.141	-42.67
184.361	26.96
184.58	-7.85
184.8	84.31
185.02	-26.28
185.239	117.08
185.459	41.3
185.679	112.98
185.898	-26.28
186.118	125.27
186.338	106.84
186.557	115.03
186.777	-71.34
186.997	24.92
187.216	-24.23
187.436	145.75
187.655	63.83
187.875	26.96
188.095	24.92
188.314	233.81
188.534	94.55
188.753	-22.19
188.973	115.03
189.192	190.8
189.412	53.59
189.631	45.4
189.851	96.6
190.07	78.16
190.29	-3.75
190.509	-32.43
190.729	2.39
190.948	137.56
191.168	160.08
191.387	86.36
191.607	-9.9
191.826	74.07
192.045	67.92
192.265	-18.09
192.484	69.97
192.704	-11.95
192.923	0.34
193.142	246.1
193.362	143.7
193.581	141.65
193.8	-7.85
194.02	82.26
194.239	88.4
194.458	117.08
194.678	65.88
194.897	49.49
195.116	29.01
195.335	96.6
195.555	12.63
195.774	20.82
195.993	59.73
196.212	43.35
196.432	0.34
196.651	-20.14
196.87	31.06
197.089	315.73
197.308	88.4
197.528	76.12
197.747	-18.09
197.966	16.73
198.185	121.17
198.404	-38.57
198.623	141.65
198.842	192.85
199.062	110.93
199.281	84.31
199.5	8.53
199.719	-77.48
199.938	31.06
200.157	115.03
200.376	112.98
200.595	72.02
200.814	10.58
201.033	29.01
201.252	158.03
201.471	31.06
201.69	74.07
201.909	16.73
202.128	135.51
202.347	63.83
202.566	29.01
202.785	-40.62
203.004	-65.19
203.223	272.72
203.442	51.54
203.661	24.92
203.879	137.56
204.098	178.51
204.317	-22.19
204.536	123.22
204.755	112.98
204.974	96.6
205.193	-26.28
205.411	168.27
205.63	102.74
205.849	90.45
206.068	14.68
206.287	-52.91
206.505	127.32
206.724	84.31
206.943	-93.87
207.162	-11.95
207.381	108.88
207.599	-34.47
207.818	6.49
208.037	0.34
208.255	82.26
208.474	110.93
208.693	61.78
208.911	45.4
209.13	127.32
209.349	51.54
209.567	104.79
209.786	106.84
210.005	123.22
210.223	100.69
210.442	-145.06
210.661	37.2
210.879	133.46
211.098	47.44
211.316	29.01
211.535	72.02
211.753	-22.19
211.972	98.64
212.191	-38.57
212.409	-7.85
212.628	104.79
212.846	-30.38
213.065	57.68
213.283	155.99
213.502	49.49
213.72	-18.09
213.938	69.97
214.157	57.68
214.375	94.55
214.594	61.78
214.812	80.21
215.031	14.68
215.249	67.92
215.467	47.44
215.686	22.87
215.904	76.12
216.122	14.68
216.341	164.18
216.559	125.27
216.778	98.64
216.996	133.46
217.214	-61.1
217.432	-77.48
217.651	-40.62
217.869	123.22
218.087	84.31
218.306	45.4
218.524	41.3
218.742	51.54
218.96	190.8
219.179	18.77
219.397	6.49
219.615	282.96
219.833	84.31
220.051	-59.05
220.27	90.45
220.488	151.89
220.706	90.45
220.924	-54.95
221.142	-67.24
221.36	106.84
221.578	82.26
221.796	72.02
222.015	55.64
222.233	57.68
222.451	164.18
222.669	-97.96
222.887	108.88
223.105	-11.95
223.323	65.88
223.541	-16.04
223.759	24.92
223.977	53.59
224.195	164.18
224.413	104.79
224.631	84.31
224.849	115.03
225.067	237.91
225.285	-57
225.503	-48.81
225.721	-57
225.939	12.63
226.157	55.64
226.375	198.99
226.592	-22.19
226.81	14.68
227.028	59.73
227.246	47.44
227.464	69.97
227.682	123.22
227.9	72.02
228.117	51.54
228.335	8.53
228.553	41.3
228.771	41.3
228.989	4.44
229.206	63.83
229.424	-34.47
229.642	22.87
229.86	-75.43
230.077	160.08
230.295	86.36
230.513	155.99
230.731	102.74
230.948	217.43
231.166	188.75
231.384	29.01
231.601	67.92
231.819	106.84
232.037	4.44
232.254	-16.04
232.472	98.64
232.689	29.01
232.907	145.75
233.125	24.92
233.342	-5.8
233.56	-34.47
233.777	-18.09
233.995	24.92
234.213	168.27
234.43	84.31
234.648	-36.52
234.865	-126.63
235.083	22.87
235.3	98.64
235.518	96.6
235.735	88.4
235.953	78.16
236.17	45.4
236.388	-50.86
236.605	55.64
236.822	26.96
237.04	110.93
237.257	35.16
237.475	0.34
237.692	0.34
237.909	90.45
238.127	0.34
238.344	24.92
238.562	49.49
238.779	-38.57
238.996	14.68
239.214	37.2
239.431	110.93
239.648	31.06
239.865	20.82
240.083	72.02
240.3	45.4
240.517	14.68
240.735	33.11
240.952	178.51
241.169	63.83
241.386	39.25
241.603	20.82
241.821	-1.71
242.038	96.6
242.255	129.36
242.472	-18.09
242.689	80.21
242.907	72.02
243.124	55.64
243.341	12.63
243.558	-50.86
243.775	-11.95
243.992	-48.81
244.209	-16.04
244.426	147.8
244.643	55.64
244.86	74.07
245.078	33.11
245.295	29.01
245.512	67.92
245.729	33.11
245.946	164.18
246.163	41.3
246.38	2.39
246.597	94.55
246.814	43.35
247.031	0.34
247.248	14.68
247.464	51.54
247.681	35.16
247.898	0.34
248.115	57.68
248.332	2.39
248.549	135.51
248.766	153.94
248.983	55.64
249.2	115.03
249.417	108.88
249.633	18.77
249.85	100.69
250.067	49.49
250.284	133.46
250.501	45.4
250.717	35.16
250.934	-97.96
251.151	0.34
251.368	8.53
251.585	78.16
251.801	57.68
252.018	-40.62
252.235	98.64
252.451	-40.62
252.668	14.68
252.885	115.03
253.102	39.25
253.318	37.2
253.535	-11.95
253.752	-48.81
253.968	45.4
254.185	-54.95
254.401	47.44
254.618	80.21
254.835	-18.09
255.051	143.7
255.268	86.36
255.484	4.44
255.701	69.97
255.917	14.68
256.134	-89.77
256.351	84.31
256.567	6.49
256.784	22.87
257	-104.11
257.217	98.64
257.433	39.25
257.65	61.78
257.866	155.99
258.082	-5.8
258.299	-34.47
258.515	45.4
258.732	-7.85
258.948	-11.95
259.165	72.02
259.381	-26.28
259.597	57.68
259.814	78.16
260.03	8.53
260.246	12.63
260.463	49.49
260.679	123.22
260.895	112.98
261.112	57.68
261.328	-9.9
261.544	-38.57
261.761	186.71
261.977	61.78
262.193	-102.06
262.409	108.88
262.626	33.11
262.842	61.78
263.058	-46.76
263.274	22.87
263.49	65.88
263.707	55.64
263.923	174.42
264.139	-59.05
264.355	-13.99
264.571	63.83
264.787	33.11
265.004	108.88
265.22	-44.71
265.436	-57
265.652	59.73
265.868	51.54
266.084	-97.96
266.3	20.82
266.516	-18.09
266.732	33.11
266.948	55.64
267.164	59.73
267.38	115.03
267.596	16.73
267.812	186.71
268.028	63.83
268.244	-5.8
268.46	55.64
268.676	14.68
268.892	51.54
269.108	2.39
269.324	-24.23
269.54	-34.47
269.756	65.88
269.972	18.77
270.188	78.16
270.403	-91.82
270.619	98.64
270.835	57.68
271.051	24.92
271.267	16.73
271.483	-50.86
271.698	22.87
271.914	31.06
272.13	14.68
272.346	57.68
272.562	61.78
272.777	100.69
272.993	67.92
273.209	-30.38
273.425	121.17
273.64	-79.53
273.856	80.21
274.072	-65.19
274.287	-48.81
274.503	135.51
274.719	92.5
274.934	59.73
275.15	6.49
275.366	47.44
275.581	18.77
275.797	18.77
276.012	78.16
276.228	-26.28
276.444	6.49
276.659	121.17
276.875	-5.8
277.09	82.26
277.306	37.2
277.521	94.55
277.737	39.25
277.952	88.4
278.168	8.53
278.383	39.25
278.599	24.92
278.814	172.37
279.03	92.5
279.245	82.26
279.461	47.44
279.676	123.22
279.892	-16.04
280.107	-34.47
280.322	-42.67
280.538	16.73
280.753	43.35
280.969	-16.04
281.184	6.49
281.399	143.7
281.615	-28.33
281.83	6.49
282.045	-71.34
282.26	26.96
282.476	49.49
282.691	147.8
282.906	100.69
283.122	49.49
283.337	-1.71
283.552	80.21
283.767	43.35
283.983	104.79
284.198	2.39
284.413	61.78
284.628	-63.15
284.843	8.53
285.058	108.88
285.274	-36.52
285.489	-87.72
285.704	63.83
285.919	29.01
286.134	59.73
286.349	47.44
286.564	82.26
286.779	166.23
286.995	-7.85
287.21	-24.23
287.425	110.93
287.64	-9.9
287.855	141.65
288.07	-71.34
288.285	139.6
288.5	151.89
288.715	57.68
288.93	6.49
289.145	14.68
289.36	145.75
289.575	49.49
289.79	94.55
290.004	4.44
290.219	78.16
290.434	74.07
290.649	41.3
290.864	12.63
291.079	12.63
291.294	110.93
291.509	137.56
291.724	14.68
291.938	43.35
292.153	59.73
292.368	22.87
292.583	39.25
292.798	12.63
293.012	53.59
293.227	106.84
293.442	41.3
293.657	98.64
293.871	184.66
294.086	86.36
294.301	172.37
294.516	125.27
294.73	74.07
294.945	-13.99
295.16	-11.95
295.374	90.45
295.589	172.37
295.804	86.36
296.018	69.97
296.233	78.16
296.447	96.6
296.662	6.49
296.877	84.31
297.091	96.6
297.306	88.4
297.52	-54.95
297.735	20.82
297.949	72.02
298.164	49.49
298.378	76.12
298.593	24.92
298.807	-9.9
299.022	82.26
299.236	160.08
299.451	14.68
299.665	-20.14
299.88	94.55
300.094	129.36
300.309	45.4
300.523	45.4
300.737	6.49
300.952	69.97
301.166	57.68
301.381	-11.95
301.595	-36.52
301.809	45.4
302.024	12.63
302.238	-36.52
302.452	129.36
302.667	96.6
302.881	178.51
303.095	72.02
303.309	47.44
303.524	33.11
303.738	78.16
303.952	-30.38
304.166	43.35
304.381	-57
304.595	178.51
304.809	-22.19
305.023	65.88
305.237	63.83
305.452	41.3
305.666	98.64
305.88	65.88
306.094	67.92
306.308	125.27
306.522	106.84
306.736	96.6
306.95	88.4
307.164	20.82
307.379	26.96
307.593	149.84
307.807	131.41
308.021	110.93
308.235	67.92
308.449	-30.38
308.663	24.92
308.877	227.67
309.091	67.92
309.305	125.27
309.519	-75.43
309.733	151.89
309.947	4.44
310.161	123.22
310.374	153.94
310.588	155.99
310.802	0.34
311.016	45.4
311.23	22.87
311.444	-77.48
311.658	-28.33
311.872	160.08
312.085	141.65
312.299	108.88
312.513	127.32
312.727	141.65
312.941	12.63
313.154	39.25
313.368	-9.9
313.582	37.2
313.796	67.92
314.009	-3.75
314.223	190.8
314.437	29.01
314.651	155.99
314.864	69.97
315.078	-24.23
315.292	-81.58
315.505	33.11
315.719	57.68
315.933	29.01
316.146	-7.85
316.36	-7.85
316.573	147.8
316.787	63.83
317.001	-18.09
317.214	-3.75
317.428	88.4
317.641	-59.05
317.855	39.25
318.068	67.92
318.282	22.87
318.495	258.39
318.709	69.97
318.922	35.16
319.136	37.2
319.349	151.89
319.563	39.25
319.776	80.21
319.99	-46.76
320.203	104.79
320.417	55.64
320.63	158.03
320.843	164.18
321.057	51.54
321.27	47.44
321.483	45.4
321.697	176.47
321.91	53.59
322.124	82.26
322.337	106.84
322.55	16.73
322.763	59.73
322.977	10.58
323.19	18.77
323.403	-34.47
323.617	88.4
323.83	119.12
324.043	-5.8
324.256	-24.23
324.469	12.63
324.683	112.98
324.896	59.73
325.109	43.35
325.322	-38.57
325.535	88.4
325.748	102.74
325.962	-5.8
326.175	65.88
326.388	74.07
326.601	125.27
326.814	53.59
327.027	102.74
327.24	155.99
327.453	-63.15
327.666	102.74
327.879	84.31
328.092	115.03
328.305	41.3
328.518	49.49
328.731	0.34
328.944	4.44
329.157	45.4
329.37	-1.71
329.583	160.08
329.796	153.94
330.009	-140.97
330.222	31.06
330.435	41.3
330.648	86.36
330.861	131.41
331.073	12.63
331.286	59.73
331.499	84.31
331.712	55.64
331.925	59.73
332.138	18.77
332.35	82.26
332.563	18.77
332.776	149.84
332.989	-22.19
333.202	16.73
333.414	-20.14
333.627	88.4
333.84	-11.95
334.053	22.87
334.265	2.39
334.478	61.78
334.691	76.12
334.903	78.16
335.116	6.49
335.329	49.49
335.541	143.7
335.754	139.6
335.966	-46.76
336.179	4.44
336.392	57.68
336.604	69.97
336.817	129.36
337.029	90.45
337.242	80.21
337.454	119.12
337.667	37.2
337.88	176.47
338.092	106.84
338.305	131.41
338.517	-9.9
338.729	39.25
338.942	51.54
339.154	-69.29
339.367	-5.8
339.579	119.12
339.792	29.01
340.004	127.32
340.217	-16.04
340.429	57.68
340.641	-20.14
340.854	-42.67
341.066	65.88
341.278	115.03
341.491	186.71
341.703	88.4
341.915	26.96
342.128	92.5
342.34	80.21
342.552	-79.53
342.764	-7.85
342.977	31.06
343.189	135.51
343.401	-9.9
343.613	-102.06
343.826	2.39
344.038	55.64
344.25	65.88
344.462	-3.75
344.674	78.16
344.886	82.26
345.099	94.55
345.311	94.55
345.523	-9.9
345.735	-81.58
345.947	108.88
346.159	8.53
346.371	26.96
346.583	4.44
346.795	166.23
347.007	2.39
347.219	35.16
347.431	41.3
347.643	162.13
347.855	-13.99
348.067	207.19
348.279	-69.29
348.491	65.88
348.703	12.63
348.915	80.21
349.127	49.49
349.339	29.01
349.551	51.54
349.763	61.78
349.975	37.2
350.187	129.36
350.399	63.83
350.61	61.78
350.822	-46.76
351.034	63.83
351.246	98.64
351.458	115.03
351.669	63.83
351.881	141.65
352.093	145.75
352.305	98.64
352.517	-5.8
352.728	121.17
352.94	-9.9
353.152	59.73
353.363	-22.19
353.575	98.64
353.787	184.66
353.999	29.01
354.21	166.23
354.422	-20.14
354.633	72.02
354.845	31.06
355.057	72.02
355.268	86.36
355.48	115.03
355.692	-57
355.903	65.88
356.115	-93.87
356.326	-75.43
356.538	205.14
356.749	104.79
356.961	239.95
357.172	-20.14
357.384	-22.19
357.595	180.56
357.807	-16.04
358.018	-61.1
358.23	88.4
358.441	117.08
358.653	41.3
358.864	63.83
359.075	-93.87
359.287	0.34
359.498	153.94
359.709	100.69
359.921	-9.9
360.132	137.56
360.344	14.68
360.555	-13.99
360.766	-1.71
360.977	55.64
361.189	90.45
361.4	88.4
361.611	110.93
361.823	72.02
362.034	143.7
362.245	-20.14
362.456	14.68
362.667	160.08
362.879	-5.8
363.09	164.18
363.301	121.17
363.512	-16.04
363.723	102.74
363.935	63.83
364.146	141.65
364.357	47.44
364.568	31.06
364.779	-24.23
364.99	151.89
365.201	57.68
365.412	65.88
365.623	-40.62
365.834	63.83
366.045	80.21
366.256	123.22
366.467	100.69
366.678	-5.8
366.889	20.82
367.1	16.73
367.311	123.22
367.522	26.96
367.733	43.35
367.944	74.07
368.155	78.16
368.366	131.41
368.577	76.12
368.788	65.88
368.999	-22.19
369.209	6.49
369.42	278.87
369.631	305.49
369.842	119.12
370.053	-11.95
370.264	94.55
370.474	-89.77
370.685	55.64
370.896	78.16
371.107	149.84
371.317	82.26
371.528	39.25
371.739	172.37
371.95	37.2
372.16	6.49
372.371	-104.11
372.582	-30.38
372.792	10.58
373.003	86.36
373.214	104.79
373.424	55.64
373.635	-59.05
373.846	215.38
374.056	74.07
374.267	119.12
374.477	41.3
374.688	33.11
374.898	139.6
375.109	24.92
375.319	37.2
375.53	176.47
375.74	74.07
375.951	22.87
376.161	102.74
376.372	129.36
376.582	-38.57
376.793	98.64
377.003	-28.33
377.214	24.92
377.424	133.46
377.635	96.6
377.845	119.12
378.055	98.64
378.266	33.11
378.476	53.59
378.686	57.68
378.897	110.93
379.107	53.59
379.317	72.02
379.528	-16.04
379.738	35.16
379.948	26.96
380.158	82.26
380.369	121.17
380.579	37.2
380.789	170.32
380.999	135.51
381.21	94.55
381.42	221.52
381.63	67.92
381.84	98.64
382.05	43.35
382.261	102.74
382.471	129.36
382.681	31.06
382.891	135.51
383.101	39.25
383.311	-91.82
383.521	49.49
383.731	82.26
383.941	63.83
384.151	72.02
384.361	139.6
384.571	61.78
384.781	86.36
384.991	242
385.201	207.19
385.411	115.03
385.621	-11.95
385.831	59.73
386.041	106.84
386.251	33.11
386.461	149.84
386.671	37.2
386.881	139.6
387.091	-1.71
387.301	108.88
387.511	100.69
387.72	55.64
387.93	55.64
388.14	-81.58
388.35	84.31
388.56	127.32
388.769	63.83
388.979	88.4
389.189	-20.14
389.399	-30.38
389.609	45.4
389.818	117.08
390.028	65.88
390.238	127.32
390.447	-57
390.657	82.26
390.867	92.5
391.076	-32.43
391.286	67.92
391.496	72.02
391.705	0.34
391.915	168.27
392.125	164.18
392.334	33.11
392.544	160.08
392.753	61.78
392.963	-28.33
393.172	45.4
393.382	-42.67
393.591	135.51
393.801	72.02
394.01	78.16
394.22	78.16
394.429	55.64
394.639	41.3
394.848	45.4
395.058	18.77
395.267	55.64
395.477	16.73
395.686	98.64
395.895	215.38
396.105	219.47
396.314	131.41
396.524	8.53
396.733	-24.23
396.942	164.18
397.152	129.36
397.361	104.79
397.57	80.21
397.78	96.6
397.989	119.12
398.198	223.57
398.407	137.56
398.617	-28.33
398.826	18.77
399.035	12.63
399.244	-3.75
399.453	24.92
399.663	39.25
399.872	98.64
400.081	-54.95
400.29	178.51
400.499	61.78
400.708	61.78
400.917	-3.75
401.127	53.59
401.336	59.73
401.545	194.9
401.754	153.94
401.963	102.74
402.172	139.6
402.381	-44.71
402.59	-5.8
402.799	67.92
403.008	141.65
403.217	61.78
403.426	108.88
403.635	-16.04
403.844	80.21
404.053	8.53
404.262	2.39
404.471	143.7
404.68	112.98
404.888	33.11
405.097	47.44
405.306	22.87
405.515	104.79
405.724	-16.04
405.933	72.02
406.142	55.64
406.35	82.26
406.559	33.11
406.768	65.88
406.977	129.36
407.185	98.64
407.394	90.45
407.603	-52.91
407.812	61.78
408.02	205.14
408.229	110.93
408.438	65.88
408.646	-77.48
408.855	29.01
409.064	61.78
409.272	63.83
409.481	41.3
409.69	76.12
409.898	-48.81
410.107	43.35
410.315	127.32
410.524	-9.9
410.733	57.68
410.941	106.84
411.15	45.4
411.358	104.79
411.567	205.14
411.775	65.88
411.984	47.44
412.192	92.5
412.401	31.06
412.609	115.03
412.818	112.98
413.026	65.88
413.234	88.4
413.443	65.88
413.651	14.68
413.86	69.97
414.068	131.41
414.276	211.28
414.485	-28.33
414.693	129.36
414.901	104.79
415.11	57.68
415.318	82.26
415.526	110.93
415.734	102.74
415.943	139.6
416.151	96.6
416.359	2.39
416.567	61.78
416.776	155.99
416.984	80.21
417.192	170.32
417.4	-57
417.608	0.34
417.817	-42.67
418.025	59.73
418.233	235.86
418.441	-36.52
418.649	-36.52
418.857	104.79
419.065	182.61
419.273	26.96
419.481	137.56
419.689	51.54
419.897	20.82
420.105	43.35
420.313	125.27
420.521	78.16
420.729	178.51
420.937	33.11
421.145	-65.19
421.353	90.45
421.561	100.69
421.769	67.92
421.977	92.5
422.185	137.56
422.393	49.49
422.601	153.94
422.809	123.22
423.017	8.53
423.224	96.6
423.432	104.79
423.64	53.59
423.848	94.55
424.056	35.16
424.263	72.02
424.471	80.21
424.679	205.14
424.887	-28.33
425.094	106.84
425.302	160.08
425.51	-5.8
425.718	135.51
425.925	143.7
426.133	84.31
426.341	311.63
426.548	72.02
426.756	45.4
426.964	51.54
427.171	53.59
427.379	74.07
427.586	139.6
427.794	110.93
428.001	201.04
428.209	180.56
428.417	162.13
428.624	207.19
428.832	96.6
429.039	78.16
429.247	131.41
429.454	80.21
429.662	246.1
429.869	96.6
430.076	94.55
430.284	186.71
430.491	211.28
430.699	196.95
430.906	268.63
431.114	119.12
431.321	110.93
431.528	82.26
431.736	201.04
431.943	178.51
432.15	153.94
432.358	115.03
432.565	291.15
432.772	53.59
432.979	266.58
433.187	39.25
433.394	264.53
433.601	221.52
433.808	256.34
434.016	340.3
434.223	219.47
434.43	180.56
434.637	276.82
434.844	258.39
435.052	233.81
435.259	270.67
435.466	360.78
435.673	256.34
435.88	250.19
436.087	319.82
436.294	334.16
436.501	450.89
436.708	305.49
436.915	389.46
437.122	438.61
437.329	313.68
437.537	432.46
437.743	387.41
437.95	452.94
438.157	401.74
438.364	397.65
438.571	416.08
438.778	491.85
438.985	473.42
439.192	541.01
439.399	491.85
439.606	461.13
439.813	676.17
440.02	706.89
440.227	784.71
440.433	639.31
440.64	581.96
440.847	555.34
441.054	684.36
441.261	729.42
441.467	688.46
441.674	774.47
441.881	768.33
442.088	715.08
442.294	831.82
442.501	915.78
442.708	866.63
442.914	866.63
443.121	971.08
443.328	917.83
443.534	1038.66
443.741	1034.57
443.948	950.6
444.154	1114.44
444.361	1229.12
444.568	1210.69
444.774	1184.07
444.981	1061.19
445.187	1288.51
445.394	1308.99
445.6	1378.62
445.807	1542.46
446.013	1376.58
446.22	1409.34
446.426	1544.51
446.633	1577.28
446.839	1804.6
447.046	1663.29
447.252	1890.62
447.459	1730.87
447.665	1829.18
447.871	2199.86
448.078	2242.87
448.284	2062.65
448.491	2267.44
448.697	2361.65
448.903	2451.76
449.11	2588.97
449.316	2447.66
449.522	2685.23
449.728	2748.72
449.935	2967.85
450.141	2806.06
450.347	3027.24
450.553	3012.9
450.76	3219.75
450.966	3301.67
451.172	3309.86
451.378	3463.46
451.584	3537.18
451.791	3871
451.997	3774.75
452.203	4079.9
452.409	4370.71
452.615	4428.05
452.821	4358.42
453.027	4235.54
453.233	5122.31
453.44	4612.37
453.646	5079.3
453.852	5345.54
454.058	5294.34
454.264	5605.63
454.47	5814.52
454.676	5875.96
454.882	6490.35
455.088	6179.06
455.294	6566.13
455.5	7055.59
455.705	7180.52
455.911	7362.79
456.117	7680.22
456.323	7893.21
456.529	7710.94
456.735	8575.19
456.941	8636.63
457.147	9044.17
457.352	9251.02
457.558	9711.81
457.764	10156.22
457.97	10391.73
458.176	10791.09
458.381	11438.25
458.587	11780.26
458.793	12124.32
458.999	12161.18
459.204	13437.06
459.41	14227.58
459.616	13873.28
459.821	14692.47
460.027	15560.81
460.233	16107.62
460.438	16072.8
460.644	17211.47
460.85	17236.05
461.055	17819.72
461.261	18913.33
461.466	18284.61
461.672	18718.78
461.878	21053.46
462.083	20668.44
462.289	21418
462.494	22263.81
462.7	22202.37
462.905	22726.65
463.111	24573.92
463.316	25368.53
463.522	26134.47
463.727	26843.07
463.932	28045.23
464.138	28538.79
464.343	30130.06
464.549	29872.01
464.754	32061.29
464.959	33099.61
465.165	33212.25
465.37	33498.97
465.575	33232.73
465.781	35870.51
465.986	36661.03
466.191	35864.37
466.397	36282.16
466.602	35608.37
466.807	38086.42
467.012	38217.49
467.218	38999.81
467.423	38772.49
467.628	40404.72
467.833	42073.81
468.038	41334.49
468.244	40509.16
468.449	42659.53
468.654	41826.01
468.859	41952.98
