Data from USB4F104151__188__11-05-18-033.txt Node

Date: Wed Feb 26 11:05:18 EST 2025
User: louis
Spectrometer: USB4F10415
Trigger mode: 4
Integration Time (sec): 1.000000E-1
Scans to average: 1
Electric dark correction enabled: true
Nonlinearity correction enabled: false
Boxcar width: 0
XAxis mode: Wavelengths
Number of Pixels in Spectrum: 3648
>>>>>Begin Spectral Data<<<<<
178.204	-439.63
178.424	-439.63
178.644	-439.63
178.864	-421.2
179.084	-421.2
179.304	21.16
179.524	10.92
179.744	6.83
179.964	-21.85
180.184	10.92
180.404	-11.61
180.624	-46.42
180.844	-46.42
181.064	4.78
181.283	23.21
181.503	-27.99
181.723	76.46
181.943	-62.8
182.163	94.89
182.383	12.97
182.602	4.78
182.822	133.8
183.042	98.99
183.262	-21.85
183.482	-85.33
183.701	6.83
183.921	39.59
184.141	23.21
184.361	21.16
184.58	-44.37
184.8	51.88
185.02	-95.57
185.239	107.18
185.459	31.4
185.679	74.41
185.898	-77.14
186.118	27.31
186.338	82.6
186.557	178.86
186.777	-42.32
186.997	27.31
187.216	29.35
187.436	78.51
187.655	60.07
187.875	68.27
188.095	33.45
188.314	90.79
188.534	41.64
188.753	-32.08
188.973	127.66
189.192	127.66
189.412	33.45
189.631	-9.56
189.851	113.32
190.07	129.7
190.29	-85.33
190.509	-21.85
190.729	-13.65
190.948	166.57
191.168	256.68
191.387	33.45
191.607	-38.23
191.826	10.92
192.045	-36.18
192.265	35.5
192.484	-13.65
192.704	51.88
192.923	-30.04
193.142	74.41
193.362	111.27
193.581	139.94
193.8	4.78
194.02	45.74
194.239	35.5
194.458	119.46
194.678	72.36
194.897	27.31
195.116	21.16
195.335	27.31
195.555	94.89
195.774	10.92
195.993	139.94
196.212	23.21
196.432	12.97
196.651	-11.61
196.87	37.55
197.089	203.43
197.308	8.87
197.528	15.02
197.747	-93.52
197.966	78.51
198.185	197.29
198.404	-13.65
198.623	127.66
198.842	45.74
199.062	107.18
199.281	94.89
199.5	47.79
199.719	141.99
199.938	55.98
200.157	146.09
200.376	185
200.595	121.51
200.814	55.98
201.033	21.16
201.252	74.41
201.471	109.22
201.69	25.26
201.909	101.03
202.128	29.35
202.347	141.99
202.566	8.87
202.785	6.83
203.004	-83.28
203.223	342.69
203.442	21.16
203.661	-40.28
203.879	76.46
204.098	123.56
204.317	-87.38
204.536	37.55
204.755	64.17
204.974	141.99
205.193	35.5
205.411	148.14
205.63	86.7
205.849	109.22
206.068	31.4
206.287	-50.52
206.505	160.42
206.724	-56.66
206.943	-64.85
207.162	25.26
207.381	-1.37
207.599	-19.8
207.818	-36.18
208.037	-54.61
208.255	-11.61
208.474	27.31
208.693	0.68
208.911	15.02
209.13	53.93
209.349	66.22
209.567	68.27
209.786	-50.52
210.005	78.51
210.223	37.55
210.442	-83.28
210.661	29.35
210.879	60.07
211.098	12.97
211.316	68.27
211.535	4.78
211.753	88.75
211.972	103.08
212.191	17.07
212.409	51.88
212.628	64.17
212.846	-56.66
213.065	78.51
213.283	62.12
213.502	31.4
213.72	60.07
213.938	39.59
214.157	-9.56
214.375	23.21
214.594	6.83
214.812	90.79
215.031	-44.37
215.249	92.84
215.467	-38.23
215.686	2.73
215.904	21.16
216.122	-17.75
216.341	105.13
216.559	33.45
216.778	115.37
216.996	150.18
217.214	19.11
217.432	-27.99
217.651	-5.46
217.869	33.45
218.087	8.87
218.306	29.35
218.524	39.59
218.742	41.64
218.96	96.94
219.179	33.45
219.397	27.31
219.615	242.34
219.833	111.27
220.051	-150.87
220.27	74.41
220.488	41.64
220.706	45.74
220.924	-11.61
221.142	-23.89
221.36	86.7
221.578	107.18
221.796	-23.89
222.015	92.84
222.233	68.27
222.451	117.42
222.669	-21.85
222.887	107.18
223.105	41.64
223.323	10.92
223.541	-48.47
223.759	80.55
223.977	68.27
224.195	141.99
224.413	41.64
224.631	33.45
224.849	58.03
225.067	228.01
225.285	53.93
225.503	53.93
225.721	-97.62
225.939	12.97
226.157	25.26
226.375	252.58
226.592	2.73
226.81	-19.8
227.028	90.79
227.246	109.22
227.464	10.92
227.682	6.83
227.9	70.31
228.117	-21.85
228.335	133.8
228.553	64.17
228.771	27.31
228.989	27.31
229.206	123.56
229.424	-27.99
229.642	-15.7
229.86	-68.95
230.077	117.42
230.295	41.64
230.513	15.02
230.731	21.16
230.948	193.19
231.166	168.62
231.384	84.65
231.601	-62.8
231.819	148.14
232.037	-15.7
232.254	-97.62
232.472	2.73
232.689	15.02
232.907	131.75
233.125	17.07
233.342	-17.75
233.56	70.31
233.777	8.87
233.995	-17.75
234.213	70.31
234.43	103.08
234.648	51.88
234.865	4.78
235.083	76.46
235.3	53.93
235.518	131.75
235.735	164.52
235.953	39.59
236.17	76.46
236.388	45.74
236.605	-21.85
236.822	41.64
237.04	4.78
237.257	-13.65
237.475	-91.48
237.692	21.16
237.909	101.03
238.127	-3.41
238.344	129.7
238.562	-7.51
238.779	-30.04
238.996	-38.23
239.214	58.03
239.431	88.75
239.648	-75.09
239.865	98.99
240.083	107.18
240.3	-11.61
240.517	-27.99
240.735	21.16
240.952	150.18
241.169	98.99
241.386	29.35
241.603	55.98
241.821	-52.56
242.038	31.4
242.255	168.62
242.472	64.17
242.689	107.18
242.907	10.92
243.124	45.74
243.341	-9.56
243.558	-38.23
243.775	-52.56
243.992	-81.24
244.209	66.22
244.426	127.66
244.643	15.02
244.86	29.35
245.078	35.5
245.295	0.68
245.512	33.45
245.729	35.5
245.946	53.93
246.163	23.21
246.38	15.02
246.597	29.35
246.814	47.79
247.031	66.22
247.248	8.87
247.464	98.99
247.681	17.07
247.898	74.41
248.115	60.07
248.332	-68.95
248.549	162.47
248.766	127.66
248.983	45.74
249.2	101.03
249.417	76.46
249.633	-38.23
249.85	113.32
250.067	-50.52
250.284	64.17
250.501	6.83
250.717	86.7
250.934	-44.37
251.151	33.45
251.368	-46.42
251.585	94.89
251.801	51.88
252.018	-68.95
252.235	64.17
252.451	-17.75
252.668	12.97
252.885	105.13
253.102	12.97
253.318	-13.65
253.535	33.45
253.752	-1.37
253.968	80.55
254.185	-66.9
254.401	84.65
254.618	105.13
254.835	-46.42
255.051	90.79
255.268	55.98
255.484	64.17
255.701	-32.08
255.917	82.6
256.134	-83.28
256.351	2.73
256.567	-34.13
256.784	144.04
257	-134.48
257.217	139.94
257.433	60.07
257.65	68.27
257.866	207.53
258.082	-44.37
258.299	-34.13
258.515	98.99
258.732	74.41
258.948	74.41
259.165	25.26
259.381	29.35
259.597	8.87
259.814	31.4
260.03	17.07
260.246	4.78
260.463	152.23
260.679	53.93
260.895	94.89
261.112	70.31
261.328	58.03
261.544	-50.52
261.761	131.75
261.977	-1.37
262.193	15.02
262.409	72.36
262.626	-25.94
262.842	23.21
263.058	-52.56
263.274	60.07
263.49	68.27
263.707	23.21
263.923	137.9
264.139	-11.61
264.355	47.79
264.571	94.89
264.787	43.69
265.004	101.03
265.22	29.35
265.436	-27.99
265.652	49.83
265.868	29.35
266.084	-11.61
266.3	101.03
266.516	-15.7
266.732	78.51
266.948	55.98
267.164	-11.61
267.38	84.65
267.596	62.12
267.812	127.66
268.028	10.92
268.244	31.4
268.46	27.31
268.676	105.13
268.892	98.99
269.108	-109.91
269.324	-15.7
269.54	-64.85
269.756	21.16
269.972	10.92
270.188	-9.56
270.403	-32.08
270.619	86.7
270.835	125.61
271.051	10.92
271.267	45.74
271.483	-85.33
271.698	123.56
271.914	107.18
272.13	113.32
272.346	-42.32
272.562	23.21
272.777	164.52
272.993	60.07
273.209	35.5
273.425	49.83
273.64	-87.38
273.856	115.37
274.072	-64.85
274.287	-52.56
274.503	121.51
274.719	-5.46
274.934	2.73
275.15	12.97
275.366	19.11
275.581	-44.37
275.797	33.45
276.012	47.79
276.228	53.93
276.444	10.92
276.659	119.46
276.875	-25.94
277.09	47.79
277.306	8.87
277.521	78.51
277.737	-5.46
277.952	84.65
278.168	72.36
278.383	92.84
278.599	-15.7
278.814	113.32
279.03	6.83
279.245	119.46
279.461	8.87
279.676	88.75
279.892	-56.66
280.107	-71
280.322	-89.43
280.538	31.4
280.753	33.45
280.969	49.83
281.184	43.69
281.399	160.42
281.615	86.7
281.83	53.93
282.045	-32.08
282.26	-38.23
282.476	2.73
282.691	121.51
282.906	66.22
283.122	115.37
283.337	-9.56
283.552	39.59
283.767	-54.61
283.983	45.74
284.198	25.26
284.413	55.98
284.628	-9.56
284.843	60.07
285.058	62.12
285.274	12.97
285.489	-54.61
285.704	141.99
285.919	6.83
286.134	4.78
286.349	-36.18
286.564	12.97
286.779	162.47
286.995	12.97
287.21	-52.56
287.425	107.18
287.64	49.83
287.855	-11.61
288.07	-58.71
288.285	178.86
288.5	148.14
288.715	45.74
288.93	64.17
289.145	43.69
289.36	51.88
289.575	-15.7
289.79	37.55
290.004	25.26
290.219	64.17
290.434	-62.8
290.649	0.68
290.864	-79.19
291.079	37.55
291.294	35.5
291.509	49.83
291.724	29.35
291.938	45.74
292.153	19.11
292.368	78.51
292.583	127.66
292.798	74.41
293.012	86.7
293.227	49.83
293.442	-21.85
293.657	107.18
293.871	117.42
294.086	115.37
294.301	164.52
294.516	115.37
294.73	49.83
294.945	-42.32
295.16	37.55
295.374	96.94
295.589	119.46
295.804	-21.85
296.018	19.11
296.233	127.66
296.447	-13.65
296.662	-27.99
296.877	64.17
297.091	78.51
297.306	-11.61
297.52	-9.56
297.735	-30.04
297.949	0.68
298.164	103.08
298.378	58.03
298.593	-34.13
298.807	-30.04
299.022	-19.8
299.236	205.48
299.451	29.35
299.665	-32.08
299.88	-27.99
300.094	23.21
300.309	15.02
300.523	-3.41
300.737	10.92
300.952	55.98
301.166	70.31
301.381	-50.52
301.595	66.22
301.809	-46.42
302.024	-17.75
302.238	27.31
302.452	166.57
302.667	-15.7
302.881	84.65
303.095	53.93
303.309	74.41
303.524	-17.75
303.738	-3.41
303.952	-13.65
304.166	101.03
304.381	-122.2
304.595	111.27
304.809	-52.56
305.023	-9.56
305.237	-23.89
305.452	64.17
305.666	39.59
305.88	115.37
306.094	33.45
306.308	49.83
306.522	117.42
306.736	4.78
306.95	94.89
307.164	-21.85
307.379	78.51
307.593	127.66
307.807	98.99
308.021	141.99
308.235	62.12
308.449	-13.65
308.663	55.98
308.877	131.75
309.091	25.26
309.305	70.31
309.519	-91.48
309.733	127.66
309.947	-48.47
310.161	66.22
310.374	127.66
310.588	133.8
310.802	-73.04
311.016	31.4
311.23	6.83
311.444	-27.99
311.658	-9.56
311.872	158.38
312.085	90.79
312.299	109.22
312.513	90.79
312.727	2.73
312.941	-77.14
313.154	35.5
313.368	37.55
313.582	101.03
313.796	90.79
314.009	27.31
314.223	129.7
314.437	-30.04
314.651	103.08
314.864	-11.61
315.078	-7.51
315.292	-46.42
315.505	0.68
315.719	60.07
315.933	29.35
316.146	84.65
316.36	27.31
316.573	154.28
316.787	53.93
317.001	74.41
317.214	41.64
317.428	111.27
317.641	-27.99
317.855	-99.67
318.068	41.64
318.282	35.5
318.495	129.7
318.709	62.12
318.922	8.87
319.136	125.61
319.349	133.8
319.563	-34.13
319.776	96.94
319.99	-101.72
320.203	64.17
320.417	-7.51
320.63	109.22
320.843	230.06
321.057	10.92
321.27	-38.23
321.483	51.88
321.697	103.08
321.91	80.55
322.124	51.88
322.337	51.88
322.55	0.68
322.763	27.31
322.977	-60.76
323.19	-50.52
323.403	-75.09
323.617	53.93
323.83	139.94
324.043	23.21
324.256	62.12
324.469	-44.37
324.683	76.46
324.896	-44.37
325.109	43.69
325.322	-50.52
325.535	-38.23
325.748	137.9
325.962	-130.39
326.175	-3.41
326.388	37.55
326.601	66.22
326.814	-17.75
327.027	15.02
327.24	133.8
327.453	-83.28
327.666	60.07
327.879	82.6
328.092	43.69
328.305	135.85
328.518	-23.89
328.731	4.78
328.944	10.92
329.157	25.26
329.37	-32.08
329.583	217.77
329.796	209.58
330.009	-77.14
330.222	17.07
330.435	115.37
330.648	21.16
330.861	43.69
331.073	19.11
331.286	86.7
331.499	51.88
331.712	-68.95
331.925	78.51
332.138	94.89
332.35	90.79
332.563	-7.51
332.776	133.8
332.989	-9.56
333.202	43.69
333.414	0.68
333.627	-19.8
333.84	-52.56
334.053	58.03
334.265	-27.99
334.478	15.02
334.691	-27.99
334.903	55.98
335.116	-62.8
335.329	-17.75
335.541	129.7
335.754	178.86
335.966	74.41
336.179	51.88
336.392	4.78
336.604	58.03
336.817	121.51
337.029	-23.89
337.242	-27.99
337.454	86.7
337.667	39.59
337.88	51.88
338.092	103.08
338.305	125.61
338.517	62.12
338.729	88.75
338.942	172.71
339.154	-15.7
339.367	-38.23
339.579	58.03
339.792	-99.67
340.004	86.7
340.217	15.02
340.429	2.73
340.641	-11.61
340.854	12.97
341.066	-3.41
341.278	139.94
341.491	170.66
341.703	-17.75
341.915	-42.32
342.128	58.03
342.34	113.32
342.552	31.4
342.764	103.08
342.977	-15.7
343.189	64.17
343.401	78.51
343.613	-60.76
343.826	78.51
344.038	-15.7
344.25	49.83
344.462	37.55
344.674	6.83
344.886	-40.28
345.099	23.21
345.311	76.46
345.523	-9.56
345.735	-132.44
345.947	68.27
346.159	74.41
346.371	25.26
346.583	-27.99
346.795	127.66
347.007	-15.7
347.219	125.61
347.431	39.59
347.643	141.99
347.855	6.83
348.067	96.94
348.279	-79.19
348.491	31.4
348.703	53.93
348.915	-42.32
349.127	15.02
349.339	10.92
349.551	29.35
349.763	37.55
349.975	-13.65
350.187	98.99
350.399	53.93
350.61	-27.99
350.822	19.11
351.034	27.31
351.246	82.6
351.458	31.4
351.669	86.7
351.881	72.36
352.093	127.66
352.305	105.13
352.517	47.79
352.728	96.94
352.94	80.55
353.152	86.7
353.363	10.92
353.575	92.84
353.787	123.56
353.999	41.64
354.21	119.46
354.422	-3.41
354.633	29.35
354.845	-3.41
355.057	74.41
355.268	15.02
355.48	45.74
355.692	-15.7
355.903	35.5
356.115	-60.76
356.326	-64.85
356.538	117.42
356.749	135.85
356.961	152.23
357.172	80.55
357.384	-46.42
357.595	211.62
357.807	45.74
358.018	-25.94
358.23	25.26
358.441	148.14
358.653	82.6
358.864	53.93
359.075	-64.85
359.287	58.03
359.498	62.12
359.709	12.97
359.921	49.83
360.132	49.83
360.344	23.21
360.555	-9.56
360.766	45.74
360.977	31.4
361.189	113.32
361.4	-54.61
361.611	105.13
361.823	117.42
362.034	41.64
362.245	-111.96
362.456	39.59
362.667	21.16
362.879	-15.7
363.09	70.31
363.301	107.18
363.512	58.03
363.723	-46.42
363.935	-27.99
364.146	68.27
364.357	-15.7
364.568	-17.75
364.779	-79.19
364.99	103.08
365.201	58.03
365.412	119.46
365.623	-66.9
365.834	92.84
366.045	17.07
366.256	47.79
366.467	70.31
366.678	37.55
366.889	29.35
367.1	10.92
367.311	92.84
367.522	-11.61
367.733	12.97
367.944	4.78
368.155	-25.94
368.366	86.7
368.577	86.7
368.788	39.59
368.999	-17.75
369.209	98.99
369.42	160.42
369.631	174.76
369.842	70.31
370.053	45.74
370.264	51.88
370.474	35.5
370.685	0.68
370.896	58.03
371.107	45.74
371.317	129.7
371.528	98.99
371.739	139.94
371.95	94.89
372.16	47.79
372.371	-68.95
372.582	-48.47
372.792	64.17
373.003	39.59
373.214	60.07
373.424	68.27
373.635	-54.61
373.846	133.8
374.056	-1.37
374.267	70.31
374.477	70.31
374.688	-32.08
374.898	103.08
375.109	-1.37
375.319	62.12
375.53	107.18
375.74	53.93
375.951	-13.65
376.161	-21.85
376.372	2.73
376.582	-85.33
376.793	17.07
377.003	-114
377.214	-5.46
377.424	101.03
377.635	96.94
377.845	-44.37
378.055	197.29
378.266	-81.24
378.476	17.07
378.686	82.6
378.897	49.83
379.107	158.38
379.317	80.55
379.528	-5.46
379.738	123.56
379.948	-27.99
380.158	60.07
380.369	86.7
380.579	55.98
380.789	78.51
380.999	33.45
381.21	39.59
381.42	281.25
381.63	-21.85
381.84	152.23
382.05	109.22
382.261	148.14
382.471	135.85
382.681	23.21
382.891	166.57
383.101	51.88
383.311	-118.1
383.521	12.97
383.731	6.83
383.941	111.27
384.151	-9.56
384.361	-13.65
384.571	25.26
384.781	41.64
384.991	256.68
385.201	131.75
385.411	96.94
385.621	98.99
385.831	78.51
386.041	21.16
386.251	4.78
386.461	129.7
386.671	29.35
386.881	55.98
387.091	74.41
387.301	68.27
387.511	96.94
387.72	4.78
387.93	58.03
388.14	-142.68
388.35	64.17
388.56	119.46
388.769	150.18
388.979	68.27
389.189	-118.1
389.399	19.11
389.609	41.64
389.818	166.57
390.028	-11.61
390.238	58.03
390.447	45.74
390.657	58.03
390.867	6.83
391.076	-109.91
391.286	-15.7
391.496	21.16
391.705	-15.7
391.915	84.65
392.125	111.27
392.334	-25.94
392.544	123.56
392.753	-9.56
392.963	-71
393.172	31.4
393.382	53.93
393.591	207.53
393.801	-7.51
394.01	170.66
394.22	135.85
394.429	51.88
394.639	-21.85
394.848	29.35
395.058	139.94
395.267	21.16
395.477	68.27
395.686	53.93
395.895	135.85
396.105	150.18
396.314	-7.51
396.524	68.27
396.733	15.02
396.942	88.75
397.152	101.03
397.361	58.03
397.57	133.8
397.78	51.88
397.989	113.32
398.198	158.38
398.407	55.98
398.617	2.73
398.826	45.74
399.035	-30.04
399.244	47.79
399.453	47.79
399.663	27.31
399.872	92.84
400.081	-40.28
400.29	49.83
400.499	-83.28
400.708	207.53
400.917	64.17
401.127	68.27
401.336	21.16
401.545	207.53
401.754	135.85
401.963	131.75
402.172	62.12
402.381	-21.85
402.59	10.92
402.799	66.22
403.008	123.56
403.217	72.36
403.426	160.42
403.635	-101.72
403.844	47.79
404.053	-21.85
404.262	-27.99
404.471	240.29
404.68	39.59
404.888	125.61
405.097	-58.71
405.306	150.18
405.515	35.5
405.724	51.88
405.933	117.42
406.142	66.22
406.35	103.08
406.559	37.55
406.768	58.03
406.977	207.53
407.185	27.31
407.394	158.38
407.603	-1.37
407.812	64.17
408.02	144.04
408.229	47.79
408.438	43.69
408.646	51.88
408.855	62.12
409.064	78.51
409.272	55.98
409.481	119.46
409.69	21.16
409.898	-66.9
410.107	84.65
410.315	84.65
410.524	-40.28
410.733	-21.85
410.941	74.41
411.15	107.18
411.358	107.18
411.567	154.28
411.775	47.79
411.984	19.11
412.192	17.07
412.401	-17.75
412.609	223.91
412.818	125.61
413.026	62.12
413.234	60.07
413.443	49.83
413.651	-13.65
413.86	60.07
414.068	107.18
414.276	174.76
414.485	55.98
414.693	92.84
414.901	174.76
415.11	103.08
415.318	45.74
415.526	33.45
415.734	166.57
415.943	117.42
416.151	117.42
416.359	70.31
416.567	174.76
416.776	68.27
416.984	125.61
417.192	168.62
417.4	31.4
417.608	-32.08
417.817	35.5
418.025	162.47
418.233	195.24
418.441	58.03
418.649	-42.32
418.857	-7.51
419.065	64.17
419.273	49.83
419.481	90.79
419.689	29.35
419.897	43.69
420.105	-11.61
420.313	74.41
420.521	144.04
420.729	141.99
420.937	47.79
421.145	47.79
421.353	101.03
421.561	156.33
421.769	43.69
421.977	-13.65
422.185	94.89
422.393	60.07
422.601	156.33
422.809	70.31
423.017	47.79
423.224	90.79
423.432	199.34
423.64	29.35
423.848	125.61
424.056	-7.51
424.263	133.8
424.471	66.22
424.679	170.66
424.887	-25.94
425.094	193.19
425.302	62.12
425.51	2.73
425.718	107.18
425.925	129.7
426.133	37.55
426.341	180.9
426.548	72.36
426.756	107.18
426.964	103.08
427.171	29.35
427.379	41.64
427.586	49.83
427.794	82.6
428.001	219.82
428.209	51.88
428.417	148.14
428.624	113.32
428.832	101.03
429.039	68.27
429.247	174.76
429.454	129.7
429.662	225.96
429.869	70.31
430.076	127.66
430.284	103.08
430.491	244.39
430.699	164.52
430.906	211.62
431.114	90.79
431.321	236.2
431.528	107.18
431.736	166.57
431.943	156.33
432.15	174.76
432.358	176.81
432.565	199.34
432.772	72.36
432.979	289.45
433.187	139.94
433.394	283.3
433.601	92.84
433.808	213.67
434.016	303.78
434.223	260.77
434.43	201.38
434.637	324.26
434.844	199.34
435.052	238.25
435.259	354.98
435.466	330.41
435.673	242.34
435.88	383.65
436.087	311.97
436.294	412.32
436.501	387.75
436.708	299.69
436.915	375.46
437.122	414.37
437.329	295.59
437.537	436.9
437.743	389.8
437.95	535.2
438.157	449.19
438.364	514.72
438.571	469.67
438.778	481.96
438.985	533.15
439.192	502.43
439.399	477.86
439.606	570.02
439.813	582.31
440.02	690.85
440.227	803.49
440.433	709.28
440.64	592.55
440.847	551.59
441.054	678.56
441.261	783.01
441.467	719.52
441.674	676.51
441.881	858.78
442.088	713.38
442.294	871.07
442.501	875.17
442.708	963.23
442.914	793.25
443.121	961.18
443.328	1063.58
443.534	1098.39
443.741	924.32
443.948	977.56
444.154	1180.31
444.361	1260.18
444.568	1145.5
444.774	1258.14
444.981	1194.65
445.187	1356.44
445.394	1327.77
445.6	1292.95
445.807	1505.94
446.013	1413.78
446.22	1442.45
446.426	1696.4
446.633	1751.7
446.839	1886.86
447.046	1677.97
447.252	1913.49
447.459	1872.53
447.665	1852.05
447.871	2204.3
448.078	2257.54
448.284	2284.17
448.491	2310.79
448.697	2484.87
448.903	2615.94
449.11	2632.32
449.316	2562.69
449.522	2873.98
449.728	2986.62
449.935	2994.81
450.141	2968.19
450.347	3291.77
450.553	3166.84
450.76	3383.93
450.966	3455.61
451.172	3580.53
451.378	3660.4
451.584	3713.65
451.791	3895.92
451.997	4242.03
452.203	4278.89
452.409	4428.39
452.615	4528.74
452.821	4504.17
453.027	4555.37
453.233	5106.27
453.44	4962.91
453.646	5290.59
453.852	5491.29
454.058	5722.71
454.264	5888.59
454.47	6328.91
454.676	6277.71
454.882	6783.56
455.088	6689.35
455.294	6941.25
455.5	7295.55
455.705	7805.49
455.911	7887.41
456.117	8159.79
456.323	8286.76
456.529	8254
456.735	9134.62
456.941	9218.59
457.147	9773.59
457.352	9910.8
457.558	9953.81
457.764	10924.55
457.97	11123.2
458.176	11790.84
458.381	12155.38
458.587	12329.45
458.793	12843.49
458.999	13029.86
459.204	14676.43
459.41	15040.97
459.616	14561.74
459.821	15796.67
460.027	16562.61
460.233	17072.55
460.438	17213.86
460.644	18370.96
460.85	18323.86
461.055	18954.63
461.261	19913.08
461.466	19769.72
461.672	19886.46
461.878	22382.93
462.083	22163.8
462.289	22716.75
462.494	23660.87
462.7	23646.53
462.905	23806.27
463.111	25766.18
463.316	27099.41
463.522	27619.59
463.727	28502.26
463.932	29579.5
464.138	30568.66
464.343	31971.52
464.549	31846.6
464.754	34320.54
464.959	35166.35
465.165	35651.72
465.37	35684.49
465.575	35580.04
465.781	37816.43
465.986	39118.93
466.191	38326.37
466.397	38549.6
466.602	37515.37
466.807	39886.92
467.012	40218.69
467.218	41332.79
467.423	41343.03
467.628	42194.98
467.833	44732.42
468.038	44003.34
