Data from USB4F104151__114__10-45-54-060.txt Node

Date: Wed Feb 26 10:45:54 EST 2025
User: louis
Spectrometer: USB4F10415
Trigger mode: 4
Integration Time (sec): 1.000000E-1
Scans to average: 1
Electric dark correction enabled: true
Nonlinearity correction enabled: false
Boxcar width: 0
XAxis mode: Wavelengths
Number of Pixels in Spectrum: 3648
>>>>>Begin Spectral Data<<<<<
178.204	-408.06
178.424	-408.06
178.644	-408.06
178.864	-397.82
179.084	-418.3
179.304	-39.42
179.524	-18.94
179.744	5.63
179.964	22.02
180.184	62.98
180.404	13.82
180.624	-2.56
180.844	11.78
181.064	-16.9
181.283	-18.94
181.503	-25.09
181.723	5.63
181.943	-137.73
182.163	253.44
182.383	28.16
182.602	-20.99
182.822	146.94
183.042	89.6
183.262	-49.66
183.482	-8.7
183.701	91.65
183.921	71.17
184.141	-51.71
184.361	91.65
184.58	97.79
184.8	38.4
185.02	-45.57
185.239	71.17
185.459	65.02
185.679	124.41
185.898	-33.28
186.118	44.54
186.338	71.17
186.557	56.83
186.777	-29.18
186.997	-16.9
187.216	77.31
187.436	134.65
187.655	95.74
187.875	52.74
188.095	77.31
188.314	58.88
188.534	67.07
188.753	-61.95
188.973	126.46
189.192	118.27
189.412	40.45
189.631	32.26
189.851	71.17
190.07	142.85
190.29	-20.99
190.509	-66.05
190.729	19.97
190.948	167.42
191.168	224.76
191.387	155.13
191.607	3.58
191.826	34.3
192.045	36.35
192.265	-2.56
192.484	142.85
192.704	69.12
192.923	-45.57
193.142	130.56
193.362	114.17
193.581	175.61
193.8	-33.28
194.02	130.56
194.239	83.45
194.458	120.32
194.678	3.58
194.897	17.92
195.116	32.26
195.335	65.02
195.555	75.26
195.774	-16.9
195.993	114.17
196.212	120.32
196.432	-0.51
196.651	46.59
196.87	-4.61
197.089	208.38
197.308	26.11
197.528	148.99
197.747	-25.09
197.966	26.11
198.185	192
198.404	-25.09
198.623	103.93
198.842	105.98
199.062	93.69
199.281	132.61
199.5	126.46
199.719	73.21
199.938	89.6
200.157	54.78
200.376	77.31
200.595	146.94
200.814	99.84
201.033	-6.66
201.252	153.09
201.471	85.5
201.69	110.08
201.909	38.4
202.128	118.27
202.347	101.89
202.566	28.16
202.785	-29.18
203.004	-16.9
203.223	218.62
203.442	11.78
203.661	-78.33
203.879	122.37
204.098	118.27
204.317	52.74
204.536	122.37
204.755	71.17
204.974	112.13
205.193	-59.9
205.411	165.37
205.63	124.41
205.849	11.78
206.068	28.16
206.287	-111.1
206.505	97.79
206.724	19.97
206.943	15.87
207.162	108.03
207.381	89.6
207.599	19.97
207.818	24.06
208.037	26.11
208.255	5.63
208.474	46.59
208.693	71.17
208.911	-8.7
209.13	112.13
209.349	87.55
209.567	62.98
209.786	69.12
210.005	60.93
210.223	7.68
210.442	-41.47
210.661	-18.94
210.879	46.59
211.098	42.5
211.316	91.65
211.535	58.88
211.753	69.12
211.972	114.17
212.191	85.5
212.409	-8.7
212.628	75.26
212.846	75.26
213.065	36.35
213.283	120.32
213.502	89.6
213.72	101.89
213.938	38.4
214.157	26.11
214.375	144.89
214.594	3.58
214.812	97.79
215.031	-8.7
215.249	-25.09
215.467	13.82
215.686	79.36
215.904	128.51
216.122	3.58
216.341	177.66
216.559	40.45
216.778	101.89
216.996	124.41
217.214	-47.62
217.432	-16.9
217.651	-57.86
217.869	89.6
218.087	65.02
218.306	97.79
218.524	38.4
218.742	36.35
218.96	173.57
219.179	28.16
219.397	11.78
219.615	185.85
219.833	67.07
220.051	-35.33
220.27	91.65
220.488	83.45
220.706	58.88
220.924	-16.9
221.142	-27.14
221.36	48.64
221.578	50.69
221.796	17.92
222.015	46.59
222.233	-37.38
222.451	181.76
222.669	-29.18
222.887	28.16
223.105	71.17
223.323	-27.14
223.541	17.92
223.759	114.17
223.977	114.17
224.195	116.22
224.413	124.41
224.631	9.73
224.849	153.09
225.067	196.09
225.285	-4.61
225.503	9.73
225.721	-107.01
225.939	-0.51
226.157	7.68
226.375	204.28
226.592	-45.57
226.81	81.41
227.028	138.75
227.246	120.32
227.464	34.3
227.682	126.46
227.9	71.17
228.117	83.45
228.335	130.56
228.553	77.31
228.771	36.35
228.989	75.26
229.206	81.41
229.424	-29.18
229.642	5.63
229.86	-20.99
230.077	112.13
230.295	50.69
230.513	97.79
230.731	91.65
230.948	146.94
231.166	155.13
231.384	-41.47
231.601	-57.86
231.819	153.09
232.037	11.78
232.254	-68.09
232.472	46.59
232.689	56.83
232.907	144.89
233.125	13.82
233.342	9.73
233.56	15.87
233.777	-45.57
233.995	124.41
234.213	62.98
234.43	38.4
234.648	-4.61
234.865	40.45
235.083	132.61
235.3	30.21
235.518	136.7
235.735	148.99
235.953	71.17
236.17	15.87
236.388	95.74
236.605	101.89
236.822	140.8
237.04	83.45
237.257	87.55
237.475	-57.86
237.692	110.08
237.909	110.08
238.127	-20.99
238.344	81.41
238.562	54.78
238.779	-23.04
238.996	-61.95
239.214	58.88
239.431	105.98
239.648	1.54
239.865	112.13
240.083	114.17
240.3	13.82
240.517	32.26
240.735	108.03
240.952	159.23
241.169	30.21
241.386	58.88
241.603	62.98
241.821	-55.81
242.038	62.98
242.255	220.67
242.472	-39.42
242.689	60.93
242.907	58.88
243.124	50.69
243.341	-16.9
243.558	-74.24
243.775	15.87
243.992	-8.7
244.209	67.07
244.426	138.75
244.643	40.45
244.86	36.35
245.078	114.17
245.295	118.27
245.512	56.83
245.729	-47.62
245.946	85.5
246.163	52.74
246.38	9.73
246.597	163.33
246.814	62.98
247.031	44.54
247.248	24.06
247.464	165.37
247.681	-4.61
247.898	103.93
248.115	134.65
248.332	-29.18
248.549	108.03
248.766	155.13
248.983	112.13
249.2	30.21
249.417	108.03
249.633	30.21
249.85	-10.75
250.067	48.64
250.284	52.74
250.501	146.94
250.717	54.78
250.934	-45.57
251.151	-18.94
251.368	22.02
251.585	-4.61
251.801	58.88
252.018	-78.33
252.235	105.98
252.451	-8.7
252.668	17.92
252.885	159.23
253.102	3.58
253.318	9.73
253.535	42.5
253.752	-16.9
253.968	52.74
254.185	5.63
254.401	44.54
254.618	108.03
254.835	-39.42
255.051	110.08
255.268	112.13
255.484	93.69
255.701	44.54
255.917	-6.66
256.134	38.4
256.351	32.26
256.567	-37.38
256.784	44.54
257	-72.19
257.217	134.65
257.433	161.28
257.65	38.4
257.866	169.47
258.082	-53.76
258.299	1.54
258.515	95.74
258.732	24.06
258.948	-25.09
259.165	87.55
259.381	7.68
259.597	79.36
259.814	60.93
260.03	19.97
260.246	19.97
260.463	122.37
260.679	114.17
260.895	24.06
261.112	50.69
261.328	11.78
261.544	-4.61
261.761	206.33
261.977	32.26
262.193	-98.81
262.409	85.5
262.626	19.97
262.842	30.21
263.058	-18.94
263.274	120.32
263.49	-35.33
263.707	173.57
263.923	93.69
264.139	-18.94
264.355	60.93
264.571	91.65
264.787	44.54
265.004	99.84
265.22	85.5
265.436	-4.61
265.652	-2.56
265.868	34.3
266.084	-0.51
266.3	97.79
266.516	-68.09
266.732	157.18
266.948	71.17
267.164	36.35
267.38	65.02
267.596	83.45
267.812	144.89
268.028	81.41
268.244	-14.85
268.46	85.5
268.676	-51.71
268.892	-20.99
269.108	-72.19
269.324	-37.38
269.54	-82.43
269.756	105.98
269.972	-4.61
270.188	50.69
270.403	-84.48
270.619	44.54
270.835	116.22
271.051	-25.09
271.267	48.64
271.483	48.64
271.698	87.55
271.914	44.54
272.13	89.6
272.346	-20.99
272.562	105.98
272.777	103.93
272.993	97.79
273.209	62.98
273.425	30.21
273.64	-33.28
273.856	128.51
274.072	-55.81
274.287	3.58
274.503	136.7
274.719	85.5
274.934	50.69
275.15	11.78
275.366	42.5
275.581	-33.28
275.797	-4.61
276.012	103.93
276.228	11.78
276.444	52.74
276.659	132.61
276.875	-39.42
277.09	-4.61
277.306	1.54
277.521	65.02
277.737	38.4
277.952	116.22
278.168	46.59
278.383	32.26
278.599	11.78
278.814	60.93
279.03	71.17
279.245	122.37
279.461	19.97
279.676	165.37
279.892	-64
280.107	-8.7
280.322	-29.18
280.538	52.74
280.753	11.78
280.969	93.69
281.184	85.5
281.399	93.69
281.615	65.02
281.83	103.93
282.045	-8.7
282.26	-45.57
282.476	81.41
282.691	97.79
282.906	19.97
283.122	120.32
283.337	13.82
283.552	128.51
283.767	-33.28
283.983	136.7
284.198	13.82
284.413	44.54
284.628	15.87
284.843	38.4
285.058	42.5
285.274	42.5
285.489	-66.05
285.704	122.37
285.919	1.54
286.134	50.69
286.349	-12.8
286.564	32.26
286.779	142.85
286.995	-27.14
287.21	15.87
287.425	73.21
287.64	7.68
287.855	52.74
288.07	40.45
288.285	99.84
288.5	56.83
288.715	105.98
288.93	24.06
289.145	11.78
289.36	99.84
289.575	24.06
289.79	71.17
290.004	-4.61
290.219	32.26
290.434	67.07
290.649	-47.62
290.864	-41.47
291.079	103.93
291.294	85.5
291.509	58.88
291.724	34.3
291.938	17.92
292.153	75.26
292.368	58.88
292.583	-55.81
292.798	112.13
293.012	83.45
293.227	105.98
293.442	38.4
293.657	93.69
293.871	144.89
294.086	71.17
294.301	187.9
294.516	173.57
294.73	54.78
294.945	-25.09
295.16	-4.61
295.374	126.46
295.589	122.37
295.804	56.83
296.018	46.59
296.233	144.89
296.447	110.08
296.662	-64
296.877	79.36
297.091	146.94
297.306	-8.7
297.52	36.35
297.735	46.59
297.949	56.83
298.164	40.45
298.378	85.5
298.593	-76.29
298.807	-35.33
299.022	128.51
299.236	69.12
299.451	144.89
299.665	48.64
299.88	-0.51
300.094	161.28
300.309	85.5
300.523	42.5
300.737	1.54
300.952	77.31
301.166	62.98
301.381	-41.47
301.595	11.78
301.809	58.88
302.024	54.78
302.238	24.06
302.452	108.03
302.667	-10.75
302.881	189.95
303.095	32.26
303.309	-16.9
303.524	-6.66
303.738	65.02
303.952	42.5
304.166	46.59
304.381	-158.21
304.595	159.23
304.809	-0.51
305.023	13.82
305.237	-14.85
305.452	13.82
305.666	99.84
305.88	126.46
306.094	138.75
306.308	97.79
306.522	130.56
306.736	126.46
306.95	146.94
307.164	1.54
307.379	69.12
307.593	228.86
307.807	136.7
308.021	103.93
308.235	95.74
308.449	-80.38
308.663	28.16
308.877	200.19
309.091	62.98
309.305	58.88
309.519	-20.99
309.733	71.17
309.947	1.54
310.161	105.98
310.374	99.84
310.588	153.09
310.802	-27.14
311.016	65.02
311.23	153.09
311.444	-18.94
311.658	67.07
311.872	163.33
312.085	42.5
312.299	183.81
312.513	75.26
312.727	40.45
312.941	-41.47
313.154	108.03
313.368	65.02
313.582	34.3
313.796	105.98
314.009	32.26
314.223	144.89
314.437	42.5
314.651	38.4
314.864	9.73
315.078	5.63
315.292	-0.51
315.505	38.4
315.719	93.69
315.933	50.69
316.146	32.26
316.36	-88.57
316.573	87.55
316.787	81.41
317.001	65.02
317.214	-43.52
317.428	79.36
317.641	40.45
317.855	-12.8
318.068	108.03
318.282	-12.8
318.495	169.47
318.709	50.69
318.922	7.68
319.136	128.51
319.349	169.47
319.563	-31.23
319.776	28.16
319.99	-4.61
320.203	116.22
320.417	-4.61
320.63	155.13
320.843	144.89
321.057	101.89
321.27	-0.51
321.483	71.17
321.697	62.98
321.91	50.69
322.124	101.89
322.337	83.45
322.55	-49.66
322.763	67.07
322.977	19.97
323.19	42.5
323.403	105.98
323.617	9.73
323.83	159.23
324.043	-31.23
324.256	114.17
324.469	-4.61
324.683	87.55
324.896	73.21
325.109	77.31
325.322	-86.53
325.535	153.09
325.748	85.5
325.962	36.35
326.175	134.65
326.388	120.32
326.601	144.89
326.814	-8.7
327.027	79.36
327.24	153.09
327.453	-43.52
327.666	71.17
327.879	101.89
328.092	52.74
328.305	46.59
328.518	54.78
328.731	-4.61
328.944	-0.51
329.157	58.88
329.37	-0.51
329.583	101.89
329.796	83.45
330.009	-131.58
330.222	93.69
330.435	95.74
330.648	-27.14
330.861	17.92
331.073	5.63
331.286	60.93
331.499	38.4
331.712	77.31
331.925	30.21
332.138	-6.66
332.35	118.27
332.563	-2.56
332.776	126.46
332.989	-18.94
333.202	50.69
333.414	-37.38
333.627	38.4
333.84	36.35
334.053	48.64
334.265	-6.66
334.478	-6.66
334.691	48.64
334.903	60.93
335.116	-10.75
335.329	32.26
335.541	-16.9
335.754	181.76
335.966	46.59
336.179	77.31
336.392	9.73
336.604	5.63
336.817	130.56
337.029	93.69
337.242	60.93
337.454	99.84
337.667	-4.61
337.88	208.38
338.092	28.16
338.305	87.55
338.517	3.58
338.729	69.12
338.942	153.09
339.154	11.78
339.367	-12.8
339.579	77.31
339.792	5.63
340.004	42.5
340.217	42.5
340.429	32.26
340.641	-64
340.854	22.02
341.066	1.54
341.278	196.09
341.491	161.28
341.703	58.88
341.915	15.87
342.128	81.41
342.34	91.65
342.552	-90.62
342.764	19.97
342.977	60.93
343.189	97.79
343.401	42.5
343.613	-31.23
343.826	19.97
344.038	11.78
344.25	99.84
344.462	-31.23
344.674	24.06
344.886	28.16
345.099	50.69
345.311	140.8
345.523	-18.94
345.735	-80.38
345.947	17.92
346.159	56.83
346.371	71.17
346.583	-18.94
346.795	247.29
347.007	42.5
347.219	138.75
347.431	13.82
347.643	151.04
347.855	17.92
348.067	146.94
348.279	-55.81
348.491	24.06
348.703	62.98
348.915	3.58
349.127	-2.56
349.339	60.93
349.551	-18.94
349.763	91.65
349.975	11.78
350.187	108.03
350.399	161.28
350.61	108.03
350.822	38.4
351.034	112.13
351.246	85.5
351.458	130.56
351.669	7.68
351.881	83.45
352.093	105.98
352.305	77.31
352.517	91.65
352.728	101.89
352.94	30.21
353.152	75.26
353.363	-47.62
353.575	44.54
353.787	171.52
353.999	36.35
354.21	206.33
354.422	7.68
354.633	50.69
354.845	-66.05
355.057	19.97
355.268	50.69
355.48	87.55
355.692	11.78
355.903	54.78
356.115	-6.66
356.326	-20.99
356.538	11.78
356.749	120.32
356.961	130.56
357.172	50.69
357.384	-102.91
357.595	239.1
357.807	-2.56
358.018	-6.66
358.23	-16.9
358.441	130.56
358.653	73.21
358.864	15.87
359.075	7.68
359.287	17.92
359.498	122.37
359.709	97.79
359.921	-8.7
360.132	5.63
360.344	42.5
360.555	42.5
360.766	11.78
360.977	42.5
361.189	175.61
361.4	22.02
361.611	126.46
361.823	58.88
362.034	-8.7
362.245	-37.38
362.456	-23.04
362.667	136.7
362.879	-4.61
363.09	148.99
363.301	110.08
363.512	103.93
363.723	-61.95
363.935	69.12
364.146	62.98
364.357	-6.66
364.568	77.31
364.779	-41.47
364.99	103.93
365.201	-27.14
365.412	140.8
365.623	-109.05
365.834	30.21
366.045	-8.7
366.256	95.74
366.467	62.98
366.678	-31.23
366.889	81.41
367.1	26.11
367.311	15.87
367.522	44.54
367.733	17.92
367.944	105.98
368.155	7.68
368.366	132.61
368.577	153.09
368.788	179.71
368.999	-16.9
369.209	60.93
369.42	163.33
369.631	175.61
369.842	126.46
370.053	48.64
370.264	30.21
370.474	52.74
370.685	60.93
370.896	22.02
371.107	198.14
371.317	13.82
371.528	-25.09
371.739	118.27
371.95	38.4
372.16	95.74
372.371	-12.8
372.582	-18.94
372.792	79.36
373.003	83.45
373.214	58.88
373.424	114.17
373.635	-12.8
373.846	136.7
374.056	58.88
374.267	112.13
374.477	83.45
374.688	5.63
374.898	-10.75
375.109	54.78
375.319	130.56
375.53	54.78
375.74	89.6
375.951	69.12
376.161	83.45
376.372	151.04
376.582	-55.81
376.793	36.35
377.003	-35.33
377.214	13.82
377.424	32.26
377.635	108.03
377.845	28.16
378.055	120.32
378.266	-43.52
378.476	52.74
378.686	17.92
378.897	105.98
379.107	36.35
379.317	77.31
379.528	19.97
379.738	89.6
379.948	17.92
380.158	124.41
380.369	58.88
380.579	62.98
380.789	50.69
380.999	67.07
381.21	124.41
381.42	196.09
381.63	38.4
381.84	89.6
382.05	126.46
382.261	118.27
382.471	169.47
382.681	-53.76
382.891	173.57
383.101	114.17
383.311	22.02
383.521	77.31
383.731	130.56
383.941	155.13
384.151	11.78
384.361	56.83
384.571	105.98
384.781	134.65
384.991	171.52
385.201	134.65
385.411	110.08
385.621	73.21
385.831	42.5
386.041	36.35
386.251	54.78
386.461	196.09
386.671	75.26
386.881	60.93
387.091	54.78
387.301	153.09
387.511	132.61
387.72	126.46
387.93	85.5
388.14	-57.86
388.35	73.21
388.56	124.41
388.769	79.36
388.979	44.54
389.189	24.06
389.399	54.78
389.609	42.5
389.818	58.88
390.028	28.16
390.238	71.17
390.447	-14.85
390.657	44.54
390.867	50.69
391.076	-39.42
391.286	69.12
391.496	-43.52
391.705	105.98
391.915	132.61
392.125	69.12
392.334	-10.75
392.544	99.84
392.753	105.98
392.963	-47.62
393.172	62.98
393.382	7.68
393.591	255.48
393.801	17.92
394.01	189.95
394.22	79.36
394.429	83.45
394.639	-18.94
394.848	93.69
395.058	65.02
395.267	28.16
395.477	73.21
395.686	67.07
395.895	312.83
396.105	204.28
396.314	71.17
396.524	103.93
396.733	-6.66
396.942	126.46
397.152	24.06
397.361	171.52
397.57	19.97
397.78	26.11
397.989	75.26
398.198	257.53
398.407	69.12
398.617	32.26
398.826	132.61
399.035	65.02
399.244	79.36
399.453	81.41
399.663	19.97
399.872	36.35
400.081	-35.33
400.29	142.85
400.499	101.89
400.708	116.22
400.917	81.41
401.127	-33.28
401.336	50.69
401.545	200.19
401.754	153.09
401.963	142.85
402.172	38.4
402.381	-4.61
402.59	105.98
402.799	62.98
403.008	142.85
403.217	60.93
403.426	89.6
403.635	-51.71
403.844	7.68
404.053	38.4
404.262	85.5
404.471	105.98
404.68	60.93
404.888	73.21
405.097	85.5
405.306	103.93
405.515	48.64
405.724	-18.94
405.933	97.79
406.142	79.36
406.35	165.37
406.559	-29.18
406.768	13.82
406.977	192
407.185	-0.51
407.394	110.08
407.603	-84.48
407.812	136.7
408.02	85.5
408.229	40.45
408.438	93.69
408.646	-55.81
408.855	93.69
409.064	69.12
409.272	-2.56
409.481	89.6
409.69	46.59
409.898	-41.47
410.107	60.93
410.315	177.66
410.524	-0.51
410.733	101.89
410.941	112.13
411.15	97.79
411.358	110.08
411.567	153.09
411.775	50.69
411.984	67.07
412.192	75.26
412.401	7.68
412.609	183.81
412.818	165.37
413.026	105.98
413.234	26.11
413.443	24.06
413.651	28.16
413.86	44.54
414.068	148.99
414.276	189.95
414.485	-0.51
414.693	69.12
414.901	136.7
415.11	124.41
415.318	36.35
415.526	65.02
415.734	91.65
415.943	19.97
416.151	192
416.359	83.45
416.567	67.07
416.776	36.35
416.984	71.17
417.192	177.66
417.4	67.07
417.608	40.45
417.817	-70.14
418.025	128.51
418.233	169.47
418.441	-6.66
418.649	3.58
418.857	-25.09
419.065	148.99
419.273	34.3
419.481	26.11
419.689	56.83
419.897	89.6
420.105	-78.33
420.313	134.65
420.521	85.5
420.729	187.9
420.937	-37.38
421.145	-25.09
421.353	136.7
421.561	136.7
421.769	120.32
421.977	-2.56
422.185	165.37
422.393	81.41
422.601	116.22
422.809	17.92
423.017	144.89
423.224	120.32
423.432	175.61
423.64	52.74
423.848	136.7
424.056	44.54
424.263	159.23
424.471	7.68
424.679	126.46
424.887	36.35
425.094	60.93
425.302	97.79
425.51	-0.51
425.718	163.33
425.925	44.54
426.133	48.64
426.341	216.57
426.548	40.45
426.756	11.78
426.964	148.99
427.171	-6.66
427.379	50.69
427.586	42.5
427.794	93.69
428.001	114.17
428.209	124.41
428.417	204.28
428.624	79.36
428.832	132.61
429.039	99.84
429.247	122.37
429.454	77.31
429.662	185.85
429.869	157.18
430.076	163.33
430.284	146.94
430.491	200.19
430.699	177.66
430.906	237.05
431.114	130.56
431.321	157.18
431.528	169.47
431.736	93.69
431.943	175.61
432.15	196.09
432.358	194.05
432.565	241.15
432.772	65.02
432.979	249.34
433.187	108.03
433.394	177.66
433.601	183.81
433.808	132.61
434.016	243.2
434.223	163.33
434.43	214.52
434.637	214.52
434.844	273.92
435.052	181.76
435.259	292.35
435.466	269.82
435.673	251.39
435.88	241.15
436.087	288.25
436.294	296.44
436.501	304.64
436.708	247.29
436.915	339.45
437.122	386.55
437.329	161.28
437.537	304.64
437.743	337.4
437.95	443.9
438.157	304.64
438.364	298.49
438.571	331.26
438.778	431.61
438.985	443.9
439.192	439.8
439.399	454.14
439.606	433.66
439.813	497.14
440.02	601.59
440.227	734.71
440.433	552.44
440.64	493.05
440.847	460.28
441.054	558.58
441.261	730.61
441.467	591.35
441.674	540.15
441.881	601.59
442.088	622.07
442.294	675.32
442.501	763.38
442.708	812.53
442.914	732.66
443.121	703.99
443.328	837.11
443.534	857.59
443.741	800.24
443.948	808.44
444.154	941.55
444.361	1060.34
444.568	931.31
444.774	1007.09
444.981	941.55
445.187	1138.16
445.394	1089.01
445.6	1007.09
445.807	1258.99
446.013	1138.16
446.22	1097.2
446.426	1306.09
446.633	1355.24
446.839	1486.31
447.046	1332.72
447.252	1463.79
447.459	1455.59
447.665	1484.27
447.871	1615.34
448.078	1834.47
448.284	1713.64
448.491	1820.13
448.697	1926.63
448.903	2057.7
449.11	2039.26
449.316	2125.28
449.522	2266.59
449.728	2223.58
449.935	2483.67
450.141	2414.04
450.347	2512.35
450.553	2547.16
450.76	2504.15
450.966	2778.58
451.172	2786.77
451.378	2899.41
451.584	2923.99
451.791	3257.81
451.997	3218.89
452.203	3272.14
452.409	3456.46
452.615	3546.57
452.821	3390.92
453.027	3565
453.233	4220.35
453.44	3970.5
453.646	4046.27
453.852	4427.2
454.058	4380.09
454.264	4541.88
454.47	4914.61
454.676	4828.6
454.882	5115.31
455.088	5109.17
455.294	5442.99
455.5	5770.66
455.705	6202.79
455.911	5987.75
456.117	6350.24
456.323	6477.21
456.529	6477.21
456.735	7171.47
456.941	7484.81
457.147	7673.23
457.352	7781.77
457.558	8015.24
457.764	8650.11
457.97	8619.39
458.176	9069.94
458.381	9256.31
458.587	9520.49
458.793	9991.53
458.999	10169.7
459.204	11144.53
459.41	11656.53
459.616	11461.97
459.821	12281.16
460.027	12569.92
460.233	13258.04
460.438	13487.41
460.644	14052.65
460.85	14183.72
461.055	14892.32
461.261	15699.22
461.466	15291.67
461.672	15684.88
461.878	17284.34
462.083	17331.45
462.289	17345.78
462.494	17966.32
462.7	18099.44
462.905	18388.2
463.111	19891.41
463.316	21095.61
463.522	21531.83
463.727	22027.44
463.932	22762.66
464.138	23778.45
464.343	24677.51
464.549	25019.52
464.754	26428.52
464.959	27528.28
465.165	28050.52
465.37	27690.07
465.575	27567.2
465.781	29185.09
465.986	29858.87
466.191	29690.94
466.397	30090.29
466.602	29303.87
466.807	30850.09
467.012	31550.49
467.218	32381.97
467.423	32285.72
467.628	32902.15
467.833	34872.3
468.038	34055.16
468.244	33641.47
468.449	35099.62
468.654	34696.17
