Data from USB4F104151__17__10-41-53-186.txt Node

Date: Wed Feb 26 10:41:53 EST 2025
User: louis
Spectrometer: USB4F10415
Trigger mode: 4
Integration Time (sec): 1.000000E-1
Scans to average: 1
Electric dark correction enabled: true
Nonlinearity correction enabled: false
Boxcar width: 0
XAxis mode: Wavelengths
Number of Pixels in Spectrum: 3648
>>>>>Begin Spectral Data<<<<<
178.204	-383.82
178.424	-383.82
178.644	-383.82
178.864	-449.36
179.084	-402.26
179.304	40.11
179.524	-45.91
179.744	-52.05
179.964	89.26
180.184	-11.09
180.404	70.83
180.624	-2.9
180.844	21.67
181.064	-50
181.283	-33.62
181.503	-68.44
181.723	42.15
181.943	-101.2
182.163	169.13
182.383	-39.76
182.602	7.34
182.822	197.8
183.042	31.91
183.262	-66.39
183.482	-103.25
183.701	-25.43
183.921	15.53
184.141	-47.96
184.361	83.11
184.58	146.6
184.8	46.25
185.02	1.19
185.239	25.77
185.459	52.39
185.679	126.12
185.898	-64.34
186.118	95.4
186.338	19.63
186.557	105.64
186.777	-90.96
186.997	-52.05
187.216	56.49
187.436	171.18
187.655	105.64
187.875	117.93
188.095	81.07
188.314	154.79
188.534	93.35
188.753	-72.53
188.973	187.56
189.192	138.41
189.412	-50
189.631	46.25
189.851	11.43
190.07	124.07
190.29	-11.09
190.509	27.82
190.729	23.72
190.948	156.84
191.168	138.41
191.387	105.64
191.607	-15.19
191.826	58.54
192.045	50.35
192.265	-23.38
192.484	52.39
192.704	11.43
192.923	-45.91
193.142	210.09
193.362	111.78
193.581	132.26
193.8	95.4
194.02	9.39
194.239	64.68
194.458	140.46
194.678	-4.95
194.897	-68.44
195.116	5.29
195.335	15.53
195.555	93.35
195.774	-29.52
195.993	27.82
196.212	-4.95
196.432	-80.72
196.651	5.29
196.87	-39.76
197.089	171.18
197.308	17.58
197.528	52.39
197.747	-97.11
197.966	23.72
198.185	83.11
198.404	-107.35
198.623	85.16
198.842	111.78
199.062	-11.09
199.281	140.46
199.5	-31.57
199.719	48.3
199.938	64.68
200.157	40.11
200.376	140.46
200.595	5.29
200.814	44.2
201.033	21.67
201.252	140.46
201.471	50.35
201.69	40.11
201.909	66.73
202.128	62.63
202.347	101.55
202.566	17.58
202.785	-45.91
203.004	-35.67
203.223	238.76
203.442	-19.29
203.661	-72.53
203.879	89.26
204.098	83.11
204.317	-62.29
204.536	76.97
204.755	54.44
204.974	99.5
205.193	54.44
205.411	62.63
205.63	81.07
205.849	79.02
206.068	-66.39
206.287	-23.38
206.505	85.16
206.724	76.97
206.943	-52.05
207.162	-54.1
207.381	64.68
207.599	31.91
207.818	7.34
208.037	-45.91
208.255	-0.85
208.474	72.87
208.693	74.92
208.911	-35.67
209.13	21.67
209.349	21.67
209.567	83.11
209.786	-0.85
210.005	105.64
210.223	11.43
210.442	-97.11
210.661	-7
210.879	91.31
211.098	60.59
211.316	46.25
211.535	17.58
211.753	21.67
211.972	142.5
212.191	62.63
212.409	-31.57
212.628	64.68
212.846	-66.39
213.065	50.35
213.283	103.59
213.502	74.92
213.72	70.83
213.938	27.82
214.157	13.48
214.375	101.55
214.594	58.54
214.812	119.98
215.031	58.54
215.249	17.58
215.467	38.06
215.686	122.02
215.904	105.64
216.122	29.87
216.341	154.79
216.559	97.45
216.778	115.88
216.996	179.37
217.214	-0.85
217.432	-17.24
217.651	56.49
217.869	-11.09
218.087	1.19
218.306	48.3
218.524	5.29
218.742	7.34
218.96	113.83
219.179	-39.76
219.397	-31.57
219.615	150.7
219.833	68.78
220.051	-47.96
220.27	87.21
220.488	95.4
220.706	58.54
220.924	-50
221.142	9.39
221.36	42.15
221.578	95.4
221.796	-35.67
222.015	-17.24
222.233	74.92
222.451	122.02
222.669	-70.48
222.887	25.77
223.105	-35.67
223.323	60.59
223.541	-11.09
223.759	70.83
223.977	70.83
224.195	79.02
224.413	99.5
224.631	40.11
224.849	3.24
225.067	201.9
225.285	-39.76
225.503	-45.91
225.721	-105.3
225.939	31.91
226.157	119.98
226.375	273.57
226.592	-105.3
226.81	-93.01
227.028	113.83
227.246	130.22
227.464	95.4
227.682	60.59
227.9	62.63
228.117	60.59
228.335	9.39
228.553	42.15
228.771	23.72
228.989	-13.14
229.206	62.63
229.424	5.29
229.642	-2.9
229.86	-4.95
230.077	117.93
230.295	40.11
230.513	95.4
230.731	58.54
230.948	150.7
231.166	162.98
231.384	-60.24
231.601	-43.86
231.819	152.74
232.037	5.29
232.254	-7
232.472	11.43
232.689	-9.05
232.907	150.7
233.125	-64.34
233.342	-4.95
233.56	-41.81
233.777	60.59
233.995	40.11
234.213	62.63
234.43	44.2
234.648	91.31
234.865	-41.81
235.083	17.58
235.3	54.44
235.518	62.63
235.735	111.78
235.953	115.88
236.17	42.15
236.388	17.58
236.605	31.91
236.822	87.21
237.04	58.54
237.257	-7
237.475	-29.52
237.692	1.19
237.909	70.83
238.127	-43.86
238.344	74.92
238.562	46.25
238.779	-125.78
238.996	-45.91
239.214	9.39
239.431	122.02
239.648	54.44
239.865	74.92
240.083	23.72
240.3	27.82
240.517	-41.81
240.735	79.02
240.952	58.54
241.169	72.87
241.386	95.4
241.603	-7
241.821	-66.39
242.038	70.83
242.255	83.11
242.472	-99.16
242.689	-2.9
242.907	46.25
243.124	107.69
243.341	31.91
243.558	-33.62
243.775	-74.58
243.992	-45.91
244.209	93.35
244.426	191.66
244.643	-7
244.86	25.77
245.078	60.59
245.295	70.83
245.512	-0.85
245.729	40.11
245.946	54.44
246.163	70.83
246.38	19.63
246.597	9.39
246.814	72.87
247.031	40.11
247.248	15.53
247.464	70.83
247.681	25.77
247.898	27.82
248.115	60.59
248.332	-52.05
248.549	58.54
248.766	160.94
248.983	113.83
249.2	36.01
249.417	181.42
249.633	-27.48
249.85	31.91
250.067	68.78
250.284	101.55
250.501	109.74
250.717	68.78
250.934	-33.62
251.151	-0.85
251.368	-25.43
251.585	-17.24
251.801	27.82
252.018	-33.62
252.235	146.6
252.451	-27.48
252.668	-2.9
252.885	85.16
253.102	33.96
253.318	21.67
253.535	-78.68
253.752	89.26
253.968	9.39
254.185	-31.57
254.401	58.54
254.618	38.06
254.835	-47.96
255.051	66.73
255.268	58.54
255.484	103.59
255.701	-33.62
255.917	52.39
256.134	-13.14
256.351	-4.95
256.567	-60.24
256.784	50.35
257	-60.24
257.217	169.13
257.433	36.01
257.65	19.63
257.866	74.92
258.082	-47.96
258.299	-4.95
258.515	64.68
258.732	48.3
258.948	-52.05
259.165	-7
259.381	-31.57
259.597	48.3
259.814	-25.43
260.03	-76.63
260.246	23.72
260.463	130.22
260.679	150.7
260.895	81.07
261.112	101.55
261.328	-7
261.544	-35.67
261.761	175.27
261.977	-39.76
262.193	-105.3
262.409	27.82
262.626	87.21
262.842	21.67
263.058	-29.52
263.274	54.44
263.49	17.58
263.707	66.73
263.923	58.54
264.139	-95.06
264.355	5.29
264.571	117.93
264.787	23.72
265.004	179.37
265.22	38.06
265.436	-13.14
265.652	79.02
265.868	107.69
266.084	-93.01
266.3	1.19
266.516	-43.86
266.732	48.3
266.948	13.48
267.164	52.39
267.38	3.24
267.596	50.35
267.812	177.32
268.028	83.11
268.244	48.3
268.46	122.02
268.676	-19.29
268.892	83.11
269.108	-74.58
269.324	-7
269.54	-58.2
269.756	93.35
269.972	-82.77
270.188	-7
270.403	-37.72
270.619	7.34
270.835	31.91
271.051	81.07
271.267	33.96
271.483	36.01
271.698	42.15
271.914	119.98
272.13	-23.38
272.346	25.77
272.562	-21.33
272.777	146.6
272.993	13.48
273.209	-17.24
273.425	89.26
273.64	-86.87
273.856	72.87
274.072	-37.72
274.287	-23.38
274.503	95.4
274.719	101.55
274.934	-11.09
275.15	-129.88
275.366	21.67
275.581	-70.48
275.797	-0.85
276.012	33.96
276.228	-29.52
276.444	11.43
276.659	160.94
276.875	50.35
277.09	31.91
277.306	1.19
277.521	54.44
277.737	38.06
277.952	23.72
278.168	44.2
278.383	-27.48
278.599	103.59
278.814	95.4
279.03	29.87
279.245	87.21
279.461	31.91
279.676	66.73
279.892	-99.16
280.107	-27.48
280.322	5.29
280.538	3.24
280.753	13.48
280.969	17.58
281.184	101.55
281.399	52.39
281.615	23.72
281.83	17.58
282.045	-88.92
282.26	-76.63
282.476	25.77
282.691	93.35
282.906	72.87
283.122	38.06
283.337	-58.2
283.552	101.55
283.767	56.49
283.983	42.15
284.198	46.25
284.413	36.01
284.628	-115.54
284.843	52.39
285.058	54.44
285.274	-35.67
285.489	-0.85
285.704	81.07
285.919	15.53
286.134	9.39
286.349	-23.38
286.564	-15.19
286.779	165.03
286.995	-2.9
287.21	-121.68
287.425	46.25
287.64	-21.33
287.855	36.01
288.07	-78.68
288.285	115.88
288.5	107.69
288.715	119.98
288.93	74.92
289.145	-50
289.36	113.83
289.575	-9.05
289.79	93.35
290.004	-23.38
290.219	191.66
290.434	-50
290.649	15.53
290.864	-33.62
291.079	27.82
291.294	-0.85
291.509	91.31
291.724	105.64
291.938	46.25
292.153	33.96
292.368	-27.48
292.583	101.55
292.798	33.96
293.012	70.83
293.227	29.87
293.442	-31.57
293.657	44.2
293.871	150.7
294.086	-13.14
294.301	273.57
294.516	93.35
294.73	15.53
294.945	-47.96
295.16	42.15
295.374	68.78
295.589	167.08
295.804	40.11
296.018	7.34
296.233	87.21
296.447	-15.19
296.662	-31.57
296.877	158.89
297.091	25.77
297.306	-4.95
297.52	13.48
297.735	83.11
297.949	21.67
298.164	117.93
298.378	122.02
298.593	23.72
298.807	-13.14
299.022	66.73
299.236	105.64
299.451	91.31
299.665	-11.09
299.88	3.24
300.094	17.58
300.309	-23.38
300.523	-41.81
300.737	-7
300.952	81.07
301.166	158.89
301.381	-19.29
301.595	-58.2
301.809	79.02
302.024	21.67
302.238	-2.9
302.452	142.5
302.667	3.24
302.881	109.74
303.095	113.83
303.309	50.35
303.524	-41.81
303.738	-0.85
303.952	48.3
304.166	50.35
304.381	-93.01
304.595	179.37
304.809	74.92
305.023	15.53
305.237	-11.09
305.452	-25.43
305.666	74.92
305.88	19.63
306.094	138.41
306.308	68.78
306.522	107.69
306.736	15.53
306.95	70.83
307.164	-0.85
307.379	5.29
307.593	103.59
307.807	107.69
308.021	36.01
308.235	115.88
308.449	-62.29
308.663	11.43
308.877	175.27
309.091	107.69
309.305	83.11
309.519	-119.64
309.733	101.55
309.947	1.19
310.161	89.26
310.374	138.41
310.588	99.5
310.802	-56.15
311.016	13.48
311.23	58.54
311.444	-19.29
311.658	-9.05
311.872	76.97
312.085	64.68
312.299	99.5
312.513	165.03
312.727	72.87
312.941	-9.05
313.154	76.97
313.368	11.43
313.582	-9.05
313.796	66.73
314.009	9.39
314.223	29.87
314.437	19.63
314.651	128.17
314.864	-13.14
315.078	-11.09
315.292	-60.24
315.505	-45.91
315.719	60.59
315.933	103.59
316.146	-29.52
316.36	48.3
316.573	64.68
316.787	66.73
317.001	-39.76
317.214	31.91
317.428	27.82
317.641	-31.57
317.855	-21.33
318.068	-2.9
318.282	-39.76
318.495	111.78
318.709	79.02
318.922	-7
319.136	146.6
319.349	150.7
319.563	27.82
319.776	66.73
319.99	-160.59
320.203	56.49
320.417	46.25
320.63	87.21
320.843	185.51
321.057	60.59
321.27	93.35
321.483	56.49
321.697	165.03
321.91	62.63
322.124	46.25
322.337	76.97
322.55	-37.72
322.763	38.06
322.977	1.19
323.19	-33.62
323.403	-17.24
323.617	-9.05
323.83	95.4
324.043	46.25
324.256	93.35
324.469	-21.33
324.683	148.65
324.896	38.06
325.109	50.35
325.322	-45.91
325.535	134.31
325.748	113.83
325.962	-76.63
326.175	128.17
326.388	29.87
326.601	117.93
326.814	33.96
327.027	21.67
327.24	144.55
327.453	-78.68
327.666	50.35
327.879	152.74
328.092	81.07
328.305	138.41
328.518	-23.38
328.731	-13.14
328.944	19.63
329.157	31.91
329.37	44.2
329.583	148.65
329.796	95.4
330.009	-15.19
330.222	-19.29
330.435	68.78
330.648	21.67
330.861	74.92
331.073	91.31
331.286	74.92
331.499	36.01
331.712	-41.81
331.925	-50
332.138	-31.57
332.35	62.63
332.563	5.29
332.776	76.97
332.989	-76.63
333.202	-41.81
333.414	46.25
333.627	40.11
333.84	29.87
334.053	68.78
334.265	66.73
334.478	-45.91
334.691	46.25
334.903	33.96
335.116	-78.68
335.329	11.43
335.541	79.02
335.754	132.26
335.966	1.19
336.179	40.11
336.392	33.96
336.604	15.53
336.817	48.3
337.029	31.91
337.242	36.01
337.454	76.97
337.667	33.96
337.88	101.55
338.092	103.59
338.305	99.5
338.517	54.44
338.729	50.35
338.942	91.31
339.154	-19.29
339.367	7.34
339.579	76.97
339.792	-41.81
340.004	107.69
340.217	9.39
340.429	3.24
340.641	-117.59
340.854	11.43
341.066	-37.72
341.278	169.13
341.491	156.84
341.703	48.3
341.915	-17.24
342.128	60.59
342.34	-11.09
342.552	-7
342.764	60.59
342.977	-47.96
343.189	68.78
343.401	60.59
343.613	-115.54
343.826	-15.19
344.038	5.29
344.25	1.19
344.462	-31.57
344.674	44.2
344.886	19.63
345.099	150.7
345.311	7.34
345.523	33.96
345.735	-80.72
345.947	-9.05
346.159	29.87
346.371	-9.05
346.583	3.24
346.795	255.14
347.007	-21.33
347.219	91.31
347.431	11.43
347.643	33.96
347.855	-84.82
348.067	142.5
348.279	-13.14
348.491	11.43
348.703	130.22
348.915	19.63
349.127	17.58
349.339	25.77
349.551	33.96
349.763	124.07
349.975	23.72
350.187	74.92
350.399	138.41
350.61	54.44
350.822	-25.43
351.034	97.45
351.246	95.4
351.458	76.97
351.669	81.07
351.881	9.39
352.093	117.93
352.305	97.45
352.517	74.92
352.728	201.9
352.94	-2.9
353.152	126.12
353.363	-31.57
353.575	38.06
353.787	175.27
353.999	103.59
354.21	97.45
354.422	-80.72
354.633	48.3
354.845	17.58
355.057	74.92
355.268	83.11
355.48	93.35
355.692	-31.57
355.903	-15.19
356.115	-45.91
356.326	5.29
356.538	208.04
356.749	58.54
356.961	154.79
357.172	-23.38
357.384	-17.24
357.595	240.81
357.807	-84.82
358.018	-109.4
358.23	46.25
358.441	136.36
358.653	81.07
358.864	-25.43
359.075	-66.39
359.287	27.82
359.498	105.64
359.709	-25.43
359.921	-37.72
360.132	97.45
360.344	66.73
360.555	-9.05
360.766	21.67
360.977	-0.85
361.189	111.78
361.4	15.53
361.611	85.16
361.823	158.89
362.034	48.3
362.245	-136.02
362.456	-13.14
362.667	31.91
362.879	11.43
363.09	87.21
363.301	33.96
363.512	48.3
363.723	-25.43
363.935	-56.15
364.146	48.3
364.357	25.77
364.568	5.29
364.779	-64.34
364.99	99.5
365.201	-4.95
365.412	144.55
365.623	-62.29
365.834	66.73
366.045	38.06
366.256	-9.05
366.467	46.25
366.678	-39.76
366.889	27.82
367.1	3.24
367.311	62.63
367.522	31.91
367.733	74.92
367.944	25.77
368.155	-13.14
368.366	81.07
368.577	140.46
368.788	169.13
368.999	-54.1
369.209	25.77
369.42	148.65
369.631	263.33
369.842	97.45
370.053	-90.96
370.264	74.92
370.474	-72.53
370.685	66.73
370.896	103.59
371.107	132.26
371.317	48.3
371.528	50.35
371.739	113.83
371.95	21.67
372.16	85.16
372.371	-33.62
372.582	9.39
372.792	33.96
373.003	44.2
373.214	3.24
373.424	38.06
373.635	-80.72
373.846	105.64
374.056	44.2
374.267	103.59
374.477	66.73
374.688	-15.19
374.898	50.35
375.109	38.06
375.319	-39.76
375.53	126.12
375.74	70.83
375.951	27.82
376.161	-27.48
376.372	132.26
376.582	68.78
376.793	165.03
377.003	-76.63
377.214	-17.24
377.424	72.87
377.635	7.34
377.845	15.53
378.055	111.78
378.266	-50
378.476	68.78
378.686	19.63
378.897	52.39
379.107	130.22
379.317	48.3
379.528	13.48
379.738	70.83
379.948	-39.76
380.158	85.16
380.369	62.63
380.579	48.3
380.789	89.26
380.999	115.88
381.21	76.97
381.42	189.61
381.63	9.39
381.84	165.03
382.05	46.25
382.261	70.83
382.471	119.98
382.681	54.44
382.891	144.55
383.101	64.68
383.311	-66.39
383.521	-37.72
383.731	91.31
383.941	87.21
384.151	31.91
384.361	58.54
384.571	21.67
384.781	31.91
384.991	185.51
385.201	99.5
385.411	165.03
385.621	38.06
385.831	44.2
386.041	44.2
386.251	1.19
386.461	19.63
386.671	36.01
386.881	64.68
387.091	17.58
387.301	68.78
387.511	17.58
387.72	95.4
387.93	-74.58
388.14	-86.87
388.35	42.15
388.56	144.55
388.769	107.69
388.979	7.34
389.189	-84.82
389.399	113.83
389.609	95.4
389.818	109.74
390.028	42.15
390.238	115.88
390.447	-31.57
390.657	122.02
390.867	-17.24
391.076	-60.24
391.286	113.83
391.496	-25.43
391.705	60.59
391.915	173.22
392.125	103.59
392.334	50.35
392.544	122.02
392.753	50.35
392.963	-37.72
393.172	36.01
393.382	13.48
393.591	113.83
393.801	-9.05
394.01	122.02
394.22	87.21
394.429	56.49
394.639	33.96
394.848	9.39
395.058	52.39
395.267	21.67
395.477	107.69
395.686	60.59
395.895	226.47
396.105	191.66
396.314	42.15
396.524	54.44
396.733	66.73
396.942	103.59
397.152	58.54
397.361	97.45
397.57	115.88
397.78	9.39
397.989	72.87
398.198	144.55
398.407	23.72
398.617	40.11
398.826	107.69
399.035	-15.19
399.244	138.41
399.453	46.25
399.663	25.77
399.872	36.01
400.081	-107.35
400.29	185.51
400.499	-70.48
400.708	111.78
400.917	-19.29
401.127	3.24
401.336	1.19
401.545	238.76
401.754	74.92
401.963	93.35
402.172	46.25
402.381	-66.39
402.59	93.35
402.799	25.77
403.008	103.59
403.217	83.11
403.426	56.49
403.635	-17.24
403.844	81.07
404.053	48.3
404.262	40.11
404.471	199.85
404.68	64.68
404.888	-11.09
405.097	117.93
405.306	25.77
405.515	74.92
405.724	-29.52
405.933	142.5
406.142	60.59
406.35	156.84
406.559	-4.95
406.768	13.48
406.977	105.64
407.185	27.82
407.394	169.13
407.603	-70.48
407.812	119.98
408.02	89.26
408.229	109.74
408.438	17.58
408.646	-0.85
408.855	13.48
409.064	132.26
409.272	13.48
409.481	101.55
409.69	5.29
409.898	-74.58
410.107	134.31
410.315	138.41
410.524	5.29
410.733	85.16
410.941	64.68
411.15	19.63
411.358	54.44
411.567	128.17
411.775	40.11
411.984	134.31
412.192	68.78
412.401	111.78
412.609	132.26
412.818	89.26
413.026	36.01
413.234	31.91
413.443	54.44
413.651	38.06
413.86	70.83
414.068	68.78
414.276	97.45
414.485	36.01
414.693	101.55
414.901	160.94
415.11	7.34
415.318	52.39
415.526	54.44
415.734	93.35
415.943	56.49
416.151	68.78
416.359	11.43
416.567	60.59
416.776	91.31
416.984	113.83
417.192	181.42
417.4	52.39
417.608	58.54
417.817	52.39
418.025	113.83
418.233	158.89
418.441	3.24
418.649	-76.63
418.857	-4.95
419.065	144.55
419.273	89.26
419.481	52.39
419.689	-9.05
419.897	44.2
420.105	-64.34
420.313	66.73
420.521	52.39
420.729	91.31
420.937	33.96
421.145	58.54
421.353	105.64
421.561	117.93
421.769	42.15
421.977	-4.95
422.185	124.07
422.393	29.87
422.601	126.12
422.809	42.15
423.017	64.68
423.224	107.69
423.432	183.46
423.64	36.01
423.848	79.02
424.056	-27.48
424.263	117.93
424.471	27.82
424.679	132.26
424.887	-17.24
425.094	146.6
425.302	158.89
425.51	44.2
425.718	130.22
425.925	5.29
426.133	-43.86
426.341	271.53
426.548	1.19
426.756	25.77
426.964	79.02
427.171	1.19
427.379	64.68
427.586	56.49
427.794	97.45
428.001	177.32
428.209	93.35
428.417	191.66
428.624	107.69
428.832	150.7
429.039	85.16
429.247	93.35
429.454	122.02
429.662	210.09
429.869	52.39
430.076	66.73
430.284	105.64
430.491	212.14
430.699	113.83
430.906	218.28
431.114	93.35
431.321	208.04
431.528	134.31
431.736	154.79
431.943	124.07
432.15	160.94
432.358	216.23
432.565	271.53
432.772	-25.43
432.979	220.33
433.187	132.26
433.394	296.1
433.601	152.74
433.808	296.1
434.016	203.94
434.223	257.19
434.43	205.99
434.637	326.82
434.844	306.34
435.052	208.04
435.259	324.77
435.466	292.01
435.673	267.43
435.88	222.38
436.087	394.4
436.294	382.12
436.501	330.92
436.708	249
436.915	326.82
437.122	421.03
437.329	310.44
437.537	326.82
437.743	359.59
437.95	455.84
438.157	418.98
438.364	384.16
438.571	400.55
438.778	525.47
438.985	609.44
439.192	502.95
439.399	486.56
439.606	517.28
439.813	627.87
440.02	679.07
440.227	732.32
440.433	613.54
440.64	619.68
440.847	574.63
441.054	664.74
441.261	785.57
441.467	646.3
441.674	646.3
441.881	789.66
442.088	752.8
442.294	804
442.501	871.58
442.708	881.82
442.914	861.34
443.121	935.07
443.328	963.74
443.534	1012.89
443.741	1162.39
443.948	1051.8
444.154	1092.76
444.361	1254.55
444.568	1066.14
444.774	1217.69
444.981	1057.95
445.187	1422.48
445.394	1381.53
445.6	1320.09
445.807	1490.07
446.013	1502.36
446.22	1420.44
446.426	1655.95
446.633	1733.78
446.839	1905.81
447.046	1686.67
447.252	1991.82
447.459	1914
447.665	1797.26
447.871	2083.98
448.078	2163.85
448.284	2192.52
448.491	2333.83
448.697	2428.04
448.903	2499.72
449.11	2456.71
449.316	2505.86
449.522	2630.79
449.728	2894.97
449.935	2841.73
450.141	3001.47
450.347	3232.89
450.553	3089.53
450.76	3255.42
450.966	3435.64
451.172	3546.23
451.378	3677.3
451.584	3636.34
451.791	4088.94
451.997	4013.17
452.203	4121.71
452.409	4351.08
452.615	4465.77
452.821	4359.27
453.027	4445.29
453.233	5076.06
453.44	4775.01
453.646	5184.6
453.852	5317.72
454.058	5547.09
454.264	5702.74
454.47	6286.41
454.676	6100.05
454.882	6612.04
455.088	6296.65
455.294	6675.52
455.5	7273.53
455.705	7568.44
455.911	7572.54
456.117	7779.38
456.323	8012.85
456.529	8158.25
456.735	8750.12
456.941	9233.44
457.147	9374.75
457.352	9663.51
457.558	9866.26
457.764	10562.57
457.97	10724.36
458.176	11191.3
458.381	11516.92
458.587	12188.66
458.793	12624.87
458.999	12506.09
459.204	14177.23
459.41	14474.19
459.616	14134.23
459.821	15238.08
460.027	15690.68
460.233	16763.82
460.438	16634.8
460.644	17664.93
460.85	17941.4
461.055	18736.01
461.261	19336.07
461.466	19069.83
461.672	19223.43
461.878	21680.99
462.083	21609.31
462.289	22031.19
462.494	22799.18
462.7	22725.46
462.905	23176.01
463.111	25064.24
463.316	26503.96
463.522	27108.11
463.727	27534.09
463.932	28904.18
464.138	29551.34
464.343	30733.01
464.549	30900.95
464.754	33229.49
464.959	33776.3
465.165	34478.75
465.37	34421.41
465.575	34716.31
465.781	36539.01
465.986	37917.29
466.191	37288.56
466.397	37372.53
466.602	36751.99
466.807	38552.16
467.012	39205.46
467.218	40186.44
467.423	40090.18
467.628	41884.2
467.833	43416.08
468.038	42201.64
468.244	41910.83
468.449	43964.94
468.654	42887.71
