Data from USB4F104151__25__10-42-07-984.txt Node

Date: Wed Feb 26 10:42:07 EST 2025
User: louis
Spectrometer: USB4F10415
Trigger mode: 4
Integration Time (sec): 1.000000E-1
Scans to average: 1
Electric dark correction enabled: true
Nonlinearity correction enabled: false
Boxcar width: 0
XAxis mode: Wavelengths
Number of Pixels in Spectrum: 3648
>>>>>Begin Spectral Data<<<<<
178.204	-438.09
178.424	-438.09
178.644	-438.09
178.864	-393.04
179.084	-356.18
179.304	-8.02
179.524	-8.02
179.744	-22.36
179.964	28.84
180.184	28.84
180.404	20.65
180.624	4.27
180.844	4.27
181.064	-77.65
181.283	24.75
181.503	-79.7
181.723	84.14
181.943	-51.03
182.163	186.54
182.383	10.41
182.602	92.33
182.822	106.67
183.042	65.71
183.262	-14.17
183.482	61.61
183.701	110.76
183.921	116.9
184.141	-10.07
184.361	73.9
184.58	73.9
184.8	65.71
185.02	-12.12
185.239	127.14
185.459	67.75
185.679	118.95
185.898	-20.31
186.118	61.61
186.338	18.6
186.557	182.44
186.777	6.31
186.997	47.27
187.216	114.86
187.436	71.85
187.655	30.89
187.875	166.06
188.095	100.52
188.314	82.09
188.534	209.06
188.753	-67.41
188.973	200.87
189.192	174.25
189.412	53.42
189.631	82.09
189.851	43.18
190.07	161.96
190.29	51.37
190.509	63.66
190.729	43.18
190.948	65.71
191.168	293.03
191.387	82.09
191.607	53.42
191.826	69.8
192.045	137.38
192.265	-5.97
192.484	184.49
192.704	41.13
192.923	32.94
193.142	182.44
193.362	51.37
193.581	180.39
193.8	-26.45
194.02	118.95
194.239	49.32
194.458	86.19
194.678	98.47
194.897	-26.45
195.116	149.67
195.335	98.47
195.555	135.34
195.774	80.04
195.993	129.19
196.212	94.38
196.432	22.7
196.651	37.03
196.87	55.47
197.089	239.78
197.308	59.56
197.528	61.61
197.747	-14.17
197.966	141.48
198.185	200.87
198.404	24.75
198.623	125.1
198.842	157.86
199.062	151.72
199.281	172.2
199.5	-5.97
199.719	186.54
199.938	114.86
200.157	121
200.376	102.57
200.595	188.58
200.814	104.62
201.033	-28.5
201.252	159.91
201.471	53.42
201.69	151.72
201.909	77.99
202.128	125.1
202.347	67.75
202.566	49.32
202.785	-34.64
203.004	-26.45
203.223	272.55
203.442	121
203.661	-67.41
203.879	86.19
204.098	180.39
204.317	-46.93
204.536	121
204.755	133.29
204.974	106.67
205.193	55.47
205.411	153.77
205.63	170.15
205.849	133.29
206.068	10.41
206.287	-36.69
206.505	209.06
206.724	53.42
206.943	-16.21
207.162	20.65
207.381	98.47
207.599	116.9
207.818	77.99
208.037	-57.17
208.255	71.85
208.474	45.23
208.693	75.95
208.911	20.65
209.13	14.51
209.349	41.13
209.567	63.66
209.786	84.14
210.005	106.67
210.223	114.86
210.442	-94.04
210.661	88.23
210.879	139.43
211.098	88.23
211.316	92.33
211.535	141.48
211.753	16.55
211.972	61.61
212.191	61.61
212.409	84.14
212.628	84.14
212.846	-34.64
213.065	53.42
213.283	207.02
213.502	84.14
213.72	129.19
213.938	8.36
214.157	14.51
214.375	147.62
214.594	75.95
214.812	77.99
215.031	88.23
215.249	53.42
215.467	30.89
215.686	65.71
215.904	94.38
216.122	75.95
216.341	143.53
216.559	116.9
216.778	131.24
216.996	116.9
217.214	-51.03
217.432	41.13
217.651	-14.17
217.869	-1.88
218.087	16.55
218.306	34.99
218.524	71.85
218.742	135.34
218.96	88.23
219.179	18.6
219.397	102.57
219.615	266.41
219.833	47.27
220.051	6.31
220.27	121
220.488	184.49
220.706	-30.55
220.924	14.51
221.142	-24.4
221.36	53.42
221.578	53.42
221.796	-5.97
222.015	-5.97
222.233	6.31
222.451	188.58
222.669	-22.36
222.887	110.76
223.105	55.47
223.323	55.47
223.541	24.75
223.759	149.67
223.977	22.7
224.195	80.04
224.413	96.43
224.631	67.75
224.849	53.42
225.067	174.25
225.285	39.08
225.503	14.51
225.721	-59.22
225.939	102.57
226.157	63.66
226.375	192.68
226.592	24.75
226.81	65.71
227.028	176.3
227.246	188.58
227.464	47.27
227.682	100.52
227.9	47.27
228.117	92.33
228.335	137.38
228.553	41.13
228.771	59.56
228.989	59.56
229.206	98.47
229.424	-14.17
229.642	34.99
229.86	-10.07
230.077	114.86
230.295	32.94
230.513	123.05
230.731	55.47
230.948	217.26
231.166	153.77
231.384	43.18
231.601	-10.07
231.819	170.15
232.037	55.47
232.254	10.41
232.472	26.79
232.689	-55.12
232.907	82.09
233.125	-16.21
233.342	61.61
233.56	-28.5
233.777	49.32
233.995	49.32
234.213	121
234.43	61.61
234.648	77.99
234.865	110.76
235.083	59.56
235.3	22.7
235.518	125.1
235.735	149.67
235.953	100.52
236.17	94.38
236.388	41.13
236.605	32.94
236.822	102.57
237.04	215.21
237.257	106.67
237.475	16.55
237.692	53.42
237.909	53.42
238.127	63.66
238.344	135.34
238.562	110.76
238.779	2.22
238.996	4.27
239.214	71.85
239.431	125.1
239.648	98.47
239.865	71.85
240.083	155.82
240.3	65.71
240.517	-1.88
240.735	18.6
240.952	75.95
241.169	28.84
241.386	100.52
241.603	47.27
241.821	-53.08
242.038	139.43
242.255	129.19
242.472	10.41
242.689	155.82
242.907	92.33
243.124	22.7
243.341	14.51
243.558	57.51
243.775	12.46
243.992	-44.88
244.209	88.23
244.426	159.91
244.643	133.29
244.86	98.47
245.078	114.86
245.295	116.9
245.512	73.9
245.729	12.46
245.946	125.1
246.163	49.32
246.38	80.04
246.597	123.05
246.814	127.14
247.031	67.75
247.248	92.33
247.464	86.19
247.681	59.56
247.898	51.37
248.115	139.43
248.332	-28.5
248.549	215.21
248.766	196.78
248.983	145.58
249.2	116.9
249.417	153.77
249.633	-38.74
249.85	53.42
250.067	98.47
250.284	51.37
250.501	108.71
250.717	100.52
250.934	-89.94
251.151	53.42
251.368	110.76
251.585	121
251.801	39.08
252.018	-61.27
252.235	151.72
252.451	26.79
252.668	4.27
252.885	121
253.102	110.76
253.318	77.99
253.535	37.03
253.752	26.79
253.968	39.08
254.185	-46.93
254.401	59.56
254.618	75.95
254.835	55.47
255.051	77.99
255.268	106.67
255.484	73.9
255.701	65.71
255.917	63.66
256.134	-16.21
256.351	69.8
256.567	-1.88
256.784	82.09
257	-48.98
257.217	123.05
257.433	94.38
257.65	14.51
257.866	137.38
258.082	47.27
258.299	37.03
258.515	41.13
258.732	-5.97
258.948	20.65
259.165	118.95
259.381	-5.97
259.597	92.33
259.814	67.75
260.03	14.51
260.246	71.85
260.463	184.49
260.679	102.57
260.895	86.19
261.112	71.85
261.328	94.38
261.544	-22.36
261.761	96.43
261.977	8.36
262.193	-28.5
262.409	131.24
262.626	51.37
262.842	22.7
263.058	41.13
263.274	166.06
263.49	2.22
263.707	90.28
263.923	125.1
264.139	-26.45
264.355	94.38
264.571	98.47
264.787	90.28
265.004	161.96
265.22	53.42
265.436	-42.84
265.652	12.46
265.868	14.51
266.084	-1.88
266.3	24.75
266.516	37.03
266.732	157.86
266.948	53.42
267.164	88.23
267.38	100.52
267.596	129.19
267.812	194.73
268.028	61.61
268.244	-12.12
268.46	96.43
268.676	16.55
268.892	75.95
269.108	-53.08
269.324	18.6
269.54	-36.69
269.756	121
269.972	-71.51
270.188	65.71
270.403	-55.12
270.619	82.09
270.835	164.01
271.051	102.57
271.267	-32.6
271.483	86.19
271.698	108.71
271.914	94.38
272.13	-16.21
272.346	53.42
272.562	41.13
272.777	114.86
272.993	57.51
273.209	49.32
273.425	123.05
273.64	32.94
273.856	131.24
274.072	-34.64
274.287	-48.98
274.503	123.05
274.719	94.38
274.934	-10.07
275.15	-42.84
275.366	45.23
275.581	-30.55
275.797	-1.88
276.012	96.43
276.228	-26.45
276.444	41.13
276.659	139.43
276.875	-26.45
277.09	16.55
277.306	49.32
277.521	118.95
277.737	84.14
277.952	133.29
278.168	106.67
278.383	129.19
278.599	82.09
278.814	94.38
279.03	84.14
279.245	182.44
279.461	94.38
279.676	143.53
279.892	-30.55
280.107	-91.99
280.322	-18.26
280.538	151.72
280.753	6.31
280.969	53.42
281.184	2.22
281.399	172.2
281.615	37.03
281.83	53.42
282.045	2.22
282.26	-63.32
282.476	55.47
282.691	159.91
282.906	172.2
283.122	71.85
283.337	41.13
283.552	94.38
283.767	39.08
283.983	114.86
284.198	2.22
284.413	69.8
284.628	45.23
284.843	123.05
285.058	24.75
285.274	32.94
285.489	-5.97
285.704	84.14
285.919	47.27
286.134	94.38
286.349	18.6
286.564	41.13
286.779	159.91
286.995	45.23
287.21	-20.31
287.425	8.36
287.64	57.51
287.855	41.13
288.07	-44.88
288.285	161.96
288.5	145.58
288.715	106.67
288.93	34.99
289.145	16.55
289.36	90.28
289.575	77.99
289.79	75.95
290.004	75.95
290.219	106.67
290.434	12.46
290.649	37.03
290.864	8.36
291.079	51.37
291.294	43.18
291.509	82.09
291.724	12.46
291.938	10.41
292.153	110.76
292.368	8.36
292.583	47.27
292.798	139.43
293.012	69.8
293.227	110.76
293.442	18.6
293.657	139.43
293.871	143.53
294.086	147.62
294.301	110.76
294.516	143.53
294.73	14.51
294.945	-38.74
295.16	22.7
295.374	164.01
295.589	88.23
295.804	-38.74
296.018	125.1
296.233	110.76
296.447	53.42
296.662	34.99
296.877	131.24
297.091	121
297.306	57.51
297.52	43.18
297.735	151.72
297.949	96.43
298.164	30.89
298.378	73.9
298.593	-48.98
298.807	20.65
299.022	20.65
299.236	80.04
299.451	51.37
299.665	77.99
299.88	10.41
300.094	-5.97
300.309	57.51
300.523	45.23
300.737	51.37
300.952	65.71
301.166	114.86
301.381	47.27
301.595	-8.02
301.809	168.1
302.024	22.7
302.238	71.85
302.452	180.39
302.667	86.19
302.881	184.49
303.095	43.18
303.309	45.23
303.524	30.89
303.738	69.8
303.952	16.55
304.166	82.09
304.381	-53.08
304.595	231.59
304.809	-38.74
305.023	-42.84
305.237	45.23
305.452	41.13
305.666	123.05
305.88	100.52
306.094	108.71
306.308	110.76
306.522	61.61
306.736	18.6
306.95	121
307.164	90.28
307.379	0.17
307.593	204.97
307.807	98.47
308.021	63.66
308.235	135.34
308.449	-28.5
308.663	32.94
308.877	288.93
309.091	116.9
309.305	98.47
309.519	-63.32
309.733	104.62
309.947	14.51
310.161	90.28
310.374	94.38
310.588	170.15
310.802	55.47
311.016	37.03
311.23	88.23
311.444	14.51
311.658	63.66
311.872	137.38
312.085	133.29
312.299	82.09
312.513	96.43
312.727	106.67
312.941	18.6
313.154	67.75
313.368	55.47
313.582	6.31
313.796	129.19
314.009	55.47
314.223	204.97
314.437	63.66
314.651	121
314.864	-30.55
315.078	-8.02
315.292	-1.88
315.505	26.79
315.719	71.85
315.933	61.61
316.146	24.75
316.36	12.46
316.573	102.57
316.787	53.42
317.001	121
317.214	8.36
317.428	65.71
317.641	-18.26
317.855	32.94
318.068	61.61
318.282	96.43
318.495	149.67
318.709	82.09
318.922	55.47
319.136	151.72
319.349	170.15
319.563	43.18
319.776	77.99
319.99	0.17
320.203	82.09
320.417	59.56
320.63	229.54
320.843	225.45
321.057	98.47
321.27	-26.45
321.483	53.42
321.697	172.2
321.91	71.85
322.124	123.05
322.337	67.75
322.55	28.84
322.763	14.51
322.977	94.38
323.19	18.6
323.403	22.7
323.617	157.86
323.83	53.42
324.043	125.1
324.256	104.62
324.469	-36.69
324.683	188.58
324.896	104.62
325.109	57.51
325.322	-44.88
325.535	139.43
325.748	141.48
325.962	8.36
326.175	125.1
326.388	41.13
326.601	149.67
326.814	45.23
327.027	110.76
327.24	88.23
327.453	-51.03
327.666	69.8
327.879	129.19
328.092	104.62
328.305	-14.17
328.518	53.42
328.731	-14.17
328.944	98.47
329.157	75.95
329.37	90.28
329.583	190.63
329.796	59.56
330.009	-73.56
330.222	166.06
330.435	147.62
330.648	86.19
330.861	59.56
331.073	63.66
331.286	145.58
331.499	96.43
331.712	0.17
331.925	34.99
332.138	57.51
332.35	75.95
332.563	6.31
332.776	180.39
332.989	-32.6
333.202	96.43
333.414	98.47
333.627	57.51
333.84	14.51
334.053	-26.45
334.265	61.61
334.478	32.94
334.691	53.42
334.903	65.71
335.116	-8.02
335.329	61.61
335.541	118.95
335.754	211.11
335.966	71.85
336.179	41.13
336.392	30.89
336.604	63.66
336.817	125.1
337.029	110.76
337.242	32.94
337.454	98.47
337.667	10.41
337.88	92.33
338.092	110.76
338.305	47.27
338.517	26.79
338.729	34.99
338.942	135.34
339.154	10.41
339.367	16.55
339.579	168.1
339.792	98.47
340.004	141.48
340.217	18.6
340.429	-36.69
340.641	65.71
340.854	39.08
341.066	75.95
341.278	153.77
341.491	213.16
341.703	6.31
341.915	-1.88
342.128	108.71
342.34	131.24
342.552	-81.75
342.764	63.66
342.977	73.9
343.189	92.33
343.401	8.36
343.613	-40.79
343.826	6.31
344.038	41.13
344.25	123.05
344.462	12.46
344.674	118.95
344.886	24.75
345.099	77.99
345.311	153.77
345.523	61.61
345.735	-63.32
345.947	84.14
346.159	108.71
346.371	69.8
346.583	88.23
346.795	196.78
347.007	34.99
347.219	16.55
347.431	26.79
347.643	172.2
347.855	51.37
348.067	114.86
348.279	-26.45
348.491	73.9
348.703	26.79
348.915	98.47
349.127	-18.26
349.339	94.38
349.551	-38.74
349.763	67.75
349.975	75.95
350.187	188.58
350.399	123.05
350.61	22.7
350.822	34.99
351.034	96.43
351.246	121
351.458	41.13
351.669	67.75
351.881	176.3
352.093	98.47
352.305	112.81
352.517	121
352.728	157.86
352.94	80.04
353.152	145.58
353.363	-22.36
353.575	53.42
353.787	202.92
353.999	69.8
354.21	137.38
354.422	45.23
354.633	104.62
354.845	65.71
355.057	104.62
355.268	123.05
355.48	151.72
355.692	-1.88
355.903	12.46
356.115	63.66
356.326	-12.12
356.538	106.67
356.749	116.9
356.961	141.48
357.172	-20.31
357.384	-55.12
357.595	174.25
357.807	61.61
358.018	57.51
358.23	37.03
358.441	135.34
358.653	123.05
358.864	118.95
359.075	26.79
359.287	55.47
359.498	114.86
359.709	90.28
359.921	98.47
360.132	100.52
360.344	67.75
360.555	96.43
360.766	92.33
360.977	-1.88
361.189	116.9
361.4	18.6
361.611	207.02
361.823	125.1
362.034	106.67
362.245	-89.94
362.456	-30.55
362.667	100.52
362.879	49.32
363.09	65.71
363.301	41.13
363.512	94.38
363.723	8.36
363.935	59.56
364.146	112.81
364.357	77.99
364.568	59.56
364.779	-38.74
364.99	145.58
365.201	-18.26
365.412	202.92
365.623	16.55
365.834	143.53
366.045	65.71
366.256	51.37
366.467	114.86
366.678	30.89
366.889	114.86
367.1	63.66
367.311	77.99
367.522	-28.5
367.733	0.17
367.944	110.76
368.155	-22.36
368.366	147.62
368.577	151.72
368.788	166.06
368.999	2.22
369.209	73.9
369.42	280.74
369.631	272.55
369.842	102.57
370.053	16.55
370.264	164.01
370.474	41.13
370.685	131.24
370.896	77.99
371.107	196.78
371.317	49.32
371.528	30.89
371.739	104.62
371.95	108.71
372.16	147.62
372.371	0.17
372.582	86.19
372.792	102.57
373.003	139.43
373.214	90.28
373.424	61.61
373.635	12.46
373.846	121
374.056	34.99
374.267	41.13
374.477	77.99
374.688	55.47
374.898	110.76
375.109	131.24
375.319	86.19
375.53	133.29
375.74	186.54
375.951	-16.21
376.161	112.81
376.372	174.25
376.582	88.23
376.793	77.99
377.003	-28.5
377.214	22.7
377.424	90.28
377.635	37.03
377.845	65.71
378.055	170.15
378.266	-22.36
378.476	-1.88
378.686	32.94
378.897	112.81
379.107	63.66
379.317	112.81
379.528	53.42
379.738	84.14
379.948	55.47
380.158	37.03
380.369	84.14
380.579	90.28
380.789	28.84
380.999	69.8
381.21	229.54
381.42	151.72
381.63	71.85
381.84	73.9
382.05	43.18
382.261	145.58
382.471	110.76
382.681	-26.45
382.891	194.73
383.101	147.62
383.311	-1.88
383.521	90.28
383.731	141.48
383.941	176.3
384.151	110.76
384.361	37.03
384.571	55.47
384.781	55.47
384.991	213.16
385.201	194.73
385.411	69.8
385.621	164.01
385.831	59.56
386.041	200.87
386.251	41.13
386.461	211.11
386.671	28.84
386.881	30.89
387.091	65.71
387.301	157.86
387.511	88.23
387.72	133.29
387.93	73.9
388.14	26.79
388.35	34.99
388.56	84.14
388.769	149.67
388.979	41.13
389.189	90.28
389.399	59.56
389.609	104.62
389.818	118.95
390.028	30.89
390.238	84.14
390.447	53.42
390.657	170.15
390.867	8.36
391.076	-59.22
391.286	53.42
391.496	-24.4
391.705	77.99
391.915	184.49
392.125	135.34
392.334	65.71
392.544	149.67
392.753	86.19
392.963	16.55
393.172	30.89
393.382	-44.88
393.591	239.78
393.801	90.28
394.01	170.15
394.22	143.53
394.429	84.14
394.639	51.37
394.848	84.14
395.058	51.37
395.267	94.38
395.477	100.52
395.686	90.28
395.895	174.25
396.105	143.53
396.314	106.67
396.524	116.9
396.733	47.27
396.942	176.3
397.152	80.04
397.361	90.28
397.57	106.67
397.78	55.47
397.989	61.61
398.198	188.58
398.407	8.36
398.617	16.55
398.826	65.71
399.035	43.18
399.244	196.78
399.453	45.23
399.663	14.51
399.872	26.79
400.081	57.51
400.29	106.67
400.499	-14.17
400.708	194.73
400.917	86.19
401.127	34.99
401.336	-16.21
401.545	192.68
401.754	172.2
401.963	168.1
402.172	-1.88
402.381	41.13
402.59	-8.02
402.799	-48.98
403.008	155.82
403.217	100.52
403.426	114.86
403.635	41.13
403.844	69.8
404.053	71.85
404.262	4.27
404.471	170.15
404.68	102.57
404.888	80.04
405.097	71.85
405.306	69.8
405.515	61.61
405.724	71.85
405.933	250.02
406.142	100.52
406.35	127.14
406.559	104.62
406.768	104.62
406.977	180.39
407.185	4.27
407.394	139.43
407.603	39.08
407.812	104.62
408.02	186.54
408.229	24.75
408.438	106.67
408.646	30.89
408.855	6.31
409.064	149.67
409.272	39.08
409.481	98.47
409.69	43.18
409.898	-14.17
410.107	135.34
410.315	170.15
410.524	-24.4
410.733	112.81
410.941	102.57
411.15	137.38
411.358	47.27
411.567	155.82
411.775	43.18
411.984	71.85
412.192	151.72
412.401	12.46
412.609	164.01
412.818	100.52
413.026	51.37
413.234	77.99
413.443	141.48
413.651	123.05
413.86	88.23
414.068	233.64
414.276	217.26
414.485	67.75
414.693	274.6
414.901	262.31
415.11	41.13
415.318	34.99
415.526	47.27
415.734	155.82
415.943	47.27
416.151	184.49
416.359	63.66
416.567	61.61
416.776	166.06
416.984	184.49
417.192	184.49
417.4	-8.02
417.608	2.22
417.817	77.99
418.025	155.82
418.233	252.07
418.441	30.89
418.649	84.14
418.857	131.24
419.065	102.57
419.273	4.27
419.481	57.51
419.689	16.55
419.897	45.23
420.105	-8.02
420.313	174.25
420.521	239.78
420.729	176.3
420.937	102.57
421.145	-32.6
421.353	112.81
421.561	127.14
421.769	116.9
421.977	-12.12
422.185	178.34
422.393	43.18
422.601	90.28
422.809	77.99
423.017	127.14
423.224	168.1
423.432	186.54
423.64	147.62
423.848	153.77
424.056	0.17
424.263	155.82
424.471	75.95
424.679	241.83
424.887	-67.41
425.094	192.68
425.302	69.8
425.51	102.57
425.718	202.92
425.925	92.33
426.133	-3.93
426.341	192.68
426.548	77.99
426.756	88.23
426.964	204.97
427.171	45.23
427.379	133.29
427.586	49.32
427.794	178.34
428.001	233.64
428.209	129.19
428.417	245.93
428.624	204.97
428.832	168.1
429.039	80.04
429.247	137.38
429.454	141.48
429.662	233.64
429.869	161.96
430.076	161.96
430.284	172.2
430.491	155.82
430.699	237.74
430.906	278.69
431.114	231.59
431.321	196.78
431.528	149.67
431.736	161.96
431.943	223.4
432.15	217.26
432.358	219.3
432.565	266.41
432.772	82.09
432.979	243.88
433.187	211.11
433.394	305.32
433.601	194.73
433.808	307.37
434.016	274.6
434.223	254.12
434.43	321.7
434.637	317.61
434.844	340.13
435.052	317.61
435.259	317.61
435.466	327.85
435.673	311.46
435.88	395.43
436.087	411.81
436.294	442.53
436.501	389.28
436.708	368.81
436.915	360.61
437.122	409.76
437.329	264.36
437.537	417.96
437.743	454.82
437.95	454.82
438.157	485.54
438.364	434.34
438.571	420
438.778	546.98
438.985	485.54
439.192	608.42
439.399	540.83
439.606	671.9
439.813	702.62
440.02	790.69
440.227	764.06
440.433	690.34
440.64	581.79
440.847	645.28
441.054	723.1
441.261	684.19
441.467	762.02
441.674	757.92
441.881	876.7
442.088	891.04
442.294	987.29
442.501	962.72
442.708	997.53
442.914	1032.35
443.121	1003.68
443.328	1077.4
443.534	1120.41
443.741	1128.6
443.948	1087.64
444.154	1337.49
444.361	1429.65
444.568	1302.68
444.774	1290.39
444.981	1222.81
445.187	1360.02
445.394	1554.58
445.6	1398.93
445.807	1601.68
446.013	1548.44
446.22	1540.24
446.426	1654.93
446.633	1742.99
446.839	1921.17
447.046	1802.38
447.252	2048.14
447.459	2168.97
447.665	2115.72
447.871	2254.98
448.078	2435.21
448.284	2365.57
448.491	2465.93
448.697	2590.85
448.903	2699.39
449.11	2750.59
449.316	2648.19
449.522	2953.34
449.728	3029.12
449.935	3108.99
450.141	3313.78
450.347	3475.57
450.553	3244.15
450.76	3430.52
450.966	3756.15
451.172	3586.16
451.378	3960.94
451.584	4124.78
451.791	4255.85
451.997	4470.89
452.203	4495.46
452.409	4583.52
452.615	4771.94
452.821	4737.12
453.027	4698.21
453.233	5392.47
453.44	5220.44
453.646	5566.55
453.852	5759.06
454.058	5957.71
454.264	6146.12
454.47	6520.9
454.676	6703.17
454.882	7145.53
455.088	6946.88
455.294	7270.46
455.5	7718.96
455.705	8120.37
455.911	8308.78
456.117	8357.93
456.323	8706.09
456.529	8695.85
456.735	9572.38
456.941	9758.74
457.147	10194.96
457.352	10471.43
457.558	10602.5
457.764	11229.18
457.97	11552.76
458.176	12007.41
458.381	12804.07
458.587	12775.4
458.793	13670.36
458.999	13508.57
459.204	15351.74
459.41	15755.19
459.616	15407.04
459.821	16514.99
460.027	17385.38
460.233	17776.54
460.438	17766.3
460.644	19273.6
460.85	19189.64
461.055	19892.09
461.261	20987.75
461.466	20584.3
461.672	21122.92
461.878	23656.26
462.083	23156.55
462.289	23742.27
462.494	24612.66
462.7	24954.67
462.905	25014.06
463.111	27264.78
463.316	28380.92
463.522	28937.97
463.727	30090.98
463.932	31178.45
464.138	31991.49
464.343	33214.13
464.549	33611.43
464.754	35935.88
464.959	36839.03
465.165	37604.97
465.37	37234.29
465.575	36904.57
465.781	39654.99
465.986	40777.28
466.191	40031.82
466.397	40617.53
466.602	39743.05
466.807	41907.76
467.012	42554.91
467.218	43228.7
467.423	43312.66
467.628	44500.48
467.833	47013.34
468.038	45864.43
