Data from USB4F104151__165__11-04-48-335.txt Node

Date: Wed Feb 26 11:04:48 EST 2025
User: louis
Spectrometer: USB4F10415
Trigger mode: 4
Integration Time (sec): 1.000000E-1
Scans to average: 1
Electric dark correction enabled: true
Nonlinearity correction enabled: false
Boxcar width: 0
XAxis mode: Wavelengths
Number of Pixels in Spectrum: 3648
>>>>>Begin Spectral Data<<<<<
178.204	-429.22
178.424	-429.22
178.644	-429.22
178.864	-445.6
179.084	-429.22
179.304	7
179.524	-29.87
179.744	33.62
179.964	4.95
180.184	54.1
180.404	19.29
180.624	-40.11
180.844	-7.34
181.064	-46.25
181.283	37.72
181.503	-58.54
181.723	25.43
181.943	-122.02
182.163	228.18
182.383	-38.06
182.602	54.1
182.822	111.44
183.042	-3.24
183.262	-17.58
183.482	88.92
183.701	25.43
183.921	-3.24
184.141	-56.49
184.361	95.06
184.58	82.77
184.8	-25.77
185.02	23.38
185.239	123.73
185.459	113.49
185.679	115.54
185.898	-134.31
186.118	-11.43
186.338	41.81
186.557	58.2
186.777	-27.82
186.997	0.85
187.216	-31.91
187.436	183.12
187.655	-1.19
187.875	113.49
188.095	33.62
188.314	90.96
188.534	162.64
188.753	-62.63
188.973	138.07
189.192	207.7
189.412	47.96
189.631	-40.11
189.851	23.38
190.07	174.93
190.29	11.09
190.509	-7.34
190.729	84.82
190.948	146.26
191.168	291.66
191.387	80.72
191.607	-27.82
191.826	7
192.045	-7.34
192.265	-21.67
192.484	21.33
192.704	27.48
192.923	-9.39
193.142	222.03
193.362	17.24
193.581	191.31
193.8	29.52
194.02	107.35
194.239	25.43
194.458	97.11
194.678	29.52
194.897	-13.48
195.116	62.29
195.335	25.43
195.555	39.76
195.774	-79.02
195.993	129.88
196.212	-25.77
196.432	-23.72
196.651	-1.19
196.87	-56.49
197.089	193.36
197.308	54.1
197.528	15.19
197.747	-93.35
197.966	-23.72
198.185	86.87
198.404	-68.78
198.623	133.97
198.842	121.68
199.062	99.16
199.281	103.25
199.5	56.15
199.719	4.95
199.938	54.1
200.157	90.96
200.376	156.5
200.595	183.12
200.814	29.52
201.033	70.48
201.252	142.16
201.471	107.35
201.69	136.02
201.909	-3.24
202.128	133.97
202.347	66.39
202.566	107.35
202.785	-124.07
203.004	-56.49
203.223	236.37
203.442	35.67
203.661	-36.01
203.879	43.86
204.098	140.12
204.317	-7.34
204.536	113.49
204.755	82.77
204.974	97.11
205.193	-17.58
205.411	181.07
205.63	129.88
205.849	56.15
206.068	78.68
206.287	21.33
206.505	90.96
206.724	68.44
206.943	35.67
207.162	-11.43
207.381	121.68
207.599	-15.53
207.818	68.44
208.037	-31.91
208.255	-9.39
208.474	78.68
208.693	111.44
208.911	-42.15
209.13	185.17
209.349	158.55
209.567	176.98
209.786	31.57
210.005	95.06
210.223	35.67
210.442	-79.02
210.661	-23.72
210.879	76.63
211.098	125.78
211.316	29.52
211.535	54.1
211.753	72.53
211.972	11.09
212.191	86.87
212.409	13.14
212.628	66.39
212.846	-40.11
213.065	60.24
213.283	162.64
213.502	29.52
213.72	29.52
213.938	70.48
214.157	-19.63
214.375	58.2
214.594	95.06
214.812	27.48
215.031	2.9
215.249	-17.58
215.467	-9.39
215.686	27.48
215.904	50
216.122	9.05
216.341	99.16
216.559	56.15
216.778	90.96
216.996	86.87
217.214	7
217.432	23.38
217.651	-17.58
217.869	-42.15
218.087	45.91
218.306	-7.34
218.524	43.86
218.742	7
218.96	107.35
219.179	41.81
219.397	4.95
219.615	193.36
219.833	29.52
220.051	70.48
220.27	93.01
220.488	158.55
220.706	74.58
220.924	-50.35
221.142	-126.12
221.36	74.58
221.578	52.05
221.796	27.48
222.015	11.09
222.233	72.53
222.451	211.79
222.669	58.2
222.887	107.35
223.105	15.19
223.323	39.76
223.541	-17.58
223.759	70.48
223.977	27.48
224.195	136.02
224.413	82.77
224.631	-7.34
224.849	93.01
225.067	267.09
225.285	-60.59
225.503	27.48
225.721	-95.4
225.939	97.11
226.157	-25.77
226.375	168.79
226.592	41.81
226.81	47.96
227.028	103.25
227.246	127.83
227.464	43.86
227.682	107.35
227.9	144.21
228.117	-31.91
228.335	90.96
228.553	27.48
228.771	43.86
228.989	37.72
229.206	25.43
229.424	31.57
229.642	-3.24
229.86	25.43
230.077	144.21
230.295	-1.19
230.513	156.5
230.731	86.87
230.948	95.06
231.166	197.46
231.384	58.2
231.601	13.14
231.819	183.12
232.037	13.14
232.254	-83.11
232.472	11.09
232.689	27.48
232.907	150.36
233.125	-3.24
233.342	25.43
233.56	-7.34
233.777	50
233.995	-79.02
234.213	60.24
234.43	101.2
234.648	-15.53
234.865	39.76
235.083	41.81
235.3	90.96
235.518	35.67
235.735	119.64
235.953	45.91
236.17	80.72
236.388	-31.91
236.605	183.12
236.822	117.59
237.04	76.63
237.257	68.44
237.475	41.81
237.692	-15.53
237.909	27.48
238.127	-17.58
238.344	-1.19
238.562	4.95
238.779	-38.06
238.996	-42.15
239.214	99.16
239.431	86.87
239.648	13.14
239.865	68.44
240.083	76.63
240.3	70.48
240.517	21.33
240.735	52.05
240.952	176.98
241.169	64.34
241.386	54.1
241.603	31.57
241.821	-11.43
242.038	90.96
242.255	111.44
242.472	-9.39
242.689	121.68
242.907	78.68
243.124	54.1
243.341	9.05
243.558	37.72
243.775	-38.06
243.992	25.43
244.209	140.12
244.426	113.49
244.643	144.21
244.86	-29.87
245.078	125.78
245.295	90.96
245.512	0.85
245.729	-64.68
245.946	93.01
246.163	47.96
246.38	0.85
246.597	7
246.814	72.53
247.031	45.91
247.248	29.52
247.464	105.3
247.681	58.2
247.898	-5.29
248.115	45.91
248.332	13.14
248.549	109.4
248.766	248.66
248.983	101.2
249.2	113.49
249.417	154.45
249.633	2.9
249.85	86.87
250.067	60.24
250.284	50
250.501	64.34
250.717	45.91
250.934	-36.01
251.151	-3.24
251.368	-25.77
251.585	52.05
251.801	93.01
252.018	-29.87
252.235	115.54
252.451	-58.54
252.668	37.72
252.885	99.16
253.102	109.4
253.318	7
253.535	17.24
253.752	-56.49
253.968	7
254.185	-17.58
254.401	2.9
254.618	52.05
254.835	0.85
255.051	138.07
255.268	115.54
255.484	78.68
255.701	23.38
255.917	117.59
256.134	-68.78
256.351	-15.53
256.567	-109.74
256.784	-46.25
257	-95.4
257.217	129.88
257.433	99.16
257.65	2.9
257.866	99.16
258.082	-115.88
258.299	-64.68
258.515	72.53
258.732	-23.72
258.948	7
259.165	86.87
259.381	7
259.597	80.72
259.814	-23.72
260.03	27.48
260.246	23.38
260.463	164.69
260.679	146.26
260.895	58.2
261.112	39.76
261.328	50
261.544	21.33
261.761	183.12
261.977	-13.48
262.193	-62.63
262.409	156.5
262.626	97.11
262.842	-1.19
263.058	27.48
263.274	142.16
263.49	23.38
263.707	105.3
263.923	86.87
264.139	-93.35
264.355	25.43
264.571	105.3
264.787	113.49
265.004	127.83
265.22	-9.39
265.436	-13.48
265.652	31.57
265.868	88.92
266.084	-17.58
266.3	52.05
266.516	13.14
266.732	-5.29
266.948	119.64
267.164	-5.29
267.38	97.11
267.596	74.58
267.812	179.03
268.028	37.72
268.244	0.85
268.46	31.57
268.676	-15.53
268.892	11.09
269.108	82.77
269.324	-21.67
269.54	-64.68
269.756	127.83
269.972	-54.44
270.188	47.96
270.403	4.95
270.619	37.72
270.835	123.73
271.051	35.67
271.267	31.57
271.483	27.48
271.698	127.83
271.914	93.01
272.13	54.1
272.346	52.05
272.562	-3.24
272.777	107.35
272.993	58.2
273.209	-27.82
273.425	93.01
273.64	2.9
273.856	113.49
274.072	-29.87
274.287	-66.73
274.503	-38.06
274.719	78.68
274.934	37.72
275.15	-81.07
275.366	54.1
275.581	-15.53
275.797	56.15
276.012	-13.48
276.228	70.48
276.444	33.62
276.659	60.24
276.875	-85.16
277.09	-15.53
277.306	45.91
277.521	62.29
277.737	-11.43
277.952	60.24
278.168	43.86
278.383	17.24
278.599	101.2
278.814	62.29
279.03	17.24
279.245	107.35
279.461	70.48
279.676	15.19
279.892	-46.25
280.107	-3.24
280.322	-54.44
280.538	-7.34
280.753	25.43
280.969	25.43
281.184	-64.68
281.399	191.31
281.615	19.29
281.83	88.92
282.045	-74.92
282.26	-19.63
282.476	66.39
282.691	156.5
282.906	37.72
283.122	99.16
283.337	-44.2
283.552	123.73
283.767	68.44
283.983	154.45
284.198	103.25
284.413	66.39
284.628	-50.35
284.843	9.05
285.058	80.72
285.274	37.72
285.489	29.52
285.704	93.01
285.919	11.09
286.134	23.38
286.349	11.09
286.564	-17.58
286.779	117.59
286.995	7
287.21	-85.16
287.425	107.35
287.64	-50.35
287.855	-38.06
288.07	-27.82
288.285	111.44
288.5	103.25
288.715	93.01
288.93	84.82
289.145	-52.39
289.36	148.31
289.575	9.05
289.79	95.06
290.004	56.15
290.219	193.36
290.434	-54.44
290.649	-9.39
290.864	15.19
291.079	17.24
291.294	107.35
291.509	86.87
291.724	19.29
291.938	-29.87
292.153	62.29
292.368	99.16
292.583	25.43
292.798	138.07
293.012	17.24
293.227	117.59
293.442	113.49
293.657	95.06
293.871	72.53
294.086	33.62
294.301	250.71
294.516	164.69
294.73	21.33
294.945	-15.53
295.16	31.57
295.374	121.68
295.589	107.35
295.804	-72.87
296.018	17.24
296.233	90.96
296.447	113.49
296.662	15.19
296.877	129.88
297.091	78.68
297.306	-9.39
297.52	0.85
297.735	9.05
297.949	62.29
298.164	56.15
298.378	64.34
298.593	-33.96
298.807	27.48
299.022	25.43
299.236	86.87
299.451	11.09
299.665	-21.67
299.88	15.19
300.094	13.14
300.309	11.09
300.523	0.85
300.737	-97.45
300.952	111.44
301.166	119.64
301.381	0.85
301.595	-7.34
301.809	54.1
302.024	-5.29
302.238	41.81
302.452	107.35
302.667	52.05
302.881	95.06
303.095	80.72
303.309	78.68
303.524	-40.11
303.738	-21.67
303.952	-13.48
304.166	29.52
304.381	-146.6
304.595	187.22
304.809	13.14
305.023	-70.83
305.237	41.81
305.452	23.38
305.666	43.86
305.88	109.4
306.094	70.48
306.308	74.58
306.522	90.96
306.736	23.38
306.95	58.2
307.164	97.11
307.379	-7.34
307.593	41.81
307.807	168.79
308.021	78.68
308.235	107.35
308.449	-27.82
308.663	7
308.877	234.32
309.091	90.96
309.305	58.2
309.519	-126.12
309.733	45.91
309.947	-79.02
310.161	115.54
310.374	105.3
310.588	23.38
310.802	-52.39
311.016	-72.87
311.23	95.06
311.444	-72.87
311.658	60.24
311.872	74.58
312.085	170.83
312.299	82.77
312.513	150.36
312.727	52.05
312.941	-105.64
313.154	70.48
313.368	109.4
313.582	31.57
313.796	15.19
314.009	25.43
314.223	101.2
314.437	4.95
314.651	72.53
314.864	15.19
315.078	19.29
315.292	-95.4
315.505	58.2
315.719	90.96
315.933	-50.35
316.146	-31.91
316.36	-3.24
316.573	64.34
316.787	78.68
317.001	78.68
317.214	-58.54
317.428	0.85
317.641	-36.01
317.855	62.29
318.068	82.77
318.282	43.86
318.495	222.03
318.709	86.87
318.922	109.4
319.136	154.45
319.349	29.52
319.563	39.76
319.776	47.96
319.99	-130.22
320.203	113.49
320.417	56.15
320.63	93.01
320.843	179.03
321.057	60.24
321.27	11.09
321.483	80.72
321.697	115.54
321.91	45.91
322.124	21.33
322.337	-9.39
322.55	-11.43
322.763	-1.19
322.977	4.95
323.19	13.14
323.403	74.58
323.617	50
323.83	154.45
324.043	-13.48
324.256	142.16
324.469	-21.67
324.683	111.44
324.896	33.62
325.109	86.87
325.322	-89.26
325.535	117.59
325.748	68.44
325.962	-5.29
326.175	25.43
326.388	31.57
326.601	185.17
326.814	35.67
327.027	15.19
327.24	131.92
327.453	-124.07
327.666	160.59
327.879	140.12
328.092	56.15
328.305	80.72
328.518	15.19
328.731	-72.87
328.944	-19.63
329.157	58.2
329.37	9.05
329.583	117.59
329.796	179.03
330.009	39.76
330.222	105.3
330.435	52.05
330.648	54.1
330.861	-23.72
331.073	-1.19
331.286	129.88
331.499	60.24
331.712	25.43
331.925	11.09
332.138	-44.2
332.35	95.06
332.563	-36.01
332.776	43.86
332.989	-42.15
333.202	7
333.414	60.24
333.627	35.67
333.84	-19.63
334.053	101.2
334.265	-7.34
334.478	-13.48
334.691	66.39
334.903	99.16
335.116	-54.44
335.329	27.48
335.541	107.35
335.754	238.42
335.966	25.43
336.179	25.43
336.392	-25.77
336.604	62.29
336.817	107.35
337.029	13.14
337.242	80.72
337.454	148.31
337.667	2.9
337.88	166.74
338.092	113.49
338.305	90.96
338.517	11.09
338.729	41.81
338.942	185.17
339.154	-27.82
339.367	-40.11
339.579	74.58
339.792	-79.02
340.004	31.57
340.217	4.95
340.429	72.53
340.641	0.85
340.854	-33.96
341.066	4.95
341.278	156.5
341.491	215.89
341.703	7
341.915	-31.91
342.128	164.69
342.34	113.49
342.552	-68.78
342.764	25.43
342.977	43.86
343.189	74.58
343.401	72.53
343.613	-13.48
343.826	39.76
344.038	-42.15
344.25	31.57
344.462	-42.15
344.674	33.62
344.886	64.34
345.099	72.53
345.311	140.12
345.523	35.67
345.735	-44.2
345.947	45.91
346.159	90.96
346.371	58.2
346.583	-31.91
346.795	140.12
347.007	-31.91
347.219	70.48
347.431	9.05
347.643	109.4
347.855	-40.11
348.067	97.11
348.279	41.81
348.491	41.81
348.703	72.53
348.915	9.05
349.127	9.05
349.339	-1.19
349.551	29.52
349.763	82.77
349.975	31.57
350.187	31.57
350.399	129.88
350.61	39.76
350.822	76.63
351.034	86.87
351.246	-7.34
351.458	66.39
351.669	101.2
351.881	54.1
352.093	84.82
352.305	172.88
352.517	189.27
352.728	119.64
352.94	-60.59
353.152	4.95
353.363	-99.5
353.575	113.49
353.787	207.7
353.999	62.29
354.21	117.59
354.422	-29.87
354.633	-5.29
354.845	4.95
355.057	-17.58
355.268	74.58
355.48	107.35
355.692	-23.72
355.903	97.11
356.115	0.85
356.326	-48.3
356.538	80.72
356.749	90.96
356.961	109.4
357.172	13.14
357.384	-52.39
357.595	113.49
357.807	-15.53
358.018	31.57
358.23	27.48
358.441	160.59
358.653	58.2
358.864	78.68
359.075	-17.58
359.287	41.81
359.498	150.36
359.709	121.68
359.921	27.48
360.132	60.24
360.344	-1.19
360.555	-3.24
360.766	9.05
360.977	127.83
361.189	103.25
361.4	62.29
361.611	62.29
361.823	105.3
362.034	58.2
362.245	-38.06
362.456	29.52
362.667	119.64
362.879	-89.26
363.09	72.53
363.301	29.52
363.512	-15.53
363.723	47.96
363.935	66.39
364.146	99.16
364.357	-13.48
364.568	-23.72
364.779	-103.59
364.99	197.46
365.201	-9.39
365.412	113.49
365.623	-13.48
365.834	33.62
366.045	15.19
366.256	138.07
366.467	43.86
366.678	56.15
366.889	78.68
367.1	-15.53
367.311	158.55
367.522	-48.3
367.733	47.96
367.944	70.48
368.155	-25.77
368.366	74.58
368.577	170.83
368.788	115.54
368.999	-93.35
369.209	45.91
369.42	158.55
369.631	211.79
369.842	107.35
370.053	-85.16
370.264	29.52
370.474	-66.73
370.685	43.86
370.896	82.77
371.107	111.44
371.317	43.86
371.528	45.91
371.739	54.1
371.95	97.11
372.16	80.72
372.371	-31.91
372.582	62.29
372.792	-40.11
373.003	86.87
373.214	17.24
373.424	107.35
373.635	-46.25
373.846	68.44
374.056	54.1
374.267	105.3
374.477	0.85
374.688	-56.49
374.898	68.44
375.109	56.15
375.319	15.19
375.53	113.49
375.74	127.83
375.951	88.92
376.161	29.52
376.372	164.69
376.582	-40.11
376.793	123.73
377.003	-19.63
377.214	-68.78
377.424	74.58
377.635	19.29
377.845	-48.3
378.055	160.59
378.266	-13.48
378.476	80.72
378.686	123.73
378.897	117.59
379.107	23.38
379.317	80.72
379.528	35.67
379.738	131.92
379.948	-15.53
380.158	90.96
380.369	-1.19
380.579	37.72
380.789	4.95
380.999	119.64
381.21	109.4
381.42	136.02
381.63	58.2
381.84	66.39
382.05	76.63
382.261	107.35
382.471	115.54
382.681	-40.11
382.891	158.55
383.101	113.49
383.311	58.2
383.521	68.44
383.731	84.82
383.941	99.16
384.151	56.15
384.361	52.05
384.571	113.49
384.781	64.34
384.991	203.6
385.201	203.6
385.411	101.2
385.621	23.38
385.831	0.85
386.041	103.25
386.251	47.96
386.461	80.72
386.671	41.81
386.881	88.92
387.091	2.9
387.301	76.63
387.511	25.43
387.72	76.63
387.93	121.68
388.14	-42.15
388.35	45.91
388.56	113.49
388.769	105.3
388.979	-68.78
389.189	35.67
389.399	107.35
389.609	109.4
389.818	19.29
390.028	9.05
390.238	99.16
390.447	-93.35
390.657	76.63
390.867	54.1
391.076	-85.16
391.286	39.76
391.496	-7.34
391.705	29.52
391.915	189.27
392.125	115.54
392.334	-38.06
392.544	97.11
392.753	-27.82
392.963	-23.72
393.172	-38.06
393.382	-29.87
393.591	146.26
393.801	66.39
394.01	219.99
394.22	80.72
394.429	13.14
394.639	140.12
394.848	7
395.058	62.29
395.267	-19.63
395.477	88.92
395.686	56.15
395.895	179.03
396.105	154.45
396.314	84.82
396.524	29.52
396.733	80.72
396.942	74.58
397.152	121.68
397.361	97.11
397.57	90.96
397.78	29.52
397.989	119.64
398.198	172.88
398.407	17.24
398.617	74.58
398.826	17.24
399.035	-40.11
399.244	156.5
399.453	150.36
399.663	7
399.872	62.29
400.081	-48.3
400.29	156.5
400.499	58.2
400.708	107.35
400.917	23.38
401.127	54.1
401.336	-3.24
401.545	136.02
401.754	117.59
401.963	131.92
402.172	97.11
402.381	-23.72
402.59	15.19
402.799	76.63
403.008	21.33
403.217	88.92
403.426	70.48
403.635	-23.72
403.844	-17.58
404.053	9.05
404.262	2.9
404.471	152.4
404.68	58.2
404.888	-38.06
405.097	41.81
405.306	23.38
405.515	58.2
405.724	13.14
405.933	129.88
406.142	76.63
406.35	138.07
406.559	19.29
406.768	88.92
406.977	140.12
407.185	127.83
407.394	80.72
407.603	-15.53
407.812	54.1
408.02	105.3
408.229	-40.11
408.438	-36.01
408.646	-60.59
408.855	-11.43
409.064	66.39
409.272	45.91
409.481	95.06
409.69	-27.82
409.898	-115.88
410.107	109.4
410.315	88.92
410.524	2.9
410.733	9.05
410.941	-31.91
411.15	150.36
411.358	158.55
411.567	179.03
411.775	88.92
411.984	138.07
412.192	119.64
412.401	-72.87
412.609	144.21
412.818	95.06
413.026	117.59
413.234	127.83
413.443	-1.19
413.651	-46.25
413.86	60.24
414.068	103.25
414.276	174.93
414.485	-33.96
414.693	179.03
414.901	230.23
415.11	131.92
415.318	-9.39
415.526	15.19
415.734	109.4
415.943	37.72
416.151	54.1
416.359	50
416.567	99.16
416.776	88.92
416.984	99.16
417.192	131.92
417.4	54.1
417.608	-1.19
417.817	17.24
418.025	123.73
418.233	160.59
418.441	-38.06
418.649	-52.39
418.857	47.96
419.065	115.54
419.273	35.67
419.481	76.63
419.689	7
419.897	17.24
420.105	-54.44
420.313	103.25
420.521	115.54
420.729	152.4
420.937	-3.24
421.145	27.48
421.353	148.31
421.561	162.64
421.769	50
421.977	41.81
422.185	66.39
422.393	52.05
422.601	138.07
422.809	35.67
423.017	72.53
423.224	140.12
423.432	105.3
423.64	41.81
423.848	144.21
424.056	-29.87
424.263	176.98
424.471	121.68
424.679	123.73
424.887	-33.96
425.094	127.83
425.302	74.58
425.51	37.72
425.718	127.83
425.925	64.34
426.133	15.19
426.341	242.51
426.548	50
426.756	56.15
426.964	74.58
427.171	37.72
427.379	109.4
427.586	17.24
427.794	72.53
428.001	152.4
428.209	60.24
428.417	152.4
428.624	164.69
428.832	31.57
429.039	35.67
429.247	136.02
429.454	93.01
429.662	181.07
429.869	168.79
430.076	133.97
430.284	121.68
430.491	203.6
430.699	138.07
430.906	154.45
431.114	131.92
431.321	138.07
431.528	131.92
431.736	156.5
431.943	181.07
432.15	201.55
432.358	209.75
432.565	201.55
432.772	84.82
432.979	172.88
433.187	86.87
433.394	236.37
433.601	97.11
433.808	236.37
434.016	262.99
434.223	232.27
434.43	170.83
434.637	211.79
434.844	265.04
435.052	230.23
435.259	273.23
435.466	314.19
435.673	314.19
435.88	326.48
436.087	234.32
436.294	338.77
436.501	396.11
436.708	217.94
436.915	303.95
437.122	293.71
437.329	236.37
437.537	379.73
437.743	297.81
437.95	516.94
438.157	394.06
438.364	385.87
438.571	279.38
438.778	437.07
438.985	451.41
439.192	461.65
439.399	385.87
439.606	521.04
439.813	459.6
440.02	645.96
440.227	615.24
440.433	516.94
440.64	596.81
440.847	529.23
441.054	564.04
441.261	688.97
441.467	625.48
441.674	574.28
441.881	832.33
442.088	656.2
442.294	766.79
442.501	817.99
442.708	774.99
442.914	793.42
443.121	867.14
443.328	873.29
443.534	899.91
443.741	846.66
443.948	713.55
444.154	885.58
444.361	1110.85
444.568	1071.94
444.774	1026.89
444.981	947.01
445.187	1082.18
445.394	1135.43
445.6	1088.32
445.807	1407.81
446.013	1137.48
446.22	1233.73
446.426	1372.99
446.633	1424.19
446.839	1659.71
447.046	1461.06
447.252	1706.81
447.459	1557.31
447.665	1477.44
447.871	1758.01
448.078	1917.75
448.284	1848.12
448.491	1919.8
448.697	1944.38
448.903	2145.08
449.11	2089.78
449.316	2120.5
449.522	2343.73
449.728	2384.69
449.935	2439.98
450.141	2509.62
450.347	2792.23
450.553	2669.36
450.76	2810.67
450.966	2935.59
451.172	2943.78
451.378	3027.75
451.584	3076.9
451.791	3457.82
451.997	3453.73
452.203	3558.18
452.409	3689.25
452.615	3889.95
452.821	3816.22
453.027	3717.92
453.233	4240.15
453.44	4184.85
453.646	4383.51
453.852	4551.44
454.058	4789
454.264	4877.07
454.47	5180.17
454.676	5200.65
454.882	5720.83
455.088	5552.9
455.294	5782.27
455.5	6191.86
455.705	6441.72
455.911	6423.28
456.117	6810.35
456.323	7049.96
456.529	6787.82
456.735	7688.93
456.941	7789.28
457.147	8100.57
457.352	8491.73
457.558	8348.37
457.764	9085.64
457.97	9388.74
458.176	9603.78
458.381	10121.91
458.587	10306.23
458.793	10791.6
458.999	10789.55
459.204	12259.99
459.41	12481.17
459.616	12393.11
459.821	13204.11
460.027	13937.28
460.233	14471.8
460.438	14375.55
460.644	15215.21
460.85	15315.56
461.055	15903.33
461.261	16677.46
461.466	16636.5
461.672	16577.11
461.878	18737.72
462.083	18364.99
462.289	18852.41
462.494	19857.96
462.7	20021.8
462.905	20138.53
463.111	21815.82
463.316	22743.55
463.522	23138.8
463.727	24310.24
463.932	24943.06
464.138	25921.99
464.343	26941.88
464.549	26622.4
464.754	28854.69
464.959	29573.52
465.165	29931.92
465.37	29987.21
465.575	29890.96
465.781	32059.76
465.986	33063.26
466.191	32207.21
466.397	32668
466.602	31867.25
466.807	33454.42
467.012	34115.92
467.218	35166.52
467.423	34654.53
467.628	35670.33
467.833	37576.98
468.038	37108
468.244	36514.09
468.449	38379.79
468.654	37282.08
468.859	37101.86
469.064	37591.32
