Data from USB4F104151__32__10-42-29-582.txt Node

Date: Wed Feb 26 10:42:29 EST 2025
User: louis
Spectrometer: USB4F10415
Trigger mode: 4
Integration Time (sec): 1.000000E-1
Scans to average: 1
Electric dark correction enabled: true
Nonlinearity correction enabled: false
Boxcar width: 0
XAxis mode: Wavelengths
Number of Pixels in Spectrum: 3648
>>>>>Begin Spectral Data<<<<<
178.204	-384.85
178.424	-384.85
178.644	-384.85
178.864	-431.95
179.084	-434
179.304	-53.08
179.524	-55.12
179.744	-20.31
179.964	108.71
180.184	59.56
180.404	47.27
180.624	49.32
180.844	61.61
181.064	-46.93
181.283	-16.21
181.503	-91.99
181.723	-42.84
181.943	-34.64
182.163	198.82
182.383	-112.47
182.602	63.66
182.822	186.54
183.042	47.27
183.262	-67.41
183.482	110.76
183.701	26.79
183.921	88.23
184.141	-42.84
184.361	20.65
184.58	121
184.8	30.89
185.02	-34.64
185.239	157.86
185.459	137.38
185.679	37.03
185.898	-63.32
186.118	100.52
186.338	8.36
186.557	116.9
186.777	30.89
186.997	41.13
187.216	65.71
187.436	157.86
187.655	20.65
187.875	41.13
188.095	67.75
188.314	94.38
188.534	69.8
188.753	-89.94
188.973	151.72
189.192	186.54
189.412	24.75
189.631	59.56
189.851	51.37
190.07	112.81
190.29	-22.36
190.509	28.84
190.729	82.09
190.948	151.72
191.168	170.15
191.387	80.04
191.607	41.13
191.826	86.19
192.045	71.85
192.265	24.75
192.484	96.43
192.704	63.66
192.923	-81.75
193.142	153.77
193.362	102.57
193.581	170.15
193.8	53.42
194.02	98.47
194.239	80.04
194.458	98.47
194.678	-42.84
194.897	-40.79
195.116	80.04
195.335	41.13
195.555	67.75
195.774	8.36
195.993	145.58
196.212	-63.32
196.432	43.18
196.651	-48.98
196.87	-24.4
197.089	258.21
197.308	53.42
197.528	65.71
197.747	-57.17
197.966	28.84
198.185	123.05
198.404	10.41
198.623	125.1
198.842	147.62
199.062	186.54
199.281	14.51
199.5	55.47
199.719	90.28
199.938	80.04
200.157	65.71
200.376	34.99
200.595	88.23
200.814	75.95
201.033	-57.17
201.252	166.06
201.471	63.66
201.69	153.77
201.909	32.94
202.128	57.51
202.347	43.18
202.566	18.6
202.785	-16.21
203.004	-53.08
203.223	241.83
203.442	20.65
203.661	-91.99
203.879	80.04
204.098	153.77
204.317	-12.12
204.536	121
204.755	104.62
204.974	92.33
205.193	-3.93
205.411	180.39
205.63	88.23
205.849	96.43
206.068	-3.93
206.287	-14.17
206.505	127.14
206.724	57.51
206.943	51.37
207.162	67.75
207.381	75.95
207.599	-1.88
207.818	37.03
208.037	4.27
208.255	71.85
208.474	47.27
208.693	86.19
208.911	-20.31
209.13	94.38
209.349	86.19
209.567	77.99
209.786	114.86
210.005	55.47
210.223	80.04
210.442	-112.47
210.661	-18.26
210.879	86.19
211.098	98.47
211.316	121
211.535	102.57
211.753	102.57
211.972	59.56
212.191	-24.4
212.409	43.18
212.628	-22.36
212.846	-32.6
213.065	82.09
213.283	88.23
213.502	55.47
213.72	-20.31
213.938	65.71
214.157	63.66
214.375	125.1
214.594	143.53
214.812	39.08
215.031	-24.4
215.249	114.86
215.467	94.38
215.686	-22.36
215.904	39.08
216.122	26.79
216.341	186.54
216.559	-8.02
216.778	133.29
216.996	166.06
217.214	98.47
217.432	30.89
217.651	-46.93
217.869	24.75
218.087	63.66
218.306	20.65
218.524	43.18
218.742	-28.5
218.96	59.56
219.179	37.03
219.397	45.23
219.615	243.88
219.833	168.1
220.051	-12.12
220.27	98.47
220.488	43.18
220.706	88.23
220.924	47.27
221.142	-10.07
221.36	41.13
221.578	104.62
221.796	57.51
222.015	75.95
222.233	127.14
222.451	112.81
222.669	-120.66
222.887	92.33
223.105	-81.75
223.323	47.27
223.541	-67.41
223.759	67.75
223.977	114.86
224.195	110.76
224.413	77.99
224.631	37.03
224.849	14.51
225.067	153.77
225.285	41.13
225.503	-10.07
225.721	-48.98
225.939	129.19
226.157	98.47
226.375	137.38
226.592	10.41
226.81	-40.79
227.028	184.49
227.246	65.71
227.464	20.65
227.682	69.8
227.9	92.33
228.117	28.84
228.335	141.48
228.553	39.08
228.771	39.08
228.989	59.56
229.206	67.75
229.424	12.46
229.642	-38.74
229.86	-10.07
230.077	141.48
230.295	100.52
230.513	59.56
230.731	139.43
230.948	131.24
231.166	207.02
231.384	10.41
231.601	-63.32
231.819	77.99
232.037	8.36
232.254	-79.7
232.472	-30.55
232.689	2.22
232.907	170.15
233.125	8.36
233.342	37.03
233.56	20.65
233.777	20.65
233.995	18.6
234.213	129.19
234.43	135.34
234.648	69.8
234.865	10.41
235.083	80.04
235.3	59.56
235.518	77.99
235.735	84.14
235.953	75.95
236.17	-14.17
236.388	71.85
236.605	168.1
236.822	14.51
237.04	102.57
237.257	37.03
237.475	-22.36
237.692	10.41
237.909	151.72
238.127	30.89
238.344	77.99
238.562	55.47
238.779	-83.8
238.996	-48.98
239.214	67.75
239.431	84.14
239.648	-71.51
239.865	16.55
240.083	110.76
240.3	57.51
240.517	12.46
240.735	104.62
240.952	215.21
241.169	47.27
241.386	77.99
241.603	75.95
241.821	-10.07
242.038	59.56
242.255	67.75
242.472	24.75
242.689	94.38
242.907	26.79
243.124	30.89
243.341	65.71
243.558	-12.12
243.775	-53.08
243.992	-65.36
244.209	98.47
244.426	200.87
244.643	63.66
244.86	53.42
245.078	102.57
245.295	37.03
245.512	41.13
245.729	-67.41
245.946	133.29
246.163	30.89
246.38	63.66
246.597	98.47
246.814	94.38
247.031	77.99
247.248	102.57
247.464	184.49
247.681	20.65
247.898	71.85
248.115	49.32
248.332	-8.02
248.549	104.62
248.766	186.54
248.983	108.71
249.2	102.57
249.417	129.19
249.633	26.79
249.85	57.51
250.067	106.67
250.284	39.08
250.501	90.28
250.717	100.52
250.934	0.17
251.151	-20.31
251.368	-8.02
251.585	28.84
251.801	77.99
252.018	-40.79
252.235	55.47
252.451	53.42
252.668	-10.07
252.885	80.04
253.102	-48.98
253.318	-24.4
253.535	-16.21
253.752	-36.69
253.968	-30.55
254.185	-106.32
254.401	65.71
254.618	51.37
254.835	26.79
255.051	69.8
255.268	22.7
255.484	65.71
255.701	45.23
255.917	69.8
256.134	-30.55
256.351	-12.12
256.567	-12.12
256.784	-22.36
257	-89.94
257.217	112.81
257.433	106.67
257.65	125.1
257.866	94.38
258.082	-18.26
258.299	-34.64
258.515	90.28
258.732	41.13
258.948	-1.88
259.165	26.79
259.381	55.47
259.597	96.43
259.814	26.79
260.03	51.37
260.246	20.65
260.463	-3.93
260.679	73.9
260.895	34.99
261.112	108.71
261.328	16.55
261.544	34.99
261.761	221.35
261.977	-24.4
262.193	-91.99
262.409	75.95
262.626	77.99
262.842	51.37
263.058	67.75
263.274	145.58
263.49	49.32
263.707	114.86
263.923	108.71
264.139	-61.27
264.355	-42.84
264.571	61.61
264.787	67.75
265.004	112.81
265.22	47.27
265.436	2.22
265.652	10.41
265.868	53.42
266.084	-28.5
266.3	53.42
266.516	6.31
266.732	-24.4
266.948	65.71
267.164	20.65
267.38	80.04
267.596	26.79
267.812	80.04
268.028	104.62
268.244	8.36
268.46	77.99
268.676	67.75
268.892	131.24
269.108	-44.88
269.324	-42.84
269.54	-30.55
269.756	133.29
269.972	-24.4
270.188	-18.26
270.403	-46.93
270.619	55.47
270.835	141.48
271.051	41.13
271.267	88.23
271.483	57.51
271.698	90.28
271.914	80.04
272.13	30.89
272.346	20.65
272.562	90.28
272.777	133.29
272.993	0.17
273.209	12.46
273.425	98.47
273.64	-36.69
273.856	49.32
274.072	-65.36
274.287	-32.6
274.503	149.67
274.719	73.9
274.934	34.99
275.15	-63.32
275.366	37.03
275.581	-5.97
275.797	-3.93
276.012	63.66
276.228	-59.22
276.444	-3.93
276.659	104.62
276.875	-5.97
277.09	-61.27
277.306	20.65
277.521	102.57
277.737	-51.03
277.952	51.37
278.168	30.89
278.383	61.61
278.599	55.47
278.814	127.14
279.03	37.03
279.245	161.96
279.461	137.38
279.676	92.33
279.892	-28.5
280.107	-26.45
280.322	-40.79
280.538	24.75
280.753	47.27
280.969	41.13
281.184	47.27
281.399	164.01
281.615	0.17
281.83	86.19
282.045	6.31
282.26	-3.93
282.476	49.32
282.691	127.14
282.906	49.32
283.122	24.75
283.337	45.23
283.552	172.2
283.767	22.7
283.983	112.81
284.198	2.22
284.413	92.33
284.628	-26.45
284.843	24.75
285.058	80.04
285.274	41.13
285.489	18.6
285.704	137.38
285.919	10.41
286.134	71.85
286.349	20.65
286.564	-8.02
286.779	192.68
286.995	14.51
287.21	-8.02
287.425	114.86
287.64	67.75
287.855	45.23
288.07	10.41
288.285	133.29
288.5	67.75
288.715	39.08
288.93	6.31
289.145	-42.84
289.36	65.71
289.575	121
289.79	131.24
290.004	65.71
290.219	106.67
290.434	-26.45
290.649	-3.93
290.864	-40.79
291.079	37.03
291.294	22.7
291.509	30.89
291.724	-26.45
291.938	96.43
292.153	51.37
292.368	30.89
292.583	135.34
292.798	139.43
293.012	88.23
293.227	123.05
293.442	24.75
293.657	53.42
293.871	106.67
294.086	28.84
294.301	211.11
294.516	135.34
294.73	94.38
294.945	-69.46
295.16	22.7
295.374	172.2
295.589	131.24
295.804	41.13
296.018	59.56
296.233	80.04
296.447	84.14
296.662	-18.26
296.877	53.42
297.091	100.52
297.306	12.46
297.52	12.46
297.735	110.76
297.949	37.03
298.164	43.18
298.378	98.47
298.593	-26.45
298.807	28.84
299.022	-1.88
299.236	135.34
299.451	47.27
299.665	26.79
299.88	37.03
300.094	45.23
300.309	-8.02
300.523	92.33
300.737	-20.31
300.952	100.52
301.166	77.99
301.381	41.13
301.595	26.79
301.809	77.99
302.024	104.62
302.238	-26.45
302.452	155.82
302.667	18.6
302.881	133.29
303.095	88.23
303.309	73.9
303.524	-53.08
303.738	6.31
303.952	59.56
304.166	41.13
304.381	-89.94
304.595	125.1
304.809	47.27
305.023	63.66
305.237	2.22
305.452	6.31
305.666	102.57
305.88	69.8
306.094	96.43
306.308	45.23
306.522	106.67
306.736	18.6
306.95	82.09
307.164	37.03
307.379	53.42
307.593	92.33
307.807	110.76
308.021	55.47
308.235	6.31
308.449	-34.64
308.663	-48.98
308.877	293.03
309.091	41.13
309.305	12.46
309.519	-51.03
309.733	106.67
309.947	-79.7
310.161	65.71
310.374	131.24
310.588	108.71
310.802	-3.93
311.016	-8.02
311.23	39.08
311.444	-46.93
311.658	63.66
311.872	131.24
312.085	159.91
312.299	250.02
312.513	149.67
312.727	63.66
312.941	10.41
313.154	41.13
313.368	61.61
313.582	12.46
313.796	100.52
314.009	18.6
314.223	102.57
314.437	24.75
314.651	49.32
314.864	71.85
315.078	71.85
315.292	-141.14
315.505	49.32
315.719	100.52
315.933	75.95
316.146	22.7
316.36	14.51
316.573	157.86
316.787	153.77
317.001	106.67
317.214	4.27
317.428	108.71
317.641	-30.55
317.855	-26.45
318.068	20.65
318.282	73.9
318.495	172.2
318.709	98.47
318.922	59.56
319.136	176.3
319.349	125.1
319.563	-44.88
319.776	80.04
319.99	-14.17
320.203	41.13
320.417	32.94
320.63	82.09
320.843	137.38
321.057	53.42
321.27	-10.07
321.483	133.29
321.697	186.54
321.91	20.65
322.124	82.09
322.337	34.99
322.55	-57.17
322.763	75.95
322.977	47.27
323.19	-18.26
323.403	16.55
323.617	127.14
323.83	14.51
324.043	-30.55
324.256	110.76
324.469	-73.56
324.683	123.05
324.896	59.56
325.109	45.23
325.322	12.46
325.535	82.09
325.748	77.99
325.962	82.09
326.175	49.32
326.388	-36.69
326.601	80.04
326.814	-16.21
327.027	-3.93
327.24	80.04
327.453	-77.65
327.666	114.86
327.879	135.34
328.092	67.75
328.305	104.62
328.518	71.85
328.731	-63.32
328.944	53.42
329.157	118.95
329.37	41.13
329.583	133.29
329.796	67.75
330.009	18.6
330.222	104.62
330.435	149.67
330.648	77.99
330.861	10.41
331.073	69.8
331.286	141.48
331.499	10.41
331.712	28.84
331.925	22.7
332.138	100.52
332.35	77.99
332.563	-34.64
332.776	174.25
332.989	-22.36
333.202	61.61
333.414	51.37
333.627	24.75
333.84	4.27
334.053	24.75
334.265	4.27
334.478	88.23
334.691	16.55
334.903	84.14
335.116	8.36
335.329	28.84
335.541	73.9
335.754	141.48
335.966	6.31
336.179	59.56
336.392	12.46
336.604	-10.07
336.817	94.38
337.029	73.9
337.242	61.61
337.454	141.48
337.667	135.34
337.88	116.9
338.092	37.03
338.305	143.53
338.517	-63.32
338.729	125.1
338.942	151.72
339.154	-44.88
339.367	43.18
339.579	184.49
339.792	-34.64
340.004	100.52
340.217	123.05
340.429	28.84
340.641	-16.21
340.854	-30.55
341.066	-5.97
341.278	98.47
341.491	225.45
341.703	45.23
341.915	49.32
342.128	18.6
342.34	63.66
342.552	-5.97
342.764	86.19
342.977	71.85
343.189	41.13
343.401	121
343.613	-3.93
343.826	22.7
344.038	4.27
344.25	82.09
344.462	26.79
344.674	71.85
344.886	75.95
345.099	30.89
345.311	98.47
345.523	32.94
345.735	-18.26
345.947	65.71
346.159	37.03
346.371	8.36
346.583	20.65
346.795	182.44
347.007	28.84
347.219	88.23
347.431	51.37
347.643	108.71
347.855	30.89
348.067	127.14
348.279	37.03
348.491	45.23
348.703	-53.08
348.915	-30.55
349.127	39.08
349.339	32.94
349.551	-24.4
349.763	92.33
349.975	-3.93
350.187	82.09
350.399	118.95
350.61	116.9
350.822	16.55
351.034	75.95
351.246	73.9
351.458	106.67
351.669	63.66
351.881	49.32
352.093	121
352.305	121
352.517	63.66
352.728	188.58
352.94	-3.93
353.152	51.37
353.363	-16.21
353.575	155.82
353.787	164.01
353.999	39.08
354.21	92.33
354.422	10.41
354.633	67.75
354.845	116.9
355.057	-10.07
355.268	55.47
355.48	88.23
355.692	-65.36
355.903	80.04
356.115	37.03
356.326	61.61
356.538	75.95
356.749	84.14
356.961	178.34
357.172	61.61
357.384	-30.55
357.595	239.78
357.807	24.75
358.018	-16.21
358.23	63.66
358.441	180.39
358.653	45.23
358.864	45.23
359.075	-38.74
359.287	77.99
359.498	106.67
359.709	182.44
359.921	49.32
360.132	34.99
360.344	125.1
360.555	-71.51
360.766	127.14
360.977	8.36
361.189	153.77
361.4	6.31
361.611	174.25
361.823	59.56
362.034	24.75
362.245	80.04
362.456	51.37
362.667	149.67
362.879	43.18
363.09	73.9
363.301	59.56
363.512	18.6
363.723	6.31
363.935	57.51
364.146	94.38
364.357	49.32
364.568	-24.4
364.779	-36.69
364.99	155.82
365.201	14.51
365.412	106.67
365.623	-46.93
365.834	55.47
366.045	22.7
366.256	106.67
366.467	112.81
366.678	-48.98
366.889	34.99
367.1	-26.45
367.311	100.52
367.522	-46.93
367.733	63.66
367.944	147.62
368.155	-51.03
368.366	114.86
368.577	170.15
368.788	145.58
368.999	-147.28
369.209	77.99
369.42	159.91
369.631	221.35
369.842	129.19
370.053	32.94
370.264	157.86
370.474	0.17
370.685	71.85
370.896	-16.21
371.107	151.72
371.317	118.95
371.528	41.13
371.739	77.99
371.95	65.71
372.16	110.76
372.371	-24.4
372.582	-57.17
372.792	53.42
373.003	32.94
373.214	129.19
373.424	159.91
373.635	18.6
373.846	123.05
374.056	90.28
374.267	96.43
374.477	30.89
374.688	-30.55
374.898	77.99
375.109	69.8
375.319	166.06
375.53	161.96
375.74	47.27
375.951	57.51
376.161	82.09
376.372	217.26
376.582	10.41
376.793	34.99
377.003	-22.36
377.214	6.31
377.424	94.38
377.635	16.55
377.845	55.47
378.055	114.86
378.266	-3.93
378.476	24.75
378.686	108.71
378.897	135.34
379.107	90.28
379.317	39.08
379.528	24.75
379.738	77.99
379.948	30.89
380.158	88.23
380.369	69.8
380.579	86.19
380.789	61.61
380.999	98.47
381.21	155.82
381.42	151.72
381.63	61.61
381.84	82.09
382.05	84.14
382.261	106.67
382.471	182.44
382.681	22.7
382.891	92.33
383.101	69.8
383.311	49.32
383.521	37.03
383.731	71.85
383.941	100.52
384.151	94.38
384.361	84.14
384.571	133.29
384.781	26.79
384.991	252.07
385.201	225.45
385.411	67.75
385.621	98.47
385.831	32.94
386.041	116.9
386.251	10.41
386.461	137.38
386.671	63.66
386.881	55.47
387.091	-53.08
387.301	47.27
387.511	28.84
387.72	24.75
387.93	127.14
388.14	-14.17
388.35	53.42
388.56	180.39
388.769	155.82
388.979	77.99
389.189	-42.84
389.399	61.61
389.609	180.39
389.818	112.81
390.028	82.09
390.238	147.62
390.447	-36.69
390.657	37.03
390.867	-8.02
391.076	-51.03
391.286	82.09
391.496	30.89
391.705	-3.93
391.915	98.47
392.125	135.34
392.334	-73.56
392.544	180.39
392.753	26.79
392.963	26.79
393.172	45.23
393.382	-3.93
393.591	182.44
393.801	2.22
394.01	135.34
394.22	118.95
394.429	4.27
394.639	12.46
394.848	104.62
395.058	6.31
395.267	24.75
395.477	67.75
395.686	159.91
395.895	243.88
396.105	219.3
396.314	131.24
396.524	94.38
396.733	41.13
396.942	59.56
397.152	73.9
397.361	110.76
397.57	12.46
397.78	53.42
397.989	49.32
398.198	180.39
398.407	53.42
398.617	63.66
398.826	18.6
399.035	-1.88
399.244	200.87
399.453	-12.12
399.663	37.03
399.872	39.08
400.081	-5.97
400.29	151.72
400.499	22.7
400.708	133.29
400.917	84.14
401.127	94.38
401.336	-53.08
401.545	217.26
401.754	147.62
401.963	106.67
402.172	57.51
402.381	-36.69
402.59	67.75
402.799	32.94
403.008	20.65
403.217	32.94
403.426	82.09
403.635	-5.97
403.844	10.41
404.053	37.03
404.262	-26.45
404.471	94.38
404.68	61.61
404.888	28.84
405.097	30.89
405.306	114.86
405.515	102.57
405.724	77.99
405.933	88.23
406.142	63.66
406.35	139.43
406.559	57.51
406.768	133.29
406.977	245.93
407.185	102.57
407.394	108.71
407.603	-1.88
407.812	166.06
408.02	114.86
408.229	-28.5
408.438	92.33
408.646	-73.56
408.855	159.91
409.064	155.82
409.272	92.33
409.481	125.1
409.69	-14.17
409.898	20.65
410.107	116.9
410.315	112.81
410.524	-24.4
410.733	65.71
410.941	2.22
411.15	186.54
411.358	6.31
411.567	166.06
411.775	86.19
411.984	-44.88
412.192	127.14
412.401	4.27
412.609	151.72
412.818	190.63
413.026	176.3
413.234	-24.4
413.443	10.41
413.651	-3.93
413.86	67.75
414.068	153.77
414.276	229.54
414.485	-44.88
414.693	178.34
414.901	159.91
415.11	73.9
415.318	63.66
415.526	69.8
415.734	182.44
415.943	90.28
416.151	137.38
416.359	2.22
416.567	63.66
416.776	118.95
416.984	53.42
417.192	137.38
417.4	14.51
417.608	-10.07
417.817	14.51
418.025	182.44
418.233	164.01
418.441	-1.88
418.649	22.7
418.857	149.67
419.065	186.54
419.273	24.75
419.481	39.08
419.689	77.99
419.897	39.08
420.105	-57.17
420.313	139.43
420.521	182.44
420.729	213.16
420.937	16.55
421.145	-26.45
421.353	135.34
421.561	141.48
421.769	114.86
421.977	16.55
422.185	159.91
422.393	47.27
422.601	94.38
422.809	125.1
423.017	145.58
423.224	57.51
423.432	147.62
423.64	53.42
423.848	98.47
424.056	-12.12
424.263	174.25
424.471	75.95
424.679	180.39
424.887	-73.56
425.094	149.67
425.302	131.24
425.51	80.04
425.718	118.95
425.925	131.24
426.133	65.71
426.341	266.41
426.548	37.03
426.756	53.42
426.964	129.19
427.171	34.99
427.379	194.73
427.586	16.55
427.794	59.56
428.001	202.92
428.209	65.71
428.417	166.06
428.624	149.67
428.832	69.8
429.039	166.06
429.247	161.96
429.454	209.06
429.662	235.69
429.869	147.62
430.076	118.95
430.284	274.6
430.491	243.88
430.699	196.78
430.906	252.07
431.114	200.87
431.321	139.43
431.528	84.14
431.736	209.06
431.943	192.68
432.15	168.1
432.358	172.2
432.565	313.51
432.772	49.32
432.979	241.83
433.187	155.82
433.394	280.74
433.601	237.74
433.808	256.17
434.016	325.8
434.223	227.5
434.43	295.08
434.637	309.41
434.844	344.23
435.052	270.5
435.259	393.38
435.466	301.22
435.673	239.78
435.88	290.98
436.087	379.04
436.294	389.28
436.501	385.19
436.708	315.56
436.915	393.38
437.122	508.07
437.329	379.04
437.537	395.43
437.743	434.34
437.95	491.68
438.157	530.59
438.364	467.11
438.571	467.11
438.778	577.7
438.985	583.84
439.192	544.93
439.399	506.02
439.606	600.23
439.813	579.75
440.02	721.06
440.227	839.84
440.433	649.38
440.64	778.4
440.847	676
441.054	790.69
441.261	835.74
441.467	827.55
441.674	800.93
441.881	983.2
442.088	825.5
442.294	975
442.501	991.39
442.708	1056.92
442.914	1079.45
443.121	1120.41
443.328	1118.36
443.534	1286.3
443.741	1202.33
443.948	1044.63
444.154	1237.14
444.361	1439.89
444.568	1310.87
444.774	1327.25
444.981	1296.53
445.187	1597.59
445.394	1517.72
445.6	1439.89
445.807	1726.61
446.013	1687.7
446.22	1650.83
446.426	1929.36
446.633	1955.98
446.839	2189.45
447.046	1824.91
447.252	2117.77
447.459	2082.95
447.665	2218.12
447.871	2314.38
448.078	2459.78
448.284	2508.93
448.491	2642.05
448.697	2805.89
448.903	2762.88
449.11	2848.9
449.316	2852.99
449.522	3139.71
449.728	3182.71
449.935	3354.74
450.141	3266.68
450.347	3657.84
450.553	3567.73
450.76	3588.21
450.966	4022.38
451.172	4040.81
451.378	4165.74
451.584	4206.7
451.791	4575.33
451.997	4696.16
452.203	4716.64
452.409	4976.73
452.615	5132.38
452.821	5216.35
453.027	5140.57
453.233	5810.26
453.44	5505.11
453.646	5926.99
453.852	6033.49
454.058	6432.84
454.264	6496.33
454.47	6977.6
454.676	7034.94
454.882	7745.59
455.088	7428.15
455.294	7903.28
455.5	8245.29
455.705	8691.75
455.911	8615.98
456.117	9066.53
456.323	9265.18
456.529	9441.31
456.735	10078.22
456.941	10252.3
457.147	10731.53
457.352	10905.6
457.558	11317.25
457.764	12152.82
457.97	12277.74
458.176	12896.23
458.381	13610.97
458.587	13733.85
458.793	14352.34
458.999	14499.79
459.204	16373.68
459.41	16908.2
459.616	16619.44
459.821	17506.21
460.027	18032.54
460.233	19101.58
460.438	19046.28
460.644	20053.88
460.85	20442.99
461.055	21520.23
461.261	22294.36
461.466	21782.37
461.672	21933.92
461.878	25141.04
462.083	24790.83
462.289	25122.6
462.494	26021.66
462.7	26363.67
462.905	26840.85
463.111	28772.08
463.316	30174.94
463.522	30844.63
463.727	31862.47
463.932	32882.36
464.138	34080.42
464.343	35362.45
464.549	35362.45
464.754	37854.83
464.959	39003.74
465.165	39532.11
465.37	39282.26
465.575	39339.6
465.781	41793.07
465.986	43427.35
466.191	42485.28
466.397	43382.29
466.602	42212.9
466.807	44490.24
467.012	44922.37
467.218	46288.36
467.423	45809.14
467.628	47521.24
467.833	49886.64
468.038	48954.82
