Data from USB4F104151__45__10-43-15-777.txt Node

Date: Wed Feb 26 10:43:15 EST 2025
User: louis
Spectrometer: USB4F10415
Trigger mode: 4
Integration Time (sec): 1.000000E-1
Scans to average: 1
Electric dark correction enabled: true
Nonlinearity correction enabled: false
Boxcar width: 0
XAxis mode: Wavelengths
Number of Pixels in Spectrum: 3648
>>>>>Begin Spectral Data<<<<<
178.204	-399.52
178.424	-399.52
178.644	-399.52
178.864	-352.42
179.084	-407.72
179.304	-26.79
179.524	-12.46
179.744	75.6
179.964	36.69
180.184	26.45
180.404	20.31
180.624	-26.79
180.844	-6.31
181.064	-59.56
181.283	24.4
181.503	-47.27
181.723	-4.27
181.943	-92.33
182.163	214.87
182.383	-10.41
182.602	120.66
182.822	178
183.042	79.7
183.262	46.93
183.482	38.74
183.701	48.98
183.921	18.26
184.141	5.97
184.361	87.89
184.58	71.51
184.8	-6.31
185.02	-24.75
185.239	81.75
185.459	161.62
185.679	153.43
185.898	-80.04
186.118	46.93
186.338	53.08
186.557	126.8
186.777	12.12
186.997	1.88
187.216	-24.75
187.436	171.86
187.655	71.51
187.875	46.93
188.095	40.79
188.314	178
188.534	130.9
188.753	-16.55
188.973	71.51
189.192	190.29
189.412	3.93
189.631	69.46
189.851	-4.27
190.07	126.8
190.29	44.88
190.509	3.93
190.729	24.4
190.948	175.95
191.168	206.67
191.387	122.71
191.607	63.32
191.826	98.13
192.045	-10.41
192.265	77.65
192.484	155.47
192.704	85.84
192.923	-24.75
193.142	212.82
193.362	161.62
193.581	130.9
193.8	79.7
194.02	171.86
194.239	77.65
194.458	137.04
194.678	75.6
194.897	-22.7
195.116	32.6
195.335	87.89
195.555	102.23
195.774	-18.6
195.993	126.8
196.212	-30.89
196.432	3.93
196.651	67.41
196.87	87.89
197.089	272.21
197.308	63.32
197.528	130.9
197.747	1.88
197.966	48.98
198.185	122.71
198.404	-0.17
198.623	102.23
198.842	139.09
199.062	65.36
199.281	32.6
199.5	116.56
199.719	61.27
199.938	34.64
200.157	135
200.376	143.19
200.595	161.62
200.814	65.36
201.033	-14.51
201.252	214.87
201.471	12.12
201.69	55.12
201.909	34.64
202.128	100.18
202.347	89.94
202.566	85.84
202.785	-0.17
203.004	-45.23
203.223	272.21
203.442	59.22
203.661	-12.46
203.879	112.47
204.098	145.24
204.317	-4.27
204.536	89.94
204.755	100.18
204.974	143.19
205.193	22.36
205.411	192.34
205.63	184.15
205.849	40.79
206.068	-30.89
206.287	22.36
206.505	120.66
206.724	3.93
206.943	-47.27
207.162	-82.09
207.381	73.56
207.599	-4.27
207.818	71.51
208.037	-0.17
208.255	28.5
208.474	30.55
208.693	55.12
208.911	5.97
209.13	100.18
209.349	51.03
209.567	143.19
209.786	110.42
210.005	30.55
210.223	108.37
210.442	-141.48
210.661	8.02
210.879	120.66
211.098	53.08
211.316	79.7
211.535	147.28
211.753	44.88
211.972	130.9
212.191	96.08
212.409	51.03
212.628	173.91
212.846	-6.31
213.065	71.51
213.283	16.21
213.502	42.84
213.72	63.32
213.938	44.88
214.157	-14.51
214.375	98.13
214.594	65.36
214.812	-8.36
215.031	36.69
215.249	8.02
215.467	57.17
215.686	1.88
215.904	157.52
216.122	112.47
216.341	137.04
216.559	91.99
216.778	83.8
216.996	173.91
217.214	91.99
217.432	-32.94
217.651	-71.85
217.869	-2.22
218.087	51.03
218.306	-2.22
218.524	65.36
218.742	57.17
218.96	94.04
219.179	71.51
219.397	-26.79
219.615	268.11
219.833	98.13
220.051	8.02
220.27	132.95
220.488	87.89
220.706	102.23
220.924	-30.89
221.142	-30.89
221.36	100.18
221.578	151.38
221.796	102.23
222.015	24.4
222.233	108.37
222.451	137.04
222.669	32.6
222.887	116.56
223.105	24.4
223.323	87.89
223.541	-2.22
223.759	38.74
223.977	89.94
224.195	116.56
224.413	139.09
224.631	18.26
224.849	51.03
225.067	180.05
225.285	3.93
225.503	44.88
225.721	-39.08
225.939	18.26
226.157	20.31
226.375	218.96
226.592	5.97
226.81	118.61
227.028	83.8
227.246	112.47
227.464	149.33
227.682	128.85
227.9	85.84
228.117	120.66
228.335	149.33
228.553	108.37
228.771	26.45
228.989	10.07
229.206	149.33
229.424	-53.42
229.642	102.23
229.86	38.74
230.077	98.13
230.295	48.98
230.513	118.61
230.731	57.17
230.948	153.43
231.166	175.95
231.384	-55.47
231.601	53.08
231.819	204.63
232.037	18.26
232.254	-49.32
232.472	79.7
232.689	-10.41
232.907	155.47
233.125	-30.89
233.342	-18.6
233.56	28.5
233.777	5.97
233.995	12.12
234.213	126.8
234.43	130.9
234.648	114.52
234.865	53.08
235.083	57.17
235.3	94.04
235.518	137.04
235.735	122.71
235.953	151.38
236.17	137.04
236.388	104.28
236.605	79.7
236.822	110.42
237.04	126.8
237.257	108.37
237.475	-53.42
237.692	75.6
237.909	53.08
238.127	57.17
238.344	48.98
238.562	57.17
238.779	-59.56
238.996	1.88
239.214	42.84
239.431	159.57
239.648	-6.31
239.865	149.33
240.083	73.56
240.3	73.56
240.517	48.98
240.735	-0.17
240.952	161.62
241.169	163.67
241.386	85.84
241.603	44.88
241.821	22.36
242.038	106.32
242.255	180.05
242.472	-2.22
242.689	87.89
242.907	75.6
243.124	85.84
243.341	36.69
243.558	79.7
243.775	-51.37
243.992	-141.48
244.209	69.46
244.426	221.01
244.643	57.17
244.86	24.4
245.078	130.9
245.295	32.6
245.512	85.84
245.729	18.26
245.946	132.95
246.163	16.21
246.38	114.52
246.597	106.32
246.814	42.84
247.031	126.8
247.248	1.88
247.464	106.32
247.681	-6.31
247.898	55.12
248.115	139.09
248.332	-22.7
248.549	143.19
248.766	155.47
248.983	96.08
249.2	79.7
249.417	65.36
249.633	-8.36
249.85	120.66
250.067	59.22
250.284	16.21
250.501	63.32
250.717	120.66
250.934	-24.75
251.151	1.88
251.368	108.37
251.585	106.32
251.801	132.95
252.018	-8.36
252.235	108.37
252.451	12.12
252.668	18.26
252.885	116.56
253.102	46.93
253.318	40.79
253.535	-0.17
253.752	-8.36
253.968	-34.99
254.185	-41.13
254.401	77.65
254.618	116.56
254.835	-71.85
255.051	106.32
255.268	108.37
255.484	102.23
255.701	85.84
255.917	89.94
256.134	-8.36
256.351	48.98
256.567	-53.42
256.784	104.28
257	-37.03
257.217	132.95
257.433	96.08
257.65	46.93
257.866	153.43
258.082	-6.31
258.299	-14.51
258.515	108.37
258.732	-32.94
258.948	-14.51
259.165	44.88
259.381	-57.51
259.597	48.98
259.814	59.22
260.03	14.17
260.246	59.22
260.463	91.99
260.679	149.33
260.895	24.4
261.112	69.46
261.328	48.98
261.544	-32.94
261.761	180.05
261.977	14.17
262.193	28.5
262.409	100.18
262.626	77.65
262.842	12.12
263.058	20.31
263.274	135
263.49	61.27
263.707	114.52
263.923	77.65
264.139	-43.18
264.355	118.61
264.571	137.04
264.787	65.36
265.004	130.9
265.22	30.55
265.436	32.6
265.652	46.93
265.868	163.67
266.084	-84.14
266.3	-2.22
266.516	-53.42
266.732	71.51
266.948	106.32
267.164	55.12
267.38	124.76
267.596	75.6
267.812	178
268.028	16.21
268.244	57.17
268.46	94.04
268.676	51.03
268.892	110.42
269.108	-10.41
269.324	-18.6
269.54	14.17
269.756	30.55
269.972	8.02
270.188	85.84
270.403	8.02
270.619	22.36
270.835	98.13
271.051	85.84
271.267	77.65
271.483	36.69
271.698	57.17
271.914	106.32
272.13	104.28
272.346	28.5
272.562	81.75
272.777	178
272.993	44.88
273.209	28.5
273.425	145.24
273.64	-41.13
273.856	108.37
274.072	40.79
274.287	42.84
274.503	128.85
274.719	137.04
274.934	-4.27
275.15	-49.32
275.366	-14.51
275.581	-4.27
275.797	55.12
276.012	44.88
276.228	81.75
276.444	55.12
276.659	128.85
276.875	-6.31
277.09	59.22
277.306	14.17
277.521	122.71
277.737	26.45
277.952	186.19
278.168	10.07
278.383	22.36
278.599	61.27
278.814	202.58
279.03	65.36
279.245	85.84
279.461	55.12
279.676	75.6
279.892	-32.94
280.107	-16.55
280.322	10.07
280.538	42.84
280.753	3.93
280.969	8.02
281.184	14.17
281.399	169.81
281.615	22.36
281.83	53.08
282.045	-2.22
282.26	-4.27
282.476	87.89
282.691	157.52
282.906	51.03
283.122	55.12
283.337	-4.27
283.552	77.65
283.767	75.6
283.983	175.95
284.198	139.09
284.413	114.52
284.628	-28.84
284.843	63.32
285.058	87.89
285.274	42.84
285.489	26.45
285.704	77.65
285.919	-14.51
286.134	18.26
286.349	106.32
286.564	96.08
286.779	206.67
286.995	-6.31
287.21	-16.55
287.425	120.66
287.64	-16.55
287.855	61.27
288.07	-16.55
288.285	114.52
288.5	190.29
288.715	96.08
288.93	22.36
289.145	-45.23
289.36	143.19
289.575	-12.46
289.79	167.76
290.004	14.17
290.219	157.52
290.434	63.32
290.649	8.02
290.864	30.55
291.079	46.93
291.294	135
291.509	130.9
291.724	55.12
291.938	22.36
292.153	48.98
292.368	20.31
292.583	57.17
292.798	165.71
293.012	40.79
293.227	20.31
293.442	91.99
293.657	126.8
293.871	126.8
294.086	51.03
294.301	227.15
294.516	124.76
294.73	24.4
294.945	3.93
295.16	81.75
295.374	178
295.589	114.52
295.804	73.56
296.018	75.6
296.233	141.14
296.447	63.32
296.662	65.36
296.877	143.19
297.091	77.65
297.306	3.93
297.52	32.6
297.735	77.65
297.949	22.36
298.164	26.45
298.378	36.69
298.593	-53.42
298.807	-43.18
299.022	81.75
299.236	173.91
299.451	24.4
299.665	30.55
299.88	96.08
300.094	71.51
300.309	16.21
300.523	42.84
300.737	65.36
300.952	69.46
301.166	-2.22
301.381	67.41
301.595	5.97
301.809	110.42
302.024	22.36
302.238	-47.27
302.452	182.1
302.667	-8.36
302.881	178
303.095	71.51
303.309	100.18
303.524	-16.55
303.738	28.5
303.952	-0.17
304.166	85.84
304.381	-73.9
304.595	184.15
304.809	-18.6
305.023	32.6
305.237	1.88
305.452	1.88
305.666	57.17
305.88	100.18
306.094	116.56
306.308	30.55
306.522	102.23
306.736	51.03
306.95	139.09
307.164	51.03
307.379	44.88
307.593	96.08
307.807	96.08
308.021	42.84
308.235	104.28
308.449	10.07
308.663	112.47
308.877	243.54
309.091	32.6
309.305	48.98
309.519	-57.51
309.733	137.04
309.947	-14.51
310.161	53.08
310.374	94.04
310.588	169.81
310.802	-8.36
311.016	3.93
311.23	106.32
311.444	-8.36
311.658	42.84
311.872	175.95
312.085	44.88
312.299	130.9
312.513	110.42
312.727	48.98
312.941	-53.42
313.154	81.75
313.368	94.04
313.582	106.32
313.796	149.33
314.009	79.7
314.223	132.95
314.437	42.84
314.651	96.08
314.864	67.41
315.078	14.17
315.292	-39.08
315.505	-71.85
315.719	108.37
315.933	28.5
316.146	20.31
316.36	24.4
316.573	42.84
316.787	87.89
317.001	91.99
317.214	3.93
317.428	77.65
317.641	-0.17
317.855	83.8
318.068	51.03
318.282	42.84
318.495	227.15
318.709	77.65
318.922	1.88
319.136	225.11
319.349	112.47
319.563	10.07
319.776	69.46
319.99	-61.61
320.203	87.89
320.417	55.12
320.63	194.39
320.843	200.53
321.057	71.51
321.27	67.41
321.483	118.61
321.697	167.76
321.91	36.69
322.124	130.9
322.337	114.52
322.55	16.21
322.763	57.17
322.977	-20.65
323.19	-34.99
323.403	34.64
323.617	32.6
323.83	141.14
324.043	46.93
324.256	128.85
324.469	55.12
324.683	120.66
324.896	-0.17
325.109	73.56
325.322	-43.18
325.535	135
325.748	98.13
325.962	12.12
326.175	26.45
326.388	120.66
326.601	114.52
326.814	10.07
327.027	126.8
327.24	243.54
327.453	-149.67
327.666	65.36
327.879	83.8
328.092	71.51
328.305	171.86
328.518	42.84
328.731	22.36
328.944	85.84
329.157	91.99
329.37	-28.84
329.583	221.01
329.796	151.38
330.009	-106.67
330.222	81.75
330.435	194.39
330.648	-12.46
330.861	102.23
331.073	20.31
331.286	163.67
331.499	57.17
331.712	-2.22
331.925	20.31
332.138	157.52
332.35	83.8
332.563	-51.37
332.776	186.19
332.989	-39.08
333.202	-4.27
333.414	5.97
333.627	-0.17
333.84	28.5
334.053	128.85
334.265	96.08
334.478	-16.55
334.691	18.26
334.903	32.6
335.116	22.36
335.329	81.75
335.541	81.75
335.754	175.95
335.966	79.7
336.179	67.41
336.392	24.4
336.604	1.88
336.817	42.84
337.029	94.04
337.242	-14.51
337.454	116.56
337.667	91.99
337.88	100.18
338.092	96.08
338.305	75.6
338.517	28.5
338.729	28.5
338.942	182.1
339.154	30.55
339.367	-18.6
339.579	122.71
339.792	51.03
340.004	42.84
340.217	63.32
340.429	75.6
340.641	-37.03
340.854	5.97
341.066	38.74
341.278	114.52
341.491	145.24
341.703	-4.27
341.915	114.52
342.128	130.9
342.34	106.32
342.552	-20.65
342.764	55.12
342.977	40.79
343.189	46.93
343.401	110.42
343.613	-61.61
343.826	42.84
344.038	-18.6
344.25	42.84
344.462	42.84
344.674	98.13
344.886	61.27
345.099	85.84
345.311	104.28
345.523	139.09
345.735	30.55
345.947	128.85
346.159	102.23
346.371	46.93
346.583	30.55
346.795	245.59
347.007	14.17
347.219	79.7
347.431	-30.89
347.643	63.32
347.855	-2.22
348.067	147.28
348.279	-22.7
348.491	-45.23
348.703	180.05
348.915	28.5
349.127	-22.7
349.339	20.31
349.551	55.12
349.763	147.28
349.975	10.07
350.187	126.8
350.399	139.09
350.61	67.41
350.822	83.8
351.034	118.61
351.246	110.42
351.458	51.03
351.669	51.03
351.881	120.66
352.093	141.14
352.305	186.19
352.517	118.61
352.728	77.65
352.94	81.75
353.152	38.74
353.363	-10.41
353.575	36.69
353.787	169.81
353.999	63.32
354.21	223.06
354.422	24.4
354.633	38.74
354.845	122.71
355.057	77.65
355.268	48.98
355.48	114.52
355.692	-45.23
355.903	38.74
356.115	3.93
356.326	-75.95
356.538	85.84
356.749	114.52
356.961	233.3
357.172	57.17
357.384	44.88
357.595	233.3
357.807	-2.22
358.018	-39.08
358.23	75.6
358.441	169.81
358.653	55.12
358.864	73.56
359.075	48.98
359.287	65.36
359.498	67.41
359.709	116.56
359.921	16.21
360.132	32.6
360.344	63.32
360.555	67.41
360.766	81.75
360.977	34.64
361.189	149.33
361.4	71.51
361.611	120.66
361.823	114.52
362.034	141.14
362.245	-65.71
362.456	-20.65
362.667	79.7
362.879	34.64
363.09	85.84
363.301	51.03
363.512	106.32
363.723	108.37
363.935	40.79
364.146	34.64
364.357	79.7
364.568	51.03
364.779	-92.33
364.99	85.84
365.201	32.6
365.412	149.33
365.623	-51.37
365.834	1.88
366.045	40.79
366.256	63.32
366.467	48.98
366.678	28.5
366.889	44.88
367.1	28.5
367.311	159.57
367.522	-28.84
367.733	73.56
367.944	116.56
368.155	38.74
368.366	-16.55
368.577	124.76
368.788	198.48
368.999	-14.51
369.209	65.36
369.42	243.54
369.631	284.5
369.842	100.18
370.053	12.12
370.264	44.88
370.474	-24.75
370.685	149.33
370.896	12.12
371.107	173.91
371.317	30.55
371.528	42.84
371.739	91.99
371.95	124.76
372.16	173.91
372.371	-22.7
372.582	18.26
372.792	118.61
373.003	61.27
373.214	87.89
373.424	65.36
373.635	-0.17
373.846	139.09
374.056	81.75
374.267	116.56
374.477	69.46
374.688	-0.17
374.898	96.08
375.109	147.28
375.319	104.28
375.53	151.38
375.74	112.47
375.951	8.02
376.161	132.95
376.372	135
376.582	30.55
376.793	87.89
377.003	16.21
377.214	24.4
377.424	77.65
377.635	-22.7
377.845	12.12
378.055	141.14
378.266	26.45
378.476	94.04
378.686	30.55
378.897	40.79
379.107	118.61
379.317	46.93
379.528	89.94
379.738	100.18
379.948	-112.81
380.158	100.18
380.369	79.7
380.579	14.17
380.789	65.36
380.999	83.8
381.21	120.66
381.42	169.81
381.63	18.26
381.84	100.18
382.05	132.95
382.261	126.8
382.471	149.33
382.681	28.5
382.891	145.24
383.101	100.18
383.311	10.07
383.521	55.12
383.731	163.67
383.941	108.37
384.151	44.88
384.361	-4.27
384.571	55.12
384.781	104.28
384.991	204.63
385.201	239.44
385.411	89.94
385.621	14.17
385.831	89.94
386.041	12.12
386.251	67.41
386.461	110.42
386.671	34.64
386.881	38.74
387.091	22.36
387.301	180.05
387.511	-24.75
387.72	114.52
387.93	126.8
388.14	-26.79
388.35	57.17
388.56	98.13
388.769	104.28
388.979	87.89
389.189	71.51
389.399	126.8
389.609	100.18
389.818	130.9
390.028	57.17
390.238	98.13
390.447	36.69
390.657	91.99
390.867	-24.75
391.076	-37.03
391.286	114.52
391.496	42.84
391.705	3.93
391.915	206.67
392.125	173.91
392.334	73.56
392.544	122.71
392.753	89.94
392.963	36.69
393.172	81.75
393.382	20.31
393.591	237.39
393.801	3.93
394.01	212.82
394.22	137.04
394.429	44.88
394.639	-24.75
394.848	48.98
395.058	94.04
395.267	22.36
395.477	-10.41
395.686	79.7
395.895	231.25
396.105	221.01
396.314	120.66
396.524	104.28
396.733	-32.94
396.942	79.7
397.152	135
397.361	94.04
397.57	42.84
397.78	65.36
397.989	91.99
398.198	282.45
398.407	59.22
398.617	108.37
398.826	126.8
399.035	26.45
399.244	155.47
399.453	18.26
399.663	44.88
399.872	89.94
400.081	1.88
400.29	218.96
400.499	5.97
400.708	104.28
400.917	-2.22
401.127	71.51
401.336	18.26
401.545	235.35
401.754	178
401.963	102.23
402.172	73.56
402.381	-24.75
402.59	122.71
402.799	55.12
403.008	198.48
403.217	85.84
403.426	61.27
403.635	-10.41
403.844	59.22
404.053	42.84
404.262	96.08
404.471	165.71
404.68	102.23
404.888	57.17
405.097	28.5
405.306	75.6
405.515	122.71
405.724	83.8
405.933	202.58
406.142	91.99
406.35	53.08
406.559	14.17
406.768	59.22
406.977	214.87
407.185	83.8
407.394	81.75
407.603	-65.71
407.812	-16.55
408.02	75.6
408.229	75.6
408.438	120.66
408.646	65.36
408.855	73.56
409.064	71.51
409.272	14.17
409.481	102.23
409.69	10.07
409.898	-32.94
410.107	122.71
410.315	124.76
410.524	-34.99
410.733	77.65
410.941	34.64
411.15	104.28
411.358	112.47
411.567	202.58
411.775	3.93
411.984	147.28
412.192	106.32
412.401	94.04
412.609	216.91
412.818	122.71
413.026	171.86
413.234	34.64
413.443	85.84
413.651	12.12
413.86	-10.41
414.068	161.62
414.276	198.48
414.485	14.17
414.693	157.52
414.901	173.91
415.11	186.19
415.318	57.17
415.526	48.98
415.734	36.69
415.943	96.08
416.151	126.8
416.359	55.12
416.567	85.84
416.776	38.74
416.984	108.37
417.192	182.1
417.4	20.31
417.608	-16.55
417.817	44.88
418.025	165.71
418.233	151.38
418.441	55.12
418.649	-30.89
418.857	106.32
419.065	155.47
419.273	-34.99
419.481	96.08
419.689	108.37
419.897	22.36
420.105	38.74
420.313	120.66
420.521	198.48
420.729	122.71
420.937	-24.75
421.145	53.08
421.353	190.29
421.561	214.87
421.769	120.66
421.977	91.99
422.185	94.04
422.393	110.42
422.601	157.52
422.809	110.42
423.017	110.42
423.224	94.04
423.432	190.29
423.64	71.51
423.848	132.95
424.056	34.64
424.263	110.42
424.471	180.05
424.679	122.71
424.887	-10.41
425.094	249.68
425.302	135
425.51	98.13
425.718	116.56
425.925	137.04
426.133	-41.13
426.341	192.34
426.548	42.84
426.756	116.56
426.964	163.67
427.171	34.64
427.379	155.47
427.586	130.9
427.794	132.95
428.001	163.67
428.209	128.85
428.417	192.34
428.624	175.95
428.832	57.17
429.039	71.51
429.247	75.6
429.454	143.19
429.662	227.15
429.869	221.01
430.076	110.42
430.284	178
430.491	225.11
430.699	200.53
430.906	178
431.114	175.95
431.321	114.52
431.528	81.75
431.736	253.78
431.943	182.1
432.15	229.2
432.358	229.2
432.565	296.78
432.772	69.46
432.979	235.35
433.187	202.58
433.394	229.2
433.601	194.39
433.808	264.02
434.016	225.11
434.223	194.39
434.43	178
434.637	298.83
434.844	352.08
435.052	268.11
435.259	292.69
435.466	345.94
435.673	255.83
435.88	331.6
436.087	360.27
436.294	429.9
436.501	317.26
436.708	290.64
436.915	329.55
437.122	356.18
437.329	423.76
437.537	415.57
437.743	374.61
437.95	431.95
438.157	397.14
438.364	526.16
438.571	358.22
438.778	481.1
438.985	460.62
439.192	577.36
439.399	466.77
439.606	589.64
439.813	579.4
440.02	626.51
440.227	776.01
440.433	683.85
440.64	659.28
440.847	649.04
441.054	651.08
441.261	866.12
441.467	720.71
441.674	649.04
441.881	739.15
442.088	837.45
442.294	849.74
442.501	900.94
442.708	982.85
442.914	1003.33
443.121	964.42
443.328	997.19
443.534	1058.63
443.741	991.05
443.948	913.22
444.154	1181.51
444.361	1277.76
444.568	1189.7
444.774	1191.75
444.981	1193.8
445.187	1328.96
445.394	1406.78
445.6	1343.3
445.807	1492.8
446.013	1441.6
446.22	1429.31
446.426	1613.63
446.633	1699.64
446.839	1810.23
447.046	1611.58
447.252	1892.15
447.459	1810.23
447.665	1953.59
447.871	2092.85
448.078	2225.97
448.284	2146.1
448.491	2303.79
448.697	2348.85
448.903	2477.87
449.11	2545.45
449.316	2445.1
449.522	2684.72
449.728	2869.03
449.935	2934.57
450.141	2813.74
450.347	3120.93
450.553	2944.81
450.76	3249.96
450.966	3352.35
451.172	3483.42
451.378	3708.7
451.584	3565.34
451.791	3960.6
451.997	4048.66
452.203	4077.34
452.409	4325.14
452.615	4409.11
452.821	4421.39
453.027	4597.52
453.233	5007.11
453.44	5043.98
453.646	5101.32
453.852	5207.81
454.058	5699.33
454.264	5785.34
454.47	6072.06
454.676	6256.37
454.882	6762.22
455.088	6448.88
455.294	6735.6
455.5	7175.91
455.705	7593.7
455.911	7261.93
456.117	7698.14
456.323	8120.03
456.529	8122.07
456.735	8599.25
456.941	8937.16
457.147	9303.75
457.352	9680.58
457.558	9809.6
457.764	10692.27
457.97	10536.63
458.176	11138.73
458.381	11740.83
458.587	12101.28
458.793	12553.88
458.999	12555.93
459.204	14030.46
459.41	14345.85
459.616	14409.34
459.821	15107.69
460.027	15795.81
460.233	16731.73
460.438	16627.29
460.644	17206.86
460.85	17606.22
461.055	18193.98
461.261	19314.22
461.466	18748.98
461.672	19201.58
461.878	21446.16
462.083	21192.21
462.289	21683.72
462.494	22314.5
462.7	22861.3
462.905	23240.18
463.111	24876.51
463.316	26205.64
463.522	26551.74
463.727	27424.18
463.932	28388.77
464.138	29316.5
464.343	30461.32
464.549	30659.97
464.754	32761.19
464.959	33772.88
465.165	34604.36
465.37	34096.46
465.575	34260.3
465.781	36674.85
465.986	37340.44
466.191	37014.82
466.397	37313.82
466.602	36457.77
466.807	38601.99
467.012	39136.51
467.218	39996.66
467.423	39376.12
467.628	40946.92
467.833	42872.01
468.038	42343.63
468.244	41678.04
468.449	43527.36
468.654	42792.14
