Data from USB4F104151__38__10-42-41-881.txt Node

Date: Wed Feb 26 10:42:41 EST 2025
User: louis
Spectrometer: USB4F10415
Trigger mode: 4
Integration Time (sec): 1.000000E-1
Scans to average: 1
Electric dark correction enabled: true
Nonlinearity correction enabled: false
Boxcar width: 0
XAxis mode: Wavelengths
Number of Pixels in Spectrum: 3648
>>>>>Begin Spectral Data<<<<<
178.204	-351.4
178.424	-351.4
178.644	-351.4
178.864	-400.55
179.084	-326.82
179.304	-9.39
179.524	15.19
179.744	-13.48
179.964	-11.43
180.184	-56.49
180.404	88.92
180.624	-68.78
180.844	33.62
181.064	-11.43
181.283	33.62
181.503	-50.35
181.723	50
181.943	-13.48
182.163	209.75
182.383	2.9
182.602	121.68
182.822	187.22
183.042	-11.43
183.262	-1.19
183.482	-72.87
183.701	-66.73
183.921	19.29
184.141	-95.4
184.361	88.92
184.58	115.54
184.8	29.52
185.02	27.48
185.239	156.5
185.459	-1.19
185.679	113.49
185.898	-68.78
186.118	33.62
186.338	101.2
186.557	107.35
186.777	-17.58
186.997	19.29
187.216	39.76
187.436	199.51
187.655	64.34
187.875	99.16
188.095	93.01
188.314	199.51
188.534	123.73
188.753	-68.78
188.973	136.02
189.192	230.23
189.412	17.24
189.631	97.11
189.851	64.34
190.07	170.83
190.29	-54.44
190.509	-1.19
190.729	39.76
190.948	138.07
191.168	285.52
191.387	60.24
191.607	56.15
191.826	125.78
192.045	39.76
192.265	23.38
192.484	74.58
192.704	86.87
192.923	-79.02
193.142	168.79
193.362	101.2
193.581	179.03
193.8	52.05
194.02	86.87
194.239	60.24
194.458	4.95
194.678	41.81
194.897	-36.01
195.116	84.82
195.335	142.16
195.555	115.54
195.774	-11.43
195.993	88.92
196.212	47.96
196.432	50
196.651	84.82
196.87	33.62
197.089	219.99
197.308	62.29
197.528	125.78
197.747	39.76
197.966	35.67
198.185	129.88
198.404	-23.72
198.623	158.55
198.842	119.64
199.062	60.24
199.281	35.67
199.5	82.77
199.719	56.15
199.938	35.67
200.157	72.53
200.376	101.2
200.595	11.09
200.814	144.21
201.033	-3.24
201.252	119.64
201.471	166.74
201.69	37.72
201.909	88.92
202.128	131.92
202.347	148.31
202.566	-15.53
202.785	-89.26
203.004	-1.19
203.223	236.37
203.442	-42.15
203.661	-11.43
203.879	64.34
204.098	156.5
204.317	-48.3
204.536	50
204.755	95.06
204.974	93.01
205.193	-36.01
205.411	252.75
205.63	127.83
205.849	150.36
206.068	19.29
206.287	45.91
206.505	101.2
206.724	-9.39
206.943	-1.19
207.162	-21.67
207.381	111.44
207.599	52.05
207.818	43.86
208.037	54.1
208.255	90.96
208.474	23.38
208.693	64.34
208.911	70.48
209.13	64.34
209.349	82.77
209.567	72.53
209.786	103.25
210.005	95.06
210.223	117.59
210.442	-138.41
210.661	50
210.879	125.78
211.098	58.2
211.316	54.1
211.535	74.58
211.753	97.11
211.972	176.98
212.191	-29.87
212.409	66.39
212.628	121.68
212.846	74.58
213.065	90.96
213.283	160.59
213.502	-1.19
213.72	0.85
213.938	68.44
214.157	43.86
214.375	140.12
214.594	13.14
214.812	88.92
215.031	78.68
215.249	-19.63
215.467	15.19
215.686	9.05
215.904	138.07
216.122	21.33
216.341	115.54
216.559	60.24
216.778	90.96
216.996	160.59
217.214	19.29
217.432	-13.48
217.651	-44.2
217.869	111.44
218.087	35.67
218.306	23.38
218.524	88.92
218.742	62.29
218.96	86.87
219.179	52.05
219.397	52.05
219.615	267.09
219.833	131.92
220.051	-40.11
220.27	99.16
220.488	90.96
220.706	45.91
220.924	64.34
221.142	7
221.36	97.11
221.578	115.54
221.796	-11.43
222.015	-23.72
222.233	41.81
222.451	189.27
222.669	-7.34
222.887	86.87
223.105	-13.48
223.323	27.48
223.541	54.1
223.759	54.1
223.977	35.67
224.195	205.65
224.413	109.4
224.631	74.58
224.849	138.07
225.067	238.42
225.285	-17.58
225.503	58.2
225.721	-76.97
225.939	-25.77
226.157	86.87
226.375	346.96
226.592	7
226.81	33.62
227.028	176.98
227.246	156.5
227.464	52.05
227.682	121.68
227.9	105.3
228.117	52.05
228.335	58.2
228.553	105.3
228.771	86.87
228.989	45.91
229.206	33.62
229.424	-54.44
229.642	4.95
229.86	37.72
230.077	121.68
230.295	109.4
230.513	103.25
230.731	105.3
230.948	179.03
231.166	187.22
231.384	88.92
231.601	29.52
231.819	170.83
232.037	41.81
232.254	-83.11
232.472	64.34
232.689	31.57
232.907	140.12
233.125	9.05
233.342	27.48
233.56	7
233.777	-15.53
233.995	35.67
234.213	93.01
234.43	146.26
234.648	60.24
234.865	-17.58
235.083	125.78
235.3	95.06
235.518	84.82
235.735	138.07
235.953	9.05
236.17	99.16
236.388	109.4
236.605	29.52
236.822	144.21
237.04	82.77
237.257	41.81
237.475	-25.77
237.692	103.25
237.909	136.02
238.127	-33.96
238.344	95.06
238.562	174.93
238.779	-11.43
238.996	-62.63
239.214	146.26
239.431	146.26
239.648	37.72
239.865	148.31
240.083	17.24
240.3	70.48
240.517	11.09
240.735	70.48
240.952	197.46
241.169	109.4
241.386	158.55
241.603	82.77
241.821	-62.63
242.038	113.49
242.255	174.93
242.472	-89.26
242.689	62.29
242.907	142.16
243.124	103.25
243.341	37.72
243.558	-62.63
243.775	-29.87
243.992	-68.78
244.209	52.05
244.426	203.6
244.643	58.2
244.86	82.77
245.078	117.59
245.295	86.87
245.512	41.81
245.729	43.86
245.946	60.24
246.163	90.96
246.38	101.2
246.597	45.91
246.814	27.48
247.031	52.05
247.248	125.78
247.464	142.16
247.681	23.38
247.898	64.34
248.115	56.15
248.332	7
248.549	162.64
248.766	215.89
248.983	111.44
249.2	80.72
249.417	127.83
249.633	74.58
249.85	131.92
250.067	82.77
250.284	107.35
250.501	99.16
250.717	95.06
250.934	-68.78
251.151	-13.48
251.368	56.15
251.585	41.81
251.801	142.16
252.018	-44.2
252.235	191.31
252.451	-13.48
252.668	31.57
252.885	133.97
253.102	97.11
253.318	47.96
253.535	47.96
253.752	2.9
253.968	-29.87
254.185	-15.53
254.401	-13.48
254.618	60.24
254.835	62.29
255.051	176.98
255.268	62.29
255.484	115.54
255.701	50
255.917	66.39
256.134	31.57
256.351	58.2
256.567	52.05
256.784	88.92
257	-19.63
257.217	74.58
257.433	86.87
257.65	35.67
257.866	152.4
258.082	-40.11
258.299	45.91
258.515	129.88
258.732	-9.39
258.948	-60.59
259.165	90.96
259.381	-5.29
259.597	113.49
259.814	11.09
260.03	101.2
260.246	105.3
260.463	107.35
260.679	121.68
260.895	68.44
261.112	103.25
261.328	138.07
261.544	66.39
261.761	232.27
261.977	31.57
262.193	41.81
262.409	195.41
262.626	60.24
262.842	11.09
263.058	43.86
263.274	109.4
263.49	115.54
263.707	68.44
263.923	99.16
264.139	11.09
264.355	80.72
264.571	111.44
264.787	121.68
265.004	197.46
265.22	72.53
265.436	37.72
265.652	47.96
265.868	86.87
266.084	9.05
266.3	19.29
266.516	-79.02
266.732	64.34
266.948	70.48
267.164	-13.48
267.38	156.5
267.596	150.36
267.812	226.13
268.028	66.39
268.244	-17.58
268.46	2.9
268.676	9.05
268.892	109.4
269.108	66.39
269.324	-36.01
269.54	19.29
269.756	148.31
269.972	-25.77
270.188	39.76
270.403	-19.63
270.619	129.88
270.835	88.92
271.051	43.86
271.267	58.2
271.483	15.19
271.698	162.64
271.914	160.59
272.13	123.73
272.346	45.91
272.562	25.43
272.777	148.31
272.993	-19.63
273.209	60.24
273.425	136.02
273.64	-36.01
273.856	154.45
274.072	9.05
274.287	-46.25
274.503	64.34
274.719	107.35
274.934	33.62
275.15	-87.21
275.366	121.68
275.581	-11.43
275.797	17.24
276.012	64.34
276.228	41.81
276.444	4.95
276.659	127.83
276.875	-5.29
277.09	60.24
277.306	109.4
277.521	90.96
277.737	70.48
277.952	160.59
278.168	19.29
278.383	103.25
278.599	58.2
278.814	168.79
279.03	27.48
279.245	172.88
279.461	25.43
279.676	82.77
279.892	-13.48
280.107	-25.77
280.322	-46.25
280.538	74.58
280.753	80.72
280.969	56.15
281.184	54.1
281.399	179.03
281.615	29.52
281.83	103.25
282.045	-7.34
282.26	43.86
282.476	41.81
282.691	43.86
282.906	86.87
283.122	25.43
283.337	9.05
283.552	117.59
283.767	70.48
283.983	129.88
284.198	23.38
284.413	142.16
284.628	-27.82
284.843	35.67
285.058	88.92
285.274	62.29
285.489	23.38
285.704	113.49
285.919	82.77
286.134	29.52
286.349	78.68
286.564	84.82
286.779	191.31
286.995	41.81
287.21	4.95
287.425	111.44
287.64	33.62
287.855	101.2
288.07	-7.34
288.285	160.59
288.5	195.41
288.715	17.24
288.93	107.35
289.145	-31.91
289.36	111.44
289.575	39.76
289.79	158.55
290.004	27.48
290.219	138.07
290.434	-25.77
290.649	54.1
290.864	27.48
291.079	93.01
291.294	80.72
291.509	35.67
291.724	82.77
291.938	-23.72
292.153	80.72
292.368	37.72
292.583	156.5
292.798	50
293.012	17.24
293.227	127.83
293.442	68.44
293.657	95.06
293.871	160.59
294.086	123.73
294.301	195.41
294.516	176.98
294.73	111.44
294.945	0.85
295.16	54.1
295.374	125.78
295.589	127.83
295.804	93.01
296.018	127.83
296.233	179.03
296.447	146.26
296.662	-31.91
296.877	119.64
297.091	156.5
297.306	27.48
297.52	93.01
297.735	60.24
297.949	-1.19
298.164	125.78
298.378	66.39
298.593	0.85
298.807	4.95
299.022	25.43
299.236	179.03
299.451	31.57
299.665	68.44
299.88	54.1
300.094	80.72
300.309	62.29
300.523	109.4
300.737	60.24
300.952	52.05
301.166	52.05
301.381	4.95
301.595	43.86
301.809	21.33
302.024	9.05
302.238	-64.68
302.452	136.02
302.667	-3.24
302.881	217.94
303.095	224.08
303.309	50
303.524	37.72
303.738	-11.43
303.952	-13.48
304.166	58.2
304.381	-21.67
304.595	119.64
304.809	74.58
305.023	43.86
305.237	-23.72
305.452	66.39
305.666	164.69
305.88	109.4
306.094	80.72
306.308	191.31
306.522	224.08
306.736	101.2
306.95	158.55
307.164	0.85
307.379	-1.19
307.593	162.64
307.807	64.34
308.021	160.59
308.235	47.96
308.449	-64.68
308.663	105.3
308.877	246.61
309.091	68.44
309.305	111.44
309.519	-29.87
309.733	150.36
309.947	-40.11
310.161	148.31
310.374	136.02
310.588	133.97
310.802	-5.29
311.016	54.1
311.23	80.72
311.444	13.14
311.658	64.34
311.872	150.36
312.085	113.49
312.299	152.4
312.513	187.22
312.727	17.24
312.941	-5.29
313.154	107.35
313.368	95.06
313.582	84.82
313.796	136.02
314.009	60.24
314.223	101.2
314.437	45.91
314.651	119.64
314.864	58.2
315.078	11.09
315.292	23.38
315.505	84.82
315.719	127.83
315.933	160.59
316.146	-27.82
316.36	15.19
316.573	123.73
316.787	127.83
317.001	99.16
317.214	-25.77
317.428	76.63
317.641	13.14
317.855	29.52
318.068	70.48
318.282	88.92
318.495	197.46
318.709	158.55
318.922	90.96
319.136	197.46
319.349	113.49
319.563	-5.29
319.776	142.16
319.99	-87.21
320.203	136.02
320.417	-3.24
320.63	97.11
320.843	181.07
321.057	97.11
321.27	43.86
321.483	54.1
321.697	213.84
321.91	99.16
322.124	37.72
322.337	164.69
322.55	11.09
322.763	88.92
322.977	78.68
323.19	9.05
323.403	11.09
323.617	80.72
323.83	138.07
324.043	-1.19
324.256	121.68
324.469	-42.15
324.683	138.07
324.896	33.62
325.109	144.21
325.322	-60.59
325.535	101.2
325.748	133.97
325.962	142.16
326.175	82.77
326.388	43.86
326.601	90.96
326.814	107.35
327.027	113.49
327.24	107.35
327.453	-50.35
327.666	58.2
327.879	99.16
328.092	86.87
328.305	50
328.518	41.81
328.731	39.76
328.944	54.1
329.157	129.88
329.37	70.48
329.583	187.22
329.796	144.21
330.009	17.24
330.222	101.2
330.435	172.88
330.648	86.87
330.861	23.38
331.073	107.35
331.286	164.69
331.499	15.19
331.712	-29.87
331.925	103.25
332.138	86.87
332.35	117.59
332.563	47.96
332.776	181.07
332.989	50
333.202	0.85
333.414	21.33
333.627	99.16
333.84	21.33
334.053	97.11
334.265	-13.48
334.478	15.19
334.691	37.72
334.903	33.62
335.116	9.05
335.329	15.19
335.541	123.73
335.754	250.71
335.966	-15.53
336.179	25.43
336.392	-19.63
336.604	99.16
336.817	168.79
337.029	64.34
337.242	31.57
337.454	156.5
337.667	115.54
337.88	191.31
338.092	146.26
338.305	101.2
338.517	105.3
338.729	23.38
338.942	127.83
339.154	-13.48
339.367	-25.77
339.579	72.53
339.792	-7.34
340.004	93.01
340.217	64.34
340.429	11.09
340.641	-27.82
340.854	21.33
341.066	37.72
341.278	148.31
341.491	160.59
341.703	43.86
341.915	15.19
342.128	142.16
342.34	37.72
342.552	21.33
342.764	47.96
342.977	43.86
343.189	117.59
343.401	76.63
343.613	-68.78
343.826	56.15
344.038	7
344.25	90.96
344.462	-27.82
344.674	86.87
344.886	93.01
345.099	123.73
345.311	64.34
345.523	97.11
345.735	-25.77
345.947	117.59
346.159	72.53
346.371	121.68
346.583	72.53
346.795	181.07
347.007	-27.82
347.219	152.4
347.431	7
347.643	123.73
347.855	23.38
348.067	131.92
348.279	43.86
348.491	-23.72
348.703	119.64
348.915	56.15
349.127	7
349.339	76.63
349.551	-5.29
349.763	109.4
349.975	103.25
350.187	170.83
350.399	168.79
350.61	148.31
350.822	119.64
351.034	-1.19
351.246	80.72
351.458	74.58
351.669	109.4
351.881	60.24
352.093	95.06
352.305	222.03
352.517	101.2
352.728	213.84
352.94	86.87
353.152	191.31
353.363	-29.87
353.575	99.16
353.787	226.13
353.999	41.81
354.21	183.12
354.422	-25.77
354.633	7
354.845	50
355.057	95.06
355.268	152.4
355.48	156.5
355.692	74.58
355.903	25.43
356.115	-9.39
356.326	-72.87
356.538	240.47
356.749	119.64
356.961	205.65
357.172	9.05
357.384	-25.77
357.595	222.03
357.807	-19.63
358.018	37.72
358.23	121.68
358.441	164.69
358.653	64.34
358.864	54.1
359.075	17.24
359.287	70.48
359.498	105.3
359.709	93.01
359.921	107.35
360.132	107.35
360.344	90.96
360.555	50
360.766	52.05
360.977	15.19
361.189	217.94
361.4	19.29
361.611	97.11
361.823	129.88
362.034	56.15
362.245	-21.67
362.456	62.29
362.667	58.2
362.879	15.19
363.09	166.74
363.301	99.16
363.512	76.63
363.723	15.19
363.935	15.19
364.146	142.16
364.357	76.63
364.568	107.35
364.779	-17.58
364.99	191.31
365.201	31.57
365.412	140.12
365.623	70.48
365.834	64.34
366.045	82.77
366.256	117.59
366.467	111.44
366.678	-48.3
366.889	133.97
367.1	29.52
367.311	111.44
367.522	4.95
367.733	150.36
367.944	136.02
368.155	21.33
368.366	146.26
368.577	99.16
368.788	156.5
368.999	9.05
369.209	54.1
369.42	199.51
369.631	193.36
369.842	154.45
370.053	58.2
370.264	183.12
370.474	-42.15
370.685	54.1
370.896	127.83
371.107	154.45
371.317	72.53
371.528	37.72
371.739	158.55
371.95	113.49
372.16	109.4
372.371	41.81
372.582	103.25
372.792	74.58
373.003	131.92
373.214	160.59
373.424	103.25
373.635	-29.87
373.846	166.74
374.056	4.95
374.267	185.17
374.477	170.83
374.688	19.29
374.898	80.72
375.109	70.48
375.319	107.35
375.53	146.26
375.74	129.88
375.951	9.05
376.161	123.73
376.372	191.31
376.582	35.67
376.793	76.63
377.003	11.09
377.214	82.77
377.424	101.2
377.635	66.39
377.845	43.86
378.055	123.73
378.266	84.82
378.476	56.15
378.686	179.03
378.897	17.24
379.107	187.22
379.317	93.01
379.528	43.86
379.738	133.97
379.948	-7.34
380.158	109.4
380.369	60.24
380.579	74.58
380.789	72.53
380.999	7
381.21	88.92
381.42	219.99
381.63	84.82
381.84	176.98
382.05	131.92
382.261	111.44
382.471	142.16
382.681	52.05
382.891	242.51
383.101	156.5
383.311	27.48
383.521	52.05
383.731	133.97
383.941	144.21
384.151	105.3
384.361	52.05
384.571	144.21
384.781	111.44
384.991	162.64
385.201	195.41
385.411	109.4
385.621	68.44
385.831	84.82
386.041	76.63
386.251	152.4
386.461	144.21
386.671	37.72
386.881	80.72
387.091	39.76
387.301	119.64
387.511	113.49
387.72	99.16
387.93	72.53
388.14	-3.24
388.35	93.01
388.56	162.64
388.769	156.5
388.979	107.35
389.189	43.86
389.399	64.34
389.609	103.25
389.818	80.72
390.028	101.2
390.238	45.91
390.447	23.38
390.657	168.79
390.867	23.38
391.076	33.62
391.286	103.25
391.496	76.63
391.705	35.67
391.915	199.51
392.125	113.49
392.334	66.39
392.544	172.88
392.753	82.77
392.963	27.48
393.172	74.58
393.382	68.44
393.591	222.03
393.801	74.58
394.01	168.79
394.22	203.6
394.429	78.68
394.639	54.1
394.848	103.25
395.058	82.77
395.267	33.62
395.477	76.63
395.686	117.59
395.895	195.41
396.105	144.21
396.314	129.88
396.524	84.82
396.733	52.05
396.942	154.45
397.152	115.54
397.361	131.92
397.57	107.35
397.78	33.62
397.989	127.83
398.198	228.18
398.407	142.16
398.617	117.59
398.826	74.58
399.035	72.53
399.244	209.75
399.453	82.77
399.663	121.68
399.872	103.25
400.081	25.43
400.29	140.12
400.499	58.2
400.708	107.35
400.917	105.3
401.127	47.96
401.336	60.24
401.545	258.9
401.754	150.36
401.963	74.58
402.172	58.2
402.381	19.29
402.59	56.15
402.799	41.81
403.008	162.64
403.217	115.54
403.426	111.44
403.635	58.2
403.844	58.2
404.053	66.39
404.262	39.76
404.471	230.23
404.68	117.59
404.888	52.05
405.097	84.82
405.306	88.92
405.515	154.45
405.724	7
405.933	129.88
406.142	99.16
406.35	224.08
406.559	62.29
406.768	131.92
406.977	191.31
407.185	146.26
407.394	152.4
407.603	17.24
407.812	60.24
408.02	191.31
408.229	82.77
408.438	74.58
408.646	-13.48
408.855	45.91
409.064	131.92
409.272	45.91
409.481	170.83
409.69	9.05
409.898	58.2
410.107	123.73
410.315	215.89
410.524	86.87
410.733	164.69
410.941	41.81
411.15	164.69
411.358	123.73
411.567	162.64
411.775	107.35
411.984	90.96
412.192	105.3
412.401	25.43
412.609	252.75
412.818	224.08
413.026	158.55
413.234	72.53
413.443	107.35
413.651	17.24
413.86	-19.63
414.068	148.31
414.276	170.83
414.485	58.2
414.693	207.7
414.901	211.79
415.11	101.2
415.318	66.39
415.526	64.34
415.734	123.73
415.943	101.2
416.151	230.23
416.359	97.11
416.567	117.59
416.776	152.4
416.984	107.35
417.192	176.98
417.4	74.58
417.608	78.68
417.817	103.25
418.025	203.6
418.233	254.8
418.441	27.48
418.649	68.44
418.857	172.88
419.065	240.47
419.273	109.4
419.481	125.78
419.689	113.49
419.897	-5.29
420.105	103.25
420.313	133.97
420.521	166.74
420.729	111.44
420.937	60.24
421.145	97.11
421.353	195.41
421.561	234.32
421.769	125.78
421.977	29.52
422.185	146.26
422.393	103.25
422.601	199.51
422.809	101.2
423.017	148.31
423.224	162.64
423.432	174.93
423.64	103.25
423.848	193.36
424.056	33.62
424.263	273.23
424.471	33.62
424.679	197.46
424.887	76.63
425.094	236.37
425.302	150.36
425.51	129.88
425.718	168.79
425.925	140.12
426.133	56.15
426.341	234.32
426.548	168.79
426.756	70.48
426.964	297.81
427.171	191.31
427.379	144.21
427.586	138.07
427.794	244.56
428.001	232.27
428.209	187.22
428.417	273.23
428.624	117.59
428.832	191.31
429.039	211.79
429.247	195.41
429.454	238.42
429.662	400.21
429.869	144.21
430.076	193.36
430.284	232.27
430.491	293.71
430.699	232.27
430.906	224.08
431.114	267.09
431.321	289.62
431.528	207.7
431.736	260.95
431.943	238.42
432.15	267.09
432.358	275.28
432.565	441.17
432.772	133.97
432.979	357.2
433.187	277.33
433.394	322.38
433.601	281.43
433.808	383.82
434.016	443.21
434.223	439.12
434.43	398.16
434.637	428.88
434.844	518.99
435.052	428.88
435.259	478.03
435.466	469.84
435.673	478.03
435.88	535.37
436.087	518.99
436.294	527.18
436.501	521.04
436.708	492.37
436.915	537.42
437.122	633.68
437.329	559.95
437.537	555.85
437.743	609.1
437.95	717.64
438.157	594.76
438.364	639.82
438.571	652.11
438.778	793.42
438.985	781.13
439.192	838.47
439.399	756.55
439.606	805.71
439.813	889.67
440.02	1006.41
440.227	1092.42
440.433	1018.69
440.64	1071.94
440.847	944.97
441.054	1164.1
441.261	1223.49
441.467	1137.48
441.674	1133.38
441.881	1352.51
442.088	1227.59
442.294	1254.21
442.501	1291.07
442.708	1469.25
442.914	1450.82
443.121	1571.65
443.328	1483.58
443.534	1680.19
443.741	1735.48
443.948	1538.88
444.154	1731.39
444.361	1876.79
444.568	1919.8
444.774	2040.63
444.981	1968.95
445.187	2116.41
445.394	2183.99
445.6	2171.7
445.807	2501.42
446.013	2454.32
446.22	2313.01
446.426	2620.21
446.633	2833.19
446.839	2794.28
447.046	2777.9
447.252	3062.57
447.459	2956.07
447.665	3189.54
447.871	3230.5
448.078	3578.65
448.284	3457.82
448.491	3826.46
448.697	3975.96
448.903	4021.02
449.11	4283.16
449.316	4240.15
449.522	4590.35
449.728	4659.98
449.935	4813.58
450.141	4780.81
450.347	5128.97
450.553	5018.38
450.76	5227.27
450.966	5575.42
451.172	5491.46
451.378	5845.76
451.584	6048.51
451.791	6482.67
451.997	6611.7
452.203	6777.58
452.409	7070.44
452.615	7465.7
452.821	7334.63
453.027	7318.25
453.233	8241.88
453.44	7965.4
453.646	8530.64
453.852	8825.55
454.058	9231.05
454.264	9302.73
454.47	10023.61
454.676	10259.13
454.882	11029.17
455.088	10457.78
455.294	10988.21
455.5	11623.08
455.705	12567.19
455.911	12427.93
456.117	12970.64
456.323	13478.54
456.529	13462.15
456.735	14506.62
456.941	15041.14
457.147	15561.32
457.352	15979.11
457.558	16417.37
457.764	17257.04
457.97	18205.25
458.176	18571.83
458.381	19380.78
458.587	19716.65
458.793	20431.39
458.999	20726.3
459.204	23405.04
459.41	24525.28
459.616	23814.63
459.821	25536.98
460.027	26223.05
460.233	27285.94
460.438	27513.27
460.644	29249.94
460.85	29641.11
461.055	30562.69
461.261	31979.89
461.466	31334.78
461.672	32074.09
461.878	36045.1
462.083	35631.41
462.289	36020.53
462.494	37916.95
462.7	37835.03
462.905	38152.46
463.111	41392.35
463.316	43509.95
463.522	44232.88
463.727	45815.96
463.932	47372.42
464.138	48834.67
464.343	50583.63
464.549	50677.84
464.754	54366.23
464.959	56061.95
465.165	56434.68
465.37	56180.73
465.575	56254.46
465.781	59566.02
465.986	61134.77
466.191	60407.74
466.397	61179.82
466.602	59613.13
466.807	62910.36
467.012	63500.17
467.218	63770.5
467.423	63770.5
