Data from USB4F104151__229__11-06-16-726.txt Node

Date: Wed Feb 26 11:06:16 EST 2025
User: louis
Spectrometer: USB4F10415
Trigger mode: 4
Integration Time (sec): 1.000000E-1
Scans to average: 1
Electric dark correction enabled: true
Nonlinearity correction enabled: false
Boxcar width: 0
XAxis mode: Wavelengths
Number of Pixels in Spectrum: 3648
>>>>>Begin Spectral Data<<<<<
178.204	-364.88
178.424	-364.88
178.644	-364.88
178.864	-399.7
179.084	-401.74
179.304	-49.49
179.524	5.8
179.744	24.23
179.964	26.28
180.184	32.43
180.404	32.43
180.624	-35.16
180.844	46.76
181.064	-59.73
181.283	54.95
181.503	-24.92
181.723	-53.59
181.943	-53.59
182.163	218.79
182.383	-29.01
182.602	89.77
182.822	161.45
183.042	59.05
183.262	52.91
183.482	30.38
183.701	63.15
183.921	59.05
184.141	-26.96
184.361	75.43
184.58	73.39
184.8	5.8
185.02	-8.53
185.239	102.06
185.459	73.39
185.679	177.83
185.898	-51.54
186.118	73.39
186.338	73.39
186.557	22.19
186.777	-53.59
186.997	28.33
187.216	16.04
187.436	85.67
187.655	79.53
187.875	85.67
188.095	40.62
188.314	163.5
188.534	136.87
188.753	104.11
188.973	85.67
189.192	143.02
189.412	-12.63
189.631	32.43
189.851	87.72
190.07	177.83
190.29	-88.4
190.509	52.91
190.729	44.71
190.948	104.11
191.168	253.61
191.387	52.91
191.607	83.63
191.826	106.15
192.045	30.38
192.265	-51.54
192.484	34.47
192.704	-6.49
192.923	-49.49
193.142	181.93
193.362	-4.44
193.581	81.58
193.8	97.96
194.02	169.64
194.239	67.24
194.458	46.76
194.678	-78.16
194.897	32.43
195.116	112.3
195.335	32.43
195.555	38.57
195.774	16.04
195.993	136.87
196.212	32.43
196.432	-65.88
196.651	-10.58
196.87	24.23
197.089	259.75
197.308	7.85
197.528	67.24
197.747	-33.11
197.966	59.05
198.185	143.02
198.404	3.75
198.623	73.39
198.842	171.69
199.062	104.11
199.281	100.01
199.5	22.19
199.719	106.15
199.938	65.19
200.157	108.2
200.376	108.2
200.595	130.73
200.814	46.76
201.033	-20.82
201.252	157.35
201.471	9.9
201.69	32.43
201.909	30.38
202.128	106.15
202.347	9.9
202.566	77.48
202.785	-35.16
203.004	28.33
203.223	204.46
203.442	112.3
203.661	-33.11
203.879	77.48
204.098	71.34
204.317	38.57
204.536	40.62
204.755	149.16
204.974	128.68
205.193	-65.88
205.411	106.15
205.63	38.57
205.849	93.87
206.068	-4.44
206.287	-69.97
206.505	89.77
206.724	26.28
206.943	-55.64
207.162	-0.34
207.381	85.67
207.599	1.71
207.818	7.85
208.037	-29.01
208.255	67.24
208.474	73.39
208.693	13.99
208.911	9.9
209.13	116.39
209.349	44.71
209.567	97.96
209.786	134.82
210.005	130.73
210.223	32.43
210.442	-98.64
210.661	-14.68
210.879	7.85
211.098	57
211.316	30.38
211.535	89.77
211.753	-10.58
211.972	93.87
212.191	28.33
212.409	-47.44
212.628	206.5
212.846	3.75
213.065	93.87
213.283	136.87
213.502	-24.92
213.72	28.33
213.938	-0.34
214.157	44.71
214.375	104.11
214.594	11.95
214.812	30.38
215.031	48.81
215.249	44.71
215.467	34.47
215.686	46.76
215.904	108.2
216.122	3.75
216.341	163.5
216.559	52.91
216.778	34.47
216.996	153.26
217.214	16.04
217.432	30.38
217.651	-16.73
217.869	40.62
218.087	52.91
218.306	-37.2
218.524	54.95
218.742	50.86
218.96	120.49
219.179	-20.82
219.397	87.72
219.615	272.04
219.833	102.06
220.051	48.81
220.27	120.49
220.488	134.82
220.706	102.06
220.924	-14.68
221.142	30.38
221.36	73.39
221.578	163.5
221.796	32.43
222.015	5.8
222.233	44.71
222.451	149.16
222.669	-35.16
222.887	61.1
223.105	36.52
223.323	32.43
223.541	-76.12
223.759	54.95
223.977	11.95
224.195	167.59
224.413	136.87
224.631	5.8
224.849	112.3
225.067	218.79
225.285	40.62
225.503	-0.34
225.721	-149.84
225.939	-59.73
226.157	46.76
226.375	237.22
226.592	9.9
226.81	38.57
227.028	130.73
227.246	186.02
227.464	9.9
227.682	173.74
227.9	63.15
228.117	81.58
228.335	36.52
228.553	-14.68
228.771	34.47
228.989	79.53
229.206	46.76
229.424	22.19
229.642	16.04
229.86	3.75
230.077	112.3
230.295	77.48
230.513	114.34
230.731	63.15
230.948	214.7
231.166	138.92
231.384	106.15
231.601	-41.3
231.819	243.37
232.037	9.9
232.254	-31.06
232.472	44.71
232.689	44.71
232.907	147.11
233.125	3.75
233.342	65.19
233.56	11.95
233.777	-49.49
233.995	36.52
234.213	110.25
234.43	95.91
234.648	67.24
234.865	30.38
235.083	46.76
235.3	-65.88
235.518	87.72
235.735	165.54
235.953	54.95
236.17	20.14
236.388	32.43
236.605	20.14
236.822	134.82
237.04	118.44
237.257	130.73
237.475	-33.11
237.692	50.86
237.909	7.85
238.127	-4.44
238.344	71.34
238.562	44.71
238.779	-14.68
238.996	-35.16
239.214	32.43
239.431	36.52
239.648	-49.49
239.865	85.67
240.083	69.29
240.3	-4.44
240.517	-45.4
240.735	54.95
240.952	79.53
241.169	140.97
241.386	26.28
241.603	89.77
241.821	-33.11
242.038	81.58
242.255	79.53
242.472	36.52
242.689	30.38
242.907	106.15
243.124	87.72
243.341	120.49
243.558	-72.02
243.775	-33.11
243.992	-16.73
244.209	16.04
244.426	235.18
244.643	87.72
244.86	36.52
245.078	106.15
245.295	91.82
245.512	52.91
245.729	-18.77
245.946	32.43
246.163	-33.11
246.38	3.75
246.597	95.91
246.814	59.05
247.031	40.62
247.248	85.67
247.464	145.06
247.681	-33.11
247.898	54.95
248.115	116.39
248.332	13.99
248.549	151.21
248.766	63.15
248.983	155.3
249.2	106.15
249.417	89.77
249.633	18.09
249.85	87.72
250.067	26.28
250.284	18.09
250.501	38.57
250.717	46.76
250.934	-12.63
251.151	44.71
251.368	65.19
251.585	85.67
251.801	67.24
252.018	-29.01
252.235	149.16
252.451	-119.12
252.668	-37.2
252.885	138.92
253.102	112.3
253.318	-10.58
253.535	16.04
253.752	1.71
253.968	13.99
254.185	-92.5
254.401	85.67
254.618	100.01
254.835	11.95
255.051	138.92
255.268	22.19
255.484	69.29
255.701	22.19
255.917	106.15
256.134	-47.44
256.351	11.95
256.567	32.43
256.784	108.2
257	9.9
257.217	104.11
257.433	110.25
257.65	95.91
257.866	136.87
258.082	-12.63
258.299	13.99
258.515	73.39
258.732	65.19
258.948	-49.49
259.165	112.3
259.381	-35.16
259.597	36.52
259.814	30.38
260.03	-0.34
260.246	-2.39
260.463	93.87
260.679	16.04
260.895	106.15
261.112	34.47
261.328	126.63
261.544	-14.68
261.761	132.78
261.977	-14.68
262.193	36.52
262.409	110.25
262.626	63.15
262.842	18.09
263.058	-18.77
263.274	5.8
263.49	38.57
263.707	120.49
263.923	75.43
264.139	-61.78
264.355	28.33
264.571	126.63
264.787	93.87
265.004	210.6
265.22	93.87
265.436	59.05
265.652	38.57
265.868	-10.58
266.084	-22.87
266.3	85.67
266.516	-63.83
266.732	73.39
266.948	-35.16
267.164	9.9
267.38	114.34
267.596	38.57
267.812	134.82
268.028	32.43
268.244	69.29
268.46	28.33
268.676	67.24
268.892	69.29
269.108	-78.16
269.324	-20.82
269.54	3.75
269.756	149.16
269.972	-45.4
270.188	40.62
270.403	-88.4
270.619	-4.44
270.835	11.95
271.051	44.71
271.267	34.47
271.483	22.19
271.698	124.58
271.914	69.29
272.13	126.63
272.346	-22.87
272.562	30.38
272.777	130.73
272.993	-6.49
273.209	24.23
273.425	120.49
273.64	-72.02
273.856	102.06
274.072	16.04
274.287	34.47
274.503	48.81
274.719	106.15
274.934	-0.34
275.15	-10.58
275.366	26.28
275.581	-57.68
275.797	95.91
276.012	100.01
276.228	30.38
276.444	95.91
276.659	161.45
276.875	-24.92
277.09	36.52
277.306	34.47
277.521	13.99
277.737	59.05
277.952	110.25
278.168	54.95
278.383	57
278.599	16.04
278.814	85.67
279.03	32.43
279.245	140.97
279.461	32.43
279.676	20.14
279.892	-43.35
280.107	52.91
280.322	-10.58
280.538	42.67
280.753	20.14
280.969	77.48
281.184	32.43
281.399	165.54
281.615	36.52
281.83	50.86
282.045	-22.87
282.26	46.76
282.476	46.76
282.691	59.05
282.906	104.11
283.122	89.77
283.337	-29.01
283.552	108.2
283.767	-10.58
283.983	46.76
284.198	-8.53
284.413	83.63
284.628	-20.82
284.843	95.91
285.058	75.43
285.274	32.43
285.489	-82.26
285.704	161.45
285.919	16.04
286.134	85.67
286.349	28.33
286.564	-0.34
286.779	126.63
286.995	3.75
287.21	-18.77
287.425	1.71
287.64	-35.16
287.855	108.2
288.07	-4.44
288.285	83.63
288.5	145.06
288.715	40.62
288.93	69.29
289.145	-41.3
289.36	73.39
289.575	-72.02
289.79	140.97
290.004	61.1
290.219	108.2
290.434	-26.96
290.649	32.43
290.864	30.38
291.079	-47.44
291.294	65.19
291.509	81.58
291.724	61.1
291.938	34.47
292.153	52.91
292.368	-37.2
292.583	97.96
292.798	36.52
293.012	128.68
293.227	57
293.442	32.43
293.657	71.34
293.871	120.49
294.086	59.05
294.301	130.73
294.516	140.97
294.73	61.1
294.945	-49.49
295.16	24.23
295.374	95.91
295.589	120.49
295.804	-29.01
296.018	77.48
296.233	95.91
296.447	65.19
296.662	7.85
296.877	110.25
297.091	128.68
297.306	9.9
297.52	-22.87
297.735	26.28
297.949	3.75
298.164	24.23
298.378	59.05
298.593	-72.02
298.807	-41.3
299.022	120.49
299.236	116.39
299.451	-20.82
299.665	40.62
299.88	-29.01
300.094	63.15
300.309	-31.06
300.523	93.87
300.737	-14.68
300.952	26.28
301.166	77.48
301.381	9.9
301.595	1.71
301.809	63.15
302.024	50.86
302.238	5.8
302.452	95.91
302.667	79.53
302.881	114.34
303.095	136.87
303.309	81.58
303.524	-20.82
303.738	42.67
303.952	-18.77
304.166	112.3
304.381	-67.92
304.595	188.07
304.809	54.95
305.023	112.3
305.237	-14.68
305.452	83.63
305.666	65.19
305.88	114.34
306.094	61.1
306.308	93.87
306.522	32.43
306.736	104.11
306.95	134.82
307.164	46.76
307.379	13.99
307.593	122.54
307.807	165.54
308.021	-2.39
308.235	89.77
308.449	-151.89
308.663	32.43
308.877	229.03
309.091	36.52
309.305	54.95
309.519	-88.4
309.733	173.74
309.947	-39.25
310.161	116.39
310.374	67.24
310.588	85.67
310.802	26.28
311.016	-78.16
311.23	54.95
311.444	3.75
311.658	-35.16
311.872	159.4
312.085	104.11
312.299	95.91
312.513	114.34
312.727	73.39
312.941	-74.07
313.154	1.71
313.368	16.04
313.582	63.15
313.796	52.91
314.009	32.43
314.223	175.78
314.437	50.86
314.651	104.11
314.864	16.04
315.078	34.47
315.292	-33.11
315.505	13.99
315.719	44.71
315.933	85.67
316.146	22.19
316.36	36.52
316.573	77.48
316.787	65.19
317.001	100.01
317.214	-4.44
317.428	83.63
317.641	-63.83
317.855	18.09
318.068	-16.73
318.282	95.91
318.495	128.68
318.709	36.52
318.922	75.43
319.136	200.36
319.349	73.39
319.563	48.81
319.776	89.77
319.99	-65.88
320.203	93.87
320.417	75.43
320.63	18.09
320.843	196.26
321.057	20.14
321.27	7.85
321.483	122.54
321.697	157.35
321.91	46.76
322.124	104.11
322.337	102.06
322.55	-49.49
322.763	18.09
322.977	77.48
323.19	-6.49
323.403	67.24
323.617	67.24
323.83	50.86
324.043	11.95
324.256	79.53
324.469	13.99
324.683	-4.44
324.896	5.8
325.109	54.95
325.322	-59.73
325.535	147.11
325.748	81.58
325.962	3.75
326.175	63.15
326.388	26.28
326.601	102.06
326.814	26.28
327.027	89.77
327.24	188.07
327.453	-72.02
327.666	65.19
327.879	34.47
328.092	26.28
328.305	38.57
328.518	-14.68
328.731	57
328.944	26.28
329.157	132.78
329.37	-14.68
329.583	231.08
329.796	169.64
330.009	-51.54
330.222	32.43
330.435	89.77
330.648	57
330.861	81.58
331.073	87.72
331.286	91.82
331.499	65.19
331.712	-29.01
331.925	13.99
332.138	67.24
332.35	116.39
332.563	24.23
332.776	188.07
332.989	-47.44
333.202	79.53
333.414	26.28
333.627	-67.92
333.84	-16.73
334.053	79.53
334.265	-41.3
334.478	93.87
334.691	116.39
334.903	95.91
335.116	38.57
335.329	30.38
335.541	97.96
335.754	196.26
335.966	26.28
336.179	40.62
336.392	13.99
336.604	65.19
336.817	87.72
337.029	5.8
337.242	79.53
337.454	112.3
337.667	-10.58
337.88	97.96
338.092	73.39
338.305	77.48
338.517	-0.34
338.729	42.67
338.942	110.25
339.154	5.8
339.367	-57.68
339.579	87.72
339.792	-0.34
340.004	120.49
340.217	18.09
340.429	106.15
340.641	30.38
340.854	24.23
341.066	-8.53
341.278	145.06
341.491	157.35
341.703	28.33
341.915	28.33
342.128	104.11
342.34	44.71
342.552	-53.59
342.764	32.43
342.977	30.38
343.189	50.86
343.401	95.91
343.613	-2.39
343.826	40.62
344.038	-74.07
344.25	9.9
344.462	-2.39
344.674	20.14
344.886	-0.34
345.099	57
345.311	67.24
345.523	52.91
345.735	-47.44
345.947	67.24
346.159	42.67
346.371	18.09
346.583	-2.39
346.795	186.02
347.007	20.14
347.219	112.3
347.431	57
347.643	171.69
347.855	-6.49
348.067	155.3
348.279	-76.12
348.491	48.81
348.703	106.15
348.915	-8.53
349.127	-6.49
349.339	-18.77
349.551	61.1
349.763	143.02
349.975	-0.34
350.187	138.92
350.399	140.97
350.61	120.49
350.822	-16.73
351.034	106.15
351.246	-35.16
351.458	48.81
351.669	93.87
351.881	114.34
352.093	171.69
352.305	132.78
352.517	97.96
352.728	134.82
352.94	100.01
353.152	59.05
353.363	-24.92
353.575	167.59
353.787	91.82
353.999	132.78
354.21	173.74
354.422	67.24
354.633	-2.39
354.845	22.19
355.057	1.71
355.268	20.14
355.48	153.26
355.692	-57.68
355.903	20.14
356.115	13.99
356.326	-102.74
356.538	97.96
356.749	57
356.961	159.4
357.172	30.38
357.384	-51.54
357.595	183.98
357.807	1.71
358.018	42.67
358.23	-22.87
358.441	208.55
358.653	89.77
358.864	20.14
359.075	18.09
359.287	128.68
359.498	79.53
359.709	95.91
359.921	-10.58
360.132	124.58
360.344	97.96
360.555	61.1
360.766	32.43
360.977	13.99
361.189	167.59
361.4	57
361.611	48.81
361.823	145.06
362.034	44.71
362.245	-69.97
362.456	102.06
362.667	100.01
362.879	7.85
363.09	59.05
363.301	95.91
363.512	-10.58
363.723	-59.73
363.935	-53.59
364.146	110.25
364.357	48.81
364.568	13.99
364.779	-69.97
364.99	122.54
365.201	-8.53
365.412	44.71
365.623	-26.96
365.834	120.49
366.045	38.57
366.256	97.96
366.467	81.58
366.678	-20.82
366.889	69.29
367.1	13.99
367.311	83.63
367.522	-24.92
367.733	97.96
367.944	124.58
368.155	89.77
368.366	89.77
368.577	165.54
368.788	136.87
368.999	24.23
369.209	36.52
369.42	167.59
369.631	134.82
369.842	206.5
370.053	-0.34
370.264	138.92
370.474	46.76
370.685	69.29
370.896	13.99
371.107	132.78
371.317	54.95
371.528	13.99
371.739	38.57
371.95	77.48
372.16	30.38
372.371	9.9
372.582	32.43
372.792	138.92
373.003	79.53
373.214	93.87
373.424	130.73
373.635	-26.96
373.846	136.87
374.056	26.28
374.267	36.52
374.477	57
374.688	-18.77
374.898	100.01
375.109	75.43
375.319	124.58
375.53	138.92
375.74	108.2
375.951	13.99
376.161	22.19
376.372	134.82
376.582	50.86
376.793	24.23
377.003	-63.83
377.214	-6.49
377.424	83.63
377.635	-2.39
377.845	87.72
378.055	71.34
378.266	-61.78
378.476	-2.39
378.686	46.76
378.897	65.19
379.107	79.53
379.317	48.81
379.528	54.95
379.738	5.8
379.948	-35.16
380.158	77.48
380.369	28.33
380.579	118.44
380.789	7.85
380.999	175.78
381.21	128.68
381.42	163.5
381.63	5.8
381.84	157.35
382.05	112.3
382.261	128.68
382.471	22.19
382.681	9.9
382.891	210.6
383.101	83.63
383.311	-47.44
383.521	16.04
383.731	83.63
383.941	42.67
384.151	42.67
384.361	-8.53
384.571	77.48
384.781	87.72
384.991	212.65
385.201	171.69
385.411	93.87
385.621	67.24
385.831	13.99
386.041	63.15
386.251	22.19
386.461	114.34
386.671	20.14
386.881	124.58
387.091	81.58
387.301	116.39
387.511	34.47
387.72	120.49
387.93	40.62
388.14	-57.68
388.35	32.43
388.56	122.54
388.769	161.45
388.979	108.2
389.189	26.28
389.399	22.19
389.609	108.2
389.818	104.11
390.028	7.85
390.238	30.38
390.447	-10.58
390.657	-8.53
390.867	69.29
391.076	-24.92
391.286	138.92
391.496	-0.34
391.705	75.43
391.915	102.06
392.125	83.63
392.334	-14.68
392.544	196.26
392.753	77.48
392.963	22.19
393.172	20.14
393.382	59.05
393.591	126.63
393.801	-35.16
394.01	93.87
394.22	75.43
394.429	28.33
394.639	79.53
394.848	89.77
395.058	20.14
395.267	38.57
395.477	167.59
395.686	42.67
395.895	210.6
396.105	265.89
396.314	73.39
396.524	48.81
396.733	5.8
396.942	83.63
397.152	59.05
397.361	138.92
397.57	16.04
397.78	-8.53
397.989	112.3
398.198	196.26
398.407	26.28
398.617	-8.53
398.826	40.62
399.035	36.52
399.244	116.39
399.453	52.91
399.663	140.97
399.872	38.57
400.081	-37.2
400.29	87.72
400.499	-2.39
400.708	65.19
400.917	-41.3
401.127	116.39
401.336	-57.68
401.545	231.08
401.754	85.67
401.963	122.54
402.172	20.14
402.381	-43.35
402.59	77.48
402.799	81.58
403.008	59.05
403.217	54.95
403.426	44.71
403.635	-8.53
403.844	48.81
404.053	48.81
404.262	79.53
404.471	124.58
404.68	87.72
404.888	54.95
405.097	-31.06
405.306	40.62
405.515	73.39
405.724	-8.53
405.933	138.92
406.142	95.91
406.35	114.34
406.559	9.9
406.768	48.81
406.977	222.89
407.185	42.67
407.394	77.48
407.603	-31.06
407.812	46.76
408.02	122.54
408.229	16.04
408.438	3.75
408.646	-22.87
408.855	3.75
409.064	26.28
409.272	11.95
409.481	122.54
409.69	16.04
409.898	-82.26
410.107	50.86
410.315	116.39
410.524	-18.77
410.733	77.48
410.941	24.23
411.15	106.15
411.358	116.39
411.567	138.92
411.775	79.53
411.984	18.09
412.192	91.82
412.401	-24.92
412.609	138.92
412.818	157.35
413.026	36.52
413.234	5.8
413.443	69.29
413.651	16.04
413.86	48.81
414.068	136.87
414.276	224.94
414.485	-16.73
414.693	188.07
414.901	149.16
415.11	22.19
415.318	124.58
415.526	48.81
415.734	95.91
415.943	65.19
416.151	116.39
416.359	22.19
416.567	97.96
416.776	54.95
416.984	132.78
417.192	186.02
417.4	28.33
417.608	13.99
417.817	-31.06
418.025	97.96
418.233	181.93
418.441	-49.49
418.649	-37.2
418.857	81.58
419.065	95.91
419.273	-20.82
419.481	77.48
419.689	77.48
419.897	-2.39
420.105	-20.82
420.313	57
420.521	163.5
420.729	118.44
420.937	-51.54
421.145	9.9
421.353	147.11
421.561	181.93
421.769	77.48
421.977	13.99
422.185	95.91
422.393	81.58
422.601	183.98
422.809	83.63
423.017	87.72
423.224	153.26
423.432	100.01
423.64	75.43
423.848	138.92
424.056	1.71
424.263	91.82
424.471	20.14
424.679	222.89
424.887	-12.63
425.094	157.35
425.302	106.15
425.51	34.47
425.718	128.68
425.925	63.15
426.133	69.29
426.341	233.13
426.548	-2.39
426.756	20.14
426.964	73.39
427.171	34.47
427.379	112.3
427.586	75.43
427.794	63.15
428.001	155.3
428.209	75.43
428.417	100.01
428.624	138.92
428.832	136.87
429.039	130.73
429.247	87.72
429.454	153.26
429.662	290.47
429.869	130.73
430.076	63.15
430.284	136.87
430.491	302.76
430.699	138.92
430.906	208.55
431.114	46.76
431.321	186.02
431.528	222.89
431.736	114.34
431.943	108.2
432.15	226.98
432.358	134.82
432.565	206.5
432.772	-69.97
432.979	198.31
433.187	175.78
433.394	196.26
433.601	108.2
433.808	220.84
434.016	257.7
434.223	276.13
434.43	192.17
434.637	280.23
434.844	321.19
435.052	231.08
435.259	313
435.466	245.41
435.673	259.75
435.88	310.95
436.087	288.42
436.294	343.72
436.501	339.62
436.708	216.74
436.915	269.99
437.122	429.73
437.329	294.57
437.537	345.77
437.743	323.24
437.95	396.96
438.157	380.58
438.364	437.92
438.571	366.25
438.778	372.39
438.985	507.55
439.192	452.26
439.399	427.68
439.606	433.83
439.813	595.62
440.02	601.76
440.227	732.83
440.433	525.99
440.64	507.55
440.847	552.61
441.054	652.96
441.261	691.87
441.467	585.38
441.674	601.76
441.881	755.36
442.088	603.81
442.294	726.69
442.501	687.78
442.708	812.7
442.914	693.92
443.121	865.95
443.328	904.86
443.534	820.89
443.741	900.76
443.948	868
444.154	947.87
444.361	1160.86
444.568	949.92
444.774	1042.07
444.981	1015.45
445.187	1320.6
445.394	1185.43
445.6	1072.79
445.807	1343.13
446.013	1298.07
446.22	1224.34
446.426	1398.42
446.633	1416.85
446.839	1603.22
447.046	1423
447.252	1646.23
447.459	1592.98
447.665	1511.06
447.871	1740.43
448.078	1918.61
448.284	1896.08
448.491	1967.76
448.697	2182.79
448.903	2068.11
449.11	2168.46
449.316	2190.99
449.522	2377.35
449.728	2365.06
449.935	2543.24
450.141	2465.41
450.347	2725.51
450.553	2649.73
450.76	2723.46
450.966	2979.45
451.172	3051.13
451.378	3106.43
451.584	3225.21
451.791	3364.47
451.997	3632.76
452.203	3493.49
452.409	3718.77
452.615	3913.33
452.821	3718.77
453.027	3929.71
453.233	4324.97
453.44	4177.51
453.646	4382.31
453.852	4701.79
454.058	4820.58
454.264	4865.63
454.47	5250.65
454.676	5373.53
454.882	5598.81
455.088	5475.93
455.294	5801.55
455.5	6239.82
455.705	6616.65
455.911	6356.55
456.117	6544.97
456.323	6977.09
456.529	6831.68
456.735	7743.03
456.941	7769.65
457.147	7970.35
457.352	8287.79
457.558	8570.41
457.764	9047.58
457.97	9434.65
458.176	9743.89
458.381	10083.86
458.587	10333.71
458.793	10843.65
458.999	10632.71
459.204	12248.56
459.41	12475.88
459.616	12445.16
459.821	13264.35
460.027	13544.92
460.233	14202.32
460.438	14235.09
460.644	15373.76
460.85	15455.68
461.055	15898.04
461.261	16784.81
461.466	16297.39
461.672	16971.18
461.878	18974.09
462.083	18507.15
462.289	18906.51
462.494	19694.97
462.7	19920.25
462.905	20237.69
463.111	21886.3
463.316	22762.83
463.522	23125.32
463.727	24188.22
463.932	25003.31
464.138	25990.43
464.343	26817.81
464.549	26934.54
464.754	28792.05
464.959	29588.71
465.165	30184.67
465.37	30008.54
465.575	29965.54
465.781	31741.13
465.986	32896.18
466.191	32203.97
466.397	32685.24
466.602	32085.19
466.807	33717.42
467.012	34346.14
467.218	34540.7
467.423	35126.42
467.628	36070.53
467.833	38171.75
468.038	37270.64
468.244	36095.11
468.449	38268
468.654	37309.55
468.859	37272.69
