Data from USB4F104151__161__11-04-42-936.txt Node

Date: Wed Feb 26 11:04:42 EST 2025
User: louis
Spectrometer: USB4F10415
Trigger mode: 4
Integration Time (sec): 1.000000E-1
Scans to average: 1
Electric dark correction enabled: true
Nonlinearity correction enabled: false
Boxcar width: 0
XAxis mode: Wavelengths
Number of Pixels in Spectrum: 3648
>>>>>Begin Spectral Data<<<<<
178.204	-392.87
178.424	-392.87
178.644	-392.87
178.864	-351.91
179.084	-423.59
179.304	14.68
179.524	18.77
179.744	2.39
179.964	-59.05
180.184	43.35
180.404	61.78
180.624	31.06
180.844	-26.28
181.064	-97.96
181.283	4.44
181.503	-36.52
181.723	43.35
181.943	-50.86
182.163	221.52
182.383	12.63
182.602	59.73
182.822	94.55
183.042	80.21
183.262	20.82
183.482	67.92
183.701	-9.9
183.921	18.77
184.141	49.49
184.361	49.49
184.58	96.6
184.8	84.31
185.02	-26.28
185.239	155.99
185.459	59.73
185.679	141.65
185.898	-54.95
186.118	29.01
186.338	84.31
186.557	82.26
186.777	-26.28
186.997	-50.86
187.216	78.16
187.436	256.34
187.655	45.4
187.875	51.54
188.095	55.64
188.314	252.24
188.534	84.31
188.753	8.53
188.973	141.65
189.192	168.27
189.412	0.34
189.631	37.2
189.851	80.21
190.07	104.79
190.29	-57
190.509	18.77
190.729	14.68
190.948	106.84
191.168	287.06
191.387	-13.99
191.607	69.97
191.826	139.6
192.045	88.4
192.265	-44.71
192.484	121.17
192.704	57.68
192.923	-42.67
193.142	141.65
193.362	88.4
193.581	78.16
193.8	115.03
194.02	129.36
194.239	80.21
194.458	76.12
194.678	2.39
194.897	29.01
195.116	121.17
195.335	51.54
195.555	98.64
195.774	-30.38
195.993	155.99
196.212	29.01
196.432	108.88
196.651	-16.04
196.87	49.49
197.089	250.19
197.308	67.92
197.528	135.51
197.747	-57
197.966	33.11
198.185	102.74
198.404	8.53
198.623	104.79
198.842	139.6
199.062	158.03
199.281	117.08
199.5	88.4
199.719	145.75
199.938	65.88
200.157	149.84
200.376	211.28
200.595	149.84
200.814	61.78
201.033	67.92
201.252	145.75
201.471	59.73
201.69	98.64
201.909	24.92
202.128	164.18
202.347	108.88
202.566	67.92
202.785	-38.57
203.004	92.5
203.223	264.53
203.442	96.6
203.661	29.01
203.879	170.32
204.098	194.9
204.317	37.2
204.536	115.03
204.755	121.17
204.974	145.75
205.193	35.16
205.411	92.5
205.63	96.6
205.849	94.55
206.068	31.06
206.287	-38.57
206.505	145.75
206.724	12.63
206.943	-46.76
207.162	-22.19
207.381	164.18
207.599	55.64
207.818	35.16
208.037	-3.75
208.255	98.64
208.474	57.68
208.693	129.36
208.911	108.88
209.13	51.54
209.349	145.75
209.567	80.21
209.786	45.4
210.005	182.61
210.223	12.63
210.442	-124.58
210.661	76.12
210.879	18.77
211.098	69.97
211.316	31.06
211.535	20.82
211.753	53.59
211.972	94.55
212.191	72.02
212.409	2.39
212.628	57.68
212.846	96.6
213.065	10.58
213.283	160.08
213.502	55.64
213.72	53.59
213.938	-3.75
214.157	94.55
214.375	102.74
214.594	4.44
214.812	35.16
215.031	10.58
215.249	29.01
215.467	-11.95
215.686	45.4
215.904	55.64
216.122	43.35
216.341	155.99
216.559	110.93
216.778	168.27
216.996	108.88
217.214	29.01
217.432	-20.14
217.651	51.54
217.869	69.97
218.087	18.77
218.306	-24.23
218.524	72.02
218.742	45.4
218.96	141.65
219.179	84.31
219.397	104.79
219.615	219.47
219.833	172.37
220.051	-85.67
220.27	112.98
220.488	55.64
220.706	100.69
220.924	76.12
221.142	-24.23
221.36	86.36
221.578	82.26
221.796	55.64
222.015	96.6
222.233	37.2
222.451	192.85
222.669	-30.38
222.887	147.8
223.105	55.64
223.323	33.11
223.541	-26.28
223.759	22.87
223.977	-24.23
224.195	188.75
224.413	96.6
224.631	86.36
224.849	61.78
225.067	158.03
225.285	-18.09
225.503	131.41
225.721	-63.15
225.939	24.92
226.157	141.65
226.375	235.86
226.592	69.97
226.81	-26.28
227.028	121.17
227.246	192.85
227.464	8.53
227.682	143.7
227.9	143.7
228.117	125.27
228.335	69.97
228.553	108.88
228.771	74.07
228.989	-20.14
229.206	106.84
229.424	4.44
229.642	88.4
229.86	-42.67
230.077	192.85
230.295	69.97
230.513	123.22
230.731	100.69
230.948	221.52
231.166	221.52
231.384	84.31
231.601	16.73
231.819	176.47
232.037	63.83
232.254	-7.85
232.472	51.54
232.689	-24.23
232.907	170.32
233.125	49.49
233.342	4.44
233.56	49.49
233.777	6.49
233.995	8.53
234.213	123.22
234.43	-24.23
234.648	-3.75
234.865	-3.75
235.083	26.96
235.3	55.64
235.518	158.03
235.735	133.46
235.953	26.96
236.17	90.45
236.388	106.84
236.605	45.4
236.822	90.45
237.04	155.99
237.257	72.02
237.475	-7.85
237.692	94.55
237.909	131.41
238.127	76.12
238.344	104.79
238.562	47.44
238.779	22.87
238.996	-83.63
239.214	69.97
239.431	151.89
239.648	-65.19
239.865	90.45
240.083	84.31
240.3	-1.71
240.517	24.92
240.735	18.77
240.952	170.32
241.169	61.78
241.386	49.49
241.603	55.64
241.821	-48.81
242.038	119.12
242.255	166.23
242.472	-48.81
242.689	92.5
242.907	67.92
243.124	72.02
243.341	82.26
243.558	-28.33
243.775	-44.71
243.992	-44.71
244.209	67.92
244.426	170.32
244.643	98.64
244.86	-16.04
245.078	104.79
245.295	47.44
245.512	55.64
245.729	0.34
245.946	57.68
246.163	51.54
246.38	51.54
246.597	57.68
246.814	22.87
247.031	74.07
247.248	35.16
247.464	112.98
247.681	33.11
247.898	141.65
248.115	106.84
248.332	-26.28
248.549	176.47
248.766	182.61
248.983	4.44
249.2	92.5
249.417	61.78
249.633	108.88
249.85	37.2
250.067	49.49
250.284	121.17
250.501	139.6
250.717	82.26
250.934	-9.9
251.151	115.03
251.368	-1.71
251.585	139.6
251.801	67.92
252.018	-59.05
252.235	133.46
252.451	-65.19
252.668	-50.86
252.885	110.93
253.102	31.06
253.318	10.58
253.535	63.83
253.752	-50.86
253.968	-1.71
254.185	-85.67
254.401	-11.95
254.618	127.32
254.835	39.25
255.051	117.08
255.268	67.92
255.484	98.64
255.701	147.8
255.917	67.92
256.134	65.88
256.351	-11.95
256.567	14.68
256.784	24.92
257	-26.28
257.217	145.75
257.433	115.03
257.65	49.49
257.866	168.27
258.082	-44.71
258.299	35.16
258.515	131.41
258.732	55.64
258.948	-16.04
259.165	112.98
259.381	-9.9
259.597	49.49
259.814	80.21
260.03	55.64
260.246	-52.91
260.463	110.93
260.679	172.37
260.895	47.44
261.112	76.12
261.328	29.01
261.544	39.25
261.761	153.94
261.977	24.92
262.193	-9.9
262.409	88.4
262.626	24.92
262.842	106.84
263.058	12.63
263.274	100.69
263.49	31.06
263.707	137.56
263.923	37.2
264.139	-57
264.355	37.2
264.571	108.88
264.787	61.78
265.004	121.17
265.22	33.11
265.436	35.16
265.652	-30.38
265.868	110.93
266.084	-36.52
266.3	59.73
266.516	37.2
266.732	45.4
266.948	35.16
267.164	0.34
267.38	121.17
267.596	84.31
267.812	196.95
268.028	16.73
268.244	102.74
268.46	39.25
268.676	88.4
268.892	82.26
269.108	35.16
269.324	20.82
269.54	37.2
269.756	121.17
269.972	-3.75
270.188	39.25
270.403	-13.99
270.619	39.25
270.835	24.92
271.051	33.11
271.267	20.82
271.483	59.73
271.698	88.4
271.914	121.17
272.13	96.6
272.346	55.64
272.562	119.12
272.777	170.32
272.993	2.39
273.209	72.02
273.425	86.36
273.64	-95.91
273.856	98.64
274.072	-46.76
274.287	6.49
274.503	63.83
274.719	84.31
274.934	8.53
275.15	-30.38
275.366	59.73
275.581	-26.28
275.797	18.77
276.012	41.3
276.228	-20.14
276.444	45.4
276.659	121.17
276.875	43.35
277.09	94.55
277.306	-16.04
277.521	96.6
277.737	39.25
277.952	108.88
278.168	33.11
278.383	100.69
278.599	59.73
278.814	117.08
279.03	-7.85
279.245	178.51
279.461	8.53
279.676	172.37
279.892	-1.71
280.107	76.12
280.322	-106.15
280.538	115.03
280.753	-22.19
280.969	82.26
281.184	37.2
281.399	170.32
281.615	86.36
281.83	82.26
282.045	-46.76
282.26	24.92
282.476	4.44
282.691	82.26
282.906	80.21
283.122	106.84
283.337	20.82
283.552	20.82
283.767	-9.9
283.983	88.4
284.198	-11.95
284.413	45.4
284.628	-46.76
284.843	12.63
285.058	176.47
285.274	26.96
285.489	41.3
285.704	74.07
285.919	4.44
286.134	39.25
286.349	57.68
286.564	-11.95
286.779	231.76
286.995	-22.19
287.21	86.36
287.425	86.36
287.64	0.34
287.855	-5.8
288.07	-77.48
288.285	88.4
288.5	203.09
288.715	76.12
288.93	26.96
289.145	80.21
289.36	49.49
289.575	29.01
289.79	168.27
290.004	-61.1
290.219	110.93
290.434	12.63
290.649	47.44
290.864	51.54
291.079	84.31
291.294	102.74
291.509	61.78
291.724	106.84
291.938	43.35
292.153	80.21
292.368	67.92
292.583	96.6
292.798	137.56
293.012	45.4
293.227	47.44
293.442	14.68
293.657	31.06
293.871	98.64
294.086	12.63
294.301	244.05
294.516	80.21
294.73	18.77
294.945	-40.62
295.16	16.73
295.374	131.41
295.589	94.55
295.804	29.01
296.018	53.59
296.233	84.31
296.447	35.16
296.662	55.64
296.877	178.51
297.091	98.64
297.306	8.53
297.52	-20.14
297.735	96.6
297.949	57.68
298.164	117.08
298.378	112.98
298.593	4.44
298.807	24.92
299.022	98.64
299.236	188.75
299.451	10.58
299.665	51.54
299.88	31.06
300.094	100.69
300.309	74.07
300.523	117.08
300.737	-20.14
300.952	117.08
301.166	26.96
301.381	24.92
301.595	49.49
301.809	-3.75
302.024	37.2
302.238	26.96
302.452	170.32
302.667	-52.91
302.881	168.27
303.095	112.98
303.309	90.45
303.524	24.92
303.738	16.73
303.952	-40.62
304.166	131.41
304.381	-108.2
304.595	125.27
304.809	74.07
305.023	51.54
305.237	-52.91
305.452	49.49
305.666	84.31
305.88	115.03
306.094	131.41
306.308	45.4
306.522	121.17
306.736	82.26
306.95	65.88
307.164	47.44
307.379	-50.86
307.593	182.61
307.807	172.37
308.021	51.54
308.235	119.12
308.449	-112.3
308.663	-11.95
308.877	252.24
309.091	166.23
309.305	131.41
309.519	-11.95
309.733	188.75
309.947	-79.53
310.161	108.88
310.374	53.59
310.588	92.5
310.802	31.06
311.016	76.12
311.23	100.69
311.444	37.2
311.658	59.73
311.872	37.2
312.085	104.79
312.299	172.37
312.513	127.32
312.727	106.84
312.941	-61.1
313.154	57.68
313.368	69.97
313.582	33.11
313.796	115.03
314.009	82.26
314.223	160.08
314.437	43.35
314.651	151.89
314.864	78.16
315.078	69.97
315.292	-18.09
315.505	110.93
315.719	117.08
315.933	47.44
316.146	59.73
316.36	-42.67
316.573	198.99
316.787	100.69
317.001	117.08
317.214	51.54
317.428	90.45
317.641	0.34
317.855	-38.57
318.068	65.88
318.282	104.79
318.495	151.89
318.709	164.18
318.922	39.25
319.136	196.95
319.349	137.56
319.563	-16.04
319.776	147.8
319.99	-24.23
320.203	131.41
320.417	86.36
320.63	127.32
320.843	174.42
321.057	72.02
321.27	53.59
321.483	53.59
321.697	133.46
321.91	102.74
322.124	143.7
322.337	63.83
322.55	22.87
322.763	43.35
322.977	67.92
323.19	-130.73
323.403	80.21
323.617	57.68
323.83	119.12
324.043	96.6
324.256	82.26
324.469	-5.8
324.683	110.93
324.896	-5.8
325.109	112.98
325.322	-26.28
325.535	98.64
325.748	125.27
325.962	63.83
326.175	100.69
326.388	162.13
326.601	88.4
326.814	43.35
327.027	125.27
327.24	198.99
327.453	-24.23
327.666	127.32
327.879	69.97
328.092	108.88
328.305	127.32
328.518	-50.86
328.731	-38.57
328.944	-30.38
329.157	125.27
329.37	78.16
329.583	237.91
329.796	112.98
330.009	-1.71
330.222	65.88
330.435	94.55
330.648	108.88
330.861	35.16
331.073	115.03
331.286	158.03
331.499	12.63
331.712	-3.75
331.925	8.53
332.138	6.49
332.35	96.6
332.563	55.64
332.776	139.6
332.989	31.06
333.202	47.44
333.414	-9.9
333.627	110.93
333.84	92.5
334.053	141.65
334.265	4.44
334.478	63.83
334.691	49.49
334.903	37.2
335.116	-34.47
335.329	2.39
335.541	33.11
335.754	141.65
335.966	53.59
336.179	-3.75
336.392	26.96
336.604	2.39
336.817	158.03
337.029	29.01
337.242	76.12
337.454	168.27
337.667	69.97
337.88	143.7
338.092	135.51
338.305	123.22
338.517	-40.62
338.729	92.5
338.942	123.22
339.154	-20.14
339.367	-46.76
339.579	53.59
339.792	-20.14
340.004	49.49
340.217	45.4
340.429	-3.75
340.641	22.87
340.854	-18.09
341.066	24.92
341.278	108.88
341.491	117.08
341.703	43.35
341.915	20.82
342.128	110.93
342.34	131.41
342.552	37.2
342.764	29.01
342.977	76.12
343.189	69.97
343.401	65.88
343.613	-5.8
343.826	61.78
344.038	-91.82
344.25	119.12
344.462	-57
344.674	106.84
344.886	49.49
345.099	104.79
345.311	117.08
345.523	-28.33
345.735	-52.91
345.947	47.44
346.159	69.97
346.371	33.11
346.583	88.4
346.795	215.38
347.007	57.68
347.219	100.69
347.431	18.77
347.643	76.12
347.855	72.02
348.067	139.6
348.279	-38.57
348.491	59.73
348.703	164.18
348.915	4.44
349.127	-42.67
349.339	51.54
349.551	-1.71
349.763	55.64
349.975	-24.23
350.187	190.8
350.399	164.18
350.61	104.79
350.822	45.4
351.034	92.5
351.246	86.36
351.458	110.93
351.669	102.74
351.881	94.55
352.093	145.75
352.305	166.23
352.517	139.6
352.728	86.36
352.94	59.73
353.152	74.07
353.363	-7.85
353.575	135.51
353.787	280.91
353.999	125.27
354.21	125.27
354.422	14.68
354.633	4.44
354.845	20.82
355.057	92.5
355.268	149.84
355.48	141.65
355.692	67.92
355.903	65.88
356.115	6.49
356.326	-59.05
356.538	178.51
356.749	18.77
356.961	80.21
357.172	10.58
357.384	53.59
357.595	256.34
357.807	-22.19
358.018	-3.75
358.23	35.16
358.441	196.95
358.653	112.98
358.864	80.21
359.075	6.49
359.287	117.08
359.498	72.02
359.709	63.83
359.921	57.68
360.132	43.35
360.344	108.88
360.555	41.3
360.766	59.73
360.977	16.73
361.189	115.03
361.4	41.3
361.611	131.41
361.823	137.56
362.034	49.49
362.245	-22.19
362.456	84.31
362.667	131.41
362.879	-48.81
363.09	96.6
363.301	121.17
363.512	74.07
363.723	41.3
363.935	-65.19
364.146	102.74
364.357	24.92
364.568	78.16
364.779	4.44
364.99	184.66
365.201	-36.52
365.412	76.12
365.623	-3.75
365.834	49.49
366.045	59.73
366.256	166.23
366.467	145.75
366.678	-13.99
366.889	80.21
367.1	12.63
367.311	115.03
367.522	-3.75
367.733	96.6
367.944	166.23
368.155	-22.19
368.366	102.74
368.577	151.89
368.788	158.03
368.999	0.34
369.209	80.21
369.42	229.71
369.631	272.72
369.842	88.4
370.053	24.92
370.264	223.57
370.474	-18.09
370.685	137.56
370.896	0.34
371.107	129.36
371.317	45.4
371.528	33.11
371.739	80.21
371.95	145.75
372.16	92.5
372.371	-16.04
372.582	45.4
372.792	137.56
373.003	78.16
373.214	51.54
373.424	172.37
373.635	4.44
373.846	110.93
374.056	55.64
374.267	145.75
374.477	49.49
374.688	-28.33
374.898	37.2
375.109	82.26
375.319	92.5
375.53	145.75
375.74	98.64
375.951	41.3
376.161	112.98
376.372	182.61
376.582	41.3
376.793	80.21
377.003	31.06
377.214	-9.9
377.424	131.41
377.635	147.8
377.845	104.79
378.055	194.9
378.266	-42.67
378.476	31.06
378.686	78.16
378.897	123.22
379.107	115.03
379.317	84.31
379.528	-32.43
379.738	129.36
379.948	53.59
380.158	115.03
380.369	115.03
380.579	131.41
380.789	22.87
380.999	65.88
381.21	123.22
381.42	194.9
381.63	6.49
381.84	135.51
382.05	22.87
382.261	196.95
382.471	155.99
382.681	-5.8
382.891	143.7
383.101	92.5
383.311	-20.14
383.521	-13.99
383.731	84.31
383.941	119.12
384.151	49.49
384.361	-46.76
384.571	86.36
384.781	53.59
384.991	262.48
385.201	217.43
385.411	-34.47
385.621	94.55
385.831	86.36
386.041	110.93
386.251	-38.57
386.461	108.88
386.671	45.4
386.881	117.08
387.091	33.11
387.301	188.75
387.511	139.6
387.72	67.92
387.93	88.4
388.14	-67.24
388.35	37.2
388.56	184.66
388.769	186.71
388.979	82.26
389.189	-20.14
389.399	53.59
389.609	149.84
389.818	45.4
390.028	37.2
390.238	119.12
390.447	65.88
390.657	57.68
390.867	-20.14
391.076	-30.38
391.286	22.87
391.496	12.63
391.705	51.54
391.915	147.8
392.125	176.47
392.334	33.11
392.544	192.85
392.753	6.49
392.963	-18.09
393.172	55.64
393.382	65.88
393.591	235.86
393.801	18.77
394.01	209.23
394.22	170.32
394.429	10.58
394.639	86.36
394.848	51.54
395.058	80.21
395.267	100.69
395.477	90.45
395.686	127.32
395.895	242
396.105	211.28
396.314	94.55
396.524	61.78
396.733	16.73
396.942	67.92
397.152	112.98
397.361	84.31
397.57	72.02
397.78	47.44
397.989	86.36
398.198	184.66
398.407	100.69
398.617	12.63
398.826	-16.04
399.035	69.97
399.244	72.02
399.453	41.3
399.663	72.02
399.872	78.16
400.081	6.49
400.29	119.12
400.499	43.35
400.708	201.04
400.917	67.92
401.127	8.53
401.336	33.11
401.545	139.6
401.754	149.84
401.963	119.12
402.172	-13.99
402.381	-3.75
402.59	51.54
402.799	162.13
403.008	172.37
403.217	57.68
403.426	80.21
403.635	-22.19
403.844	-61.1
404.053	20.82
404.262	63.83
404.471	203.09
404.68	22.87
404.888	100.69
405.097	102.74
405.306	-18.09
405.515	67.92
405.724	-26.28
405.933	108.88
406.142	37.2
406.35	106.84
406.559	55.64
406.768	61.78
406.977	153.94
407.185	24.92
407.394	72.02
407.603	-9.9
407.812	86.36
408.02	125.27
408.229	78.16
408.438	57.68
408.646	-46.76
408.855	39.25
409.064	82.26
409.272	43.35
409.481	80.21
409.69	35.16
409.898	-30.38
410.107	133.46
410.315	94.55
410.524	59.73
410.733	86.36
410.941	149.84
411.15	180.56
411.358	123.22
411.567	135.51
411.775	51.54
411.984	86.36
412.192	76.12
412.401	22.87
412.609	213.33
412.818	205.14
413.026	90.45
413.234	55.64
413.443	88.4
413.651	2.39
413.86	55.64
414.068	88.4
414.276	178.51
414.485	16.73
414.693	176.47
414.901	264.53
415.11	115.03
415.318	76.12
415.526	31.06
415.734	90.45
415.943	-11.95
416.151	137.56
416.359	86.36
416.567	72.02
416.776	115.03
416.984	74.07
417.192	168.27
417.4	74.07
417.608	8.53
417.817	-1.71
418.025	125.27
418.233	213.33
418.441	4.44
418.649	22.87
418.857	176.47
419.065	176.47
419.273	29.01
419.481	22.87
419.689	39.25
419.897	6.49
420.105	12.63
420.313	127.32
420.521	223.57
420.729	110.93
420.937	35.16
421.145	-26.28
421.353	100.69
421.561	170.32
421.769	115.03
421.977	53.59
422.185	213.33
422.393	-16.04
422.601	188.75
422.809	92.5
423.017	45.4
423.224	47.44
423.432	108.88
423.64	106.84
423.848	170.32
424.056	20.82
424.263	80.21
424.471	59.73
424.679	149.84
424.887	43.35
425.094	141.65
425.302	147.8
425.51	51.54
425.718	67.92
425.925	84.31
426.133	-30.38
426.341	229.71
426.548	-30.38
426.756	61.78
426.964	176.47
427.171	90.45
427.379	149.84
427.586	141.65
427.794	137.56
428.001	178.51
428.209	141.65
428.417	201.04
428.624	135.51
428.832	108.88
429.039	149.84
429.247	115.03
429.454	145.75
429.662	196.95
429.869	164.18
430.076	166.23
430.284	121.17
430.491	237.91
430.699	196.95
430.906	244.05
431.114	176.47
431.321	139.6
431.528	160.08
431.736	151.89
431.943	221.52
432.15	102.74
432.358	166.23
432.565	252.24
432.772	37.2
432.979	174.42
433.187	155.99
433.394	325.97
433.601	121.17
433.808	225.62
434.016	340.3
434.223	155.99
434.43	182.61
434.637	319.82
434.844	299.34
435.052	254.29
435.259	301.39
435.466	325.97
435.673	266.58
435.88	244.05
436.087	346.45
436.294	309.58
436.501	285.01
436.708	262.48
436.915	242
437.122	354.64
437.329	274.77
437.537	295.25
437.743	340.3
437.95	450.89
438.157	399.7
438.364	373.07
438.571	469.33
438.778	352.59
438.985	459.09
439.192	481.61
439.399	366.93
439.606	467.28
439.813	469.33
440.02	614.73
440.227	647.5
440.433	530.77
440.64	498
440.847	475.47
441.054	536.91
441.261	741.71
441.467	606.54
441.674	598.35
441.881	684.36
442.088	667.98
442.294	760.14
442.501	762.19
442.708	842.06
442.914	741.71
443.121	817.48
443.328	813.38
443.534	899.4
443.741	827.72
443.948	766.28
444.154	1028.42
444.361	1118.53
444.568	1018.18
444.774	991.56
444.981	862.54
445.187	1177.92
445.394	1069.38
445.6	1153.35
445.807	1222.98
446.013	1265.99
446.22	1155.4
446.426	1390.91
446.633	1323.33
446.839	1618.24
447.046	1382.72
447.252	1689.92
447.459	1571.13
447.665	1616.19
447.871	1790.27
448.078	1921.34
448.284	1839.42
448.491	2025.78
448.697	2001.21
448.903	2044.21
449.11	2115.89
449.316	2148.66
449.522	2394.42
449.728	2367.79
449.935	2519.34
450.141	2488.62
450.347	2709.8
450.553	2619.69
450.76	2707.76
450.966	2851.11
451.172	2988.33
451.378	3019.05
451.584	3055.91
451.791	3428.64
451.997	3309.86
452.203	3477.79
452.409	3778.84
452.615	3801.37
452.821	3682.59
453.027	3858.71
453.233	4329.75
453.44	4241.68
453.646	4372.75
453.852	4481.3
454.058	4634.89
454.264	4796.68
454.47	5202.18
454.676	5103.88
454.882	5789.95
455.088	5327.11
455.294	5783.81
455.5	5998.84
455.705	6336.76
455.911	6490.35
456.117	6435.06
456.323	6791.41
456.529	6912.24
456.735	7555.3
456.941	7528.67
457.147	7983.32
457.352	8188.12
457.558	8253.66
457.764	8906.96
457.97	9183.43
458.176	9578.69
458.381	10152.12
458.587	10006.72
458.793	10817.71
458.999	10746.03
459.204	11935.9
459.41	12548.25
459.616	12302.49
459.821	12929.17
460.027	13650.05
460.233	14205.05
460.438	14258.3
460.644	15169.65
460.85	15296.62
461.055	16048.22
461.261	16480.35
461.466	16384.09
461.672	16549.98
461.878	18710.58
462.083	18366.53
462.289	18479.16
462.494	19466.28
462.7	19662.89
462.905	19990.56
463.111	21698.57
463.316	22544.38
463.522	22777.85
463.727	23715.82
463.932	24555.49
464.138	25337.81
464.343	26466.24
464.549	26480.58
464.754	28678.05
464.959	29233.05
465.165	29294.49
465.37	29413.27
465.575	29513.62
465.781	31586.16
465.986	32409.45
466.191	31793.01
466.397	31940.46
466.602	31663.99
466.807	33263.45
467.012	33318.74
467.218	34031.44
467.423	34269
467.628	35626.81
467.833	37117.73
468.038	36331.31
468.244	36065.07
