Data from USB4F104151__228__11-06-15-925.txt Node

Date: Wed Feb 26 11:06:15 EST 2025
User: louis
Spectrometer: USB4F10415
Trigger mode: 4
Integration Time (sec): 1.000000E-1
Scans to average: 1
Electric dark correction enabled: true
Nonlinearity correction enabled: false
Boxcar width: 0
XAxis mode: Wavelengths
Number of Pixels in Spectrum: 3648
>>>>>Begin Spectral Data<<<<<
178.204	-446.46
178.424	-446.46
178.644	-446.46
178.864	-393.21
179.084	-454.65
179.304	28.67
179.524	-38.91
179.744	32.77
179.964	49.15
180.184	8.19
180.404	8.19
180.624	4.1
180.844	30.72
181.064	-126.97
181.283	-28.67
181.503	-55.3
181.723	88.06
181.943	0
182.163	122.88
182.383	-6.14
182.602	26.62
182.822	212.99
183.042	90.11
183.262	-53.25
183.482	126.97
183.701	-32.77
183.921	69.63
184.141	-10.24
184.361	73.73
184.58	34.82
184.8	18.43
185.02	36.86
185.239	83.97
185.459	22.53
185.679	94.21
185.898	-75.77
186.118	8.19
186.338	51.2
186.557	57.34
186.777	-2.05
186.997	-28.67
187.216	18.43
187.436	190.46
187.655	65.54
187.875	75.77
188.095	32.77
188.314	108.54
188.534	169.98
188.753	-53.25
188.973	63.49
189.192	239.61
189.412	34.82
189.631	12.29
189.851	28.67
190.07	79.87
190.29	-30.72
190.509	-16.38
190.729	88.06
190.948	149.5
191.168	202.75
191.387	120.83
191.607	-22.53
191.826	18.43
192.045	0
192.265	18.43
192.484	16.38
192.704	45.06
192.923	-126.97
193.142	135.17
193.362	100.35
193.581	38.91
193.8	28.67
194.02	100.35
194.239	118.78
194.458	47.1
194.678	-10.24
194.897	32.77
195.116	69.63
195.335	32.77
195.555	34.82
195.774	-16.38
195.993	172.03
196.212	10.24
196.432	28.67
196.651	28.67
196.87	24.58
197.089	245.76
197.308	-20.48
197.528	94.21
197.747	-71.68
197.966	51.2
198.185	153.6
198.404	18.43
198.623	81.92
198.842	124.93
199.062	135.17
199.281	63.49
199.5	-26.62
199.719	112.64
199.938	22.53
200.157	24.58
200.376	90.11
200.595	116.73
200.814	53.25
201.033	36.86
201.252	94.21
201.471	108.54
201.69	133.12
201.909	47.1
202.128	131.07
202.347	122.88
202.566	34.82
202.785	-73.73
203.004	-51.2
203.223	337.91
203.442	22.53
203.661	-32.77
203.879	108.54
204.098	137.21
204.317	-38.91
204.536	104.45
204.755	110.59
204.974	53.25
205.193	30.72
205.411	206.84
205.63	124.93
205.849	86.01
206.068	34.82
206.287	-36.86
206.505	172.03
206.724	71.68
206.943	47.1
207.162	-71.68
207.381	45.06
207.599	73.73
207.818	51.2
208.037	-122.88
208.255	22.53
208.474	61.44
208.693	-4.1
208.911	22.53
209.13	81.92
209.349	77.82
209.567	59.39
209.786	-8.19
210.005	55.3
210.223	61.44
210.442	-149.5
210.661	24.58
210.879	104.45
211.098	-6.14
211.316	69.63
211.535	102.4
211.753	38.91
211.972	0
212.191	2.05
212.409	51.2
212.628	110.59
212.846	-12.29
213.065	61.44
213.283	118.78
213.502	45.06
213.72	10.24
213.938	63.49
214.157	20.48
214.375	159.74
214.594	-26.62
214.812	-22.53
215.031	51.2
215.249	112.64
215.467	77.82
215.686	8.19
215.904	86.01
216.122	20.48
216.341	135.17
216.559	75.77
216.778	124.93
216.996	176.13
217.214	30.72
217.432	-32.77
217.651	-61.44
217.869	73.73
218.087	96.25
218.306	12.29
218.524	0
218.742	-4.1
218.96	36.86
219.179	2.05
219.397	-14.34
219.615	253.95
219.833	149.5
220.051	-73.73
220.27	57.34
220.488	141.31
220.706	45.06
220.924	55.3
221.142	0
221.36	61.44
221.578	116.73
221.796	73.73
222.015	6.14
222.233	-8.19
222.451	174.08
222.669	22.53
222.887	63.49
223.105	-32.77
223.323	8.19
223.541	20.48
223.759	77.82
223.977	6.14
224.195	145.41
224.413	100.35
224.631	-20.48
224.849	61.44
225.067	192.51
225.285	-10.24
225.503	16.38
225.721	-38.91
225.939	20.48
226.157	16.38
226.375	217.08
226.592	-20.48
226.81	53.25
227.028	172.03
227.246	96.25
227.464	116.73
227.682	110.59
227.9	63.49
228.117	57.34
228.335	38.91
228.553	92.16
228.771	32.77
228.989	59.39
229.206	45.06
229.424	12.29
229.642	-34.82
229.86	0
230.077	178.17
230.295	12.29
230.513	147.45
230.731	98.3
230.948	186.37
231.166	161.79
231.384	14.34
231.601	14.34
231.819	204.8
232.037	51.2
232.254	-59.39
232.472	57.34
232.689	-6.14
232.907	108.54
233.125	75.77
233.342	51.2
233.56	22.53
233.777	18.43
233.995	-61.44
234.213	94.21
234.43	36.86
234.648	47.1
234.865	24.58
235.083	77.82
235.3	49.15
235.518	24.58
235.735	77.82
235.953	98.3
236.17	49.15
236.388	6.14
236.605	22.53
236.822	157.69
237.04	94.21
237.257	104.45
237.475	-30.72
237.692	10.24
237.909	57.34
238.127	8.19
238.344	75.77
238.562	51.2
238.779	-40.96
238.996	14.34
239.214	30.72
239.431	36.86
239.648	83.97
239.865	161.79
240.083	40.96
240.3	10.24
240.517	-12.29
240.735	71.68
240.952	151.55
241.169	20.48
241.386	40.96
241.603	26.62
241.821	100.35
242.038	69.63
242.255	106.49
242.472	-49.15
242.689	92.16
242.907	40.96
243.124	139.26
243.341	75.77
243.558	-43.01
243.775	-69.63
243.992	-10.24
244.209	77.82
244.426	149.5
244.643	73.73
244.86	20.48
245.078	86.01
245.295	-4.1
245.512	10.24
245.729	-6.14
245.946	55.3
246.163	67.58
246.38	-45.06
246.597	139.26
246.814	24.58
247.031	22.53
247.248	73.73
247.464	51.2
247.681	49.15
247.898	67.58
248.115	92.16
248.332	-57.34
248.549	159.74
248.766	215.04
248.983	110.59
249.2	98.3
249.417	81.92
249.633	53.25
249.85	83.97
250.067	40.96
250.284	61.44
250.501	114.69
250.717	114.69
250.934	-16.38
251.151	16.38
251.368	71.68
251.585	83.97
251.801	28.67
252.018	-6.14
252.235	79.87
252.451	-96.25
252.668	8.19
252.885	73.73
253.102	36.86
253.318	-14.34
253.535	77.82
253.752	6.14
253.968	53.25
254.185	-16.38
254.401	38.91
254.618	12.29
254.835	-28.67
255.051	151.55
255.268	92.16
255.484	88.06
255.701	34.82
255.917	126.97
256.134	-20.48
256.351	53.25
256.567	-8.19
256.784	40.96
257	16.38
257.217	90.11
257.433	49.15
257.65	67.58
257.866	147.45
258.082	-112.64
258.299	-32.77
258.515	67.58
258.732	-36.86
258.948	12.29
259.165	92.16
259.381	12.29
259.597	83.97
259.814	55.3
260.03	32.77
260.246	-53.25
260.463	114.69
260.679	135.17
260.895	43.01
261.112	45.06
261.328	28.67
261.544	-65.53
261.761	169.98
261.977	20.48
262.193	10.24
262.409	167.93
262.626	59.39
262.842	30.72
263.058	57.34
263.274	61.44
263.49	6.14
263.707	34.82
263.923	114.69
264.139	-4.1
264.355	79.87
264.571	63.49
264.787	98.3
265.004	69.63
265.22	47.1
265.436	-6.14
265.652	24.58
265.868	102.4
266.084	-45.06
266.3	-59.39
266.516	-2.05
266.732	2.05
266.948	53.25
267.164	53.25
267.38	71.68
267.596	126.97
267.812	219.13
268.028	-28.67
268.244	-49.15
268.46	88.06
268.676	24.58
268.892	34.82
269.108	-6.14
269.324	38.91
269.54	-79.87
269.756	120.83
269.972	-96.25
270.188	34.82
270.403	-65.53
270.619	30.72
270.835	51.2
271.051	22.53
271.267	0
271.483	55.3
271.698	8.19
271.914	26.62
272.13	-32.77
272.346	34.82
272.562	63.49
272.777	96.25
272.993	8.19
273.209	-4.1
273.425	28.67
273.64	-28.67
273.856	110.59
274.072	-69.63
274.287	24.58
274.503	120.83
274.719	79.87
274.934	32.77
275.15	-137.21
275.366	40.96
275.581	-79.87
275.797	47.1
276.012	81.92
276.228	-28.67
276.444	100.35
276.659	86.01
276.875	-34.82
277.09	34.82
277.306	18.43
277.521	40.96
277.737	61.44
277.952	96.25
278.168	22.53
278.383	4.1
278.599	102.4
278.814	124.93
279.03	4.1
279.245	126.97
279.461	16.38
279.676	92.16
279.892	-20.48
280.107	-14.34
280.322	-34.82
280.538	73.73
280.753	18.43
280.969	67.58
281.184	0
281.399	129.02
281.615	-51.2
281.83	81.92
282.045	-96.25
282.26	-16.38
282.476	59.39
282.691	65.54
282.906	90.11
283.122	-12.29
283.337	-36.86
283.552	71.68
283.767	81.92
283.983	53.25
284.198	12.29
284.413	83.97
284.628	-47.1
284.843	47.1
285.058	83.97
285.274	88.06
285.489	-20.48
285.704	141.31
285.919	63.49
286.134	49.15
286.349	38.91
286.564	26.62
286.779	102.4
286.995	20.48
287.21	-53.25
287.425	40.96
287.64	24.58
287.855	12.29
288.07	-67.58
288.285	176.13
288.5	57.34
288.715	190.46
288.93	43.01
289.145	-6.14
289.36	92.16
289.575	2.05
289.79	57.34
290.004	12.29
290.219	65.54
290.434	-63.49
290.649	-14.34
290.864	57.34
291.079	65.54
291.294	94.21
291.509	30.72
291.724	-114.69
291.938	-16.38
292.153	55.3
292.368	-4.1
292.583	73.73
292.798	59.39
293.012	124.93
293.227	137.21
293.442	-20.48
293.657	34.82
293.871	174.08
294.086	92.16
294.301	176.13
294.516	124.93
294.73	28.67
294.945	8.19
295.16	22.53
295.374	155.65
295.589	55.3
295.804	83.97
296.018	133.12
296.233	114.69
296.447	26.62
296.662	34.82
296.877	47.1
297.091	45.06
297.306	-6.14
297.52	2.05
297.735	92.16
297.949	32.77
298.164	12.29
298.378	79.87
298.593	-55.3
298.807	-2.05
299.022	83.97
299.236	116.73
299.451	38.91
299.665	-22.53
299.88	10.24
300.094	36.86
300.309	77.82
300.523	63.49
300.737	43.01
300.952	-22.53
301.166	94.21
301.381	28.67
301.595	8.19
301.809	75.77
302.024	36.86
302.238	-24.58
302.452	227.32
302.667	51.2
302.881	120.83
303.095	165.89
303.309	116.73
303.524	79.87
303.738	12.29
303.952	-6.14
304.166	98.3
304.381	-16.38
304.595	120.83
304.809	10.24
305.023	20.48
305.237	55.3
305.452	47.1
305.666	63.49
305.88	83.97
306.094	63.49
306.308	92.16
306.522	116.73
306.736	34.82
306.95	59.39
307.164	-55.3
307.379	8.19
307.593	116.73
307.807	167.93
308.021	114.69
308.235	63.49
308.449	-71.68
308.663	-16.38
308.877	215.04
309.091	63.49
309.305	65.54
309.519	-141.31
309.733	77.82
309.947	-38.91
310.161	49.15
310.374	63.49
310.588	126.97
310.802	-20.48
311.016	-26.62
311.23	77.82
311.444	-16.38
311.658	81.92
311.872	98.3
312.085	90.11
312.299	165.89
312.513	96.25
312.727	-8.19
312.941	-112.64
313.154	18.43
313.368	106.49
313.582	-8.19
313.796	67.58
314.009	-34.82
314.223	40.96
314.437	36.86
314.651	51.2
314.864	-6.14
315.078	-30.72
315.292	-90.11
315.505	47.1
315.719	104.45
315.933	102.4
316.146	122.88
316.36	-16.38
316.573	98.3
316.787	106.49
317.001	24.58
317.214	40.96
317.428	94.21
317.641	-14.34
317.855	-86.01
318.068	116.73
318.282	-16.38
318.495	131.07
318.709	94.21
318.922	-12.29
319.136	139.26
319.349	57.34
319.563	30.72
319.776	61.44
319.99	-73.73
320.203	110.59
320.417	67.58
320.63	4.1
320.843	169.98
321.057	59.39
321.27	-2.05
321.483	34.82
321.697	217.08
321.91	2.05
322.124	28.67
322.337	69.63
322.55	-18.43
322.763	18.43
322.977	-14.34
323.19	-22.53
323.403	81.92
323.617	104.45
323.83	143.36
324.043	10.24
324.256	75.77
324.469	-34.82
324.683	192.51
324.896	65.54
325.109	6.14
325.322	-141.31
325.535	53.25
325.748	77.82
325.962	24.58
326.175	-16.38
326.388	51.2
326.601	141.31
326.814	2.05
327.027	51.2
327.24	88.06
327.453	-49.15
327.666	135.17
327.879	79.87
328.092	112.64
328.305	18.43
328.518	16.38
328.731	-6.14
328.944	51.2
329.157	88.06
329.37	14.34
329.583	161.79
329.796	120.83
330.009	-67.58
330.222	86.01
330.435	190.46
330.648	0
330.861	67.58
331.073	-12.29
331.286	122.88
331.499	47.1
331.712	-65.53
331.925	32.77
332.138	40.96
332.35	55.3
332.563	-47.1
332.776	118.78
332.989	-86.01
333.202	43.01
333.414	75.77
333.627	73.73
333.84	36.86
334.053	57.34
334.265	-28.67
334.478	10.24
334.691	59.39
334.903	65.54
335.116	-24.58
335.329	-8.19
335.541	110.59
335.754	114.69
335.966	-36.86
336.179	36.86
336.392	14.34
336.604	10.24
336.817	163.84
337.029	100.35
337.242	-2.05
337.454	69.63
337.667	10.24
337.88	122.88
338.092	120.83
338.305	26.62
338.517	-53.25
338.729	141.31
338.942	143.36
339.154	-12.29
339.367	-71.68
339.579	8.19
339.792	-49.15
340.004	45.06
340.217	86.01
340.429	139.26
340.641	49.15
340.854	-20.48
341.066	12.29
341.278	108.54
341.491	147.45
341.703	51.2
341.915	-28.67
342.128	22.53
342.34	116.73
342.552	2.05
342.764	26.62
342.977	45.06
343.189	106.49
343.401	98.3
343.613	-16.38
343.826	67.58
344.038	-49.15
344.25	92.16
344.462	12.29
344.674	40.96
344.886	2.05
345.099	12.29
345.311	69.63
345.523	-28.67
345.735	6.14
345.947	14.34
346.159	-30.72
346.371	131.07
346.583	-43.01
346.795	90.11
347.007	10.24
347.219	-2.05
347.431	6.14
347.643	141.31
347.855	28.67
348.067	118.78
348.279	-55.3
348.491	32.77
348.703	36.86
348.915	-2.05
349.127	-38.91
349.339	47.1
349.551	-26.62
349.763	98.3
349.975	10.24
350.187	153.6
350.399	239.61
350.61	73.73
350.822	14.34
351.034	92.16
351.246	81.92
351.458	26.62
351.669	141.31
351.881	73.73
352.093	129.02
352.305	102.4
352.517	63.49
352.728	6.14
352.94	16.38
353.152	77.82
353.363	-43.01
353.575	30.72
353.787	163.84
353.999	112.64
354.21	182.27
354.422	-12.29
354.633	24.58
354.845	34.82
355.057	43.01
355.268	83.97
355.48	83.97
355.692	-34.82
355.903	45.06
356.115	-49.15
356.326	-112.64
356.538	120.83
356.749	106.49
356.961	129.02
357.172	49.15
357.384	-32.77
357.595	178.17
357.807	8.19
358.018	-6.14
358.23	47.1
358.441	108.54
358.653	71.68
358.864	43.01
359.075	83.97
359.287	71.68
359.498	90.11
359.709	18.43
359.921	26.62
360.132	-16.38
360.344	59.39
360.555	-6.14
360.766	32.77
360.977	14.34
361.189	55.3
361.4	12.29
361.611	90.11
361.823	174.08
362.034	59.39
362.245	-94.21
362.456	12.29
362.667	129.02
362.879	-57.34
363.09	88.06
363.301	61.44
363.512	57.34
363.723	22.53
363.935	-10.24
364.146	61.44
364.357	86.01
364.568	-18.43
364.779	-90.11
364.99	106.49
365.201	-53.25
365.412	137.21
365.623	-77.82
365.834	28.67
366.045	45.06
366.256	24.58
366.467	47.1
366.678	108.54
366.889	51.2
367.1	-6.14
367.311	110.59
367.522	28.67
367.733	94.21
367.944	47.1
368.155	55.3
368.366	81.92
368.577	43.01
368.788	147.45
368.999	30.72
369.209	86.01
369.42	231.42
369.631	317.44
369.842	135.17
370.053	36.86
370.264	92.16
370.474	4.1
370.685	77.82
370.896	16.38
371.107	180.22
371.317	61.44
371.528	18.43
371.739	100.35
371.95	90.11
372.16	81.92
372.371	24.58
372.582	65.54
372.792	67.58
373.003	77.82
373.214	28.67
373.424	126.97
373.635	-38.91
373.846	124.93
374.056	8.19
374.267	77.82
374.477	116.73
374.688	-24.58
374.898	71.68
375.109	73.73
375.319	88.06
375.53	77.82
375.74	116.73
375.951	57.34
376.161	49.15
376.372	129.02
376.582	43.01
376.793	79.87
377.003	71.68
377.214	6.14
377.424	-61.44
377.635	77.82
377.845	16.38
378.055	188.41
378.266	6.14
378.476	102.4
378.686	104.45
378.897	90.11
379.107	106.49
379.317	88.06
379.528	30.72
379.738	49.15
379.948	-40.96
380.158	149.5
380.369	45.06
380.579	2.05
380.789	24.58
380.999	94.21
381.21	120.83
381.42	129.02
381.63	106.49
381.84	139.26
382.05	36.86
382.261	174.08
382.471	149.5
382.681	-22.53
382.891	188.41
383.101	49.15
383.311	22.53
383.521	47.1
383.731	86.01
383.941	163.84
384.151	20.48
384.361	32.77
384.571	40.96
384.781	71.68
384.991	124.93
385.201	182.27
385.411	43.01
385.621	51.2
385.831	57.34
386.041	22.53
386.251	16.38
386.461	104.45
386.671	14.34
386.881	96.25
387.091	-28.67
387.301	65.54
387.511	92.16
387.72	114.69
387.93	129.02
388.14	-43.01
388.35	145.41
388.56	57.34
388.769	88.06
388.979	24.58
389.189	-12.29
389.399	77.82
389.609	112.64
389.818	69.63
390.028	49.15
390.238	34.82
390.447	22.53
390.657	24.58
390.867	16.38
391.076	-81.92
391.286	53.25
391.496	53.25
391.705	65.54
391.915	180.22
392.125	40.96
392.334	34.82
392.544	149.5
392.753	45.06
392.963	-24.58
393.172	34.82
393.382	32.77
393.591	167.93
393.801	-6.14
394.01	174.08
394.22	63.49
394.429	90.11
394.639	45.06
394.848	10.24
395.058	38.91
395.267	43.01
395.477	129.02
395.686	75.77
395.895	145.41
396.105	159.74
396.314	75.77
396.524	-8.19
396.733	45.06
396.942	131.07
397.152	45.06
397.361	63.49
397.57	26.62
397.78	110.59
397.989	143.36
398.198	137.21
398.407	47.1
398.617	8.19
398.826	108.54
399.035	96.25
399.244	147.45
399.453	90.11
399.663	30.72
399.872	57.34
400.081	14.34
400.29	120.83
400.499	-22.53
400.708	120.83
400.917	98.3
401.127	59.39
401.336	51.2
401.545	163.84
401.754	188.41
401.963	40.96
402.172	30.72
402.381	2.05
402.59	-12.29
402.799	-6.14
403.008	63.49
403.217	83.97
403.426	112.64
403.635	-75.77
403.844	75.77
404.053	55.3
404.262	-18.43
404.471	96.25
404.68	61.44
404.888	8.19
405.097	-22.53
405.306	55.3
405.515	120.83
405.724	-22.53
405.933	135.17
406.142	34.82
406.35	110.59
406.559	-12.29
406.768	65.54
406.977	118.78
407.185	71.68
407.394	92.16
407.603	14.34
407.812	40.96
408.02	184.32
408.229	88.06
408.438	51.2
408.646	-4.1
408.855	43.01
409.064	67.58
409.272	-6.14
409.481	98.3
409.69	32.77
409.898	-26.62
410.107	63.49
410.315	155.65
410.524	104.45
410.733	94.21
410.941	40.96
411.15	63.49
411.358	55.3
411.567	88.06
411.775	92.16
411.984	147.45
412.192	124.93
412.401	53.25
412.609	79.87
412.818	159.74
413.026	143.36
413.234	53.25
413.443	30.72
413.651	-24.58
413.86	86.01
414.068	133.12
414.276	172.03
414.485	-34.82
414.693	137.21
414.901	231.42
415.11	114.69
415.318	90.11
415.526	-8.19
415.734	-2.05
415.943	126.97
416.151	116.73
416.359	-18.43
416.567	100.35
416.776	147.45
416.984	172.03
417.192	245.76
417.4	61.44
417.608	20.48
417.817	-24.58
418.025	53.25
418.233	215.04
418.441	30.72
418.649	-43.01
418.857	63.49
419.065	149.5
419.273	-86.01
419.481	92.16
419.689	24.58
419.897	-4.1
420.105	-16.38
420.313	34.82
420.521	206.84
420.729	172.03
420.937	26.62
421.145	12.29
421.353	153.6
421.561	182.27
421.769	110.59
421.977	59.39
422.185	63.49
422.393	18.43
422.601	49.15
422.809	92.16
423.017	-16.38
423.224	94.21
423.432	79.87
423.64	92.16
423.848	163.84
424.056	-20.48
424.263	118.78
424.471	106.49
424.679	118.78
424.887	-26.62
425.094	184.32
425.302	90.11
425.51	126.97
425.718	102.4
425.925	26.62
426.133	0
426.341	221.18
426.548	94.21
426.756	77.82
426.964	186.37
427.171	75.77
427.379	14.34
427.586	133.12
427.794	133.12
428.001	198.65
428.209	180.22
428.417	167.93
428.624	98.3
428.832	180.22
429.039	98.3
429.247	75.77
429.454	167.93
429.662	225.28
429.869	86.01
430.076	102.4
430.284	116.73
430.491	225.28
430.699	192.51
430.906	141.31
431.114	165.89
431.321	157.69
431.528	155.65
431.736	133.12
431.943	155.65
432.15	241.66
432.358	249.85
432.565	122.88
432.772	8.19
432.979	208.89
433.187	151.55
433.394	198.65
433.601	98.3
433.808	190.46
434.016	215.04
434.223	206.84
434.43	212.99
434.637	208.89
434.844	284.67
435.052	270.33
435.259	307.2
435.466	292.86
435.673	225.28
435.88	264.19
436.087	307.2
436.294	460.79
436.501	309.24
436.708	249.85
436.915	323.58
437.122	339.96
437.329	278.52
437.537	323.58
437.743	344.06
437.95	452.6
438.157	360.44
438.364	411.64
438.571	344.06
438.778	473.08
438.985	450.55
439.192	434.17
439.399	430.07
439.606	407.55
439.813	477.18
440.02	628.73
440.227	595.96
440.433	509.94
440.64	516.09
440.847	514.04
441.054	577.53
441.261	716.79
441.467	690.17
441.674	602.1
441.881	649.21
442.088	595.96
442.294	665.59
442.501	698.36
442.708	751.6
442.914	759.8
443.121	700.41
443.328	880.63
443.534	950.26
443.741	866.29
443.948	915.44
444.154	937.97
444.361	1003.5
444.568	1036.27
444.774	1013.74
444.981	966.64
445.187	1071.09
445.394	1202.16
445.6	1046.51
445.807	1267.69
446.013	1236.97
446.22	1273.84
446.426	1380.33
446.633	1443.82
446.839	1611.75
447.046	1474.54
447.252	1519.59
447.459	1636.33
447.665	1708.01
447.871	1751.01
448.078	1945.57
448.284	1859.56
448.491	1943.52
448.697	2080.74
448.903	2127.84
449.11	2105.31
449.316	2191.33
449.522	2367.45
449.728	2512.86
449.935	2402.27
450.141	2484.19
450.347	2721.75
450.553	2674.65
450.76	2803.67
450.966	2842.58
451.172	3000.27
451.378	3084.24
451.584	3098.58
451.791	3444.68
451.997	3346.38
452.203	3336.14
452.409	3659.72
452.615	3852.23
452.821	3780.55
453.027	3917.76
453.233	4331.45
453.44	4108.23
453.646	4427.71
453.852	4726.71
454.058	4710.33
454.264	5007.28
454.47	5244.85
454.676	5324.72
454.882	5713.83
455.088	5566.38
455.294	5627.82
455.5	6184.87
455.705	6496.16
455.911	6596.51
456.117	6725.53
456.323	6905.75
456.529	6895.51
456.735	7704.46
456.941	7710.6
457.147	8142.72
457.352	8189.83
457.558	8488.83
457.764	9084.79
457.97	9279.35
458.176	9684.84
458.381	10205.03
458.587	10219.36
458.793	10915.67
458.999	10635.1
459.204	12068.68
459.41	12470.08
459.616	12418.88
459.821	13197.11
460.027	13637.42
460.233	14358.31
460.438	14321.45
460.644	15425.3
460.85	15458.07
461.055	15914.77
461.261	16697.09
461.466	16465.67
461.672	16834.3
461.878	18509.54
462.083	18312.94
462.289	18888.42
462.494	19687.12
462.7	20074.19
462.905	19715.8
463.111	21800.63
463.316	22797.99
463.522	23371.42
463.727	23740.05
463.932	25165.44
464.138	25585.27
464.343	26951.27
464.549	26646.12
464.754	28945.99
464.959	29746.75
465.165	30266.93
465.37	29666.88
465.575	29978.17
465.781	31450.66
465.986	33306.12
466.191	32493.07
466.397	32740.88
466.602	31954.46
466.807	33750.53
467.012	34457.07
467.218	34821.61
467.423	34985.45
467.628	36150.74
467.833	37459.4
468.038	37473.73
468.244	36570.58
468.449	38311.35
468.654	37926.33
468.859	37844.41
469.064	37447.11
