Data from USB4F104151__74__10-44-08-872.txt Node

Date: Wed Feb 26 10:44:08 EST 2025
User: louis
Spectrometer: USB4F10415
Trigger mode: 4
Integration Time (sec): 1.000000E-1
Scans to average: 1
Electric dark correction enabled: true
Nonlinearity correction enabled: false
Boxcar width: 0
XAxis mode: Wavelengths
Number of Pixels in Spectrum: 3648
>>>>>Begin Spectral Data<<<<<
178.204	-383.48
178.424	-383.48
178.644	-383.48
178.864	-414.2
179.084	-440.83
179.304	-4.61
179.524	-121.34
179.744	67.07
179.964	-0.51
180.184	-14.85
180.404	69.12
180.624	38.4
180.844	19.97
181.064	-61.95
181.283	9.73
181.503	-4.61
181.723	3.58
181.943	-90.62
182.163	247.29
182.383	3.58
182.602	105.98
182.822	118.27
183.042	85.5
183.262	-41.47
183.482	58.88
183.701	75.26
183.921	48.64
184.141	11.78
184.361	91.65
184.58	99.84
184.8	60.93
185.02	-0.51
185.239	87.55
185.459	151.04
185.679	157.18
185.898	-104.96
186.118	52.74
186.338	105.98
186.557	169.47
186.777	-57.86
186.997	-16.9
187.216	126.46
187.436	189.95
187.655	13.82
187.875	136.7
188.095	101.89
188.314	85.5
188.534	118.27
188.753	-37.38
188.973	157.18
189.192	126.46
189.412	9.73
189.631	112.13
189.851	52.74
190.07	148.99
190.29	-37.38
190.509	22.02
190.729	15.87
190.948	132.61
191.168	280.06
191.387	79.36
191.607	56.83
191.826	32.26
192.045	22.02
192.265	50.69
192.484	130.56
192.704	-2.56
192.923	-41.47
193.142	239.1
193.362	69.12
193.581	144.89
193.8	79.36
194.02	124.41
194.239	62.98
194.458	65.02
194.678	95.74
194.897	42.5
195.116	71.17
195.335	19.97
195.555	15.87
195.774	9.73
195.993	97.79
196.212	44.54
196.432	28.16
196.651	3.58
196.87	-78.33
197.089	267.77
197.308	91.65
197.528	73.21
197.747	-37.38
197.966	81.41
198.185	122.37
198.404	50.69
198.623	112.13
198.842	114.17
199.062	83.45
199.281	130.56
199.5	110.08
199.719	97.79
199.938	124.41
200.157	151.04
200.376	179.71
200.595	144.89
200.814	40.45
201.033	-10.75
201.252	142.85
201.471	87.55
201.69	79.36
201.909	-14.85
202.128	110.08
202.347	85.5
202.566	60.93
202.785	-70.14
203.004	17.92
203.223	237.05
203.442	75.26
203.661	-49.66
203.879	81.41
204.098	140.8
204.317	-88.57
204.536	118.27
204.755	116.22
204.974	136.7
205.193	22.02
205.411	140.8
205.63	124.41
205.849	19.97
206.068	22.02
206.287	7.68
206.505	187.9
206.724	77.31
206.943	44.54
207.162	-47.62
207.381	65.02
207.599	-2.56
207.818	75.26
208.037	-61.95
208.255	32.26
208.474	81.41
208.693	56.83
208.911	-14.85
209.13	52.74
209.349	179.71
209.567	79.36
209.786	118.27
210.005	157.18
210.223	38.4
210.442	-92.67
210.661	22.02
210.879	87.55
211.098	95.74
211.316	114.17
211.535	56.83
211.753	11.78
211.972	122.37
212.191	-4.61
212.409	58.88
212.628	173.57
212.846	-18.94
213.065	71.17
213.283	124.41
213.502	34.3
213.72	36.35
213.938	128.51
214.157	-16.9
214.375	151.04
214.594	46.59
214.812	54.78
215.031	73.21
215.249	85.5
215.467	75.26
215.686	67.07
215.904	105.98
216.122	46.59
216.341	130.56
216.559	77.31
216.778	83.45
216.996	81.41
217.214	-14.85
217.432	-53.76
217.651	-10.75
217.869	34.3
218.087	89.6
218.306	42.5
218.524	-6.66
218.742	36.35
218.96	99.84
219.179	79.36
219.397	-76.29
219.615	218.62
219.833	60.93
220.051	13.82
220.27	77.31
220.488	155.13
220.706	77.31
220.924	26.11
221.142	22.02
221.36	30.21
221.578	101.89
221.796	17.92
222.015	-23.04
222.233	122.37
222.451	189.95
222.669	17.92
222.887	130.56
223.105	5.63
223.323	34.3
223.541	-12.8
223.759	71.17
223.977	95.74
224.195	169.47
224.413	108.03
224.631	38.4
224.849	67.07
225.067	224.76
225.285	-39.42
225.503	-29.18
225.721	-59.9
225.939	97.79
226.157	87.55
226.375	267.77
226.592	65.02
226.81	-12.8
227.028	95.74
227.246	93.69
227.464	132.61
227.682	97.79
227.9	159.23
228.117	50.69
228.335	157.18
228.553	38.4
228.771	-90.62
228.989	73.21
229.206	50.69
229.424	93.69
229.642	-18.94
229.86	-41.47
230.077	134.65
230.295	138.75
230.513	85.5
230.731	110.08
230.948	179.71
231.166	173.57
231.384	-2.56
231.601	-23.04
231.819	157.18
232.037	-45.57
232.254	-41.47
232.472	54.78
232.689	42.5
232.907	116.22
233.125	87.55
233.342	-16.9
233.56	-37.38
233.777	79.36
233.995	75.26
234.213	81.41
234.43	214.52
234.648	-68.09
234.865	7.68
235.083	114.17
235.3	67.07
235.518	75.26
235.735	146.94
235.953	79.36
236.17	50.69
236.388	77.31
236.605	-0.51
236.822	144.89
237.04	151.04
237.257	99.84
237.475	9.73
237.692	13.82
237.909	95.74
238.127	9.73
238.344	136.7
238.562	15.87
238.779	-64
238.996	50.69
239.214	22.02
239.431	134.65
239.648	-0.51
239.865	99.84
240.083	148.99
240.3	67.07
240.517	40.45
240.735	26.11
240.952	157.18
241.169	65.02
241.386	91.65
241.603	79.36
241.821	-2.56
242.038	105.98
242.255	196.09
242.472	1.54
242.689	153.09
242.907	65.02
243.124	81.41
243.341	32.26
243.558	32.26
243.775	-14.85
243.992	11.78
244.209	165.37
244.426	220.67
244.643	46.59
244.86	58.88
245.078	101.89
245.295	38.4
245.512	91.65
245.729	95.74
245.946	103.93
246.163	17.92
246.38	58.88
246.597	89.6
246.814	95.74
247.031	60.93
247.248	118.27
247.464	124.41
247.681	81.41
247.898	71.17
248.115	103.93
248.332	-0.51
248.549	122.37
248.766	192
248.983	144.89
249.2	85.5
249.417	103.93
249.633	75.26
249.85	93.69
250.067	91.65
250.284	144.89
250.501	148.99
250.717	77.31
250.934	-4.61
251.151	91.65
251.368	-6.66
251.585	81.41
251.801	26.11
252.018	9.73
252.235	122.37
252.451	9.73
252.668	46.59
252.885	103.93
253.102	116.22
253.318	5.63
253.535	110.08
253.752	56.83
253.968	62.98
254.185	-25.09
254.401	40.45
254.618	75.26
254.835	5.63
255.051	118.27
255.268	71.17
255.484	99.84
255.701	60.93
255.917	153.09
256.134	58.88
256.351	91.65
256.567	-10.75
256.784	60.93
257	-27.14
257.217	151.04
257.433	130.56
257.65	-29.18
257.866	114.17
258.082	26.11
258.299	-84.48
258.515	108.03
258.732	44.54
258.948	54.78
259.165	30.21
259.381	-70.14
259.597	83.45
259.814	75.26
260.03	-23.04
260.246	28.16
260.463	173.57
260.679	153.09
260.895	112.13
261.112	112.13
261.328	19.97
261.544	-31.23
261.761	183.81
261.977	-16.9
262.193	-4.61
262.409	65.02
262.626	67.07
262.842	40.45
263.058	-16.9
263.274	79.36
263.49	83.45
263.707	85.5
263.923	79.36
264.139	-12.8
264.355	91.65
264.571	36.35
264.787	116.22
265.004	153.09
265.22	67.07
265.436	28.16
265.652	108.03
265.868	60.93
266.084	-98.81
266.3	19.97
266.516	-35.33
266.732	118.27
266.948	81.41
267.164	42.5
267.38	165.37
267.596	46.59
267.812	112.13
268.028	54.78
268.244	54.78
268.46	-20.99
268.676	71.17
268.892	60.93
269.108	-41.47
269.324	-2.56
269.54	-6.66
269.756	132.61
269.972	32.26
270.188	103.93
270.403	13.82
270.619	85.5
270.835	89.6
271.051	26.11
271.267	-2.56
271.483	42.5
271.698	110.08
271.914	17.92
272.13	60.93
272.346	36.35
272.562	112.13
272.777	173.57
272.993	-35.33
273.209	46.59
273.425	22.02
273.64	15.87
273.856	169.47
274.072	-45.57
274.287	-33.28
274.503	130.56
274.719	120.32
274.934	95.74
275.15	-12.8
275.366	15.87
275.581	-10.75
275.797	65.02
276.012	34.3
276.228	40.45
276.444	36.35
276.659	167.42
276.875	36.35
277.09	17.92
277.306	-49.66
277.521	65.02
277.737	105.98
277.952	114.17
278.168	67.07
278.383	54.78
278.599	40.45
278.814	232.96
279.03	69.12
279.245	183.81
279.461	-27.14
279.676	110.08
279.892	-4.61
280.107	-31.23
280.322	-43.52
280.538	83.45
280.753	-41.47
280.969	54.78
281.184	34.3
281.399	136.7
281.615	67.07
281.83	26.11
282.045	-23.04
282.26	1.54
282.476	73.21
282.691	114.17
282.906	50.69
283.122	62.98
283.337	101.89
283.552	65.02
283.767	3.58
283.983	128.51
284.198	44.54
284.413	83.45
284.628	-68.09
284.843	134.65
285.058	136.7
285.274	75.26
285.489	-18.94
285.704	38.4
285.919	52.74
286.134	26.11
286.349	110.08
286.564	-12.8
286.779	155.13
286.995	62.98
287.21	-43.52
287.425	112.13
287.64	13.82
287.855	69.12
288.07	-78.33
288.285	120.32
288.5	136.7
288.715	30.21
288.93	1.54
289.145	52.74
289.36	110.08
289.575	75.26
289.79	192
290.004	17.92
290.219	112.13
290.434	-14.85
290.649	65.02
290.864	11.78
291.079	-16.9
291.294	91.65
291.509	83.45
291.724	-6.66
291.938	-0.51
292.153	144.89
292.368	34.3
292.583	75.26
292.798	167.42
293.012	19.97
293.227	95.74
293.442	30.21
293.657	77.31
293.871	132.61
294.086	85.5
294.301	265.72
294.516	114.17
294.73	34.3
294.945	17.92
295.16	22.02
295.374	144.89
295.589	181.76
295.804	-43.52
296.018	81.41
296.233	218.62
296.447	50.69
296.662	30.21
296.877	124.41
297.091	122.37
297.306	28.16
297.52	44.54
297.735	87.55
297.949	9.73
298.164	95.74
298.378	46.59
298.593	42.5
298.807	-2.56
299.022	36.35
299.236	163.33
299.451	32.26
299.665	15.87
299.88	58.88
300.094	85.5
300.309	28.16
300.523	67.07
300.737	15.87
300.952	97.79
301.166	77.31
301.381	-20.99
301.595	69.12
301.809	52.74
302.024	44.54
302.238	-57.86
302.452	81.41
302.667	-6.66
302.881	200.19
303.095	71.17
303.309	44.54
303.524	40.45
303.738	-51.71
303.952	-2.56
304.166	103.93
304.381	-129.53
304.595	146.94
304.809	67.07
305.023	85.5
305.237	-78.33
305.452	26.11
305.666	179.71
305.88	93.69
306.094	54.78
306.308	138.75
306.522	58.88
306.736	103.93
306.95	130.56
307.164	28.16
307.379	67.07
307.593	196.09
307.807	132.61
308.021	194.05
308.235	54.78
308.449	-74.24
308.663	62.98
308.877	167.42
309.091	60.93
309.305	134.65
309.519	-59.9
309.733	118.27
309.947	-14.85
310.161	110.08
310.374	146.94
310.588	165.37
310.802	-16.9
311.016	30.21
311.23	134.65
311.444	-16.9
311.658	17.92
311.872	101.89
312.085	132.61
312.299	91.65
312.513	89.6
312.727	-14.85
312.941	-55.81
313.154	126.46
313.368	138.75
313.582	7.68
313.796	95.74
314.009	60.93
314.223	112.13
314.437	99.84
314.651	114.17
314.864	54.78
315.078	126.46
315.292	-96.77
315.505	44.54
315.719	56.83
315.933	114.17
316.146	9.73
316.36	-12.8
316.573	120.32
316.787	148.99
317.001	58.88
317.214	-18.94
317.428	116.22
317.641	-55.81
317.855	28.16
318.068	34.3
318.282	62.98
318.495	194.05
318.709	79.36
318.922	40.45
319.136	103.93
319.349	75.26
319.563	3.58
319.776	130.56
319.99	-10.75
320.203	148.99
320.417	17.92
320.63	26.11
320.843	126.46
321.057	50.69
321.27	-27.14
321.483	38.4
321.697	110.08
321.91	73.21
322.124	179.71
322.337	65.02
322.55	-43.52
322.763	32.26
322.977	-2.56
323.19	42.5
323.403	87.55
323.617	87.55
323.83	110.08
324.043	9.73
324.256	103.93
324.469	-47.62
324.683	60.93
324.896	71.17
325.109	50.69
325.322	-86.53
325.535	118.27
325.748	75.26
325.962	28.16
326.175	5.63
326.388	34.3
326.601	89.6
326.814	105.98
327.027	126.46
327.24	122.37
327.453	-135.68
327.666	101.89
327.879	60.93
328.092	112.13
328.305	112.13
328.518	1.54
328.731	-10.75
328.944	116.22
329.157	95.74
329.37	-23.04
329.583	181.76
329.796	122.37
330.009	-31.23
330.222	34.3
330.435	118.27
330.648	46.59
330.861	-23.04
331.073	36.35
331.286	120.32
331.499	91.65
331.712	46.59
331.925	44.54
332.138	83.45
332.35	132.61
332.563	9.73
332.776	218.62
332.989	-8.7
333.202	93.69
333.414	40.45
333.627	30.21
333.84	3.58
334.053	185.85
334.265	52.74
334.478	32.26
334.691	75.26
334.903	138.75
335.116	-72.19
335.329	52.74
335.541	144.89
335.754	56.83
335.966	-20.99
336.179	91.65
336.392	-14.85
336.604	87.55
336.817	56.83
337.029	99.84
337.242	58.88
337.454	112.13
337.667	81.41
337.88	79.36
338.092	71.17
338.305	108.03
338.517	-8.7
338.729	175.61
338.942	204.28
339.154	-27.14
339.367	56.83
339.579	93.69
339.792	-64
340.004	56.83
340.217	130.56
340.429	38.4
340.641	36.35
340.854	-18.94
341.066	11.78
341.278	75.26
341.491	198.14
341.703	-23.04
341.915	-8.7
342.128	56.83
342.34	77.31
342.552	-59.9
342.764	93.69
342.977	56.83
343.189	95.74
343.401	32.26
343.613	-25.09
343.826	26.11
344.038	-35.33
344.25	87.55
344.462	-59.9
344.674	95.74
344.886	11.78
345.099	75.26
345.311	91.65
345.523	28.16
345.735	7.68
345.947	26.11
346.159	67.07
346.371	30.21
346.583	1.54
346.795	253.44
347.007	30.21
347.219	91.65
347.431	15.87
347.643	173.57
347.855	34.3
348.067	144.89
348.279	32.26
348.491	71.17
348.703	67.07
348.915	1.54
349.127	-10.75
349.339	46.59
349.551	65.02
349.763	83.45
349.975	112.13
350.187	73.21
350.399	218.62
350.61	83.45
350.822	73.21
351.034	89.6
351.246	77.31
351.458	144.89
351.669	114.17
351.881	128.51
352.093	179.71
352.305	103.93
352.517	108.03
352.728	112.13
352.94	75.26
353.152	77.31
353.363	-18.94
353.575	101.89
353.787	206.33
353.999	52.74
354.21	192
354.422	-29.18
354.633	1.54
354.845	-8.7
355.057	58.88
355.268	91.65
355.48	101.89
355.692	-12.8
355.903	40.45
356.115	9.73
356.326	-47.62
356.538	241.15
356.749	126.46
356.961	171.52
357.172	3.58
357.384	-2.56
357.595	237.05
357.807	91.65
358.018	-6.66
358.23	48.64
358.441	173.57
358.653	105.98
358.864	73.21
359.075	-72.19
359.287	67.07
359.498	155.13
359.709	124.41
359.921	126.46
360.132	54.78
360.344	71.17
360.555	-27.14
360.766	26.11
360.977	40.45
361.189	124.41
361.4	67.07
361.611	128.51
361.823	108.03
362.034	85.5
362.245	-141.82
362.456	46.59
362.667	77.31
362.879	-61.95
363.09	17.92
363.301	224.76
363.512	-16.9
363.723	-70.14
363.935	54.78
364.146	138.75
364.357	3.58
364.568	48.64
364.779	-64
364.99	167.42
365.201	24.06
365.412	183.81
365.623	-39.42
365.834	62.98
366.045	85.5
366.256	116.22
366.467	99.84
366.678	15.87
366.889	161.28
367.1	52.74
367.311	114.17
367.522	36.35
367.733	118.27
367.944	114.17
368.155	-4.61
368.366	108.03
368.577	202.24
368.788	101.89
368.999	-27.14
369.209	7.68
369.42	286.2
369.631	212.48
369.842	69.12
370.053	-35.33
370.264	103.93
370.474	-27.14
370.685	81.41
370.896	146.94
371.107	81.41
371.317	116.22
371.528	3.58
371.739	235
371.95	-47.62
372.16	110.08
372.371	-51.71
372.582	34.3
372.792	19.97
373.003	69.12
373.214	73.21
373.424	103.93
373.635	73.21
373.846	118.27
374.056	62.98
374.267	65.02
374.477	42.5
374.688	22.02
374.898	126.46
375.109	42.5
375.319	-23.04
375.53	169.47
375.74	105.98
375.951	71.17
376.161	42.5
376.372	163.33
376.582	52.74
376.793	118.27
377.003	-0.51
377.214	62.98
377.424	120.32
377.635	32.26
377.845	-27.14
378.055	146.94
378.266	-68.09
378.476	71.17
378.686	71.17
378.897	22.02
379.107	114.17
379.317	144.89
379.528	7.68
379.738	83.45
379.948	-35.33
380.158	146.94
380.369	50.69
380.579	24.06
380.789	52.74
380.999	62.98
381.21	54.78
381.42	187.9
381.63	-10.75
381.84	75.26
382.05	126.46
382.261	126.46
382.471	173.57
382.681	24.06
382.891	169.47
383.101	56.83
383.311	-35.33
383.521	-55.81
383.731	130.56
383.941	71.17
384.151	40.45
384.361	-10.75
384.571	95.74
384.781	71.17
384.991	230.91
385.201	210.43
385.411	71.17
385.621	46.59
385.831	116.22
386.041	128.51
386.251	7.68
386.461	130.56
386.671	81.41
386.881	42.5
387.091	-12.8
387.301	105.98
387.511	89.6
387.72	75.26
387.93	87.55
388.14	-10.75
388.35	87.55
388.56	153.09
388.769	161.28
388.979	9.73
389.189	-16.9
389.399	56.83
389.609	128.51
389.818	89.6
390.028	148.99
390.238	46.59
390.447	42.5
390.657	124.41
390.867	17.92
391.076	-82.43
391.286	28.16
391.496	-33.28
391.705	110.08
391.915	159.23
392.125	103.93
392.334	50.69
392.544	173.57
392.753	85.5
392.963	38.4
393.172	130.56
393.382	46.59
393.591	157.18
393.801	-0.51
394.01	261.63
394.22	91.65
394.429	60.93
394.639	54.78
394.848	65.02
395.058	140.8
395.267	19.97
395.477	95.74
395.686	87.55
395.895	232.96
396.105	220.67
396.314	56.83
396.524	93.69
396.733	19.97
396.942	112.13
397.152	118.27
397.361	91.65
397.57	81.41
397.78	101.89
397.989	122.37
398.198	275.96
398.407	11.78
398.617	13.82
398.826	40.45
399.035	38.4
399.244	85.5
399.453	26.11
399.663	110.08
399.872	83.45
400.081	-45.57
400.29	87.55
400.499	7.68
400.708	122.37
400.917	105.98
401.127	34.3
401.336	83.45
401.545	196.09
401.754	122.37
401.963	89.6
402.172	36.35
402.381	-29.18
402.59	38.4
402.799	-8.7
403.008	112.13
403.217	128.51
403.426	71.17
403.635	-59.9
403.844	77.31
404.053	50.69
404.262	3.58
404.471	208.38
404.68	97.79
404.888	110.08
405.097	87.55
405.306	85.5
405.515	144.89
405.724	-0.51
405.933	136.7
406.142	60.93
406.35	93.69
406.559	67.07
406.768	103.93
406.977	99.84
407.185	101.89
407.394	50.69
407.603	-25.09
407.812	62.98
408.02	206.33
408.229	52.74
408.438	87.55
408.646	-31.23
408.855	22.02
409.064	99.84
409.272	5.63
409.481	126.46
409.69	11.78
409.898	15.87
410.107	97.79
410.315	128.51
410.524	26.11
410.733	120.32
410.941	120.32
411.15	130.56
411.358	118.27
411.567	128.51
411.775	34.3
411.984	58.88
412.192	120.32
412.401	15.87
412.609	239.1
412.818	181.76
413.026	67.07
413.234	120.32
413.443	-2.56
413.651	-6.66
413.86	32.26
414.068	157.18
414.276	181.76
414.485	-29.18
414.693	222.72
414.901	196.09
415.11	77.31
415.318	95.74
415.526	38.4
415.734	165.37
415.943	67.07
416.151	192
416.359	44.54
416.567	153.09
416.776	114.17
416.984	75.26
417.192	173.57
417.4	-2.56
417.608	34.3
417.817	36.35
418.025	161.28
418.233	173.57
418.441	3.58
418.649	13.82
418.857	3.58
419.065	239.1
419.273	48.64
419.481	32.26
419.689	-12.8
419.897	175.61
420.105	-35.33
420.313	171.52
420.521	169.47
420.729	169.47
420.937	83.45
421.145	-0.51
421.353	85.5
421.561	183.81
421.769	101.89
421.977	60.93
422.185	108.03
422.393	19.97
422.601	163.33
422.809	120.32
423.017	183.81
423.224	99.84
423.432	65.02
423.64	58.88
423.848	136.7
424.056	3.58
424.263	194.05
424.471	19.97
424.679	212.48
424.887	30.21
425.094	163.33
425.302	224.76
425.51	81.41
425.718	130.56
425.925	58.88
426.133	42.5
426.341	269.82
426.548	108.03
426.756	71.17
426.964	93.69
427.171	71.17
427.379	101.89
427.586	101.89
427.794	175.61
428.001	165.37
428.209	144.89
428.417	226.81
428.624	183.81
428.832	36.35
429.039	138.75
429.247	54.78
429.454	124.41
429.662	249.34
429.869	124.41
430.076	138.75
430.284	179.71
430.491	169.47
430.699	105.98
430.906	267.77
431.114	136.7
431.321	196.09
431.528	101.89
431.736	159.23
431.943	192
432.15	120.32
432.358	304.64
432.565	290.3
432.772	44.54
432.979	280.06
433.187	198.14
433.394	294.4
433.601	151.04
433.808	290.3
434.016	294.4
434.223	275.96
434.43	99.84
434.637	261.63
434.844	314.88
435.052	214.52
435.259	282.11
435.466	288.25
435.673	284.16
435.88	316.92
436.087	298.49
436.294	400.89
436.501	333.31
436.708	280.06
436.915	382.46
437.122	353.79
437.329	380.41
437.537	282.11
437.743	310.78
437.95	404.99
438.157	339.45
438.364	380.41
438.571	445.95
438.778	503.29
438.985	564.73
439.192	556.54
439.399	472.57
439.606	536.06
439.813	525.82
440.02	624.12
440.227	759.28
440.433	568.82
440.64	577.02
440.847	605.69
441.054	642.55
441.261	775.67
441.467	732.66
441.674	640.5
441.881	773.62
442.088	687.61
442.294	908.79
442.501	845.3
442.708	906.74
442.914	804.34
443.121	947.7
443.328	878.07
443.534	992.75
443.741	1056.24
443.948	904.69
444.154	1117.68
444.361	1115.63
444.568	1039.86
444.774	1166.83
444.981	982.51
445.187	1273.32
445.394	1312.24
445.6	1222.13
445.807	1363.44
446.013	1326.57
446.22	1369.58
446.426	1609.19
446.633	1676.77
446.839	1764.84
447.046	1435.11
447.252	1768.93
447.459	1820.13
447.665	1822.18
447.871	1938.91
448.078	2063.84
448.284	2106.85
448.491	2201.05
448.697	2299.36
448.903	2325.98
449.11	2338.27
449.316	2422.24
449.522	2661.85
449.728	2735.57
449.935	2794.97
450.141	2639.32
450.347	2860.5
450.553	2901.46
450.76	2989.52
450.966	3157.46
451.172	3306.96
451.378	3370.44
451.584	3368.4
451.791	3605.96
451.997	3655.11
452.203	3868.1
452.409	3886.53
452.615	4163.01
452.821	4060.61
453.027	3982.79
453.233	4742.58
453.44	4609.47
453.646	4887.99
453.852	5031.35
454.058	5133.75
454.264	5402.03
454.47	5606.83
454.676	5684.65
454.882	6161.83
455.088	5901.73
455.294	6317.47
455.5	6616.48
455.705	7085.46
455.911	7060.88
456.117	7261.59
456.323	7550.35
456.529	7660.94
456.735	8211.84
456.941	8375.68
457.147	8803.71
457.352	8990.07
457.558	9307.51
457.764	9756.01
457.97	10071.4
458.176	10392.93
458.381	11007.32
458.587	11113.81
458.793	11988.3
458.999	11691.34
459.204	13237.56
459.41	13833.52
459.616	13403.44
459.821	14134.57
460.027	14929.18
460.233	15588.63
460.438	15789.33
460.644	16602.37
460.85	16768.26
461.055	17366.26
461.261	18013.42
461.466	17933.55
461.672	18267.37
461.878	20241.61
462.083	20184.27
462.289	20387.02
462.494	21472.44
462.7	21638.33
462.905	21828.79
463.111	23430.3
463.316	24650.89
463.522	25347.2
463.727	26055.79
463.932	27114.59
464.138	27917.4
464.343	28857.42
464.549	29254.72
464.754	31249.44
464.959	32384.02
465.165	32474.13
465.37	32545.81
465.575	32300.05
465.781	34550.77
465.986	35613.66
466.191	35267.56
466.397	35384.29
466.602	34309.11
466.807	36451.28
467.012	37084.11
467.218	37878.72
467.423	37870.53
467.628	38976.43
467.833	40891.28
468.038	40221.59
