Data from USB4F104151__35__10-42-33-882.txt Node

Date: Wed Feb 26 10:42:33 EST 2025
User: louis
Spectrometer: USB4F10415
Trigger mode: 4
Integration Time (sec): 1.000000E-1
Scans to average: 1
Electric dark correction enabled: true
Nonlinearity correction enabled: false
Boxcar width: 0
XAxis mode: Wavelengths
Number of Pixels in Spectrum: 3648
>>>>>Begin Spectral Data<<<<<
178.204	-402.6
178.424	-402.6
178.644	-402.6
178.864	-390.31
179.084	-398.5
179.304	-64.68
179.524	-3.24
179.744	-44.2
179.964	31.57
180.184	11.09
180.404	19.29
180.624	-25.77
180.844	23.38
181.064	-85.16
181.283	74.58
181.503	-23.72
181.723	86.87
181.943	-183.46
182.163	115.54
182.383	-42.15
182.602	93.01
182.822	82.77
183.042	27.48
183.262	-9.39
183.482	-56.49
183.701	-7.34
183.921	-79.02
184.141	9.05
184.361	140.12
184.58	50
184.8	-1.19
185.02	-23.72
185.239	82.77
185.459	68.44
185.679	121.68
185.898	-62.63
186.118	99.16
186.338	52.05
186.557	156.5
186.777	-31.91
186.997	-17.58
187.216	-38.06
187.436	195.41
187.655	138.07
187.875	84.82
188.095	45.91
188.314	93.01
188.534	136.02
188.753	-15.53
188.973	181.07
189.192	205.65
189.412	-13.48
189.631	33.62
189.851	-1.19
190.07	183.12
190.29	15.19
190.509	33.62
190.729	9.05
190.948	74.58
191.168	205.65
191.387	39.76
191.607	52.05
191.826	58.2
192.045	13.14
192.265	-7.34
192.484	68.44
192.704	35.67
192.923	-25.77
193.142	219.99
193.362	148.31
193.581	113.49
193.8	27.48
194.02	66.39
194.239	127.83
194.458	-7.34
194.678	-3.24
194.897	-7.34
195.116	72.53
195.335	56.15
195.555	29.52
195.774	9.05
195.993	82.77
196.212	-13.48
196.432	-9.39
196.651	-27.82
196.87	29.52
197.089	185.17
197.308	37.72
197.528	82.77
197.747	-91.31
197.966	60.24
198.185	189.27
198.404	-48.3
198.623	131.92
198.842	138.07
199.062	88.92
199.281	84.82
199.5	9.05
199.719	70.48
199.938	2.9
200.157	97.11
200.376	183.12
200.595	105.3
200.814	86.87
201.033	27.48
201.252	144.21
201.471	88.92
201.69	56.15
201.909	138.07
202.128	146.26
202.347	29.52
202.566	52.05
202.785	-17.58
203.004	2.9
203.223	185.17
203.442	88.92
203.661	-74.92
203.879	72.53
204.098	103.25
204.317	-68.78
204.536	101.2
204.755	58.2
204.974	58.2
205.193	-52.39
205.411	181.07
205.63	121.68
205.849	123.73
206.068	27.48
206.287	-17.58
206.505	150.36
206.724	95.06
206.943	-3.24
207.162	-3.24
207.381	107.35
207.599	-1.19
207.818	-15.53
208.037	-23.72
208.255	76.63
208.474	60.24
208.693	39.76
208.911	-15.53
209.13	133.97
209.349	90.96
209.567	43.86
209.786	47.96
210.005	39.76
210.223	66.39
210.442	-107.69
210.661	68.44
210.879	-3.24
211.098	56.15
211.316	33.62
211.535	119.64
211.753	-19.63
211.972	27.48
212.191	-50.35
212.409	47.96
212.628	27.48
212.846	41.81
213.065	19.29
213.283	80.72
213.502	35.67
213.72	39.76
213.938	37.72
214.157	50
214.375	101.2
214.594	-33.96
214.812	41.81
215.031	56.15
215.249	23.38
215.467	117.59
215.686	64.34
215.904	25.43
216.122	-5.29
216.341	90.96
216.559	9.05
216.778	72.53
216.996	99.16
217.214	37.72
217.432	39.76
217.651	-31.91
217.869	62.29
218.087	58.2
218.306	-13.48
218.524	17.24
218.742	-31.91
218.96	170.83
219.179	70.48
219.397	9.05
219.615	150.36
219.833	88.92
220.051	2.9
220.27	66.39
220.488	58.2
220.706	39.76
220.924	47.96
221.142	15.19
221.36	101.2
221.578	164.69
221.796	-36.01
222.015	66.39
222.233	-19.63
222.451	207.7
222.669	25.43
222.887	64.34
223.105	7
223.323	35.67
223.541	-13.48
223.759	101.2
223.977	113.49
224.195	123.73
224.413	160.59
224.631	107.35
224.849	121.68
225.067	187.22
225.285	23.38
225.503	2.9
225.721	-56.49
225.939	56.15
226.157	90.96
226.375	242.51
226.592	37.72
226.81	41.81
227.028	58.2
227.246	101.2
227.464	-27.82
227.682	72.53
227.9	84.82
228.117	19.29
228.335	127.83
228.553	60.24
228.771	121.68
228.989	172.88
229.206	107.35
229.424	66.39
229.642	21.33
229.86	2.9
230.077	64.34
230.295	52.05
230.513	62.29
230.731	123.73
230.948	129.88
231.166	105.3
231.384	-27.82
231.601	-29.87
231.819	181.07
232.037	-40.11
232.254	-74.92
232.472	37.72
232.689	37.72
232.907	146.26
233.125	66.39
233.342	-66.73
233.56	13.14
233.777	-11.43
233.995	-7.34
234.213	140.12
234.43	160.59
234.648	-27.82
234.865	-54.44
235.083	58.2
235.3	86.87
235.518	170.83
235.735	131.92
235.953	54.1
236.17	-52.39
236.388	58.2
236.605	68.44
236.822	195.41
237.04	101.2
237.257	123.73
237.475	-76.97
237.692	76.63
237.909	78.68
238.127	82.77
238.344	45.91
238.562	-42.15
238.779	-54.44
238.996	-66.73
239.214	19.29
239.431	90.96
239.648	11.09
239.865	76.63
240.083	56.15
240.3	43.86
240.517	19.29
240.735	41.81
240.952	152.4
241.169	70.48
241.386	109.4
241.603	23.38
241.821	-95.4
242.038	103.25
242.255	82.77
242.472	-40.11
242.689	119.64
242.907	58.2
243.124	27.48
243.341	-52.39
243.558	-21.67
243.775	-36.01
243.992	-42.15
244.209	58.2
244.426	170.83
244.643	54.1
244.86	9.05
245.078	70.48
245.295	123.73
245.512	45.91
245.729	-17.58
245.946	68.44
246.163	2.9
246.38	2.9
246.597	95.06
246.814	21.33
247.031	35.67
247.248	-27.82
247.464	88.92
247.681	64.34
247.898	9.05
248.115	19.29
248.332	25.43
248.549	82.77
248.766	123.73
248.983	82.77
249.2	-9.39
249.417	105.3
249.633	-25.77
249.85	95.06
250.067	29.52
250.284	136.02
250.501	15.19
250.717	21.33
250.934	-13.48
251.151	-5.29
251.368	52.05
251.585	115.54
251.801	80.72
252.018	11.09
252.235	136.02
252.451	-7.34
252.668	101.2
252.885	86.87
253.102	33.62
253.318	13.14
253.535	37.72
253.752	-3.24
253.968	-17.58
254.185	-40.11
254.401	127.83
254.618	4.95
254.835	-83.11
255.051	140.12
255.268	142.16
255.484	86.87
255.701	15.19
255.917	33.62
256.134	45.91
256.351	21.33
256.567	-60.59
256.784	70.48
257	-64.68
257.217	84.82
257.433	99.16
257.65	84.82
257.866	172.88
258.082	-103.59
258.299	-7.34
258.515	64.34
258.732	35.67
258.948	-17.58
259.165	68.44
259.381	-19.63
259.597	109.4
259.814	68.44
260.03	19.29
260.246	-23.72
260.463	127.83
260.679	148.31
260.895	39.76
261.112	119.64
261.328	97.11
261.544	-60.59
261.761	148.31
261.977	-62.63
262.193	-13.48
262.409	183.12
262.626	80.72
262.842	99.16
263.058	-11.43
263.274	131.92
263.49	76.63
263.707	21.33
263.923	68.44
264.139	-91.31
264.355	58.2
264.571	113.49
264.787	31.57
265.004	113.49
265.22	35.67
265.436	37.72
265.652	66.39
265.868	99.16
266.084	-76.97
266.3	31.57
266.516	-11.43
266.732	37.72
266.948	-38.06
267.164	-17.58
267.38	101.2
267.596	80.72
267.812	172.88
268.028	-1.19
268.244	15.19
268.46	13.14
268.676	15.19
268.892	9.05
269.108	-46.25
269.324	-1.19
269.54	-17.58
269.756	150.36
269.972	-42.15
270.188	29.52
270.403	41.81
270.619	27.48
270.835	109.4
271.051	23.38
271.267	60.24
271.483	17.24
271.698	111.44
271.914	88.92
272.13	56.15
272.346	0.85
272.562	0.85
272.777	70.48
272.993	-15.53
273.209	-25.77
273.425	72.53
273.64	-13.48
273.856	97.11
274.072	-29.87
274.287	2.9
274.503	64.34
274.719	60.24
274.934	11.09
275.15	-95.4
275.366	52.05
275.581	29.52
275.797	-68.78
276.012	60.24
276.228	25.43
276.444	68.44
276.659	228.18
276.875	43.86
277.09	58.2
277.306	0.85
277.521	127.83
277.737	115.54
277.952	107.35
278.168	47.96
278.383	47.96
278.599	45.91
278.814	76.63
279.03	9.05
279.245	99.16
279.461	101.2
279.676	129.88
279.892	-11.43
280.107	-21.67
280.322	-5.29
280.538	25.43
280.753	56.15
280.969	50
281.184	9.05
281.399	191.31
281.615	21.33
281.83	56.15
282.045	-79.02
282.26	37.72
282.476	47.96
282.691	93.01
282.906	105.3
283.122	-1.19
283.337	43.86
283.552	101.2
283.767	-52.39
283.983	117.59
284.198	31.57
284.413	125.78
284.628	-40.11
284.843	62.29
285.058	47.96
285.274	-3.24
285.489	27.48
285.704	121.68
285.919	-29.87
286.134	11.09
286.349	15.19
286.564	78.68
286.779	213.84
286.995	68.44
287.21	-113.83
287.425	101.2
287.64	45.91
287.855	74.58
288.07	-36.01
288.285	66.39
288.5	54.1
288.715	99.16
288.93	56.15
289.145	21.33
289.36	138.07
289.575	-21.67
289.79	97.11
290.004	-15.53
290.219	99.16
290.434	47.96
290.649	4.95
290.864	-17.58
291.079	19.29
291.294	99.16
291.509	131.92
291.724	33.62
291.938	-9.39
292.153	82.77
292.368	43.86
292.583	58.2
292.798	35.67
293.012	99.16
293.227	93.01
293.442	-21.67
293.657	97.11
293.871	111.44
294.086	80.72
294.301	168.79
294.516	142.16
294.73	21.33
294.945	-1.19
295.16	56.15
295.374	45.91
295.589	101.2
295.804	-17.58
296.018	50
296.233	127.83
296.447	56.15
296.662	31.57
296.877	107.35
297.091	160.59
297.306	39.76
297.52	2.9
297.735	84.82
297.949	105.3
298.164	-13.48
298.378	39.76
298.593	35.67
298.807	-13.48
299.022	21.33
299.236	88.92
299.451	47.96
299.665	-29.87
299.88	35.67
300.094	72.53
300.309	-33.96
300.523	88.92
300.737	-58.54
300.952	4.95
301.166	72.53
301.381	-5.29
301.595	-21.67
301.809	4.95
302.024	11.09
302.238	-3.24
302.452	205.65
302.667	23.38
302.881	123.73
303.095	142.16
303.309	129.88
303.524	-25.77
303.738	15.19
303.952	-7.34
304.166	50
304.381	-50.35
304.595	84.82
304.809	43.86
305.023	50
305.237	4.95
305.452	80.72
305.666	154.45
305.88	21.33
306.094	129.88
306.308	-36.01
306.522	54.1
306.736	70.48
306.95	136.02
307.164	68.44
307.379	17.24
307.593	142.16
307.807	140.12
308.021	78.68
308.235	125.78
308.449	-101.55
308.663	70.48
308.877	154.45
309.091	43.86
309.305	90.96
309.519	-91.31
309.733	189.27
309.947	-13.48
310.161	78.68
310.374	154.45
310.588	181.07
310.802	-38.06
311.016	-21.67
311.23	90.96
311.444	-70.83
311.658	19.29
311.872	172.88
312.085	84.82
312.299	117.59
312.513	160.59
312.727	60.24
312.941	-29.87
313.154	90.96
313.368	2.9
313.582	41.81
313.796	56.15
314.009	31.57
314.223	146.26
314.437	140.12
314.651	95.06
314.864	-58.54
315.078	19.29
315.292	27.48
315.505	43.86
315.719	0.85
315.933	54.1
316.146	11.09
316.36	17.24
316.573	72.53
316.787	78.68
317.001	78.68
317.214	13.14
317.428	37.72
317.641	-58.54
317.855	4.95
318.068	76.63
318.282	11.09
318.495	242.51
318.709	99.16
318.922	101.2
319.136	70.48
319.349	64.34
319.563	-44.2
319.776	-33.96
319.99	-68.78
320.203	41.81
320.417	50
320.63	105.3
320.843	179.03
321.057	47.96
321.27	45.91
321.483	95.06
321.697	189.27
321.91	0.85
322.124	39.76
322.337	66.39
322.55	-7.34
322.763	54.1
322.977	31.57
323.19	-15.53
323.403	-9.39
323.617	64.34
323.83	142.16
324.043	-9.39
324.256	62.29
324.469	-31.91
324.683	70.48
324.896	41.81
325.109	17.24
325.322	-33.96
325.535	90.96
325.748	64.34
325.962	47.96
326.175	45.91
326.388	15.19
326.601	125.78
326.814	15.19
327.027	125.78
327.24	168.79
327.453	-91.31
327.666	47.96
327.879	84.82
328.092	189.27
328.305	82.77
328.518	39.76
328.731	-19.63
328.944	60.24
329.157	35.67
329.37	58.2
329.583	172.88
329.796	111.44
330.009	-83.11
330.222	64.34
330.435	76.63
330.648	97.11
330.861	37.72
331.073	9.05
331.286	125.78
331.499	68.44
331.712	35.67
331.925	101.2
332.138	17.24
332.35	80.72
332.563	-64.68
332.776	68.44
332.989	-93.35
333.202	-1.19
333.414	78.68
333.627	27.48
333.84	-11.43
334.053	56.15
334.265	43.86
334.478	62.29
334.691	-68.78
334.903	-13.48
335.116	43.86
335.329	25.43
335.541	25.43
335.754	269.14
335.966	-7.34
336.179	25.43
336.392	27.48
336.604	-9.39
336.817	93.01
337.029	62.29
337.242	25.43
337.454	142.16
337.667	90.96
337.88	146.26
338.092	109.4
338.305	111.44
338.517	13.14
338.729	125.78
338.942	154.45
339.154	-74.92
339.367	-70.83
339.579	39.76
339.792	-87.21
340.004	131.92
340.217	56.15
340.429	62.29
340.641	-23.72
340.854	2.9
341.066	-3.24
341.278	111.44
341.491	107.35
341.703	45.91
341.915	-9.39
342.128	105.3
342.34	-11.43
342.552	-27.82
342.764	82.77
342.977	-5.29
343.189	-23.72
343.401	99.16
343.613	-25.77
343.826	68.44
344.038	60.24
344.25	11.09
344.462	-29.87
344.674	47.96
344.886	15.19
345.099	90.96
345.311	70.48
345.523	37.72
345.735	-79.02
345.947	33.62
346.159	54.1
346.371	101.2
346.583	56.15
346.795	281.43
347.007	84.82
347.219	66.39
347.431	15.19
347.643	156.5
347.855	2.9
348.067	199.51
348.279	-38.06
348.491	129.88
348.703	90.96
348.915	-9.39
349.127	23.38
349.339	56.15
349.551	-97.45
349.763	76.63
349.975	72.53
350.187	93.01
350.399	80.72
350.61	113.49
350.822	-5.29
351.034	39.76
351.246	74.58
351.458	35.67
351.669	74.58
351.881	31.57
352.093	138.07
352.305	84.82
352.517	113.49
352.728	93.01
352.94	19.29
353.152	68.44
353.363	-29.87
353.575	80.72
353.787	74.58
353.999	84.82
354.21	164.69
354.422	-13.48
354.633	99.16
354.845	-36.01
355.057	0.85
355.268	191.31
355.48	45.91
355.692	-17.58
355.903	56.15
356.115	-17.58
356.326	-3.24
356.538	113.49
356.749	156.5
356.961	189.27
357.172	17.24
357.384	19.29
357.595	162.64
357.807	7
358.018	7
358.23	52.05
358.441	158.55
358.653	52.05
358.864	50
359.075	-64.68
359.287	11.09
359.498	109.4
359.709	109.4
359.921	45.91
360.132	80.72
360.344	11.09
360.555	9.05
360.766	41.81
360.977	-1.19
361.189	95.06
361.4	9.05
361.611	152.4
361.823	115.54
362.034	58.2
362.245	-83.11
362.456	52.05
362.667	27.48
362.879	-9.39
363.09	39.76
363.301	93.01
363.512	82.77
363.723	-15.53
363.935	4.95
364.146	138.07
364.357	25.43
364.568	80.72
364.779	-138.41
364.99	111.44
365.201	-7.34
365.412	93.01
365.623	-103.59
365.834	66.39
366.045	33.62
366.256	72.53
366.467	66.39
366.678	93.01
366.889	9.05
367.1	50
367.311	105.3
367.522	35.67
367.733	88.92
367.944	52.05
368.155	93.01
368.366	39.76
368.577	168.79
368.788	121.68
368.999	-23.72
369.209	43.86
369.42	238.42
369.631	232.27
369.842	33.62
370.053	45.91
370.264	78.68
370.474	-19.63
370.685	64.34
370.896	56.15
371.107	136.02
371.317	152.4
371.528	-50.35
371.739	66.39
371.95	95.06
372.16	60.24
372.371	-105.64
372.582	47.96
372.792	52.05
373.003	56.15
373.214	23.38
373.424	131.92
373.635	4.95
373.846	78.68
374.056	25.43
374.267	50
374.477	0.85
374.688	-79.02
374.898	56.15
375.109	15.19
375.319	84.82
375.53	82.77
375.74	156.5
375.951	-60.59
376.161	119.64
376.372	88.92
376.582	-48.3
376.793	25.43
377.003	23.38
377.214	-1.19
377.424	140.12
377.635	-13.48
377.845	52.05
378.055	187.22
378.266	23.38
378.476	41.81
378.686	68.44
378.897	17.24
379.107	41.81
379.317	84.82
379.528	-11.43
379.738	62.29
379.948	-50.35
380.158	179.03
380.369	78.68
380.579	109.4
380.789	19.29
380.999	123.73
381.21	88.92
381.42	107.35
381.63	35.67
381.84	125.78
382.05	50
382.261	107.35
382.471	121.68
382.681	60.24
382.891	199.51
383.101	9.05
383.311	105.3
383.521	4.95
383.731	31.57
383.941	111.44
384.151	80.72
384.361	15.19
384.571	109.4
384.781	54.1
384.991	144.21
385.201	168.79
385.411	101.2
385.621	64.34
385.831	109.4
386.041	76.63
386.251	72.53
386.461	113.49
386.671	-40.11
386.881	58.2
387.091	50
387.301	172.88
387.511	-23.72
387.72	95.06
387.93	80.72
388.14	-1.19
388.35	52.05
388.56	0.85
388.769	133.97
388.979	11.09
389.189	17.24
389.399	27.48
389.609	99.16
389.818	117.59
390.028	47.96
390.238	99.16
390.447	25.43
390.657	99.16
390.867	11.09
391.076	-31.91
391.286	115.54
391.496	76.63
391.705	-17.58
391.915	138.07
392.125	23.38
392.334	11.09
392.544	189.27
392.753	17.24
392.963	-7.34
393.172	56.15
393.382	37.72
393.591	164.69
393.801	58.2
394.01	150.36
394.22	58.2
394.429	-9.39
394.639	54.1
394.848	9.05
395.058	47.96
395.267	74.58
395.477	111.44
395.686	119.64
395.895	236.37
396.105	246.61
396.314	17.24
396.524	86.87
396.733	-5.29
396.942	86.87
397.152	136.02
397.361	131.92
397.57	64.34
397.78	90.96
397.989	97.11
398.198	170.83
398.407	56.15
398.617	35.67
398.826	-38.06
399.035	64.34
399.244	123.73
399.453	-27.82
399.663	23.38
399.872	125.78
400.081	-21.67
400.29	95.06
400.499	-3.24
400.708	101.2
400.917	58.2
401.127	86.87
401.336	29.52
401.545	240.47
401.754	29.52
401.963	88.92
402.172	-5.29
402.381	-95.4
402.59	-15.53
402.799	-29.87
403.008	140.12
403.217	101.2
403.426	129.88
403.635	-31.91
403.844	17.24
404.053	47.96
404.262	-33.96
404.471	154.45
404.68	27.48
404.888	4.95
405.097	19.29
405.306	13.14
405.515	56.15
405.724	95.06
405.933	80.72
406.142	62.29
406.35	95.06
406.559	93.01
406.768	125.78
406.977	95.06
407.185	58.2
407.394	78.68
407.603	4.95
407.812	90.96
408.02	119.64
408.229	-62.63
408.438	133.97
408.646	4.95
408.855	11.09
409.064	-15.53
409.272	-33.96
409.481	43.86
409.69	-62.63
409.898	7
410.107	140.12
410.315	64.34
410.524	-13.48
410.733	70.48
410.941	58.2
411.15	109.4
411.358	68.44
411.567	172.88
411.775	123.73
411.984	19.29
412.192	80.72
412.401	50
412.609	158.55
412.818	172.88
413.026	45.91
413.234	84.82
413.443	50
413.651	27.48
413.86	-3.24
414.068	166.74
414.276	164.69
414.485	86.87
414.693	148.31
414.901	164.69
415.11	76.63
415.318	-5.29
415.526	9.05
415.734	105.3
415.943	17.24
416.151	162.64
416.359	37.72
416.567	-19.63
416.776	33.62
416.984	162.64
417.192	183.12
417.4	29.52
417.608	21.33
417.817	-64.68
418.025	88.92
418.233	166.74
418.441	2.9
418.649	2.9
418.857	60.24
419.065	244.56
419.273	-29.87
419.481	39.76
419.689	45.91
419.897	29.52
420.105	-1.19
420.313	101.2
420.521	244.56
420.729	148.31
420.937	35.67
421.145	0.85
421.353	168.79
421.561	154.45
421.769	95.06
421.977	52.05
422.185	179.03
422.393	109.4
422.601	111.44
422.809	138.07
423.017	45.91
423.224	76.63
423.432	152.4
423.64	37.72
423.848	99.16
424.056	84.82
424.263	140.12
424.471	-23.72
424.679	195.41
424.887	-60.59
425.094	152.4
425.302	150.36
425.51	90.96
425.718	136.02
425.925	88.92
426.133	35.67
426.341	189.27
426.548	72.53
426.756	-11.43
426.964	115.54
427.171	39.76
427.379	109.4
427.586	170.83
427.794	228.18
428.001	140.12
428.209	181.07
428.417	207.7
428.624	101.2
428.832	176.98
429.039	95.06
429.247	97.11
429.454	95.06
429.662	224.08
429.869	140.12
430.076	172.88
430.284	140.12
430.491	228.18
430.699	109.4
430.906	238.42
431.114	113.49
431.321	185.17
431.528	146.26
431.736	129.88
431.943	293.71
432.15	205.65
432.358	228.18
432.565	260.95
432.772	88.92
432.979	236.37
433.187	133.97
433.394	295.76
433.601	158.55
433.808	289.62
434.016	265.04
434.223	271.19
434.43	179.03
434.637	279.38
434.844	336.72
435.052	283.47
435.259	299.86
435.466	324.43
435.673	340.82
435.88	367.44
436.087	346.96
436.294	394.06
436.501	359.25
436.708	297.81
436.915	367.44
437.122	357.2
437.329	334.67
437.537	328.53
437.743	484.17
437.95	531.28
438.157	455.5
438.364	416.59
438.571	492.37
438.778	619.34
438.985	512.85
439.192	602.96
439.399	475.98
439.606	609.1
439.813	664.4
440.02	668.49
440.227	854.86
440.433	740.17
440.64	729.93
440.847	719.69
441.054	736.07
441.261	881.48
441.467	799.56
441.674	807.75
441.881	936.78
442.088	863.05
442.294	901.96
442.501	1004.36
442.708	1008.45
442.914	983.88
443.121	1129.28
443.328	1125.19
443.534	1133.38
443.741	1166.15
443.948	1063.75
444.154	1213.25
444.361	1493.82
444.568	1291.07
444.774	1291.07
444.981	1231.68
445.187	1473.34
445.394	1524.54
445.6	1473.34
445.807	1764.15
446.013	1676.09
446.22	1637.18
446.426	1878.84
446.633	1774.39
446.839	2022.2
447.046	1790.78
447.252	2128.69
447.459	2132.79
447.665	2198.32
447.871	2276.15
448.078	2462.51
448.284	2364.21
448.491	2478.9
448.697	2616.11
448.903	2853.67
449.11	2751.28
449.316	2765.61
449.522	3070.76
449.728	3074.85
449.935	3193.64
450.141	3336.99
450.347	3455.78
450.553	3328.8
450.76	3486.5
450.966	3719.96
451.172	3808.03
451.378	3998.49
451.584	4160.28
451.791	4229.91
451.997	4518.67
452.203	4670.22
452.409	4827.92
452.615	5073.67
452.821	4989.71
453.027	5120.78
453.233	5612.29
453.44	5298.95
453.646	5681.92
453.852	5989.11
454.058	6202.1
454.264	6398.71
454.47	6722.29
454.676	6884.08
454.882	7473.89
455.088	6968.04
455.294	7631.58
455.5	8037.08
455.705	8606.42
455.911	8487.64
456.117	8784.59
456.323	9161.42
456.529	9050.83
456.735	9843.39
456.941	10191.55
457.147	10515.12
457.352	10592.95
457.558	11055.79
457.764	11762.34
457.97	12360.34
458.176	12362.39
458.381	13222.54
458.587	13310.6
458.793	13951.62
458.999	14224
459.204	15993.44
459.41	16380.51
459.616	16120.42
459.821	17222.22
460.027	17865.28
460.233	18698.81
460.438	18620.99
460.644	19565.1
460.85	20191.78
461.055	20652.57
461.261	22061.57
461.466	21344.78
461.672	21711.37
461.878	24367.59
462.083	23812.59
462.289	24394.21
462.494	25762.25
462.7	25672.14
462.905	26079.69
463.111	28297.64
463.316	29690.26
463.522	30226.82
463.727	31271.29
463.932	32416.1
464.138	33102.17
464.343	34496.84
464.549	34636.1
464.754	37064.99
464.959	38201.61
465.165	38957.31
465.37	38373.64
465.575	38709.51
465.781	40947.94
465.986	42260.69
466.191	41707.74
466.397	42010.84
466.602	41058.53
466.807	43727.03
467.012	44060.85
467.218	45076.65
467.423	45252.77
467.628	46678.16
467.833	48590.96
468.038	47745.15
468.244	46708.88
468.449	49639.52
468.654	48570.48
468.859	48154.74
469.064	48674.93
