Data from USB4F104151__144__11-04-18-838.txt Node

Date: Wed Feb 26 11:04:18 EST 2025
User: louis
Spectrometer: USB4F10415
Trigger mode: 4
Integration Time (sec): 1.000000E-1
Scans to average: 1
Electric dark correction enabled: true
Nonlinearity correction enabled: false
Boxcar width: 0
XAxis mode: Wavelengths
Number of Pixels in Spectrum: 3648
>>>>>Begin Spectral Data<<<<<
178.204	-393.38
178.424	-393.38
178.644	-393.38
178.864	-422.05
179.084	-358.57
179.304	-18.6
179.524	-39.08
179.744	46.93
179.964	44.88
180.184	22.36
180.404	79.7
180.624	1.88
180.844	-22.7
181.064	-168.1
181.283	34.64
181.503	-0.17
181.723	18.26
181.943	-139.43
182.163	157.52
182.383	8.02
182.602	44.88
182.822	184.15
183.042	85.84
183.262	16.21
183.482	5.97
183.701	34.64
183.921	44.88
184.141	-51.37
184.361	22.36
184.58	98.13
184.8	106.32
185.02	8.02
185.239	89.94
185.459	55.12
185.679	145.24
185.898	-123.05
186.118	5.97
186.338	14.17
186.557	161.62
186.777	-106.67
186.997	36.69
187.216	48.98
187.436	132.95
187.655	34.64
187.875	61.27
188.095	69.46
188.314	157.52
188.534	122.71
188.753	-65.71
188.973	171.86
189.192	165.71
189.412	-53.42
189.631	-53.42
189.851	28.5
190.07	118.61
190.29	-41.13
190.509	-20.65
190.729	-8.36
190.948	153.43
191.168	261.97
191.387	98.13
191.607	1.88
191.826	61.27
192.045	14.17
192.265	-37.03
192.484	71.51
192.704	30.55
192.923	-10.41
193.142	231.25
193.362	225.11
193.581	157.52
193.8	10.07
194.02	87.89
194.239	16.21
194.458	18.26
194.678	-26.79
194.897	-12.46
195.116	24.4
195.335	-8.36
195.555	73.56
195.774	51.03
195.993	128.85
196.212	38.74
196.432	-18.6
196.651	38.74
196.87	40.79
197.089	251.73
197.308	30.55
197.528	-0.17
197.747	-77.99
197.966	108.37
198.185	130.9
198.404	-114.86
198.623	110.42
198.842	83.8
199.062	89.94
199.281	182.1
199.5	18.26
199.719	89.94
199.938	26.45
200.157	-28.84
200.376	36.69
200.595	104.28
200.814	42.84
201.033	59.22
201.252	139.09
201.471	83.8
201.69	96.08
201.909	112.47
202.128	139.09
202.347	100.18
202.566	48.98
202.785	-55.47
203.004	-16.55
203.223	343.89
203.442	34.64
203.661	-67.75
203.879	139.09
204.098	61.27
204.317	-77.99
204.536	61.27
204.755	61.27
204.974	36.69
205.193	61.27
205.411	128.85
205.63	126.8
205.849	22.36
206.068	-2.22
206.287	-8.36
206.505	67.41
206.724	106.32
206.943	-67.75
207.162	-55.47
207.381	55.12
207.599	75.6
207.818	46.93
208.037	-22.7
208.255	83.8
208.474	81.75
208.693	44.88
208.911	42.84
209.13	42.84
209.349	110.42
209.567	51.03
209.786	30.55
210.005	55.12
210.223	77.65
210.442	-2.22
210.661	-12.46
210.879	14.17
211.098	75.6
211.316	57.17
211.535	75.6
211.753	26.45
211.972	57.17
212.191	-22.7
212.409	42.84
212.628	48.98
212.846	-4.27
213.065	91.99
213.283	126.8
213.502	83.8
213.72	59.22
213.938	26.45
214.157	46.93
214.375	167.76
214.594	96.08
214.812	81.75
215.031	3.93
215.249	87.89
215.467	87.89
215.686	46.93
215.904	-20.65
216.122	-20.65
216.341	110.42
216.559	-24.75
216.778	128.85
216.996	116.56
217.214	14.17
217.432	-0.17
217.651	-8.36
217.869	44.88
218.087	48.98
218.306	-47.27
218.524	34.64
218.742	-6.31
218.96	42.84
219.179	38.74
219.397	-0.17
219.615	272.21
219.833	163.67
220.051	8.02
220.27	141.14
220.488	98.13
220.706	79.7
220.924	-22.7
221.142	-22.7
221.36	55.12
221.578	30.55
221.796	-8.36
222.015	18.26
222.233	3.93
222.451	96.08
222.669	14.17
222.887	75.6
223.105	-51.37
223.323	3.93
223.541	-73.9
223.759	22.36
223.977	75.6
224.195	147.28
224.413	46.93
224.631	32.6
224.849	89.94
225.067	157.52
225.285	-10.41
225.503	-37.03
225.721	-86.19
225.939	12.12
226.157	32.6
226.375	221.01
226.592	-51.37
226.81	44.88
227.028	81.75
227.246	155.47
227.464	48.98
227.682	38.74
227.9	73.56
228.117	77.65
228.335	169.81
228.553	18.26
228.771	-12.46
228.989	63.32
229.206	57.17
229.424	10.07
229.642	55.12
229.86	-51.37
230.077	130.9
230.295	30.55
230.513	147.28
230.731	44.88
230.948	180.05
231.166	186.19
231.384	79.7
231.601	38.74
231.819	147.28
232.037	22.36
232.254	-37.03
232.472	-14.51
232.689	8.02
232.907	85.84
233.125	22.36
233.342	3.93
233.56	-75.95
233.777	-80.04
233.995	116.56
234.213	83.8
234.43	112.47
234.648	46.93
234.865	30.55
235.083	163.67
235.3	38.74
235.518	40.79
235.735	182.1
235.953	42.84
236.17	44.88
236.388	24.4
236.605	-71.85
236.822	63.32
237.04	65.36
237.257	59.22
237.475	36.69
237.692	73.56
237.909	91.99
238.127	-41.13
238.344	102.23
238.562	-14.51
238.779	-53.42
238.996	-47.27
239.214	85.84
239.431	175.95
239.648	-26.79
239.865	110.42
240.083	51.03
240.3	18.26
240.517	10.07
240.735	51.03
240.952	120.66
241.169	73.56
241.386	122.71
241.603	55.12
241.821	-123.05
242.038	53.08
242.255	110.42
242.472	-2.22
242.689	61.27
242.907	104.28
243.124	8.02
243.341	-16.55
243.558	-8.36
243.775	-57.51
243.992	-24.75
244.209	65.36
244.426	188.24
244.643	141.14
244.86	65.36
245.078	85.84
245.295	104.28
245.512	55.12
245.729	14.17
245.946	46.93
246.163	75.6
246.38	44.88
246.597	42.84
246.814	53.08
247.031	36.69
247.248	67.41
247.464	34.64
247.681	73.56
247.898	26.45
248.115	32.6
248.332	8.02
248.549	116.56
248.766	210.77
248.983	69.46
249.2	120.66
249.417	159.57
249.633	-73.9
249.85	89.94
250.067	83.8
250.284	48.98
250.501	94.04
250.717	155.47
250.934	-30.89
251.151	26.45
251.368	16.21
251.585	51.03
251.801	81.75
252.018	-96.43
252.235	116.56
252.451	-16.55
252.668	3.93
252.885	77.65
253.102	36.69
253.318	57.17
253.535	-30.89
253.752	-34.99
253.968	48.98
254.185	-20.65
254.401	12.12
254.618	157.52
254.835	-67.75
255.051	75.6
255.268	57.17
255.484	67.41
255.701	40.79
255.917	48.98
256.134	-14.51
256.351	12.12
256.567	1.88
256.784	38.74
257	-57.51
257.217	116.56
257.433	104.28
257.65	69.46
257.866	108.37
258.082	-14.51
258.299	-8.36
258.515	32.6
258.732	-12.46
258.948	-18.6
259.165	53.08
259.381	-77.99
259.597	10.07
259.814	-26.79
260.03	-2.22
260.246	22.36
260.463	145.24
260.679	145.24
260.895	89.94
261.112	30.55
261.328	-2.22
261.544	24.4
261.761	161.62
261.977	16.21
262.193	-98.47
262.409	79.7
262.626	34.64
262.842	-49.32
263.058	-71.85
263.274	59.22
263.49	44.88
263.707	51.03
263.923	85.84
264.139	-18.6
264.355	-4.27
264.571	81.75
264.787	38.74
265.004	171.86
265.22	67.41
265.436	-24.75
265.652	26.45
265.868	3.93
266.084	-39.08
266.3	28.5
266.516	-28.84
266.732	63.32
266.948	-8.36
267.164	-28.84
267.38	130.9
267.596	141.14
267.812	89.94
268.028	16.21
268.244	-30.89
268.46	42.84
268.676	24.4
268.892	85.84
269.108	-65.71
269.324	48.98
269.54	-57.51
269.756	28.5
269.972	-57.51
270.188	-26.79
270.403	-47.27
270.619	65.36
270.835	14.17
271.051	16.21
271.267	1.88
271.483	3.93
271.698	94.04
271.914	61.27
272.13	-14.51
272.346	69.46
272.562	38.74
272.777	190.29
272.993	22.36
273.209	-16.55
273.425	85.84
273.64	-84.14
273.856	53.08
274.072	51.03
274.287	-14.51
274.503	112.47
274.719	40.79
274.934	-20.65
275.15	-77.99
275.366	20.31
275.581	-2.22
275.797	63.32
276.012	75.6
276.228	48.98
276.444	1.88
276.659	94.04
276.875	-20.65
277.09	-39.08
277.306	3.93
277.521	55.12
277.737	137.04
277.952	151.38
278.168	48.98
278.383	75.6
278.599	85.84
278.814	141.14
279.03	-2.22
279.245	139.09
279.461	55.12
279.676	55.12
279.892	-0.17
280.107	-32.94
280.322	-73.9
280.538	94.04
280.753	-55.47
280.969	102.23
281.184	-69.8
281.399	122.71
281.615	24.4
281.83	126.8
282.045	-41.13
282.26	-45.23
282.476	67.41
282.691	77.65
282.906	112.47
283.122	14.17
283.337	42.84
283.552	30.55
283.767	-12.46
283.983	106.32
284.198	44.88
284.413	16.21
284.628	-112.81
284.843	61.27
285.058	53.08
285.274	44.88
285.489	-73.9
285.704	85.84
285.919	18.26
286.134	-30.89
286.349	28.5
286.564	-0.17
286.779	71.51
286.995	18.26
287.21	-84.14
287.425	42.84
287.64	-30.89
287.855	55.12
288.07	-88.23
288.285	135
288.5	167.76
288.715	141.14
288.93	26.45
289.145	-73.9
289.36	120.66
289.575	-32.94
289.79	87.89
290.004	3.93
290.219	106.32
290.434	-57.51
290.649	20.31
290.864	-41.13
291.079	-6.31
291.294	137.04
291.509	112.47
291.724	-30.89
291.938	-4.27
292.153	-2.22
292.368	34.64
292.583	22.36
292.798	145.24
293.012	61.27
293.227	46.93
293.442	-41.13
293.657	65.36
293.871	91.99
294.086	87.89
294.301	157.52
294.516	-0.17
294.73	18.26
294.945	-28.84
295.16	24.4
295.374	153.43
295.589	153.43
295.804	24.4
296.018	100.18
296.233	147.28
296.447	20.31
296.662	-8.36
296.877	104.28
297.091	108.37
297.306	38.74
297.52	24.4
297.735	112.47
297.949	85.84
298.164	69.46
298.378	83.8
298.593	85.84
298.807	-14.51
299.022	32.6
299.236	108.37
299.451	-112.81
299.665	44.88
299.88	-10.41
300.094	104.28
300.309	-22.7
300.523	77.65
300.737	22.36
300.952	106.32
301.166	61.27
301.381	-45.23
301.595	36.69
301.809	32.6
302.024	5.97
302.238	5.97
302.452	155.47
302.667	14.17
302.881	192.34
303.095	108.37
303.309	65.36
303.524	-2.22
303.738	59.22
303.952	34.64
304.166	34.64
304.381	-69.8
304.595	137.04
304.809	-24.75
305.023	-4.27
305.237	48.98
305.452	5.97
305.666	73.56
305.88	83.8
306.094	77.65
306.308	110.42
306.522	128.85
306.736	69.46
306.95	116.56
307.164	26.45
307.379	5.97
307.593	130.9
307.807	135
308.021	67.41
308.235	100.18
308.449	-2.22
308.663	73.56
308.877	212.82
309.091	5.97
309.305	38.74
309.519	-92.33
309.733	126.8
309.947	-88.23
310.161	91.99
310.374	59.22
310.588	110.42
310.802	-20.65
311.016	30.55
311.23	120.66
311.444	28.5
311.658	75.6
311.872	126.8
312.085	143.19
312.299	132.95
312.513	151.38
312.727	1.88
312.941	-8.36
313.154	102.23
313.368	69.46
313.582	16.21
313.796	94.04
314.009	46.93
314.223	132.95
314.437	61.27
314.651	112.47
314.864	36.69
315.078	-16.55
315.292	-53.42
315.505	-16.55
315.719	-8.36
315.933	55.12
316.146	8.02
316.36	-73.9
316.573	116.56
316.787	79.7
317.001	63.32
317.214	-90.28
317.428	-2.22
317.641	-22.7
317.855	59.22
318.068	40.79
318.282	61.27
318.495	202.58
318.709	65.36
318.922	42.84
319.136	161.62
319.349	120.66
319.563	-34.99
319.776	57.17
319.99	36.69
320.203	120.66
320.417	18.26
320.63	114.52
320.843	218.96
321.057	104.28
321.27	24.4
321.483	38.74
321.697	114.52
321.91	46.93
322.124	100.18
322.337	69.46
322.55	-57.51
322.763	38.74
322.977	-51.37
323.19	-4.27
323.403	-12.46
323.617	114.52
323.83	112.47
324.043	-0.17
324.256	-0.17
324.469	-20.65
324.683	44.88
324.896	-14.51
325.109	81.75
325.322	-114.86
325.535	65.36
325.748	75.6
325.962	116.56
326.175	-20.65
326.388	48.98
326.601	65.36
326.814	-12.46
327.027	91.99
327.24	145.24
327.453	-149.67
327.666	69.46
327.879	75.6
328.092	108.37
328.305	112.47
328.518	-34.99
328.731	-2.22
328.944	24.4
329.157	94.04
329.37	-61.61
329.583	116.56
329.796	137.04
330.009	-61.61
330.222	137.04
330.435	104.28
330.648	65.36
330.861	46.93
331.073	24.4
331.286	77.65
331.499	57.17
331.712	-57.51
331.925	-10.41
332.138	10.07
332.35	122.71
332.563	3.93
332.776	96.08
332.989	-16.55
333.202	59.22
333.414	16.21
333.627	-51.37
333.84	16.21
334.053	65.36
334.265	57.17
334.478	73.56
334.691	51.03
334.903	61.27
335.116	-37.03
335.329	-20.65
335.541	61.27
335.754	59.22
335.966	-49.32
336.179	71.51
336.392	46.93
336.604	46.93
336.817	157.52
337.029	10.07
337.242	12.12
337.454	110.42
337.667	59.22
337.88	208.72
338.092	110.42
338.305	69.46
338.517	22.36
338.729	116.56
338.942	114.52
339.154	-0.17
339.367	8.02
339.579	38.74
339.792	-6.31
340.004	122.71
340.217	1.88
340.429	112.47
340.641	16.21
340.854	-20.65
341.066	46.93
341.278	104.28
341.491	159.57
341.703	16.21
341.915	-90.28
342.128	18.26
342.34	46.93
342.552	-32.94
342.764	10.07
342.977	-2.22
343.189	108.37
343.401	1.88
343.613	-20.65
343.826	73.56
344.038	-51.37
344.25	104.28
344.462	26.45
344.674	8.02
344.886	-14.51
345.099	8.02
345.311	48.98
345.523	-24.75
345.735	-90.28
345.947	89.94
346.159	100.18
346.371	38.74
346.583	46.93
346.795	116.56
347.007	-2.22
347.219	77.65
347.431	108.37
347.643	71.51
347.855	22.36
348.067	110.42
348.279	-43.18
348.491	98.13
348.703	106.32
348.915	12.12
349.127	1.88
349.339	100.18
349.551	-28.84
349.763	77.65
349.975	18.26
350.187	83.8
350.399	149.33
350.61	102.23
350.822	-37.03
351.034	40.79
351.246	-4.27
351.458	71.51
351.669	110.42
351.881	46.93
352.093	87.89
352.305	42.84
352.517	89.94
352.728	98.13
352.94	106.32
353.152	48.98
353.363	-18.6
353.575	-18.6
353.787	175.95
353.999	30.55
354.21	167.76
354.422	26.45
354.633	22.36
354.845	79.7
355.057	32.6
355.268	53.08
355.48	118.61
355.692	16.21
355.903	-57.51
356.115	32.6
356.326	-16.55
356.538	206.67
356.749	89.94
356.961	147.28
357.172	-10.41
357.384	-55.47
357.595	194.39
357.807	10.07
358.018	61.27
358.23	5.97
358.441	81.75
358.653	77.65
358.864	48.98
359.075	24.4
359.287	132.95
359.498	130.9
359.709	89.94
359.921	96.08
360.132	-12.46
360.344	81.75
360.555	24.4
360.766	16.21
360.977	1.88
361.189	94.04
361.4	-32.94
361.611	153.43
361.823	57.17
362.034	-41.13
362.245	-90.28
362.456	-8.36
362.667	40.79
362.879	-80.04
363.09	30.55
363.301	40.79
363.512	55.12
363.723	-61.61
363.935	20.31
364.146	122.71
364.357	63.32
364.568	102.23
364.779	-98.47
364.99	169.81
365.201	5.97
365.412	69.46
365.623	-37.03
365.834	24.4
366.045	-22.7
366.256	79.7
366.467	69.46
366.678	79.7
366.889	69.46
367.1	22.36
367.311	73.56
367.522	-24.75
367.733	108.37
367.944	71.51
368.155	24.4
368.366	67.41
368.577	61.27
368.788	184.15
368.999	12.12
369.209	55.12
369.42	216.91
369.631	241.49
369.842	34.64
370.053	34.64
370.264	94.04
370.474	30.55
370.685	28.5
370.896	48.98
371.107	63.32
371.317	128.85
371.528	12.12
371.739	163.67
371.95	61.27
372.16	71.51
372.371	-18.6
372.582	36.69
372.792	75.6
373.003	100.18
373.214	18.26
373.424	30.55
373.635	-32.94
373.846	65.36
374.056	34.64
374.267	120.66
374.477	14.17
374.688	55.12
374.898	104.28
375.109	38.74
375.319	22.36
375.53	110.42
375.74	100.18
375.951	85.84
376.161	-0.17
376.372	116.56
376.582	-14.51
376.793	96.08
377.003	59.22
377.214	3.93
377.424	75.6
377.635	5.97
377.845	-20.65
378.055	124.76
378.266	-61.61
378.476	32.6
378.686	137.04
378.897	59.22
379.107	106.32
379.317	91.99
379.528	85.84
379.738	100.18
379.948	-43.18
380.158	81.75
380.369	61.27
380.579	87.89
380.789	51.03
380.999	42.84
381.21	114.52
381.42	155.47
381.63	40.79
381.84	87.89
382.05	85.84
382.261	85.84
382.471	89.94
382.681	-24.75
382.891	110.42
383.101	126.8
383.311	-63.66
383.521	24.4
383.731	110.42
383.941	42.84
384.151	81.75
384.361	24.4
384.571	59.22
384.781	55.12
384.991	145.24
385.201	214.87
385.411	48.98
385.621	96.08
385.831	46.93
386.041	3.93
386.251	63.32
386.461	141.14
386.671	20.31
386.881	65.36
387.091	30.55
387.301	128.85
387.511	94.04
387.72	32.6
387.93	81.75
388.14	-30.89
388.35	63.32
388.56	26.45
388.769	20.31
388.979	38.74
389.189	16.21
389.399	91.99
389.609	57.17
389.818	44.88
390.028	73.56
390.238	53.08
390.447	-32.94
390.657	124.76
390.867	-49.32
391.076	-41.13
391.286	130.9
391.496	12.12
391.705	-18.6
391.915	61.27
392.125	106.32
392.334	34.64
392.544	104.28
392.753	10.07
392.963	-22.7
393.172	-8.36
393.382	-65.71
393.591	208.72
393.801	51.03
394.01	83.8
394.22	67.41
394.429	69.46
394.639	30.55
394.848	112.47
395.058	67.41
395.267	-2.22
395.477	139.09
395.686	77.65
395.895	175.95
396.105	221.01
396.314	69.46
396.524	73.56
396.733	-6.31
396.942	94.04
397.152	42.84
397.361	96.08
397.57	94.04
397.78	63.32
397.989	118.61
398.198	208.72
398.407	-10.41
398.617	73.56
398.826	32.6
399.035	20.31
399.244	102.23
399.453	85.84
399.663	61.27
399.872	116.56
400.081	-16.55
400.29	229.2
400.499	32.6
400.708	34.64
400.917	-18.6
401.127	44.88
401.336	3.93
401.545	192.34
401.754	171.86
401.963	106.32
402.172	36.69
402.381	-86.19
402.59	12.12
402.799	75.6
403.008	149.33
403.217	102.23
403.426	132.95
403.635	-53.42
403.844	44.88
404.053	118.61
404.262	34.64
404.471	198.48
404.68	61.27
404.888	34.64
405.097	36.69
405.306	55.12
405.515	122.71
405.724	98.13
405.933	81.75
406.142	130.9
406.35	67.41
406.559	-8.36
406.768	106.32
406.977	153.43
407.185	157.52
407.394	40.79
407.603	3.93
407.812	-4.27
408.02	145.24
408.229	-8.36
408.438	73.56
408.646	-24.75
408.855	46.93
409.064	73.56
409.272	53.08
409.481	73.56
409.69	-20.65
409.898	-47.27
410.107	28.5
410.315	124.76
410.524	-6.31
410.733	53.08
410.941	118.61
411.15	153.43
411.358	116.56
411.567	104.28
411.775	141.14
411.984	53.08
412.192	81.75
412.401	-30.89
412.609	196.43
412.818	87.89
413.026	112.47
413.234	87.89
413.443	46.93
413.651	1.88
413.86	46.93
414.068	108.37
414.276	147.28
414.485	1.88
414.693	106.32
414.901	192.34
415.11	83.8
415.318	8.02
415.526	130.9
415.734	32.6
415.943	77.65
416.151	128.85
416.359	51.03
416.567	81.75
416.776	175.95
416.984	71.51
417.192	147.28
417.4	-53.42
417.608	71.51
417.817	61.27
418.025	77.65
418.233	77.65
418.441	65.36
418.649	-49.32
418.857	69.46
419.065	141.14
419.273	-18.6
419.481	81.75
419.689	32.6
419.897	22.36
420.105	-8.36
420.313	110.42
420.521	186.19
420.729	149.33
420.937	34.64
421.145	-80.04
421.353	128.85
421.561	108.37
421.769	69.46
421.977	18.26
422.185	143.19
422.393	24.4
422.601	83.8
422.809	108.37
423.017	51.03
423.224	96.08
423.432	14.17
423.64	16.21
423.848	102.23
424.056	34.64
424.263	85.84
424.471	75.6
424.679	100.18
424.887	5.97
425.094	102.23
425.302	149.33
425.51	53.08
425.718	175.95
425.925	28.5
426.133	75.6
426.341	245.59
426.548	34.64
426.756	102.23
426.964	71.51
427.171	5.97
427.379	94.04
427.586	98.13
427.794	102.23
428.001	182.1
428.209	61.27
428.417	153.43
428.624	169.81
428.832	77.65
429.039	112.47
429.247	124.76
429.454	184.15
429.662	161.62
429.869	143.19
430.076	159.57
430.284	190.29
430.491	241.49
430.699	139.09
430.906	231.25
431.114	188.24
431.321	157.52
431.528	73.56
431.736	153.43
431.943	147.28
432.15	135
432.358	190.29
432.565	239.44
432.772	63.32
432.979	208.72
433.187	139.09
433.394	243.54
433.601	169.81
433.808	194.39
434.016	321.36
434.223	188.24
434.43	261.97
434.637	261.97
434.844	216.91
435.052	204.63
435.259	317.26
435.466	331.6
435.673	243.54
435.88	370.51
436.087	388.94
436.294	378.7
436.501	372.56
436.708	315.22
436.915	360.27
437.122	436.05
437.329	286.54
437.537	350.03
437.743	407.38
437.95	491.34
438.157	327.5
438.364	474.96
438.571	477.01
438.778	450.38
438.985	563.02
439.192	595.79
439.399	474.96
439.606	446.29
439.813	538.45
440.02	720.71
440.227	683.85
440.433	581.45
440.64	681.8
440.847	608.08
441.054	689.99
441.261	778.06
441.467	661.32
441.674	700.23
441.881	806.73
442.088	800.59
442.294	778.06
442.501	831.3
442.708	923.46
442.914	855.88
443.121	962.37
443.328	968.52
443.534	1044.29
443.741	1083.2
443.948	993.09
444.154	1050.44
444.361	1320.77
444.568	1140.55
444.774	1218.37
444.981	1175.36
445.187	1357.63
445.394	1269.57
445.6	1312.58
445.807	1562.43
446.013	1544
446.22	1443.65
446.426	1681.21
446.633	1808.19
446.839	1812.28
447.046	1697.6
447.252	1828.67
447.459	1937.21
447.665	1922.87
447.871	2154.29
448.078	2318.13
448.284	2115.38
448.491	2320.18
448.697	2352.95
448.903	2514.73
449.11	2457.39
449.316	2615.09
449.522	2721.58
449.728	2955.05
449.935	3102.5
450.141	2912.04
450.347	3252
450.553	3098.41
450.76	3389.22
450.966	3528.48
451.172	3563.29
451.378	3766.04
451.584	3927.83
451.791	4116.25
451.997	4151.06
452.203	4200.21
452.409	4538.13
452.615	4638.48
452.821	4540.18
453.027	4456.21
453.233	5156.61
453.44	4984.59
453.646	5230.34
453.852	5531.39
454.058	5832.44
454.264	5863.16
454.47	6334.2
454.676	6264.57
454.882	6909.68
455.088	6498.03
455.294	6872.81
455.5	7345.89
455.705	7907.04
455.911	7790.3
456.117	7937.76
456.323	8365.78
456.529	8322.77
456.735	9025.23
456.941	9031.37
457.147	9623.23
457.352	10032.83
457.558	10305.21
457.764	10962.61
457.97	11085.48
458.176	11650.72
458.381	12254.87
458.587	12310.17
458.793	13051.53
458.999	12836.5
459.204	14382.71
459.41	15203.95
459.616	14933.62
459.821	15601.26
460.027	16508.51
460.233	17434.19
460.438	17370.7
460.644	18251.33
460.85	18306.62
461.055	19037.75
461.261	20258.34
461.466	19596.84
461.672	20274.72
461.878	22320.64
462.083	22070.79
462.289	22851.06
462.494	23250.42
462.7	23547.37
462.905	24165.86
463.111	26037.7
463.316	27264.44
463.522	27782.57
463.727	28833.18
463.932	29666.7
464.138	30627.2
464.343	31855.98
464.549	32081.26
464.754	34329.93
464.959	34997.57
465.165	35718.45
465.37	35624.25
465.575	35638.58
465.781	37717.27
465.986	39077.12
466.191	38534.41
466.397	38851.84
466.602	37997.84
466.807	40025.33
467.012	40617.19
467.218	41153.76
467.423	41415.9
467.628	42716.36
467.833	44278.96
468.038	43697.34
468.244	42988.74
468.449	44973.22
