Data from USB4F104151__107__10-45-32-263.txt Node

Date: Wed Feb 26 10:45:32 EST 2025
User: louis
Spectrometer: USB4F10415
Trigger mode: 4
Integration Time (sec): 1.000000E-1
Scans to average: 1
Electric dark correction enabled: true
Nonlinearity correction enabled: false
Boxcar width: 0
XAxis mode: Wavelengths
Number of Pixels in Spectrum: 3648
>>>>>Begin Spectral Data<<<<<
178.204	-418.13
178.424	-418.13
178.644	-418.13
178.864	-344.4
179.084	-315.73
179.304	-14.68
179.524	1.71
179.744	26.28
179.964	20.14
180.184	52.91
180.404	-24.92
180.624	-41.3
180.844	-24.92
181.064	-57.68
181.283	46.76
181.503	-14.68
181.723	30.38
181.943	-86.36
182.163	122.54
182.383	-24.92
182.602	87.72
182.822	89.77
183.042	38.57
183.262	57
183.482	-6.49
183.701	22.19
183.921	-16.73
184.141	-80.21
184.361	122.54
184.58	36.52
184.8	93.87
185.02	18.09
185.239	190.12
185.459	128.68
185.679	169.64
185.898	-84.31
186.118	110.25
186.338	18.09
186.557	128.68
186.777	-12.63
186.997	-14.68
187.216	22.19
187.436	229.03
187.655	69.29
187.875	134.82
188.095	44.71
188.314	52.91
188.534	95.91
188.753	-82.26
188.973	161.45
189.192	134.82
189.412	65.19
189.631	9.9
189.851	95.91
190.07	202.41
190.29	-4.44
190.509	5.8
190.729	5.8
190.948	116.39
191.168	231.08
191.387	85.67
191.607	145.06
191.826	75.43
192.045	52.91
192.265	32.43
192.484	61.1
192.704	24.23
192.923	-67.92
193.142	83.63
193.362	102.06
193.581	145.06
193.8	54.95
194.02	75.43
194.239	104.11
194.458	167.59
194.678	-16.73
194.897	7.85
195.116	24.23
195.335	79.53
195.555	48.81
195.774	30.38
195.993	71.34
196.212	30.38
196.432	34.47
196.651	16.04
196.87	13.99
197.089	216.74
197.308	93.87
197.528	149.16
197.747	-47.44
197.966	22.19
198.185	151.21
198.404	-12.63
198.623	124.58
198.842	140.97
199.062	145.06
199.281	145.06
199.5	50.86
199.719	91.82
199.938	89.77
200.157	75.43
200.376	112.3
200.595	128.68
200.814	108.2
201.033	18.09
201.252	257.7
201.471	130.73
201.69	75.43
201.909	102.06
202.128	91.82
202.347	102.06
202.566	59.05
202.785	9.9
203.004	-41.3
203.223	241.32
203.442	138.92
203.661	-61.78
203.879	79.53
204.098	167.59
204.317	-57.68
204.536	118.44
204.755	87.72
204.974	95.91
205.193	97.96
205.411	194.22
205.63	118.44
205.849	36.52
206.068	-29.01
206.287	-0.34
206.505	67.24
206.724	50.86
206.943	5.8
207.162	52.91
207.381	102.06
207.599	40.62
207.818	46.76
208.037	42.67
208.255	5.8
208.474	110.25
208.693	24.23
208.911	7.85
209.13	116.39
209.349	169.64
209.567	71.34
209.786	85.67
210.005	145.06
210.223	100.01
210.442	-88.4
210.661	69.29
210.879	89.77
211.098	38.57
211.316	97.96
211.535	75.43
211.753	85.67
211.972	95.91
212.191	91.82
212.409	24.23
212.628	61.1
212.846	3.75
213.065	50.86
213.283	79.53
213.502	79.53
213.72	157.35
213.938	65.19
214.157	36.52
214.375	155.3
214.594	7.85
214.812	89.77
215.031	11.95
215.249	69.29
215.467	59.05
215.686	102.06
215.904	54.95
216.122	44.71
216.341	73.39
216.559	28.33
216.778	145.06
216.996	190.12
217.214	-63.83
217.432	-0.34
217.651	-41.3
217.869	124.58
218.087	69.29
218.306	46.76
218.524	-0.34
218.742	93.87
218.96	110.25
219.179	34.47
219.397	63.15
219.615	286.37
219.833	112.3
220.051	30.38
220.27	118.44
220.488	95.91
220.706	108.2
220.924	67.24
221.142	11.95
221.36	65.19
221.578	79.53
221.796	63.15
222.015	26.28
222.233	40.62
222.451	83.63
222.669	-22.87
222.887	136.87
223.105	-12.63
223.323	67.24
223.541	-84.31
223.759	85.67
223.977	63.15
224.195	140.97
224.413	-0.34
224.631	30.38
224.849	120.49
225.067	222.89
225.285	1.71
225.503	36.52
225.721	-20.82
225.939	87.72
226.157	32.43
226.375	200.36
226.592	5.8
226.81	20.14
227.028	134.82
227.246	48.81
227.464	81.58
227.682	212.65
227.9	36.52
228.117	-6.49
228.335	71.34
228.553	97.96
228.771	77.48
228.989	52.91
229.206	132.78
229.424	32.43
229.642	24.23
229.86	-45.4
230.077	157.35
230.295	44.71
230.513	118.44
230.731	36.52
230.948	192.17
231.166	212.65
231.384	40.62
231.601	36.52
231.819	202.41
232.037	57
232.254	-63.83
232.472	71.34
232.689	50.86
232.907	110.25
233.125	61.1
233.342	-29.01
233.56	16.04
233.777	-16.73
233.995	89.77
234.213	85.67
234.43	145.06
234.648	-12.63
234.865	75.43
235.083	38.57
235.3	85.67
235.518	69.29
235.735	165.54
235.953	120.49
236.17	77.48
236.388	52.91
236.605	85.67
236.822	126.63
237.04	95.91
237.257	108.2
237.475	-45.4
237.692	46.76
237.909	16.04
238.127	-10.58
238.344	59.05
238.562	34.47
238.779	-35.16
238.996	-47.44
239.214	79.53
239.431	81.58
239.648	9.9
239.865	79.53
240.083	79.53
240.3	-6.49
240.517	63.15
240.735	3.75
240.952	175.78
241.169	67.24
241.386	81.58
241.603	67.24
241.821	67.24
242.038	91.82
242.255	128.68
242.472	-2.39
242.689	52.91
242.907	79.53
243.124	116.39
243.341	122.54
243.558	22.19
243.775	-74.07
243.992	-37.2
244.209	128.68
244.426	190.12
244.643	81.58
244.86	67.24
245.078	57
245.295	153.26
245.512	63.15
245.729	-43.35
245.946	116.39
246.163	57
246.38	1.71
246.597	95.91
246.814	97.96
247.031	59.05
247.248	-6.49
247.464	36.52
247.681	52.91
247.898	81.58
248.115	71.34
248.332	11.95
248.549	128.68
248.766	165.54
248.983	91.82
249.2	126.63
249.417	79.53
249.633	87.72
249.85	140.97
250.067	52.91
250.284	57
250.501	91.82
250.717	130.73
250.934	28.33
251.151	18.09
251.368	50.86
251.585	161.45
251.801	110.25
252.018	9.9
252.235	118.44
252.451	-12.63
252.668	61.1
252.885	124.58
253.102	16.04
253.318	18.09
253.535	44.71
253.752	-26.96
253.968	32.43
254.185	-47.44
254.401	40.62
254.618	69.29
254.835	-51.54
255.051	204.46
255.268	138.92
255.484	93.87
255.701	48.81
255.917	118.44
256.134	-37.2
256.351	71.34
256.567	-92.5
256.784	44.71
257	7.85
257.217	102.06
257.433	87.72
257.65	91.82
257.866	220.84
258.082	-69.97
258.299	28.33
258.515	75.43
258.732	-14.68
258.948	-16.73
259.165	130.73
259.381	11.95
259.597	87.72
259.814	63.15
260.03	32.43
260.246	79.53
260.463	163.5
260.679	143.02
260.895	54.95
261.112	89.77
261.328	44.71
261.544	44.71
261.761	110.25
261.977	-14.68
262.193	-31.06
262.409	42.67
262.626	-0.34
262.842	36.52
263.058	-4.44
263.274	183.98
263.49	61.1
263.707	85.67
263.923	102.06
264.139	-72.02
264.355	118.44
264.571	106.15
264.787	145.06
265.004	85.67
265.22	57
265.436	36.52
265.652	95.91
265.868	114.34
266.084	-8.53
266.3	132.78
266.516	-69.97
266.732	57
266.948	40.62
267.164	93.87
267.38	61.1
267.596	157.35
267.812	138.92
268.028	36.52
268.244	18.09
268.46	42.67
268.676	71.34
268.892	69.29
269.108	30.38
269.324	-37.2
269.54	9.9
269.756	149.16
269.972	-55.64
270.188	87.72
270.403	50.86
270.619	26.28
270.835	161.45
271.051	11.95
271.267	-39.25
271.483	50.86
271.698	108.2
271.914	128.68
272.13	32.43
272.346	71.34
272.562	95.91
272.777	83.63
272.993	71.34
273.209	28.33
273.425	134.82
273.64	-72.02
273.856	20.14
274.072	13.99
274.287	22.19
274.503	108.2
274.719	77.48
274.934	91.82
275.15	-22.87
275.366	20.14
275.581	52.91
275.797	48.81
276.012	79.53
276.228	-0.34
276.444	26.28
276.659	175.78
276.875	52.91
277.09	16.04
277.306	48.81
277.521	132.78
277.737	36.52
277.952	110.25
278.168	48.81
278.383	102.06
278.599	102.06
278.814	143.02
279.03	112.3
279.245	128.68
279.461	34.47
279.676	163.5
279.892	-0.34
280.107	26.28
280.322	108.2
280.538	126.63
280.753	40.62
280.969	171.69
281.184	52.91
281.399	134.82
281.615	48.81
281.83	7.85
282.045	-49.49
282.26	-24.92
282.476	34.47
282.691	77.48
282.906	112.3
283.122	116.39
283.337	30.38
283.552	132.78
283.767	-35.16
283.983	77.48
284.198	48.81
284.413	155.3
284.628	-69.97
284.843	50.86
285.058	208.55
285.274	28.33
285.489	-78.16
285.704	69.29
285.919	97.96
286.134	65.19
286.349	73.39
286.564	-10.58
286.779	161.45
286.995	26.28
287.21	-16.73
287.425	118.44
287.64	-10.58
287.855	77.48
288.07	-14.68
288.285	241.32
288.5	147.11
288.715	95.91
288.93	97.96
289.145	36.52
289.36	147.11
289.575	16.04
289.79	169.64
290.004	44.71
290.219	140.97
290.434	32.43
290.649	5.8
290.864	124.58
291.079	38.57
291.294	91.82
291.509	52.91
291.724	54.95
291.938	50.86
292.153	83.63
292.368	97.96
292.583	-26.96
292.798	85.67
293.012	67.24
293.227	38.57
293.442	32.43
293.657	126.63
293.871	212.65
294.086	52.91
294.301	97.96
294.516	163.5
294.73	38.57
294.945	16.04
295.16	95.91
295.374	200.36
295.589	126.63
295.804	118.44
296.018	40.62
296.233	169.64
296.447	79.53
296.662	104.11
296.877	116.39
297.091	106.15
297.306	63.15
297.52	50.86
297.735	100.01
297.949	132.78
298.164	128.68
298.378	95.91
298.593	9.9
298.807	-18.77
299.022	100.01
299.236	145.06
299.451	40.62
299.665	32.43
299.88	87.72
300.094	40.62
300.309	30.38
300.523	159.4
300.737	18.09
300.952	143.02
301.166	110.25
301.381	83.63
301.595	26.28
301.809	126.63
302.024	36.52
302.238	-2.39
302.452	112.3
302.667	126.63
302.881	183.98
303.095	122.54
303.309	69.29
303.524	18.09
303.738	-8.53
303.952	32.43
304.166	116.39
304.381	-84.31
304.595	149.16
304.809	67.24
305.023	18.09
305.237	-0.34
305.452	26.28
305.666	59.05
305.88	97.96
306.094	93.87
306.308	149.16
306.522	77.48
306.736	63.15
306.95	155.3
307.164	65.19
307.379	52.91
307.593	134.82
307.807	138.92
308.021	151.21
308.235	128.68
308.449	-24.92
308.663	83.63
308.877	237.22
309.091	48.81
309.305	167.59
309.519	-49.49
309.733	208.55
309.947	-26.96
310.161	73.39
310.374	136.87
310.588	190.12
310.802	50.86
311.016	93.87
311.23	130.73
311.444	57
311.658	28.33
311.872	192.17
312.085	171.69
312.299	208.55
312.513	149.16
312.727	102.06
312.941	16.04
313.154	87.72
313.368	-12.63
313.582	112.3
313.796	73.39
314.009	71.34
314.223	93.87
314.437	85.67
314.651	112.3
314.864	44.71
315.078	11.95
315.292	26.28
315.505	48.81
315.719	52.91
315.933	65.19
316.146	-41.3
316.36	40.62
316.573	161.45
316.787	50.86
317.001	106.15
317.214	-33.11
317.428	93.87
317.641	24.23
317.855	-31.06
318.068	13.99
318.282	110.25
318.495	177.83
318.709	77.48
318.922	65.19
319.136	188.07
319.349	95.91
319.563	-2.39
319.776	57
319.99	-86.36
320.203	128.68
320.417	77.48
320.63	218.79
320.843	186.02
321.057	177.83
321.27	44.71
321.483	22.19
321.697	206.5
321.91	157.35
322.124	5.8
322.337	24.23
322.55	-55.64
322.763	79.53
322.977	34.47
323.19	83.63
323.403	-4.44
323.617	57
323.83	97.96
324.043	61.1
324.256	34.47
324.469	1.71
324.683	130.73
324.896	5.8
325.109	61.1
325.322	-14.68
325.535	71.34
325.748	110.25
325.962	38.57
326.175	63.15
326.388	75.43
326.601	179.88
326.814	42.67
327.027	83.63
327.24	171.69
327.453	-121.17
327.666	155.3
327.879	140.97
328.092	59.05
328.305	128.68
328.518	63.15
328.731	24.23
328.944	40.62
329.157	120.49
329.37	24.23
329.583	151.21
329.796	79.53
330.009	-47.44
330.222	106.15
330.435	52.91
330.648	46.76
330.861	16.04
331.073	24.23
331.286	153.26
331.499	34.47
331.712	20.14
331.925	26.28
332.138	18.09
332.35	214.7
332.563	57
332.776	87.72
332.989	75.43
333.202	22.19
333.414	44.71
333.627	93.87
333.84	36.52
334.053	100.01
334.265	79.53
334.478	87.72
334.691	102.06
334.903	48.81
335.116	13.99
335.329	28.33
335.541	116.39
335.754	175.78
335.966	61.1
336.179	63.15
336.392	20.14
336.604	65.19
336.817	118.44
337.029	30.38
337.242	110.25
337.454	34.47
337.667	28.33
337.88	149.16
338.092	106.15
338.305	91.82
338.517	11.95
338.729	210.6
338.942	196.26
339.154	-14.68
339.367	-10.58
339.579	116.39
339.792	-33.11
340.004	212.65
340.217	77.48
340.429	61.1
340.641	48.81
340.854	-0.34
341.066	52.91
341.278	181.93
341.491	79.53
341.703	-0.34
341.915	22.19
342.128	151.21
342.34	85.67
342.552	13.99
342.764	65.19
342.977	13.99
343.189	159.4
343.401	69.29
343.613	-6.49
343.826	65.19
344.038	48.81
344.25	65.19
344.462	38.57
344.674	71.34
344.886	13.99
345.099	128.68
345.311	44.71
345.523	-4.44
345.735	-0.34
345.947	106.15
346.159	57
346.371	7.85
346.583	118.44
346.795	192.17
347.007	81.58
347.219	97.96
347.431	20.14
347.643	69.29
347.855	36.52
348.067	157.35
348.279	-41.3
348.491	34.47
348.703	143.02
348.915	18.09
349.127	52.91
349.339	130.73
349.551	54.95
349.763	100.01
349.975	16.04
350.187	132.78
350.399	183.98
350.61	110.25
350.822	40.62
351.034	124.58
351.246	75.43
351.458	24.23
351.669	136.87
351.881	151.21
352.093	57
352.305	120.49
352.517	114.34
352.728	136.87
352.94	46.76
353.152	71.34
353.363	42.67
353.575	32.43
353.787	153.26
353.999	83.63
354.21	216.74
354.422	-49.49
354.633	20.14
354.845	59.05
355.057	32.43
355.268	118.44
355.48	134.82
355.692	16.04
355.903	69.29
356.115	-10.58
356.326	-69.97
356.538	190.12
356.749	106.15
356.961	186.02
357.172	69.29
357.384	-72.02
357.595	233.13
357.807	61.1
358.018	32.43
358.23	100.01
358.441	100.01
358.653	116.39
358.864	85.67
359.075	-0.34
359.287	122.54
359.498	177.83
359.709	100.01
359.921	36.52
360.132	110.25
360.344	138.92
360.555	34.47
360.766	38.57
360.977	-12.63
361.189	149.16
361.4	71.34
361.611	118.44
361.823	143.02
362.034	42.67
362.245	-59.73
362.456	61.1
362.667	32.43
362.879	-74.07
363.09	112.3
363.301	44.71
363.512	87.72
363.723	65.19
363.935	-4.44
364.146	157.35
364.357	-51.54
364.568	163.5
364.779	57
364.99	153.26
365.201	-41.3
365.412	167.59
365.623	-12.63
365.834	130.73
366.045	110.25
366.256	100.01
366.467	149.16
366.678	63.15
366.889	106.15
367.1	38.57
367.311	79.53
367.522	-31.06
367.733	73.39
367.944	52.91
368.155	91.82
368.366	52.91
368.577	83.63
368.788	143.02
368.999	67.24
369.209	122.54
369.42	192.17
369.631	253.61
369.842	120.49
370.053	85.67
370.264	173.74
370.474	-24.92
370.685	104.11
370.896	71.34
371.107	155.3
371.317	173.74
371.528	73.39
371.739	140.97
371.95	79.53
372.16	110.25
372.371	7.85
372.582	50.86
372.792	106.15
373.003	122.54
373.214	48.81
373.424	171.69
373.635	95.91
373.846	143.02
374.056	40.62
374.267	159.4
374.477	110.25
374.688	-2.39
374.898	151.21
375.109	61.1
375.319	61.1
375.53	130.73
375.74	173.74
375.951	32.43
376.161	79.53
376.372	157.35
376.582	32.43
376.793	57
377.003	54.95
377.214	-4.44
377.424	106.15
377.635	40.62
377.845	-20.82
378.055	179.88
378.266	22.19
378.476	32.43
378.686	50.86
378.897	128.68
379.107	89.77
379.317	61.1
379.528	75.43
379.738	59.05
379.948	-22.87
380.158	169.64
380.369	59.05
380.579	97.96
380.789	42.67
380.999	106.15
381.21	91.82
381.42	243.37
381.63	83.63
381.84	143.02
382.05	79.53
382.261	79.53
382.471	233.13
382.681	44.71
382.891	183.98
383.101	18.09
383.311	9.9
383.521	61.1
383.731	73.39
383.941	79.53
384.151	132.78
384.361	153.26
384.571	75.43
384.781	50.86
384.991	220.84
385.201	183.98
385.411	120.49
385.621	171.69
385.831	32.43
386.041	48.81
386.251	112.3
386.461	229.03
386.671	48.81
386.881	87.72
387.091	22.19
387.301	200.36
387.511	52.91
387.72	132.78
387.93	110.25
388.14	7.85
388.35	73.39
388.56	83.63
388.769	134.82
388.979	57
389.189	-14.68
389.399	44.71
389.609	130.73
389.818	186.02
390.028	79.53
390.238	173.74
390.447	-16.73
390.657	13.99
390.867	-14.68
391.076	32.43
391.286	114.34
391.496	34.47
391.705	138.92
391.915	130.73
392.125	83.63
392.334	59.05
392.544	210.6
392.753	116.39
392.963	69.29
393.172	134.82
393.382	38.57
393.591	202.41
393.801	-24.92
394.01	210.6
394.22	71.34
394.429	65.19
394.639	71.34
394.848	44.71
395.058	118.44
395.267	73.39
395.477	167.59
395.686	75.43
395.895	253.61
396.105	202.41
396.314	143.02
396.524	11.95
396.733	116.39
396.942	194.22
397.152	24.23
397.361	147.11
397.57	159.4
397.78	57
397.989	145.06
398.198	321.19
398.407	44.71
398.617	20.14
398.826	79.53
399.035	120.49
399.244	130.73
399.453	128.68
399.663	87.72
399.872	114.34
400.081	-10.58
400.29	181.93
400.499	3.75
400.708	143.02
400.917	13.99
401.127	44.71
401.336	40.62
401.545	214.7
401.754	157.35
401.963	130.73
402.172	11.95
402.381	-10.58
402.59	65.19
402.799	46.76
403.008	147.11
403.217	18.09
403.426	120.49
403.635	-6.49
403.844	52.91
404.053	-0.34
404.262	18.09
404.471	124.58
404.68	75.43
404.888	59.05
405.097	77.48
405.306	73.39
405.515	65.19
405.724	104.11
405.933	89.77
406.142	108.2
406.35	130.73
406.559	95.91
406.768	79.53
406.977	140.97
407.185	110.25
407.394	89.77
407.603	11.95
407.812	50.86
408.02	206.5
408.229	3.75
408.438	114.34
408.646	-8.53
408.855	77.48
409.064	175.78
409.272	38.57
409.481	140.97
409.69	26.28
409.898	-4.44
410.107	97.96
410.315	231.08
410.524	18.09
410.733	52.91
410.941	59.05
411.15	100.01
411.358	163.5
411.567	91.82
411.775	52.91
411.984	52.91
412.192	36.52
412.401	54.95
412.609	163.5
412.818	171.69
413.026	85.67
413.234	112.3
413.443	77.48
413.651	81.58
413.86	114.34
414.068	173.74
414.276	216.74
414.485	28.33
414.693	257.7
414.901	198.31
415.11	93.87
415.318	38.57
415.526	114.34
415.734	143.02
415.943	138.92
416.151	143.02
416.359	28.33
416.567	87.72
416.776	157.35
416.984	155.3
417.192	239.27
417.4	1.71
417.608	110.25
417.817	42.67
418.025	200.36
418.233	169.64
418.441	-8.53
418.649	-4.44
418.857	171.69
419.065	143.02
419.273	32.43
419.481	124.58
419.689	91.82
419.897	77.48
420.105	-26.96
420.313	54.95
420.521	120.49
420.729	222.89
420.937	-18.77
421.145	52.91
421.353	214.7
421.561	183.98
421.769	151.21
421.977	1.71
422.185	100.01
422.393	106.15
422.601	118.44
422.809	36.52
423.017	106.15
423.224	65.19
423.432	173.74
423.64	65.19
423.848	177.83
424.056	93.87
424.263	120.49
424.471	18.09
424.679	200.36
424.887	38.57
425.094	183.98
425.302	95.91
425.51	36.52
425.718	183.98
425.925	134.82
426.133	40.62
426.341	226.98
426.548	155.3
426.756	-22.87
426.964	81.58
427.171	102.06
427.379	192.17
427.586	167.59
427.794	183.98
428.001	138.92
428.209	71.34
428.417	226.98
428.624	122.54
428.832	163.5
429.039	181.93
429.247	126.63
429.454	175.78
429.662	226.98
429.869	181.93
430.076	288.42
430.284	106.15
430.491	249.51
430.699	194.22
430.906	267.94
431.114	204.46
431.321	200.36
431.528	126.63
431.736	222.89
431.943	243.37
432.15	276.13
432.358	214.7
432.565	274.09
432.772	116.39
432.979	282.28
433.187	226.98
433.394	239.27
433.601	196.26
433.808	272.04
434.016	292.52
434.223	327.33
434.43	237.22
434.637	345.77
434.844	382.63
435.052	360.1
435.259	325.29
435.466	341.67
435.673	364.2
435.88	437.92
436.087	392.87
436.294	478.88
436.501	491.17
436.708	478.88
436.915	396.96
437.122	458.4
437.329	351.91
437.537	446.12
437.743	511.65
437.95	542.37
438.157	558.75
438.364	470.69
438.571	568.99
438.778	607.91
438.985	523.94
439.192	581.28
439.399	614.05
439.606	659.1
439.813	691.87
440.02	837.28
440.227	831.13
440.433	683.68
440.64	691.87
440.847	706.21
441.054	911
441.261	960.16
441.467	831.13
441.674	868
441.881	982.68
442.088	831.13
442.294	984.73
442.501	1136.28
442.708	1052.31
442.914	1072.79
443.121	1154.71
443.328	1070.75
443.534	1212.06
443.741	1277.59
443.948	1263.26
444.154	1328.79
444.361	1566.35
444.568	1369.75
444.774	1523.35
444.981	1394.33
445.187	1687.18
445.394	1658.51
445.6	1693.33
445.807	1871.5
446.013	1777.3
446.22	1754.77
446.426	1844.88
446.633	2115.21
446.839	2260.62
447.046	1973.9
447.252	2367.11
447.459	2164.36
447.665	2297.48
447.871	2530.95
448.078	2551.43
448.284	2526.85
448.491	2733.7
448.697	2741.89
448.903	3004.03
449.11	3069.56
449.316	2987.65
449.522	3337.85
449.728	3458.68
449.935	3409.53
450.141	3499.64
450.347	3745.39
450.553	3784.3
450.76	3884.66
450.966	4066.92
451.172	4052.59
451.378	4531.81
451.584	4273.77
451.791	4701.79
451.997	4757.09
452.203	5025.37
452.409	5150.3
452.615	5373.53
452.821	5215.84
453.027	5342.81
453.233	5951.06
453.44	5862.99
453.646	6164.04
453.852	6493.77
454.058	6512.2
454.264	6766.15
454.47	7413.31
454.676	7196.22
454.882	7947.83
455.088	7536.18
455.294	8042.03
455.5	8537.64
455.705	9076.26
455.911	9197.09
456.117	9434.65
456.323	9702.93
456.529	9764.37
456.735	10642.95
456.941	10669.58
457.147	11234.82
457.352	11470.33
457.558	11832.82
457.764	12699.11
457.97	12914.15
458.176	13262.3
458.381	14110.16
458.587	14312.91
458.793	14859.72
458.999	15099.33
459.204	16956.84
459.41	17434.02
459.616	17272.23
459.821	18050.46
460.027	19064.2
460.233	19885.44
460.438	20163.96
460.644	21161.32
460.85	21396.84
461.055	22265.17
461.261	23387.46
461.466	22705.49
461.672	23219.53
461.878	26025.25
462.083	25670.95
462.289	26332.44
462.494	27184.4
462.7	27444.49
462.905	27806.98
463.111	30067.94
463.316	31306.96
463.522	32056.51
463.727	33012.91
463.932	34440.35
464.138	35005.59
464.343	36381.82
464.549	36764.79
464.754	39418.96
464.959	40238.15
465.165	41223.22
465.37	40770.62
465.575	41061.43
465.781	43787.28
465.986	44502.02
466.191	44028.94
466.397	44786.69
466.602	43738.13
466.807	45974.51
467.012	47072.22
467.218	47492.05
467.423	47944.66
467.628	49218.49
467.833	51014.56
468.038	50713.51
