Data from USB4F104151__208__11-05-43-629.txt Node

Date: Wed Feb 26 11:05:43 EST 2025
User: louis
Spectrometer: USB4F10415
Trigger mode: 4
Integration Time (sec): 1.000000E-1
Scans to average: 1
Electric dark correction enabled: true
Nonlinearity correction enabled: false
Boxcar width: 0
XAxis mode: Wavelengths
Number of Pixels in Spectrum: 3648
>>>>>Begin Spectral Data<<<<<
178.204	-365.39
178.424	-365.39
178.644	-365.39
178.864	-521.04
179.084	-398.16
179.304	-80.72
179.524	46.25
179.744	-23.38
179.964	76.97
180.184	-58.2
180.404	11.43
180.624	1.19
180.844	56.49
181.064	-86.87
181.283	25.77
181.503	50.35
181.723	-19.29
181.943	-142.16
182.163	109.74
182.383	-50
182.602	31.91
182.822	142.5
183.042	124.07
183.262	91.31
183.482	-17.24
183.701	-64.34
183.921	60.59
184.141	-19.29
184.361	58.54
184.58	27.82
184.8	31.91
185.02	-45.91
185.239	115.88
185.459	85.16
185.679	97.45
185.898	-121.68
186.118	40.11
186.338	40.11
186.557	138.41
186.777	-60.24
186.997	40.11
187.216	15.53
187.436	167.08
187.655	72.87
187.875	148.65
188.095	54.44
188.314	58.54
188.534	158.89
188.753	-29.52
188.973	44.2
189.192	109.74
189.412	54.44
189.631	52.39
189.851	83.11
190.07	187.56
190.29	-25.43
190.509	3.24
190.729	25.77
190.948	191.66
191.168	320.68
191.387	5.29
191.607	-17.24
191.826	-4.95
192.045	19.63
192.265	-21.33
192.484	48.3
192.704	66.73
192.923	-103.25
193.142	87.21
193.362	58.54
193.581	140.46
193.8	130.22
194.02	122.02
194.239	76.97
194.458	56.49
194.678	5.29
194.897	15.53
195.116	1.19
195.335	62.63
195.555	68.78
195.774	-29.52
195.993	142.5
196.212	42.15
196.432	9.39
196.651	122.02
196.87	21.67
197.089	263.33
197.308	95.4
197.528	97.45
197.747	-127.83
197.966	89.26
198.185	64.68
198.404	-27.48
198.623	27.82
198.842	154.79
199.062	142.5
199.281	138.41
199.5	76.97
199.719	72.87
199.938	21.67
200.157	44.2
200.376	97.45
200.595	25.77
200.814	169.13
201.033	-56.15
201.252	134.31
201.471	103.59
201.69	91.31
201.909	15.53
202.128	83.11
202.347	74.92
202.566	11.43
202.785	-82.77
203.004	17.58
203.223	199.85
203.442	83.11
203.661	-9.05
203.879	105.64
204.098	138.41
204.317	-19.29
204.536	50.35
204.755	70.83
204.974	124.07
205.193	-80.72
205.411	142.5
205.63	119.98
205.849	101.55
206.068	-4.95
206.287	-56.15
206.505	126.12
206.724	60.59
206.943	40.11
207.162	-21.33
207.381	36.01
207.599	29.87
207.818	-9.05
208.037	-31.57
208.255	-7
208.474	99.5
208.693	76.97
208.911	33.96
209.13	15.53
209.349	7.34
209.567	56.49
209.786	60.59
210.005	138.41
210.223	23.72
210.442	-140.12
210.661	-19.29
210.879	85.16
211.098	36.01
211.316	31.91
211.535	56.49
211.753	5.29
211.972	64.68
212.191	31.91
212.409	13.48
212.628	134.31
212.846	-17.24
213.065	23.72
213.283	183.46
213.502	79.02
213.72	162.98
213.938	-2.9
214.157	-9.05
214.375	99.5
214.594	83.11
214.812	-17.24
215.031	25.77
215.249	93.35
215.467	72.87
215.686	11.43
215.904	-11.09
216.122	40.11
216.341	183.46
216.559	50.35
216.778	81.07
216.996	142.5
217.214	-7
217.432	62.63
217.651	-4.95
217.869	66.73
218.087	74.92
218.306	7.34
218.524	52.39
218.742	66.73
218.96	119.98
219.179	-58.2
219.397	31.91
219.615	283.81
219.833	132.26
220.051	-95.06
220.27	167.08
220.488	85.16
220.706	83.11
220.924	-45.91
221.142	40.11
221.36	58.54
221.578	31.91
221.796	44.2
222.015	17.58
222.233	99.5
222.451	187.56
222.669	7.34
222.887	48.3
223.105	-17.24
223.323	29.87
223.541	31.91
223.759	15.53
223.977	70.83
224.195	140.46
224.413	124.07
224.631	17.58
224.849	107.69
225.067	175.27
225.285	-43.86
225.503	11.43
225.721	-82.77
225.939	42.15
226.157	23.72
226.375	259.24
226.592	23.72
226.81	21.67
227.028	91.31
227.246	140.46
227.464	64.68
227.682	66.73
227.9	128.17
228.117	58.54
228.335	105.64
228.553	48.3
228.771	19.63
228.989	27.82
229.206	109.74
229.424	9.39
229.642	-90.96
229.86	-95.06
230.077	68.78
230.295	44.2
230.513	154.79
230.731	175.27
230.948	158.89
231.166	152.74
231.384	46.25
231.601	-11.09
231.819	156.84
232.037	-7
232.254	-9.05
232.472	1.19
232.689	40.11
232.907	85.16
233.125	9.39
233.342	33.96
233.56	-41.81
233.777	-64.34
233.995	-45.91
234.213	130.22
234.43	189.61
234.648	60.59
234.865	11.43
235.083	21.67
235.3	1.19
235.518	7.34
235.735	44.2
235.953	83.11
236.17	74.92
236.388	15.53
236.605	31.91
236.822	81.07
237.04	93.35
237.257	50.35
237.475	-41.81
237.692	-0.85
237.909	62.63
238.127	-27.48
238.344	136.36
238.562	58.54
238.779	-21.33
238.996	-70.48
239.214	48.3
239.431	122.02
239.648	7.34
239.865	187.56
240.083	113.83
240.3	13.48
240.517	7.34
240.735	52.39
240.952	85.16
241.169	122.02
241.386	68.78
241.603	-29.52
241.821	5.29
242.038	76.97
242.255	58.54
242.472	-2.9
242.689	68.78
242.907	89.26
243.124	97.45
243.341	23.72
243.558	-56.15
243.775	-37.72
243.992	-88.92
244.209	91.31
244.426	220.33
244.643	25.77
244.86	70.83
245.078	19.63
245.295	109.74
245.512	36.01
245.729	-4.95
245.946	109.74
246.163	36.01
246.38	107.69
246.597	76.97
246.814	70.83
247.031	-39.76
247.248	-11.09
247.464	99.5
247.681	87.21
247.898	48.3
248.115	70.83
248.332	17.58
248.549	107.69
248.766	89.26
248.983	103.59
249.2	103.59
249.417	56.49
249.633	31.91
249.85	124.07
250.067	-2.9
250.284	42.15
250.501	79.02
250.717	126.12
250.934	-13.14
251.151	-11.09
251.368	119.98
251.585	31.91
251.801	52.39
252.018	-25.43
252.235	107.69
252.451	-13.14
252.668	-37.72
252.885	76.97
253.102	36.01
253.318	-101.2
253.535	-29.52
253.752	-78.68
253.968	-39.76
254.185	-70.48
254.401	99.5
254.618	68.78
254.835	36.01
255.051	91.31
255.268	117.93
255.484	115.88
255.701	-52.05
255.917	68.78
256.134	-29.52
256.351	64.68
256.567	-43.86
256.784	48.3
257	-31.57
257.217	105.64
257.433	134.31
257.65	60.59
257.866	122.02
258.082	-113.49
258.299	-64.34
258.515	36.01
258.732	-29.52
258.948	23.72
259.165	7.34
259.381	-33.62
259.597	54.44
259.814	-11.09
260.03	-2.9
260.246	23.72
260.463	56.49
260.679	162.98
260.895	13.48
261.112	-21.33
261.328	64.68
261.544	-4.95
261.761	212.14
261.977	-13.14
262.193	-56.15
262.409	122.02
262.626	3.24
262.842	13.48
263.058	-39.76
263.274	122.02
263.49	7.34
263.707	93.35
263.923	103.59
264.139	-60.24
264.355	101.55
264.571	81.07
264.787	70.83
265.004	81.07
265.22	19.63
265.436	-37.72
265.652	56.49
265.868	52.39
266.084	-7
266.3	54.44
266.516	-15.19
266.732	46.25
266.948	-9.05
267.164	-33.62
267.38	36.01
267.596	117.93
267.812	187.56
268.028	64.68
268.244	66.73
268.46	-7
268.676	-23.38
268.892	64.68
269.108	-19.29
269.324	1.19
269.54	3.24
269.756	36.01
269.972	-43.86
270.188	33.96
270.403	-50
270.619	38.06
270.835	105.64
271.051	-43.86
271.267	56.49
271.483	-17.24
271.698	124.07
271.914	148.65
272.13	5.29
272.346	13.48
272.562	46.25
272.777	146.6
272.993	60.59
273.209	17.58
273.425	142.5
273.64	-70.48
273.856	91.31
274.072	-23.38
274.287	44.2
274.503	101.55
274.719	19.63
274.934	23.72
275.15	-15.19
275.366	95.4
275.581	52.39
275.797	-9.05
276.012	79.02
276.228	50.35
276.444	5.29
276.659	136.36
276.875	-0.85
277.09	27.82
277.306	38.06
277.521	111.78
277.737	-9.05
277.952	109.74
278.168	56.49
278.383	99.5
278.599	9.39
278.814	99.5
279.03	-11.09
279.245	79.02
279.461	58.54
279.676	76.97
279.892	-52.05
280.107	-86.87
280.322	-15.19
280.538	23.72
280.753	5.29
280.969	40.11
281.184	64.68
281.399	126.12
281.615	-9.05
281.83	66.73
282.045	-93.01
282.26	17.58
282.476	-19.29
282.691	76.97
282.906	1.19
283.122	-11.09
283.337	29.87
283.552	-21.33
283.767	66.73
283.983	148.65
284.198	17.58
284.413	115.88
284.628	-45.91
284.843	81.07
285.058	124.07
285.274	38.06
285.489	23.72
285.704	165.03
285.919	-58.2
286.134	54.44
286.349	25.77
286.564	11.43
286.779	132.26
286.995	-19.29
287.21	-84.82
287.425	58.54
287.64	-9.05
287.855	-7
288.07	-76.63
288.285	148.65
288.5	93.35
288.715	93.35
288.93	3.24
289.145	-27.48
289.36	99.5
289.575	21.67
289.79	103.59
290.004	103.59
290.219	150.7
290.434	-13.14
290.649	-2.9
290.864	-21.33
291.079	-27.48
291.294	42.15
291.509	56.49
291.724	62.63
291.938	-37.72
292.153	-33.62
292.368	11.43
292.583	44.2
292.798	87.21
293.012	76.97
293.227	50.35
293.442	64.68
293.657	126.12
293.871	105.64
294.086	56.49
294.301	210.09
294.516	113.83
294.73	95.4
294.945	-54.1
295.16	-0.85
295.374	60.59
295.589	81.07
295.804	70.83
296.018	38.06
296.233	134.31
296.447	97.45
296.662	27.82
296.877	66.73
297.091	74.92
297.306	52.39
297.52	3.24
297.735	83.11
297.949	76.97
298.164	44.2
298.378	5.29
298.593	1.19
298.807	-37.72
299.022	126.12
299.236	195.75
299.451	-19.29
299.665	5.29
299.88	11.43
300.094	64.68
300.309	79.02
300.523	-47.96
300.737	-43.86
300.952	38.06
301.166	158.89
301.381	-19.29
301.595	38.06
301.809	87.21
302.024	-17.24
302.238	25.77
302.452	109.74
302.667	9.39
302.881	109.74
303.095	7.34
303.309	29.87
303.524	9.39
303.738	76.97
303.952	33.96
304.166	68.78
304.381	-19.29
304.595	62.63
304.809	-62.29
305.023	54.44
305.237	27.82
305.452	25.77
305.666	50.35
305.88	85.16
306.094	111.78
306.308	56.49
306.522	105.64
306.736	15.53
306.95	128.17
307.164	27.82
307.379	3.24
307.593	122.02
307.807	56.49
308.021	44.2
308.235	21.67
308.449	-95.06
308.663	1.19
308.877	212.14
309.091	56.49
309.305	93.35
309.519	-76.63
309.733	132.26
309.947	-7
310.161	56.49
310.374	107.69
310.588	87.21
310.802	-29.52
311.016	-45.91
311.23	48.3
311.444	-43.86
311.658	5.29
311.872	128.17
312.085	103.59
312.299	167.08
312.513	99.5
312.727	-41.81
312.941	3.24
313.154	83.11
313.368	27.82
313.582	54.44
313.796	117.93
314.009	7.34
314.223	134.31
314.437	150.7
314.651	95.4
314.864	9.39
315.078	19.63
315.292	-86.87
315.505	33.96
315.719	46.25
315.933	40.11
316.146	-19.29
316.36	-58.2
316.573	60.59
316.787	115.88
317.001	81.07
317.214	13.48
317.428	109.74
317.641	-0.85
317.855	1.19
318.068	11.43
318.282	70.83
318.495	167.08
318.709	27.82
318.922	-21.33
319.136	189.61
319.349	117.93
319.563	-52.05
319.776	109.74
319.99	-70.48
320.203	79.02
320.417	25.77
320.63	83.11
320.843	230.57
321.057	83.11
321.27	31.91
321.483	-4.95
321.697	165.03
321.91	60.59
322.124	9.39
322.337	119.98
322.55	19.63
322.763	7.34
322.977	97.45
323.19	-39.76
323.403	48.3
323.617	95.4
323.83	48.3
324.043	42.15
324.256	-4.95
324.469	-82.77
324.683	126.12
324.896	70.83
325.109	54.44
325.322	11.43
325.535	140.46
325.748	126.12
325.962	33.96
326.175	13.48
326.388	-2.9
326.601	169.13
326.814	-41.81
327.027	64.68
327.24	68.78
327.453	7.34
327.666	50.35
327.879	109.74
328.092	64.68
328.305	33.96
328.518	85.16
328.731	-43.86
328.944	93.35
329.157	124.07
329.37	-33.62
329.583	154.79
329.796	158.89
330.009	-31.57
330.222	113.83
330.435	79.02
330.648	79.02
330.861	76.97
331.073	7.34
331.286	85.16
331.499	58.54
331.712	17.58
331.925	36.01
332.138	40.11
332.35	107.69
332.563	-58.2
332.776	83.11
332.989	13.48
333.202	-11.09
333.414	58.54
333.627	44.2
333.84	-43.86
334.053	74.92
334.265	11.43
334.478	-23.38
334.691	29.87
334.903	76.97
335.116	5.29
335.329	11.43
335.541	95.4
335.754	177.32
335.966	-23.38
336.179	23.72
336.392	64.68
336.604	-4.95
336.817	89.26
337.029	58.54
337.242	5.29
337.454	91.31
337.667	81.07
337.88	199.85
338.092	87.21
338.305	60.59
338.517	66.73
338.729	158.89
338.942	115.88
339.154	-19.29
339.367	-56.15
339.579	64.68
339.792	-84.82
340.004	54.44
340.217	38.06
340.429	19.63
340.641	-70.48
340.854	-31.57
341.066	5.29
341.278	193.7
341.491	210.09
341.703	19.63
341.915	-43.86
342.128	113.83
342.34	74.92
342.552	-13.14
342.764	50.35
342.977	36.01
343.189	81.07
343.401	97.45
343.613	-58.2
343.826	31.91
344.038	-54.1
344.25	66.73
344.462	33.96
344.674	111.78
344.886	54.44
345.099	101.55
345.311	62.63
345.523	36.01
345.735	-150.36
345.947	11.43
346.159	76.97
346.371	-29.52
346.583	1.19
346.795	60.59
347.007	-33.62
347.219	52.39
347.431	23.72
347.643	99.5
347.855	11.43
348.067	130.22
348.279	-41.81
348.491	-9.05
348.703	62.63
348.915	5.29
349.127	19.63
349.339	79.02
349.551	-21.33
349.763	132.26
349.975	56.49
350.187	130.22
350.399	154.79
350.61	-0.85
350.822	11.43
351.034	89.26
351.246	60.59
351.458	-13.14
351.669	87.21
351.881	93.35
352.093	183.46
352.305	171.18
352.517	68.78
352.728	81.07
352.94	9.39
353.152	68.78
353.363	-0.85
353.575	74.92
353.787	208.04
353.999	36.01
354.21	107.69
354.422	-37.72
354.633	3.24
354.845	124.07
355.057	23.72
355.268	42.15
355.48	68.78
355.692	13.48
355.903	19.63
356.115	-0.85
356.326	-78.68
356.538	154.79
356.749	60.59
356.961	132.26
357.172	15.53
357.384	3.24
357.595	212.14
357.807	-31.57
358.018	-17.24
358.23	44.2
358.441	162.98
358.653	60.59
358.864	-47.96
359.075	42.15
359.287	72.87
359.498	74.92
359.709	76.97
359.921	1.19
360.132	70.83
360.344	27.82
360.555	27.82
360.766	87.21
360.977	-9.05
361.189	56.49
361.4	38.06
361.611	181.42
361.823	185.51
362.034	42.15
362.245	-78.68
362.456	5.29
362.667	140.46
362.879	-27.48
363.09	9.39
363.301	40.11
363.512	50.35
363.723	-17.24
363.935	64.68
364.146	89.26
364.357	19.63
364.568	97.45
364.779	-60.24
364.99	140.46
365.201	-66.39
365.412	122.02
365.623	-37.72
365.834	54.44
366.045	124.07
366.256	101.55
366.467	142.5
366.678	19.63
366.889	27.82
367.1	-25.43
367.311	58.54
367.522	-41.81
367.733	50.35
367.944	48.3
368.155	-76.63
368.366	111.78
368.577	62.63
368.788	144.55
368.999	-2.9
369.209	52.39
369.42	177.32
369.631	191.66
369.842	48.3
370.053	23.72
370.264	122.02
370.474	-84.82
370.685	46.25
370.896	54.44
371.107	154.79
371.317	58.54
371.528	132.26
371.739	66.73
371.95	83.11
372.16	9.39
372.371	-37.72
372.582	-7
372.792	99.5
373.003	21.67
373.214	103.59
373.424	146.6
373.635	-103.25
373.846	169.13
374.056	81.07
374.267	64.68
374.477	95.4
374.688	31.91
374.898	85.16
375.109	48.3
375.319	23.72
375.53	126.12
375.74	29.87
375.951	50.35
376.161	74.92
376.372	160.94
376.582	-56.15
376.793	68.78
377.003	3.24
377.214	-7
377.424	62.63
377.635	93.35
377.845	60.59
378.055	185.51
378.266	-17.24
378.476	29.87
378.686	74.92
378.897	25.77
379.107	109.74
379.317	62.63
379.528	66.73
379.738	185.51
379.948	-56.15
380.158	17.58
380.369	44.2
380.579	79.02
380.789	31.91
380.999	58.54
381.21	89.26
381.42	205.99
381.63	95.4
381.84	132.26
382.05	117.93
382.261	148.65
382.471	87.21
382.681	-82.77
382.891	167.08
383.101	54.44
383.311	13.48
383.521	5.29
383.731	72.87
383.941	101.55
384.151	107.69
384.361	79.02
384.571	56.49
384.781	50.35
384.991	191.66
385.201	107.69
385.411	42.15
385.621	95.4
385.831	-33.62
386.041	33.96
386.251	89.26
386.461	160.94
386.671	-39.76
386.881	54.44
387.091	27.82
387.301	117.93
387.511	3.24
387.72	79.02
387.93	76.97
388.14	-56.15
388.35	95.4
388.56	173.22
388.769	218.28
388.979	5.29
389.189	9.39
389.399	105.64
389.609	134.31
389.818	122.02
390.028	105.64
390.238	42.15
390.447	36.01
390.657	25.77
390.867	85.16
391.076	-29.52
391.286	-2.9
391.496	25.77
391.705	7.34
391.915	115.88
392.125	124.07
392.334	64.68
392.544	156.84
392.753	23.72
392.963	-43.86
393.172	-17.24
393.382	27.82
393.591	142.5
393.801	48.3
394.01	150.7
394.22	93.35
394.429	-35.67
394.639	3.24
394.848	31.91
395.058	31.91
395.267	1.19
395.477	38.06
395.686	99.5
395.895	265.38
396.105	267.43
396.314	60.59
396.524	107.69
396.733	79.02
396.942	183.46
397.152	113.83
397.361	111.78
397.57	68.78
397.78	27.82
397.989	38.06
398.198	234.66
398.407	93.35
398.617	9.39
398.826	117.93
399.035	9.39
399.244	81.07
399.453	7.34
399.663	87.21
399.872	46.25
400.081	-11.09
400.29	150.7
400.499	-13.14
400.708	48.3
400.917	25.77
401.127	74.92
401.336	-29.52
401.545	119.98
401.754	105.64
401.963	115.88
402.172	-4.95
402.381	-19.29
402.59	5.29
402.799	62.63
403.008	68.78
403.217	99.5
403.426	46.25
403.635	-80.72
403.844	1.19
404.053	-0.85
404.262	13.48
404.471	99.5
404.68	105.64
404.888	93.35
405.097	42.15
405.306	54.44
405.515	152.74
405.724	27.82
405.933	183.46
406.142	130.22
406.35	142.5
406.559	-0.85
406.768	134.31
406.977	103.59
407.185	-27.48
407.394	136.36
407.603	-33.62
407.812	83.11
408.02	208.04
408.229	42.15
408.438	36.01
408.646	-74.58
408.855	25.77
409.064	46.25
409.272	60.59
409.481	91.31
409.69	17.58
409.898	42.15
410.107	85.16
410.315	38.06
410.524	36.01
410.733	9.39
410.941	-7
411.15	60.59
411.358	119.98
411.567	91.31
411.775	99.5
411.984	21.67
412.192	-11.09
412.401	21.67
412.609	169.13
412.818	193.7
413.026	89.26
413.234	64.68
413.443	42.15
413.651	19.63
413.86	54.44
414.068	197.8
414.276	138.41
414.485	13.48
414.693	169.13
414.901	175.27
415.11	58.54
415.318	83.11
415.526	5.29
415.734	91.31
415.943	74.92
416.151	158.89
416.359	-9.05
416.567	66.73
416.776	113.83
416.984	83.11
417.192	103.59
417.4	19.63
417.608	-47.96
417.817	48.3
418.025	181.42
418.233	130.22
418.441	-4.95
418.649	-27.48
418.857	3.24
419.065	140.46
419.273	23.72
419.481	38.06
419.689	25.77
419.897	44.2
420.105	-58.2
420.313	128.17
420.521	181.42
420.729	115.88
420.937	5.29
421.145	-33.62
421.353	138.41
421.561	128.17
421.769	195.75
421.977	15.53
422.185	216.23
422.393	-0.85
422.601	171.18
422.809	87.21
423.017	60.59
423.224	97.45
423.432	158.89
423.64	52.39
423.848	103.59
424.056	-47.96
424.263	113.83
424.471	5.29
424.679	158.89
424.887	-9.05
425.094	144.55
425.302	122.02
425.51	68.78
425.718	103.59
425.925	64.68
426.133	38.06
426.341	228.52
426.548	113.83
426.756	103.59
426.964	109.74
427.171	97.45
427.379	119.98
427.586	126.12
427.794	181.42
428.001	142.5
428.209	148.65
428.417	173.22
428.624	150.7
428.832	113.83
429.039	105.64
429.247	-29.52
429.454	152.74
429.662	187.56
429.869	126.12
430.076	246.95
430.284	156.84
430.491	285.86
430.699	46.25
430.906	214.18
431.114	132.26
431.321	142.5
431.528	109.74
431.736	236.71
431.943	193.7
432.15	242.85
432.358	191.66
432.565	300.2
432.772	52.39
432.979	197.8
433.187	79.02
433.394	208.04
433.601	103.59
433.808	240.81
434.016	294.05
434.223	244.9
434.43	261.29
434.637	210.09
434.844	244.9
435.052	232.62
435.259	263.33
435.466	259.24
435.673	292.01
435.88	359.59
436.087	257.19
436.294	304.29
436.501	269.48
436.708	314.53
436.915	322.73
437.122	394.4
437.329	234.66
437.537	316.58
437.743	445.6
437.95	548
438.157	369.83
438.364	337.06
438.571	478.37
438.778	443.56
438.985	472.23
439.192	498.85
439.399	433.32
439.606	474.28
439.813	613.54
440.02	578.72
440.227	627.87
440.433	652.45
440.64	586.91
440.847	586.91
441.054	580.77
441.261	748.7
441.467	650.4
441.674	634.02
441.881	801.95
442.088	681.12
442.294	795.81
442.501	763.04
442.708	844.96
442.914	879.77
443.121	816.29
443.328	873.63
443.534	1002.65
443.741	1000.6
443.948	912.54
444.154	1029.27
444.361	1236.12
444.568	1080.47
444.774	1131.67
444.981	1080.47
445.187	1193.11
445.394	1330.33
445.6	1133.72
445.807	1436.82
446.013	1379.48
446.22	1299.61
446.426	1469.59
446.633	1485.97
446.839	1830.03
447.046	1404.05
447.252	1823.89
447.459	1631.38
447.665	1827.98
447.871	1944.72
448.078	2043.02
448.284	1963.15
448.491	2210.95
448.697	2229.38
448.903	2243.72
449.11	2319.5
449.316	2270.34
449.522	2544.77
449.728	2579.59
449.935	2575.49
450.141	2595.97
450.347	2946.17
450.553	2727.04
450.76	2940.03
450.966	3062.91
451.172	3118.2
451.378	3279.99
451.584	3298.42
451.791	3648.63
451.997	3662.96
452.203	3646.58
452.409	4146.28
452.615	4109.42
452.821	3955.82
453.027	4138.09
453.233	4443.24
453.44	4291.69
453.646	4703.33
453.852	4815.97
454.058	5119.07
454.264	5137.5
454.47	5614.68
454.676	5590.1
454.882	5966.93
455.088	5919.82
455.294	6163.53
455.5	6542.41
455.705	7019.58
455.911	6995.01
456.117	7091.26
456.323	7279.68
456.529	7310.4
456.735	8088.62
456.941	8301.61
457.147	8434.73
457.352	8883.24
457.558	9159.71
457.764	9571.35
457.97	9903.12
458.176	10011.67
458.381	10705.93
458.587	11107.33
458.793	11363.33
458.999	11439.1
459.204	12690.41
459.41	13061.09
459.616	13011.94
459.821	14015.44
460.027	14539.72
460.233	15303.62
460.438	15127.49
460.644	16186.29
460.85	16014.26
461.055	16880.55
461.261	17669.02
461.466	17439.65
461.672	17671.07
461.878	19909.5
462.083	19270.53
462.289	19774.33
462.494	20747.12
462.7	20747.12
462.905	21349.22
463.111	23036.75
463.316	24097.59
463.522	24474.42
463.727	25322.28
463.932	26114.84
464.138	26981.13
464.343	28158.72
464.549	27951.87
464.754	30241.5
464.959	30825.17
465.165	31564.49
465.37	31517.39
465.575	31146.7
465.781	33559.21
465.986	34419.36
466.191	33884.84
466.397	34384.54
466.602	33637.03
466.807	35609.23
467.012	36225.67
467.218	36457.09
467.423	36665.98
467.628	37360.24
467.833	39549.52
468.038	38707.8
468.244	38023.78
468.449	40284.74
468.654	39455.31
468.859	39223.89
