Data from USB4F104151__239__11-06-33-724.txt Node

Date: Wed Feb 26 11:06:33 EST 2025
User: louis
Spectrometer: USB4F10415
Trigger mode: 4
Integration Time (sec): 1.000000E-1
Scans to average: 1
Electric dark correction enabled: true
Nonlinearity correction enabled: false
Boxcar width: 0
XAxis mode: Wavelengths
Number of Pixels in Spectrum: 3648
>>>>>Begin Spectral Data<<<<<
178.204	-380.07
178.424	-380.07
178.644	-380.07
178.864	-443.56
179.084	-447.65
179.304	11.09
179.524	13.14
179.744	-11.43
179.964	33.62
180.184	21.33
180.404	37.72
180.624	-1.19
180.844	-79.02
181.064	-58.54
181.283	52.05
181.503	-50.35
181.723	31.57
181.943	-91.31
182.163	172.88
182.383	-62.63
182.602	52.05
182.822	105.3
183.042	35.67
183.262	-46.25
183.482	56.15
183.701	17.24
183.921	50
184.141	-85.16
184.361	13.14
184.58	17.24
184.8	-7.34
185.02	-89.26
185.239	72.53
185.459	99.16
185.679	125.78
185.898	-93.35
186.118	-1.19
186.338	25.43
186.557	123.73
186.777	-66.73
186.997	-36.01
187.216	133.97
187.436	119.64
187.655	144.21
187.875	107.35
188.095	80.72
188.314	131.92
188.534	84.82
188.753	-113.83
188.973	56.15
189.192	211.79
189.412	-15.53
189.631	-27.82
189.851	45.91
190.07	183.12
190.29	-11.43
190.509	-11.43
190.729	68.44
190.948	117.59
191.168	244.56
191.387	37.72
191.607	11.09
191.826	27.48
192.045	-48.3
192.265	19.29
192.484	4.95
192.704	123.73
192.923	-85.16
193.142	166.74
193.362	138.07
193.581	119.64
193.8	76.63
194.02	80.72
194.239	-15.53
194.458	27.48
194.678	15.19
194.897	-81.07
195.116	62.29
195.335	25.43
195.555	47.96
195.774	-11.43
195.993	84.82
196.212	9.05
196.432	58.2
196.651	4.95
196.87	19.29
197.089	254.8
197.308	50
197.528	72.53
197.747	-25.77
197.966	78.68
198.185	64.34
198.404	-46.25
198.623	107.35
198.842	136.02
199.062	52.05
199.281	78.68
199.5	-25.77
199.719	86.87
199.938	21.33
200.157	27.48
200.376	64.34
200.595	148.31
200.814	74.58
201.033	21.33
201.252	131.92
201.471	129.88
201.69	103.25
201.909	21.33
202.128	93.01
202.347	33.62
202.566	11.09
202.785	-91.31
203.004	-17.58
203.223	273.23
203.442	-13.48
203.661	-33.96
203.879	54.1
204.098	123.73
204.317	-107.69
204.536	95.06
204.755	123.73
204.974	95.06
205.193	-62.63
205.411	148.31
205.63	140.12
205.849	78.68
206.068	-21.67
206.287	54.1
206.505	113.49
206.724	39.76
206.943	23.38
207.162	-29.87
207.381	68.44
207.599	25.43
207.818	105.3
208.037	-11.43
208.255	72.53
208.474	113.49
208.693	52.05
208.911	-3.24
209.13	76.63
209.349	125.78
209.567	72.53
209.786	117.59
210.005	54.1
210.223	11.09
210.442	-27.82
210.661	90.96
210.879	21.33
211.098	4.95
211.316	103.25
211.535	9.05
211.753	31.57
211.972	74.58
212.191	-13.48
212.409	45.91
212.628	121.68
212.846	-11.43
213.065	33.62
213.283	107.35
213.502	50
213.72	103.25
213.938	99.16
214.157	58.2
214.375	123.73
214.594	33.62
214.812	97.11
215.031	4.95
215.249	101.2
215.467	7
215.686	17.24
215.904	62.29
216.122	41.81
216.341	125.78
216.559	37.72
216.778	107.35
216.996	80.72
217.214	-3.24
217.432	4.95
217.651	-74.92
217.869	7
218.087	21.33
218.306	-27.82
218.524	50
218.742	4.95
218.96	78.68
219.179	13.14
219.397	45.91
219.615	209.75
219.833	144.21
220.051	-31.91
220.27	82.77
220.488	72.53
220.706	70.48
220.924	-7.34
221.142	-5.29
221.36	-25.77
221.578	119.64
221.796	21.33
222.015	19.29
222.233	52.05
222.451	140.12
222.669	-7.34
222.887	95.06
223.105	23.38
223.323	19.29
223.541	-25.77
223.759	64.34
223.977	-7.34
224.195	97.11
224.413	45.91
224.631	72.53
224.849	82.77
225.067	226.13
225.285	-1.19
225.503	-1.19
225.721	-60.59
225.939	60.24
226.157	109.4
226.375	238.42
226.592	31.57
226.81	2.9
227.028	97.11
227.246	84.82
227.464	103.25
227.682	109.4
227.9	-5.29
228.117	105.3
228.335	41.81
228.553	68.44
228.771	107.35
228.989	68.44
229.206	127.83
229.424	-44.2
229.642	-19.63
229.86	-44.2
230.077	93.01
230.295	47.96
230.513	56.15
230.731	97.11
230.948	154.45
231.166	138.07
231.384	-27.82
231.601	23.38
231.819	217.94
232.037	-56.49
232.254	-11.43
232.472	-7.34
232.689	-29.87
232.907	70.48
233.125	-68.78
233.342	-42.15
233.56	-52.39
233.777	25.43
233.995	35.67
234.213	140.12
234.43	103.25
234.648	80.72
234.865	-76.97
235.083	72.53
235.3	17.24
235.518	47.96
235.735	121.68
235.953	52.05
236.17	-3.24
236.388	43.86
236.605	4.95
236.822	25.43
237.04	148.31
237.257	25.43
237.475	7
237.692	47.96
237.909	111.44
238.127	45.91
238.344	41.81
238.562	62.29
238.779	-50.35
238.996	-36.01
239.214	66.39
239.431	123.73
239.648	-36.01
239.865	29.52
240.083	131.92
240.3	27.48
240.517	15.19
240.735	-5.29
240.952	88.92
241.169	66.39
241.386	-15.53
241.603	68.44
241.821	58.2
242.038	103.25
242.255	80.72
242.472	-93.35
242.689	86.87
242.907	17.24
243.124	54.1
243.341	39.76
243.558	2.9
243.775	-25.77
243.992	-50.35
244.209	129.88
244.426	88.92
244.643	95.06
244.86	-81.07
245.078	99.16
245.295	39.76
245.512	-21.67
245.729	-19.63
245.946	74.58
246.163	17.24
246.38	17.24
246.597	-1.19
246.814	54.1
247.031	29.52
247.248	23.38
247.464	62.29
247.681	39.76
247.898	37.72
248.115	47.96
248.332	-36.01
248.549	162.64
248.766	103.25
248.983	125.78
249.2	95.06
249.417	115.54
249.633	-31.91
249.85	23.38
250.067	97.11
250.284	29.52
250.501	78.68
250.717	54.1
250.934	-40.11
251.151	62.29
251.368	-27.82
251.585	66.39
251.801	119.64
252.018	-5.29
252.235	158.55
252.451	17.24
252.668	-15.53
252.885	41.81
253.102	-19.63
253.318	-46.25
253.535	-62.63
253.752	39.76
253.968	17.24
254.185	-64.68
254.401	117.59
254.618	88.92
254.835	-44.2
255.051	158.55
255.268	9.05
255.484	56.15
255.701	-7.34
255.917	86.87
256.134	-83.11
256.351	86.87
256.567	-3.24
256.784	-27.82
257	-52.39
257.217	119.64
257.433	47.96
257.65	15.19
257.866	127.83
258.082	-36.01
258.299	-21.67
258.515	64.34
258.732	-23.72
258.948	43.86
259.165	27.48
259.381	-93.35
259.597	39.76
259.814	17.24
260.03	-36.01
260.246	11.09
260.463	162.64
260.679	86.87
260.895	23.38
261.112	97.11
261.328	82.77
261.544	-54.44
261.761	189.27
261.977	-42.15
262.193	-99.5
262.409	115.54
262.626	23.38
262.842	56.15
263.058	-19.63
263.274	56.15
263.49	74.58
263.707	52.05
263.923	50
264.139	-134.31
264.355	41.81
264.571	162.64
264.787	111.44
265.004	172.88
265.22	7
265.436	-21.67
265.652	13.14
265.868	13.14
266.084	-44.2
266.3	62.29
266.516	4.95
266.732	29.52
266.948	86.87
267.164	45.91
267.38	90.96
267.596	35.67
267.812	162.64
268.028	2.9
268.244	0.85
268.46	97.11
268.676	-66.73
268.892	-15.53
269.108	2.9
269.324	-70.83
269.54	11.09
269.756	117.59
269.972	-62.63
270.188	54.1
270.403	-81.07
270.619	-64.68
270.835	113.49
271.051	76.63
271.267	64.34
271.483	-27.82
271.698	105.3
271.914	68.44
272.13	7
272.346	-19.63
272.562	47.96
272.777	156.5
272.993	-13.48
273.209	-25.77
273.425	62.29
273.64	-40.11
273.856	113.49
274.072	37.72
274.287	-15.53
274.503	70.48
274.719	90.96
274.934	-91.31
275.15	19.29
275.366	66.39
275.581	-60.59
275.797	82.77
276.012	60.24
276.228	-25.77
276.444	13.14
276.659	50
276.875	-19.63
277.09	35.67
277.306	-13.48
277.521	54.1
277.737	0.85
277.952	58.2
278.168	7
278.383	-11.43
278.599	45.91
278.814	140.12
279.03	11.09
279.245	41.81
279.461	19.29
279.676	62.29
279.892	-48.3
280.107	-54.44
280.322	-29.87
280.538	76.63
280.753	7
280.969	93.01
281.184	78.68
281.399	88.92
281.615	138.07
281.83	-3.24
282.045	39.76
282.26	7
282.476	15.19
282.691	95.06
282.906	119.64
283.122	31.57
283.337	31.57
283.552	58.2
283.767	64.34
283.983	113.49
284.198	13.14
284.413	95.06
284.628	-66.73
284.843	68.44
285.058	64.34
285.274	66.39
285.489	47.96
285.704	41.81
285.919	17.24
286.134	-46.25
286.349	2.9
286.564	76.63
286.779	113.49
286.995	50
287.21	-89.26
287.425	105.3
287.64	19.29
287.855	-29.87
288.07	-62.63
288.285	66.39
288.5	54.1
288.715	-19.63
288.93	66.39
289.145	-72.87
289.36	72.53
289.575	37.72
289.79	138.07
290.004	82.77
290.219	13.14
290.434	-11.43
290.649	11.09
290.864	-11.43
291.079	29.52
291.294	29.52
291.509	66.39
291.724	15.19
291.938	2.9
292.153	109.4
292.368	47.96
292.583	0.85
292.798	68.44
293.012	56.15
293.227	121.68
293.442	7
293.657	99.16
293.871	156.5
294.086	11.09
294.301	187.22
294.516	164.69
294.73	54.1
294.945	15.19
295.16	101.2
295.374	164.69
295.589	103.25
295.804	-5.29
296.018	4.95
296.233	64.34
296.447	25.43
296.662	-72.87
296.877	105.3
297.091	93.01
297.306	86.87
297.52	47.96
297.735	127.83
297.949	52.05
298.164	15.19
298.378	19.29
298.593	-130.22
298.807	-44.2
299.022	66.39
299.236	109.4
299.451	33.62
299.665	4.95
299.88	-46.25
300.094	2.9
300.309	95.06
300.523	-19.63
300.737	17.24
300.952	146.26
301.166	107.35
301.381	-56.49
301.595	-23.72
301.809	86.87
302.024	-1.19
302.238	-74.92
302.452	60.24
302.667	-25.77
302.881	117.59
303.095	-9.39
303.309	50
303.524	13.14
303.738	35.67
303.952	50
304.166	-29.87
304.381	-107.69
304.595	107.35
304.809	47.96
305.023	23.38
305.237	7
305.452	-21.67
305.666	74.58
305.88	66.39
306.094	82.77
306.308	64.34
306.522	93.01
306.736	86.87
306.95	-64.68
307.164	21.33
307.379	-21.67
307.593	93.01
307.807	103.25
308.021	109.4
308.235	54.1
308.449	-115.88
308.663	70.48
308.877	156.5
309.091	84.82
309.305	35.67
309.519	-111.78
309.733	119.64
309.947	-72.87
310.161	0.85
310.374	27.48
310.588	115.54
310.802	-74.92
311.016	-31.91
311.23	84.82
311.444	2.9
311.658	41.81
311.872	193.36
312.085	152.4
312.299	109.4
312.513	113.49
312.727	31.57
312.941	-91.31
313.154	39.76
313.368	2.9
313.582	23.38
313.796	-17.58
314.009	68.44
314.223	107.35
314.437	17.24
314.651	84.82
314.864	-46.25
315.078	31.57
315.292	-9.39
315.505	-1.19
315.719	31.57
315.933	13.14
316.146	-19.63
316.36	-91.31
316.573	64.34
316.787	33.62
317.001	41.81
317.214	62.29
317.428	54.1
317.641	-93.35
317.855	0.85
318.068	50
318.282	37.72
318.495	185.17
318.709	43.86
318.922	-50.35
319.136	70.48
319.349	50
319.563	-23.72
319.776	15.19
319.99	-62.63
320.203	74.58
320.417	9.05
320.63	70.48
320.843	142.16
321.057	127.83
321.27	74.58
321.483	56.15
321.697	133.97
321.91	56.15
322.124	-1.19
322.337	50
322.55	-42.15
322.763	68.44
322.977	-38.06
323.19	-33.96
323.403	2.9
323.617	68.44
323.83	144.21
324.043	0.85
324.256	84.82
324.469	-17.58
324.683	84.82
324.896	-29.87
325.109	78.68
325.322	-97.45
325.535	17.24
325.748	101.2
325.962	58.2
326.175	45.91
326.388	105.3
326.601	105.3
326.814	-11.43
327.027	0.85
327.24	195.41
327.453	-115.88
327.666	127.83
327.879	144.21
328.092	152.4
328.305	119.64
328.518	45.91
328.731	-33.96
328.944	-23.72
329.157	64.34
329.37	21.33
329.583	170.83
329.796	166.74
330.009	-54.44
330.222	-21.67
330.435	60.24
330.648	60.24
330.861	37.72
331.073	-11.43
331.286	101.2
331.499	17.24
331.712	17.24
331.925	45.91
332.138	-17.58
332.35	127.83
332.563	15.19
332.776	144.21
332.989	62.29
333.202	19.29
333.414	33.62
333.627	0.85
333.84	25.43
334.053	125.78
334.265	68.44
334.478	-15.53
334.691	45.91
334.903	35.67
335.116	90.96
335.329	37.72
335.541	84.82
335.754	123.73
335.966	74.58
336.179	99.16
336.392	70.48
336.604	-23.72
336.817	54.1
337.029	70.48
337.242	76.63
337.454	156.5
337.667	15.19
337.88	82.77
338.092	41.81
338.305	80.72
338.517	-3.24
338.729	93.01
338.942	185.17
339.154	-85.16
339.367	-40.11
339.579	119.64
339.792	-81.07
340.004	117.59
340.217	-33.96
340.429	31.57
340.641	-15.53
340.854	-21.67
341.066	4.95
341.278	90.96
341.491	62.29
341.703	11.09
341.915	23.38
342.128	90.96
342.34	-23.72
342.552	-109.74
342.764	15.19
342.977	45.91
343.189	64.34
343.401	-33.96
343.613	33.62
343.826	54.1
344.038	19.29
344.25	56.15
344.462	-17.58
344.674	11.09
344.886	-13.48
345.099	144.21
345.311	80.72
345.523	7
345.735	-109.74
345.947	105.3
346.159	21.33
346.371	41.81
346.583	29.52
346.795	193.36
347.007	-48.3
347.219	93.01
347.431	29.52
347.643	31.57
347.855	13.14
348.067	136.02
348.279	-56.49
348.491	0.85
348.703	95.06
348.915	68.44
349.127	25.43
349.339	9.05
349.551	23.38
349.763	80.72
349.975	-56.49
350.187	101.2
350.399	99.16
350.61	80.72
350.822	7
351.034	33.62
351.246	19.29
351.458	76.63
351.669	58.2
351.881	37.72
352.093	131.92
352.305	103.25
352.517	80.72
352.728	170.83
352.94	133.97
353.152	70.48
353.363	-23.72
353.575	9.05
353.787	162.64
353.999	101.2
354.21	230.23
354.422	21.33
354.633	-21.67
354.845	-17.58
355.057	35.67
355.268	2.9
355.48	148.31
355.692	-9.39
355.903	23.38
356.115	-40.11
356.326	-31.91
356.538	107.35
356.749	170.83
356.961	101.2
357.172	4.95
357.384	-11.43
357.595	172.88
357.807	-40.11
358.018	50
358.23	-79.02
358.441	144.21
358.653	88.92
358.864	-23.72
359.075	-1.19
359.287	41.81
359.498	117.59
359.709	43.86
359.921	41.81
360.132	27.48
360.344	97.11
360.555	-27.82
360.766	33.62
360.977	-9.39
361.189	99.16
361.4	33.62
361.611	97.11
361.823	140.12
362.034	97.11
362.245	15.19
362.456	31.57
362.667	88.92
362.879	-46.25
363.09	125.78
363.301	-7.34
363.512	74.58
363.723	-95.4
363.935	47.96
364.146	150.36
364.357	-3.24
364.568	11.09
364.779	-52.39
364.99	152.4
365.201	-5.29
365.412	133.97
365.623	-7.34
365.834	-15.53
366.045	95.06
366.256	146.26
366.467	103.25
366.678	68.44
366.889	-9.39
367.1	-11.43
367.311	103.25
367.522	39.76
367.733	37.72
367.944	-23.72
368.155	78.68
368.366	84.82
368.577	54.1
368.788	86.87
368.999	-11.43
369.209	64.34
369.42	226.13
369.631	232.27
369.842	45.91
370.053	115.54
370.264	60.24
370.474	39.76
370.685	25.43
370.896	39.76
371.107	142.16
371.317	76.63
371.528	-1.19
371.739	95.06
371.95	27.48
372.16	88.92
372.371	-23.72
372.582	29.52
372.792	103.25
373.003	43.86
373.214	17.24
373.424	33.62
373.635	-13.48
373.846	103.25
374.056	23.38
374.267	29.52
374.477	47.96
374.688	-89.26
374.898	43.86
375.109	101.2
375.319	58.2
375.53	82.77
375.74	58.2
375.951	103.25
376.161	70.48
376.372	103.25
376.582	-11.43
376.793	84.82
377.003	-40.11
377.214	37.72
377.424	41.81
377.635	60.24
377.845	-7.34
378.055	84.82
378.266	15.19
378.476	52.05
378.686	113.49
378.897	27.48
379.107	70.48
379.317	117.59
379.528	-1.19
379.738	74.58
379.948	-9.39
380.158	21.33
380.369	90.96
380.579	7
380.789	0.85
380.999	119.64
381.21	138.07
381.42	187.22
381.63	25.43
381.84	152.4
382.05	86.87
382.261	103.25
382.471	80.72
382.681	23.38
382.891	154.45
383.101	88.92
383.311	0.85
383.521	-15.53
383.731	113.49
383.941	58.2
384.151	27.48
384.361	45.91
384.571	11.09
384.781	54.1
384.991	162.64
385.201	140.12
385.411	76.63
385.621	27.48
385.831	39.76
386.041	56.15
386.251	111.44
386.461	144.21
386.671	-3.24
386.881	54.1
387.091	52.05
387.301	129.88
387.511	29.52
387.72	86.87
387.93	107.35
388.14	-85.16
388.35	68.44
388.56	125.78
388.769	50
388.979	56.15
389.189	-17.58
389.399	119.64
389.609	99.16
389.818	109.4
390.028	39.76
390.238	27.48
390.447	-29.87
390.657	99.16
390.867	4.95
391.076	-50.35
391.286	45.91
391.496	41.81
391.705	41.81
391.915	176.98
392.125	103.25
392.334	45.91
392.544	109.4
392.753	0.85
392.963	-29.87
393.172	-23.72
393.382	72.53
393.591	193.36
393.801	-13.48
394.01	131.92
394.22	117.59
394.429	21.33
394.639	80.72
394.848	37.72
395.058	68.44
395.267	86.87
395.477	86.87
395.686	25.43
395.895	217.94
396.105	162.64
396.314	93.01
396.524	78.68
396.733	43.86
396.942	144.21
397.152	50
397.361	211.79
397.57	93.01
397.78	17.24
397.989	60.24
398.198	195.41
398.407	52.05
398.617	111.44
398.826	172.88
399.035	-7.34
399.244	117.59
399.453	111.44
399.663	27.48
399.872	107.35
400.081	-64.68
400.29	142.16
400.499	-33.96
400.708	103.25
400.917	25.43
401.127	117.59
401.336	21.33
401.545	224.08
401.754	99.16
401.963	109.4
402.172	58.2
402.381	-64.68
402.59	-13.48
402.799	68.44
403.008	101.2
403.217	47.96
403.426	125.78
403.635	-62.63
403.844	47.96
404.053	4.95
404.262	-46.25
404.471	166.74
404.68	35.67
404.888	66.39
405.097	60.24
405.306	56.15
405.515	76.63
405.724	9.05
405.933	115.54
406.142	37.72
406.35	99.16
406.559	-7.34
406.768	58.2
406.977	97.11
407.185	107.35
407.394	133.97
407.603	-23.72
407.812	111.44
408.02	121.68
408.229	60.24
408.438	170.83
408.646	7
408.855	13.14
409.064	152.4
409.272	95.06
409.481	125.78
409.69	-21.67
409.898	-60.59
410.107	19.29
410.315	168.79
410.524	-3.24
410.733	131.92
410.941	-9.39
411.15	164.69
411.358	156.5
411.567	136.02
411.775	0.85
411.984	41.81
412.192	4.95
412.401	9.05
412.609	150.36
412.818	166.74
413.026	103.25
413.234	19.29
413.443	84.82
413.651	23.38
413.86	25.43
414.068	131.92
414.276	166.74
414.485	56.15
414.693	197.46
414.901	174.93
415.11	37.72
415.318	39.76
415.526	64.34
415.734	140.12
415.943	105.3
416.151	142.16
416.359	58.2
416.567	76.63
416.776	123.73
416.984	93.01
417.192	181.07
417.4	50
417.608	-15.53
417.817	2.9
418.025	138.07
418.233	213.84
418.441	-117.93
418.649	27.48
418.857	52.05
419.065	146.26
419.273	50
419.481	19.29
419.689	86.87
419.897	-68.78
420.105	-56.49
420.313	111.44
420.521	82.77
420.729	117.59
420.937	17.24
421.145	-27.82
421.353	140.12
421.561	172.88
421.769	31.57
421.977	101.2
422.185	76.63
422.393	15.19
422.601	78.68
422.809	13.14
423.017	90.96
423.224	74.58
423.432	117.59
423.64	41.81
423.848	156.5
424.056	21.33
424.263	45.91
424.471	21.33
424.679	154.45
424.887	27.48
425.094	136.02
425.302	146.26
425.51	47.96
425.718	150.36
425.925	154.45
426.133	-81.07
426.341	228.18
426.548	113.49
426.756	95.06
426.964	107.35
427.171	35.67
427.379	115.54
427.586	115.54
427.794	136.02
428.001	269.14
428.209	121.68
428.417	187.22
428.624	154.45
428.832	144.21
429.039	78.68
429.247	127.83
429.454	172.88
429.662	203.6
429.869	162.64
430.076	103.25
430.284	234.32
430.491	265.04
430.699	160.59
430.906	185.17
431.114	150.36
431.321	238.42
431.528	62.29
431.736	142.16
431.943	160.59
432.15	146.26
432.358	172.88
432.565	262.99
432.772	27.48
432.979	232.27
433.187	172.88
433.394	160.59
433.601	144.21
433.808	197.46
434.016	271.19
434.223	254.8
434.43	248.66
434.637	271.19
434.844	385.87
435.052	199.51
435.259	316.24
435.466	351.06
435.673	299.86
435.88	328.53
436.087	420.69
436.294	381.78
436.501	375.63
436.708	381.78
436.915	414.54
437.122	353.1
437.329	258.9
437.537	426.83
437.743	353.1
437.95	525.13
438.157	381.78
438.364	435.02
438.571	412.5
438.778	437.07
438.985	471.89
439.192	588.62
439.399	490.32
439.606	488.27
439.813	559.95
440.02	734.03
440.227	697.16
440.433	625.48
440.64	631.63
440.847	582.48
441.054	695.11
441.261	781.13
441.467	764.75
441.674	691.02
441.881	811.85
442.088	727.88
442.294	826.18
442.501	897.86
442.708	897.86
442.914	959.3
443.121	963.4
443.328	944.97
443.534	1043.27
443.741	1067.85
443.948	904.01
444.154	1168.2
444.361	1262.4
444.568	1186.63
444.774	1180.48
444.981	1184.58
445.187	1350.46
445.394	1387.33
445.6	1327.94
445.807	1497.92
446.013	1456.96
446.22	1407.81
446.426	1622.84
446.633	1735.48
446.839	2009.91
447.046	1616.7
447.252	1860.41
447.459	1870.65
447.665	1880.89
447.871	2054.97
448.078	2202.42
448.284	2175.8
448.491	2272.05
448.697	2403.12
448.903	2462.51
449.11	2573.1
449.316	2571.05
449.522	2675.5
449.728	2808.62
449.935	3134.25
450.141	2984.74
450.347	3203.88
450.553	3160.87
450.76	3162.92
450.966	3429.15
451.172	3400.48
451.378	3537.7
451.584	3654.43
451.791	3984.15
451.997	4104.98
452.203	4109.08
452.409	4416.27
452.615	4668.17
452.821	4369.17
453.027	4502.29
453.233	5217.03
453.44	4754.19
453.646	5055.24
453.852	5298.95
454.058	5618.43
454.264	5690.11
454.47	6226.68
454.676	6349.56
454.882	6572.79
455.088	6363.89
455.294	6787.82
455.5	7285.48
455.705	7604.96
455.911	7690.98
456.117	7863.01
456.323	8067.8
456.529	8135.39
456.735	9016.01
456.941	9183.95
457.147	9480.9
457.352	9677.51
457.558	9951.93
457.764	10638
457.97	10861.23
458.176	11420.33
458.381	11860.64
458.587	12061.34
458.793	12604.05
458.999	12683.92
459.204	14045.82
459.41	14750.32
459.616	14520.95
459.821	15336.04
460.027	16192.09
460.233	16673.37
460.438	16960.08
460.644	17932.87
460.85	18068.03
461.055	18563.64
461.261	19593.77
461.466	19137.07
461.672	19751.46
461.878	21991.94
462.083	21828.1
462.289	22243.84
462.494	23194.1
462.7	23038.45
462.905	23411.18
463.111	25303.51
463.316	26403.27
463.522	27304.37
463.727	27974.06
463.932	29243.8
464.138	30007.69
464.343	31263.1
464.549	31351.16
464.754	33380.7
464.959	34443.59
465.165	35090.75
465.37	34705.73
465.575	34945.34
465.781	37349.66
465.986	38174.99
466.191	37605.66
466.397	37966.1
466.602	37110.05
466.807	39303.42
467.012	40036.59
467.218	40720.62
467.423	41005.28
467.628	41820.38
467.833	43686.07
468.038	42969.29
468.244	42330.32
468.449	44658.86
468.654	43692.22
468.859	43620.54
469.064	43700.41
469.269	42438.86
