Data from USB4F104151__195__11-05-26-331.txt Node

Date: Wed Feb 26 11:05:26 EST 2025
User: louis
Spectrometer: USB4F10415
Trigger mode: 4
Integration Time (sec): 1.000000E-1
Scans to average: 1
Electric dark correction enabled: true
Nonlinearity correction enabled: false
Boxcar width: 0
XAxis mode: Wavelengths
Number of Pixels in Spectrum: 3648
>>>>>Begin Spectral Data<<<<<
178.204	-419.83
178.424	-419.83
178.644	-419.83
178.864	-442.36
179.084	-395.26
179.304	-57.34
179.524	-16.38
179.744	-8.19
179.964	-24.58
180.184	53.25
180.404	32.77
180.624	24.58
180.844	-24.58
181.064	-81.92
181.283	75.77
181.503	-32.77
181.723	59.39
181.943	-94.21
182.163	149.5
182.383	24.58
182.602	167.93
182.822	208.89
183.042	65.53
183.262	-22.53
183.482	-8.19
183.701	-16.38
183.921	16.38
184.141	-14.34
184.361	120.83
184.58	69.63
184.8	43.01
185.02	-16.38
185.239	104.45
185.459	77.82
185.679	137.21
185.898	-88.06
186.118	4.1
186.338	92.16
186.557	143.36
186.777	59.39
186.997	57.34
187.216	47.1
187.436	161.79
187.655	73.73
187.875	73.73
188.095	8.19
188.314	157.69
188.534	141.31
188.753	-30.72
188.973	149.5
189.192	180.22
189.412	-36.86
189.631	6.14
189.851	67.58
190.07	165.89
190.29	-55.3
190.509	75.77
190.729	57.34
190.948	129.02
191.168	264.19
191.387	90.11
191.607	-22.53
191.826	112.64
192.045	51.2
192.265	18.43
192.484	90.11
192.704	24.58
192.923	-77.82
193.142	202.75
193.362	63.49
193.581	188.41
193.8	16.38
194.02	69.63
194.239	16.38
194.458	108.54
194.678	-24.58
194.897	2.05
195.116	106.49
195.335	112.64
195.555	45.06
195.774	2.05
195.993	40.96
196.212	30.72
196.432	18.43
196.651	24.58
196.87	94.21
197.089	266.24
197.308	6.14
197.528	59.39
197.747	-86.01
197.966	110.59
198.185	212.99
198.404	-67.58
198.623	69.63
198.842	151.55
199.062	63.49
199.281	49.15
199.5	100.35
199.719	38.91
199.938	71.68
200.157	81.92
200.376	49.15
200.595	172.03
200.814	30.72
201.033	-57.34
201.252	202.75
201.471	55.3
201.69	112.64
201.909	53.25
202.128	157.69
202.347	137.21
202.566	79.87
202.785	-61.44
203.004	34.82
203.223	299
203.442	-10.24
203.661	2.05
203.879	69.63
204.098	149.5
204.317	-69.63
204.536	102.4
204.755	147.45
204.974	133.12
205.193	20.48
205.411	165.89
205.63	112.64
205.849	79.87
206.068	45.06
206.287	-45.06
206.505	151.55
206.724	-8.19
206.943	-32.77
207.162	77.82
207.381	176.13
207.599	71.68
207.818	-6.14
208.037	-22.53
208.255	-4.1
208.474	106.49
208.693	49.15
208.911	24.58
209.13	69.63
209.349	108.54
209.567	61.44
209.786	147.45
210.005	124.93
210.223	24.58
210.442	-61.44
210.661	18.43
210.879	90.11
211.098	155.65
211.316	90.11
211.535	118.78
211.753	6.14
211.972	43.01
212.191	10.24
212.409	65.53
212.628	79.87
212.846	-6.14
213.065	51.2
213.283	71.68
213.502	-18.43
213.72	90.11
213.938	102.4
214.157	6.14
214.375	135.17
214.594	4.1
214.812	94.21
215.031	36.86
215.249	53.25
215.467	81.92
215.686	32.77
215.904	47.1
216.122	141.31
216.341	161.79
216.559	96.25
216.778	116.73
216.996	139.26
217.214	75.77
217.432	-24.58
217.651	-12.29
217.869	28.67
218.087	30.72
218.306	38.91
218.524	22.53
218.742	40.96
218.96	67.58
219.179	-30.72
219.397	2.05
219.615	258.04
219.833	90.11
220.051	-40.96
220.27	110.59
220.488	116.73
220.706	71.68
220.924	-0
221.142	-20.48
221.36	22.53
221.578	137.21
221.796	6.14
222.015	114.69
222.233	143.36
222.451	210.94
222.669	79.87
222.887	118.78
223.105	26.62
223.323	88.06
223.541	16.38
223.759	22.53
223.977	49.15
224.195	131.07
224.413	172.03
224.631	63.49
224.849	100.35
225.067	243.71
225.285	-4.1
225.503	18.43
225.721	-45.06
225.939	51.2
226.157	114.69
226.375	202.75
226.592	32.77
226.81	38.91
227.028	92.16
227.246	135.17
227.464	110.59
227.682	51.2
227.9	112.64
228.117	-16.38
228.335	88.06
228.553	59.39
228.771	96.25
228.989	-8.19
229.206	100.35
229.424	100.35
229.642	4.1
229.86	-36.86
230.077	192.51
230.295	-4.1
230.513	104.45
230.731	63.49
230.948	182.27
231.166	129.02
231.384	88.06
231.601	-34.82
231.819	219.13
232.037	28.67
232.254	26.62
232.472	22.53
232.689	22.53
232.907	184.32
233.125	63.49
233.342	36.86
233.56	12.29
233.777	59.39
233.995	83.97
234.213	155.65
234.43	77.82
234.648	53.25
234.865	12.29
235.083	118.78
235.3	90.11
235.518	129.02
235.735	141.31
235.953	106.49
236.17	18.43
236.388	53.25
236.605	-6.14
236.822	167.93
237.04	110.59
237.257	12.29
237.475	22.53
237.692	45.06
237.909	118.78
238.127	4.1
238.344	135.17
238.562	-2.05
238.779	-36.86
238.996	53.25
239.214	16.38
239.431	102.4
239.648	47.1
239.865	122.88
240.083	118.78
240.3	63.49
240.517	47.1
240.735	20.48
240.952	143.36
241.169	108.54
241.386	92.16
241.603	63.49
241.821	-61.44
242.038	122.88
242.255	108.54
242.472	-92.16
242.689	57.34
242.907	73.73
243.124	61.44
243.341	63.49
243.558	14.34
243.775	-18.43
243.992	-16.38
244.209	94.21
244.426	135.17
244.643	49.15
244.86	47.1
245.078	53.25
245.295	59.39
245.512	94.21
245.729	2.05
245.946	2.05
246.163	-6.14
246.38	81.92
246.597	75.77
246.814	51.2
247.031	96.25
247.248	34.82
247.464	67.58
247.681	145.41
247.898	108.54
248.115	40.96
248.332	6.14
248.549	92.16
248.766	137.21
248.983	110.59
249.2	83.97
249.417	94.21
249.633	47.1
249.85	90.11
250.067	67.58
250.284	63.49
250.501	122.88
250.717	67.58
250.934	26.62
251.151	47.1
251.368	-34.82
251.585	59.39
251.801	-6.14
252.018	-43.01
252.235	67.58
252.451	-36.86
252.668	-45.06
252.885	176.13
253.102	36.86
253.318	14.34
253.535	65.53
253.752	59.39
253.968	47.1
254.185	-38.91
254.401	73.73
254.618	47.1
254.835	-36.86
255.051	165.89
255.268	96.25
255.484	51.2
255.701	26.62
255.917	100.35
256.134	-6.14
256.351	8.19
256.567	-24.58
256.784	55.3
257	-94.21
257.217	65.53
257.433	98.3
257.65	53.25
257.866	182.27
258.082	-73.73
258.299	4.1
258.515	-36.86
258.732	67.58
258.948	-2.05
259.165	57.34
259.381	-47.1
259.597	49.15
259.814	-8.19
260.03	-61.44
260.246	38.91
260.463	131.07
260.679	188.41
260.895	59.39
261.112	96.25
261.328	-34.82
261.544	81.92
261.761	155.65
261.977	67.58
262.193	16.38
262.409	79.87
262.626	71.68
262.842	94.21
263.058	47.1
263.274	47.1
263.49	-18.43
263.707	86.01
263.923	118.78
264.139	-69.63
264.355	18.43
264.571	186.37
264.787	4.1
265.004	131.07
265.22	26.62
265.436	-8.19
265.652	40.96
265.868	71.68
266.084	-61.44
266.3	61.44
266.516	53.25
266.732	90.11
266.948	18.43
267.164	-14.34
267.38	77.82
267.596	55.3
267.812	124.93
268.028	49.15
268.244	-2.05
268.46	94.21
268.676	61.44
268.892	104.45
269.108	-16.38
269.324	-30.72
269.54	-81.92
269.756	81.92
269.972	-57.34
270.188	10.24
270.403	-2.05
270.619	-14.34
270.835	124.93
271.051	49.15
271.267	26.62
271.483	-28.67
271.698	114.69
271.914	77.82
272.13	55.3
272.346	-51.2
272.562	40.96
272.777	106.49
272.993	40.96
273.209	38.91
273.425	67.58
273.64	6.14
273.856	145.41
274.072	-40.96
274.287	8.19
274.503	122.88
274.719	81.92
274.934	65.53
275.15	-20.48
275.366	98.3
275.581	10.24
275.797	71.68
276.012	34.82
276.228	12.29
276.444	38.91
276.659	73.73
276.875	-28.67
277.09	75.77
277.306	34.82
277.521	88.06
277.737	-14.34
277.952	22.53
278.168	16.38
278.383	59.39
278.599	69.63
278.814	180.22
279.03	26.62
279.245	167.93
279.461	-10.24
279.676	73.73
279.892	-55.3
280.107	-22.53
280.322	-16.38
280.538	94.21
280.753	-40.96
280.969	45.06
281.184	90.11
281.399	161.79
281.615	67.58
281.83	143.36
282.045	-22.53
282.26	69.63
282.476	38.91
282.691	112.64
282.906	51.2
283.122	59.39
283.337	-49.15
283.552	86.01
283.767	79.87
283.983	94.21
284.198	88.06
284.413	51.2
284.628	-49.15
284.843	55.3
285.058	143.36
285.274	28.67
285.489	-26.62
285.704	143.36
285.919	-32.77
286.134	49.15
286.349	32.77
286.564	55.3
286.779	141.31
286.995	38.91
287.21	-100.35
287.425	149.5
287.64	28.67
287.855	86.01
288.07	-88.06
288.285	163.84
288.5	86.01
288.715	57.34
288.93	43.01
289.145	30.72
289.36	163.84
289.575	-57.34
289.79	126.97
290.004	55.3
290.219	94.21
290.434	137.21
290.649	-36.86
290.864	45.06
291.079	32.77
291.294	57.34
291.509	149.5
291.724	-14.34
291.938	65.53
292.153	47.1
292.368	24.58
292.583	36.86
292.798	49.15
293.012	59.39
293.227	81.92
293.442	2.05
293.657	104.45
293.871	79.87
294.086	124.93
294.301	163.84
294.516	159.74
294.73	98.3
294.945	-79.87
295.16	-88.06
295.374	79.87
295.589	65.53
295.804	61.44
296.018	53.25
296.233	149.5
296.447	100.35
296.662	-8.19
296.877	38.91
297.091	116.73
297.306	16.38
297.52	-71.68
297.735	126.97
297.949	67.58
298.164	47.1
298.378	133.12
298.593	24.58
298.807	-24.58
299.022	32.77
299.236	159.74
299.451	-30.72
299.665	16.38
299.88	69.63
300.094	63.49
300.309	6.14
300.523	120.83
300.737	30.72
300.952	102.4
301.166	151.55
301.381	32.77
301.595	-32.77
301.809	4.1
302.024	26.62
302.238	-4.1
302.452	75.77
302.667	69.63
302.881	122.88
303.095	131.07
303.309	63.49
303.524	55.3
303.738	12.29
303.952	-36.86
304.166	57.34
304.381	-16.38
304.595	157.69
304.809	45.06
305.023	-69.63
305.237	28.67
305.452	67.58
305.666	106.49
305.88	145.41
306.094	110.59
306.308	65.53
306.522	141.31
306.736	73.73
306.95	135.17
307.164	30.72
307.379	83.97
307.593	159.74
307.807	104.45
308.021	120.83
308.235	88.06
308.449	-69.63
308.663	-0
308.877	182.27
309.091	75.77
309.305	106.49
309.519	-71.68
309.733	106.49
309.947	-110.59
310.161	90.11
310.374	77.82
310.588	116.73
310.802	-36.86
311.016	22.53
311.23	75.77
311.444	20.48
311.658	16.38
311.872	79.87
312.085	143.36
312.299	81.92
312.513	180.22
312.727	71.68
312.941	10.24
313.154	38.91
313.368	40.96
313.582	24.58
313.796	14.34
314.009	77.82
314.223	116.73
314.437	83.97
314.651	143.36
314.864	-40.96
315.078	26.62
315.292	4.1
315.505	-32.77
315.719	100.35
315.933	-55.3
316.146	40.96
316.36	26.62
316.573	110.59
316.787	47.1
317.001	75.77
317.214	-45.06
317.428	36.86
317.641	-28.67
317.855	30.72
318.068	38.91
318.282	83.97
318.495	233.47
318.709	153.6
318.922	55.3
319.136	24.58
319.349	104.45
319.563	79.87
319.776	135.17
319.99	-0
320.203	73.73
320.417	2.05
320.63	110.59
320.843	151.55
321.057	98.3
321.27	73.73
321.483	114.69
321.697	184.32
321.91	24.58
322.124	67.58
322.337	147.45
322.55	-2.05
322.763	81.92
322.977	71.68
323.19	18.43
323.403	32.77
323.617	110.59
323.83	139.26
324.043	30.72
324.256	116.73
324.469	-22.53
324.683	104.45
324.896	4.1
325.109	18.43
325.322	-10.24
325.535	77.82
325.748	155.65
325.962	6.14
326.175	51.2
326.388	129.02
326.601	204.8
326.814	-0
327.027	24.58
327.24	141.31
327.453	-43.01
327.666	55.3
327.879	149.5
328.092	92.16
328.305	2.05
328.518	49.15
328.731	-12.29
328.944	40.96
329.157	129.02
329.37	20.48
329.583	223.23
329.796	120.83
330.009	-57.34
330.222	65.53
330.435	18.43
330.648	133.12
330.861	26.62
331.073	65.53
331.286	112.64
331.499	16.38
331.712	14.34
331.925	47.1
332.138	49.15
332.35	143.36
332.563	12.29
332.776	184.32
332.989	-36.86
333.202	-10.24
333.414	6.14
333.627	90.11
333.84	22.53
334.053	63.49
334.265	-0
334.478	16.38
334.691	-34.82
334.903	32.77
335.116	28.67
335.329	36.86
335.541	100.35
335.754	215.04
335.966	-34.82
336.179	141.31
336.392	-6.14
336.604	22.53
336.817	118.78
337.029	90.11
337.242	153.6
337.454	98.3
337.667	75.77
337.88	200.7
338.092	38.91
338.305	47.1
338.517	45.06
338.729	90.11
338.942	153.6
339.154	-86.01
339.367	-4.1
339.579	135.17
339.792	-8.19
340.004	159.74
340.217	75.77
340.429	61.44
340.641	-6.14
340.854	-47.1
341.066	75.77
341.278	106.49
341.491	114.69
341.703	71.68
341.915	-45.06
342.128	71.68
342.34	96.25
342.552	8.19
342.764	26.62
342.977	98.3
343.189	24.58
343.401	131.07
343.613	-14.34
343.826	75.77
344.038	-63.49
344.25	75.77
344.462	47.1
344.674	-0
344.886	24.58
345.099	73.73
345.311	79.87
345.523	26.62
345.735	-18.43
345.947	57.34
346.159	96.25
346.371	20.48
346.583	-28.67
346.795	112.64
347.007	16.38
347.219	94.21
347.431	75.77
347.643	180.22
347.855	-88.06
348.067	131.07
348.279	-14.34
348.491	98.3
348.703	77.82
348.915	45.06
349.127	-73.73
349.339	77.82
349.551	30.72
349.763	108.54
349.975	45.06
350.187	151.55
350.399	151.55
350.61	104.45
350.822	49.15
351.034	32.77
351.246	4.1
351.458	49.15
351.669	100.35
351.881	118.78
352.093	182.27
352.305	153.6
352.517	69.63
352.728	98.3
352.94	94.21
353.152	118.78
353.363	61.44
353.575	81.92
353.787	200.7
353.999	102.4
354.21	206.84
354.422	-2.05
354.633	55.3
354.845	47.1
355.057	77.82
355.268	43.01
355.48	124.93
355.692	-40.96
355.903	77.82
356.115	67.58
356.326	-59.39
356.538	186.37
356.749	122.88
356.961	194.56
357.172	36.86
357.384	-32.77
357.595	182.27
357.807	-22.53
358.018	73.73
358.23	94.21
358.441	131.07
358.653	24.58
358.864	102.4
359.075	98.3
359.287	81.92
359.498	65.53
359.709	86.01
359.921	63.49
360.132	-2.05
360.344	16.38
360.555	61.44
360.766	79.87
360.977	-2.05
361.189	104.45
361.4	45.06
361.611	126.97
361.823	49.15
362.034	98.3
362.245	-86.01
362.456	79.87
362.667	69.63
362.879	43.01
363.09	55.3
363.301	63.49
363.512	161.79
363.723	-79.87
363.935	2.05
364.146	122.88
364.357	106.49
364.568	16.38
364.779	-81.92
364.99	221.18
365.201	36.86
365.412	196.6
365.623	-14.34
365.834	57.34
366.045	16.38
366.256	38.91
366.467	141.31
366.678	43.01
366.889	16.38
367.1	-40.96
367.311	77.82
367.522	106.49
367.733	90.11
367.944	102.4
368.155	53.25
368.366	38.91
368.577	100.35
368.788	83.97
368.999	-30.72
369.209	75.77
369.42	184.32
369.631	251.9
369.842	90.11
370.053	20.48
370.264	184.32
370.474	-40.96
370.685	77.82
370.896	26.62
371.107	122.88
371.317	83.97
371.528	32.77
371.739	198.65
371.95	108.54
372.16	81.92
372.371	-49.15
372.582	-4.1
372.792	38.91
373.003	139.26
373.214	131.07
373.424	61.44
373.635	-2.05
373.846	186.37
374.056	30.72
374.267	6.14
374.477	40.96
374.688	47.1
374.898	129.02
375.109	118.78
375.319	100.35
375.53	133.12
375.74	100.35
375.951	30.72
376.161	94.21
376.372	143.36
376.582	-2.05
376.793	79.87
377.003	8.19
377.214	-30.72
377.424	47.1
377.635	26.62
377.845	32.77
378.055	120.83
378.266	-47.1
378.476	38.91
378.686	100.35
378.897	40.96
379.107	167.93
379.317	104.45
379.528	47.1
379.738	124.93
379.948	-32.77
380.158	77.82
380.369	79.87
380.579	129.02
380.789	18.43
380.999	90.11
381.21	114.69
381.42	196.6
381.63	-2.05
381.84	83.97
382.05	94.21
382.261	129.02
382.471	133.12
382.681	-0
382.891	176.13
383.101	83.97
383.311	16.38
383.521	22.53
383.731	71.68
383.941	122.88
384.151	69.63
384.361	12.29
384.571	114.69
384.781	34.82
384.991	192.51
385.201	202.75
385.411	108.54
385.621	69.63
385.831	90.11
386.041	-10.24
386.251	47.1
386.461	174.08
386.671	22.53
386.881	88.06
387.091	6.14
387.301	141.31
387.511	63.49
387.72	61.44
387.93	57.34
388.14	-86.01
388.35	-14.34
388.56	83.97
388.769	110.59
388.979	81.92
389.189	-53.25
389.399	51.2
389.609	45.06
389.818	126.97
390.028	122.88
390.238	143.36
390.447	14.34
390.657	79.87
390.867	20.48
391.076	-16.38
391.286	-38.91
391.496	10.24
391.705	16.38
391.915	174.08
392.125	118.78
392.334	-28.67
392.544	190.46
392.753	30.72
392.963	-14.34
393.172	92.16
393.382	-22.53
393.591	161.79
393.801	28.67
394.01	120.83
394.22	135.17
394.429	12.29
394.639	6.14
394.848	4.1
395.058	14.34
395.267	32.77
395.477	102.4
395.686	69.63
395.895	198.65
396.105	208.89
396.314	53.25
396.524	43.01
396.733	32.77
396.942	112.64
397.152	57.34
397.361	176.13
397.57	63.49
397.78	59.39
397.989	114.69
398.198	161.79
398.407	63.49
398.617	61.44
398.826	40.96
399.035	22.53
399.244	106.49
399.453	90.11
399.663	61.44
399.872	69.63
400.081	-73.73
400.29	153.6
400.499	-18.43
400.708	151.55
400.917	22.53
401.127	63.49
401.336	-6.14
401.545	206.84
401.754	178.17
401.963	73.73
402.172	90.11
402.381	-28.67
402.59	73.73
402.799	34.82
403.008	65.53
403.217	45.06
403.426	57.34
403.635	12.29
403.844	22.53
404.053	-26.62
404.262	-65.54
404.471	124.93
404.68	59.39
404.888	94.21
405.097	79.87
405.306	8.19
405.515	124.93
405.724	51.2
405.933	149.5
406.142	73.73
406.35	217.08
406.559	79.87
406.768	36.86
406.977	219.13
407.185	143.36
407.394	65.53
407.603	-6.14
407.812	69.63
408.02	190.46
408.229	47.1
408.438	90.11
408.646	-40.96
408.855	67.58
409.064	118.78
409.272	43.01
409.481	147.45
409.69	30.72
409.898	55.3
410.107	77.82
410.315	161.79
410.524	30.72
410.733	90.11
410.941	-22.53
411.15	131.07
411.358	69.63
411.567	176.13
411.775	104.45
411.984	18.43
412.192	63.49
412.401	59.39
412.609	233.47
412.818	194.56
413.026	75.77
413.234	55.3
413.443	14.34
413.651	-16.38
413.86	2.05
414.068	133.12
414.276	172.03
414.485	63.49
414.693	161.79
414.901	129.02
415.11	118.78
415.318	43.01
415.526	22.53
415.734	120.83
415.943	75.77
416.151	163.84
416.359	40.96
416.567	102.4
416.776	61.44
416.984	126.97
417.192	108.54
417.4	38.91
417.608	40.96
417.817	12.29
418.025	167.93
418.233	184.32
418.441	-24.58
418.649	-8.19
418.857	143.36
419.065	223.23
419.273	61.44
419.481	26.62
419.689	94.21
419.897	94.21
420.105	-43.01
420.313	151.55
420.521	143.36
420.729	133.12
420.937	2.05
421.145	-10.24
421.353	88.06
421.561	206.84
421.769	53.25
421.977	79.87
422.185	151.55
422.393	102.4
422.601	118.78
422.809	98.3
423.017	34.82
423.224	114.69
423.432	188.41
423.64	51.2
423.848	135.17
424.056	8.19
424.263	88.06
424.471	16.38
424.679	147.45
424.887	2.05
425.094	204.8
425.302	40.96
425.51	86.01
425.718	221.18
425.925	16.38
426.133	86.01
426.341	233.47
426.548	94.21
426.756	90.11
426.964	155.65
427.171	-20.48
427.379	196.6
427.586	88.06
427.794	104.45
428.001	141.31
428.209	79.87
428.417	270.33
428.624	174.08
428.832	147.45
429.039	167.93
429.247	135.17
429.454	40.96
429.662	245.76
429.869	231.42
430.076	126.97
430.284	153.6
430.491	194.56
430.699	131.07
430.906	212.99
431.114	206.84
431.321	83.97
431.528	198.65
431.736	153.6
431.943	188.41
432.15	206.84
432.358	241.66
432.565	303.1
432.772	40.96
432.979	223.23
433.187	178.17
433.394	253.95
433.601	204.8
433.808	243.71
434.016	227.32
434.223	286.72
434.43	280.57
434.637	253.95
434.844	317.44
435.052	233.47
435.259	292.86
435.466	286.72
435.673	212.99
435.88	282.62
436.087	290.81
436.294	516.09
436.501	335.87
436.708	358.39
436.915	301.05
437.122	466.94
437.329	294.91
437.537	346.11
437.743	466.94
437.95	413.69
438.157	378.87
438.364	344.06
438.571	411.64
438.778	520.18
438.985	505.85
439.192	516.09
439.399	509.94
439.606	528.38
439.813	538.62
440.02	628.73
440.227	696.31
440.433	620.53
440.64	587.77
440.847	575.48
441.054	681.97
441.261	819.19
441.467	630.77
441.674	679.93
441.881	770.04
442.088	763.89
442.294	864.24
442.501	886.77
442.708	872.43
442.914	968.69
443.121	1023.98
443.328	1028.08
443.534	1019.89
443.741	1011.7
443.948	983.02
444.154	1081.33
444.361	1380.33
444.568	1200.11
444.774	1189.87
444.981	1134.57
445.187	1413.1
445.394	1292.27
445.6	1314.8
445.807	1548.26
446.013	1478.63
446.22	1359.85
446.426	1613.8
446.633	1695.72
446.839	1820.64
447.046	1720.29
447.252	1810.4
447.459	1787.88
447.665	1779.68
447.871	2136.03
448.078	2172.89
448.284	2093.02
448.491	2168.8
448.697	2367.45
448.903	2422.75
449.11	2349.02
449.316	2478.04
449.522	2750.42
449.728	2742.23
449.935	2963.41
450.141	2867.16
450.347	3172.3
450.553	3047.38
450.76	3145.68
450.966	3391.44
451.172	3514.31
451.378	3549.13
451.584	3553.23
451.791	3833.8
451.997	3968.96
452.203	4132.8
452.409	4267.97
452.615	4495.29
452.821	4323.26
453.027	4325.31
453.233	4974.52
453.44	4818.87
453.646	5109.68
453.852	5259.18
454.058	5474.22
454.264	5535.66
454.47	5957.54
454.676	5871.53
454.882	6397.85
455.088	6365.09
455.294	6680.47
455.5	7063.44
455.705	7378.83
455.911	7417.74
456.117	7735.18
456.323	7937.93
456.529	7933.83
456.735	8554.37
456.941	8896.38
457.147	9092.98
457.352	9453.42
457.558	9633.65
457.764	10186.6
457.97	10415.97
458.176	10973.02
458.381	11341.65
458.587	11638.61
458.793	12216.13
458.999	12214.09
459.204	13698.86
459.41	14278.44
459.616	14161.7
459.821	14685.98
460.027	15437.59
460.233	16299.78
460.438	16195.34
460.644	17307.38
460.85	17379.06
461.055	18171.63
461.261	18945.76
461.466	18704.1
461.672	19115.74
461.878	21468.86
462.083	20760.26
462.289	21356.22
462.494	22392.49
462.7	22337.2
462.905	22744.74
463.111	24778.37
463.316	25534.07
463.522	26361.45
463.727	27139.68
463.932	28130.9
464.138	29120.07
464.343	30283.31
464.549	30197.3
464.754	32622.09
464.959	33082.89
465.165	33719.81
465.37	33543.68
465.575	33594.88
465.781	35833.31
465.986	36855.25
466.191	36232.66
466.397	36701.65
466.602	35730.91
466.807	37848.51
467.012	38501.81
467.218	39009.71
467.423	39110.06
467.628	40316.31
467.833	42179.96
468.038	41702.79
468.244	40263.07
468.449	42599.8
