Data from USB4F104151__288__11-21-05-429.txt Node

Date: Wed Feb 26 11:21:05 EST 2025
User: louis
Spectrometer: USB4F10415
Trigger mode: 4
Integration Time (sec): 1.000000E-1
Scans to average: 1
Electric dark correction enabled: true
Nonlinearity correction enabled: false
Boxcar width: 0
XAxis mode: Wavelengths
Number of Pixels in Spectrum: 3648
>>>>>Begin Spectral Data<<<<<
178.204	-378.53
178.424	-378.53
178.644	-378.53
178.864	-452.26
179.084	-403.11
179.304	-18.09
179.524	-28.33
179.744	33.11
179.964	69.97
180.184	8.53
180.404	33.11
180.624	-67.24
180.844	-67.24
181.064	-1.71
181.283	45.4
181.503	-3.75
181.723	-3.75
181.943	-104.11
182.163	168.27
182.383	16.73
182.602	78.16
182.822	151.89
183.042	80.21
183.262	-48.81
183.482	-18.09
183.701	-22.19
183.921	59.73
184.141	-54.95
184.361	53.59
184.58	57.68
184.8	65.88
185.02	-71.34
185.239	69.97
185.459	98.64
185.679	98.64
185.898	-59.05
186.118	8.53
186.338	8.53
186.557	53.59
186.777	-67.24
186.997	-52.91
187.216	24.92
187.436	207.19
187.655	98.64
187.875	47.44
188.095	10.58
188.314	108.88
188.534	74.07
188.753	-59.05
188.973	153.94
189.192	211.28
189.412	82.26
189.631	67.92
189.851	57.68
190.07	203.09
190.29	-79.53
190.509	-36.52
190.729	2.39
190.948	178.51
191.168	155.99
191.387	84.31
191.607	14.68
191.826	53.59
192.045	20.82
192.265	43.35
192.484	6.49
192.704	47.44
192.923	-28.33
193.142	209.23
193.362	49.49
193.581	102.74
193.8	22.87
194.02	67.92
194.239	69.97
194.458	69.97
194.678	39.25
194.897	-22.19
195.116	6.49
195.335	76.12
195.555	31.06
195.774	65.88
195.993	94.55
196.212	39.25
196.432	-11.95
196.651	14.68
196.87	16.73
197.089	194.9
197.308	14.68
197.528	4.44
197.747	-40.62
197.966	41.3
198.185	92.5
198.404	10.58
198.623	137.56
198.842	96.6
199.062	131.41
199.281	135.51
199.5	-1.71
199.719	16.73
199.938	82.26
200.157	63.83
200.376	45.4
200.595	104.79
200.814	92.5
201.033	-3.75
201.252	246.1
201.471	72.02
201.69	63.83
201.909	-1.71
202.128	188.75
202.347	127.32
202.566	26.96
202.785	-89.77
203.004	-61.1
203.223	205.14
203.442	14.68
203.661	16.73
203.879	53.59
204.098	104.79
204.317	43.35
204.536	84.31
204.755	26.96
204.974	78.16
205.193	26.96
205.411	135.51
205.63	108.88
205.849	51.54
206.068	33.11
206.287	-83.63
206.505	135.51
206.724	-22.19
206.943	-7.85
207.162	-75.43
207.381	145.75
207.599	115.03
207.818	29.01
208.037	-20.14
208.255	6.49
208.474	108.88
208.693	0.34
208.911	-32.43
209.13	45.4
209.349	41.3
209.567	39.25
209.786	84.31
210.005	121.17
210.223	65.88
210.442	-132.78
210.661	-54.95
210.879	67.92
211.098	39.25
211.316	-20.14
211.535	72.02
211.753	-59.05
211.972	96.6
212.191	14.68
212.409	55.64
212.628	115.03
212.846	-9.9
213.065	72.02
213.283	98.64
213.502	6.49
213.72	69.97
213.938	-42.67
214.157	72.02
214.375	84.31
214.594	-34.47
214.812	41.3
215.031	-13.99
215.249	59.73
215.467	53.59
215.686	59.73
215.904	74.07
216.122	39.25
216.341	168.27
216.559	108.88
216.778	141.65
216.996	125.27
217.214	2.39
217.432	-34.47
217.651	-59.05
217.869	41.3
218.087	24.92
218.306	51.54
218.524	6.49
218.742	18.77
218.96	121.17
219.179	-30.38
219.397	-110.25
219.615	162.13
219.833	143.7
220.051	-83.63
220.27	59.73
220.488	164.18
220.706	53.59
220.924	-28.33
221.142	22.87
221.36	67.92
221.578	53.59
221.796	55.64
222.015	-7.85
222.233	14.68
222.451	178.51
222.669	-77.48
222.887	117.08
223.105	-46.76
223.323	-48.81
223.541	65.88
223.759	63.83
223.977	-38.57
224.195	80.21
224.413	63.83
224.631	43.35
224.849	69.97
225.067	201.04
225.285	12.63
225.503	-1.71
225.721	-175.78
225.939	14.68
226.157	26.96
226.375	198.99
226.592	39.25
226.81	29.01
227.028	127.32
227.246	143.7
227.464	41.3
227.682	51.54
227.9	129.36
228.117	80.21
228.335	8.53
228.553	-3.75
228.771	49.49
228.989	12.63
229.206	82.26
229.424	31.06
229.642	29.01
229.86	37.2
230.077	35.16
230.295	-3.75
230.513	155.99
230.731	61.78
230.948	127.32
231.166	205.14
231.384	-11.95
231.601	-85.67
231.819	184.66
232.037	29.01
232.254	-30.38
232.472	-13.99
232.689	-42.67
232.907	115.03
233.125	-13.99
233.342	-5.8
233.56	-104.11
233.777	-7.85
233.995	121.17
234.213	112.98
234.43	100.69
234.648	-42.67
234.865	33.11
235.083	115.03
235.3	18.77
235.518	55.64
235.735	164.18
235.953	129.36
236.17	98.64
236.388	14.68
236.605	98.64
236.822	82.26
237.04	100.69
237.257	20.82
237.475	-13.99
237.692	74.07
237.909	53.59
238.127	-61.1
238.344	53.59
238.562	106.84
238.779	-108.2
238.996	39.25
239.214	-48.81
239.431	110.93
239.648	-22.19
239.865	86.36
240.083	59.73
240.3	-85.67
240.517	-36.52
240.735	41.3
240.952	145.75
241.169	-28.33
241.386	14.68
241.603	-57
241.821	-63.15
242.038	72.02
242.255	119.12
242.472	-69.29
242.689	76.12
242.907	129.36
243.124	6.49
243.341	18.77
243.558	-24.23
243.775	-40.62
243.992	-69.29
244.209	53.59
244.426	115.03
244.643	74.07
244.86	61.78
245.078	4.44
245.295	-30.38
245.512	16.73
245.729	43.35
245.946	74.07
246.163	108.88
246.38	14.68
246.597	10.58
246.814	26.96
247.031	14.68
247.248	33.11
247.464	131.41
247.681	104.79
247.898	20.82
248.115	20.82
248.332	-46.76
248.549	137.56
248.766	131.41
248.983	80.21
249.2	8.53
249.417	104.79
249.633	8.53
249.85	72.02
250.067	51.54
250.284	61.78
250.501	43.35
250.717	119.12
250.934	-93.87
251.151	35.16
251.368	94.55
251.585	10.58
251.801	57.68
252.018	-18.09
252.235	100.69
252.451	-83.63
252.668	-61.1
252.885	178.51
253.102	26.96
253.318	-1.71
253.535	-34.47
253.752	-93.87
253.968	37.2
254.185	-126.63
254.401	55.64
254.618	43.35
254.835	16.73
255.051	104.79
255.268	65.88
255.484	112.98
255.701	121.17
255.917	20.82
256.134	-1.71
256.351	-26.28
256.567	-36.52
256.784	59.73
257	-91.82
257.217	158.03
257.433	84.31
257.65	37.2
257.866	117.08
258.082	-69.29
258.299	-24.23
258.515	106.84
258.732	84.31
258.948	135.51
259.165	47.44
259.381	-7.85
259.597	63.83
259.814	37.2
260.03	33.11
260.246	6.49
260.463	147.8
260.679	110.93
260.895	80.21
261.112	102.74
261.328	16.73
261.544	0.34
261.761	176.47
261.977	-18.09
262.193	8.53
262.409	104.79
262.626	100.69
262.842	78.16
263.058	41.3
263.274	86.36
263.49	-18.09
263.707	53.59
263.923	137.56
264.139	-130.73
264.355	94.55
264.571	147.8
264.787	65.88
265.004	98.64
265.22	78.16
265.436	-52.91
265.652	35.16
265.868	10.58
266.084	-11.95
266.3	45.4
266.516	-22.19
266.732	22.87
266.948	0.34
267.164	-50.86
267.38	158.03
267.596	6.49
267.812	123.22
268.028	110.93
268.244	-3.75
268.46	145.75
268.676	-3.75
268.892	92.5
269.108	-13.99
269.324	-20.14
269.54	18.77
269.756	94.55
269.972	-40.62
270.188	37.2
270.403	-116.39
270.619	53.59
270.835	57.68
271.051	96.6
271.267	-65.19
271.483	-3.75
271.698	92.5
271.914	153.94
272.13	69.97
272.346	-30.38
272.562	37.2
272.777	49.49
272.993	10.58
273.209	12.63
273.425	51.54
273.64	-69.29
273.856	47.44
274.072	0.34
274.287	49.49
274.503	129.36
274.719	78.16
274.934	-3.75
275.15	-122.54
275.366	117.08
275.581	-52.91
275.797	20.82
276.012	102.74
276.228	-24.23
276.444	35.16
276.659	121.17
276.875	-22.19
277.09	20.82
277.306	4.44
277.521	43.35
277.737	53.59
277.952	98.64
278.168	57.68
278.383	-5.8
278.599	4.44
278.814	22.87
279.03	-5.8
279.245	94.55
279.461	92.5
279.676	121.17
279.892	-89.77
280.107	-91.82
280.322	-22.19
280.538	4.44
280.753	-46.76
280.969	12.63
281.184	-5.8
281.399	90.45
281.615	47.44
281.83	80.21
282.045	-63.15
282.26	-46.76
282.476	59.73
282.691	141.65
282.906	65.88
283.122	29.01
283.337	55.64
283.552	78.16
283.767	-9.9
283.983	172.37
284.198	-30.38
284.413	45.4
284.628	-42.67
284.843	20.82
285.058	-3.75
285.274	8.53
285.489	-7.85
285.704	131.41
285.919	14.68
286.134	-22.19
286.349	129.36
286.564	-1.71
286.779	147.8
286.995	47.44
287.21	-44.71
287.425	135.51
287.64	-67.24
287.855	82.26
288.07	10.58
288.285	72.02
288.5	164.18
288.715	112.98
288.93	65.88
289.145	6.49
289.36	65.88
289.575	80.21
289.79	45.4
290.004	-50.86
290.219	139.6
290.434	12.63
290.649	-34.47
290.864	-87.72
291.079	41.3
291.294	-9.9
291.509	39.25
291.724	2.39
291.938	0.34
292.153	10.58
292.368	-18.09
292.583	-7.85
292.798	84.31
293.012	33.11
293.227	59.73
293.442	-22.19
293.657	67.92
293.871	170.32
294.086	100.69
294.301	196.95
294.516	143.7
294.73	-13.99
294.945	-20.14
295.16	31.06
295.374	31.06
295.589	164.18
295.804	26.96
296.018	72.02
296.233	84.31
296.447	121.17
296.662	-1.71
296.877	170.32
297.091	119.12
297.306	35.16
297.52	22.87
297.735	59.73
297.949	100.69
298.164	94.55
298.378	96.6
298.593	59.73
298.807	-65.19
299.022	45.4
299.236	110.93
299.451	24.92
299.665	24.92
299.88	41.3
300.094	90.45
300.309	-30.38
300.523	22.87
300.737	-57
300.952	139.6
301.166	49.49
301.381	-46.76
301.595	-48.81
301.809	53.59
302.024	69.97
302.238	-38.57
302.452	151.89
302.667	18.77
302.881	170.32
303.095	162.13
303.309	82.26
303.524	-124.58
303.738	39.25
303.952	10.58
304.166	90.45
304.381	-71.34
304.595	119.12
304.809	-97.96
305.023	57.68
305.237	12.63
305.452	-7.85
305.666	78.16
305.88	59.73
306.094	108.88
306.308	31.06
306.522	41.3
306.736	35.16
306.95	102.74
307.164	-11.95
307.379	-11.95
307.593	141.65
307.807	149.84
308.021	76.12
308.235	22.87
308.449	-71.34
308.663	22.87
308.877	239.95
309.091	31.06
309.305	78.16
309.519	-42.67
309.733	112.98
309.947	-46.76
310.161	108.88
310.374	129.36
310.588	158.03
310.802	0.34
311.016	-11.95
311.23	59.73
311.444	-3.75
311.658	-1.71
311.872	121.17
312.085	198.99
312.299	110.93
312.513	84.31
312.727	-7.85
312.941	-48.81
313.154	86.36
313.368	-48.81
313.582	12.63
313.796	98.64
314.009	94.55
314.223	133.46
314.437	51.54
314.651	61.78
314.864	-36.52
315.078	4.44
315.292	-54.95
315.505	35.16
315.719	-34.47
315.933	8.53
316.146	55.64
316.36	-30.38
316.573	127.32
316.787	47.44
317.001	129.36
317.214	37.2
317.428	59.73
317.641	-28.33
317.855	51.54
318.068	18.77
318.282	6.49
318.495	121.17
318.709	78.16
318.922	49.49
319.136	182.61
319.349	129.36
319.563	20.82
319.776	12.63
319.99	-26.28
320.203	135.51
320.417	-52.91
320.63	92.5
320.843	192.85
321.057	74.07
321.27	29.01
321.483	90.45
321.697	98.64
321.91	39.25
322.124	35.16
322.337	47.44
322.55	-32.43
322.763	37.2
322.977	-24.23
323.19	-16.04
323.403	65.88
323.617	18.77
323.83	108.88
324.043	47.44
324.256	-7.85
324.469	-69.29
324.683	151.89
324.896	26.96
325.109	133.46
325.322	-87.72
325.535	86.36
325.748	104.79
325.962	12.63
326.175	96.6
326.388	112.98
326.601	117.08
326.814	31.06
327.027	41.3
327.24	158.03
327.453	-71.34
327.666	41.3
327.879	168.27
328.092	74.07
328.305	74.07
328.518	-11.95
328.731	-61.1
328.944	37.2
329.157	127.32
329.37	0.34
329.583	184.66
329.796	133.46
330.009	-93.87
330.222	65.88
330.435	151.89
330.648	121.17
330.861	35.16
331.073	65.88
331.286	92.5
331.499	82.26
331.712	-100.01
331.925	43.35
332.138	53.59
332.35	112.98
332.563	90.45
332.776	29.01
332.989	12.63
333.202	53.59
333.414	72.02
333.627	20.82
333.84	-13.99
334.053	80.21
334.265	41.3
334.478	31.06
334.691	63.83
334.903	-16.04
335.116	8.53
335.329	-11.95
335.541	125.27
335.754	149.84
335.966	-34.47
336.179	-32.43
336.392	24.92
336.604	-30.38
336.817	176.47
337.029	43.35
337.242	20.82
337.454	69.97
337.667	-9.9
337.88	123.22
338.092	33.11
338.305	63.83
338.517	12.63
338.729	59.73
338.942	96.6
339.154	-63.15
339.367	59.73
339.579	80.21
339.792	-5.8
340.004	-7.85
340.217	-3.75
340.429	76.12
340.641	-24.23
340.854	-44.71
341.066	-11.95
341.278	96.6
341.491	192.85
341.703	47.44
341.915	35.16
342.128	98.64
342.34	69.97
342.552	0.34
342.764	16.73
342.977	-28.33
343.189	94.55
343.401	80.21
343.613	-24.23
343.826	12.63
344.038	-61.1
344.25	41.3
344.462	-67.24
344.674	35.16
344.886	49.49
345.099	94.55
345.311	82.26
345.523	4.44
345.735	-18.09
345.947	-16.04
346.159	90.45
346.371	92.5
346.583	8.53
346.795	182.61
347.007	-32.43
347.219	84.31
347.431	51.54
347.643	168.27
347.855	47.44
348.067	162.13
348.279	-106.15
348.491	26.96
348.703	129.36
348.915	41.3
349.127	31.06
349.339	6.49
349.551	-16.04
349.763	24.92
349.975	147.8
350.187	217.43
350.399	133.46
350.61	63.83
350.822	16.73
351.034	59.73
351.246	45.4
351.458	49.49
351.669	80.21
351.881	78.16
352.093	92.5
352.305	65.88
352.517	24.92
352.728	149.84
352.94	108.88
353.152	59.73
353.363	20.82
353.575	123.22
353.787	190.8
353.999	31.06
354.21	209.23
354.422	-42.67
354.633	57.68
354.845	29.01
355.057	-30.38
355.268	57.68
355.48	158.03
355.692	-24.23
355.903	24.92
356.115	-3.75
356.326	-54.95
356.538	149.84
356.749	74.07
356.961	170.32
357.172	45.4
357.384	-3.75
357.595	211.28
357.807	16.73
358.018	-48.81
358.23	63.83
358.441	137.56
358.653	94.55
358.864	16.73
359.075	-5.8
359.287	14.68
359.498	84.31
359.709	-38.57
359.921	14.68
360.132	72.02
360.344	6.49
360.555	4.44
360.766	-13.99
360.977	51.54
361.189	129.36
361.4	26.96
361.611	123.22
361.823	121.17
362.034	90.45
362.245	-87.72
362.456	6.49
362.667	88.4
362.879	55.64
363.09	110.93
363.301	57.68
363.512	51.54
363.723	26.96
363.935	63.83
364.146	104.79
364.357	41.3
364.568	108.88
364.779	-40.62
364.99	172.37
365.201	10.58
365.412	100.69
365.623	-44.71
365.834	119.12
366.045	149.84
366.256	112.98
366.467	59.73
366.678	-13.99
366.889	14.68
367.1	22.87
367.311	72.02
367.522	37.2
367.733	117.08
367.944	-36.52
368.155	51.54
368.366	123.22
368.577	86.36
368.788	96.6
368.999	12.63
369.209	31.06
369.42	227.67
369.631	209.23
369.842	78.16
370.053	-3.75
370.264	63.83
370.474	-42.67
370.685	33.11
370.896	33.11
371.107	108.88
371.317	26.96
371.528	-20.14
371.739	149.84
371.95	121.17
372.16	39.25
372.371	-18.09
372.582	-65.19
372.792	172.37
373.003	76.12
373.214	112.98
373.424	94.55
373.635	-63.15
373.846	168.27
374.056	12.63
374.267	31.06
374.477	26.96
374.688	29.01
374.898	63.83
375.109	61.78
375.319	160.08
375.53	131.41
375.74	131.41
375.951	84.31
376.161	86.36
376.372	135.51
376.582	-26.28
376.793	55.64
377.003	-83.63
377.214	-28.33
377.424	51.54
377.635	96.6
377.845	24.92
378.055	129.36
378.266	-71.34
378.476	-18.09
378.686	-16.04
378.897	78.16
379.107	82.26
379.317	92.5
379.528	29.01
379.738	67.92
379.948	4.44
380.158	131.41
380.369	80.21
380.579	90.45
380.789	84.31
380.999	86.36
381.21	155.99
381.42	178.51
381.63	-28.33
381.84	90.45
382.05	88.4
382.261	196.95
382.471	135.51
382.681	24.92
382.891	137.56
383.101	72.02
383.311	-32.43
383.521	8.53
383.731	51.54
383.941	26.96
384.151	92.5
384.361	4.44
384.571	55.64
384.781	45.4
384.991	262.48
385.201	137.56
385.411	162.13
385.621	69.97
385.831	88.4
386.041	-3.75
386.251	24.92
386.461	158.03
386.671	41.3
386.881	88.4
387.091	72.02
387.301	57.68
387.511	61.78
387.72	90.45
387.93	112.98
388.14	-52.91
388.35	14.68
388.56	186.71
388.769	143.7
388.979	24.92
389.189	8.53
389.399	-9.9
389.609	143.7
389.818	123.22
390.028	51.54
390.238	151.89
390.447	0.34
390.657	86.36
390.867	41.3
391.076	-83.63
391.286	170.32
391.496	29.01
391.705	10.58
391.915	172.37
392.125	123.22
392.334	55.64
392.544	227.67
392.753	41.3
392.963	6.49
393.172	78.16
393.382	22.87
393.591	153.94
393.801	14.68
394.01	178.51
394.22	121.17
394.429	82.26
394.639	37.2
394.848	67.92
395.058	67.92
395.267	45.4
395.477	98.64
395.686	100.69
395.895	254.29
396.105	190.8
396.314	67.92
396.524	76.12
396.733	8.53
396.942	112.98
397.152	63.83
397.361	31.06
397.57	65.88
397.78	96.6
397.989	166.23
398.198	160.08
398.407	-46.76
398.617	39.25
398.826	45.4
399.035	76.12
399.244	104.79
399.453	129.36
399.663	47.44
399.872	47.44
400.081	35.16
400.29	98.64
400.499	8.53
400.708	203.09
400.917	39.25
401.127	22.87
401.336	45.4
401.545	162.13
401.754	117.08
401.963	135.51
402.172	37.2
402.381	4.44
402.59	26.96
402.799	57.68
403.008	84.31
403.217	31.06
403.426	84.31
403.635	-11.95
403.844	41.3
404.053	26.96
404.262	29.01
404.471	192.85
404.68	57.68
404.888	65.88
405.097	90.45
405.306	90.45
405.515	67.92
405.724	12.63
405.933	112.98
406.142	162.13
406.35	174.42
406.559	63.83
406.768	74.07
406.977	182.61
407.185	135.51
407.394	82.26
407.603	-26.28
407.812	29.01
408.02	184.66
408.229	61.78
408.438	110.93
408.646	-34.47
408.855	102.74
409.064	57.68
409.272	-22.19
409.481	57.68
409.69	16.73
409.898	-81.58
410.107	6.49
410.315	141.65
410.524	37.2
410.733	63.83
410.941	53.59
411.15	98.64
411.358	125.27
411.567	133.46
411.775	76.12
411.984	104.79
412.192	39.25
412.401	14.68
412.609	147.8
412.818	180.56
413.026	153.94
413.234	67.92
413.443	63.83
413.651	-32.43
413.86	2.39
414.068	182.61
414.276	127.32
414.485	-9.9
414.693	190.8
414.901	172.37
415.11	51.54
415.318	57.68
415.526	22.87
415.734	121.17
415.943	74.07
416.151	129.36
416.359	39.25
416.567	-3.75
416.776	188.75
416.984	137.56
417.192	137.56
417.4	39.25
417.608	-48.81
417.817	-69.29
418.025	59.73
418.233	137.56
418.441	39.25
418.649	59.73
418.857	69.97
419.065	209.23
419.273	26.96
419.481	26.96
419.689	22.87
419.897	112.98
420.105	-26.28
420.313	108.88
420.521	190.8
420.729	108.88
420.937	29.01
421.145	59.73
421.353	112.98
421.561	88.4
421.769	151.89
421.977	22.87
422.185	145.75
422.393	8.53
422.601	127.32
422.809	96.6
423.017	63.83
423.224	55.64
423.432	164.18
423.64	22.87
423.848	153.94
424.056	-28.33
424.263	98.64
424.471	-7.85
424.679	112.98
424.887	-57
425.094	172.37
425.302	98.64
425.51	53.59
425.718	117.08
425.925	121.17
426.133	74.07
426.341	207.19
426.548	112.98
426.756	133.46
426.964	149.84
427.171	10.58
427.379	104.79
427.586	86.36
427.794	186.71
428.001	215.38
428.209	117.08
428.417	186.71
428.624	168.27
428.832	90.45
429.039	119.12
429.247	147.8
429.454	121.17
429.662	198.99
429.869	198.99
430.076	92.5
430.284	158.03
430.491	201.04
430.699	213.33
430.906	252.24
431.114	119.12
431.321	192.85
431.528	108.88
431.736	121.17
431.943	205.14
432.15	235.86
432.358	201.04
432.565	270.67
432.772	31.06
432.979	258.39
433.187	170.32
433.394	215.38
433.601	160.08
433.808	270.67
434.016	360.78
434.223	252.24
434.43	217.43
434.637	262.48
434.844	260.43
435.052	289.1
435.259	285.01
435.466	364.88
435.673	274.77
435.88	278.87
436.087	366.93
436.294	487.76
436.501	319.82
436.708	360.78
436.915	393.55
437.122	418.13
437.329	313.68
437.537	414.03
437.743	393.55
437.95	512.33
438.157	379.22
438.364	358.74
438.571	530.77
438.778	471.37
438.985	555.34
439.192	594.25
439.399	489.81
439.606	581.96
439.813	690.51
440.02	758.09
440.227	743.75
440.433	764.23
440.64	622.92
440.847	659.79
441.054	727.37
441.261	876.87
441.467	739.66
441.674	829.77
441.881	780.62
442.088	807.24
442.294	921.93
442.501	938.31
442.708	1005.89
442.914	964.93
443.121	995.65
443.328	1005.89
443.534	1122.63
443.741	1179.97
443.948	1114.44
444.154	1282.37
444.361	1431.87
444.568	1216.83
444.774	1257.79
444.981	1313.09
445.187	1491.26
445.394	1401.15
445.6	1438.02
445.807	1605.95
446.013	1612.09
446.22	1454.4
446.426	1823.03
446.633	1726.78
446.839	2068.79
447.046	1677.63
447.252	1988.92
447.459	2076.98
447.665	1970.49
447.871	2048.31
448.078	2455.86
448.284	2347.31
448.491	2500.91
448.697	2709.8
448.903	2609.45
449.11	2748.72
449.316	2670.89
449.522	3060.01
449.728	3070.25
449.935	3166.5
450.141	3135.78
450.347	3426.59
450.553	3375.39
450.76	3414.31
450.966	3660.06
451.172	3748.12
451.378	3848.47
451.584	4006.17
451.791	4360.47
451.997	4407.57
452.203	4512.02
452.409	4651.28
452.615	4882.7
452.821	4659.47
453.027	4804.88
453.233	5343.49
453.44	5427.46
453.646	5527.81
453.852	5656.83
454.058	6013.18
454.264	6115.58
454.47	6521.07
454.676	6502.64
454.882	7297.25
455.088	6861.04
455.294	7248.1
455.5	7839.97
455.705	8167.64
455.911	8143.07
456.117	8263.9
456.323	8624.34
456.529	8519.89
456.735	9498.82
456.941	9795.78
457.147	10324.15
457.352	10332.34
457.558	10860.72
457.764	11645.09
457.97	11870.37
458.176	12054.69
458.381	12609.68
458.587	12978.32
458.793	13373.58
458.999	13453.45
459.204	15292.52
459.41	15949.92
459.616	15442.03
459.821	16306.27
460.027	17281.1
460.233	18255.93
460.438	18280.51
460.644	19136.56
460.85	19232.82
461.055	20041.76
461.261	20772.89
461.466	20824.09
461.672	20912.15
461.878	23248.88
462.083	23302.13
462.289	23949.29
462.494	24700.89
462.7	25014.23
462.905	24917.98
463.111	27023.29
463.316	28600.22
463.522	29046.68
463.727	30085
463.932	31231.86
464.138	32190.31
464.343	33298.27
464.549	33582.93
464.754	35714.87
464.959	37119.77
465.165	37756.69
465.37	37187.36
465.575	37678.87
465.781	39898.87
465.986	40802.02
466.191	40629.99
466.397	40722.15
466.602	39642.87
466.807	42174.16
467.012	42675.91
467.218	43847.35
467.423	43669.18
467.628	45100.71
467.833	47066.76
468.038	46216.85
