Data from USB4F104151__121__10-46-14-758.txt Node

Date: Wed Feb 26 10:46:14 EST 2025
User: louis
Spectrometer: USB4F10415
Trigger mode: 4
Integration Time (sec): 1.000000E-1
Scans to average: 1
Electric dark correction enabled: true
Nonlinearity correction enabled: false
Boxcar width: 0
XAxis mode: Wavelengths
Number of Pixels in Spectrum: 3648
>>>>>Begin Spectral Data<<<<<
178.204	-376.48
178.424	-376.48
178.644	-376.48
178.864	-431.78
179.084	-396.96
179.304	41.3
179.524	-48.81
179.744	47.44
179.964	65.88
180.184	-9.9
180.404	-20.14
180.624	-38.57
180.844	29.01
181.064	-190.12
181.283	29.01
181.503	-34.47
181.723	129.36
181.943	-71.34
182.163	166.23
182.383	-5.8
182.602	51.54
182.822	164.18
183.042	41.3
183.262	16.73
183.482	76.12
183.701	-32.43
183.921	82.26
184.141	-69.29
184.361	31.06
184.58	-1.71
184.8	55.64
185.02	8.53
185.239	110.93
185.459	108.88
185.679	160.08
185.898	-138.92
186.118	65.88
186.338	100.69
186.557	41.3
186.777	-81.58
186.997	47.44
187.216	-77.48
187.436	155.99
187.655	-5.8
187.875	14.68
188.095	39.25
188.314	106.84
188.534	92.5
188.753	-38.57
188.973	55.64
189.192	141.65
189.412	14.68
189.631	67.92
189.851	55.64
190.07	147.8
190.29	-13.99
190.509	2.39
190.729	12.63
190.948	115.03
191.168	248.15
191.387	65.88
191.607	14.68
191.826	22.87
192.045	80.21
192.265	4.44
192.484	131.41
192.704	65.88
192.923	-59.05
193.142	225.62
193.362	131.41
193.581	213.33
193.8	76.12
194.02	110.93
194.239	29.01
194.458	94.55
194.678	104.79
194.897	98.64
195.116	26.96
195.335	65.88
195.555	69.97
195.774	-65.19
195.993	106.84
196.212	24.92
196.432	-9.9
196.651	-20.14
196.87	-13.99
197.089	188.75
197.308	31.06
197.528	59.73
197.747	-95.91
197.966	80.21
198.185	186.71
198.404	10.58
198.623	106.84
198.842	121.17
199.062	92.5
199.281	76.12
199.5	63.83
199.719	78.16
199.938	65.88
200.157	12.63
200.376	135.51
200.595	129.36
200.814	86.36
201.033	29.01
201.252	143.7
201.471	74.07
201.69	102.74
201.909	55.64
202.128	151.89
202.347	76.12
202.566	26.96
202.785	-54.95
203.004	76.12
203.223	223.57
203.442	76.12
203.661	-102.06
203.879	63.83
204.098	110.93
204.317	-54.95
204.536	139.6
204.755	43.35
204.974	104.79
205.193	-34.47
205.411	82.26
205.63	196.95
205.849	84.31
206.068	33.11
206.287	-44.71
206.505	104.79
206.724	31.06
206.943	2.39
207.162	-61.1
207.381	67.92
207.599	74.07
207.818	39.25
208.037	-42.67
208.255	35.16
208.474	61.78
208.693	20.82
208.911	39.25
209.13	100.69
209.349	88.4
209.567	123.22
209.786	53.59
210.005	133.46
210.223	86.36
210.442	-42.67
210.661	35.16
210.879	39.25
211.098	49.49
211.316	65.88
211.535	131.41
211.753	57.68
211.972	112.98
212.191	33.11
212.409	12.63
212.628	96.6
212.846	-30.38
213.065	80.21
213.283	96.6
213.502	37.2
213.72	33.11
213.938	51.54
214.157	12.63
214.375	102.74
214.594	8.53
214.812	-34.47
215.031	-18.09
215.249	16.73
215.467	35.16
215.686	-9.9
215.904	59.73
216.122	16.73
216.341	233.81
216.559	76.12
216.778	110.93
216.996	184.66
217.214	45.4
217.432	35.16
217.651	-52.91
217.869	-38.57
218.087	8.53
218.306	-54.95
218.524	41.3
218.742	33.11
218.96	31.06
219.179	-11.95
219.397	39.25
219.615	153.94
219.833	131.41
220.051	-52.91
220.27	74.07
220.488	96.6
220.706	39.25
220.924	14.68
221.142	-63.15
221.36	33.11
221.578	94.55
221.796	78.16
222.015	51.54
222.233	112.98
222.451	217.43
222.669	-42.67
222.887	117.08
223.105	0.34
223.323	41.3
223.541	-16.04
223.759	51.54
223.977	108.88
224.195	127.32
224.413	149.84
224.631	133.46
224.849	67.92
225.067	137.56
225.285	-57
225.503	-16.04
225.721	-97.96
225.939	31.06
226.157	-1.71
226.375	221.52
226.592	-3.75
226.81	-5.8
227.028	84.31
227.246	166.23
227.464	24.92
227.682	57.68
227.9	45.4
228.117	112.98
228.335	67.92
228.553	29.01
228.771	72.02
228.989	18.77
229.206	100.69
229.424	0.34
229.642	4.44
229.86	-3.75
230.077	106.84
230.295	33.11
230.513	14.68
230.731	133.46
230.948	84.31
231.166	162.13
231.384	-36.52
231.601	-5.8
231.819	182.61
232.037	55.64
232.254	-128.68
232.472	12.63
232.689	-46.76
232.907	158.03
233.125	26.96
233.342	35.16
233.56	16.73
233.777	26.96
233.995	39.25
234.213	78.16
234.43	49.49
234.648	59.73
234.865	-36.52
235.083	61.78
235.3	63.83
235.518	117.08
235.735	88.4
235.953	102.74
236.17	24.92
236.388	49.49
236.605	41.3
236.822	117.08
237.04	96.6
237.257	-65.19
237.475	-79.53
237.692	37.2
237.909	94.55
238.127	-46.76
238.344	49.49
238.562	72.02
238.779	-30.38
238.996	-22.19
239.214	20.82
239.431	61.78
239.648	-3.75
239.865	59.73
240.083	49.49
240.3	-24.23
240.517	-34.47
240.735	-5.8
240.952	117.08
241.169	88.4
241.386	69.97
241.603	-32.43
241.821	-46.76
242.038	31.06
242.255	119.12
242.472	10.58
242.689	43.35
242.907	72.02
243.124	78.16
243.341	31.06
243.558	43.35
243.775	-85.67
243.992	-50.86
244.209	98.64
244.426	92.5
244.643	24.92
244.86	41.3
245.078	155.99
245.295	82.26
245.512	45.4
245.729	2.39
245.946	47.44
246.163	72.02
246.38	80.21
246.597	170.32
246.814	31.06
247.031	41.3
247.248	16.73
247.464	121.17
247.681	41.3
247.898	12.63
248.115	20.82
248.332	-46.76
248.549	72.02
248.766	158.03
248.983	57.68
249.2	61.78
249.417	104.79
249.633	-32.43
249.85	135.51
250.067	2.39
250.284	67.92
250.501	61.78
250.717	67.92
250.934	-54.95
251.151	102.74
251.368	100.69
251.585	35.16
251.801	12.63
252.018	-69.29
252.235	133.46
252.451	-30.38
252.668	-1.71
252.885	92.5
253.102	67.92
253.318	6.49
253.535	-44.71
253.752	16.73
253.968	74.07
254.185	4.44
254.401	16.73
254.618	149.84
254.835	4.44
255.051	20.82
255.268	51.54
255.484	49.49
255.701	61.78
255.917	76.12
256.134	-22.19
256.351	74.07
256.567	-42.67
256.784	63.83
257	-57
257.217	176.47
257.433	139.6
257.65	16.73
257.866	186.71
258.082	-40.62
258.299	2.39
258.515	88.4
258.732	-1.71
258.948	-67.24
259.165	43.35
259.381	-87.72
259.597	76.12
259.814	-7.85
260.03	35.16
260.246	-32.43
260.463	90.45
260.679	190.8
260.895	78.16
261.112	57.68
261.328	53.59
261.544	12.63
261.761	110.93
261.977	-73.39
262.193	-50.86
262.409	72.02
262.626	80.21
262.842	26.96
263.058	8.53
263.274	80.21
263.49	55.64
263.707	80.21
263.923	47.44
264.139	-38.57
264.355	63.83
264.571	135.51
264.787	112.98
265.004	158.03
265.22	49.49
265.436	-9.9
265.652	-30.38
265.868	125.27
266.084	-26.28
266.3	57.68
266.516	8.53
266.732	78.16
266.948	49.49
267.164	45.4
267.38	43.35
267.596	76.12
267.812	131.41
268.028	26.96
268.244	47.44
268.46	-5.8
268.676	18.77
268.892	63.83
269.108	0.34
269.324	-81.58
269.54	-40.62
269.756	65.88
269.972	-69.29
270.188	10.58
270.403	-7.85
270.619	0.34
270.835	88.4
271.051	78.16
271.267	-1.71
271.483	-69.29
271.698	96.6
271.914	14.68
272.13	53.59
272.346	6.49
272.562	67.92
272.777	98.64
272.993	-1.71
273.209	-9.9
273.425	102.74
273.64	69.97
273.856	188.75
274.072	-24.23
274.287	-18.09
274.503	86.36
274.719	94.55
274.934	51.54
275.15	-59.05
275.366	18.77
275.581	24.92
275.797	115.03
276.012	69.97
276.228	-16.04
276.444	10.58
276.659	123.22
276.875	-11.95
277.09	35.16
277.306	-7.85
277.521	31.06
277.737	55.64
277.952	100.69
278.168	55.64
278.383	10.58
278.599	53.59
278.814	10.58
279.03	33.11
279.245	65.88
279.461	-18.09
279.676	65.88
279.892	-38.57
280.107	14.68
280.322	-3.75
280.538	80.21
280.753	6.49
280.969	65.88
281.184	47.44
281.399	182.61
281.615	33.11
281.83	108.88
282.045	-20.14
282.26	-24.23
282.476	49.49
282.691	57.68
282.906	115.03
283.122	39.25
283.337	20.82
283.552	39.25
283.767	26.96
283.983	59.73
284.198	82.26
284.413	86.36
284.628	24.92
284.843	57.68
285.058	102.74
285.274	35.16
285.489	-77.48
285.704	53.59
285.919	2.39
286.134	-5.8
286.349	41.3
286.564	12.63
286.779	141.65
286.995	16.73
287.21	-48.81
287.425	16.73
287.64	10.58
287.855	82.26
288.07	-65.19
288.285	174.42
288.5	117.08
288.715	51.54
288.93	20.82
289.145	45.4
289.36	84.31
289.575	33.11
289.79	59.73
290.004	41.3
290.219	141.65
290.434	14.68
290.649	37.2
290.864	-48.81
291.079	53.59
291.294	26.96
291.509	53.59
291.724	55.64
291.938	14.68
292.153	80.21
292.368	-7.85
292.583	80.21
292.798	88.4
293.012	63.83
293.227	65.88
293.442	-73.39
293.657	41.3
293.871	121.17
294.086	74.07
294.301	213.33
294.516	49.49
294.73	16.73
294.945	18.77
295.16	57.68
295.374	110.93
295.589	127.32
295.804	8.53
296.018	-18.09
296.233	84.31
296.447	-16.04
296.662	22.87
296.877	92.5
297.091	106.84
297.306	-32.43
297.52	18.77
297.735	45.4
297.949	29.01
298.164	67.92
298.378	8.53
298.593	-34.47
298.807	6.49
299.022	41.3
299.236	180.56
299.451	-16.04
299.665	-34.47
299.88	4.44
300.094	94.55
300.309	18.77
300.523	39.25
300.737	57.68
300.952	82.26
301.166	117.08
301.381	-34.47
301.595	-28.33
301.809	-13.99
302.024	123.22
302.238	-13.99
302.452	108.88
302.667	84.31
302.881	133.46
303.095	78.16
303.309	-9.9
303.524	-9.9
303.738	22.87
303.952	65.88
304.166	96.6
304.381	-104.11
304.595	147.8
304.809	8.53
305.023	43.35
305.237	45.4
305.452	12.63
305.666	33.11
305.88	129.36
306.094	145.75
306.308	43.35
306.522	65.88
306.736	4.44
306.95	123.22
307.164	-1.71
307.379	0.34
307.593	184.66
307.807	63.83
308.021	65.88
308.235	98.64
308.449	-79.53
308.663	29.01
308.877	164.18
309.091	39.25
309.305	43.35
309.519	-112.3
309.733	108.88
309.947	-116.39
310.161	45.4
310.374	106.84
310.588	106.84
310.802	-32.43
311.016	24.92
311.23	123.22
311.444	-13.99
311.658	55.64
311.872	115.03
312.085	117.08
312.299	108.88
312.513	147.8
312.727	102.74
312.941	4.44
313.154	45.4
313.368	0.34
313.582	59.73
313.796	6.49
314.009	51.54
314.223	67.92
314.437	92.5
314.651	43.35
314.864	-38.57
315.078	0.34
315.292	-42.67
315.505	24.92
315.719	57.68
315.933	69.97
316.146	31.06
316.36	-54.95
316.573	125.27
316.787	-38.57
317.001	39.25
317.214	-34.47
317.428	10.58
317.641	10.58
317.855	-7.85
318.068	45.4
318.282	8.53
318.495	170.32
318.709	108.88
318.922	57.68
319.136	141.65
319.349	41.3
319.563	-69.29
319.776	57.68
319.99	-91.82
320.203	133.46
320.417	47.44
320.63	92.5
320.843	119.12
321.057	76.12
321.27	35.16
321.483	149.84
321.697	123.22
321.91	-3.75
322.124	61.78
322.337	22.87
322.55	-1.71
322.763	61.78
322.977	-20.14
323.19	-11.95
323.403	16.73
323.617	55.64
323.83	115.03
324.043	8.53
324.256	76.12
324.469	0.34
324.683	141.65
324.896	0.34
325.109	69.97
325.322	-26.28
325.535	67.92
325.748	76.12
325.962	26.96
326.175	129.36
326.388	49.49
326.601	98.64
326.814	-38.57
327.027	49.49
327.24	223.57
327.453	-75.43
327.666	57.68
327.879	53.59
328.092	35.16
328.305	155.99
328.518	-7.85
328.731	-13.99
328.944	18.77
329.157	72.02
329.37	26.96
329.583	149.84
329.796	104.79
330.009	-22.19
330.222	88.4
330.435	147.8
330.648	76.12
330.861	39.25
331.073	96.6
331.286	82.26
331.499	74.07
331.712	-20.14
331.925	94.55
332.138	-69.29
332.35	123.22
332.563	-11.95
332.776	100.69
332.989	-63.15
333.202	0.34
333.414	18.77
333.627	-9.9
333.84	-44.71
334.053	78.16
334.265	10.58
334.478	55.64
334.691	-18.09
334.903	57.68
335.116	-59.05
335.329	57.68
335.541	88.4
335.754	82.26
335.966	26.96
336.179	20.82
336.392	51.54
336.604	-71.34
336.817	55.64
337.029	80.21
337.242	18.77
337.454	117.08
337.667	131.41
337.88	180.56
338.092	29.01
338.305	43.35
338.517	-50.86
338.729	153.94
338.942	158.03
339.154	-20.14
339.367	-40.62
339.579	72.02
339.792	-13.99
340.004	135.51
340.217	57.68
340.429	61.78
340.641	-1.71
340.854	31.06
341.066	-57
341.278	63.83
341.491	147.8
341.703	76.12
341.915	-16.04
342.128	147.8
342.34	69.97
342.552	8.53
342.764	76.12
342.977	26.96
343.189	61.78
343.401	80.21
343.613	-67.24
343.826	31.06
344.038	-132.78
344.25	24.92
344.462	-3.75
344.674	94.55
344.886	14.68
345.099	57.68
345.311	24.92
345.523	8.53
345.735	-106.15
345.947	55.64
346.159	14.68
346.371	84.31
346.583	-63.15
346.795	164.18
347.007	-1.71
347.219	-24.23
347.431	-3.75
347.643	57.68
347.855	-1.71
348.067	67.92
348.279	14.68
348.491	92.5
348.703	86.36
348.915	6.49
349.127	-34.47
349.339	59.73
349.551	-50.86
349.763	92.5
349.975	35.16
350.187	162.13
350.399	94.55
350.61	102.74
350.822	53.59
351.034	65.88
351.246	39.25
351.458	76.12
351.669	43.35
351.881	115.03
352.093	151.89
352.305	117.08
352.517	47.44
352.728	174.42
352.94	74.07
353.152	74.07
353.363	20.82
353.575	78.16
353.787	162.13
353.999	59.73
354.21	213.33
354.422	31.06
354.633	-46.76
354.845	37.2
355.057	10.58
355.268	84.31
355.48	108.88
355.692	-52.91
355.903	33.11
356.115	12.63
356.326	-91.82
356.538	106.84
356.749	69.97
356.961	162.13
357.172	37.2
357.384	-32.43
357.595	252.24
357.807	-28.33
358.018	14.68
358.23	24.92
358.441	133.46
358.653	67.92
358.864	12.63
359.075	-38.57
359.287	-32.43
359.498	55.64
359.709	96.6
359.921	8.53
360.132	145.75
360.344	74.07
360.555	51.54
360.766	2.39
360.977	-7.85
361.189	129.36
361.4	65.88
361.611	63.83
361.823	96.6
362.034	6.49
362.245	8.53
362.456	18.77
362.667	84.31
362.879	-48.81
363.09	29.01
363.301	6.49
363.512	26.96
363.723	18.77
363.935	43.35
364.146	151.89
364.357	57.68
364.568	100.69
364.779	-73.39
364.99	141.65
365.201	67.92
365.412	102.74
365.623	-71.34
365.834	24.92
366.045	6.49
366.256	92.5
366.467	149.84
366.678	26.96
366.889	53.59
367.1	-11.95
367.311	151.89
367.522	-18.09
367.733	74.07
367.944	149.84
368.155	14.68
368.366	129.36
368.577	125.27
368.788	90.45
368.999	14.68
369.209	-1.71
369.42	221.52
369.631	297.3
369.842	129.36
370.053	-5.8
370.264	119.12
370.474	-3.75
370.685	0.34
370.896	57.68
371.107	137.56
371.317	106.84
371.528	33.11
371.739	90.45
371.95	-1.71
372.16	158.03
372.371	-52.91
372.582	39.25
372.792	131.41
373.003	51.54
373.214	82.26
373.424	74.07
373.635	-57
373.846	74.07
374.056	-26.28
374.267	12.63
374.477	65.88
374.688	18.77
374.898	121.17
375.109	-1.71
375.319	-24.23
375.53	55.64
375.74	117.08
375.951	6.49
376.161	69.97
376.372	133.46
376.582	-40.62
376.793	45.4
377.003	-89.77
377.214	76.12
377.424	149.84
377.635	8.53
377.845	35.16
378.055	123.22
378.266	12.63
378.476	57.68
378.686	119.12
378.897	74.07
379.107	92.5
379.317	106.84
379.528	72.02
379.738	164.18
379.948	-18.09
380.158	108.88
380.369	88.4
380.579	65.88
380.789	-24.23
380.999	162.13
381.21	131.41
381.42	176.47
381.63	76.12
381.84	33.11
382.05	92.5
382.261	37.2
382.471	90.45
382.681	90.45
382.891	145.75
383.101	12.63
383.311	-69.29
383.521	24.92
383.731	55.64
383.941	67.92
384.151	76.12
384.361	26.96
384.571	86.36
384.781	61.78
384.991	96.6
385.201	194.9
385.411	43.35
385.621	80.21
385.831	57.68
386.041	14.68
386.251	47.44
386.461	141.65
386.671	29.01
386.881	96.6
387.091	-46.76
387.301	151.89
387.511	74.07
387.72	86.36
387.93	86.36
388.14	-85.67
388.35	98.64
388.56	110.93
388.769	170.32
388.979	41.3
389.189	-30.38
389.399	24.92
389.609	100.69
389.818	137.56
390.028	72.02
390.238	59.73
390.447	20.82
390.657	47.44
390.867	12.63
391.076	-26.28
391.286	39.25
391.496	53.59
391.705	37.2
391.915	194.9
392.125	104.79
392.334	8.53
392.544	125.27
392.753	63.83
392.963	-50.86
393.172	59.73
393.382	-63.15
393.591	168.27
393.801	-1.71
394.01	205.14
394.22	141.65
394.429	14.68
394.639	74.07
394.848	74.07
395.058	69.97
395.267	18.77
395.477	209.23
395.686	67.92
395.895	141.65
396.105	205.14
396.314	55.64
396.524	43.35
396.733	6.49
396.942	133.46
397.152	63.83
397.361	106.84
397.57	53.59
397.78	29.01
397.989	86.36
398.198	194.9
398.407	49.49
398.617	45.4
398.826	63.83
399.035	59.73
399.244	147.8
399.453	43.35
399.663	121.17
399.872	121.17
400.081	-61.1
400.29	180.56
400.499	51.54
400.708	147.8
400.917	57.68
401.127	35.16
401.336	-42.67
401.545	219.47
401.754	112.98
401.963	139.6
402.172	35.16
402.381	-22.19
402.59	8.53
402.799	-3.75
403.008	65.88
403.217	29.01
403.426	76.12
403.635	-93.87
403.844	102.74
404.053	35.16
404.262	35.16
404.471	158.03
404.68	31.06
404.888	104.79
405.097	65.88
405.306	78.16
405.515	106.84
405.724	51.54
405.933	86.36
406.142	67.92
406.35	61.78
406.559	49.49
406.768	63.83
406.977	209.23
407.185	121.17
407.394	65.88
407.603	-75.43
407.812	55.64
408.02	158.03
408.229	47.44
408.438	43.35
408.646	-42.67
408.855	84.31
409.064	55.64
409.272	82.26
409.481	88.4
409.69	-3.75
409.898	-13.99
410.107	0.34
410.315	92.5
410.524	35.16
410.733	88.4
410.941	41.3
411.15	96.6
411.358	49.49
411.567	106.84
411.775	-34.47
411.984	16.73
412.192	94.55
412.401	-54.95
412.609	164.18
412.818	108.88
413.026	72.02
413.234	14.68
413.443	37.2
413.651	-26.28
413.86	78.16
414.068	100.69
414.276	178.51
414.485	18.77
414.693	186.71
414.901	297.3
415.11	61.78
415.318	22.87
415.526	121.17
415.734	12.63
415.943	57.68
416.151	155.99
416.359	72.02
416.567	53.59
416.776	108.88
416.984	47.44
417.192	153.94
417.4	24.92
417.608	6.49
417.817	4.44
418.025	115.03
418.233	155.99
418.441	-9.9
418.649	-28.33
418.857	88.4
419.065	168.27
419.273	-26.28
419.481	18.77
419.689	143.7
419.897	26.96
420.105	14.68
420.313	147.8
420.521	104.79
420.729	151.89
420.937	20.82
421.145	0.34
421.353	110.93
421.561	198.99
421.769	47.44
421.977	29.01
422.185	43.35
422.393	-3.75
422.601	149.84
422.809	86.36
423.017	72.02
423.224	29.01
423.432	55.64
423.64	106.84
423.848	123.22
424.056	-28.33
424.263	106.84
424.471	96.6
424.679	151.89
424.887	61.78
425.094	123.22
425.302	59.73
425.51	94.55
425.718	69.97
425.925	29.01
426.133	-24.23
426.341	264.53
426.548	14.68
426.756	29.01
426.964	45.4
427.171	-36.52
427.379	51.54
427.586	41.3
427.794	53.59
428.001	121.17
428.209	76.12
428.417	182.61
428.624	237.91
428.832	131.41
429.039	29.01
429.247	110.93
429.454	137.56
429.662	127.32
429.869	205.14
430.076	61.78
430.284	239.95
430.491	219.47
430.699	149.84
430.906	297.3
431.114	178.51
431.321	141.65
431.528	129.36
431.736	180.56
431.943	205.14
432.15	190.8
432.358	178.51
432.565	250.19
432.772	-1.71
432.979	104.79
433.187	51.54
433.394	254.29
433.601	110.93
433.808	219.47
434.016	194.9
434.223	242
434.43	248.15
434.637	338.26
434.844	244.05
435.052	268.63
435.259	321.87
435.466	217.43
435.673	182.61
435.88	258.39
436.087	336.21
436.294	424.27
436.501	340.3
436.708	375.12
436.915	270.67
437.122	328.02
437.329	272.72
437.537	385.36
437.743	432.46
437.95	448.85
438.157	358.74
438.364	418.13
438.571	465.23
438.778	438.61
438.985	405.84
439.192	457.04
439.399	520.53
439.606	495.95
439.813	596.3
440.02	553.29
440.227	575.82
440.433	579.92
440.64	557.39
440.847	545.1
441.054	575.82
441.261	813.38
441.467	629.07
441.674	643.4
441.881	762.19
442.088	700.75
442.294	821.58
442.501	823.62
442.708	852.3
442.914	751.95
443.121	911.69
443.328	915.78
443.534	975.17
443.741	903.5
443.948	895.3
444.154	1057.09
444.361	1139.01
444.568	1055.05
444.774	1096
444.981	1075.52
445.187	1218.88
445.394	1222.98
445.6	1188.16
445.807	1352
446.013	1284.42
446.22	1227.07
446.426	1352
446.633	1638.72
446.839	1651
447.046	1417.54
447.252	1671.48
447.459	1646.91
447.665	1753.4
447.871	1872.18
448.078	2048.31
448.284	1947.96
448.491	2115.89
448.697	2113.85
448.903	2273.59
449.11	2249.01
449.316	2271.54
449.522	2418.99
449.728	2593.07
449.935	2638.13
450.141	2603.31
450.347	2914.6
450.553	2787.63
450.76	2902.31
450.966	2978.09
451.172	3060.01
451.378	3215.65
451.584	3262.76
451.791	3674.4
451.997	3744.03
452.203	3821.85
452.409	4057.37
452.615	4108.57
452.821	4026.65
453.027	4067.61
453.233	4485.39
453.44	4264.21
453.646	4536.59
453.852	4671.76
454.058	4894.99
454.264	5044.49
454.47	5452.03
454.676	5415.17
454.882	5959.93
455.088	5810.43
455.294	5880.06
455.5	6420.72
455.705	6768.88
455.911	6969.58
456.117	6971.63
456.323	7217.38
456.529	7305.45
456.735	7899.36
456.941	8026.33
457.147	8413.4
457.352	8536.28
457.558	8820.94
457.764	9232.58
457.97	9547.97
458.176	10107.07
458.381	10594.48
458.587	10803.38
458.793	11153.58
458.999	11464.87
459.204	12683.41
459.41	13133.96
459.616	12689.56
459.821	13811.84
460.027	14160
460.233	15100.01
460.438	14915.7
460.644	15890.53
460.85	15820.9
461.055	16506.97
461.261	17395.79
461.466	17059.92
461.672	17156.18
461.878	19370.03
462.083	19028.02
462.289	19714.09
462.494	20398.11
462.7	20590.62
462.905	20770.84
463.111	22421.5
463.316	23459.82
463.522	23980.01
463.727	24555.49
463.932	25372.63
464.138	26425.28
464.343	27555.76
464.549	27983.79
464.754	29720.46
464.959	30562.18
465.165	31199.1
465.37	30691.2
465.575	30832.51
465.781	32718.69
465.986	34221.9
466.191	33294.17
466.397	33988.43
466.602	32941.92
466.807	35063.61
467.012	34998.08
467.218	35764.02
467.423	35774.26
467.628	36871.97
467.833	38971.14
468.038	38231.82
468.244	37287.71
468.449	39321.34
468.654	38240.01
468.859	38502.15
469.064	38422.28
469.269	37463.83
