Data from USB4F104151__110__10-45-48-760.txt Node

Date: Wed Feb 26 10:45:48 EST 2025
User: louis
Spectrometer: USB4F10415
Trigger mode: 4
Integration Time (sec): 1.000000E-1
Scans to average: 1
Electric dark correction enabled: true
Nonlinearity correction enabled: false
Boxcar width: 0
XAxis mode: Wavelengths
Number of Pixels in Spectrum: 3648
>>>>>Begin Spectral Data<<<<<
178.204	-383.82
178.424	-383.82
178.644	-383.82
178.864	-480.08
179.084	-332.62
179.304	-17.24
179.524	-27.48
179.744	79.02
179.964	-0.85
180.184	62.63
180.404	25.77
180.624	40.11
180.844	7.34
181.064	-148.31
181.283	17.58
181.503	21.67
181.723	-60.24
181.943	-82.77
182.163	205.99
182.383	7.34
182.602	160.94
182.822	144.55
183.042	107.69
183.262	-88.92
183.482	60.59
183.701	-58.2
183.921	91.31
184.141	-82.77
184.361	42.15
184.58	66.73
184.8	85.16
185.02	36.01
185.239	91.31
185.459	29.87
185.679	148.65
185.898	-107.35
186.118	99.5
186.338	62.63
186.557	68.78
186.777	-35.67
186.997	-17.24
187.216	72.87
187.436	208.04
187.655	85.16
187.875	107.69
188.095	-13.14
188.314	146.6
188.534	122.02
188.753	-72.53
188.973	136.36
189.192	140.46
189.412	-37.72
189.631	31.91
189.851	126.12
190.07	214.18
190.29	-78.68
190.509	27.82
190.729	1.19
190.948	195.75
191.168	232.62
191.387	111.78
191.607	50.35
191.826	76.97
192.045	64.68
192.265	1.19
192.484	62.63
192.704	62.63
192.923	-45.91
193.142	150.7
193.362	81.07
193.581	162.98
193.8	85.16
194.02	117.93
194.239	115.88
194.458	13.48
194.678	33.96
194.897	-9.05
195.116	105.64
195.335	21.67
195.555	81.07
195.774	3.24
195.993	99.5
196.212	66.73
196.432	64.68
196.651	46.25
196.87	70.83
197.089	212.14
197.308	81.07
197.528	70.83
197.747	-4.95
197.966	21.67
198.185	105.64
198.404	25.77
198.623	105.64
198.842	93.35
199.062	66.73
199.281	115.88
199.5	72.87
199.719	64.68
199.938	99.5
200.157	115.88
200.376	124.07
200.595	144.55
200.814	56.49
201.033	-33.62
201.252	201.9
201.471	36.01
201.69	9.39
201.909	27.82
202.128	95.4
202.347	81.07
202.566	83.11
202.785	-35.67
203.004	3.24
203.223	158.89
203.442	48.3
203.661	17.58
203.879	91.31
204.098	128.17
204.317	-27.48
204.536	76.97
204.755	74.92
204.974	130.22
205.193	31.91
205.411	185.51
205.63	128.17
205.849	29.87
206.068	-47.96
206.287	72.87
206.505	210.09
206.724	19.63
206.943	-17.24
207.162	5.29
207.381	58.54
207.599	64.68
207.818	17.58
208.037	54.44
208.255	97.45
208.474	95.4
208.693	85.16
208.911	62.63
209.13	115.88
209.349	177.32
209.567	-37.72
209.786	81.07
210.005	97.45
210.223	56.49
210.442	-138.07
210.661	31.91
210.879	115.88
211.098	-64.34
211.316	50.35
211.535	142.5
211.753	42.15
211.972	66.73
212.191	5.29
212.409	-33.62
212.628	70.83
212.846	3.24
213.065	-0.85
213.283	60.59
213.502	64.68
213.72	42.15
213.938	40.11
214.157	1.19
214.375	119.98
214.594	25.77
214.812	62.63
215.031	44.2
215.249	-43.86
215.467	29.87
215.686	38.06
215.904	50.35
216.122	5.29
216.341	146.6
216.559	113.83
216.778	54.44
216.996	150.7
217.214	56.49
217.432	7.34
217.651	-11.09
217.869	64.68
218.087	33.96
218.306	-70.48
218.524	50.35
218.742	111.78
218.96	66.73
219.179	-39.76
219.397	48.3
219.615	189.61
219.833	144.55
220.051	-27.48
220.27	119.98
220.488	109.74
220.706	46.25
220.924	-19.29
221.142	-29.52
221.36	60.59
221.578	52.39
221.796	19.63
222.015	52.39
222.233	9.39
222.451	249
222.669	-23.38
222.887	91.31
223.105	-17.24
223.323	58.54
223.541	31.91
223.759	56.49
223.977	46.25
224.195	142.5
224.413	89.26
224.631	-13.14
224.849	64.68
225.067	167.08
225.285	-62.29
225.503	-23.38
225.721	-90.96
225.939	-9.05
226.157	5.29
226.375	189.61
226.592	13.48
226.81	-0.85
227.028	148.65
227.246	146.6
227.464	132.26
227.682	74.92
227.9	21.67
228.117	62.63
228.335	91.31
228.553	27.82
228.771	36.01
228.989	52.39
229.206	130.22
229.424	54.44
229.642	-19.29
229.86	-54.1
230.077	167.08
230.295	95.4
230.513	89.26
230.731	46.25
230.948	224.42
231.166	183.46
231.384	48.3
231.601	-66.39
231.819	158.89
232.037	-0.85
232.254	-33.62
232.472	85.16
232.689	-25.43
232.907	124.07
233.125	33.96
233.342	-47.96
233.56	25.77
233.777	-35.67
233.995	15.53
234.213	158.89
234.43	54.44
234.648	52.39
234.865	5.29
235.083	95.4
235.3	29.87
235.518	72.87
235.735	126.12
235.953	83.11
236.17	107.69
236.388	11.43
236.605	105.64
236.822	154.79
237.04	130.22
237.257	72.87
237.475	-31.57
237.692	-19.29
237.909	81.07
238.127	-15.19
238.344	99.5
238.562	-11.09
238.779	-76.63
238.996	-11.09
239.214	-13.14
239.431	56.49
239.648	5.29
239.865	105.64
240.083	76.97
240.3	-2.9
240.517	68.78
240.735	50.35
240.952	167.08
241.169	111.78
241.386	146.6
241.603	79.02
241.821	-86.87
242.038	101.55
242.255	144.55
242.472	-31.57
242.689	128.17
242.907	124.07
243.124	54.44
243.341	23.72
243.558	1.19
243.775	-4.95
243.992	33.96
244.209	68.78
244.426	191.66
244.643	76.97
244.86	40.11
245.078	93.35
245.295	42.15
245.512	7.34
245.729	17.58
245.946	79.02
246.163	11.43
246.38	23.72
246.597	9.39
246.814	93.35
247.031	50.35
247.248	27.82
247.464	66.73
247.681	17.58
247.898	130.22
248.115	54.44
248.332	-41.81
248.549	97.45
248.766	126.12
248.983	124.07
249.2	87.21
249.417	150.7
249.633	7.34
249.85	103.59
250.067	3.24
250.284	62.63
250.501	68.78
250.717	156.84
250.934	-31.57
251.151	91.31
251.368	-2.9
251.585	48.3
251.801	103.59
252.018	-15.19
252.235	93.35
252.451	-82.77
252.668	46.25
252.885	154.79
253.102	101.55
253.318	48.3
253.535	11.43
253.752	-52.05
253.968	76.97
254.185	-62.29
254.401	107.69
254.618	119.98
254.835	-4.95
255.051	66.73
255.268	99.5
255.484	-0.85
255.701	-2.9
255.917	31.91
256.134	-13.14
256.351	60.59
256.567	-39.76
256.784	124.07
257	-19.29
257.217	68.78
257.433	156.84
257.65	103.59
257.866	79.02
258.082	-74.58
258.299	11.43
258.515	44.2
258.732	31.91
258.948	29.87
259.165	48.3
259.381	1.19
259.597	107.69
259.814	3.24
260.03	103.59
260.246	-25.43
260.463	111.78
260.679	87.21
260.895	93.35
261.112	85.16
261.328	146.6
261.544	-66.39
261.761	183.46
261.977	56.49
262.193	-45.91
262.409	95.4
262.626	44.2
262.842	101.55
263.058	79.02
263.274	175.27
263.49	27.82
263.707	60.59
263.923	109.74
264.139	7.34
264.355	40.11
264.571	134.31
264.787	79.02
265.004	193.7
265.22	33.96
265.436	-25.43
265.652	11.43
265.868	146.6
266.084	-2.9
266.3	19.63
266.516	13.48
266.732	60.59
266.948	27.82
267.164	7.34
267.38	113.83
267.596	38.06
267.812	109.74
268.028	126.12
268.244	-35.67
268.46	101.55
268.676	31.91
268.892	33.96
269.108	-64.34
269.324	-39.76
269.54	-90.96
269.756	93.35
269.972	-25.43
270.188	42.15
270.403	-50
270.619	79.02
270.835	117.93
271.051	46.25
271.267	-21.33
271.483	-9.05
271.698	148.65
271.914	31.91
272.13	97.45
272.346	31.91
272.562	91.31
272.777	99.5
272.993	54.44
273.209	56.49
273.425	136.36
273.64	-9.05
273.856	46.25
274.072	-58.2
274.287	15.53
274.503	101.55
274.719	72.87
274.934	60.59
275.15	-93.01
275.366	-45.91
275.581	-25.43
275.797	25.77
276.012	7.34
276.228	44.2
276.444	42.15
276.659	171.18
276.875	42.15
277.09	72.87
277.306	5.29
277.521	126.12
277.737	44.2
277.952	89.26
278.168	68.78
278.383	-4.95
278.599	101.55
278.814	119.98
279.03	68.78
279.245	142.5
279.461	54.44
279.676	33.96
279.892	-68.44
280.107	-19.29
280.322	-47.96
280.538	74.92
280.753	7.34
280.969	27.82
281.184	74.92
281.399	126.12
281.615	-0.85
281.83	17.58
282.045	-82.77
282.26	-11.09
282.476	60.59
282.691	113.83
282.906	19.63
283.122	50.35
283.337	-15.19
283.552	124.07
283.767	-64.34
283.983	160.94
284.198	50.35
284.413	87.21
284.628	-47.96
284.843	68.78
285.058	66.73
285.274	-7
285.489	-62.29
285.704	95.4
285.919	17.58
286.134	89.26
286.349	46.25
286.564	9.39
286.779	126.12
286.995	36.01
287.21	-41.81
287.425	142.5
287.64	11.43
287.855	91.31
288.07	-70.48
288.285	64.68
288.5	85.16
288.715	156.84
288.93	68.78
289.145	-25.43
289.36	97.45
289.575	-56.15
289.79	146.6
290.004	-15.19
290.219	97.45
290.434	-15.19
290.649	-0.85
290.864	-9.05
291.079	-7
291.294	56.49
291.509	95.4
291.724	-39.76
291.938	85.16
292.153	50.35
292.368	-29.52
292.583	101.55
292.798	-4.95
293.012	9.39
293.227	83.11
293.442	-0.85
293.657	171.18
293.871	134.31
294.086	79.02
294.301	185.51
294.516	126.12
294.73	113.83
294.945	52.39
295.16	85.16
295.374	142.5
295.589	101.55
295.804	-47.96
296.018	27.82
296.233	136.36
296.447	91.31
296.662	17.58
296.877	197.8
297.091	68.78
297.306	50.35
297.52	25.77
297.735	74.92
297.949	29.87
298.164	58.54
298.378	70.83
298.593	-41.81
298.807	3.24
299.022	-0.85
299.236	115.88
299.451	81.07
299.665	44.2
299.88	48.3
300.094	117.93
300.309	81.07
300.523	19.63
300.737	23.72
300.952	36.01
301.166	58.54
301.381	-66.39
301.595	-4.95
301.809	-2.9
302.024	58.54
302.238	-25.43
302.452	101.55
302.667	-54.1
302.881	154.79
303.095	142.5
303.309	95.4
303.524	50.35
303.738	-11.09
303.952	-7
304.166	60.59
304.381	-76.63
304.595	158.89
304.809	-35.67
305.023	56.49
305.237	36.01
305.452	31.91
305.666	105.64
305.88	136.36
306.094	128.17
306.308	124.07
306.522	146.6
306.736	81.07
306.95	142.5
307.164	13.48
307.379	19.63
307.593	117.93
307.807	124.07
308.021	74.92
308.235	97.45
308.449	-31.57
308.663	68.78
308.877	195.75
309.091	50.35
309.305	19.63
309.519	-68.44
309.733	105.64
309.947	-45.91
310.161	107.69
310.374	126.12
310.588	150.7
310.802	9.39
311.016	-21.33
311.23	79.02
311.444	9.39
311.658	66.73
311.872	91.31
312.085	124.07
312.299	197.8
312.513	154.79
312.727	97.45
312.941	-21.33
313.154	105.64
313.368	134.31
313.582	83.11
313.796	105.64
314.009	27.82
314.223	91.31
314.437	99.5
314.651	-7
314.864	-41.81
315.078	13.48
315.292	-23.38
315.505	-7
315.719	72.87
315.933	-19.29
316.146	54.44
316.36	-99.16
316.573	60.59
316.787	113.83
317.001	-0.85
317.214	-13.14
317.428	40.11
317.641	27.82
317.855	-4.95
318.068	83.11
318.282	140.46
318.495	236.71
318.709	122.02
318.922	40.11
319.136	210.09
319.349	130.22
319.563	-17.24
319.776	70.83
319.99	-99.16
320.203	97.45
320.417	33.96
320.63	44.2
320.843	179.37
321.057	107.69
321.27	5.29
321.483	97.45
321.697	165.03
321.91	87.21
322.124	44.2
322.337	48.3
322.55	13.48
322.763	66.73
322.977	27.82
323.19	7.34
323.403	117.93
323.617	76.97
323.83	74.92
324.043	-11.09
324.256	99.5
324.469	-60.24
324.683	128.17
324.896	54.44
325.109	21.67
325.322	-29.52
325.535	117.93
325.748	74.92
325.962	-33.62
326.175	83.11
326.388	29.87
326.601	97.45
326.814	5.29
327.027	58.54
327.24	165.03
327.453	-93.01
327.666	87.21
327.879	115.88
328.092	93.35
328.305	173.22
328.518	-2.9
328.731	7.34
328.944	27.82
329.157	117.93
329.37	60.59
329.583	195.75
329.796	130.22
330.009	-39.76
330.222	54.44
330.435	31.91
330.648	48.3
330.861	40.11
331.073	99.5
331.286	126.12
331.499	85.16
331.712	19.63
331.925	93.35
332.138	9.39
332.35	101.55
332.563	-15.19
332.776	105.64
332.989	-13.14
333.202	-74.58
333.414	29.87
333.627	31.91
333.84	60.59
334.053	64.68
334.265	-19.29
334.478	31.91
334.691	42.15
334.903	52.39
335.116	9.39
335.329	58.54
335.541	38.06
335.754	109.74
335.966	-68.44
336.179	62.63
336.392	13.48
336.604	21.67
336.817	154.79
337.029	83.11
337.242	74.92
337.454	93.35
337.667	38.06
337.88	175.27
338.092	64.68
338.305	54.44
338.517	-9.05
338.729	38.06
338.942	99.5
339.154	-140.12
339.367	-52.05
339.579	109.74
339.792	-41.81
340.004	99.5
340.217	-9.05
340.429	91.31
340.641	-74.58
340.854	-27.48
341.066	19.63
341.278	109.74
341.491	130.22
341.703	27.82
341.915	-68.44
342.128	134.31
342.34	64.68
342.552	-70.48
342.764	74.92
342.977	-41.81
343.189	48.3
343.401	93.35
343.613	29.87
343.826	64.68
344.038	-35.67
344.25	54.44
344.462	-78.68
344.674	101.55
344.886	-37.72
345.099	19.63
345.311	148.65
345.523	46.25
345.735	-47.96
345.947	17.58
346.159	99.5
346.371	17.58
346.583	-2.9
346.795	216.23
347.007	-25.43
347.219	144.55
347.431	72.87
347.643	81.07
347.855	17.58
348.067	138.41
348.279	-13.14
348.491	117.93
348.703	103.59
348.915	56.49
349.127	9.39
349.339	11.43
349.551	-37.72
349.763	74.92
349.975	1.19
350.187	103.59
350.399	117.93
350.61	81.07
350.822	56.49
351.034	62.63
351.246	42.15
351.458	146.6
351.669	87.21
351.881	91.31
352.093	152.74
352.305	107.69
352.517	64.68
352.728	144.55
352.94	44.2
353.152	62.63
353.363	9.39
353.575	72.87
353.787	115.88
353.999	21.67
354.21	111.78
354.422	-62.29
354.633	-19.29
354.845	58.54
355.057	52.39
355.268	113.83
355.48	83.11
355.692	-47.96
355.903	-50
356.115	-41.81
356.326	-52.05
356.538	130.22
356.749	42.15
356.961	101.55
357.172	-2.9
357.384	-39.76
357.595	199.85
357.807	-19.29
358.018	13.48
358.23	79.02
358.441	105.64
358.653	107.69
358.864	17.58
359.075	-41.81
359.287	1.19
359.498	68.78
359.709	126.12
359.921	115.88
360.132	93.35
360.344	7.34
360.555	9.39
360.766	85.16
360.977	-13.14
361.189	122.02
361.4	7.34
361.611	103.59
361.823	122.02
362.034	48.3
362.245	-33.62
362.456	132.26
362.667	89.26
362.879	-9.05
363.09	70.83
363.301	119.98
363.512	23.72
363.723	17.58
363.935	-33.62
364.146	156.84
364.357	152.74
364.568	91.31
364.779	11.43
364.99	115.88
365.201	13.48
365.412	119.98
365.623	-41.81
365.834	70.83
366.045	21.67
366.256	218.28
366.467	160.94
366.678	21.67
366.889	85.16
367.1	5.29
367.311	99.5
367.522	79.02
367.733	48.3
367.944	91.31
368.155	15.53
368.366	36.01
368.577	109.74
368.788	146.6
368.999	52.39
369.209	83.11
369.42	246.95
369.631	234.66
369.842	105.64
370.053	3.24
370.264	50.35
370.474	66.73
370.685	115.88
370.896	50.35
371.107	142.5
371.317	-9.05
371.528	72.87
371.739	150.7
371.95	76.97
372.16	33.96
372.371	-4.95
372.582	-2.9
372.792	-23.38
373.003	91.31
373.214	66.73
373.424	91.31
373.635	-7
373.846	115.88
374.056	-4.95
374.267	48.3
374.477	44.2
374.688	-15.19
374.898	81.07
375.109	23.72
375.319	101.55
375.53	134.31
375.74	70.83
375.951	-58.2
376.161	138.41
376.372	85.16
376.582	38.06
376.793	-17.24
377.003	42.15
377.214	-23.38
377.424	17.58
377.635	97.45
377.845	25.77
378.055	132.26
378.266	3.24
378.476	56.49
378.686	72.87
378.897	54.44
379.107	119.98
379.317	167.08
379.528	-68.44
379.738	76.97
379.948	-64.34
380.158	165.03
380.369	29.87
380.579	109.74
380.789	70.83
380.999	38.06
381.21	138.41
381.42	185.51
381.63	70.83
381.84	113.83
382.05	56.49
382.261	167.08
382.471	130.22
382.681	-27.48
382.891	97.45
383.101	74.92
383.311	5.29
383.521	3.24
383.731	64.68
383.941	97.45
384.151	44.2
384.361	23.72
384.571	29.87
384.781	79.02
384.991	230.57
385.201	183.46
385.411	193.7
385.621	23.72
385.831	48.3
386.041	40.11
386.251	74.92
386.461	160.94
386.671	62.63
386.881	36.01
387.091	-29.52
387.301	95.4
387.511	13.48
387.72	68.78
387.93	99.5
388.14	-111.44
388.35	72.87
388.56	111.78
388.769	97.45
388.979	122.02
389.189	23.72
389.399	7.34
389.609	81.07
389.818	101.55
390.028	54.44
390.238	44.2
390.447	-43.86
390.657	7.34
390.867	48.3
391.076	3.24
391.286	36.01
391.496	99.5
391.705	29.87
391.915	132.26
392.125	150.7
392.334	23.72
392.544	87.21
392.753	60.59
392.963	-33.62
393.172	-17.24
393.382	-2.9
393.591	134.31
393.801	-11.09
394.01	167.08
394.22	113.83
394.429	36.01
394.639	11.43
394.848	33.96
395.058	40.11
395.267	117.93
395.477	97.45
395.686	64.68
395.895	140.46
396.105	152.74
396.314	81.07
396.524	58.54
396.733	54.44
396.942	76.97
397.152	36.01
397.361	156.84
397.57	-13.14
397.78	58.54
397.989	23.72
398.198	265.38
398.407	42.15
398.617	31.91
398.826	25.77
399.035	58.54
399.244	150.7
399.453	76.97
399.663	54.44
399.872	25.77
400.081	-45.91
400.29	171.18
400.499	38.06
400.708	105.64
400.917	87.21
401.127	31.91
401.336	19.63
401.545	179.37
401.754	103.59
401.963	46.25
402.172	60.59
402.381	-23.38
402.59	89.26
402.799	-35.67
403.008	160.94
403.217	119.98
403.426	117.93
403.635	-119.64
403.844	89.26
404.053	15.53
404.262	44.2
404.471	191.66
404.68	146.6
404.888	31.91
405.097	-25.43
405.306	33.96
405.515	46.25
405.724	-11.09
405.933	179.37
406.142	122.02
406.35	124.07
406.559	44.2
406.768	60.59
406.977	142.5
407.185	105.64
407.394	183.46
407.603	-29.52
407.812	119.98
408.02	68.78
408.229	113.83
408.438	7.34
408.646	-31.57
408.855	60.59
409.064	148.65
409.272	25.77
409.481	72.87
409.69	-76.63
409.898	3.24
410.107	109.74
410.315	132.26
410.524	15.53
410.733	40.11
410.941	93.35
411.15	117.93
411.358	105.64
411.567	181.42
411.775	15.53
411.984	13.48
412.192	68.78
412.401	-33.62
412.609	156.84
412.818	158.89
413.026	113.83
413.234	-0.85
413.443	56.49
413.651	-52.05
413.86	1.19
414.068	103.59
414.276	224.42
414.485	17.58
414.693	173.22
414.901	228.52
415.11	89.26
415.318	68.78
415.526	85.16
415.734	105.64
415.943	40.11
416.151	91.31
416.359	23.72
416.567	76.97
416.776	167.08
416.984	177.32
417.192	232.62
417.4	9.39
417.608	29.87
417.817	-19.29
418.025	152.74
418.233	142.5
418.441	5.29
418.649	-27.48
418.857	23.72
419.065	134.31
419.273	-4.95
419.481	-21.33
419.689	79.02
419.897	-17.24
420.105	27.82
420.313	119.98
420.521	210.09
420.729	177.32
420.937	15.53
421.145	-0.85
421.353	142.5
421.561	189.61
421.769	-9.05
421.977	44.2
422.185	111.78
422.393	93.35
422.601	103.59
422.809	17.58
423.017	85.16
423.224	31.91
423.432	148.65
423.64	74.92
423.848	72.87
424.056	-2.9
424.263	136.36
424.471	36.01
424.679	208.04
424.887	-21.33
425.094	140.46
425.302	97.45
425.51	13.48
425.718	169.13
425.925	97.45
426.133	-41.81
426.341	195.75
426.548	99.5
426.756	25.77
426.964	142.5
427.171	21.67
427.379	146.6
427.586	23.72
427.794	95.4
428.001	105.64
428.209	156.84
428.417	154.79
428.624	181.42
428.832	122.02
429.039	87.21
429.247	62.63
429.454	132.26
429.662	222.38
429.869	126.12
430.076	101.55
430.284	162.98
430.491	308.39
430.699	66.73
430.906	240.81
431.114	160.94
431.321	150.7
431.528	83.11
431.736	197.8
431.943	195.75
432.15	156.84
432.358	203.94
432.565	294.05
432.772	13.48
432.979	109.74
433.187	152.74
433.394	222.38
433.601	148.65
433.808	222.38
434.016	263.33
434.223	224.42
434.43	183.46
434.637	242.85
434.844	257.19
435.052	199.85
435.259	269.48
435.466	289.96
435.673	208.04
435.88	220.33
436.087	314.53
436.294	382.12
436.501	339.11
436.708	332.97
436.915	345.25
437.122	400.55
437.329	199.85
437.537	365.73
437.743	349.35
437.95	451.75
438.157	447.65
438.364	322.73
438.571	382.12
438.778	472.23
438.985	380.07
439.192	418.98
439.399	435.36
439.606	408.74
439.813	468.13
440.02	552.1
440.227	683.17
440.433	564.39
440.64	504.99
440.847	556.19
441.054	621.73
441.261	683.17
441.467	648.35
441.674	584.87
441.881	699.55
442.088	634.02
442.294	789.66
442.501	836.77
442.708	767.13
442.914	744.61
443.121	820.38
443.328	804
443.534	844.96
443.741	863.39
443.948	773.28
444.154	984.22
444.361	1047.71
444.568	908.44
444.774	926.88
444.981	920.73
445.187	1129.63
445.394	1117.34
445.6	1092.76
445.807	1295.51
446.013	1311.89
446.22	1158.3
446.426	1336.47
446.633	1438.87
446.839	1565.84
447.046	1344.66
447.252	1606.8
447.459	1490.07
447.665	1645.71
447.871	1834.13
448.078	1887.37
448.284	1799.31
448.491	1928.33
448.697	2092.17
448.903	2075.79
449.11	2167.95
449.316	2036.88
449.522	2253.96
449.728	2440.33
449.935	2444.42
450.141	2378.89
450.347	2585.73
450.553	2589.83
450.76	2653.31
450.966	2786.43
451.172	2892.93
451.378	3040.38
451.584	3030.14
451.791	3484.79
451.997	3310.71
452.203	3372.15
452.409	3642.48
452.615	3759.22
452.821	3638.39
453.027	3609.72
453.233	4291.69
453.44	4052.08
453.646	4129.9
453.852	4340.84
454.058	4584.55
454.264	4775.01
454.47	5014.62
454.676	5018.72
454.882	5467.22
455.088	5299.29
455.294	5747.79
455.5	5979.22
455.705	6333.51
455.911	6310.99
456.117	6456.39
456.323	6644.81
456.529	6640.71
456.735	7414.84
456.941	7255.1
457.147	7650.36
457.352	7941.17
457.558	8266.8
457.764	8680.49
457.97	8903.71
458.176	9208.86
458.381	9622.55
458.587	9808.92
458.793	10406.92
458.999	10505.23
459.204	11686.9
459.41	11977.72
459.616	11660.28
459.821	12635.11
460.027	13116.39
460.233	13583.32
460.438	13734.87
460.644	14556.11
460.85	14756.81
461.055	15156.16
461.261	15727.55
461.466	15698.88
461.672	15995.83
461.878	17867.67
462.083	17654.69
462.289	18088.85
462.494	18457.49
462.7	19055.5
462.905	19329.92
463.111	20632.43
463.316	21713.76
463.522	22184.79
463.727	22582.1
463.932	23591.75
464.138	24709.94
464.343	25449.25
464.549	25574.18
464.754	27353.87
464.959	27968.26
465.165	28527.35
465.37	28517.11
465.575	28486.39
465.781	30143.2
465.986	31140.56
466.191	30669.53
466.397	31060.69
466.602	30753.49
466.807	31836.87
467.012	32475.84
467.218	33196.72
467.423	32910
467.628	34468.51
467.833	35916.42
468.038	35019.41
468.244	34640.54
468.449	36055.68
468.654	35369.61
