Data from USB4F104151__186__11-05-12-833.txt Node

Date: Wed Feb 26 11:05:12 EST 2025
User: louis
Spectrometer: USB4F10415
Trigger mode: 4
Integration Time (sec): 1.000000E-1
Scans to average: 1
Electric dark correction enabled: true
Nonlinearity correction enabled: false
Boxcar width: 0
XAxis mode: Wavelengths
Number of Pixels in Spectrum: 3648
>>>>>Begin Spectral Data<<<<<
178.204	-384.16
178.424	-384.16
178.644	-384.16
178.864	-404.64
179.084	-365.73
179.304	-7.34
179.524	-48.3
179.744	21.33
179.964	60.24
180.184	35.67
180.404	35.67
180.624	-42.15
180.844	39.76
181.064	-83.11
181.283	-9.39
181.503	-31.91
181.723	29.52
181.943	-85.16
182.163	207.7
182.383	66.39
182.602	-46.25
182.822	113.49
183.042	136.02
183.262	11.09
183.482	-52.39
183.701	-9.39
183.921	105.3
184.141	15.19
184.361	115.54
184.58	80.72
184.8	109.4
185.02	-70.83
185.239	93.01
185.459	123.73
185.679	117.59
185.898	7
186.118	78.68
186.338	52.05
186.557	162.64
186.777	-25.77
186.997	29.52
187.216	68.44
187.436	199.51
187.655	109.4
187.875	52.05
188.095	23.38
188.314	170.83
188.534	183.12
188.753	-27.82
188.973	88.92
189.192	140.12
189.412	33.62
189.631	13.14
189.851	90.96
190.07	136.02
190.29	-11.43
190.509	15.19
190.729	-19.63
190.948	90.96
191.168	148.31
191.387	62.29
191.607	-3.24
191.826	88.92
192.045	72.53
192.265	-5.29
192.484	50
192.704	4.95
192.923	-68.78
193.142	203.6
193.362	56.15
193.581	142.16
193.8	33.62
194.02	172.88
194.239	-23.72
194.458	97.11
194.678	17.24
194.897	2.9
195.116	78.68
195.335	76.63
195.555	97.11
195.774	11.09
195.993	27.48
196.212	56.15
196.432	31.57
196.651	45.91
196.87	-31.91
197.089	203.6
197.308	17.24
197.528	99.16
197.747	31.57
197.966	11.09
198.185	115.54
198.404	-13.48
198.623	166.74
198.842	60.24
199.062	86.87
199.281	62.29
199.5	52.05
199.719	86.87
199.938	111.44
200.157	50
200.376	97.11
200.595	156.5
200.814	37.72
201.033	-64.68
201.252	109.4
201.471	103.25
201.69	58.2
201.909	-7.34
202.128	119.64
202.347	60.24
202.566	-23.72
202.785	-21.67
203.004	7
203.223	328.53
203.442	39.76
203.661	-42.15
203.879	74.58
204.098	117.59
204.317	-42.15
204.536	66.39
204.755	13.14
204.974	95.06
205.193	23.38
205.411	158.55
205.63	150.36
205.849	70.48
206.068	29.52
206.287	-38.06
206.505	197.46
206.724	47.96
206.943	-3.24
207.162	11.09
207.381	84.82
207.599	37.72
207.818	93.01
208.037	-27.82
208.255	115.54
208.474	60.24
208.693	35.67
208.911	-44.2
209.13	52.05
209.349	39.76
209.567	64.34
209.786	90.96
210.005	41.81
210.223	17.24
210.442	-109.74
210.661	9.05
210.879	84.82
211.098	58.2
211.316	11.09
211.535	101.2
211.753	101.2
211.972	74.58
212.191	29.52
212.409	50
212.628	-9.39
212.846	-5.29
213.065	105.3
213.283	109.4
213.502	-21.67
213.72	72.53
213.938	58.2
214.157	-21.67
214.375	103.25
214.594	21.33
214.812	11.09
215.031	27.48
215.249	-19.63
215.467	66.39
215.686	88.92
215.904	35.67
216.122	-5.29
216.341	195.41
216.559	66.39
216.778	82.77
216.996	136.02
217.214	82.77
217.432	17.24
217.651	-107.69
217.869	23.38
218.087	0.85
218.306	-7.34
218.524	54.1
218.742	41.81
218.96	123.73
219.179	4.95
219.397	72.53
219.615	213.84
219.833	121.68
220.051	37.72
220.27	103.25
220.488	185.17
220.706	21.33
220.924	9.05
221.142	-46.25
221.36	105.3
221.578	56.15
221.796	66.39
222.015	0.85
222.233	-11.43
222.451	207.7
222.669	-33.96
222.887	33.62
223.105	-62.63
223.323	2.9
223.541	11.09
223.759	29.52
223.977	56.15
224.195	203.6
224.413	82.77
224.631	103.25
224.849	56.15
225.067	97.11
225.285	-54.44
225.503	-21.67
225.721	-183.46
225.939	93.01
226.157	11.09
226.375	234.32
226.592	-9.39
226.81	-5.29
227.028	113.49
227.246	88.92
227.464	45.91
227.682	90.96
227.9	33.62
228.117	142.16
228.335	64.34
228.553	52.05
228.771	21.33
228.989	105.3
229.206	99.16
229.424	0.85
229.642	27.48
229.86	13.14
230.077	168.79
230.295	23.38
230.513	66.39
230.731	66.39
230.948	115.54
231.166	123.73
231.384	35.67
231.601	35.67
231.819	179.03
232.037	-46.25
232.254	39.76
232.472	-9.39
232.689	4.95
232.907	4.95
233.125	9.05
233.342	-25.77
233.56	88.92
233.777	-9.39
233.995	-50.35
234.213	66.39
234.43	64.34
234.648	58.2
234.865	15.19
235.083	97.11
235.3	70.48
235.518	64.34
235.735	142.16
235.953	50
236.17	58.2
236.388	-15.53
236.605	31.57
236.822	82.77
237.04	101.2
237.257	54.1
237.475	-54.44
237.692	95.06
237.909	88.92
238.127	15.19
238.344	21.33
238.562	35.67
238.779	4.95
238.996	-89.26
239.214	7
239.431	66.39
239.648	17.24
239.865	82.77
240.083	11.09
240.3	82.77
240.517	25.43
240.735	101.2
240.952	236.37
241.169	68.44
241.386	93.01
241.603	39.76
241.821	-21.67
242.038	45.91
242.255	168.79
242.472	-54.44
242.689	68.44
242.907	35.67
243.124	90.96
243.341	-11.43
243.558	-9.39
243.775	-7.34
243.992	-83.11
244.209	86.87
244.426	166.74
244.643	115.54
244.86	74.58
245.078	41.81
245.295	21.33
245.512	56.15
245.729	2.9
245.946	54.1
246.163	133.97
246.38	-48.3
246.597	-42.15
246.814	54.1
247.031	7
247.248	0.85
247.464	82.77
247.681	45.91
247.898	60.24
248.115	47.96
248.332	-21.67
248.549	148.31
248.766	199.51
248.983	47.96
249.2	-1.19
249.417	37.72
249.633	7
249.85	37.72
250.067	60.24
250.284	21.33
250.501	56.15
250.717	101.2
250.934	-48.3
251.151	33.62
251.368	60.24
251.585	82.77
251.801	54.1
252.018	-56.49
252.235	90.96
252.451	-19.63
252.668	74.58
252.885	84.82
253.102	70.48
253.318	13.14
253.535	-9.39
253.752	-23.72
253.968	15.19
254.185	-81.07
254.401	41.81
254.618	88.92
254.835	-17.58
255.051	138.07
255.268	64.34
255.484	2.9
255.701	50
255.917	-3.24
256.134	-15.53
256.351	13.14
256.567	0.85
256.784	13.14
257	-113.83
257.217	41.81
257.433	86.87
257.65	93.01
257.866	31.57
258.082	-11.43
258.299	7
258.515	82.77
258.732	19.29
258.948	-44.2
259.165	7
259.381	-25.77
259.597	84.82
259.814	62.29
260.03	54.1
260.246	-29.87
260.463	174.93
260.679	166.74
260.895	35.67
261.112	-15.53
261.328	37.72
261.544	70.48
261.761	60.24
261.977	-36.01
262.193	-91.31
262.409	54.1
262.626	15.19
262.842	109.4
263.058	-21.67
263.274	158.55
263.49	58.2
263.707	136.02
263.923	90.96
264.139	-91.31
264.355	68.44
264.571	117.59
264.787	95.06
265.004	76.63
265.22	64.34
265.436	-79.02
265.652	74.58
265.868	56.15
266.084	-83.11
266.3	-5.29
266.516	-44.2
266.732	76.63
266.948	119.64
267.164	-25.77
267.38	11.09
267.596	50
267.812	238.42
268.028	80.72
268.244	43.86
268.46	97.11
268.676	-50.35
268.892	43.86
269.108	-3.24
269.324	-1.19
269.54	-46.25
269.756	72.53
269.972	-21.67
270.188	60.24
270.403	-9.39
270.619	58.2
270.835	41.81
271.051	41.81
271.267	78.68
271.483	4.95
271.698	133.97
271.914	88.92
272.13	15.19
272.346	21.33
272.562	15.19
272.777	82.77
272.993	41.81
273.209	-72.87
273.425	-3.24
273.64	-48.3
273.856	111.44
274.072	-70.83
274.287	0.85
274.503	103.25
274.719	33.62
274.934	-7.34
275.15	-44.2
275.366	-38.06
275.581	-79.02
275.797	2.9
276.012	103.25
276.228	-17.58
276.444	66.39
276.659	162.64
276.875	19.29
277.09	13.14
277.306	15.19
277.521	41.81
277.737	58.2
277.952	82.77
278.168	78.68
278.383	4.95
278.599	70.48
278.814	86.87
279.03	-3.24
279.245	131.92
279.461	68.44
279.676	84.82
279.892	-87.21
280.107	-56.49
280.322	17.24
280.538	60.24
280.753	-23.72
280.969	41.81
281.184	19.29
281.399	172.88
281.615	-29.87
281.83	25.43
282.045	-68.78
282.26	-27.82
282.476	47.96
282.691	111.44
282.906	27.48
283.122	60.24
283.337	-11.43
283.552	58.2
283.767	-9.39
283.983	95.06
284.198	-3.24
284.413	82.77
284.628	-17.58
284.843	-5.29
285.058	43.86
285.274	25.43
285.489	-15.53
285.704	109.4
285.919	-9.39
286.134	68.44
286.349	27.48
286.564	2.9
286.779	119.64
286.995	60.24
287.21	-25.77
287.425	119.64
287.64	11.09
287.855	39.76
288.07	-62.63
288.285	109.4
288.5	109.4
288.715	101.2
288.93	43.86
289.145	11.09
289.36	90.96
289.575	-21.67
289.79	187.22
290.004	-1.19
290.219	215.89
290.434	-5.29
290.649	0.85
290.864	-27.82
291.079	88.92
291.294	33.62
291.509	23.38
291.724	33.62
291.938	72.53
292.153	27.48
292.368	-31.91
292.583	39.76
292.798	162.64
293.012	-21.67
293.227	23.38
293.442	74.58
293.657	52.05
293.871	228.18
294.086	43.86
294.301	136.02
294.516	50
294.73	105.3
294.945	-56.49
295.16	52.05
295.374	113.49
295.589	119.64
295.804	-36.01
296.018	52.05
296.233	78.68
296.447	101.2
296.662	-25.77
296.877	160.59
297.091	123.73
297.306	-27.82
297.52	-52.39
297.735	107.35
297.949	58.2
298.164	-19.63
298.378	31.57
298.593	-19.63
298.807	-48.3
299.022	21.33
299.236	195.41
299.451	-36.01
299.665	31.57
299.88	-1.19
300.094	58.2
300.309	-11.43
300.523	13.14
300.737	54.1
300.952	27.48
301.166	101.2
301.381	7
301.595	29.52
301.809	25.43
302.024	-36.01
302.238	-62.63
302.452	119.64
302.667	54.1
302.881	133.97
303.095	43.86
303.309	181.07
303.524	2.9
303.738	54.1
303.952	60.24
304.166	-1.19
304.381	-58.54
304.595	113.49
304.809	-42.15
305.023	58.2
305.237	2.9
305.452	68.44
305.666	-7.34
305.88	133.97
306.094	150.36
306.308	-1.19
306.522	64.34
306.736	27.48
306.95	123.73
307.164	-9.39
307.379	-9.39
307.593	183.12
307.807	105.3
308.021	60.24
308.235	52.05
308.449	-38.06
308.663	-23.72
308.877	213.84
309.091	56.15
309.305	41.81
309.519	-50.35
309.733	76.63
309.947	-3.24
310.161	144.21
310.374	76.63
310.588	111.44
310.802	-15.53
311.016	-25.77
311.23	15.19
311.444	-25.77
311.658	68.44
311.872	101.2
312.085	150.36
312.299	156.5
312.513	90.96
312.727	140.12
312.941	60.24
313.154	33.62
313.368	47.96
313.582	4.95
313.796	88.92
314.009	60.24
314.223	144.21
314.437	15.19
314.651	99.16
314.864	27.48
315.078	-36.01
315.292	-64.68
315.505	-7.34
315.719	72.53
315.933	138.07
316.146	4.95
316.36	11.09
316.573	166.74
316.787	23.38
317.001	84.82
317.214	23.38
317.428	23.38
317.641	17.24
317.855	15.19
318.068	95.06
318.282	56.15
318.495	170.83
318.709	45.91
318.922	66.39
319.136	172.88
319.349	146.26
319.563	107.35
319.776	179.03
319.99	-42.15
320.203	82.77
320.417	31.57
320.63	101.2
320.843	142.16
321.057	56.15
321.27	99.16
321.483	64.34
321.697	70.48
321.91	39.76
322.124	103.25
322.337	19.29
322.55	-27.82
322.763	123.73
322.977	-36.01
323.19	7
323.403	35.67
323.617	31.57
323.83	74.58
324.043	17.24
324.256	99.16
324.469	-107.69
324.683	95.06
324.896	-1.19
325.109	-36.01
325.322	-76.97
325.535	54.1
325.748	107.35
325.962	-3.24
326.175	82.77
326.388	113.49
326.601	45.91
326.814	9.05
327.027	-15.53
327.24	172.88
327.453	-44.2
327.666	52.05
327.879	129.88
328.092	181.07
328.305	140.12
328.518	-21.67
328.731	54.1
328.944	17.24
329.157	52.05
329.37	-89.26
329.583	209.75
329.796	224.08
330.009	-95.4
330.222	90.96
330.435	103.25
330.648	113.49
330.861	-3.24
331.073	99.16
331.286	35.67
331.499	103.25
331.712	27.48
331.925	27.48
332.138	76.63
332.35	29.52
332.563	-9.39
332.776	93.01
332.989	-5.29
333.202	13.14
333.414	78.68
333.627	19.29
333.84	35.67
334.053	-1.19
334.265	29.52
334.478	17.24
334.691	7
334.903	58.2
335.116	-56.49
335.329	15.19
335.541	74.58
335.754	152.4
335.966	-23.72
336.179	-3.24
336.392	-9.39
336.604	45.91
336.817	74.58
337.029	123.73
337.242	-3.24
337.454	82.77
337.667	52.05
337.88	140.12
338.092	-7.34
338.305	111.44
338.517	-11.43
338.729	99.16
338.942	95.06
339.154	-81.07
339.367	-29.87
339.579	58.2
339.792	47.96
340.004	19.29
340.217	19.29
340.429	39.76
340.641	-40.11
340.854	-36.01
341.066	11.09
341.278	140.12
341.491	150.36
341.703	70.48
341.915	-15.53
342.128	140.12
342.34	76.63
342.552	21.33
342.764	56.15
342.977	-1.19
343.189	133.97
343.401	84.82
343.613	-95.4
343.826	52.05
344.038	19.29
344.25	43.86
344.462	13.14
344.674	17.24
344.886	21.33
345.099	56.15
345.311	0.85
345.523	-21.67
345.735	27.48
345.947	47.96
346.159	45.91
346.371	45.91
346.583	-54.44
346.795	213.84
347.007	25.43
347.219	29.52
347.431	41.81
347.643	172.88
347.855	58.2
348.067	93.01
348.279	-23.72
348.491	45.91
348.703	60.24
348.915	39.76
349.127	-1.19
349.339	54.1
349.551	13.14
349.763	62.29
349.975	-13.48
350.187	99.16
350.399	93.01
350.61	70.48
350.822	39.76
351.034	-29.87
351.246	9.05
351.458	101.2
351.669	76.63
351.881	136.02
352.093	82.77
352.305	146.26
352.517	80.72
352.728	154.45
352.94	105.3
353.152	60.24
353.363	-50.35
353.575	35.67
353.787	133.97
353.999	52.05
354.21	162.64
354.422	-97.45
354.633	47.96
354.845	47.96
355.057	29.52
355.268	23.38
355.48	-11.43
355.692	-3.24
355.903	21.33
356.115	-25.77
356.326	-76.97
356.538	174.93
356.749	86.87
356.961	207.7
357.172	7
357.384	-31.91
357.595	164.69
357.807	21.33
358.018	72.53
358.23	88.92
358.441	291.66
358.653	45.91
358.864	17.24
359.075	-7.34
359.287	60.24
359.498	113.49
359.709	115.54
359.921	82.77
360.132	88.92
360.344	19.29
360.555	-9.39
360.766	88.92
360.977	-11.43
361.189	193.36
361.4	-27.82
361.611	150.36
361.823	101.2
362.034	103.25
362.245	-29.87
362.456	33.62
362.667	78.68
362.879	-25.77
363.09	43.86
363.301	9.05
363.512	78.68
363.723	2.9
363.935	-42.15
364.146	164.69
364.357	-27.82
364.568	107.35
364.779	-68.78
364.99	95.06
365.201	-42.15
365.412	111.44
365.623	-23.72
365.834	82.77
366.045	70.48
366.256	101.2
366.467	-9.39
366.678	23.38
366.889	133.97
367.1	45.91
367.311	168.79
367.522	43.86
367.733	117.59
367.944	43.86
368.155	66.39
368.366	113.49
368.577	148.31
368.788	70.48
368.999	-60.59
369.209	13.14
369.42	244.56
369.631	162.64
369.842	62.29
370.053	78.68
370.264	82.77
370.474	56.15
370.685	0.85
370.896	70.48
371.107	97.11
371.317	4.95
371.528	78.68
371.739	136.02
371.95	119.64
372.16	39.76
372.371	-85.16
372.582	33.62
372.792	88.92
373.003	125.78
373.214	64.34
373.424	25.43
373.635	13.14
373.846	97.11
374.056	25.43
374.267	146.26
374.477	140.12
374.688	-13.48
374.898	-1.19
375.109	115.54
375.319	-9.39
375.53	133.97
375.74	142.16
375.951	52.05
376.161	31.57
376.372	125.78
376.582	25.43
376.793	99.16
377.003	-19.63
377.214	15.19
377.424	107.35
377.635	-1.19
377.845	-70.83
378.055	162.64
378.266	-48.3
378.476	58.2
378.686	97.11
378.897	138.07
379.107	138.07
379.317	56.15
379.528	17.24
379.738	80.72
379.948	-13.48
380.158	162.64
380.369	33.62
380.579	66.39
380.789	19.29
380.999	103.25
381.21	86.87
381.42	179.03
381.63	31.57
381.84	105.3
382.05	43.86
382.261	121.68
382.471	158.55
382.681	84.82
382.891	123.73
383.101	82.77
383.311	-60.59
383.521	-33.96
383.731	50
383.941	101.2
384.151	33.62
384.361	-48.3
384.571	99.16
384.781	80.72
384.991	185.17
385.201	162.64
385.411	138.07
385.621	70.48
385.831	2.9
386.041	-13.48
386.251	-1.19
386.461	172.88
386.671	9.05
386.881	15.19
387.091	-36.01
387.301	138.07
387.511	19.29
387.72	41.81
387.93	78.68
388.14	-76.97
388.35	11.09
388.56	50
388.769	142.16
388.979	-17.58
389.189	23.38
389.399	101.2
389.609	47.96
389.818	60.24
390.028	101.2
390.238	115.54
390.447	-25.77
390.657	11.09
390.867	50
391.076	-60.59
391.286	41.81
391.496	37.72
391.705	-31.91
391.915	142.16
392.125	84.82
392.334	-13.48
392.544	150.36
392.753	90.96
392.963	-27.82
393.172	45.91
393.382	23.38
393.591	160.59
393.801	7
394.01	215.89
394.22	52.05
394.429	-3.24
394.639	-11.43
394.848	39.76
395.058	-19.63
395.267	35.67
395.477	82.77
395.686	56.15
395.895	273.23
396.105	162.64
396.314	35.67
396.524	-21.67
396.733	-38.06
396.942	64.34
397.152	88.92
397.361	129.88
397.57	90.96
397.78	62.29
397.989	78.68
398.198	246.61
398.407	-13.48
398.617	-3.24
398.826	21.33
399.035	4.95
399.244	162.64
399.453	50
399.663	-3.24
399.872	119.64
400.081	-105.64
400.29	156.5
400.499	23.38
400.708	125.78
400.917	41.81
401.127	2.9
401.336	70.48
401.545	33.62
401.754	99.16
401.963	107.35
402.172	0.85
402.381	-1.19
402.59	31.57
402.799	64.34
403.008	101.2
403.217	45.91
403.426	111.44
403.635	-15.53
403.844	62.29
404.053	19.29
404.262	0.85
404.471	162.64
404.68	138.07
404.888	50
405.097	-13.48
405.306	58.2
405.515	127.83
405.724	-7.34
405.933	136.02
406.142	58.2
406.35	140.12
406.559	21.33
406.768	41.81
406.977	156.5
407.185	97.11
407.394	115.54
407.603	-83.11
407.812	111.44
408.02	99.16
408.229	68.44
408.438	58.2
408.646	-31.91
408.855	105.3
409.064	103.25
409.272	41.81
409.481	74.58
409.69	58.2
409.898	0.85
410.107	80.72
410.315	88.92
410.524	-5.29
410.733	113.49
410.941	25.43
411.15	121.68
411.358	97.11
411.567	185.17
411.775	9.05
411.984	70.48
412.192	84.82
412.401	15.19
412.609	199.51
412.818	129.88
413.026	121.68
413.234	37.72
413.443	52.05
413.651	60.24
413.86	60.24
414.068	176.98
414.276	140.12
414.485	21.33
414.693	154.45
414.901	201.55
415.11	62.29
415.318	101.2
415.526	56.15
415.734	74.58
415.943	58.2
416.151	136.02
416.359	88.92
416.567	-7.34
416.776	76.63
416.984	125.78
417.192	197.46
417.4	15.19
417.608	-5.29
417.817	25.43
418.025	119.64
418.233	181.07
418.441	-5.29
418.649	-66.73
418.857	52.05
419.065	95.06
419.273	25.43
419.481	64.34
419.689	58.2
419.897	56.15
420.105	-60.59
420.313	103.25
420.521	172.88
420.729	181.07
420.937	9.05
421.145	82.77
421.353	142.16
421.561	164.69
421.769	-3.24
421.977	-11.43
422.185	181.07
422.393	41.81
422.601	76.63
422.809	80.72
423.017	99.16
423.224	80.72
423.432	131.92
423.64	82.77
423.848	142.16
424.056	-15.53
424.263	76.63
424.471	-3.24
424.679	142.16
424.887	-5.29
425.094	101.2
425.302	146.26
425.51	64.34
425.718	107.35
425.925	76.63
426.133	-21.67
426.341	201.55
426.548	93.01
426.756	117.59
426.964	117.59
427.171	45.91
427.379	-5.29
427.586	88.92
427.794	119.64
428.001	162.64
428.209	107.35
428.417	199.51
428.624	109.4
428.832	179.03
429.039	150.36
429.247	117.59
429.454	129.88
429.662	230.23
429.869	125.78
430.076	64.34
430.284	90.96
430.491	154.45
430.699	154.45
430.906	166.74
431.114	174.93
431.321	140.12
431.528	129.88
431.736	113.49
431.943	123.73
432.15	195.41
432.358	265.04
432.565	228.18
432.772	21.33
432.979	195.41
433.187	174.93
433.394	181.07
433.601	84.82
433.808	217.94
434.016	326.48
434.223	244.56
434.43	166.74
434.637	121.68
434.844	336.72
435.052	228.18
435.259	324.43
435.466	209.75
435.673	232.27
435.88	205.65
436.087	318.29
436.294	344.91
436.501	320.34
436.708	172.88
436.915	205.65
437.122	312.14
437.329	242.51
437.537	303.95
437.743	334.67
437.95	445.26
438.157	336.72
438.364	340.82
438.571	379.73
438.778	420.69
438.985	394.06
439.192	445.26
439.399	416.59
439.606	467.79
439.813	514.89
440.02	592.72
440.227	566.09
440.433	518.99
440.64	549.71
440.847	414.54
441.054	568.14
441.261	715.59
441.467	633.68
441.674	506.7
441.881	592.72
442.088	686.92
442.294	609.1
442.501	680.78
442.708	799.56
442.914	600.91
443.121	793.42
443.328	791.37
443.534	815.94
443.741	795.47
443.948	695.11
444.154	863.05
444.361	1235.78
444.568	936.78
444.774	961.35
444.981	885.58
445.187	1147.72
445.394	1076.04
445.6	1057.61
445.807	1231.68
446.013	1129.28
446.22	1125.19
446.426	1268.55
446.633	1325.89
446.839	1563.45
447.046	1303.36
447.252	1583.93
447.459	1612.6
447.665	1477.44
447.871	1704.76
448.078	1803.07
448.284	1870.65
448.491	1794.87
448.697	1813.31
448.903	2091.83
449.11	1977.14
449.316	2016.05
449.522	2298.67
449.728	2259.76
449.935	2284.34
450.141	2341.68
450.347	2546.48
450.553	2487.09
450.76	2485.04
450.966	2781.99
451.172	2808.62
451.378	3003.18
451.584	3107.62
451.791	3089.19
451.997	3291.94
452.203	3390.24
452.409	3541.79
452.615	3670.81
452.821	3605.28
453.027	3603.23
453.233	3953.43
453.44	3990.3
453.646	4205.33
453.852	4193.05
454.058	4555.54
454.264	4653.84
454.47	5016.33
454.676	4819.72
454.882	5483.27
455.088	5255.94
455.294	5444.35
455.5	5737.21
455.705	6202.1
455.911	6101.75
456.117	6335.22
456.323	6730.48
456.529	6619.89
456.735	7111.4
456.941	7244.52
457.147	7690.98
457.352	7846.62
457.558	8096.47
457.764	8575.7
457.97	8803.02
458.176	8997.58
458.381	9446.09
458.587	9491.14
458.793	10140.35
458.999	10158.78
459.204	11244.2
459.41	11989.66
459.616	11719.33
459.821	12417.69
460.027	13015.69
460.233	13443.72
460.438	13714.05
460.644	14477.94
460.85	14520.95
461.055	15096.43
461.261	15538.79
461.466	15389.29
461.672	15571.56
461.878	17588.81
462.083	17560.14
462.289	17777.22
462.494	18649.66
462.7	18475.58
462.905	18854.45
463.111	20679.19
463.316	21424.65
463.522	21658.12
463.727	22508.03
463.932	23144.95
464.138	24297.95
464.343	25192.92
464.549	25338.32
464.754	27136.44
464.959	27705.77
465.165	28283.3
465.37	27920.81
465.575	28125.61
465.781	29880.72
465.986	30912.89
466.191	30409.09
466.397	30654.85
466.602	30079.37
466.807	31709.55
467.012	32143.72
467.218	32964.96
467.423	33147.23
467.628	34181.45
467.833	35135.81
468.038	34853.19
468.244	33804.63
468.449	35954.99
468.654	35033.41
468.859	35096.89
469.064	35338.55
469.269	34095.44
469.474	34593.09
