Data from USB4F104151__15__10-41-48-386.txt Node

Date: Wed Feb 26 10:41:48 EST 2025
User: louis
Spectrometer: USB4F10415
Trigger mode: 4
Integration Time (sec): 1.000000E-1
Scans to average: 1
Electric dark correction enabled: true
Nonlinearity correction enabled: false
Boxcar width: 0
XAxis mode: Wavelengths
Number of Pixels in Spectrum: 3648
>>>>>Begin Spectral Data<<<<<
178.204	-406.69
178.424	-406.69
178.644	-406.69
178.864	-400.55
179.084	-437.41
179.304	4.95
179.524	0.85
179.744	21.33
179.964	62.29
180.184	43.86
180.404	-23.72
180.624	0.85
180.844	39.76
181.064	-29.87
181.283	-52.39
181.503	-103.59
181.723	35.67
181.943	-60.59
182.163	211.79
182.383	39.76
182.602	35.67
182.822	224.08
183.042	88.92
183.262	-52.39
183.482	60.24
183.701	2.9
183.921	37.72
184.141	-52.39
184.361	78.68
184.58	66.39
184.8	88.92
185.02	-21.67
185.239	156.5
185.459	58.2
185.679	150.36
185.898	-87.21
186.118	107.35
186.338	82.77
186.557	142.16
186.777	-68.78
186.997	25.43
187.216	47.96
187.436	197.46
187.655	23.38
187.875	64.34
188.095	54.1
188.314	142.16
188.534	93.01
188.753	-64.68
188.973	90.96
189.192	238.42
189.412	37.72
189.631	35.67
189.851	125.78
190.07	140.12
190.29	-48.3
190.509	31.57
190.729	37.72
190.948	148.31
191.168	277.33
191.387	82.77
191.607	11.09
191.826	60.24
192.045	37.72
192.265	37.72
192.484	144.21
192.704	88.92
192.923	-62.63
193.142	150.36
193.362	201.55
193.581	78.68
193.8	148.31
194.02	111.44
194.239	45.91
194.458	2.9
194.678	-1.19
194.897	25.43
195.116	74.58
195.335	144.21
195.555	88.92
195.774	-64.68
195.993	80.72
196.212	88.92
196.432	37.72
196.651	31.57
196.87	31.57
197.089	258.9
197.308	23.38
197.528	72.53
197.747	-9.39
197.966	60.24
198.185	123.73
198.404	-33.96
198.623	117.59
198.842	133.97
199.062	129.88
199.281	156.5
199.5	-33.96
199.719	95.06
199.938	80.72
200.157	66.39
200.376	115.54
200.595	113.49
200.814	107.35
201.033	-23.72
201.252	258.9
201.471	54.1
201.69	119.64
201.909	7
202.128	105.3
202.347	68.44
202.566	13.14
202.785	-21.67
203.004	15.19
203.223	273.23
203.442	-9.39
203.661	-17.58
203.879	105.3
204.098	166.74
204.317	-5.29
204.536	90.96
204.755	64.34
204.974	127.83
205.193	68.44
205.411	125.78
205.63	80.72
205.849	66.39
206.068	-36.01
206.287	2.9
206.505	162.64
206.724	-29.87
206.943	-9.39
207.162	54.1
207.381	95.06
207.599	47.96
207.818	31.57
208.037	31.57
208.255	119.64
208.474	64.34
208.693	70.48
208.911	27.48
209.13	72.53
209.349	70.48
209.567	170.83
209.786	43.86
210.005	158.55
210.223	29.52
210.442	-42.15
210.661	119.64
210.879	50
211.098	-5.29
211.316	43.86
211.535	78.68
211.753	37.72
211.972	115.54
212.191	47.96
212.409	-21.67
212.628	119.64
212.846	25.43
213.065	43.86
213.283	148.31
213.502	47.96
213.72	103.25
213.938	62.29
214.157	58.2
214.375	95.06
214.594	35.67
214.812	-5.29
215.031	27.48
215.249	76.63
215.467	11.09
215.686	17.24
215.904	19.29
216.122	52.05
216.341	213.84
216.559	88.92
216.778	60.24
216.996	138.07
217.214	84.82
217.432	23.38
217.651	-91.31
217.869	29.52
218.087	50
218.306	27.48
218.524	33.62
218.742	39.76
218.96	80.72
219.179	21.33
219.397	41.81
219.615	205.65
219.833	121.68
220.051	-60.59
220.27	172.88
220.488	146.26
220.706	86.87
220.924	0.85
221.142	-27.82
221.36	107.35
221.578	84.82
221.796	39.76
222.015	50
222.233	54.1
222.451	121.68
222.669	-83.11
222.887	72.53
223.105	-27.82
223.323	41.81
223.541	-23.72
223.759	39.76
223.977	76.63
224.195	262.99
224.413	97.11
224.631	129.88
224.849	105.3
225.067	199.51
225.285	-9.39
225.503	68.44
225.721	-70.83
225.939	35.67
226.157	113.49
226.375	168.79
226.592	19.29
226.81	60.24
227.028	107.35
227.246	170.83
227.464	78.68
227.682	2.9
227.9	80.72
228.117	115.54
228.335	68.44
228.553	45.91
228.771	107.35
228.989	19.29
229.206	76.63
229.424	-81.07
229.642	13.14
229.86	19.29
230.077	174.93
230.295	45.91
230.513	52.05
230.731	50
230.948	170.83
231.166	179.03
231.384	31.57
231.601	-62.63
231.819	156.5
232.037	23.38
232.254	64.34
232.472	95.06
232.689	33.62
232.907	123.73
233.125	31.57
233.342	-62.63
233.56	-5.29
233.777	-23.72
233.995	17.24
234.213	95.06
234.43	203.6
234.648	41.81
234.865	41.81
235.083	127.83
235.3	111.44
235.518	82.77
235.735	176.98
235.953	62.29
236.17	56.15
236.388	-13.48
236.605	41.81
236.822	168.79
237.04	64.34
237.257	37.72
237.475	-5.29
237.692	47.96
237.909	86.87
238.127	-5.29
238.344	99.16
238.562	80.72
238.779	39.76
238.996	17.24
239.214	45.91
239.431	127.83
239.648	33.62
239.865	162.64
240.083	121.68
240.3	21.33
240.517	86.87
240.735	74.58
240.952	129.88
241.169	164.69
241.386	187.22
241.603	54.1
241.821	-1.19
242.038	101.2
242.255	121.68
242.472	17.24
242.689	66.39
242.907	74.58
243.124	56.15
243.341	29.52
243.558	-17.58
243.775	-58.54
243.992	-83.11
244.209	66.39
244.426	148.31
244.643	70.48
244.86	25.43
245.078	121.68
245.295	80.72
245.512	97.11
245.729	62.29
245.946	111.44
246.163	58.2
246.38	66.39
246.597	21.33
246.814	76.63
247.031	2.9
247.248	-21.67
247.464	127.83
247.681	62.29
247.898	66.39
248.115	109.4
248.332	-23.72
248.549	191.31
248.766	142.16
248.983	45.91
249.2	156.5
249.417	93.01
249.633	-38.06
249.85	82.77
250.067	25.43
250.284	105.3
250.501	60.24
250.717	121.68
250.934	-23.72
251.151	86.87
251.368	68.44
251.585	84.82
251.801	52.05
252.018	17.24
252.235	58.2
252.451	-36.01
252.668	62.29
252.885	183.12
253.102	66.39
253.318	-13.48
253.535	45.91
253.752	-23.72
253.968	4.95
254.185	-15.53
254.401	138.07
254.618	19.29
254.835	27.48
255.051	168.79
255.268	162.64
255.484	56.15
255.701	41.81
255.917	45.91
256.134	-15.53
256.351	35.67
256.567	41.81
256.784	27.48
257	-48.3
257.217	125.78
257.433	133.97
257.65	144.21
257.866	97.11
258.082	-19.63
258.299	-83.11
258.515	74.58
258.732	23.38
258.948	-50.35
259.165	37.72
259.381	-21.67
259.597	95.06
259.814	80.72
260.03	138.07
260.246	72.53
260.463	54.1
260.679	97.11
260.895	109.4
261.112	72.53
261.328	21.33
261.544	-36.01
261.761	215.89
261.977	-21.67
262.193	68.44
262.409	136.02
262.626	39.76
262.842	93.01
263.058	9.05
263.274	142.16
263.49	74.58
263.707	54.1
263.923	123.73
264.139	-117.93
264.355	43.86
264.571	170.83
264.787	13.14
265.004	111.44
265.22	62.29
265.436	33.62
265.652	21.33
265.868	97.11
266.084	-83.11
266.3	4.95
266.516	-13.48
266.732	90.96
266.948	35.67
267.164	15.19
267.38	127.83
267.596	52.05
267.812	211.79
268.028	4.95
268.244	33.62
268.46	39.76
268.676	97.11
268.892	125.78
269.108	-5.29
269.324	-21.67
269.54	7
269.756	84.82
269.972	-13.48
270.188	68.44
270.403	-119.98
270.619	-42.15
270.835	146.26
271.051	29.52
271.267	4.95
271.483	13.14
271.698	80.72
271.914	68.44
272.13	62.29
272.346	37.72
272.562	86.87
272.777	150.36
272.993	2.9
273.209	15.19
273.425	142.16
273.64	-21.67
273.856	113.49
274.072	2.9
274.287	54.1
274.503	107.35
274.719	68.44
274.934	-11.43
275.15	-40.11
275.366	7
275.581	7
275.797	45.91
276.012	66.39
276.228	-7.34
276.444	33.62
276.659	99.16
276.875	58.2
277.09	109.4
277.306	-25.77
277.521	78.68
277.737	-7.34
277.952	148.31
278.168	127.83
278.383	99.16
278.599	121.68
278.814	150.36
279.03	-23.72
279.245	164.69
279.461	-11.43
279.676	64.34
279.892	-31.91
280.107	2.9
280.322	-11.43
280.538	-25.77
280.753	54.1
280.969	43.86
281.184	19.29
281.399	230.23
281.615	9.05
281.83	117.59
282.045	-42.15
282.26	25.43
282.476	146.26
282.691	150.36
282.906	131.92
283.122	99.16
283.337	39.76
283.552	99.16
283.767	13.14
283.983	99.16
284.198	25.43
284.413	117.59
284.628	-87.21
284.843	58.2
285.058	80.72
285.274	21.33
285.489	-21.67
285.704	125.78
285.919	-89.26
286.134	99.16
286.349	78.68
286.564	9.05
286.779	158.55
286.995	17.24
287.21	2.9
287.425	90.96
287.64	-15.53
287.855	82.77
288.07	-66.73
288.285	129.88
288.5	197.46
288.715	164.69
288.93	41.81
289.145	41.81
289.36	101.2
289.575	31.57
289.79	158.55
290.004	11.09
290.219	138.07
290.434	11.09
290.649	15.19
290.864	45.91
291.079	-46.25
291.294	37.72
291.509	54.1
291.724	74.58
291.938	-31.91
292.153	64.34
292.368	78.68
292.583	101.2
292.798	-7.34
293.012	93.01
293.227	72.53
293.442	47.96
293.657	82.77
293.871	60.24
294.086	47.96
294.301	138.07
294.516	117.59
294.73	88.92
294.945	23.38
295.16	47.96
295.374	113.49
295.589	103.25
295.804	15.19
296.018	-33.96
296.233	82.77
296.447	82.77
296.662	52.05
296.877	105.3
297.091	52.05
297.306	115.54
297.52	-9.39
297.735	99.16
297.949	50
298.164	68.44
298.378	74.58
298.593	66.39
298.807	-27.82
299.022	101.2
299.236	164.69
299.451	7
299.665	50
299.88	129.88
300.094	156.5
300.309	-1.19
300.523	50
300.737	-5.29
300.952	76.63
301.166	13.14
301.381	-122.02
301.595	31.57
301.809	58.2
302.024	2.9
302.238	23.38
302.452	129.88
302.667	54.1
302.881	144.21
303.095	127.83
303.309	78.68
303.524	-1.19
303.738	60.24
303.952	2.9
304.166	101.2
304.381	-15.53
304.595	193.36
304.809	-19.63
305.023	21.33
305.237	109.4
305.452	-17.58
305.666	45.91
305.88	78.68
306.094	152.4
306.308	97.11
306.522	127.83
306.736	90.96
306.95	80.72
307.164	80.72
307.379	56.15
307.593	211.79
307.807	201.55
308.021	138.07
308.235	164.69
308.449	-9.39
308.663	68.44
308.877	256.85
309.091	58.2
309.305	127.83
309.519	-50.35
309.733	191.31
309.947	-3.24
310.161	80.72
310.374	90.96
310.588	64.34
310.802	-44.2
311.016	90.96
311.23	129.88
311.444	-62.63
311.658	25.43
311.872	93.01
312.085	187.22
312.299	154.45
312.513	115.54
312.727	86.87
312.941	-36.01
313.154	115.54
313.368	103.25
313.582	82.77
313.796	99.16
314.009	58.2
314.223	119.64
314.437	121.68
314.651	156.5
314.864	-1.19
315.078	109.4
315.292	41.81
315.505	33.62
315.719	76.63
315.933	7
316.146	29.52
316.36	19.29
316.573	119.64
316.787	76.63
317.001	70.48
317.214	15.19
317.428	95.06
317.641	41.81
317.855	52.05
318.068	-5.29
318.282	60.24
318.495	140.12
318.709	66.39
318.922	50
319.136	183.12
319.349	133.97
319.563	21.33
319.776	88.92
319.99	-31.91
320.203	181.07
320.417	105.3
320.63	129.88
320.843	160.59
321.057	74.58
321.27	76.63
321.483	68.44
321.697	193.36
321.91	72.53
322.124	76.63
322.337	127.83
322.55	15.19
322.763	2.9
322.977	41.81
323.19	-56.49
323.403	86.87
323.617	95.06
323.83	162.64
324.043	27.48
324.256	52.05
324.469	27.48
324.683	115.54
324.896	56.15
325.109	41.81
325.322	-103.59
325.535	45.91
325.748	74.58
325.962	-27.82
326.175	-9.39
326.388	62.29
326.601	125.78
326.814	56.15
327.027	54.1
327.24	154.45
327.453	-15.53
327.666	35.67
327.879	189.27
328.092	90.96
328.305	95.06
328.518	-33.96
328.731	33.62
328.944	109.4
329.157	74.58
329.37	60.24
329.583	176.98
329.796	66.39
330.009	-64.68
330.222	140.12
330.435	21.33
330.648	119.64
330.861	70.48
331.073	117.59
331.286	95.06
331.499	25.43
331.712	-5.29
331.925	21.33
332.138	9.05
332.35	156.5
332.563	86.87
332.776	138.07
332.989	-27.82
333.202	90.96
333.414	29.52
333.627	-29.87
333.84	80.72
334.053	88.92
334.265	41.81
334.478	41.81
334.691	-7.34
334.903	50
335.116	-7.34
335.329	25.43
335.541	7
335.754	129.88
335.966	4.95
336.179	60.24
336.392	45.91
336.604	56.15
336.817	121.68
337.029	95.06
337.242	66.39
337.454	109.4
337.667	66.39
337.88	27.48
338.092	93.01
338.305	88.92
338.517	17.24
338.729	117.59
338.942	176.98
339.154	-11.43
339.367	-1.19
339.579	35.67
339.792	-1.19
340.004	142.16
340.217	109.4
340.429	148.31
340.641	-7.34
340.854	19.29
341.066	31.57
341.278	119.64
341.491	207.7
341.703	35.67
341.915	-60.59
342.128	133.97
342.34	84.82
342.552	74.58
342.764	7
342.977	17.24
343.189	80.72
343.401	41.81
343.613	29.52
343.826	37.72
344.038	11.09
344.25	68.44
344.462	-5.29
344.674	56.15
344.886	-27.82
345.099	105.3
345.311	95.06
345.523	21.33
345.735	-25.77
345.947	84.82
346.159	117.59
346.371	17.24
346.583	62.29
346.795	160.59
347.007	0.85
347.219	90.96
347.431	68.44
347.643	129.88
347.855	-31.91
348.067	158.55
348.279	-40.11
348.491	88.92
348.703	164.69
348.915	107.35
349.127	4.95
349.339	39.76
349.551	11.09
349.763	66.39
349.975	43.86
350.187	62.29
350.399	127.83
350.61	80.72
350.822	15.19
351.034	109.4
351.246	113.49
351.458	179.03
351.669	115.54
351.881	82.77
352.093	230.23
352.305	119.64
352.517	154.45
352.728	193.36
352.94	93.01
353.152	88.92
353.363	-42.15
353.575	86.87
353.787	273.23
353.999	47.96
354.21	109.4
354.422	-21.67
354.633	152.4
354.845	15.19
355.057	60.24
355.268	37.72
355.48	185.17
355.692	-87.21
355.903	99.16
356.115	-15.53
356.326	13.14
356.538	84.82
356.749	152.4
356.961	207.7
357.172	52.05
357.384	-25.77
357.595	250.71
357.807	90.96
358.018	-42.15
358.23	17.24
358.441	179.03
358.653	-19.63
358.864	90.96
359.075	-9.39
359.287	101.2
359.498	95.06
359.709	27.48
359.921	19.29
360.132	148.31
360.344	-3.24
360.555	58.2
360.766	133.97
360.977	27.48
361.189	160.59
361.4	-3.24
361.611	97.11
361.823	113.49
362.034	129.88
362.245	-17.58
362.456	72.53
362.667	115.54
362.879	-27.82
363.09	74.58
363.301	54.1
363.512	31.57
363.723	52.05
363.935	-19.63
364.146	119.64
364.357	43.86
364.568	101.2
364.779	27.48
364.99	174.93
365.201	50
365.412	121.68
365.623	7
365.834	103.25
366.045	64.34
366.256	129.88
366.467	170.83
366.678	7
366.889	76.63
367.1	-11.43
367.311	90.96
367.522	90.96
367.733	54.1
367.944	97.11
368.155	52.05
368.366	66.39
368.577	86.87
368.788	140.12
368.999	-11.43
369.209	50
369.42	230.23
369.631	244.56
369.842	144.21
370.053	-5.29
370.264	189.27
370.474	-56.49
370.685	84.82
370.896	9.05
371.107	144.21
371.317	115.54
371.528	86.87
371.739	129.88
371.95	133.97
372.16	50
372.371	-9.39
372.582	-56.49
372.792	45.91
373.003	39.76
373.214	-17.58
373.424	86.87
373.635	13.14
373.846	154.45
374.056	123.73
374.267	115.54
374.477	146.26
374.688	29.52
374.898	33.62
375.109	50
375.319	35.67
375.53	185.17
375.74	70.48
375.951	23.38
376.161	78.68
376.372	172.88
376.582	13.14
376.793	64.34
377.003	19.29
377.214	19.29
377.424	113.49
377.635	56.15
377.845	25.43
378.055	123.73
378.266	13.14
378.476	50
378.686	80.72
378.897	80.72
379.107	109.4
379.317	127.83
379.528	41.81
379.738	121.68
379.948	-19.63
380.158	117.59
380.369	-7.34
380.579	138.07
380.789	99.16
380.999	144.21
381.21	95.06
381.42	306
381.63	62.29
381.84	74.58
382.05	17.24
382.261	199.51
382.471	158.55
382.681	-5.29
382.891	162.64
383.101	76.63
383.311	-119.98
383.521	-17.58
383.731	148.31
383.941	119.64
384.151	27.48
384.361	64.34
384.571	109.4
384.781	136.02
384.991	140.12
385.201	103.25
385.411	201.55
385.621	84.82
385.831	150.36
386.041	-29.87
386.251	4.95
386.461	82.77
386.671	-33.96
386.881	39.76
387.091	56.15
387.301	148.31
387.511	129.88
387.72	23.38
387.93	97.11
388.14	-42.15
388.35	84.82
388.56	125.78
388.769	150.36
388.979	84.82
389.189	-21.67
389.399	103.25
389.609	181.07
389.818	166.74
390.028	0.85
390.238	109.4
390.447	-17.58
390.657	31.57
390.867	43.86
391.076	-44.2
391.286	70.48
391.496	39.76
391.705	72.53
391.915	148.31
392.125	158.55
392.334	-7.34
392.544	136.02
392.753	23.38
392.963	13.14
393.172	95.06
393.382	43.86
393.591	217.94
393.801	0.85
394.01	211.79
394.22	45.91
394.429	99.16
394.639	13.14
394.848	88.92
395.058	68.44
395.267	62.29
395.477	95.06
395.686	31.57
395.895	213.84
396.105	136.02
396.314	64.34
396.524	72.53
396.733	47.96
396.942	138.07
397.152	166.74
397.361	123.73
397.57	84.82
397.78	35.67
397.989	111.44
398.198	113.49
398.407	125.78
398.617	43.86
398.826	66.39
399.035	-11.43
399.244	228.18
399.453	35.67
399.663	68.44
399.872	52.05
400.081	27.48
400.29	74.58
400.499	95.06
400.708	174.93
400.917	88.92
401.127	27.48
401.336	31.57
401.545	201.55
401.754	174.93
401.963	172.88
402.172	74.58
402.381	-11.43
402.59	97.11
402.799	39.76
403.008	185.17
403.217	99.16
403.426	142.16
403.635	-11.43
403.844	68.44
404.053	31.57
404.262	56.15
404.471	138.07
404.68	158.55
404.888	113.49
405.097	9.05
405.306	154.45
405.515	146.26
405.724	50
405.933	142.16
406.142	86.87
406.35	183.12
406.559	97.11
406.768	29.52
406.977	209.75
407.185	86.87
407.394	66.39
407.603	-46.25
407.812	70.48
408.02	103.25
408.229	95.06
408.438	64.34
408.646	-46.25
408.855	39.76
409.064	131.92
409.272	99.16
409.481	80.72
409.69	33.62
409.898	35.67
410.107	164.69
410.315	123.73
410.524	-3.24
410.733	19.29
410.941	43.86
411.15	146.26
411.358	33.62
411.567	164.69
411.775	39.76
411.984	99.16
412.192	133.97
412.401	74.58
412.609	138.07
412.818	127.83
413.026	136.02
413.234	60.24
413.443	74.58
413.651	-89.26
413.86	101.2
414.068	195.41
414.276	277.33
414.485	2.9
414.693	127.83
414.901	166.74
415.11	121.68
415.318	66.39
415.526	17.24
415.734	127.83
415.943	121.68
416.151	164.69
416.359	70.48
416.567	76.63
416.776	123.73
416.984	117.59
417.192	203.6
417.4	37.72
417.608	80.72
417.817	31.57
418.025	146.26
418.233	174.93
418.441	-7.34
418.649	-46.25
418.857	123.73
419.065	195.41
419.273	62.29
419.481	27.48
419.689	76.63
419.897	76.63
420.105	60.24
420.313	125.78
420.521	181.07
420.729	152.4
420.937	25.43
421.145	13.14
421.353	45.91
421.561	174.93
421.769	109.4
421.977	2.9
422.185	131.92
422.393	66.39
422.601	211.79
422.809	136.02
423.017	136.02
423.224	99.16
423.432	187.22
423.64	78.68
423.848	136.02
424.056	64.34
424.263	160.59
424.471	45.91
424.679	191.31
424.887	-25.77
425.094	172.88
425.302	86.87
425.51	84.82
425.718	224.08
425.925	84.82
426.133	60.24
426.341	236.37
426.548	156.5
426.756	64.34
426.964	82.77
427.171	86.87
427.379	113.49
427.586	125.78
427.794	93.01
428.001	152.4
428.209	133.97
428.417	217.94
428.624	191.31
428.832	199.51
429.039	93.01
429.247	138.07
429.454	140.12
429.662	269.14
429.869	162.64
430.076	101.2
430.284	301.9
430.491	205.65
430.699	256.85
430.906	279.38
431.114	179.03
431.321	191.31
431.528	119.64
431.736	156.5
431.943	207.7
432.15	162.64
432.358	242.51
432.565	297.81
432.772	168.79
432.979	252.75
433.187	156.5
433.394	230.23
433.601	203.6
433.808	256.85
434.016	244.56
434.223	248.66
434.43	293.71
434.637	324.43
434.844	279.38
435.052	248.66
435.259	418.64
435.466	328.53
435.673	351.06
435.88	355.15
436.087	457.55
436.294	432.97
436.501	408.4
436.708	351.06
436.915	398.16
437.122	551.76
437.329	363.34
437.537	394.06
437.743	385.87
437.95	518.99
438.157	488.27
438.364	478.03
438.571	492.37
438.778	545.61
438.985	518.99
439.192	570.19
439.399	564.04
439.606	656.2
439.813	654.16
440.02	727.88
440.227	758.6
440.433	779.08
440.64	717.64
440.847	641.87
441.054	762.7
441.261	1039.17
441.467	887.62
441.674	717.64
441.881	885.58
442.088	787.27
442.294	934.73
442.501	1080.13
442.708	1055.56
442.914	924.49
443.121	1106.76
443.328	1043.27
443.534	1182.53
443.741	1184.58
443.948	1016.65
444.154	1241.92
444.361	1350.46
444.568	1305.41
444.774	1393.47
444.981	1293.12
445.187	1510.21
445.394	1528.64
445.6	1688.38
445.807	1741.63
446.013	1719.1
446.22	1706.81
446.426	1782.59
446.633	1915.7
446.839	2204.47
447.046	1872.7
447.252	2102.07
447.459	1977.14
447.665	2059.06
447.871	2345.78
448.078	2513.71
448.284	2495.28
448.491	2591.53
448.697	2777.9
448.903	2863.91
449.11	3017.51
449.316	2753.32
449.522	3128.1
449.728	3232.55
449.935	3224.36
450.141	3324.71
450.347	3558.18
450.553	3533.6
450.76	3599.13
450.966	3859.23
451.172	3902.23
451.378	4096.79
451.584	4199.19
451.791	4578.06
451.997	4686.61
452.203	4670.22
452.409	4838.16
452.615	5141.25
452.821	5034.76
453.027	5049.1
453.233	5856
453.44	5612.29
453.646	5759.74
453.852	5970.68
454.058	6259.45
454.264	6458.1
454.47	6834.93
454.676	7006.95
454.882	7402.21
455.088	7303.91
455.294	7672.54
455.5	8131.29
455.705	8731.34
455.911	8499.92
456.117	8862.41
456.323	9267.91
456.529	9112.27
456.735	10142.39
456.941	10252.98
457.147	10545.84
457.352	10922.67
457.558	11272.87
457.764	11973.28
457.97	12329.63
458.176	12653.2
458.381	13314.7
458.587	13517.45
458.793	14086.78
458.999	14254.72
459.204	15942.24
459.41	16843.35
459.616	16345.69
459.821	17267.28
460.027	17943.11
460.233	18799.16
460.438	19077.68
460.644	19960.36
460.85	20343.33
461.055	20855.32
461.261	21910.02
461.466	21809.67
461.672	22075.91
461.878	24637.92
462.083	24504.8
462.289	24906.2
462.494	25926.09
462.7	25938.38
462.905	26460.61
463.111	28436.9
463.316	29989.26
463.522	30370.18
463.727	31748.46
463.932	32561.51
464.138	33726.8
464.343	35170.62
464.549	35012.93
464.754	37632.28
464.959	38582.54
465.165	39348.48
465.37	39151.87
465.575	39207.17
465.781	41689.31
465.986	42834.12
466.191	42254.54
466.397	42494.16
466.602	41705.69
466.807	44023.99
467.012	44525.74
467.218	45308.07
467.423	45809.82
467.628	46872.71
467.833	49240.17
468.038	48078.97
468.244	47564.93
468.449	50094.17
468.654	48554.1
