Data from USB4F104151__145__11-04-19-539.txt Node

Date: Wed Feb 26 11:04:19 EST 2025
User: louis
Spectrometer: USB4F10415
Trigger mode: 4
Integration Time (sec): 1.000000E-1
Scans to average: 1
Electric dark correction enabled: true
Nonlinearity correction enabled: false
Boxcar width: 0
XAxis mode: Wavelengths
Number of Pixels in Spectrum: 3648
>>>>>Begin Spectral Data<<<<<
178.204	-323.92
178.424	-323.92
178.644	-323.92
178.864	-405.84
179.084	-397.65
179.304	24.23
179.524	-59.73
179.744	-63.83
179.964	71.34
180.184	57
180.404	-16.73
180.624	-43.35
180.844	-26.96
181.064	28.33
181.283	38.57
181.503	-47.44
181.723	38.57
181.943	-84.31
182.163	114.34
182.383	-67.92
182.602	13.99
182.822	110.25
183.042	79.53
183.262	-96.6
183.482	20.14
183.701	26.28
183.921	32.43
184.141	-0.34
184.361	87.72
184.58	59.05
184.8	22.19
185.02	-74.07
185.239	-20.82
185.459	28.33
185.679	149.16
185.898	-82.26
186.118	-0.34
186.338	34.47
186.557	116.39
186.777	20.14
186.997	-57.68
187.216	-12.63
187.436	210.6
187.655	116.39
187.875	67.24
188.095	-39.25
188.314	179.88
188.534	118.44
188.753	-2.39
188.973	124.58
189.192	120.49
189.412	13.99
189.631	13.99
189.851	3.75
190.07	136.87
190.29	-96.6
190.509	-67.92
190.729	48.81
190.948	149.16
191.168	171.69
191.387	75.43
191.607	-4.44
191.826	116.39
192.045	9.9
192.265	18.09
192.484	130.73
192.704	20.14
192.923	-59.73
193.142	124.58
193.362	87.72
193.581	177.83
193.8	18.09
194.02	81.58
194.239	3.75
194.458	34.47
194.678	-43.35
194.897	85.67
195.116	61.1
195.335	28.33
195.555	69.29
195.774	-41.3
195.993	155.3
196.212	61.1
196.432	26.28
196.651	1.71
196.87	-31.06
197.089	235.18
197.308	16.04
197.528	50.86
197.747	32.43
197.966	38.57
198.185	100.01
198.404	-6.49
198.623	81.58
198.842	95.91
199.062	120.49
199.281	147.11
199.5	73.39
199.719	87.72
199.938	22.19
200.157	32.43
200.376	136.87
200.595	108.2
200.814	-26.96
201.033	-41.3
201.252	161.45
201.471	93.87
201.69	79.53
201.909	79.53
202.128	102.06
202.347	65.19
202.566	-31.06
202.785	-45.4
203.004	26.28
203.223	224.94
203.442	79.53
203.661	-4.44
203.879	116.39
204.098	91.82
204.317	-55.64
204.536	89.77
204.755	61.1
204.974	100.01
205.193	-0.34
205.411	147.11
205.63	77.48
205.849	65.19
206.068	-88.4
206.287	-33.11
206.505	138.92
206.724	44.71
206.943	24.23
207.162	77.48
207.381	91.82
207.599	93.87
207.818	-47.44
208.037	-31.06
208.255	50.86
208.474	32.43
208.693	104.11
208.911	-61.78
209.13	120.49
209.349	93.87
209.567	52.91
209.786	89.77
210.005	83.63
210.223	-31.06
210.442	-119.12
210.661	1.71
210.879	42.67
211.098	52.91
211.316	11.95
211.535	44.71
211.753	38.57
211.972	16.04
212.191	1.71
212.409	-53.59
212.628	30.38
212.846	-24.92
213.065	9.9
213.283	140.97
213.502	77.48
213.72	28.33
213.938	69.29
214.157	9.9
214.375	38.57
214.594	-20.82
214.812	75.43
215.031	-43.35
215.249	7.85
215.467	44.71
215.686	67.24
215.904	59.05
216.122	28.33
216.341	208.55
216.559	16.04
216.778	50.86
216.996	167.59
217.214	54.95
217.432	40.62
217.651	63.15
217.869	102.06
218.087	61.1
218.306	-12.63
218.524	16.04
218.742	57
218.96	13.99
219.179	-31.06
219.397	-51.54
219.615	237.22
219.833	136.87
220.051	-86.36
220.27	65.19
220.488	59.05
220.706	16.04
220.924	-61.78
221.142	-16.73
221.36	24.23
221.578	71.34
221.796	3.75
222.015	85.67
222.233	34.47
222.451	169.64
222.669	-65.88
222.887	65.19
223.105	24.23
223.323	114.34
223.541	91.82
223.759	130.73
223.977	18.09
224.195	126.63
224.413	108.2
224.631	50.86
224.849	42.67
225.067	198.31
225.285	-20.82
225.503	13.99
225.721	-137.56
225.939	106.15
226.157	32.43
226.375	202.41
226.592	-20.82
226.81	48.81
227.028	97.96
227.246	57
227.464	42.67
227.682	61.1
227.9	48.81
228.117	71.34
228.335	67.24
228.553	1.71
228.771	34.47
228.989	22.19
229.206	34.47
229.424	-24.92
229.642	1.71
229.86	-22.87
230.077	38.57
230.295	44.71
230.513	97.96
230.731	85.67
230.948	161.45
231.166	163.5
231.384	5.8
231.601	-22.87
231.819	155.3
232.037	32.43
232.254	-115.03
232.472	38.57
232.689	-55.64
232.907	63.15
233.125	16.04
233.342	42.67
233.56	38.57
233.777	-96.6
233.995	65.19
234.213	155.3
234.43	91.82
234.648	30.38
234.865	48.81
235.083	57
235.3	77.48
235.518	54.95
235.735	167.59
235.953	54.95
236.17	91.82
236.388	46.76
236.605	89.77
236.822	26.28
237.04	52.91
237.257	67.24
237.475	16.04
237.692	75.43
237.909	85.67
238.127	-4.44
238.344	34.47
238.562	34.47
238.779	-84.31
238.996	-41.3
239.214	93.87
239.431	54.95
239.648	-33.11
239.865	95.91
240.083	75.43
240.3	-12.63
240.517	46.76
240.735	36.52
240.952	122.54
241.169	28.33
241.386	-20.82
241.603	1.71
241.821	11.95
242.038	48.81
242.255	118.44
242.472	-8.53
242.689	57
242.907	75.43
243.124	16.04
243.341	91.82
243.558	-12.63
243.775	-104.79
243.992	18.09
244.209	22.19
244.426	245.41
244.643	42.67
244.86	52.91
245.078	77.48
245.295	57
245.512	63.15
245.729	3.75
245.946	13.99
246.163	20.14
246.38	106.15
246.597	79.53
246.814	140.97
247.031	18.09
247.248	-53.59
247.464	112.3
247.681	118.44
247.898	26.28
248.115	1.71
248.332	-41.3
248.549	87.72
248.766	130.73
248.983	118.44
249.2	34.47
249.417	97.96
249.633	34.47
249.85	128.68
250.067	59.05
250.284	16.04
250.501	108.2
250.717	79.53
250.934	-53.59
251.151	9.9
251.368	-41.3
251.585	18.09
251.801	36.52
252.018	-26.96
252.235	124.58
252.451	-45.4
252.668	5.8
252.885	104.11
253.102	-2.39
253.318	65.19
253.535	-6.49
253.752	28.33
253.968	42.67
254.185	-119.12
254.401	54.95
254.618	122.54
254.835	-8.53
255.051	110.25
255.268	52.91
255.484	102.06
255.701	30.38
255.917	54.95
256.134	-24.92
256.351	28.33
256.567	-80.21
256.784	3.75
257	-20.82
257.217	134.82
257.433	81.58
257.65	81.58
257.866	124.58
258.082	-24.92
258.299	-37.2
258.515	57
258.732	46.76
258.948	-78.16
259.165	50.86
259.381	-69.97
259.597	42.67
259.814	46.76
260.03	-31.06
260.246	-43.35
260.463	93.87
260.679	112.3
260.895	20.14
261.112	134.82
261.328	-35.16
261.544	-43.35
261.761	177.83
261.977	26.28
262.193	-55.64
262.409	153.26
262.626	69.29
262.842	52.91
263.058	-12.63
263.274	46.76
263.49	77.48
263.707	52.91
263.923	110.25
264.139	-88.4
264.355	24.23
264.571	67.24
264.787	69.29
265.004	95.91
265.22	75.43
265.436	-0.34
265.652	-22.87
265.868	36.52
266.084	-35.16
266.3	42.67
266.516	-8.53
266.732	40.62
266.948	38.57
267.164	-16.73
267.38	85.67
267.596	102.06
267.812	134.82
268.028	30.38
268.244	40.62
268.46	3.75
268.676	22.19
268.892	-22.87
269.108	-10.58
269.324	-51.54
269.54	-82.26
269.756	122.54
269.972	-98.64
270.188	-2.39
270.403	3.75
270.619	9.9
270.835	50.86
271.051	-29.01
271.267	9.9
271.483	-43.35
271.698	104.11
271.914	-4.44
272.13	48.81
272.346	-47.44
272.562	20.14
272.777	136.87
272.993	87.72
273.209	-10.58
273.425	106.15
273.64	-84.31
273.856	18.09
274.072	-12.63
274.287	-37.2
274.503	42.67
274.719	89.77
274.934	9.9
275.15	-16.73
275.366	46.76
275.581	-33.11
275.797	5.8
276.012	102.06
276.228	-37.2
276.444	16.04
276.659	120.49
276.875	-16.73
277.09	18.09
277.306	61.1
277.521	79.53
277.737	-26.96
277.952	42.67
278.168	93.87
278.383	16.04
278.599	1.71
278.814	120.49
279.03	104.11
279.245	85.67
279.461	28.33
279.676	13.99
279.892	-96.6
280.107	52.91
280.322	-39.25
280.538	1.71
280.753	20.14
280.969	77.48
281.184	32.43
281.399	128.68
281.615	16.04
281.83	61.1
282.045	-49.49
282.26	5.8
282.476	-37.2
282.691	65.19
282.906	81.58
283.122	108.2
283.337	-12.63
283.552	118.44
283.767	18.09
283.983	161.45
284.198	3.75
284.413	32.43
284.628	-53.59
284.843	71.34
285.058	50.86
285.274	-84.31
285.489	-49.49
285.704	118.44
285.919	32.43
286.134	-12.63
286.349	1.71
286.564	46.76
286.779	153.26
286.995	-4.44
287.21	22.19
287.425	95.91
287.64	-45.4
287.855	140.97
288.07	-121.17
288.285	-8.53
288.5	145.06
288.715	100.01
288.93	3.75
289.145	-0.34
289.36	5.8
289.575	40.62
289.79	128.68
290.004	-41.3
290.219	-2.39
290.434	24.23
290.649	-12.63
290.864	-6.49
291.079	128.68
291.294	118.44
291.509	50.86
291.724	52.91
291.938	-20.82
292.153	79.53
292.368	-16.73
292.583	65.19
292.798	85.67
293.012	26.28
293.227	93.87
293.442	-18.77
293.657	83.63
293.871	79.53
294.086	95.91
294.301	167.59
294.516	97.96
294.73	40.62
294.945	-69.97
295.16	-37.2
295.374	114.34
295.589	95.91
295.804	20.14
296.018	-0.34
296.233	59.05
296.447	128.68
296.662	50.86
296.877	153.26
297.091	75.43
297.306	38.57
297.52	50.86
297.735	5.8
297.949	77.48
298.164	97.96
298.378	9.9
298.593	-51.54
298.807	22.19
299.022	48.81
299.236	159.4
299.451	5.8
299.665	13.99
299.88	46.76
300.094	59.05
300.309	63.15
300.523	7.85
300.737	5.8
300.952	38.57
301.166	106.15
301.381	-18.77
301.595	46.76
301.809	28.33
302.024	9.9
302.238	-20.82
302.452	42.67
302.667	81.58
302.881	81.58
303.095	97.96
303.309	59.05
303.524	-41.3
303.738	-20.82
303.952	18.09
304.166	71.34
304.381	-76.12
304.595	112.3
304.809	-8.53
305.023	42.67
305.237	24.23
305.452	5.8
305.666	91.82
305.88	38.57
306.094	32.43
306.308	44.71
306.522	36.52
306.736	118.44
306.95	30.38
307.164	-29.01
307.379	69.29
307.593	163.5
307.807	177.83
308.021	120.49
308.235	102.06
308.449	-47.44
308.663	69.29
308.877	196.26
309.091	22.19
309.305	75.43
309.519	-55.64
309.733	102.06
309.947	-102.74
310.161	28.33
310.374	50.86
310.588	120.49
310.802	-37.2
311.016	-84.31
311.23	69.29
311.444	-18.77
311.658	73.39
311.872	151.21
312.085	118.44
312.299	100.01
312.513	196.26
312.727	3.75
312.941	-63.83
313.154	11.95
313.368	1.71
313.582	-8.53
313.796	83.63
314.009	46.76
314.223	75.43
314.437	81.58
314.651	130.73
314.864	46.76
315.078	59.05
315.292	-76.12
315.505	11.95
315.719	126.63
315.933	-29.01
316.146	-55.64
316.36	-63.83
316.573	52.91
316.787	32.43
317.001	57
317.214	-37.2
317.428	54.95
317.641	-24.92
317.855	-47.44
318.068	106.15
318.282	36.52
318.495	145.06
318.709	30.38
318.922	-14.68
319.136	132.78
319.349	100.01
319.563	-78.16
319.776	59.05
319.99	-98.64
320.203	81.58
320.417	52.91
320.63	112.3
320.843	136.87
321.057	13.99
321.27	67.24
321.483	52.91
321.697	136.87
321.91	85.67
322.124	-51.54
322.337	65.19
322.55	-115.03
322.763	57
322.977	9.9
323.19	9.9
323.403	-37.2
323.617	122.54
323.83	163.5
324.043	13.99
324.256	44.71
324.469	-47.44
324.683	79.53
324.896	20.14
325.109	38.57
325.322	-31.06
325.535	71.34
325.748	79.53
325.962	52.91
326.175	67.24
326.388	112.3
326.601	136.87
326.814	-26.96
327.027	69.29
327.24	91.82
327.453	-110.93
327.666	44.71
327.879	81.58
328.092	50.86
328.305	65.19
328.518	46.76
328.731	9.9
328.944	81.58
329.157	13.99
329.37	1.71
329.583	163.5
329.796	175.78
330.009	-94.55
330.222	61.1
330.435	126.63
330.648	-0.34
330.861	7.85
331.073	95.91
331.286	104.11
331.499	57
331.712	22.19
331.925	38.57
332.138	42.67
332.35	40.62
332.563	-16.73
332.776	167.59
332.989	-18.77
333.202	30.38
333.414	11.95
333.627	93.87
333.84	11.95
334.053	-12.63
334.265	34.47
334.478	-47.44
334.691	20.14
334.903	24.23
335.116	-61.78
335.329	-16.73
335.541	50.86
335.754	81.58
335.966	1.71
336.179	-8.53
336.392	-22.87
336.604	52.91
336.817	85.67
337.029	81.58
337.242	18.09
337.454	71.34
337.667	59.05
337.88	65.19
338.092	87.72
338.305	114.34
338.517	13.99
338.729	165.54
338.942	132.78
339.154	-29.01
339.367	42.67
339.579	61.1
339.792	-16.73
340.004	118.44
340.217	-29.01
340.429	28.33
340.641	63.15
340.854	-0.34
341.066	93.87
341.278	112.3
341.491	71.34
341.703	54.95
341.915	13.99
342.128	134.82
342.34	22.19
342.552	-26.96
342.764	48.81
342.977	26.28
343.189	26.28
343.401	93.87
343.613	-59.73
343.826	77.48
344.038	-59.73
344.25	-20.82
344.462	-4.44
344.674	11.95
344.886	-2.39
345.099	36.52
345.311	104.11
345.523	1.71
345.735	-26.96
345.947	30.38
346.159	77.48
346.371	22.19
346.583	13.99
346.795	140.97
347.007	11.95
347.219	-22.87
347.431	75.43
347.643	132.78
347.855	24.23
348.067	134.82
348.279	-67.92
348.491	87.72
348.703	124.58
348.915	38.57
349.127	-51.54
349.339	54.95
349.551	-10.58
349.763	69.29
349.975	85.67
350.187	161.45
350.399	95.91
350.61	28.33
350.822	36.52
351.034	81.58
351.246	-29.01
351.458	63.15
351.669	110.25
351.881	65.19
352.093	106.15
352.305	110.25
352.517	57
352.728	161.45
352.94	83.63
353.152	46.76
353.363	5.8
353.575	48.81
353.787	120.49
353.999	85.67
354.21	210.6
354.422	-37.2
354.633	52.91
354.845	50.86
355.057	120.49
355.268	93.87
355.48	-37.2
355.692	-88.4
355.903	36.52
356.115	-2.39
356.326	-98.64
356.538	128.68
356.749	42.67
356.961	145.06
357.172	-4.44
357.384	7.85
357.595	196.26
357.807	-16.73
358.018	-49.49
358.23	67.24
358.441	157.35
358.653	169.64
358.864	5.8
359.075	-18.77
359.287	75.43
359.498	181.93
359.709	73.39
359.921	22.19
360.132	112.3
360.344	40.62
360.555	-45.4
360.766	128.68
360.977	40.62
361.189	67.24
361.4	1.71
361.611	136.87
361.823	91.82
362.034	57
362.245	-14.68
362.456	42.67
362.667	57
362.879	42.67
363.09	102.06
363.301	48.81
363.512	-20.82
363.723	1.71
363.935	38.57
364.146	36.52
364.357	-0.34
364.568	65.19
364.779	-72.02
364.99	138.92
365.201	-18.77
365.412	106.15
365.623	-135.51
365.834	71.34
366.045	24.23
366.256	77.48
366.467	110.25
366.678	48.81
366.889	57
367.1	-33.11
367.311	181.93
367.522	22.19
367.733	112.3
367.944	-29.01
368.155	-18.77
368.366	134.82
368.577	124.58
368.788	69.29
368.999	22.19
369.209	67.24
369.42	202.41
369.631	220.84
369.842	75.43
370.053	-4.44
370.264	183.98
370.474	-14.68
370.685	46.76
370.896	-0.34
371.107	149.16
371.317	38.57
371.528	24.23
371.739	97.96
371.95	104.11
372.16	57
372.371	-69.97
372.582	5.8
372.792	85.67
373.003	69.29
373.214	69.29
373.424	126.63
373.635	7.85
373.846	110.25
374.056	22.19
374.267	16.04
374.477	122.54
374.688	48.81
374.898	63.15
375.109	95.91
375.319	71.34
375.53	153.26
375.74	171.69
375.951	61.1
376.161	24.23
376.372	165.54
376.582	-26.96
376.793	46.76
377.003	-57.68
377.214	-14.68
377.424	118.44
377.635	67.24
377.845	-20.82
378.055	147.11
378.266	-106.84
378.476	20.14
378.686	36.52
378.897	-33.11
379.107	126.63
379.317	77.48
379.528	-65.88
379.738	61.1
379.948	-41.3
380.158	100.01
380.369	46.76
380.579	63.15
380.789	73.39
380.999	112.3
381.21	73.39
381.42	120.49
381.63	85.67
381.84	136.87
382.05	73.39
382.261	128.68
382.471	40.62
382.681	-88.4
382.891	104.11
383.101	42.67
383.311	-53.59
383.521	3.75
383.731	65.19
383.941	163.5
384.151	30.38
384.361	22.19
384.571	36.52
384.781	83.63
384.991	124.58
385.201	204.46
385.411	7.85
385.621	73.39
385.831	110.25
386.041	67.24
386.251	89.77
386.461	65.19
386.671	40.62
386.881	-18.77
387.091	77.48
387.301	36.52
387.511	-69.97
387.72	59.05
387.93	112.3
388.14	-119.12
388.35	50.86
388.56	136.87
388.769	149.16
388.979	30.38
389.189	65.19
389.399	-4.44
389.609	77.48
389.818	65.19
390.028	34.47
390.238	89.77
390.447	48.81
390.657	106.15
390.867	-6.49
391.076	-67.92
391.286	95.91
391.496	-12.63
391.705	1.71
391.915	128.68
392.125	50.86
392.334	54.95
392.544	140.97
392.753	-24.92
392.963	-12.63
393.172	63.15
393.382	61.1
393.591	163.5
393.801	-4.44
394.01	155.3
394.22	22.19
394.429	18.09
394.639	-59.73
394.848	147.11
395.058	73.39
395.267	16.04
395.477	126.63
395.686	57
395.895	186.02
396.105	190.12
396.314	-2.39
396.524	5.8
396.733	50.86
396.942	87.72
397.152	59.05
397.361	198.31
397.57	87.72
397.78	20.14
397.989	42.67
398.198	177.83
398.407	52.91
398.617	13.99
398.826	-22.87
399.035	124.58
399.244	102.06
399.453	153.26
399.663	11.95
399.872	54.95
400.081	-55.64
400.29	126.63
400.499	-49.49
400.708	177.83
400.917	89.77
401.127	-47.44
401.336	-47.44
401.545	147.11
401.754	61.1
401.963	69.29
402.172	59.05
402.381	-41.3
402.59	52.91
402.799	40.62
403.008	91.82
403.217	38.57
403.426	57
403.635	-88.4
403.844	-4.44
404.053	-47.44
404.262	73.39
404.471	237.22
404.68	11.95
404.888	28.33
405.097	18.09
405.306	34.47
405.515	75.43
405.724	3.75
405.933	145.06
406.142	59.05
406.35	179.88
406.559	48.81
406.768	-10.58
406.977	147.11
407.185	38.57
407.394	77.48
407.603	-51.54
407.812	100.01
408.02	59.05
408.229	54.95
408.438	165.54
408.646	13.99
408.855	38.57
409.064	83.63
409.272	81.58
409.481	54.95
409.69	40.62
409.898	67.24
410.107	-16.73
410.315	130.73
410.524	-4.44
410.733	34.47
410.941	67.24
411.15	116.39
411.358	67.24
411.567	112.3
411.775	24.23
411.984	69.29
412.192	38.57
412.401	1.71
412.609	163.5
412.818	112.3
413.026	-18.77
413.234	16.04
413.443	42.67
413.651	-24.92
413.86	20.14
414.068	157.35
414.276	118.44
414.485	44.71
414.693	151.21
414.901	196.26
415.11	110.25
415.318	28.33
415.526	9.9
415.734	65.19
415.943	159.4
416.151	186.02
416.359	77.48
416.567	83.63
416.776	89.77
416.984	83.63
417.192	175.78
417.4	-12.63
417.608	-4.44
417.817	-18.77
418.025	110.25
418.233	175.78
418.441	32.43
418.649	-67.92
418.857	110.25
419.065	112.3
419.273	26.28
419.481	7.85
419.689	-6.49
419.897	34.47
420.105	-80.21
420.313	100.01
420.521	102.06
420.729	210.6
420.937	-76.12
421.145	1.71
421.353	102.06
421.561	112.3
421.769	110.25
421.977	5.8
422.185	36.52
422.393	91.82
422.601	81.58
422.809	81.58
423.017	-18.77
423.224	89.77
423.432	179.88
423.64	114.34
423.848	163.5
424.056	-12.63
424.263	140.97
424.471	3.75
424.679	112.3
424.887	-78.16
425.094	153.26
425.302	126.63
425.51	20.14
425.718	134.82
425.925	38.57
426.133	71.34
426.341	202.41
426.548	75.43
426.756	26.28
426.964	163.5
427.171	30.38
427.379	95.91
427.586	81.58
427.794	69.29
428.001	169.64
428.209	57
428.417	224.94
428.624	161.45
428.832	188.07
429.039	136.87
429.247	136.87
429.454	153.26
429.662	304.81
429.869	145.06
430.076	91.82
430.284	183.98
430.491	196.26
430.699	104.11
430.906	288.42
431.114	128.68
431.321	161.45
431.528	138.92
431.736	83.63
431.943	235.18
432.15	159.4
432.358	218.79
432.565	300.71
432.772	91.82
432.979	147.11
433.187	194.22
433.394	286.37
433.601	112.3
433.808	282.28
434.016	243.37
434.223	278.18
434.43	192.17
434.637	282.28
434.844	360.1
435.052	243.37
435.259	337.57
435.466	356.01
435.673	245.41
435.88	317.09
436.087	327.33
436.294	333.48
436.501	302.76
436.708	241.32
436.915	392.87
437.122	437.92
437.329	290.47
437.537	333.48
437.743	446.12
437.95	546.47
438.157	497.32
438.364	444.07
438.571	415.4
438.778	446.12
438.985	470.69
439.192	554.66
439.399	513.7
439.606	515.75
439.813	525.99
440.02	743.07
440.227	698.02
440.433	685.73
440.64	579.23
440.847	464.55
441.054	726.69
441.261	796.32
441.467	655.01
441.674	718.5
441.881	835.23
442.088	712.35
442.294	812.7
442.501	945.82
442.708	841.37
442.914	798.37
443.121	970.4
443.328	929.44
443.534	1095.32
443.741	1017.5
443.948	994.97
444.154	1062.55
444.361	1322.65
444.568	1179.29
444.774	1199.77
444.981	1183.38
445.187	1308.31
445.394	1275.54
445.6	1377.94
445.807	1466
446.013	1515.16
446.22	1431.19
446.426	1656.47
446.633	1779.34
446.839	1896.08
447.046	1648.27
447.252	1859.21
447.459	1957.52
447.665	1955.47
447.871	2170.51
448.078	2246.28
448.284	2238.09
448.491	2381.45
448.697	2481.8
448.903	2340.49
449.11	2524.8
449.316	2479.75
449.522	2815.62
449.728	2827.9
449.935	3059.32
450.141	2973.31
450.347	3081.85
450.553	3245.69
450.76	3233.4
450.966	3395.19
451.172	3387
451.378	3737.2
451.584	3825.26
451.791	3960.43
451.997	4208.23
452.203	4154.99
452.409	4374.12
452.615	4605.54
452.821	4380.26
453.027	4662.88
453.233	5135.96
453.44	5097.05
453.646	5297.75
453.852	5404.25
454.058	5715.54
454.264	5944.91
454.47	6180.43
454.676	6166.09
454.882	6856.26
455.088	6581.83
455.294	6870.59
455.5	7333.43
455.705	7763.51
455.911	7603.77
456.117	7947.83
456.323	8201.77
456.529	8179.25
456.735	9111.07
456.941	9033.25
457.147	9403.93
457.352	9881.11
457.558	10223.12
457.764	10993.15
457.97	11109.89
458.176	11628.03
458.381	12107.25
458.587	12408.3
458.793	12908.01
458.999	12688.87
459.204	14638.54
459.41	14921.16
459.616	14884.3
459.821	15619.52
460.027	16297.39
460.233	17094.05
460.438	17221.03
460.644	18304.4
460.85	18357.65
461.055	19234.18
461.261	20131.19
461.466	19594.62
461.672	20084.09
461.878	22023.51
462.083	22132.06
462.289	22642
462.494	23450.95
462.7	23409.99
462.905	23940.41
463.111	25773.35
463.316	26948.88
463.522	27424.01
463.727	28630.26
463.932	29478.12
464.138	30287.07
464.343	31526.09
464.549	31653.06
464.754	34428.06
464.959	34866.33
465.165	35458.19
465.37	35150.99
465.575	35177.62
465.781	37497.97
465.986	38632.54
466.191	37885.03
466.397	38685.79
466.602	37694.57
466.807	39765.07
467.012	40537.15
467.218	40989.75
467.423	40938.55
467.628	42241.06
467.833	44768.26
468.038	43801.61
468.244	42423.33
468.449	44827.65
468.654	43918.35
468.859	43879.44
469.064	43809.81
