Data from USB4F104151__147__11-04-20-939.txt Node

Date: Wed Feb 26 11:04:20 EST 2025
User: louis
Spectrometer: USB4F10415
Trigger mode: 4
Integration Time (sec): 1.000000E-1
Scans to average: 1
Electric dark correction enabled: true
Nonlinearity correction enabled: false
Boxcar width: 0
XAxis mode: Wavelengths
Number of Pixels in Spectrum: 3648
>>>>>Begin Spectral Data<<<<<
178.204	-405.67
178.424	-405.67
178.644	-405.67
178.864	-387.24
179.084	-411.81
179.304	-16.55
179.524	-4.27
179.744	1.88
179.964	87.89
180.184	22.36
180.404	24.4
180.624	-41.13
180.844	-73.9
181.064	-77.99
181.283	104.28
181.503	-37.03
181.723	10.07
181.943	-145.58
182.163	225.11
182.383	-39.08
182.602	-30.89
182.822	130.9
183.042	100.18
183.262	-14.51
183.482	38.74
183.701	46.93
183.921	1.88
184.141	-45.23
184.361	59.22
184.58	-12.46
184.8	46.93
185.02	-32.94
185.239	18.26
185.459	46.93
185.679	143.19
185.898	-149.67
186.118	69.46
186.338	22.36
186.557	106.32
186.777	-84.14
186.997	57.17
187.216	48.98
187.436	118.61
187.655	77.65
187.875	135
188.095	69.46
188.314	118.61
188.534	120.66
188.753	-63.66
188.973	94.04
189.192	55.12
189.412	-65.71
189.631	28.5
189.851	75.6
190.07	196.43
190.29	10.07
190.509	-26.79
190.729	59.22
190.948	143.19
191.168	214.87
191.387	77.65
191.607	-12.46
191.826	5.97
192.045	59.22
192.265	1.88
192.484	87.89
192.704	42.84
192.923	-24.75
193.142	206.67
193.362	55.12
193.581	200.53
193.8	51.03
194.02	69.46
194.239	12.12
194.458	147.28
194.678	-32.94
194.897	10.07
195.116	87.89
195.335	77.65
195.555	85.84
195.774	-39.08
195.993	229.2
196.212	114.52
196.432	-37.03
196.651	-28.84
196.87	14.17
197.089	239.44
197.308	124.76
197.528	69.46
197.747	-28.84
197.966	77.65
198.185	130.9
198.404	8.02
198.623	120.66
198.842	145.24
199.062	192.34
199.281	114.52
199.5	77.65
199.719	132.95
199.938	42.84
200.157	128.85
200.376	94.04
200.595	155.47
200.814	55.12
201.033	-8.36
201.252	104.28
201.471	5.97
201.69	118.61
201.909	34.64
202.128	91.99
202.347	-34.99
202.566	-49.32
202.785	5.97
203.004	-0.17
203.223	261.97
203.442	55.12
203.661	12.12
203.879	65.36
204.098	196.43
204.317	-61.61
204.536	161.62
204.755	36.69
204.974	147.28
205.193	-6.31
205.411	175.95
205.63	153.43
205.849	110.42
206.068	-43.18
206.287	-63.66
206.505	182.1
206.724	-82.09
206.943	-69.8
207.162	20.31
207.381	38.74
207.599	16.21
207.818	10.07
208.037	-32.94
208.255	96.08
208.474	118.61
208.693	40.79
208.911	3.93
209.13	106.32
209.349	143.19
209.567	132.95
209.786	153.43
210.005	94.04
210.223	5.97
210.442	-49.32
210.661	36.69
210.879	44.88
211.098	1.88
211.316	106.32
211.535	130.9
211.753	-71.85
211.972	24.4
212.191	53.08
212.409	53.08
212.628	20.31
212.846	28.5
213.065	83.8
213.283	143.19
213.502	55.12
213.72	89.94
213.938	-14.51
214.157	-61.61
214.375	143.19
214.594	-39.08
214.812	104.28
215.031	71.51
215.249	46.93
215.467	65.36
215.686	51.03
215.904	110.42
216.122	48.98
216.341	122.71
216.559	28.5
216.778	151.38
216.996	124.76
217.214	-14.51
217.432	-77.99
217.651	-45.23
217.869	73.56
218.087	26.45
218.306	38.74
218.524	20.31
218.742	38.74
218.96	42.84
219.179	71.51
219.397	53.08
219.615	202.58
219.833	126.8
220.051	-43.18
220.27	116.56
220.488	57.17
220.706	67.41
220.924	69.46
221.142	28.5
221.36	51.03
221.578	32.6
221.796	44.88
222.015	81.75
222.233	1.88
222.451	274.26
222.669	18.26
222.887	126.8
223.105	-22.7
223.323	8.02
223.541	-24.75
223.759	91.99
223.977	18.26
224.195	77.65
224.413	149.33
224.631	48.98
224.849	96.08
225.067	204.63
225.285	-47.27
225.503	-47.27
225.721	-125.1
225.939	34.64
226.157	65.36
226.375	268.11
226.592	18.26
226.81	-2.22
227.028	98.13
227.246	147.28
227.464	171.86
227.682	104.28
227.9	87.89
228.117	69.46
228.335	98.13
228.553	10.07
228.771	59.22
228.989	63.32
229.206	89.94
229.424	1.88
229.642	-30.89
229.86	-12.46
230.077	145.24
230.295	30.55
230.513	124.76
230.731	161.62
230.948	210.77
231.166	231.25
231.384	28.5
231.601	-47.27
231.819	223.06
232.037	30.55
232.254	20.31
232.472	-20.65
232.689	-12.46
232.907	132.95
233.125	48.98
233.342	18.26
233.56	-4.27
233.777	10.07
233.995	5.97
234.213	126.8
234.43	28.5
234.648	61.27
234.865	-4.27
235.083	104.28
235.3	-10.41
235.518	53.08
235.735	36.69
235.953	96.08
236.17	44.88
236.388	57.17
236.605	51.03
236.822	98.13
237.04	85.84
237.257	53.08
237.475	-61.61
237.692	36.69
237.909	71.51
238.127	51.03
238.344	30.55
238.562	59.22
238.779	-22.7
238.996	-94.38
239.214	-0.17
239.431	71.51
239.648	-67.75
239.865	122.71
240.083	96.08
240.3	18.26
240.517	-4.27
240.735	69.46
240.952	130.9
241.169	106.32
241.386	65.36
241.603	12.12
241.821	-61.61
242.038	28.5
242.255	128.85
242.472	-90.28
242.689	42.84
242.907	83.8
243.124	-4.27
243.341	-8.36
243.558	73.56
243.775	-43.18
243.992	-32.94
244.209	135
244.426	167.76
244.643	44.88
244.86	44.88
245.078	151.38
245.295	79.7
245.512	-12.46
245.729	63.32
245.946	118.61
246.163	46.93
246.38	-16.55
246.597	20.31
246.814	-2.22
247.031	3.93
247.248	73.56
247.464	98.13
247.681	55.12
247.898	120.66
248.115	69.46
248.332	1.88
248.549	155.47
248.766	137.04
248.983	110.42
249.2	65.36
249.417	91.99
249.633	30.55
249.85	59.22
250.067	18.26
250.284	98.13
250.501	122.71
250.717	100.18
250.934	-37.03
251.151	-49.32
251.368	46.93
251.585	89.94
251.801	32.6
252.018	-6.31
252.235	87.89
252.451	-63.66
252.668	42.84
252.885	151.38
253.102	-80.04
253.318	-49.32
253.535	63.32
253.752	28.5
253.968	8.02
254.185	-8.36
254.401	14.17
254.618	108.37
254.835	-6.31
255.051	42.84
255.268	69.46
255.484	87.89
255.701	32.6
255.917	32.6
256.134	34.64
256.351	63.32
256.567	-4.27
256.784	42.84
257	-30.89
257.217	114.52
257.433	91.99
257.65	159.57
257.866	173.91
258.082	-18.6
258.299	48.98
258.515	108.37
258.732	-10.41
258.948	114.52
259.165	46.93
259.381	-28.84
259.597	108.37
259.814	-26.79
260.03	44.88
260.246	-2.22
260.463	32.6
260.679	102.23
260.895	53.08
261.112	-26.79
261.328	-20.65
261.544	-24.75
261.761	149.33
261.977	-49.32
262.193	-43.18
262.409	126.8
262.626	22.36
262.842	-4.27
263.058	-16.55
263.274	104.28
263.49	14.17
263.707	100.18
263.923	59.22
264.139	-20.65
264.355	98.13
264.571	24.4
264.787	57.17
265.004	112.47
265.22	108.37
265.436	-22.7
265.652	30.55
265.868	59.22
266.084	-69.8
266.3	14.17
266.516	18.26
266.732	75.6
266.948	-10.41
267.164	-28.84
267.38	149.33
267.596	94.04
267.812	161.62
268.028	48.98
268.244	42.84
268.46	-16.55
268.676	-24.75
268.892	32.6
269.108	-22.7
269.324	-41.13
269.54	-37.03
269.756	36.69
269.972	18.26
270.188	36.69
270.403	-16.55
270.619	85.84
270.835	81.75
271.051	8.02
271.267	73.56
271.483	-12.46
271.698	114.52
271.914	83.8
272.13	106.32
272.346	3.93
272.562	16.21
272.777	81.75
272.993	14.17
273.209	-16.55
273.425	100.18
273.64	-77.99
273.856	73.56
274.072	10.07
274.287	48.98
274.503	79.7
274.719	102.23
274.934	-90.28
275.15	-6.31
275.366	20.31
275.581	-10.41
275.797	46.93
276.012	135
276.228	75.6
276.444	59.22
276.659	137.04
276.875	-2.22
277.09	-28.84
277.306	57.17
277.521	48.98
277.737	65.36
277.952	141.14
278.168	26.45
278.383	51.03
278.599	5.97
278.814	153.43
279.03	30.55
279.245	108.37
279.461	26.45
279.676	40.79
279.892	57.17
280.107	-43.18
280.322	-4.27
280.538	73.56
280.753	20.31
280.969	87.89
281.184	81.75
281.399	175.95
281.615	102.23
281.83	73.56
282.045	-112.81
282.26	38.74
282.476	94.04
282.691	22.36
282.906	-18.6
283.122	55.12
283.337	-92.33
283.552	67.41
283.767	20.31
283.983	91.99
284.198	38.74
284.413	85.84
284.628	-114.86
284.843	-6.31
285.058	126.8
285.274	48.98
285.489	-24.75
285.704	42.84
285.919	-14.51
286.134	1.88
286.349	94.04
286.564	-127.14
286.779	94.04
286.995	26.45
287.21	-80.04
287.425	61.27
287.64	3.93
287.855	75.6
288.07	-45.23
288.285	44.88
288.5	114.52
288.715	87.89
288.93	14.17
289.145	-67.75
289.36	94.04
289.575	-26.79
289.79	122.71
290.004	12.12
290.219	53.08
290.434	-43.18
290.649	51.03
290.864	-4.27
291.079	-2.22
291.294	20.31
291.509	55.12
291.724	-0.17
291.938	-45.23
292.153	104.28
292.368	-14.51
292.583	40.79
292.798	61.27
293.012	69.46
293.227	48.98
293.442	48.98
293.657	120.66
293.871	155.47
294.086	63.32
294.301	139.09
294.516	186.19
294.73	30.55
294.945	-37.03
295.16	55.12
295.374	135
295.589	118.61
295.804	53.08
296.018	30.55
296.233	126.8
296.447	128.85
296.662	63.32
296.877	132.95
297.091	85.84
297.306	40.79
297.52	48.98
297.735	112.47
297.949	94.04
298.164	67.41
298.378	12.12
298.593	-6.31
298.807	48.98
299.022	-20.65
299.236	91.99
299.451	22.36
299.665	61.27
299.88	-45.23
300.094	79.7
300.309	57.17
300.523	91.99
300.737	-6.31
300.952	44.88
301.166	65.36
301.381	40.79
301.595	-26.79
301.809	59.22
302.024	26.45
302.238	-2.22
302.452	132.95
302.667	83.8
302.881	157.52
303.095	81.75
303.309	75.6
303.524	12.12
303.738	53.08
303.952	28.5
304.166	46.93
304.381	-106.67
304.595	137.04
304.809	-63.66
305.023	69.46
305.237	1.88
305.452	12.12
305.666	57.17
305.88	57.17
306.094	128.85
306.308	26.45
306.522	77.65
306.736	32.6
306.95	87.89
307.164	-14.51
307.379	57.17
307.593	178
307.807	91.99
308.021	102.23
308.235	16.21
308.449	3.93
308.663	30.55
308.877	241.49
309.091	44.88
309.305	149.33
309.519	-102.57
309.733	178
309.947	-86.19
310.161	40.79
310.374	57.17
310.588	126.8
310.802	-26.79
311.016	61.27
311.23	71.51
311.444	-88.23
311.658	81.75
311.872	155.47
312.085	112.47
312.299	83.8
312.513	202.58
312.727	48.98
312.941	-43.18
313.154	61.27
313.368	10.07
313.582	40.79
313.796	40.79
314.009	18.26
314.223	81.75
314.437	-6.31
314.651	89.94
314.864	-32.94
315.078	34.64
315.292	-30.89
315.505	14.17
315.719	69.46
315.933	161.62
316.146	48.98
316.36	16.21
316.573	135
316.787	48.98
317.001	67.41
317.214	8.02
317.428	16.21
317.641	-2.22
317.855	36.69
318.068	24.4
318.282	18.26
318.495	165.71
318.709	120.66
318.922	57.17
319.136	169.81
319.349	149.33
319.563	55.12
319.776	83.8
319.99	-34.99
320.203	71.51
320.417	110.42
320.63	114.52
320.843	157.52
321.057	100.18
321.27	61.27
321.483	85.84
321.697	204.63
321.91	28.5
322.124	30.55
322.337	79.7
322.55	-22.7
322.763	61.27
322.977	48.98
323.19	20.31
323.403	38.74
323.617	36.69
323.83	71.51
324.043	20.31
324.256	51.03
324.469	-41.13
324.683	178
324.896	36.69
325.109	59.22
325.322	-49.32
325.535	96.08
325.748	104.28
325.962	12.12
326.175	83.8
326.388	16.21
326.601	141.14
326.814	-14.51
327.027	94.04
327.24	135
327.453	-90.28
327.666	61.27
327.879	130.9
328.092	112.47
328.305	116.56
328.518	53.08
328.731	8.02
328.944	-12.46
329.157	42.84
329.37	-22.7
329.583	163.67
329.796	135
330.009	-30.89
330.222	89.94
330.435	69.46
330.648	75.6
330.861	75.6
331.073	36.69
331.286	114.52
331.499	12.12
331.712	-16.55
331.925	42.84
332.138	73.56
332.35	208.72
332.563	-6.31
332.776	182.1
332.989	8.02
333.202	71.51
333.414	61.27
333.627	-12.46
333.84	-0.17
334.053	85.84
334.265	22.36
334.478	-41.13
334.691	53.08
334.903	28.5
335.116	34.64
335.329	3.93
335.541	14.17
335.754	167.76
335.966	-2.22
336.179	5.97
336.392	16.21
336.604	87.89
336.817	126.8
337.029	26.45
337.242	-4.27
337.454	118.61
337.667	71.51
337.88	173.91
338.092	147.28
338.305	46.93
338.517	30.55
338.729	20.31
338.942	77.65
339.154	-4.27
339.367	-39.08
339.579	73.56
339.792	-14.51
340.004	108.37
340.217	59.22
340.429	55.12
340.641	-8.36
340.854	57.17
341.066	40.79
341.278	171.86
341.491	237.39
341.703	53.08
341.915	44.88
342.128	106.32
342.34	65.36
342.552	-28.84
342.764	44.88
342.977	67.41
343.189	67.41
343.401	77.65
343.613	-45.23
343.826	32.6
344.038	-51.37
344.25	32.6
344.462	-20.65
344.674	100.18
344.886	51.03
345.099	96.08
345.311	73.56
345.523	32.6
345.735	-30.89
345.947	-59.56
346.159	57.17
346.371	24.4
346.583	53.08
346.795	206.67
347.007	102.23
347.219	57.17
347.431	28.5
347.643	44.88
347.855	26.45
348.067	79.7
348.279	-51.37
348.491	18.26
348.703	104.28
348.915	83.8
349.127	-12.46
349.339	89.94
349.551	22.36
349.763	130.9
349.975	46.93
350.187	61.27
350.399	204.63
350.61	38.74
350.822	28.5
351.034	122.71
351.246	65.36
351.458	53.08
351.669	126.8
351.881	55.12
352.093	98.13
352.305	120.66
352.517	5.97
352.728	118.61
352.94	89.94
353.152	81.75
353.363	-24.75
353.575	75.6
353.787	221.01
353.999	44.88
354.21	214.87
354.422	-0.17
354.633	-16.55
354.845	-4.27
355.057	69.46
355.268	24.4
355.48	149.33
355.692	-41.13
355.903	48.98
356.115	-43.18
356.326	-75.95
356.538	141.14
356.749	79.7
356.961	186.19
357.172	71.51
357.384	36.69
357.595	190.29
357.807	-12.46
358.018	-59.56
358.23	-24.75
358.441	178
358.653	124.76
358.864	26.45
359.075	-4.27
359.287	34.64
359.498	114.52
359.709	8.02
359.921	51.03
360.132	124.76
360.344	57.17
360.555	-26.79
360.766	40.79
360.977	63.32
361.189	128.85
361.4	20.31
361.611	94.04
361.823	130.9
362.034	30.55
362.245	-51.37
362.456	71.51
362.667	55.12
362.879	-39.08
363.09	57.17
363.301	96.08
363.512	-32.94
363.723	63.32
363.935	-63.66
364.146	85.84
364.357	3.93
364.568	10.07
364.779	-22.7
364.99	116.56
365.201	22.36
365.412	130.9
365.623	-69.8
365.834	53.08
366.045	63.32
366.256	118.61
366.467	114.52
366.678	38.74
366.889	155.47
367.1	51.03
367.311	153.43
367.522	14.17
367.733	79.7
367.944	69.46
368.155	48.98
368.366	91.99
368.577	126.8
368.788	122.71
368.999	-12.46
369.209	3.93
369.42	229.2
369.631	249.68
369.842	171.86
370.053	24.4
370.264	118.61
370.474	26.45
370.685	-12.46
370.896	-2.22
371.107	89.94
371.317	120.66
371.528	-26.79
371.739	200.53
371.95	106.32
372.16	8.02
372.371	-69.8
372.582	30.55
372.792	65.36
373.003	51.03
373.214	57.17
373.424	46.93
373.635	71.51
373.846	126.8
374.056	3.93
374.267	63.32
374.477	124.76
374.688	-6.31
374.898	130.9
375.109	-6.31
375.319	145.24
375.53	61.27
375.74	67.41
375.951	-4.27
376.161	79.7
376.372	149.33
376.582	-2.22
376.793	-16.55
377.003	-43.18
377.214	-24.75
377.424	-2.22
377.635	34.64
377.845	-16.55
378.055	94.04
378.266	-4.27
378.476	-6.31
378.686	124.76
378.897	67.41
379.107	44.88
379.317	1.88
379.528	8.02
379.738	51.03
379.948	-57.51
380.158	163.67
380.369	59.22
380.579	137.04
380.789	36.69
380.999	87.89
381.21	91.99
381.42	243.54
381.63	-43.18
381.84	180.05
382.05	42.84
382.261	83.8
382.471	116.56
382.681	-96.43
382.891	65.36
383.101	114.52
383.311	-24.75
383.521	1.88
383.731	59.22
383.941	79.7
384.151	67.41
384.361	18.26
384.571	57.17
384.781	30.55
384.991	120.66
385.201	194.39
385.411	153.43
385.621	118.61
385.831	130.9
386.041	1.88
386.251	46.93
386.461	104.28
386.671	-28.84
386.881	120.66
387.091	22.36
387.301	106.32
387.511	85.84
387.72	94.04
387.93	89.94
388.14	-49.32
388.35	63.32
388.56	175.95
388.769	165.71
388.979	20.31
389.189	-24.75
389.399	42.84
389.609	110.42
389.818	104.28
390.028	71.51
390.238	91.99
390.447	34.64
390.657	42.84
390.867	40.79
391.076	-22.7
391.286	157.52
391.496	3.93
391.705	57.17
391.915	87.89
392.125	128.85
392.334	42.84
392.544	161.62
392.753	61.27
392.963	-26.79
393.172	12.12
393.382	-30.89
393.591	167.76
393.801	-4.27
394.01	132.95
394.22	61.27
394.429	59.22
394.639	16.21
394.848	118.61
395.058	-20.65
395.267	143.19
395.477	55.12
395.686	24.4
395.895	202.58
396.105	196.43
396.314	20.31
396.524	122.71
396.733	26.45
396.942	77.65
397.152	135
397.361	196.43
397.57	38.74
397.78	46.93
397.989	106.32
398.198	180.05
398.407	96.08
398.617	59.22
398.826	8.02
399.035	67.41
399.244	128.85
399.453	104.28
399.663	91.99
399.872	61.27
400.081	53.08
400.29	182.1
400.499	-51.37
400.708	124.76
400.917	-18.6
401.127	51.03
401.336	94.04
401.545	210.77
401.754	167.76
401.963	149.33
402.172	61.27
402.381	-65.71
402.59	100.18
402.799	32.6
403.008	126.8
403.217	32.6
403.426	114.52
403.635	12.12
403.844	34.64
404.053	61.27
404.262	10.07
404.471	163.67
404.68	118.61
404.888	38.74
405.097	-26.79
405.306	122.71
405.515	73.56
405.724	59.22
405.933	143.19
406.142	75.6
406.35	112.47
406.559	-8.36
406.768	104.28
406.977	110.42
407.185	34.64
407.394	-18.6
407.603	-41.13
407.812	159.57
408.02	104.28
408.229	34.64
408.438	83.8
408.646	-16.55
408.855	69.46
409.064	122.71
409.272	-32.94
409.481	48.98
409.69	14.17
409.898	40.79
410.107	20.31
410.315	145.24
410.524	-20.65
410.733	122.71
410.941	71.51
411.15	79.7
411.358	124.76
411.567	139.09
411.775	24.4
411.984	59.22
412.192	63.32
412.401	44.88
412.609	143.19
412.818	192.34
413.026	73.56
413.234	-37.03
413.443	75.6
413.651	-104.62
413.86	5.97
414.068	104.28
414.276	229.2
414.485	-47.27
414.693	208.72
414.901	147.28
415.11	53.08
415.318	26.45
415.526	26.45
415.734	44.88
415.943	77.65
416.151	221.01
416.359	85.84
416.567	100.18
416.776	75.6
416.984	149.33
417.192	159.57
417.4	28.5
417.608	-20.65
417.817	-47.27
418.025	63.32
418.233	139.09
418.441	-55.47
418.649	40.79
418.857	67.41
419.065	61.27
419.273	-57.51
419.481	81.75
419.689	89.94
419.897	10.07
420.105	-43.18
420.313	112.47
420.521	184.15
420.729	155.47
420.937	38.74
421.145	22.36
421.353	108.37
421.561	143.19
421.769	73.56
421.977	100.18
422.185	139.09
422.393	22.36
422.601	85.84
422.809	153.43
423.017	81.75
423.224	20.31
423.432	149.33
423.64	65.36
423.848	128.85
424.056	16.21
424.263	155.47
424.471	-32.94
424.679	153.43
424.887	16.21
425.094	137.04
425.302	53.08
425.51	42.84
425.718	194.39
425.925	32.6
426.133	98.13
426.341	145.24
426.548	55.12
426.756	51.03
426.964	130.9
427.171	57.17
427.379	102.23
427.586	89.94
427.794	167.76
428.001	100.18
428.209	114.52
428.417	255.83
428.624	159.57
428.832	104.28
429.039	102.23
429.247	137.04
429.454	151.38
429.662	192.34
429.869	102.23
430.076	188.24
430.284	118.61
430.491	280.4
430.699	208.72
430.906	239.44
431.114	192.34
431.321	259.92
431.528	171.86
431.736	122.71
431.943	147.28
432.15	175.95
432.358	225.11
432.565	302.93
432.772	55.12
432.979	241.49
433.187	178
433.394	243.54
433.601	132.95
433.808	233.3
434.016	208.72
434.223	210.77
434.43	167.76
434.637	274.26
434.844	331.6
435.052	298.83
435.259	347.98
435.466	288.59
435.673	255.83
435.88	319.31
436.087	362.32
436.294	444.24
436.501	388.94
436.708	288.59
436.915	370.51
437.122	386.9
437.329	360.27
437.537	374.61
437.743	321.36
437.95	499.53
438.157	434
438.364	368.46
438.571	399.18
438.778	532.3
438.985	524.11
439.192	513.87
439.399	560.97
439.606	507.73
439.813	599.88
440.02	554.83
440.227	640.84
440.433	722.76
440.64	671.56
440.847	532.3
441.054	624.46
441.261	831.3
441.467	806.73
441.674	673.61
441.881	829.26
442.088	644.94
442.294	816.97
442.501	800.59
442.708	952.13
442.914	950.09
443.121	1007.43
443.328	984.9
443.534	954.18
443.741	1085.25
443.948	907.08
444.154	1232.71
444.361	1400.64
444.568	1136.45
444.774	1220.42
444.981	1234.75
445.187	1331.01
445.394	1290.05
445.6	1281.86
445.807	1617.72
446.013	1410.88
446.22	1421.12
446.426	1613.63
446.633	1812.28
446.839	1834.81
447.046	1699.64
447.252	1965.88
447.459	1879.86
447.665	2033.46
447.871	2107.19
448.078	2344.75
448.284	2217.78
448.491	2248.5
448.697	2557.74
448.903	2492.21
449.11	2580.27
449.316	2582.32
449.522	2742.06
449.728	2905.9
449.935	3006.25
450.141	2922.28
450.347	3209
450.553	2989.86
450.76	3350.31
450.966	3368.74
451.172	3563.29
451.378	3690.27
451.584	3761.95
451.791	4046.62
451.997	4101.91
452.203	4319
452.409	4497.17
452.615	4607.76
452.821	4495.12
453.027	4423.44
453.233	5152.52
453.44	4839.18
453.646	5117.7
453.852	5355.27
454.058	5717.76
454.264	5746.43
454.47	6242.04
454.676	6317.81
454.882	6792.94
455.088	6375.16
455.294	7003.88
455.5	7483.11
455.705	7722.72
455.911	7802.59
456.117	7864.03
456.323	8345.3
456.529	8359.64
456.735	9035.47
456.941	9201.35
457.147	9514.69
457.352	9750.21
457.558	10206.91
457.764	10655.41
457.97	11005.61
458.176	11630.24
458.381	11984.54
458.587	12365.46
458.793	13061.77
458.999	12760.72
459.204	14769.78
459.41	14741.11
459.616	14773.88
459.821	15763.04
460.027	16436.83
460.233	17053.27
460.438	16899.67
460.644	18191.94
460.85	18415.16
461.055	19074.61
461.261	19891.75
461.466	19543.6
461.672	20057.64
461.878	22181.38
462.083	22050.31
462.289	22369.79
462.494	23465.46
462.7	23451.12
462.905	23807.47
463.111	25652.69
463.316	27000.25
463.522	27524.53
463.727	28548.51
463.932	29511.06
464.138	30385.54
464.343	31577.46
464.549	31792.5
464.754	34096.46
464.959	34907.46
465.165	35597.62
465.37	35439.93
465.575	35153.21
465.781	37623.06
465.986	38837.51
466.191	38163.73
466.397	38413.58
466.602	37414.17
466.807	39673.08
467.012	40131.82
467.218	41284.83
467.423	41002.21
467.628	42200.27
467.833	43832.5
468.038	43365.57
468.244	42820.81
468.449	44598.44
