Data from USB4F104151__290__11-21-10-828.txt Node

Date: Wed Feb 26 11:21:10 EST 2025
User: louis
Spectrometer: USB4F10415
Trigger mode: 4
Integration Time (sec): 1.000000E-1
Scans to average: 1
Electric dark correction enabled: true
Nonlinearity correction enabled: false
Boxcar width: 0
XAxis mode: Wavelengths
Number of Pixels in Spectrum: 3648
>>>>>Begin Spectral Data<<<<<
178.204	-451.07
178.424	-451.07
178.644	-451.07
178.864	-455.16
179.084	-334.33
179.304	40.45
179.524	-4.61
179.744	-88.57
179.964	-4.61
180.184	34.3
180.404	91.65
180.624	13.82
180.844	34.3
181.064	-82.43
181.283	34.3
181.503	-68.09
181.723	-0.51
181.943	-51.71
182.163	134.65
182.383	19.97
182.602	79.36
182.822	126.46
183.042	128.51
183.262	-35.33
183.482	-18.94
183.701	13.82
183.921	71.17
184.141	-100.86
184.361	73.21
184.58	71.17
184.8	9.73
185.02	-25.09
185.239	65.02
185.459	22.02
185.679	91.65
185.898	-147.97
186.118	9.73
186.338	32.26
186.557	146.94
186.777	-104.96
186.997	-20.99
187.216	130.56
187.436	232.96
187.655	77.31
187.875	101.89
188.095	75.26
188.314	40.45
188.534	132.61
188.753	-82.43
188.973	118.27
189.192	128.51
189.412	38.4
189.631	24.06
189.851	91.65
190.07	103.93
190.29	-43.52
190.509	28.16
190.729	17.92
190.948	192
191.168	251.39
191.387	89.6
191.607	28.16
191.826	7.68
192.045	11.78
192.265	-12.8
192.484	48.64
192.704	75.26
192.923	15.87
193.142	144.89
193.362	132.61
193.581	208.38
193.8	89.6
194.02	73.21
194.239	75.26
194.458	54.78
194.678	50.69
194.897	42.5
195.116	50.69
195.335	50.69
195.555	48.64
195.774	34.3
195.993	89.6
196.212	-8.7
196.432	-66.05
196.651	11.78
196.87	24.06
197.089	249.34
197.308	11.78
197.528	13.82
197.747	-33.28
197.966	24.06
198.185	159.23
198.404	-23.04
198.623	62.98
198.842	110.08
199.062	69.12
199.281	105.98
199.5	-12.8
199.719	101.89
199.938	85.5
200.157	73.21
200.376	67.07
200.595	220.67
200.814	30.21
201.033	-8.7
201.252	101.89
201.471	30.21
201.69	142.85
201.909	56.83
202.128	142.85
202.347	69.12
202.566	3.58
202.785	-27.14
203.004	-29.18
203.223	273.92
203.442	46.59
203.661	5.63
203.879	77.31
204.098	161.28
204.317	-59.9
204.536	60.93
204.755	60.93
204.974	120.32
205.193	15.87
205.411	140.8
205.63	171.52
205.849	44.54
206.068	15.87
206.287	-51.71
206.505	126.46
206.724	48.64
206.943	56.83
207.162	38.4
207.381	126.46
207.599	-23.04
207.818	79.36
208.037	-16.9
208.255	15.87
208.474	159.23
208.693	69.12
208.911	58.88
209.13	118.27
209.349	153.09
209.567	52.74
209.786	118.27
210.005	110.08
210.223	48.64
210.442	-139.77
210.661	52.74
210.879	58.88
211.098	-0.51
211.316	36.35
211.535	142.85
211.753	101.89
211.972	77.31
212.191	-41.47
212.409	26.11
212.628	32.26
212.846	-59.9
213.065	40.45
213.283	130.56
213.502	58.88
213.72	56.83
213.938	77.31
214.157	-12.8
214.375	224.76
214.594	-2.56
214.812	5.63
215.031	-0.51
215.249	-47.62
215.467	40.45
215.686	13.82
215.904	103.93
216.122	-14.85
216.341	169.47
216.559	40.45
216.778	34.3
216.996	118.27
217.214	56.83
217.432	7.68
217.651	32.26
217.869	89.6
218.087	44.54
218.306	-51.71
218.524	-4.61
218.742	19.97
218.96	148.99
219.179	9.73
219.397	52.74
219.615	257.53
219.833	128.51
220.051	7.68
220.27	95.74
220.488	69.12
220.706	87.55
220.924	-25.09
221.142	7.68
221.36	22.02
221.578	89.6
221.796	-4.61
222.015	103.93
222.233	3.58
222.451	126.46
222.669	-29.18
222.887	60.93
223.105	75.26
223.323	-100.86
223.541	-25.09
223.759	-4.61
223.977	26.11
224.195	134.65
224.413	5.63
224.631	-4.61
224.849	112.13
225.067	140.8
225.285	7.68
225.503	-33.28
225.721	-96.77
225.939	110.08
226.157	50.69
226.375	239.1
226.592	24.06
226.81	9.73
227.028	101.89
227.246	65.02
227.464	-4.61
227.682	44.54
227.9	89.6
228.117	73.21
228.335	99.84
228.553	24.06
228.771	28.16
228.989	34.3
229.206	108.03
229.424	50.69
229.642	22.02
229.86	-78.33
230.077	194.05
230.295	83.45
230.513	9.73
230.731	99.84
230.948	79.36
231.166	194.05
231.384	58.88
231.601	-27.14
231.819	202.24
232.037	-8.7
232.254	-6.66
232.472	95.74
232.689	-27.14
232.907	108.03
233.125	11.78
233.342	65.02
233.56	17.92
233.777	-25.09
233.995	71.17
234.213	163.33
234.43	105.98
234.648	-31.23
234.865	52.74
235.083	34.3
235.3	99.84
235.518	108.03
235.735	175.61
235.953	42.5
236.17	48.64
236.388	-74.24
236.605	22.02
236.822	95.74
237.04	48.64
237.257	15.87
237.475	-39.42
237.692	40.45
237.909	105.98
238.127	5.63
238.344	93.69
238.562	93.69
238.779	54.78
238.996	-98.81
239.214	28.16
239.431	30.21
239.648	46.59
239.865	30.21
240.083	34.3
240.3	52.74
240.517	-37.38
240.735	46.59
240.952	157.18
241.169	34.3
241.386	142.85
241.603	50.69
241.821	7.68
242.038	138.75
242.255	163.33
242.472	-86.53
242.689	79.36
242.907	73.21
243.124	71.17
243.341	-6.66
243.558	69.12
243.775	-27.14
243.992	9.73
244.209	36.35
244.426	122.37
244.643	159.23
244.86	-27.14
245.078	58.88
245.295	77.31
245.512	56.83
245.729	-43.52
245.946	56.83
246.163	124.41
246.38	-20.99
246.597	95.74
246.814	54.78
247.031	67.07
247.248	48.64
247.464	58.88
247.681	40.45
247.898	65.02
248.115	79.36
248.332	36.35
248.549	228.86
248.766	179.71
248.983	52.74
249.2	30.21
249.417	97.79
249.633	62.98
249.85	52.74
250.067	81.41
250.284	83.45
250.501	114.17
250.717	56.83
250.934	-107.01
251.151	48.64
251.368	-2.56
251.585	60.93
251.801	91.65
252.018	-61.95
252.235	40.45
252.451	-61.95
252.668	28.16
252.885	56.83
253.102	30.21
253.318	17.92
253.535	50.69
253.752	19.97
253.968	13.82
254.185	-39.42
254.401	116.22
254.618	73.21
254.835	-29.18
255.051	157.18
255.268	144.89
255.484	15.87
255.701	11.78
255.917	38.4
256.134	7.68
256.351	83.45
256.567	-57.86
256.784	75.26
257	-66.05
257.217	128.51
257.433	58.88
257.65	69.12
257.866	116.22
258.082	-57.86
258.299	15.87
258.515	46.59
258.732	-6.66
258.948	-66.05
259.165	15.87
259.381	30.21
259.597	165.37
259.814	44.54
260.03	19.97
260.246	69.12
260.463	200.19
260.679	140.8
260.895	-20.99
261.112	124.41
261.328	50.69
261.544	-4.61
261.761	153.09
261.977	-66.05
262.193	-8.7
262.409	134.65
262.626	89.6
262.842	-6.66
263.058	-43.52
263.274	153.09
263.49	58.88
263.707	83.45
263.923	75.26
264.139	-104.96
264.355	132.61
264.571	114.17
264.787	-35.33
265.004	116.22
265.22	79.36
265.436	-39.42
265.652	-33.28
265.868	56.83
266.084	-35.33
266.3	15.87
266.516	-12.8
266.732	116.22
266.948	54.78
267.164	-6.66
267.38	116.22
267.596	26.11
267.812	134.65
268.028	52.74
268.244	9.73
268.46	19.97
268.676	36.35
268.892	95.74
269.108	-14.85
269.324	40.45
269.54	-43.52
269.756	103.93
269.972	-78.33
270.188	52.74
270.403	-12.8
270.619	42.5
270.835	112.13
271.051	24.06
271.267	-53.76
271.483	-18.94
271.698	126.46
271.914	40.45
272.13	79.36
272.346	19.97
272.562	71.17
272.777	118.27
272.993	120.32
273.209	-41.47
273.425	97.79
273.64	-20.99
273.856	134.65
274.072	15.87
274.287	5.63
274.503	110.08
274.719	85.5
274.934	-0.51
275.15	-16.9
275.366	17.92
275.581	-12.8
275.797	-6.66
276.012	65.02
276.228	-20.99
276.444	28.16
276.659	93.69
276.875	1.54
277.09	-18.94
277.306	34.3
277.521	17.92
277.737	13.82
277.952	-16.9
278.168	65.02
278.383	54.78
278.599	85.5
278.814	122.37
279.03	7.68
279.245	110.08
279.461	15.87
279.676	81.41
279.892	-20.99
280.107	24.06
280.322	9.73
280.538	71.17
280.753	-31.23
280.969	126.46
281.184	97.79
281.399	204.28
281.615	32.26
281.83	62.98
282.045	-27.14
282.26	-43.52
282.476	28.16
282.691	40.45
282.906	120.32
283.122	54.78
283.337	5.63
283.552	167.42
283.767	22.02
283.983	54.78
284.198	56.83
284.413	48.64
284.628	-6.66
284.843	75.26
285.058	128.51
285.274	91.65
285.489	1.54
285.704	110.08
285.919	-64
286.134	44.54
286.349	34.3
286.564	52.74
286.779	148.99
286.995	-6.66
287.21	-25.09
287.425	136.7
287.64	60.93
287.855	-4.61
288.07	-39.42
288.285	183.81
288.5	169.47
288.715	13.82
288.93	11.78
289.145	24.06
289.36	26.11
289.575	71.17
289.79	146.94
290.004	22.02
290.219	126.46
290.434	22.02
290.649	-16.9
290.864	-35.33
291.079	24.06
291.294	87.55
291.509	15.87
291.724	-12.8
291.938	17.92
292.153	46.59
292.368	28.16
292.583	91.65
292.798	101.89
293.012	103.93
293.227	126.46
293.442	-68.09
293.657	101.89
293.871	7.68
294.086	85.5
294.301	146.94
294.516	13.82
294.73	103.93
294.945	24.06
295.16	54.78
295.374	34.3
295.589	108.03
295.804	122.37
296.018	91.65
296.233	79.36
296.447	85.5
296.662	-70.14
296.877	42.5
297.091	15.87
297.306	91.65
297.52	26.11
297.735	28.16
297.949	36.35
298.164	73.21
298.378	17.92
298.593	-160.25
298.807	-90.62
299.022	11.78
299.236	165.37
299.451	26.11
299.665	-55.81
299.88	28.16
300.094	77.31
300.309	5.63
300.523	22.02
300.737	-18.94
300.952	108.03
301.166	140.8
301.381	-41.47
301.595	-23.04
301.809	91.65
302.024	-41.47
302.238	9.73
302.452	122.37
302.667	22.02
302.881	142.85
303.095	89.6
303.309	122.37
303.524	32.26
303.738	-47.62
303.952	28.16
304.166	-35.33
304.381	-145.92
304.595	196.09
304.809	-55.81
305.023	32.26
305.237	34.3
305.452	44.54
305.666	48.64
305.88	24.06
306.094	52.74
306.308	69.12
306.522	110.08
306.736	136.7
306.95	110.08
307.164	28.16
307.379	9.73
307.593	243.2
307.807	179.71
308.021	146.94
308.235	87.55
308.449	-107.01
308.663	22.02
308.877	192
309.091	19.97
309.305	58.88
309.519	-10.75
309.733	99.84
309.947	-66.05
310.161	52.74
310.374	62.98
310.588	95.74
310.802	-61.95
311.016	5.63
311.23	42.5
311.444	-2.56
311.658	28.16
311.872	89.6
312.085	151.04
312.299	126.46
312.513	187.9
312.727	15.87
312.941	-16.9
313.154	71.17
313.368	91.65
313.582	-43.52
313.796	122.37
314.009	-12.8
314.223	185.85
314.437	42.5
314.651	44.54
314.864	19.97
315.078	-4.61
315.292	-55.81
315.505	89.6
315.719	69.12
315.933	54.78
316.146	-4.61
316.36	3.58
316.573	89.6
316.787	15.87
317.001	38.4
317.214	17.92
317.428	110.08
317.641	19.97
317.855	-29.18
318.068	-16.9
318.282	60.93
318.495	161.28
318.709	136.7
318.922	56.83
319.136	144.89
319.349	173.57
319.563	1.54
319.776	91.65
319.99	-86.53
320.203	105.98
320.417	7.68
320.63	112.13
320.843	144.89
321.057	50.69
321.27	-8.7
321.483	60.93
321.697	110.08
321.91	-4.61
322.124	32.26
322.337	28.16
322.55	-88.57
322.763	15.87
322.977	36.35
323.19	-57.86
323.403	97.79
323.617	40.45
323.83	114.17
324.043	-10.75
324.256	122.37
324.469	-55.81
324.683	120.32
324.896	-0.51
325.109	50.69
325.322	-35.33
325.535	110.08
325.748	138.75
325.962	34.3
326.175	89.6
326.388	62.98
326.601	79.36
326.814	-2.56
327.027	7.68
327.24	181.76
327.453	-53.76
327.666	108.03
327.879	148.99
328.092	101.89
328.305	71.17
328.518	17.92
328.731	-57.86
328.944	58.88
329.157	112.13
329.37	3.58
329.583	128.51
329.796	124.41
330.009	-104.96
330.222	138.75
330.435	126.46
330.648	134.65
330.861	112.13
331.073	32.26
331.286	128.51
331.499	116.22
331.712	-8.7
331.925	-6.66
332.138	50.69
332.35	36.35
332.563	-29.18
332.776	95.74
332.989	-39.42
333.202	-8.7
333.414	48.64
333.627	9.73
333.84	-2.56
334.053	15.87
334.265	-25.09
334.478	28.16
334.691	22.02
334.903	69.12
335.116	50.69
335.329	-14.85
335.541	77.31
335.754	136.7
335.966	-4.61
336.179	24.06
336.392	32.26
336.604	103.93
336.817	167.42
337.029	42.5
337.242	-18.94
337.454	114.17
337.667	65.02
337.88	110.08
338.092	58.88
338.305	112.13
338.517	28.16
338.729	60.93
338.942	95.74
339.154	17.92
339.367	-8.7
339.579	11.78
339.792	-6.66
340.004	93.69
340.217	56.83
340.429	91.65
340.641	-51.71
340.854	-102.91
341.066	77.31
341.278	126.46
341.491	120.32
341.703	120.32
341.915	-33.28
342.128	142.85
342.34	60.93
342.552	32.26
342.764	126.46
342.977	44.54
343.189	67.07
343.401	48.64
343.613	-0.51
343.826	79.36
344.038	-84.48
344.25	85.5
344.462	-4.61
344.674	69.12
344.886	-8.7
345.099	126.46
345.311	173.57
345.523	-14.85
345.735	-160.25
345.947	120.32
346.159	36.35
346.371	89.6
346.583	46.59
346.795	163.33
347.007	-10.75
347.219	54.78
347.431	103.93
347.643	130.56
347.855	-27.14
348.067	97.79
348.279	-84.48
348.491	-10.75
348.703	126.46
348.915	48.64
349.127	-51.71
349.339	-25.09
349.551	-68.09
349.763	22.02
349.975	42.5
350.187	65.02
350.399	136.7
350.61	89.6
350.822	32.26
351.034	73.21
351.246	38.4
351.458	81.41
351.669	85.5
351.881	67.07
352.093	89.6
352.305	48.64
352.517	71.17
352.728	116.22
352.94	91.65
353.152	60.93
353.363	-33.28
353.575	120.32
353.787	192
353.999	26.11
354.21	185.85
354.422	-31.23
354.633	13.82
354.845	46.59
355.057	105.98
355.268	56.83
355.48	97.79
355.692	-29.18
355.903	69.12
356.115	-20.99
356.326	-82.43
356.538	151.04
356.749	71.17
356.961	161.28
357.172	-20.99
357.384	30.21
357.595	247.29
357.807	-23.04
358.018	-14.85
358.23	34.3
358.441	185.85
358.653	9.73
358.864	99.84
359.075	7.68
359.287	36.35
359.498	120.32
359.709	120.32
359.921	34.3
360.132	99.84
360.344	69.12
360.555	-8.7
360.766	79.36
360.977	67.07
361.189	151.04
361.4	1.54
361.611	122.37
361.823	136.7
362.034	42.5
362.245	-66.05
362.456	77.31
362.667	81.41
362.879	-55.81
363.09	46.59
363.301	24.06
363.512	50.69
363.723	50.69
363.935	56.83
364.146	91.65
364.357	48.64
364.568	157.18
364.779	-31.23
364.99	116.22
365.201	32.26
365.412	75.26
365.623	-88.57
365.834	128.51
366.045	-53.76
366.256	151.04
366.467	54.78
366.678	52.74
366.889	3.58
367.1	-2.56
367.311	-12.8
367.522	-45.57
367.733	36.35
367.944	81.41
368.155	58.88
368.366	77.31
368.577	87.55
368.788	62.98
368.999	22.02
369.209	77.31
369.42	192
369.631	224.76
369.842	60.93
370.053	19.97
370.264	81.41
370.474	30.21
370.685	42.5
370.896	24.06
371.107	198.14
371.317	87.55
371.528	-20.99
371.739	122.37
371.95	132.61
372.16	52.74
372.371	-33.28
372.582	-16.9
372.792	60.93
373.003	118.27
373.214	38.4
373.424	110.08
373.635	62.98
373.846	198.14
374.056	34.3
374.267	81.41
374.477	38.4
374.688	62.98
374.898	19.97
375.109	99.84
375.319	93.69
375.53	93.69
375.74	114.17
375.951	-45.57
376.161	95.74
376.372	77.31
376.582	60.93
376.793	116.22
377.003	22.02
377.214	-4.61
377.424	142.85
377.635	9.73
377.845	-2.56
378.055	175.61
378.266	-8.7
378.476	22.02
378.686	65.02
378.897	85.5
379.107	77.31
379.317	13.82
379.528	77.31
379.738	112.13
379.948	-82.43
380.158	108.03
380.369	62.98
380.579	60.93
380.789	73.21
380.999	83.45
381.21	89.6
381.42	183.81
381.63	3.58
381.84	165.37
382.05	89.6
382.261	110.08
382.471	17.92
382.681	42.5
382.891	181.76
383.101	95.74
383.311	-31.23
383.521	-70.14
383.731	103.93
383.941	56.83
384.151	130.56
384.361	32.26
384.571	97.79
384.781	-0.51
384.991	192
385.201	181.76
385.411	175.61
385.621	46.59
385.831	89.6
386.041	-4.61
386.251	58.88
386.461	118.27
386.671	3.58
386.881	83.45
387.091	67.07
387.301	75.26
387.511	142.85
387.72	140.8
387.93	50.69
388.14	-96.77
388.35	112.13
388.56	116.22
388.769	173.57
388.979	165.37
389.189	-49.66
389.399	38.4
389.609	48.64
389.818	95.74
390.028	81.41
390.238	85.5
390.447	44.54
390.657	161.28
390.867	56.83
391.076	17.92
391.286	75.26
391.496	118.27
391.705	60.93
391.915	148.99
392.125	212.48
392.334	9.73
392.544	105.98
392.753	77.31
392.963	-33.28
393.172	73.21
393.382	-0.51
393.591	237.05
393.801	62.98
394.01	208.38
394.22	116.22
394.429	11.78
394.639	-2.56
394.848	87.55
395.058	83.45
395.267	42.5
395.477	97.79
395.686	93.69
395.895	200.19
396.105	312.83
396.314	56.83
396.524	-6.66
396.733	26.11
396.942	124.41
397.152	110.08
397.361	146.94
397.57	36.35
397.78	65.02
397.989	120.32
398.198	206.33
398.407	52.74
398.617	19.97
398.826	116.22
399.035	75.26
399.244	134.65
399.453	69.12
399.663	103.93
399.872	83.45
400.081	-33.28
400.29	198.14
400.499	30.21
400.708	138.75
400.917	110.08
401.127	73.21
401.336	15.87
401.545	222.72
401.754	65.02
401.963	126.46
402.172	69.12
402.381	-119.29
402.59	36.35
402.799	83.45
403.008	177.66
403.217	69.12
403.426	93.69
403.635	-23.04
403.844	11.78
404.053	65.02
404.262	-29.18
404.471	163.33
404.68	192
404.888	36.35
405.097	-8.7
405.306	13.82
405.515	138.75
405.724	103.93
405.933	183.81
406.142	62.98
406.35	69.12
406.559	58.88
406.768	83.45
406.977	140.8
407.185	103.93
407.394	62.98
407.603	-27.14
407.812	65.02
408.02	114.17
408.229	73.21
408.438	-35.33
408.646	50.69
408.855	-10.75
409.064	77.31
409.272	60.93
409.481	140.8
409.69	-29.18
409.898	-86.53
410.107	48.64
410.315	108.03
410.524	58.88
410.733	56.83
410.941	118.27
411.15	85.5
411.358	177.66
411.567	136.7
411.775	87.55
411.984	-10.75
412.192	175.61
412.401	19.97
412.609	173.57
412.818	128.51
413.026	89.6
413.234	93.69
413.443	48.64
413.651	50.69
413.86	101.89
414.068	124.41
414.276	140.8
414.485	1.54
414.693	173.57
414.901	185.85
415.11	97.79
415.318	62.98
415.526	-0.51
415.734	95.74
415.943	34.3
416.151	206.33
416.359	67.07
416.567	7.68
416.776	103.93
416.984	159.23
417.192	235
417.4	-14.85
417.608	-23.04
417.817	-16.9
418.025	151.04
418.233	165.37
418.441	-6.66
418.649	-45.57
418.857	118.27
419.065	192
419.273	-41.47
419.481	56.83
419.689	126.46
419.897	44.54
420.105	-2.56
420.313	79.36
420.521	214.52
420.729	192
420.937	42.5
421.145	54.78
421.353	103.93
421.561	157.18
421.769	105.98
421.977	7.68
422.185	148.99
422.393	48.64
422.601	148.99
422.809	93.69
423.017	87.55
423.224	67.07
423.432	138.75
423.64	9.73
423.848	173.57
424.056	7.68
424.263	187.9
424.471	110.08
424.679	198.14
424.887	-23.04
425.094	198.14
425.302	161.28
425.51	-4.61
425.718	173.57
425.925	126.46
426.133	71.17
426.341	249.34
426.548	69.12
426.756	65.02
426.964	112.13
427.171	46.59
427.379	116.22
427.586	128.51
427.794	146.94
428.001	200.19
428.209	110.08
428.417	239.1
428.624	77.31
428.832	161.28
429.039	134.65
429.247	148.99
429.454	136.7
429.662	171.52
429.869	173.57
430.076	85.5
430.284	183.81
430.491	179.71
430.699	185.85
430.906	282.11
431.114	169.47
431.321	222.72
431.528	103.93
431.736	202.24
431.943	196.09
432.15	226.81
432.358	265.72
432.565	318.97
432.772	-23.04
432.979	247.29
433.187	134.65
433.394	261.63
433.601	214.52
433.808	212.48
434.016	255.48
434.223	259.58
434.43	179.71
434.637	341.5
434.844	333.31
435.052	230.91
435.259	282.11
435.466	321.02
435.673	282.11
435.88	372.22
436.087	425.47
436.294	431.61
436.501	388.6
436.708	349.69
436.915	415.23
437.122	357.88
437.329	314.88
437.537	347.64
437.743	511.48
437.95	509.43
438.157	452.09
438.364	458.23
438.571	482.81
438.778	527.86
438.985	544.25
439.192	640.5
439.399	470.52
439.606	456.19
439.813	622.07
440.02	691.7
440.227	798.2
440.433	816.63
440.64	570.87
440.847	663.03
441.054	708.09
441.261	865.78
441.467	736.76
441.674	724.47
441.881	822.77
442.088	814.58
442.294	974.32
442.501	1007.09
442.708	1060.34
442.914	916.98
443.121	1076.72
443.328	1019.38
443.534	1156.59
443.741	1097.2
443.948	1086.96
444.154	1244.65
444.361	1353.2
444.568	1250.8
444.774	1342.96
444.981	1220.08
445.187	1476.07
445.394	1490.41
445.6	1428.97
445.807	1619.43
446.013	1578.47
446.22	1502.7
446.426	1730.02
446.633	1836.52
446.839	2053.6
447.046	1842.66
447.252	1949.15
447.459	2067.94
447.665	2160.1
447.871	2258.4
448.078	2295.26
448.284	2211.29
448.491	2434.52
448.697	2690.52
448.903	2653.66
449.11	2876.88
449.316	2659.8
449.522	3042.77
449.728	2969.04
449.935	3182.03
450.141	3120.59
450.347	3458.51
450.553	3333.58
450.76	3515.85
450.966	3640.78
451.172	3829.19
451.378	3997.12
451.584	4044.23
451.791	4328.89
451.997	4404.67
452.203	4578.75
452.409	4640.19
452.615	4836.79
452.821	4847.03
453.027	4908.47
453.233	5506.48
453.44	5262.77
453.646	5637.55
453.852	5733.8
454.058	6036.9
454.264	6290.85
454.47	6600.09
454.676	6557.08
454.882	7271.83
455.088	6970.77
455.294	7259.54
455.5	7880.07
455.705	8166.79
455.911	8295.81
456.117	8433.02
456.323	8883.58
456.529	8826.23
456.735	9583.98
456.941	9844.07
457.147	10343.78
457.352	10540.38
457.558	10714.46
457.764	11382.1
457.97	11636.05
458.176	12340.55
458.381	12698.94
458.587	12930.36
458.793	13595.95
458.999	13755.69
459.204	15519
459.41	15881.49
459.616	15523.09
459.821	16657.67
460.027	17415.41
460.233	18029.8
460.438	18169.07
460.644	19088.6
460.85	19403.99
461.055	19979.47
461.261	20724.93
461.466	20612.29
461.672	21241.02
461.878	23506.07
462.083	23200.93
462.289	24011.92
462.494	25007.23
462.7	24982.66
462.905	25513.08
463.111	27235.42
463.316	28886.09
463.522	29045.83
463.727	30094.39
463.932	31155.24
464.138	32066.58
464.343	33457.15
464.549	34024.44
464.754	35970.01
464.959	37428.16
465.165	37479.36
465.37	37219.27
465.575	37286.86
465.781	39662.5
465.986	41147.28
466.191	40547.22
466.397	40811.41
466.602	40039.33
466.807	42124.16
467.012	42955.63
467.218	43357.03
467.423	43565.93
467.628	44921.68
467.833	46990.13
468.038	46574.39
468.244	45269.84
468.449	47702.82
