Data from USB4F104151__111__10-45-49-560.txt Node

Date: Wed Feb 26 10:45:49 EST 2025
User: louis
Spectrometer: USB4F10415
Trigger mode: 4
Integration Time (sec): 1.000000E-1
Scans to average: 1
Electric dark correction enabled: true
Nonlinearity correction enabled: false
Boxcar width: 0
XAxis mode: Wavelengths
Number of Pixels in Spectrum: 3648
>>>>>Begin Spectral Data<<<<<
178.204	-334.16
178.424	-334.16
178.644	-334.16
178.864	-389.46
179.084	-368.98
179.304	-92.5
179.524	-20.82
179.744	-35.16
179.964	-18.77
180.184	100.01
180.404	85.67
180.624	-45.4
180.844	32.43
181.064	-29.01
181.283	69.29
181.503	-55.64
181.723	9.9
181.943	-84.31
182.163	249.51
182.383	-106.84
182.602	81.58
182.822	165.54
183.042	75.43
183.262	-0.34
183.482	44.71
183.701	59.05
183.921	95.91
184.141	-24.92
184.361	108.2
184.58	57
184.8	93.87
185.02	20.14
185.239	30.38
185.459	159.4
185.679	-0.34
185.898	-141.65
186.118	44.71
186.338	9.9
186.557	97.96
186.777	-55.64
186.997	42.67
187.216	32.43
187.436	59.05
187.655	93.87
187.875	159.4
188.095	-16.73
188.314	138.92
188.534	151.21
188.753	3.75
188.973	73.39
189.192	181.93
189.412	54.95
189.631	28.33
189.851	81.58
190.07	134.82
190.29	-55.64
190.509	-20.82
190.729	40.62
190.948	124.58
191.168	290.47
191.387	77.48
191.607	79.53
191.826	81.58
192.045	46.76
192.265	-4.44
192.484	50.86
192.704	3.75
192.923	-53.59
193.142	186.02
193.362	46.76
193.581	159.4
193.8	24.23
194.02	106.15
194.239	85.67
194.458	9.9
194.678	-4.44
194.897	-47.44
195.116	46.76
195.335	28.33
195.555	79.53
195.774	57
195.993	106.15
196.212	16.04
196.432	16.04
196.651	32.43
196.87	-24.92
197.089	183.98
197.308	69.29
197.528	73.39
197.747	5.8
197.966	24.23
198.185	157.35
198.404	-16.73
198.623	77.48
198.842	108.2
199.062	192.17
199.281	120.49
199.5	22.19
199.719	93.87
199.938	112.3
200.157	44.71
200.376	100.01
200.595	112.3
200.814	108.2
201.033	-10.58
201.252	151.21
201.471	26.28
201.69	108.2
201.909	30.38
202.128	143.02
202.347	75.43
202.566	71.34
202.785	32.43
203.004	-24.92
203.223	306.85
203.442	48.81
203.661	-20.82
203.879	30.38
204.098	83.63
204.317	-80.21
204.536	95.91
204.755	140.97
204.974	210.6
205.193	-84.31
205.411	235.18
205.63	116.39
205.849	40.62
206.068	59.05
206.287	3.75
206.505	128.68
206.724	3.75
206.943	11.95
207.162	-10.58
207.381	130.73
207.599	54.95
207.818	1.71
208.037	-2.39
208.255	126.63
208.474	85.67
208.693	126.63
208.911	44.71
209.13	97.96
209.349	93.87
209.567	212.65
209.786	93.87
210.005	71.34
210.223	67.24
210.442	-94.55
210.661	91.82
210.879	63.15
211.098	36.52
211.316	36.52
211.535	81.58
211.753	50.86
211.972	77.48
212.191	-45.4
212.409	34.47
212.628	110.25
212.846	24.23
213.065	85.67
213.283	36.52
213.502	122.54
213.72	20.14
213.938	48.81
214.157	20.14
214.375	69.29
214.594	28.33
214.812	134.82
215.031	20.14
215.249	1.71
215.467	106.15
215.686	81.58
215.904	145.06
216.122	28.33
216.341	100.01
216.559	-16.73
216.778	130.73
216.996	151.21
217.214	89.77
217.432	-8.53
217.651	-84.31
217.869	34.47
218.087	93.87
218.306	69.29
218.524	73.39
218.742	-33.11
218.96	100.01
219.179	85.67
219.397	13.99
219.615	269.99
219.833	77.48
220.051	-82.26
220.27	126.63
220.488	50.86
220.706	100.01
220.924	-12.63
221.142	9.9
221.36	30.38
221.578	114.34
221.796	-22.87
222.015	26.28
222.233	69.29
222.451	220.84
222.669	-16.73
222.887	73.39
223.105	-2.39
223.323	36.52
223.541	-14.68
223.759	106.15
223.977	22.19
224.195	124.58
224.413	7.85
224.631	40.62
224.849	22.19
225.067	200.36
225.285	-6.49
225.503	38.57
225.721	-49.49
225.939	38.57
226.157	-14.68
226.375	194.22
226.592	-88.4
226.81	85.67
227.028	89.77
227.246	128.68
227.464	81.58
227.682	138.92
227.9	95.91
228.117	36.52
228.335	46.76
228.553	77.48
228.771	57
228.989	57
229.206	-8.53
229.424	24.23
229.642	-37.2
229.86	34.47
230.077	183.98
230.295	-6.49
230.513	83.63
230.731	93.87
230.948	179.88
231.166	134.82
231.384	73.39
231.601	89.77
231.819	222.89
232.037	18.09
232.254	-57.68
232.472	54.95
232.689	-63.83
232.907	159.4
233.125	16.04
233.342	26.28
233.56	-41.3
233.777	77.48
233.995	-2.39
234.213	161.45
234.43	67.24
234.648	28.33
234.865	40.62
235.083	67.24
235.3	65.19
235.518	83.63
235.735	136.87
235.953	77.48
236.17	75.43
236.388	-10.58
236.605	79.53
236.822	110.25
237.04	112.3
237.257	104.11
237.475	-6.49
237.692	102.06
237.909	171.69
238.127	59.05
238.344	71.34
238.562	42.67
238.779	-86.36
238.996	-49.49
239.214	79.53
239.431	95.91
239.648	28.33
239.865	87.72
240.083	-31.06
240.3	65.19
240.517	46.76
240.735	52.91
240.952	81.58
241.169	73.39
241.386	61.1
241.603	69.29
241.821	-47.44
242.038	100.01
242.255	81.58
242.472	-76.12
242.689	91.82
242.907	97.96
243.124	102.06
243.341	85.67
243.558	-22.87
243.775	-41.3
243.992	38.57
244.209	46.76
244.426	153.26
244.643	9.9
244.86	26.28
245.078	-0.34
245.295	52.91
245.512	38.57
245.729	-37.2
245.946	196.26
246.163	38.57
246.38	-2.39
246.597	57
246.814	-16.73
247.031	13.99
247.248	11.95
247.464	122.54
247.681	28.33
247.898	100.01
248.115	67.24
248.332	-26.96
248.549	93.87
248.766	165.54
248.983	83.63
249.2	13.99
249.417	52.91
249.633	-2.39
249.85	44.71
250.067	38.57
250.284	44.71
250.501	69.29
250.717	112.3
250.934	46.76
251.151	46.76
251.368	42.67
251.585	69.29
251.801	38.57
252.018	-8.53
252.235	93.87
252.451	-65.88
252.668	-2.39
252.885	163.5
253.102	63.15
253.318	1.71
253.535	-2.39
253.752	-6.49
253.968	30.38
254.185	-72.02
254.401	124.58
254.618	48.81
254.835	-8.53
255.051	85.67
255.268	102.06
255.484	-26.96
255.701	50.86
255.917	100.01
256.134	22.19
256.351	28.33
256.567	-43.35
256.784	34.47
257	-76.12
257.217	171.69
257.433	138.92
257.65	128.68
257.866	57
258.082	34.47
258.299	-45.4
258.515	7.85
258.732	48.81
258.948	65.19
259.165	32.43
259.381	7.85
259.597	59.05
259.814	36.52
260.03	-49.49
260.246	-51.54
260.463	93.87
260.679	116.39
260.895	20.14
261.112	110.25
261.328	11.95
261.544	-41.3
261.761	157.35
261.977	54.95
262.193	-86.36
262.409	52.91
262.626	75.43
262.842	18.09
263.058	18.09
263.274	110.25
263.49	104.11
263.707	116.39
263.923	85.67
264.139	1.71
264.355	11.95
264.571	57
264.787	46.76
265.004	89.77
265.22	-47.44
265.436	-12.63
265.652	20.14
265.868	118.44
266.084	5.8
266.3	63.15
266.516	-47.44
266.732	85.67
266.948	34.47
267.164	32.43
267.38	198.31
267.596	83.63
267.812	89.77
268.028	75.43
268.244	54.95
268.46	65.19
268.676	91.82
268.892	95.91
269.108	9.9
269.324	-26.96
269.54	-33.11
269.756	112.3
269.972	28.33
270.188	69.29
270.403	26.28
270.619	26.28
270.835	95.91
271.051	81.58
271.267	-14.68
271.483	-53.59
271.698	61.1
271.914	36.52
272.13	79.53
272.346	16.04
272.562	110.25
272.777	155.3
272.993	28.33
273.209	-8.53
273.425	102.06
273.64	-26.96
273.856	89.77
274.072	1.71
274.287	-2.39
274.503	100.01
274.719	61.1
274.934	22.19
275.15	-127.32
275.366	7.85
275.581	-35.16
275.797	65.19
276.012	-33.11
276.228	38.57
276.444	-69.97
276.659	44.71
276.875	-8.53
277.09	57
277.306	63.15
277.521	108.2
277.737	87.72
277.952	95.91
278.168	40.62
278.383	3.75
278.599	83.63
278.814	118.44
279.03	20.14
279.245	190.12
279.461	161.45
279.676	130.73
279.892	-45.4
280.107	-39.25
280.322	-26.96
280.538	67.24
280.753	32.43
280.969	73.39
281.184	-59.73
281.399	112.3
281.615	95.91
281.83	36.52
282.045	-26.96
282.26	44.71
282.476	81.58
282.691	46.76
282.906	26.28
283.122	118.44
283.337	-0.34
283.552	83.63
283.767	-69.97
283.983	108.2
284.198	48.81
284.413	81.58
284.628	-76.12
284.843	18.09
285.058	108.2
285.274	63.15
285.489	40.62
285.704	114.34
285.919	-61.78
286.134	57
286.349	81.58
286.564	9.9
286.779	36.52
286.995	13.99
287.21	-37.2
287.425	57
287.64	22.19
287.855	54.95
288.07	-31.06
288.285	106.15
288.5	112.3
288.715	67.24
288.93	7.85
289.145	13.99
289.36	145.06
289.575	-31.06
289.79	97.96
290.004	32.43
290.219	22.19
290.434	32.43
290.649	1.71
290.864	40.62
291.079	32.43
291.294	40.62
291.509	18.09
291.724	-24.92
291.938	-4.44
292.153	40.62
292.368	52.91
292.583	59.05
292.798	122.54
293.012	18.09
293.227	79.53
293.442	52.91
293.657	65.19
293.871	134.82
294.086	67.24
294.301	173.74
294.516	149.16
294.73	67.24
294.945	13.99
295.16	-14.68
295.374	157.35
295.589	124.58
295.804	-2.39
296.018	67.24
296.233	130.73
296.447	65.19
296.662	36.52
296.877	118.44
297.091	42.67
297.306	7.85
297.52	7.85
297.735	122.54
297.949	52.91
298.164	42.67
298.378	59.05
298.593	34.47
298.807	-10.58
299.022	-8.53
299.236	134.82
299.451	13.99
299.665	5.8
299.88	28.33
300.094	69.29
300.309	11.95
300.523	38.57
300.737	-67.92
300.952	89.77
301.166	132.78
301.381	-39.25
301.595	34.47
301.809	73.39
302.024	83.63
302.238	18.09
302.452	143.02
302.667	44.71
302.881	155.3
303.095	67.24
303.309	128.68
303.524	-16.73
303.738	1.71
303.952	-8.53
304.166	61.1
304.381	-76.12
304.595	157.35
304.809	-26.96
305.023	24.23
305.237	81.58
305.452	63.15
305.666	75.43
305.88	118.44
306.094	3.75
306.308	118.44
306.522	100.01
306.736	171.69
306.95	42.67
307.164	114.34
307.379	-8.53
307.593	106.15
307.807	112.3
308.021	114.34
308.235	173.74
308.449	-61.78
308.663	-6.49
308.877	261.8
309.091	102.06
309.305	71.34
309.519	-57.68
309.733	145.06
309.947	-55.64
310.161	93.87
310.374	149.16
310.588	120.49
310.802	-41.3
311.016	54.95
311.23	1.71
311.444	-59.73
311.658	16.04
311.872	161.45
312.085	149.16
312.299	124.58
312.513	128.68
312.727	63.15
312.941	-10.58
313.154	67.24
313.368	13.99
313.582	16.04
313.796	67.24
314.009	83.63
314.223	126.63
314.437	9.9
314.651	118.44
314.864	7.85
315.078	-14.68
315.292	-10.58
315.505	-0.34
315.719	130.73
315.933	30.38
316.146	-24.92
316.36	-37.2
316.573	132.78
316.787	83.63
317.001	93.87
317.214	-59.73
317.428	112.3
317.641	7.85
317.855	11.95
318.068	-0.34
318.282	20.14
318.495	102.06
318.709	61.1
318.922	61.1
319.136	183.98
319.349	89.77
319.563	28.33
319.776	93.87
319.99	-57.68
320.203	147.11
320.417	30.38
320.63	77.48
320.843	212.65
321.057	61.1
321.27	65.19
321.483	83.63
321.697	93.87
321.91	36.52
322.124	79.53
322.337	75.43
322.55	-123.22
322.763	40.62
322.977	34.47
323.19	36.52
323.403	83.63
323.617	40.62
323.83	95.91
324.043	110.25
324.256	44.71
324.469	-100.69
324.683	173.74
324.896	67.24
325.109	7.85
325.322	-86.36
325.535	177.83
325.748	147.11
325.962	28.33
326.175	106.15
326.388	126.63
326.601	120.49
326.814	24.23
327.027	73.39
327.24	100.01
327.453	-55.64
327.666	104.11
327.879	159.4
328.092	100.01
328.305	106.15
328.518	18.09
328.731	95.91
328.944	38.57
329.157	87.72
329.37	65.19
329.583	188.07
329.796	106.15
330.009	40.62
330.222	54.95
330.435	149.16
330.648	75.43
330.861	28.33
331.073	57
331.286	89.77
331.499	20.14
331.712	20.14
331.925	77.48
332.138	34.47
332.35	120.49
332.563	52.91
332.776	149.16
332.989	-51.54
333.202	-41.3
333.414	112.3
333.627	73.39
333.84	13.99
334.053	71.34
334.265	59.05
334.478	44.71
334.691	1.71
334.903	110.25
335.116	-8.53
335.329	-0.34
335.541	61.1
335.754	179.88
335.966	-18.77
336.179	22.19
336.392	32.43
336.604	100.01
336.817	91.82
337.029	59.05
337.242	30.38
337.454	34.47
337.667	-18.77
337.88	134.82
338.092	57
338.305	59.05
338.517	-26.96
338.729	77.48
338.942	104.11
339.154	1.71
339.367	-0.34
339.579	126.63
339.792	-43.35
340.004	57
340.217	50.86
340.429	11.95
340.641	5.8
340.854	3.75
341.066	9.9
341.278	73.39
341.491	149.16
341.703	46.76
341.915	-45.4
342.128	136.87
342.34	104.11
342.552	-72.02
342.764	57
342.977	22.19
343.189	18.09
343.401	73.39
343.613	-4.44
343.826	-10.58
344.038	-24.92
344.25	167.59
344.462	5.8
344.674	52.91
344.886	9.9
345.099	93.87
345.311	11.95
345.523	38.57
345.735	-26.96
345.947	85.67
346.159	-37.2
346.371	40.62
346.583	44.71
346.795	220.84
347.007	-16.73
347.219	59.05
347.431	38.57
347.643	114.34
347.855	13.99
348.067	126.63
348.279	-67.92
348.491	97.96
348.703	140.97
348.915	20.14
349.127	26.28
349.339	40.62
349.551	-26.96
349.763	165.54
349.975	52.91
350.187	214.7
350.399	61.1
350.61	122.54
350.822	-22.87
351.034	110.25
351.246	83.63
351.458	147.11
351.669	20.14
351.881	124.58
352.093	116.39
352.305	85.67
352.517	32.43
352.728	145.06
352.94	57
353.152	48.81
353.363	-24.92
353.575	140.97
353.787	183.98
353.999	57
354.21	233.13
354.422	-37.2
354.633	-0.34
354.845	87.72
355.057	48.81
355.268	77.48
355.48	136.87
355.692	-39.25
355.903	81.58
356.115	-106.84
356.326	-112.98
356.538	216.74
356.749	1.71
356.961	173.74
357.172	-2.39
357.384	71.34
357.595	214.7
357.807	44.71
358.018	32.43
358.23	-16.73
358.441	196.26
358.653	79.53
358.864	9.9
359.075	-31.06
359.287	-20.82
359.498	130.73
359.709	167.59
359.921	59.05
360.132	79.53
360.344	50.86
360.555	36.52
360.766	42.67
360.977	-26.96
361.189	108.2
361.4	97.96
361.611	145.06
361.823	183.98
362.034	116.39
362.245	-61.78
362.456	59.05
362.667	106.15
362.879	-10.58
363.09	42.67
363.301	97.96
363.512	54.95
363.723	7.85
363.935	-20.82
364.146	95.91
364.357	26.28
364.568	67.24
364.779	-37.2
364.99	140.97
365.201	-24.92
365.412	173.74
365.623	-59.73
365.834	104.11
366.045	26.28
366.256	124.58
366.467	91.82
366.678	75.43
366.889	52.91
367.1	89.77
367.311	57
367.522	-8.53
367.733	122.54
367.944	89.77
368.155	42.67
368.366	11.95
368.577	75.43
368.788	171.69
368.999	-41.3
369.209	50.86
369.42	169.64
369.631	159.4
369.842	95.91
370.053	-6.49
370.264	75.43
370.474	-49.49
370.685	104.11
370.896	-8.53
371.107	104.11
371.317	102.06
371.528	79.53
371.739	114.34
371.95	108.2
372.16	143.02
372.371	-94.55
372.582	16.04
372.792	46.76
373.003	124.58
373.214	57
373.424	128.68
373.635	-37.2
373.846	155.3
374.056	32.43
374.267	50.86
374.477	44.71
374.688	59.05
374.898	44.71
375.109	71.34
375.319	63.15
375.53	97.96
375.74	196.26
375.951	26.28
376.161	91.82
376.372	138.92
376.582	-22.87
376.793	126.63
377.003	20.14
377.214	22.19
377.424	75.43
377.635	16.04
377.845	5.8
378.055	118.44
378.266	-80.21
378.476	83.63
378.686	87.72
378.897	67.24
379.107	136.87
379.317	69.29
379.528	-18.77
379.738	110.25
379.948	18.09
380.158	100.01
380.369	63.15
380.579	120.49
380.789	-20.82
380.999	13.99
381.21	67.24
381.42	251.56
381.63	9.9
381.84	102.06
382.05	71.34
382.261	116.39
382.471	114.34
382.681	-10.58
382.891	118.44
383.101	34.47
383.311	-14.68
383.521	38.57
383.731	81.58
383.941	89.77
384.151	73.39
384.361	36.52
384.571	73.39
384.781	-18.77
384.991	110.25
385.201	204.46
385.411	69.29
385.621	50.86
385.831	65.19
386.041	61.1
386.251	-0.34
386.461	93.87
386.671	42.67
386.881	85.67
387.091	-14.68
387.301	122.54
387.511	73.39
387.72	134.82
387.93	42.67
388.14	-98.64
388.35	104.11
388.56	120.49
388.769	54.95
388.979	65.19
389.189	-20.82
389.399	126.63
389.609	59.05
389.818	61.1
390.028	79.53
390.238	83.63
390.447	-22.87
390.657	42.67
390.867	7.85
391.076	-82.26
391.286	75.43
391.496	106.15
391.705	44.71
391.915	52.91
392.125	87.72
392.334	73.39
392.544	165.54
392.753	136.87
392.963	34.47
393.172	40.62
393.382	5.8
393.591	132.78
393.801	-39.25
394.01	177.83
394.22	163.5
394.429	46.76
394.639	48.81
394.848	67.24
395.058	128.68
395.267	-4.44
395.477	110.25
395.686	32.43
395.895	100.01
396.105	196.26
396.314	112.3
396.524	73.39
396.733	18.09
396.942	140.97
397.152	59.05
397.361	110.25
397.57	67.24
397.78	83.63
397.989	89.77
398.198	214.7
398.407	11.95
398.617	87.72
398.826	-12.63
399.035	61.1
399.244	132.78
399.453	79.53
399.663	-2.39
399.872	93.87
400.081	-67.92
400.29	122.54
400.499	32.43
400.708	54.95
400.917	54.95
401.127	-0.34
401.336	1.71
401.545	216.74
401.754	128.68
401.963	110.25
402.172	32.43
402.381	1.71
402.59	50.86
402.799	57
403.008	89.77
403.217	83.63
403.426	89.77
403.635	-72.02
403.844	59.05
404.053	28.33
404.262	-24.92
404.471	237.22
404.68	73.39
404.888	95.91
405.097	73.39
405.306	102.06
405.515	112.3
405.724	34.47
405.933	110.25
406.142	81.58
406.35	97.96
406.559	32.43
406.768	57
406.977	229.03
407.185	77.48
407.394	140.97
407.603	-14.68
407.812	97.96
408.02	75.43
408.229	-2.39
408.438	63.15
408.646	-37.2
408.855	116.39
409.064	61.1
409.272	36.52
409.481	71.34
409.69	-18.77
409.898	-55.64
410.107	20.14
410.315	73.39
410.524	-4.44
410.733	87.72
410.941	71.34
411.15	59.05
411.358	132.78
411.567	186.02
411.775	65.19
411.984	73.39
412.192	77.48
412.401	7.85
412.609	151.21
412.818	200.36
413.026	69.29
413.234	36.52
413.443	116.39
413.651	-49.49
413.86	65.19
414.068	130.73
414.276	87.72
414.485	22.19
414.693	140.97
414.901	212.65
415.11	116.39
415.318	54.95
415.526	59.05
415.734	91.82
415.943	36.52
416.151	155.3
416.359	-16.73
416.567	69.29
416.776	132.78
416.984	175.78
417.192	200.36
417.4	22.19
417.608	40.62
417.817	-61.78
418.025	87.72
418.233	229.03
418.441	16.04
418.649	-80.21
418.857	100.01
419.065	167.59
419.273	-10.58
419.481	126.63
419.689	102.06
419.897	11.95
420.105	7.85
420.313	112.3
420.521	134.82
420.729	134.82
420.937	22.19
421.145	22.19
421.353	73.39
421.561	214.7
421.769	89.77
421.977	-26.96
422.185	110.25
422.393	79.53
422.601	192.17
422.809	87.72
423.017	159.4
423.224	69.29
423.432	122.54
423.64	77.48
423.848	104.11
424.056	-55.64
424.263	32.43
424.471	26.28
424.679	171.69
424.887	1.71
425.094	179.88
425.302	163.5
425.51	52.91
425.718	122.54
425.925	61.1
426.133	44.71
426.341	218.79
426.548	57
426.756	7.85
426.964	128.68
427.171	-65.88
427.379	20.14
427.586	75.43
427.794	134.82
428.001	204.46
428.209	132.78
428.417	161.45
428.624	128.68
428.832	95.91
429.039	110.25
429.247	97.96
429.454	114.34
429.662	245.41
429.869	38.57
430.076	128.68
430.284	138.92
430.491	155.3
430.699	155.3
430.906	247.46
431.114	138.92
431.321	112.3
431.528	79.53
431.736	122.54
431.943	194.22
432.15	200.36
432.358	204.46
432.565	194.22
432.772	52.91
432.979	206.5
433.187	106.15
433.394	206.5
433.601	155.3
433.808	267.94
434.016	157.35
434.223	177.83
434.43	220.84
434.637	243.37
434.844	255.65
435.052	253.61
435.259	319.14
435.466	253.61
435.673	151.21
435.88	362.15
436.087	341.67
436.294	265.89
436.501	308.9
436.708	181.93
436.915	310.95
437.122	308.9
437.329	229.03
437.537	253.61
437.743	403.11
437.95	417.44
438.157	335.53
438.364	329.38
438.571	448.16
438.778	487.08
438.985	437.92
439.192	548.51
439.399	425.64
439.606	425.64
439.813	507.55
440.02	673.44
440.227	655.01
440.433	579.23
440.64	568.99
440.847	489.12
441.054	589.47
441.261	675.49
441.467	544.42
441.674	556.71
441.881	765.6
442.088	538.27
442.294	724.64
442.501	859.81
442.708	732.83
442.914	761.5
443.121	822.94
443.328	796.32
443.534	904.86
443.741	878.24
443.948	767.65
444.154	913.05
444.361	1173.14
444.568	892.57
444.774	968.35
444.981	921.24
445.187	1115.8
445.394	1185.43
445.6	1089.18
445.807	1179.29
446.013	1291.93
446.22	1296.02
446.426	1367.7
446.633	1365.65
446.839	1572.5
447.046	1375.89
447.252	1578.64
447.459	1590.93
447.665	1633.94
447.871	1781.39
448.078	1947.28
448.284	1842.83
448.491	1982.09
448.697	2025.1
448.903	2068.11
449.11	2092.68
449.316	2039.44
449.522	2217.61
449.728	2320.01
449.935	2338.44
450.141	2506.37
450.347	2664.07
450.553	2682.5
450.76	2633.35
450.966	2883.2
451.172	3034.75
451.378	3008.12
451.584	2934.4
451.791	3327.61
451.997	3415.67
452.203	3358.33
452.409	3665.52
452.615	3778.16
452.821	3618.42
453.027	3630.71
453.233	4195.95
453.44	3898.99
453.646	4111.98
453.852	4372.07
454.058	4558.44
454.264	4720.23
454.47	4929.12
454.676	4990.56
454.882	5582.42
455.088	5336.67
455.294	5555.8
455.5	5934.67
455.705	6258.25
455.911	6407.75
456.117	6491.72
456.323	6702.66
456.529	6772.29
456.735	7323.19
456.941	7460.41
457.147	7882.29
457.352	8085.04
457.558	8242.73
457.764	8812.07
457.97	8873.51
458.176	9238.05
458.381	9752.09
458.587	9989.65
458.793	10210.83
458.999	10360.33
459.204	11564.54
459.41	12133.87
459.616	11970.04
459.821	12672.49
460.027	13100.51
460.233	13589.98
460.438	13864.41
460.644	14620.11
460.85	14632.4
461.055	15384
461.261	16000.44
461.466	15627.71
461.672	16192.95
461.878	17712.54
462.083	17542.56
462.289	17819.03
462.494	18552.21
462.7	18947.47
462.905	19377.54
463.111	20817.26
463.316	21691.74
463.522	22177.11
463.727	22912.33
463.932	23776.58
464.138	24173.88
464.343	25455.91
464.549	25881.89
464.754	27647.24
464.959	27845.89
465.165	28855.54
465.37	28521.72
465.575	28292.35
465.781	30325.98
465.986	31194.32
466.191	30608.6
466.397	30524.63
466.602	30555.35
466.807	31966.4
467.012	32502.97
467.218	33246.38
467.423	33326.25
467.628	34153.63
467.833	35861.64
468.038	35126.42
468.244	34772.12
468.449	36418.69
468.654	35726.47
468.859	35482.77
469.064	35878.02
