Data from USB4F104151__52__10-43-28-976.txt Node

Date: Wed Feb 26 10:43:28 EST 2025
User: louis
Spectrometer: USB4F10415
Trigger mode: 4
Integration Time (sec): 1.000000E-1
Scans to average: 1
Electric dark correction enabled: true
Nonlinearity correction enabled: false
Boxcar width: 0
XAxis mode: Wavelengths
Number of Pixels in Spectrum: 3648
>>>>>Begin Spectral Data<<<<<
178.204	-377.34
178.424	-377.34
178.644	-377.34
178.864	-455.16
179.084	-420.35
179.304	24.06
179.524	-86.53
179.744	42.5
179.964	-31.23
180.184	40.45
180.404	54.78
180.624	11.78
180.844	-8.7
181.064	-49.66
181.283	75.26
181.503	-100.86
181.723	28.16
181.943	-88.57
182.163	235
182.383	-8.7
182.602	19.97
182.822	140.8
183.042	-31.23
183.262	48.64
183.482	-4.61
183.701	44.54
183.921	50.69
184.141	-117.25
184.361	91.65
184.58	54.78
184.8	40.45
185.02	42.5
185.239	56.83
185.459	48.64
185.679	93.69
185.898	-115.2
186.118	22.02
186.338	-66.05
186.557	60.93
186.777	-96.77
186.997	-94.72
187.216	95.74
187.436	110.08
187.655	-0.51
187.875	75.26
188.095	-4.61
188.314	93.69
188.534	95.74
188.753	-55.81
188.973	153.09
189.192	105.98
189.412	-51.71
189.631	62.98
189.851	38.4
190.07	146.94
190.29	-27.14
190.509	-27.14
190.729	9.73
190.948	97.79
191.168	196.09
191.387	151.04
191.607	-12.8
191.826	69.12
192.045	-51.71
192.265	-16.9
192.484	52.74
192.704	114.17
192.923	-74.24
193.142	177.66
193.362	95.74
193.581	99.84
193.8	89.6
194.02	60.93
194.239	-29.18
194.458	65.02
194.678	-6.66
194.897	-27.14
195.116	9.73
195.335	56.83
195.555	46.59
195.774	9.73
195.993	110.08
196.212	19.97
196.432	97.79
196.651	-59.9
196.87	9.73
197.089	226.81
197.308	28.16
197.528	32.26
197.747	-41.47
197.966	17.92
198.185	103.93
198.404	-25.09
198.623	93.69
198.842	38.4
199.062	116.22
199.281	142.85
199.5	30.21
199.719	69.12
199.938	-43.52
200.157	67.07
200.376	89.6
200.595	87.55
200.814	-20.99
201.033	-57.86
201.252	101.89
201.471	91.65
201.69	42.5
201.909	67.07
202.128	110.08
202.347	93.69
202.566	65.02
202.785	-111.1
203.004	-27.14
203.223	249.34
203.442	-27.14
203.661	-2.56
203.879	136.7
204.098	112.13
204.317	-25.09
204.536	60.93
204.755	62.98
204.974	60.93
205.193	-49.66
205.411	155.13
205.63	140.8
205.849	9.73
206.068	56.83
206.287	58.88
206.505	112.13
206.724	40.45
206.943	22.02
207.162	-131.58
207.381	11.78
207.599	34.3
207.818	65.02
208.037	-53.76
208.255	-0.51
208.474	34.3
208.693	40.45
208.911	-39.42
209.13	134.65
209.349	67.07
209.567	73.21
209.786	108.03
210.005	103.93
210.223	101.89
210.442	-119.29
210.661	15.87
210.879	73.21
211.098	32.26
211.316	42.5
211.535	11.78
211.753	50.69
211.972	75.26
212.191	3.58
212.409	-68.09
212.628	93.69
212.846	-72.19
213.065	60.93
213.283	124.41
213.502	40.45
213.72	38.4
213.938	24.06
214.157	32.26
214.375	73.21
214.594	-14.85
214.812	44.54
215.031	3.58
215.249	26.11
215.467	42.5
215.686	-0.51
215.904	77.31
216.122	7.68
216.341	153.09
216.559	42.5
216.778	87.55
216.996	65.02
217.214	3.58
217.432	-6.66
217.651	-29.18
217.869	-2.56
218.087	24.06
218.306	15.87
218.524	44.54
218.742	13.82
218.96	95.74
219.179	5.63
219.397	-41.47
219.615	241.15
219.833	-25.09
220.051	-2.56
220.27	17.92
220.488	120.32
220.706	71.17
220.924	-68.09
221.142	-98.81
221.36	56.83
221.578	99.84
221.796	28.16
222.015	-23.04
222.233	67.07
222.451	124.41
222.669	-25.09
222.887	77.31
223.105	28.16
223.323	75.26
223.541	-23.04
223.759	69.12
223.977	34.3
224.195	167.42
224.413	46.59
224.631	58.88
224.849	81.41
225.067	120.32
225.285	22.02
225.503	-0.51
225.721	-88.57
225.939	32.26
226.157	3.58
226.375	185.85
226.592	-18.94
226.81	-25.09
227.028	1.54
227.246	56.83
227.464	56.83
227.682	159.23
227.9	44.54
228.117	22.02
228.335	50.69
228.553	-37.38
228.771	22.02
228.989	95.74
229.206	103.93
229.424	-10.75
229.642	-35.33
229.86	-6.66
230.077	120.32
230.295	-2.56
230.513	144.89
230.731	85.5
230.948	126.46
231.166	124.41
231.384	-23.04
231.601	24.06
231.819	216.57
232.037	-68.09
232.254	-80.38
232.472	24.06
232.689	40.45
232.907	148.99
233.125	-18.94
233.342	28.16
233.56	-66.05
233.777	28.16
233.995	28.16
234.213	83.45
234.43	48.64
234.648	-0.51
234.865	7.68
235.083	3.58
235.3	112.13
235.518	69.12
235.735	165.37
235.953	93.69
236.17	7.68
236.388	-4.61
236.605	95.74
236.822	87.55
237.04	124.41
237.257	34.3
237.475	-35.33
237.692	34.3
237.909	112.13
238.127	15.87
238.344	56.83
238.562	-41.47
238.779	-76.29
238.996	-45.57
239.214	7.68
239.431	77.31
239.648	-12.8
239.865	5.63
240.083	40.45
240.3	-10.75
240.517	-25.09
240.735	58.88
240.952	83.45
241.169	22.02
241.386	34.3
241.603	34.3
241.821	-68.09
242.038	116.22
242.255	34.3
242.472	-145.92
242.689	95.74
242.907	44.54
243.124	34.3
243.341	-25.09
243.558	-76.29
243.775	46.59
243.992	-51.71
244.209	89.6
244.426	144.89
244.643	89.6
244.86	34.3
245.078	146.94
245.295	26.11
245.512	11.78
245.729	-55.81
245.946	101.89
246.163	56.83
246.38	-14.85
246.597	62.98
246.814	-55.81
247.031	-27.14
247.248	-14.85
247.464	89.6
247.681	48.64
247.898	73.21
248.115	122.37
248.332	-68.09
248.549	77.31
248.766	134.65
248.983	19.97
249.2	128.51
249.417	138.75
249.633	-41.47
249.85	99.84
250.067	32.26
250.284	40.45
250.501	48.64
250.717	112.13
250.934	-80.38
251.151	-47.62
251.368	81.41
251.585	58.88
251.801	40.45
252.018	-6.66
252.235	89.6
252.451	-86.53
252.668	-14.85
252.885	105.98
253.102	85.5
253.318	-10.75
253.535	34.3
253.752	-29.18
253.968	24.06
254.185	-61.95
254.401	22.02
254.618	24.06
254.835	22.02
255.051	132.61
255.268	112.13
255.484	75.26
255.701	30.21
255.917	-20.99
256.134	40.45
256.351	-88.57
256.567	-47.62
256.784	58.88
257	-80.38
257.217	112.13
257.433	95.74
257.65	-8.7
257.866	46.59
258.082	-61.95
258.299	-10.75
258.515	-6.66
258.732	3.58
258.948	-39.42
259.165	71.17
259.381	-25.09
259.597	28.16
259.814	-0.51
260.03	-35.33
260.246	-27.14
260.463	120.32
260.679	130.56
260.895	83.45
261.112	77.31
261.328	146.94
261.544	7.68
261.761	175.61
261.977	58.88
262.193	13.82
262.409	128.51
262.626	13.82
262.842	58.88
263.058	-18.94
263.274	97.79
263.49	34.3
263.707	138.75
263.923	89.6
264.139	-92.67
264.355	83.45
264.571	120.32
264.787	60.93
265.004	87.55
265.22	-2.56
265.436	11.78
265.652	19.97
265.868	32.26
266.084	-49.66
266.3	42.5
266.516	-37.38
266.732	146.94
266.948	28.16
267.164	-43.52
267.38	155.13
267.596	28.16
267.812	148.99
268.028	-33.28
268.244	-35.33
268.46	24.06
268.676	-25.09
268.892	105.98
269.108	-76.29
269.324	-57.86
269.54	7.68
269.756	5.63
269.972	-70.14
270.188	5.63
270.403	-72.19
270.619	101.89
270.835	15.87
271.051	-61.95
271.267	58.88
271.483	52.74
271.698	65.02
271.914	44.54
272.13	-27.14
272.346	36.35
272.562	34.3
272.777	105.98
272.993	-35.33
273.209	-2.56
273.425	116.22
273.64	-66.05
273.856	44.54
274.072	-10.75
274.287	-66.05
274.503	83.45
274.719	-45.57
274.934	-31.23
275.15	-127.49
275.366	-0.51
275.581	-59.9
275.797	28.16
276.012	38.4
276.228	-49.66
276.444	118.27
276.659	97.79
276.875	-96.77
277.09	-6.66
277.306	-6.66
277.521	65.02
277.737	24.06
277.952	13.82
278.168	46.59
278.383	58.88
278.599	83.45
278.814	3.58
279.03	46.59
279.245	142.85
279.461	15.87
279.676	142.85
279.892	-12.8
280.107	-45.57
280.322	79.36
280.538	126.46
280.753	-84.48
280.969	17.92
281.184	50.69
281.399	103.93
281.615	-4.61
281.83	60.93
282.045	-39.42
282.26	-37.38
282.476	71.17
282.691	112.13
282.906	101.89
283.122	87.55
283.337	-25.09
283.552	67.07
283.767	-84.48
283.983	28.16
284.198	87.55
284.413	44.54
284.628	-14.85
284.843	85.5
285.058	77.31
285.274	28.16
285.489	-14.85
285.704	108.03
285.919	-4.61
286.134	-41.47
286.349	11.78
286.564	-16.9
286.779	105.98
286.995	87.55
287.21	-41.47
287.425	46.59
287.64	-53.76
287.855	52.74
288.07	-72.19
288.285	132.61
288.5	103.93
288.715	132.61
288.93	-31.23
289.145	62.98
289.36	163.33
289.575	48.64
289.79	124.41
290.004	-107.01
290.219	36.35
290.434	-8.7
290.649	15.87
290.864	-31.23
291.079	-59.9
291.294	-41.47
291.509	65.02
291.724	-68.09
291.938	-23.04
292.153	42.5
292.368	5.63
292.583	28.16
292.798	110.08
293.012	-6.66
293.227	44.54
293.442	-23.04
293.657	79.36
293.871	108.03
294.086	28.16
294.301	122.37
294.516	161.28
294.73	120.32
294.945	-64
295.16	-6.66
295.374	196.09
295.589	157.18
295.804	-6.66
296.018	58.88
296.233	114.17
296.447	69.12
296.662	-18.94
296.877	62.98
297.091	146.94
297.306	58.88
297.52	46.59
297.735	44.54
297.949	75.26
298.164	19.97
298.378	-2.56
298.593	1.54
298.807	-0.51
299.022	-31.23
299.236	103.93
299.451	-16.9
299.665	-12.8
299.88	-31.23
300.094	56.83
300.309	48.64
300.523	52.74
300.737	-23.04
300.952	54.78
301.166	54.78
301.381	-37.38
301.595	7.68
301.809	17.92
302.024	-10.75
302.238	-55.81
302.452	75.26
302.667	77.31
302.881	138.75
303.095	83.45
303.309	99.84
303.524	-72.19
303.738	56.83
303.952	-43.52
304.166	-8.7
304.381	-14.85
304.595	136.7
304.809	24.06
305.023	-6.66
305.237	-41.47
305.452	-14.85
305.666	62.98
305.88	71.17
306.094	87.55
306.308	67.07
306.522	60.93
306.736	99.84
306.95	103.93
307.164	-12.8
307.379	-27.14
307.593	79.36
307.807	171.52
308.021	99.84
308.235	65.02
308.449	-43.52
308.663	-41.47
308.877	261.63
309.091	19.97
309.305	73.21
309.519	-43.52
309.733	71.17
309.947	52.74
310.161	85.5
310.374	146.94
310.588	146.94
310.802	-25.09
311.016	24.06
311.23	-37.38
311.444	-47.62
311.658	-35.33
311.872	101.89
312.085	120.32
312.299	202.24
312.513	81.41
312.727	17.92
312.941	-76.29
313.154	56.83
313.368	22.02
313.582	3.58
313.796	50.69
314.009	44.54
314.223	120.32
314.437	93.69
314.651	28.16
314.864	-39.42
315.078	48.64
315.292	-53.76
315.505	11.78
315.719	48.64
315.933	87.55
316.146	-8.7
316.36	-25.09
316.573	155.13
316.787	108.03
317.001	28.16
317.214	-68.09
317.428	32.26
317.641	-41.47
317.855	17.92
318.068	-6.66
318.282	19.97
318.495	210.43
318.709	128.51
318.922	71.17
319.136	132.61
319.349	93.69
319.563	77.31
319.776	30.21
319.99	-45.57
320.203	118.27
320.417	11.78
320.63	69.12
320.843	108.03
321.057	36.35
321.27	50.69
321.483	73.21
321.697	155.13
321.91	50.69
322.124	56.83
322.337	42.5
322.55	-8.7
322.763	58.88
322.977	34.3
323.19	-53.76
323.403	19.97
323.617	38.4
323.83	52.74
324.043	118.27
324.256	46.59
324.469	-51.71
324.683	112.13
324.896	-31.23
325.109	-25.09
325.322	-78.33
325.535	122.37
325.748	138.75
325.962	11.78
326.175	54.78
326.388	44.54
326.601	67.07
326.814	-0.51
327.027	48.64
327.24	95.74
327.453	-111.1
327.666	58.88
327.879	148.99
328.092	22.02
328.305	169.47
328.518	69.12
328.731	-74.24
328.944	11.78
329.157	44.54
329.37	-29.18
329.583	124.41
329.796	192
330.009	-25.09
330.222	52.74
330.435	97.79
330.648	3.58
330.861	108.03
331.073	118.27
331.286	114.17
331.499	34.3
331.712	-29.18
331.925	1.54
332.138	48.64
332.35	97.79
332.563	-74.24
332.776	85.5
332.989	-6.66
333.202	50.69
333.414	50.69
333.627	-0.51
333.84	103.93
334.053	58.88
334.265	-31.23
334.478	-39.42
334.691	-10.75
334.903	118.27
335.116	-14.85
335.329	15.87
335.541	52.74
335.754	210.43
335.966	73.21
336.179	62.98
336.392	46.59
336.604	-33.28
336.817	138.75
337.029	1.54
337.242	38.4
337.454	91.65
337.667	34.3
337.88	171.52
338.092	101.89
338.305	52.74
338.517	-10.75
338.729	124.41
338.942	124.41
339.154	11.78
339.367	-92.67
339.579	77.31
339.792	-59.9
340.004	17.92
340.217	-6.66
340.429	32.26
340.641	-33.28
340.854	11.78
341.066	-6.66
341.278	89.6
341.491	151.04
341.703	105.98
341.915	-14.85
342.128	120.32
342.34	140.8
342.552	-43.52
342.764	54.78
342.977	30.21
343.189	89.6
343.401	26.11
343.613	-98.81
343.826	30.21
344.038	-43.52
344.25	91.65
344.462	-10.75
344.674	56.83
344.886	50.69
345.099	105.98
345.311	99.84
345.523	32.26
345.735	-66.05
345.947	69.12
346.159	26.11
346.371	3.58
346.583	77.31
346.795	255.48
347.007	13.82
347.219	54.78
347.431	-0.51
347.643	142.85
347.855	9.73
348.067	105.98
348.279	-0.51
348.491	22.02
348.703	83.45
348.915	5.63
349.127	19.97
349.339	3.58
349.551	24.06
349.763	155.13
349.975	40.45
350.187	17.92
350.399	83.45
350.61	85.5
350.822	-35.33
351.034	114.17
351.246	1.54
351.458	79.36
351.669	60.93
351.881	40.45
352.093	85.5
352.305	181.76
352.517	54.78
352.728	118.27
352.94	54.78
353.152	134.65
353.363	-23.04
353.575	9.73
353.787	153.09
353.999	32.26
354.21	161.28
354.422	-8.7
354.633	28.16
354.845	1.54
355.057	-78.33
355.268	136.7
355.48	69.12
355.692	-51.71
355.903	28.16
356.115	-18.94
356.326	-70.14
356.538	151.04
356.749	118.27
356.961	83.45
357.172	-12.8
357.384	-12.8
357.595	271.87
357.807	-39.42
358.018	77.31
358.23	-74.24
358.441	22.02
358.653	93.69
358.864	54.78
359.075	-10.75
359.287	19.97
359.498	85.5
359.709	85.5
359.921	36.35
360.132	67.07
360.344	26.11
360.555	3.58
360.766	26.11
360.977	-8.7
361.189	22.02
361.4	13.82
361.611	101.89
361.823	91.65
362.034	7.68
362.245	-111.1
362.456	1.54
362.667	50.69
362.879	-39.42
363.09	79.36
363.301	79.36
363.512	-2.56
363.723	-68.09
363.935	48.64
364.146	120.32
364.357	-12.8
364.568	22.02
364.779	-18.94
364.99	103.93
365.201	-53.76
365.412	118.27
365.623	-37.38
365.834	46.59
366.045	5.63
366.256	44.54
366.467	48.64
366.678	19.97
366.889	11.78
367.1	38.4
367.311	97.79
367.522	-53.76
367.733	54.78
367.944	52.74
368.155	22.02
368.366	54.78
368.577	77.31
368.788	71.17
368.999	46.59
369.209	17.92
369.42	146.94
369.631	255.48
369.842	65.02
370.053	34.3
370.264	75.26
370.474	-4.61
370.685	97.79
370.896	1.54
371.107	173.57
371.317	11.78
371.528	9.73
371.739	81.41
371.95	95.74
372.16	-25.09
372.371	-47.62
372.582	-33.28
372.792	54.78
373.003	58.88
373.214	91.65
373.424	46.59
373.635	13.82
373.846	169.47
374.056	5.63
374.267	99.84
374.477	17.92
374.688	-92.67
374.898	87.55
375.109	101.89
375.319	56.83
375.53	142.85
375.74	87.55
375.951	13.82
376.161	5.63
376.372	116.22
376.582	-29.18
376.793	19.97
377.003	34.3
377.214	-10.75
377.424	105.98
377.635	30.21
377.845	9.73
378.055	140.8
378.266	7.68
378.476	11.78
378.686	140.8
378.897	112.13
379.107	89.6
379.317	120.32
379.528	-12.8
379.738	120.32
379.948	-70.14
380.158	75.26
380.369	-8.7
380.579	65.02
380.789	-2.56
380.999	54.78
381.21	44.54
381.42	210.43
381.63	7.68
381.84	93.69
382.05	62.98
382.261	112.13
382.471	173.57
382.681	-27.14
382.891	132.61
383.101	81.41
383.311	-29.18
383.521	-61.95
383.731	146.94
383.941	93.69
384.151	71.17
384.361	30.21
384.571	19.97
384.781	44.54
384.991	220.67
385.201	165.37
385.411	54.78
385.621	71.17
385.831	44.54
386.041	30.21
386.251	9.73
386.461	103.93
386.671	-10.75
386.881	52.74
387.091	-41.47
387.301	11.78
387.511	34.3
387.72	65.02
387.93	42.5
388.14	-78.33
388.35	56.83
388.56	163.33
388.769	108.03
388.979	3.58
389.189	-53.76
389.399	19.97
389.609	116.22
389.818	124.41
390.028	67.07
390.238	105.98
390.447	-41.47
390.657	58.88
390.867	15.87
391.076	-72.19
391.286	11.78
391.496	91.65
391.705	-14.85
391.915	58.88
392.125	46.59
392.334	26.11
392.544	167.42
392.753	5.63
392.963	-33.28
393.172	22.02
393.382	-16.9
393.591	206.33
393.801	-0.51
394.01	136.7
394.22	79.36
394.429	46.59
394.639	11.78
394.848	-0.51
395.058	11.78
395.267	58.88
395.477	140.8
395.686	60.93
395.895	140.8
396.105	110.08
396.314	26.11
396.524	157.18
396.733	71.17
396.942	183.81
397.152	24.06
397.361	79.36
397.57	81.41
397.78	67.07
397.989	69.12
398.198	183.81
398.407	22.02
398.617	54.78
398.826	26.11
399.035	34.3
399.244	126.46
399.453	11.78
399.663	24.06
399.872	58.88
400.081	-68.09
400.29	148.99
400.499	11.78
400.708	114.17
400.917	11.78
401.127	30.21
401.336	-0.51
401.545	175.61
401.754	75.26
401.963	87.55
402.172	22.02
402.381	7.68
402.59	-10.75
402.799	97.79
403.008	122.37
403.217	99.84
403.426	38.4
403.635	-57.86
403.844	24.06
404.053	-23.04
404.262	30.21
404.471	206.33
404.68	24.06
404.888	112.13
405.097	11.78
405.306	77.31
405.515	30.21
405.724	1.54
405.933	159.23
406.142	83.45
406.35	136.7
406.559	19.97
406.768	65.02
406.977	175.61
407.185	108.03
407.394	91.65
407.603	-8.7
407.812	-61.95
408.02	179.71
408.229	69.12
408.438	44.54
408.646	-23.04
408.855	-31.23
409.064	65.02
409.272	-33.28
409.481	32.26
409.69	3.58
409.898	-86.53
410.107	42.5
410.315	60.93
410.524	22.02
410.733	-20.99
410.941	58.88
411.15	79.36
411.358	60.93
411.567	97.79
411.775	-20.99
411.984	32.26
412.192	22.02
412.401	13.82
412.609	194.05
412.818	146.94
413.026	77.31
413.234	67.07
413.443	-20.99
413.651	-41.47
413.86	73.21
414.068	187.9
414.276	200.19
414.485	1.54
414.693	185.85
414.901	239.1
415.11	122.37
415.318	-0.51
415.526	67.07
415.734	93.69
415.943	34.3
416.151	101.89
416.359	42.5
416.567	136.7
416.776	91.65
416.984	130.56
417.192	216.57
417.4	38.4
417.608	22.02
417.817	-74.24
418.025	177.66
418.233	200.19
418.441	-68.09
418.649	-92.67
418.857	40.45
419.065	120.32
419.273	-14.85
419.481	50.69
419.689	36.35
419.897	134.65
420.105	24.06
420.313	128.51
420.521	142.85
420.729	157.18
420.937	1.54
421.145	-31.23
421.353	130.56
421.561	185.85
421.769	89.6
421.977	60.93
422.185	124.41
422.393	169.47
422.601	105.98
422.809	81.41
423.017	142.85
423.224	128.51
423.432	161.28
423.64	67.07
423.848	175.61
424.056	-10.75
424.263	136.7
424.471	110.08
424.679	128.51
424.887	17.92
425.094	144.89
425.302	151.04
425.51	44.54
425.718	142.85
425.925	128.51
426.133	65.02
426.341	202.24
426.548	93.69
426.756	44.54
426.964	99.84
427.171	116.22
427.379	97.79
427.586	48.64
427.794	91.65
428.001	112.13
428.209	81.41
428.417	167.42
428.624	228.86
428.832	83.45
429.039	120.32
429.247	159.23
429.454	95.74
429.662	140.8
429.869	173.57
430.076	81.41
430.284	237.05
430.491	165.37
430.699	212.48
430.906	241.15
431.114	56.83
431.321	200.19
431.528	122.37
431.736	105.98
431.943	148.99
432.15	185.85
432.358	153.09
432.565	333.31
432.772	17.92
432.979	175.61
433.187	136.7
433.394	232.96
433.601	144.89
433.808	294.4
434.016	261.63
434.223	212.48
434.43	267.77
434.637	249.34
434.844	280.06
435.052	302.59
435.259	345.59
435.466	341.5
435.673	220.67
435.88	259.58
436.087	353.79
436.294	325.12
436.501	327.16
436.708	339.45
436.915	366.07
437.122	445.95
437.329	306.68
437.537	253.44
437.743	413.18
437.95	476.66
438.157	407.03
438.364	431.61
438.571	478.71
438.778	570.87
438.985	554.49
439.192	493.05
439.399	484.86
439.606	538.1
439.813	628.21
440.02	656.89
440.227	787.96
440.433	683.51
440.64	716.28
440.847	632.31
441.054	804.34
441.261	767.48
441.467	660.98
441.674	624.12
441.881	798.2
442.088	783.86
442.294	849.4
442.501	970.23
442.708	990.7
442.914	914.93
443.121	1066.48
443.328	1007.09
443.534	1080.82
443.741	1050.1
443.948	1023.47
444.154	1203.69
444.361	1308.14
444.568	1197.55
444.774	1269.23
444.981	1207.79
445.187	1304.04
445.394	1484.27
445.6	1424.87
445.807	1666.53
446.013	1478.12
446.22	1467.88
446.426	1650.15
446.633	1764.84
446.839	2117.09
447.046	1713.64
447.252	2053.6
447.459	1906.15
447.665	2008.55
447.871	2274.78
448.078	2434.52
448.284	2242.01
448.491	2409.95
448.697	2592.22
448.903	2606.55
449.11	2768.34
449.316	2606.55
449.522	2803.16
449.728	2919.89
449.935	3122.64
450.141	3065.3
450.347	3368.4
450.553	3374.54
450.76	3384.78
450.966	3675.59
451.172	3718.6
451.378	4009.41
451.584	3798.47
451.791	4279.74
451.997	4294.08
452.203	4369.85
452.409	4654.52
452.615	4822.45
452.821	4537.79
453.027	4693.43
453.233	5391.79
453.44	5246.38
453.646	5481.9
453.852	5600.68
454.058	6098.34
454.264	6010.28
454.47	6514.08
454.676	6491.55
454.882	7140.76
455.088	6731.16
455.294	7097.75
455.5	7531.92
455.705	8072.58
455.911	8029.57
456.117	8228.23
456.323	8658.3
456.529	8453.5
456.735	9426.29
456.941	9368.95
457.147	10067.3
457.352	10272.1
457.558	10591.58
457.764	11074.9
457.97	11763.02
458.176	12283.2
458.381	12588.35
458.587	12739.9
458.793	13610.29
458.999	13073.72
459.204	14990.62
459.41	15592.72
459.616	15181.08
459.821	16303.37
460.027	16956.67
460.233	17630.45
460.438	17882.35
460.644	18654.44
460.85	18820.32
461.055	19700.95
461.261	20714.69
461.466	20387.02
461.672	20651.2
461.878	23252.13
462.083	22830.24
462.289	23243.93
462.494	24444.04
462.7	24210.57
462.905	24947.84
463.111	26694.76
463.316	28025.94
463.522	28370
463.727	29803.58
463.932	30837.8
464.138	31925.27
464.343	32859.15
464.549	33088.52
464.754	35302.37
464.959	36682.7
465.165	37069.77
465.37	36488.15
465.575	36785.1
465.781	39314.34
465.986	40717.2
466.191	39787.42
466.397	40117.15
466.602	39134.12
466.807	41788.29
467.012	42285.95
467.218	42423.16
467.423	42881.91
467.628	44170.08
467.833	46162.75
468.038	45351.76
468.244	44557.14
