Data from USB4F104151__291__11-21-11-428.txt Node

Date: Wed Feb 26 11:21:11 EST 2025
User: louis
Spectrometer: USB4F10415
Trigger mode: 4
Integration Time (sec): 1.000000E-1
Scans to average: 1
Electric dark correction enabled: true
Nonlinearity correction enabled: false
Boxcar width: 0
XAxis mode: Wavelengths
Number of Pixels in Spectrum: 3648
>>>>>Begin Spectral Data<<<<<
178.204	-416.59
178.424	-416.59
178.644	-416.59
178.864	-389.97
179.084	-369.49
179.304	-9.05
179.524	-27.48
179.744	46.25
179.964	3.24
180.184	9.39
180.404	-27.48
180.624	-21.33
180.844	38.06
181.064	-90.96
181.283	3.24
181.503	-54.1
181.723	130.22
181.943	-95.06
182.163	132.26
182.383	23.72
182.602	15.53
182.822	95.4
183.042	52.39
183.262	-37.72
183.482	-50
183.701	64.68
183.921	-50
184.141	15.53
184.361	-23.38
184.58	19.63
184.8	83.11
185.02	-45.91
185.239	72.87
185.459	124.07
185.679	173.22
185.898	-156.5
186.118	93.35
186.338	23.72
186.557	179.37
186.777	-15.19
186.997	50.35
187.216	29.87
187.436	160.94
187.655	13.48
187.875	107.69
188.095	93.35
188.314	158.89
188.534	117.93
188.753	-43.86
188.973	66.73
189.192	193.7
189.412	1.19
189.631	36.01
189.851	89.26
190.07	205.99
190.29	-43.86
190.509	50.35
190.729	91.31
190.948	117.93
191.168	195.75
191.387	40.11
191.607	-17.24
191.826	95.4
192.045	42.15
192.265	-25.43
192.484	-4.95
192.704	13.48
192.923	-50
193.142	171.18
193.362	46.25
193.581	95.4
193.8	48.3
194.02	134.31
194.239	25.77
194.458	31.91
194.678	74.92
194.897	-119.64
195.116	93.35
195.335	58.54
195.555	89.26
195.774	11.43
195.993	72.87
196.212	-7
196.432	-131.92
196.651	27.82
196.87	29.87
197.089	214.18
197.308	140.46
197.528	160.94
197.747	-45.91
197.966	81.07
198.185	124.07
198.404	-68.44
198.623	122.02
198.842	64.68
199.062	113.83
199.281	54.44
199.5	9.39
199.719	134.31
199.938	72.87
200.157	85.16
200.376	91.31
200.595	115.88
200.814	185.51
201.033	5.29
201.252	144.55
201.471	93.35
201.69	169.13
201.909	85.16
202.128	124.07
202.347	93.35
202.566	33.96
202.785	-76.63
203.004	-58.2
203.223	322.73
203.442	40.11
203.661	11.43
203.879	74.92
204.098	136.36
204.317	33.96
204.536	130.22
204.755	97.45
204.974	171.18
205.193	50.35
205.411	136.36
205.63	136.36
205.849	115.88
206.068	9.39
206.287	-47.96
206.505	189.61
206.724	36.01
206.943	9.39
207.162	15.53
207.381	105.64
207.599	19.63
207.818	23.72
208.037	-11.09
208.255	7.34
208.474	101.55
208.693	62.63
208.911	-29.52
209.13	119.98
209.349	66.73
209.567	154.79
209.786	81.07
210.005	74.92
210.223	87.21
210.442	-162.64
210.661	23.72
210.879	105.64
211.098	-17.24
211.316	19.63
211.535	72.87
211.753	42.15
211.972	81.07
212.191	-72.53
212.409	3.24
212.628	79.02
212.846	7.34
213.065	64.68
213.283	113.83
213.502	72.87
213.72	15.53
213.938	-35.67
214.157	40.11
214.375	177.32
214.594	-29.52
214.812	158.89
215.031	31.91
215.249	89.26
215.467	83.11
215.686	56.49
215.904	70.83
216.122	83.11
216.341	130.22
216.559	48.3
216.778	130.22
216.996	187.56
217.214	44.2
217.432	-43.86
217.651	-11.09
217.869	79.02
218.087	23.72
218.306	-0.85
218.524	81.07
218.742	-4.95
218.96	38.06
219.179	-9.05
219.397	7.34
219.615	150.7
219.833	85.16
220.051	-90.96
220.27	150.7
220.488	134.31
220.706	52.39
220.924	-64.34
221.142	-7
221.36	70.83
221.578	21.67
221.796	66.73
222.015	46.25
222.233	58.54
222.451	150.7
222.669	-9.05
222.887	81.07
223.105	15.53
223.323	81.07
223.541	-33.62
223.759	31.91
223.977	72.87
224.195	165.03
224.413	74.92
224.631	48.3
224.849	36.01
225.067	220.33
225.285	-21.33
225.503	64.68
225.721	-99.16
225.939	56.49
226.157	46.25
226.375	197.8
226.592	7.34
226.81	33.96
227.028	54.44
227.246	87.21
227.464	19.63
227.682	25.77
227.9	79.02
228.117	66.73
228.335	54.44
228.553	107.69
228.771	58.54
228.989	-15.19
229.206	66.73
229.424	93.35
229.642	40.11
229.86	11.43
230.077	183.46
230.295	111.78
230.513	111.78
230.731	70.83
230.948	105.64
231.166	95.4
231.384	9.39
231.601	31.91
231.819	150.7
232.037	33.96
232.254	7.34
232.472	74.92
232.689	9.39
232.907	66.73
233.125	17.58
233.342	7.34
233.56	11.43
233.777	31.91
233.995	58.54
234.213	68.78
234.43	66.73
234.648	25.77
234.865	101.55
235.083	52.39
235.3	36.01
235.518	97.45
235.735	48.3
235.953	72.87
236.17	66.73
236.388	144.55
236.605	54.44
236.822	97.45
237.04	128.17
237.257	101.55
237.475	-41.81
237.692	79.02
237.909	52.39
238.127	40.11
238.344	62.63
238.562	1.19
238.779	-4.95
238.996	62.63
239.214	91.31
239.431	81.07
239.648	46.25
239.865	81.07
240.083	113.83
240.3	-31.57
240.517	-41.81
240.735	40.11
240.952	97.45
241.169	89.26
241.386	136.36
241.603	70.83
241.821	-27.48
242.038	85.16
242.255	152.74
242.472	-25.43
242.689	93.35
242.907	36.01
243.124	19.63
243.341	76.97
243.558	3.24
243.775	-52.05
243.992	-160.59
244.209	107.69
244.426	165.03
244.643	101.55
244.86	29.87
245.078	117.93
245.295	81.07
245.512	33.96
245.729	27.82
245.946	81.07
246.163	-45.91
246.38	-23.38
246.597	99.5
246.814	40.11
247.031	23.72
247.248	48.3
247.464	50.35
247.681	-33.62
247.898	93.35
248.115	115.88
248.332	13.48
248.549	195.75
248.766	130.22
248.983	7.34
249.2	142.5
249.417	99.5
249.633	58.54
249.85	-4.95
250.067	46.25
250.284	97.45
250.501	126.12
250.717	134.31
250.934	-56.15
251.151	17.58
251.368	11.43
251.585	132.26
251.801	9.39
252.018	15.53
252.235	91.31
252.451	-50
252.668	74.92
252.885	160.94
253.102	64.68
253.318	13.48
253.535	-64.34
253.752	9.39
253.968	5.29
254.185	-131.92
254.401	99.5
254.618	74.92
254.835	19.63
255.051	128.17
255.268	44.2
255.484	68.78
255.701	103.59
255.917	44.2
256.134	21.67
256.351	101.55
256.567	33.96
256.784	-2.9
257	-82.77
257.217	124.07
257.433	29.87
257.65	93.35
257.866	261.29
258.082	-84.82
258.299	-0.85
258.515	36.01
258.732	-7
258.948	-41.81
259.165	58.54
259.381	-17.24
259.597	66.73
259.814	11.43
260.03	91.31
260.246	17.58
260.463	60.59
260.679	140.46
260.895	15.53
261.112	93.35
261.328	-2.9
261.544	50.35
261.761	169.13
261.977	40.11
262.193	-70.48
262.409	60.59
262.626	91.31
262.842	44.2
263.058	58.54
263.274	165.03
263.49	101.55
263.707	81.07
263.923	109.74
264.139	-64.34
264.355	46.25
264.571	113.83
264.787	27.82
265.004	72.87
265.22	36.01
265.436	-19.29
265.652	-7
265.868	156.84
266.084	-27.48
266.3	58.54
266.516	15.53
266.732	31.91
266.948	36.01
267.164	68.78
267.38	156.84
267.596	74.92
267.812	134.31
268.028	7.34
268.244	25.77
268.46	54.44
268.676	11.43
268.892	-21.33
269.108	-39.76
269.324	-97.11
269.54	-54.1
269.756	93.35
269.972	-64.34
270.188	134.31
270.403	-60.24
270.619	-9.05
270.835	126.12
271.051	42.15
271.267	23.72
271.483	-62.29
271.698	93.35
271.914	48.3
272.13	21.67
272.346	54.44
272.562	76.97
272.777	56.49
272.993	7.34
273.209	21.67
273.425	124.07
273.64	-15.19
273.856	58.54
274.072	42.15
274.287	19.63
274.503	48.3
274.719	132.26
274.934	-45.91
275.15	-41.81
275.366	19.63
275.581	-39.76
275.797	27.82
276.012	62.63
276.228	7.34
276.444	101.55
276.659	191.66
276.875	13.48
277.09	56.49
277.306	-27.48
277.521	85.16
277.737	46.25
277.952	136.36
278.168	-0.85
278.383	87.21
278.599	138.41
278.814	105.64
279.03	56.49
279.245	212.14
279.461	44.2
279.676	150.7
279.892	-33.62
280.107	-37.72
280.322	-2.9
280.538	105.64
280.753	-2.9
280.969	31.91
281.184	19.63
281.399	130.22
281.615	56.49
281.83	119.98
282.045	-31.57
282.26	-41.81
282.476	9.39
282.691	99.5
282.906	93.35
283.122	-2.9
283.337	-41.81
283.552	60.59
283.767	-0.85
283.983	119.98
284.198	52.39
284.413	74.92
284.628	-101.2
284.843	60.59
285.058	95.4
285.274	17.58
285.489	31.91
285.704	179.37
285.919	-54.1
286.134	-17.24
286.349	19.63
286.564	48.3
286.779	113.83
286.995	42.15
287.21	3.24
287.425	74.92
287.64	11.43
287.855	81.07
288.07	-76.63
288.285	144.55
288.5	103.59
288.715	130.22
288.93	93.35
289.145	33.96
289.36	169.13
289.575	21.67
289.79	95.4
290.004	19.63
290.219	124.07
290.434	13.48
290.649	-17.24
290.864	19.63
291.079	44.2
291.294	29.87
291.509	46.25
291.724	21.67
291.938	31.91
292.153	81.07
292.368	56.49
292.583	66.73
292.798	113.83
293.012	54.44
293.227	31.91
293.442	9.39
293.657	124.07
293.871	119.98
294.086	40.11
294.301	111.78
294.516	136.36
294.73	33.96
294.945	-68.44
295.16	83.11
295.374	146.6
295.589	107.69
295.804	1.19
296.018	15.53
296.233	179.37
296.447	11.43
296.662	-2.9
296.877	122.02
297.091	122.02
297.306	19.63
297.52	138.41
297.735	62.63
297.949	52.39
298.164	68.78
298.378	93.35
298.593	-25.43
298.807	-39.76
299.022	-19.29
299.236	101.55
299.451	33.96
299.665	-9.05
299.88	-29.52
300.094	142.5
300.309	40.11
300.523	95.4
300.737	-15.19
300.952	83.11
301.166	124.07
301.381	-7
301.595	-17.24
301.809	48.3
302.024	-11.09
302.238	19.63
302.452	126.12
302.667	-58.2
302.881	122.02
303.095	150.7
303.309	66.73
303.524	-15.19
303.738	44.2
303.952	-15.19
304.166	66.73
304.381	-101.2
304.595	191.66
304.809	23.72
305.023	38.06
305.237	7.34
305.452	-0.85
305.666	146.6
305.88	101.55
306.094	119.98
306.308	50.35
306.522	140.46
306.736	146.6
306.95	101.55
307.164	15.53
307.379	60.59
307.593	115.88
307.807	177.32
308.021	101.55
308.235	142.5
308.449	3.24
308.663	83.11
308.877	199.85
309.091	-17.24
309.305	87.21
309.519	-95.06
309.733	152.74
309.947	-17.24
310.161	3.24
310.374	50.35
310.588	134.31
310.802	-17.24
311.016	83.11
311.23	23.72
311.444	-27.48
311.658	11.43
311.872	144.55
312.085	50.35
312.299	150.7
312.513	122.02
312.727	36.01
312.941	-52.05
313.154	134.31
313.368	50.35
313.582	31.91
313.796	68.78
314.009	60.59
314.223	101.55
314.437	29.87
314.651	72.87
314.864	46.25
315.078	93.35
315.292	-47.96
315.505	31.91
315.719	91.31
315.933	58.54
316.146	-11.09
316.36	-19.29
316.573	195.75
316.787	81.07
317.001	38.06
317.214	-2.9
317.428	48.3
317.641	17.58
317.855	17.58
318.068	81.07
318.282	101.55
318.495	218.28
318.709	64.68
318.922	31.91
319.136	91.31
319.349	89.26
319.563	27.82
319.776	54.44
319.99	-47.96
320.203	97.45
320.417	62.63
320.63	50.35
320.843	109.74
321.057	52.39
321.27	46.25
321.483	54.44
321.697	201.9
321.91	46.25
322.124	72.87
322.337	128.17
322.55	11.43
322.763	7.34
322.977	60.59
323.19	11.43
323.403	48.3
323.617	54.44
323.83	74.92
324.043	23.72
324.256	93.35
324.469	-64.34
324.683	66.73
324.896	15.53
325.109	23.72
325.322	-7
325.535	144.55
325.748	91.31
325.962	42.15
326.175	7.34
326.388	52.39
326.601	195.75
326.814	76.97
327.027	5.29
327.24	144.55
327.453	-21.33
327.666	83.11
327.879	128.17
328.092	36.01
328.305	85.16
328.518	-4.95
328.731	21.67
328.944	-33.62
329.157	48.3
329.37	54.44
329.583	187.56
329.796	162.98
330.009	-29.52
330.222	46.25
330.435	42.15
330.648	148.65
330.861	23.72
331.073	103.59
331.286	124.07
331.499	11.43
331.712	-23.38
331.925	11.43
332.138	17.58
332.35	113.83
332.563	7.34
332.776	148.65
332.989	-39.76
333.202	-7
333.414	33.96
333.627	-0.85
333.84	46.25
334.053	46.25
334.265	15.53
334.478	-19.29
334.691	119.98
334.903	64.68
335.116	-19.29
335.329	23.72
335.541	38.06
335.754	142.5
335.966	33.96
336.179	97.45
336.392	5.29
336.604	113.83
336.817	111.78
337.029	66.73
337.242	42.15
337.454	70.83
337.667	48.3
337.88	140.46
338.092	124.07
338.305	60.59
338.517	50.35
338.729	89.26
338.942	130.22
339.154	3.24
339.367	-13.14
339.579	68.78
339.792	-33.62
340.004	93.35
340.217	58.54
340.429	40.11
340.641	36.01
340.854	19.63
341.066	76.97
341.278	144.55
341.491	122.02
341.703	42.15
341.915	48.3
342.128	148.65
342.34	40.11
342.552	-33.62
342.764	72.87
342.977	19.63
343.189	72.87
343.401	1.19
343.613	44.2
343.826	46.25
344.038	11.43
344.25	29.87
344.462	11.43
344.674	101.55
344.886	19.63
345.099	38.06
345.311	85.16
345.523	33.96
345.735	-58.2
345.947	48.3
346.159	177.32
346.371	25.77
346.583	25.77
346.795	218.28
347.007	11.43
347.219	162.98
347.431	44.2
347.643	50.35
347.855	44.2
348.067	185.51
348.279	19.63
348.491	7.34
348.703	173.22
348.915	9.39
349.127	-115.54
349.339	31.91
349.551	1.19
349.763	122.02
349.975	21.67
350.187	107.69
350.399	140.46
350.61	79.02
350.822	97.45
351.034	66.73
351.246	117.93
351.458	91.31
351.669	72.87
351.881	93.35
352.093	150.7
352.305	148.65
352.517	171.18
352.728	122.02
352.94	-2.9
353.152	140.46
353.363	-45.91
353.575	107.69
353.787	205.99
353.999	81.07
354.21	146.6
354.422	-21.33
354.633	25.77
354.845	23.72
355.057	175.27
355.268	87.21
355.48	60.59
355.692	-27.48
355.903	5.29
356.115	29.87
356.326	-68.44
356.538	95.4
356.749	56.49
356.961	185.51
357.172	11.43
357.384	-68.44
357.595	195.75
357.807	46.25
358.018	-41.81
358.23	72.87
358.441	208.04
358.653	50.35
358.864	-37.72
359.075	-21.33
359.287	58.54
359.498	89.26
359.709	42.15
359.921	27.82
360.132	134.31
360.344	21.67
360.555	-15.19
360.766	85.16
360.977	5.29
361.189	117.93
361.4	52.39
361.611	185.51
361.823	74.92
362.034	29.87
362.245	13.48
362.456	64.68
362.667	115.88
362.879	31.91
363.09	89.26
363.301	89.26
363.512	36.01
363.723	33.96
363.935	-31.57
364.146	165.03
364.357	60.59
364.568	74.92
364.779	-21.33
364.99	62.63
365.201	-21.33
365.412	15.53
365.623	-15.19
365.834	40.11
366.045	117.93
366.256	44.2
366.467	113.83
366.678	46.25
366.889	3.24
367.1	-31.57
367.311	128.17
367.522	23.72
367.733	134.31
367.944	109.74
368.155	11.43
368.366	40.11
368.577	126.12
368.788	181.42
368.999	-2.9
369.209	19.63
369.42	189.61
369.631	261.29
369.842	142.5
370.053	-0.85
370.264	150.7
370.474	15.53
370.685	109.74
370.896	5.29
371.107	130.22
371.317	105.64
371.528	81.07
371.739	128.17
371.95	93.35
372.16	36.01
372.371	7.34
372.582	9.39
372.792	83.11
373.003	-2.9
373.214	58.54
373.424	-17.24
373.635	-72.53
373.846	205.99
374.056	38.06
374.267	11.43
374.477	36.01
374.688	27.82
374.898	44.2
375.109	113.83
375.319	50.35
375.53	95.4
375.74	199.85
375.951	87.21
376.161	68.78
376.372	146.6
376.582	38.06
376.793	76.97
377.003	-52.05
377.214	-52.05
377.424	162.98
377.635	5.29
377.845	50.35
378.055	148.65
378.266	-15.19
378.476	1.19
378.686	89.26
378.897	101.55
379.107	130.22
379.317	93.35
379.528	-2.9
379.738	70.83
379.948	-56.15
380.158	93.35
380.369	130.22
380.579	122.02
380.789	38.06
380.999	29.87
381.21	140.46
381.42	212.14
381.63	25.77
381.84	148.65
382.05	144.55
382.261	142.5
382.471	144.55
382.681	31.91
382.891	167.08
383.101	109.74
383.311	-105.3
383.521	-0.85
383.731	56.49
383.941	177.32
384.151	117.93
384.361	109.74
384.571	91.31
384.781	146.6
384.991	210.09
385.201	273.57
385.411	167.08
385.621	177.32
385.831	103.59
386.041	72.87
386.251	74.92
386.461	113.83
386.671	-4.95
386.881	-11.09
387.091	46.25
387.301	146.6
387.511	81.07
387.72	126.12
387.93	165.03
388.14	-56.15
388.35	9.39
388.56	74.92
388.769	128.17
388.979	1.19
389.189	7.34
389.399	76.97
389.609	144.55
389.818	187.56
390.028	72.87
390.238	23.72
390.447	1.19
390.657	27.82
390.867	25.77
391.076	-50
391.286	89.26
391.496	46.25
391.705	31.91
391.915	154.79
392.125	103.59
392.334	72.87
392.544	169.13
392.753	103.59
392.963	3.24
393.172	40.11
393.382	-33.62
393.591	193.7
393.801	-13.14
394.01	142.5
394.22	136.36
394.429	-41.81
394.639	1.19
394.848	103.59
395.058	119.98
395.267	68.78
395.477	113.83
395.686	89.26
395.895	234.66
396.105	154.79
396.314	19.63
396.524	122.02
396.733	-35.67
396.942	89.26
397.152	93.35
397.361	126.12
397.57	89.26
397.78	64.68
397.989	109.74
398.198	210.09
398.407	44.2
398.617	58.54
398.826	130.22
399.035	42.15
399.244	138.41
399.453	87.21
399.663	56.49
399.872	87.21
400.081	-21.33
400.29	140.46
400.499	97.45
400.708	113.83
400.917	48.3
401.127	-0.85
401.336	23.72
401.545	124.07
401.754	158.89
401.963	76.97
402.172	-25.43
402.381	48.3
402.59	-45.91
402.799	72.87
403.008	138.41
403.217	48.3
403.426	87.21
403.635	44.2
403.844	87.21
404.053	9.39
404.262	-39.76
404.471	193.7
404.68	74.92
404.888	156.84
405.097	7.34
405.306	33.96
405.515	160.94
405.724	54.44
405.933	91.31
406.142	122.02
406.35	191.66
406.559	97.45
406.768	99.5
406.977	246.95
407.185	97.45
407.394	152.74
407.603	-82.77
407.812	89.26
408.02	105.64
408.229	58.54
408.438	60.59
408.646	62.63
408.855	13.48
409.064	119.98
409.272	60.59
409.481	109.74
409.69	36.01
409.898	-37.72
410.107	62.63
410.315	72.87
410.524	81.07
410.733	93.35
410.941	62.63
411.15	122.02
411.358	132.26
411.567	132.26
411.775	107.69
411.984	60.59
412.192	62.63
412.401	48.3
412.609	148.65
412.818	160.94
413.026	124.07
413.234	29.87
413.443	64.68
413.651	-25.43
413.86	-13.14
414.068	144.55
414.276	228.52
414.485	11.43
414.693	179.37
414.901	218.28
415.11	3.24
415.318	70.83
415.526	93.35
415.734	117.93
415.943	115.88
416.151	130.22
416.359	81.07
416.567	111.78
416.776	150.7
416.984	193.7
417.192	230.57
417.4	-21.33
417.608	130.22
417.817	15.53
418.025	72.87
418.233	79.02
418.441	31.91
418.649	-35.67
418.857	29.87
419.065	150.7
419.273	-17.24
419.481	111.78
419.689	17.58
419.897	27.82
420.105	-25.43
420.313	136.36
420.521	187.56
420.729	105.64
420.937	54.44
421.145	-37.72
421.353	122.02
421.561	212.14
421.769	146.6
421.977	-11.09
422.185	101.55
422.393	48.3
422.601	111.78
422.809	119.98
423.017	60.59
423.224	79.02
423.432	115.88
423.64	42.15
423.848	107.69
424.056	-41.81
424.263	113.83
424.471	87.21
424.679	162.98
424.887	36.01
425.094	183.46
425.302	142.5
425.51	113.83
425.718	134.31
425.925	150.7
426.133	89.26
426.341	273.57
426.548	138.41
426.756	97.45
426.964	134.31
427.171	40.11
427.379	130.22
427.586	142.5
427.794	244.9
428.001	249
428.209	144.55
428.417	177.32
428.624	95.4
428.832	210.09
429.039	109.74
429.247	95.4
429.454	136.36
429.662	246.95
429.869	222.38
430.076	93.35
430.284	244.9
430.491	152.74
430.699	205.99
430.906	216.23
431.114	214.18
431.321	203.94
431.528	113.83
431.736	146.6
431.943	234.66
432.15	138.41
432.358	263.33
432.565	283.81
432.772	130.22
432.979	261.29
433.187	201.9
433.394	269.48
433.601	187.56
433.808	236.71
434.016	283.81
434.223	304.29
434.43	226.47
434.637	335.01
434.844	277.67
435.052	249
435.259	357.54
435.466	357.54
435.673	285.86
435.88	382.12
436.087	402.6
436.294	361.64
436.501	355.49
436.708	343.21
436.915	439.46
437.122	490.66
437.329	332.97
437.537	439.46
437.743	396.45
437.95	529.57
438.157	474.28
438.364	425.12
438.571	509.09
438.778	578.72
438.985	568.48
439.192	586.91
439.399	539.81
439.606	468.13
439.813	593.06
440.02	797.85
440.227	783.52
440.433	705.7
440.64	670.88
440.847	646.3
441.054	691.36
441.261	861.34
441.467	726.18
441.674	752.8
441.881	908.44
442.088	795.81
442.294	949.4
442.501	949.4
442.708	1014.94
442.914	973.98
443.121	1019.04
443.328	1096.86
443.534	1178.78
443.741	1080.47
443.948	926.88
444.154	1277.08
444.361	1367.19
444.568	1295.51
444.774	1375.38
444.981	1191.06
445.187	1547.41
445.394	1297.56
445.6	1485.97
445.807	1662.1
446.013	1520.79
446.22	1588.37
446.426	1787.02
446.633	1815.69
446.839	1989.77
447.046	1809.55
447.252	2022.54
447.459	1997.96
447.665	2090.12
447.871	2153.61
448.078	2325.64
448.284	2469
448.491	2598.02
448.697	2579.59
448.903	2681.99
449.11	2817.15
449.316	2739.33
449.522	2935.93
449.728	3056.76
449.935	3271.8
450.141	3193.98
450.347	3556.47
450.553	3296.38
450.76	3433.59
450.966	3687.54
451.172	3687.54
451.378	3882.1
451.584	3980.4
451.791	4252.78
451.997	4293.74
452.203	4406.38
452.409	4625.51
452.615	4766.82
452.821	4844.64
453.027	4891.74
453.233	5485.65
453.44	5293.15
453.646	5590.1
453.852	5921.87
454.058	6151.24
454.264	5993.55
454.47	6577.22
454.676	6716.48
454.882	7416.89
455.088	6892.61
455.294	7502.9
455.5	7840.82
455.705	8217.65
455.911	8197.17
456.117	8432.68
456.323	8760.36
456.529	8893.47
456.735	9710.61
456.941	9708.57
457.147	10400.78
457.352	10380.3
457.558	10775.56
457.764	11480.06
457.97	11758.58
458.176	12190.7
458.381	12659.69
458.587	12979.17
458.793	13646.81
458.999	13558.75
459.204	15627.2
459.41	15809.47
459.616	15608.76
459.821	16364.46
460.027	17531.81
460.233	18160.53
460.438	17972.12
460.644	19110.79
460.85	19395.46
461.055	20126.58
461.261	21033.83
461.466	20452.21
461.672	21166.95
461.878	23505.73
462.083	23233.35
462.289	23530.31
462.494	24711.99
462.7	24748.85
462.905	25387.82
463.111	26884.88
463.316	28789.49
463.522	29397.74
463.727	30257.88
463.932	31765.19
464.138	32561.85
464.343	33514.16
464.549	33508.01
464.754	36053.64
464.959	36905.59
465.165	37649
465.37	37425.78
465.575	37335.66
465.781	40002.12
465.986	40874.55
466.191	40405.57
466.397	40983.1
466.602	39965.26
466.807	42275.37
467.012	42691.1
467.218	43498
467.423	43575.83
467.628	45308.41
467.833	47268.31
468.038	46651.87
468.244	45726.19
468.449	47839.7
468.654	46924.25
