Data from USB4F104151__58__10-43-44-674.txt Node

Date: Wed Feb 26 10:43:44 EST 2025
User: louis
Spectrometer: USB4F10415
Trigger mode: 4
Integration Time (sec): 1.000000E-1
Scans to average: 1
Electric dark correction enabled: true
Nonlinearity correction enabled: false
Boxcar width: 0
XAxis mode: Wavelengths
Number of Pixels in Spectrum: 3648
>>>>>Begin Spectral Data<<<<<
178.204	-384.34
178.424	-384.34
178.644	-384.34
178.864	-388.43
179.084	-361.81
179.304	49.83
179.524	-107.86
179.744	17.07
179.964	58.03
180.184	49.83
180.404	33.45
180.624	-50.52
180.844	35.5
181.064	-114
181.283	37.55
181.503	-15.7
181.723	6.83
181.943	-103.76
182.163	168.62
182.383	-17.75
182.602	37.55
182.822	127.66
183.042	-21.85
183.262	33.45
183.482	-27.99
183.701	8.87
183.921	70.31
184.141	-87.38
184.361	51.88
184.58	98.99
184.8	80.55
185.02	-15.7
185.239	117.42
185.459	55.98
185.679	176.81
185.898	-165.2
186.118	43.69
186.338	62.12
186.557	86.7
186.777	-87.38
186.997	-52.56
187.216	8.87
187.436	150.18
187.655	45.74
187.875	70.31
188.095	6.83
188.314	162.47
188.534	117.42
188.753	-56.66
188.973	74.41
189.192	166.57
189.412	72.36
189.631	15.02
189.851	43.69
190.07	180.9
190.29	-60.76
190.509	-3.41
190.729	-23.89
190.948	152.23
191.168	230.06
191.387	174.76
191.607	2.73
191.826	74.41
192.045	154.28
192.265	-66.9
192.484	37.55
192.704	-9.56
192.923	-54.61
193.142	244.39
193.362	74.41
193.581	80.55
193.8	25.26
194.02	76.46
194.239	109.22
194.458	125.61
194.678	-44.37
194.897	21.16
195.116	76.46
195.335	78.51
195.555	62.12
195.774	-19.8
195.993	23.21
196.212	-60.76
196.432	-42.32
196.651	-30.04
196.87	84.65
197.089	215.72
197.308	49.83
197.528	96.94
197.747	15.02
197.966	78.51
198.185	152.23
198.404	-34.13
198.623	113.32
198.842	133.8
199.062	82.6
199.281	96.94
199.5	70.31
199.719	8.87
199.938	98.99
200.157	17.07
200.376	88.75
200.595	86.7
200.814	76.46
201.033	-17.75
201.252	148.14
201.471	88.75
201.69	72.36
201.909	-27.99
202.128	74.41
202.347	82.6
202.566	60.07
202.785	-46.42
203.004	4.78
203.223	254.63
203.442	90.79
203.661	-36.18
203.879	88.75
204.098	94.89
204.317	-64.85
204.536	72.36
204.755	133.8
204.974	146.09
205.193	-11.61
205.411	160.42
205.63	105.13
205.849	78.51
206.068	70.31
206.287	-114
206.505	109.22
206.724	94.89
206.943	-13.65
207.162	-17.75
207.381	135.85
207.599	23.21
207.818	35.5
208.037	-13.65
208.255	25.26
208.474	115.37
208.693	37.55
208.911	17.07
209.13	45.74
209.349	33.45
209.567	88.75
209.786	80.55
210.005	129.7
210.223	37.55
210.442	-95.57
210.661	-1.37
210.879	111.27
211.098	45.74
211.316	53.93
211.535	111.27
211.753	19.11
211.972	58.03
212.191	-3.41
212.409	41.64
212.628	109.22
212.846	-50.52
213.065	74.41
213.283	117.42
213.502	-40.28
213.72	78.51
213.938	29.35
214.157	49.83
214.375	43.69
214.594	17.07
214.812	35.5
215.031	29.35
215.249	62.12
215.467	64.17
215.686	39.59
215.904	55.98
216.122	21.16
216.341	125.61
216.559	94.89
216.778	172.71
216.996	156.33
217.214	10.92
217.432	49.83
217.651	-34.13
217.869	29.35
218.087	-3.41
218.306	76.46
218.524	92.84
218.742	107.18
218.96	152.23
219.179	-48.47
219.397	51.88
219.615	252.58
219.833	74.41
220.051	-32.08
220.27	41.64
220.488	78.51
220.706	33.45
220.924	-42.32
221.142	21.16
221.36	58.03
221.578	76.46
221.796	82.6
222.015	0.68
222.233	101.03
222.451	152.23
222.669	-42.32
222.887	19.11
223.105	4.78
223.323	62.12
223.541	29.35
223.759	101.03
223.977	80.55
224.195	103.08
224.413	80.55
224.631	2.73
224.849	146.09
225.067	180.9
225.285	80.55
225.503	-3.41
225.721	-120.15
225.939	45.74
226.157	82.6
226.375	228.01
226.592	15.02
226.81	23.21
227.028	111.27
227.246	154.28
227.464	58.03
227.682	105.13
227.9	53.93
228.117	162.47
228.335	139.94
228.553	101.03
228.771	90.79
228.989	39.59
229.206	154.28
229.424	-13.65
229.642	-17.75
229.86	-7.51
230.077	117.42
230.295	10.92
230.513	137.9
230.731	103.08
230.948	189.1
231.166	121.51
231.384	12.97
231.601	-11.61
231.819	197.29
232.037	-23.89
232.254	-32.08
232.472	76.46
232.689	19.11
232.907	88.75
233.125	-5.46
233.342	-9.56
233.56	37.55
233.777	90.79
233.995	35.5
234.213	174.76
234.43	98.99
234.648	-17.75
234.865	21.16
235.083	92.84
235.3	72.36
235.518	107.18
235.735	117.42
235.953	109.22
236.17	68.27
236.388	-34.13
236.605	101.03
236.822	164.52
237.04	74.41
237.257	6.83
237.475	49.83
237.692	78.51
237.909	101.03
238.127	0.68
238.344	39.59
238.562	49.83
238.779	-13.65
238.996	-81.24
239.214	15.02
239.431	88.75
239.648	-15.7
239.865	88.75
240.083	62.12
240.3	-40.28
240.517	25.26
240.735	2.73
240.952	152.23
241.169	90.79
241.386	31.4
241.603	72.36
241.821	-44.37
242.038	58.03
242.255	84.65
242.472	8.87
242.689	76.46
242.907	45.74
243.124	39.59
243.341	53.93
243.558	39.59
243.775	-101.72
243.992	25.26
244.209	76.46
244.426	180.9
244.643	70.31
244.86	10.92
245.078	8.87
245.295	131.75
245.512	15.02
245.729	33.45
245.946	101.03
246.163	41.64
246.38	8.87
246.597	55.98
246.814	-19.8
247.031	-15.7
247.248	12.97
247.464	105.13
247.681	109.22
247.898	90.79
248.115	80.55
248.332	47.79
248.549	88.75
248.766	193.19
248.983	127.66
249.2	10.92
249.417	160.42
249.633	43.69
249.85	119.46
250.067	-5.46
250.284	72.36
250.501	90.79
250.717	101.03
250.934	-1.37
251.151	78.51
251.368	8.87
251.585	23.21
251.801	23.21
252.018	17.07
252.235	123.56
252.451	-21.85
252.668	27.31
252.885	98.99
253.102	72.36
253.318	53.93
253.535	23.21
253.752	-23.89
253.968	35.5
254.185	4.78
254.401	94.89
254.618	96.94
254.835	94.89
255.051	172.71
255.268	43.69
255.484	-3.41
255.701	51.88
255.917	68.27
256.134	-17.75
256.351	62.12
256.567	-44.37
256.784	62.12
257	-25.94
257.217	111.27
257.433	129.7
257.65	68.27
257.866	207.53
258.082	-1.37
258.299	-48.47
258.515	62.12
258.732	-27.99
258.948	-34.13
259.165	62.12
259.381	2.73
259.597	-7.51
259.814	-15.7
260.03	51.88
260.246	17.07
260.463	115.37
260.679	101.03
260.895	17.07
261.112	78.51
261.328	25.26
261.544	-7.51
261.761	144.04
261.977	74.41
262.193	-48.47
262.409	109.22
262.626	-7.51
262.842	60.07
263.058	-48.47
263.274	105.13
263.49	51.88
263.707	25.26
263.923	90.79
264.139	-3.41
264.355	39.59
264.571	62.12
264.787	94.89
265.004	121.51
265.22	29.35
265.436	-15.7
265.652	98.99
265.868	-85.33
266.084	15.02
266.3	17.07
266.516	-34.13
266.732	113.32
266.948	43.69
267.164	17.07
267.38	72.36
267.596	23.21
267.812	154.28
268.028	53.93
268.244	-13.65
268.46	90.79
268.676	-13.65
268.892	17.07
269.108	35.5
269.324	-1.37
269.54	27.31
269.756	64.17
269.972	2.73
270.188	-3.41
270.403	-11.61
270.619	23.21
270.835	129.7
271.051	-5.46
271.267	-42.32
271.483	33.45
271.698	19.11
271.914	117.42
272.13	55.98
272.346	0.68
272.562	41.64
272.777	148.14
272.993	-1.37
273.209	-38.23
273.425	90.79
273.64	-5.46
273.856	94.89
274.072	-13.65
274.287	-15.7
274.503	76.46
274.719	19.11
274.934	21.16
275.15	-32.08
275.366	45.74
275.581	35.5
275.797	68.27
276.012	55.98
276.228	-13.65
276.444	90.79
276.659	88.75
276.875	-19.8
277.09	-15.7
277.306	-1.37
277.521	82.6
277.737	62.12
277.952	27.31
278.168	23.21
278.383	49.83
278.599	66.22
278.814	15.02
279.03	115.37
279.245	154.28
279.461	60.07
279.676	125.61
279.892	-130.39
280.107	-7.51
280.322	-9.56
280.538	53.93
280.753	-58.71
280.969	68.27
281.184	70.31
281.399	105.13
281.615	41.64
281.83	12.97
282.045	-58.71
282.26	15.02
282.476	98.99
282.691	88.75
282.906	127.66
283.122	103.08
283.337	-1.37
283.552	55.98
283.767	-23.89
283.983	25.26
284.198	41.64
284.413	10.92
284.628	-32.08
284.843	88.75
285.058	80.55
285.274	-3.41
285.489	35.5
285.704	74.41
285.919	19.11
286.134	66.22
286.349	45.74
286.564	53.93
286.779	84.65
286.995	68.27
287.21	-105.81
287.425	66.22
287.64	53.93
287.855	88.75
288.07	-42.32
288.285	152.23
288.5	88.75
288.715	37.55
288.93	-9.56
289.145	2.73
289.36	109.22
289.575	19.11
289.79	43.69
290.004	0.68
290.219	60.07
290.434	8.87
290.649	64.17
290.864	0.68
291.079	-21.85
291.294	103.08
291.509	72.36
291.724	19.11
291.938	-21.85
292.153	-3.41
292.368	68.27
292.583	19.11
292.798	103.08
293.012	41.64
293.227	68.27
293.442	27.31
293.657	37.55
293.871	133.8
294.086	66.22
294.301	225.96
294.516	109.22
294.73	47.79
294.945	-62.8
295.16	117.42
295.374	119.46
295.589	156.33
295.804	-30.04
296.018	51.88
296.233	70.31
296.447	98.99
296.662	31.4
296.877	146.09
297.091	66.22
297.306	41.64
297.52	47.79
297.735	-9.56
297.949	39.59
298.164	55.98
298.378	-19.8
298.593	-62.8
298.807	-7.51
299.022	-1.37
299.236	146.09
299.451	-21.85
299.665	92.84
299.88	-44.37
300.094	82.6
300.309	6.83
300.523	41.64
300.737	27.31
300.952	60.07
301.166	78.51
301.381	-56.66
301.595	-77.14
301.809	33.45
302.024	0.68
302.238	-30.04
302.452	176.81
302.667	47.79
302.881	119.46
303.095	115.37
303.309	80.55
303.524	-17.75
303.738	2.73
303.952	2.73
304.166	113.32
304.381	-109.91
304.595	160.42
304.809	10.92
305.023	41.64
305.237	-25.94
305.452	0.68
305.666	4.78
305.88	72.36
306.094	76.46
306.308	25.26
306.522	152.23
306.736	8.87
306.95	64.17
307.164	-11.61
307.379	47.79
307.593	180.9
307.807	152.23
308.021	66.22
308.235	86.7
308.449	-36.18
308.663	33.45
308.877	219.82
309.091	29.35
309.305	139.94
309.519	-79.19
309.733	166.57
309.947	-25.94
310.161	45.74
310.374	92.84
310.588	88.75
310.802	-91.48
311.016	25.26
311.23	35.5
311.444	49.83
311.658	58.03
311.872	66.22
312.085	131.75
312.299	41.64
312.513	170.66
312.727	41.64
312.941	-19.8
313.154	125.61
313.368	60.07
313.582	53.93
313.796	64.17
314.009	31.4
314.223	148.14
314.437	64.17
314.651	113.32
314.864	21.16
315.078	43.69
315.292	-32.08
315.505	29.35
315.719	86.7
315.933	31.4
316.146	-7.51
316.36	47.79
316.573	98.99
316.787	96.94
317.001	37.55
317.214	31.4
317.428	68.27
317.641	-120.15
317.855	-19.8
318.068	31.4
318.282	31.4
318.495	172.71
318.709	25.26
318.922	45.74
319.136	105.13
319.349	96.94
319.563	23.21
319.776	88.75
319.99	-19.8
320.203	35.5
320.417	90.79
320.63	107.18
320.843	228.01
321.057	29.35
321.27	33.45
321.483	64.17
321.697	41.64
321.91	103.08
322.124	58.03
322.337	4.78
322.55	-7.51
322.763	-1.37
322.977	-1.37
323.19	-5.46
323.403	117.42
323.617	33.45
323.83	154.28
324.043	0.68
324.256	25.26
324.469	-15.7
324.683	74.41
324.896	19.11
325.109	15.02
325.322	-36.18
325.535	70.31
325.748	158.38
325.962	49.83
326.175	80.55
326.388	-5.46
326.601	180.9
326.814	43.69
327.027	12.97
327.24	141.99
327.453	-75.09
327.666	41.64
327.879	47.79
328.092	49.83
328.305	60.07
328.518	-52.56
328.731	-25.94
328.944	-32.08
329.157	111.27
329.37	-23.89
329.583	205.48
329.796	60.07
330.009	-81.24
330.222	86.7
330.435	68.27
330.648	60.07
330.861	35.5
331.073	68.27
331.286	107.18
331.499	-3.41
331.712	86.7
331.925	-19.8
332.138	19.11
332.35	55.98
332.563	-66.9
332.776	117.42
332.989	-42.32
333.202	2.73
333.414	78.51
333.627	70.31
333.84	49.83
334.053	35.5
334.265	35.5
334.478	-34.13
334.691	60.07
334.903	27.31
335.116	-50.52
335.329	-17.75
335.541	58.03
335.754	78.51
335.966	64.17
336.179	-21.85
336.392	-23.89
336.604	82.6
336.817	90.79
337.029	17.07
337.242	-19.8
337.454	45.74
337.667	82.6
337.88	211.62
338.092	72.36
338.305	49.83
338.517	51.88
338.729	84.65
338.942	178.86
339.154	-71
339.367	-9.56
339.579	70.31
339.792	-91.48
340.004	123.56
340.217	53.93
340.429	-15.7
340.641	21.16
340.854	-3.41
341.066	-1.37
341.278	117.42
341.491	211.62
341.703	53.93
341.915	-99.67
342.128	146.09
342.34	62.12
342.552	-3.41
342.764	55.98
342.977	105.13
343.189	35.5
343.401	-15.7
343.613	-116.05
343.826	78.51
344.038	-44.37
344.25	72.36
344.462	-15.7
344.674	86.7
344.886	15.02
345.099	86.7
345.311	58.03
345.523	-21.85
345.735	-38.23
345.947	47.79
346.159	115.37
346.371	-17.75
346.583	17.07
346.795	223.91
347.007	82.6
347.219	53.93
347.431	-42.32
347.643	207.53
347.855	15.02
348.067	107.18
348.279	21.16
348.491	-23.89
348.703	84.65
348.915	-3.41
349.127	-17.75
349.339	43.69
349.551	10.92
349.763	133.8
349.975	37.55
350.187	80.55
350.399	189.1
350.61	115.37
350.822	6.83
351.034	72.36
351.246	70.31
351.458	84.65
351.669	137.9
351.881	129.7
352.093	41.64
352.305	148.14
352.517	96.94
352.728	164.52
352.94	6.83
353.152	119.46
353.363	-3.41
353.575	137.9
353.787	195.24
353.999	123.56
354.21	154.28
354.422	-25.94
354.633	53.93
354.845	78.51
355.057	133.8
355.268	43.69
355.48	111.27
355.692	-38.23
355.903	45.74
356.115	-11.61
356.326	-142.68
356.538	121.51
356.749	68.27
356.961	98.99
357.172	25.26
357.384	-38.23
357.595	199.34
357.807	72.36
358.018	-21.85
358.23	58.03
358.441	178.86
358.653	82.6
358.864	35.5
359.075	-27.99
359.287	88.75
359.498	84.65
359.709	115.37
359.921	45.74
360.132	62.12
360.344	23.21
360.555	-54.61
360.766	141.99
360.977	43.69
361.189	86.7
361.4	0.68
361.611	170.66
361.823	213.67
362.034	78.51
362.245	-27.99
362.456	6.83
362.667	8.87
362.879	4.78
363.09	103.08
363.301	60.07
363.512	15.02
363.723	15.02
363.935	-23.89
364.146	82.6
364.357	49.83
364.568	55.98
364.779	-23.89
364.99	152.23
365.201	33.45
365.412	127.66
365.623	-101.72
365.834	15.02
366.045	49.83
366.256	66.22
366.467	88.75
366.678	12.97
366.889	49.83
367.1	49.83
367.311	111.27
367.522	-62.8
367.733	82.6
367.944	92.84
368.155	-38.23
368.366	43.69
368.577	94.89
368.788	84.65
368.999	-71
369.209	55.98
369.42	185
369.631	193.19
369.842	66.22
370.053	8.87
370.264	139.94
370.474	23.21
370.685	53.93
370.896	55.98
371.107	182.95
371.317	139.94
371.528	45.74
371.739	170.66
371.95	74.41
372.16	96.94
372.371	-77.14
372.582	-36.18
372.792	111.27
373.003	23.21
373.214	90.79
373.424	111.27
373.635	-44.37
373.846	158.38
374.056	-11.61
374.267	189.1
374.477	152.23
374.688	-21.85
374.898	74.41
375.109	15.02
375.319	86.7
375.53	72.36
375.74	51.88
375.951	29.35
376.161	53.93
376.372	92.84
376.582	58.03
376.793	37.55
377.003	-62.8
377.214	25.26
377.424	23.21
377.635	115.37
377.845	-38.23
378.055	117.42
378.266	31.4
378.476	84.65
378.686	78.51
378.897	60.07
379.107	152.23
379.317	96.94
379.528	80.55
379.738	64.17
379.948	-46.42
380.158	98.99
380.369	70.31
380.579	60.07
380.789	-5.46
380.999	125.61
381.21	82.6
381.42	109.22
381.63	41.64
381.84	111.27
382.05	131.75
382.261	90.79
382.471	191.14
382.681	-54.61
382.891	148.14
383.101	66.22
383.311	2.73
383.521	10.92
383.731	133.8
383.941	70.31
384.151	113.32
384.361	-19.8
384.571	109.22
384.781	55.98
384.991	193.19
385.201	187.05
385.411	158.38
385.621	33.45
385.831	-13.65
386.041	105.13
386.251	55.98
386.461	96.94
386.671	49.83
386.881	82.6
387.091	35.5
387.301	182.95
387.511	82.6
387.72	41.64
387.93	154.28
388.14	-52.56
388.35	76.46
388.56	131.75
388.769	68.27
388.979	45.74
389.189	4.78
389.399	37.55
389.609	68.27
389.818	115.37
390.028	62.12
390.238	-9.56
390.447	60.07
390.657	96.94
390.867	-21.85
391.076	-118.1
391.286	62.12
391.496	-21.85
391.705	51.88
391.915	182.95
392.125	111.27
392.334	12.97
392.544	127.66
392.753	72.36
392.963	39.59
393.172	113.32
393.382	-32.08
393.591	146.09
393.801	17.07
394.01	234.15
394.22	182.95
394.429	-34.13
394.639	49.83
394.848	141.99
395.058	72.36
395.267	19.11
395.477	135.85
395.686	64.17
395.895	182.95
396.105	146.09
396.314	70.31
396.524	39.59
396.733	6.83
396.942	154.28
397.152	47.79
397.361	139.94
397.57	78.51
397.78	23.21
397.989	152.23
398.198	246.44
398.407	-13.65
398.617	25.26
398.826	35.5
399.035	-1.37
399.244	133.8
399.453	41.64
399.663	98.99
399.872	125.61
400.081	-75.09
400.29	162.47
400.499	-30.04
400.708	137.9
400.917	101.03
401.127	8.87
401.336	-11.61
401.545	191.14
401.754	135.85
401.963	201.38
402.172	60.07
402.381	-34.13
402.59	101.03
402.799	-11.61
403.008	125.61
403.217	129.7
403.426	51.88
403.635	29.35
403.844	43.69
404.053	51.88
404.262	27.31
404.471	174.76
404.68	78.51
404.888	37.55
405.097	96.94
405.306	8.87
405.515	96.94
405.724	84.65
405.933	133.8
406.142	4.78
406.35	133.8
406.559	72.36
406.768	-3.41
406.977	148.14
407.185	37.55
407.394	101.03
407.603	-9.56
407.812	31.4
408.02	160.42
408.229	12.97
408.438	-23.89
408.646	-60.76
408.855	53.93
409.064	139.94
409.272	17.07
409.481	98.99
409.69	-5.46
409.898	-30.04
410.107	45.74
410.315	19.11
410.524	101.03
410.733	21.16
410.941	123.56
411.15	103.08
411.358	64.17
411.567	137.9
411.775	58.03
411.984	31.4
412.192	133.8
412.401	19.11
412.609	98.99
412.818	137.9
413.026	88.75
413.234	39.59
413.443	-21.85
413.651	84.65
413.86	86.7
414.068	109.22
414.276	168.62
414.485	88.75
414.693	139.94
414.901	244.39
415.11	70.31
415.318	78.51
415.526	39.59
415.734	98.99
415.943	68.27
416.151	191.14
416.359	78.51
416.567	70.31
416.776	58.03
416.984	98.99
417.192	221.86
417.4	19.11
417.608	-25.94
417.817	68.27
418.025	185
418.233	129.7
418.441	17.07
418.649	25.26
418.857	135.85
419.065	160.42
419.273	23.21
419.481	58.03
419.689	72.36
419.897	-7.51
420.105	31.4
420.313	137.9
420.521	203.43
420.729	127.66
420.937	-21.85
421.145	78.51
421.353	119.46
421.561	187.05
421.769	49.83
421.977	-5.46
422.185	150.18
422.393	68.27
422.601	162.47
422.809	135.85
423.017	162.47
423.224	137.9
423.432	144.04
423.64	156.33
423.848	158.38
424.056	-36.18
424.263	125.61
424.471	29.35
424.679	158.38
424.887	-38.23
425.094	101.03
425.302	96.94
425.51	82.6
425.718	117.42
425.925	131.75
426.133	-1.37
426.341	125.61
426.548	101.03
426.756	86.7
426.964	125.61
427.171	70.31
427.379	86.7
427.586	144.04
427.794	64.17
428.001	164.52
428.209	80.55
428.417	185
428.624	168.62
428.832	178.86
429.039	94.89
429.247	119.46
429.454	82.6
429.662	234.15
429.869	205.48
430.076	176.81
430.284	209.58
430.491	221.86
430.699	115.37
430.906	264.87
431.114	170.66
431.321	119.46
431.528	176.81
431.736	207.53
431.943	209.58
432.15	207.53
432.358	262.82
432.565	264.87
432.772	88.75
432.979	268.97
433.187	180.9
433.394	246.44
433.601	191.14
433.808	254.63
434.016	338.6
434.223	178.86
434.43	195.24
434.637	203.43
434.844	314.02
435.052	299.69
435.259	266.92
435.466	342.69
435.673	311.97
435.88	338.6
436.087	494.24
436.294	381.6
436.501	451.24
436.708	367.27
436.915	385.7
437.122	436.9
437.329	342.69
437.537	389.8
437.743	457.38
437.95	535.2
438.157	371.37
438.364	463.52
438.571	461.48
438.778	531.11
438.985	531.11
439.192	527.01
439.399	563.87
439.606	588.45
439.813	584.35
440.02	811.68
440.227	752.29
440.433	674.46
440.64	737.95
440.847	606.88
441.054	717.47
441.261	869.02
441.467	791.2
441.674	754.34
441.881	1012.38
442.088	709.28
442.294	1010.33
442.501	1018.52
442.708	1008.28
442.914	1018.52
443.121	1114.78
443.328	1061.53
443.534	1174.17
443.741	1215.13
443.948	1053.34
444.154	1180.31
444.361	1448.6
444.568	1241.75
444.774	1393.3
444.981	1168.02
445.187	1520.28
445.394	1464.98
445.6	1522.32
445.807	1710.74
446.013	1581.71
446.22	1555.09
446.426	1856.14
446.633	1921.68
446.839	1970.83
447.046	1794.7
447.252	2017.93
447.459	2105.99
447.665	2149
447.871	2314.89
448.078	2349.7
448.284	2460.29
448.491	2568.84
448.697	2667.14
448.903	2679.43
449.11	2931.33
449.316	2712.19
449.522	3064.44
449.728	3220.09
449.935	3156.6
450.141	3207.8
450.347	3570.29
450.553	3283.58
450.76	3531.38
450.966	3662.45
451.172	3834.48
451.378	4026.99
451.584	4170.35
451.791	4414.06
451.997	4516.45
452.203	4557.41
452.409	4887.14
452.615	5030.49
452.821	4860.51
453.027	4981.34
453.233	5558.87
453.44	5356.12
453.646	5691.99
453.852	5810.77
454.058	6281.8
454.264	6380.11
454.47	6728.26
454.676	6808.13
454.882	7430.71
455.088	6904.39
455.294	7461.43
455.5	7948.85
455.705	8411.69
455.911	8430.12
456.117	8665.64
456.323	8876.58
456.529	9091.62
456.735	9730.58
456.941	9898.52
457.147	10488.33
457.352	10781.19
457.558	11102.72
457.764	11571.71
457.97	12093.94
458.176	12530.16
458.381	13150.69
458.587	13513.18
458.793	14062.04
458.999	13873.62
459.204	15567.29
459.41	16210.36
459.616	15919.54
459.821	17199.52
460.027	17719.71
460.233	18510.22
460.438	18569.62
460.644	19945.85
460.85	19919.23
461.055	20627.82
461.261	21838.17
461.466	21479.78
461.672	21741.92
461.878	24072.51
462.083	23820.61
462.289	24604.98
462.494	25241.9
462.7	25762.08
462.905	26100
463.111	28315.9
463.316	29479.14
463.522	30036.19
463.727	30851.28
463.932	32086.21
464.138	33081.52
464.343	34629.79
464.549	34695.32
464.754	37064.82
464.959	37900.39
465.165	38748.25
465.37	38113.38
465.575	38408.29
465.781	41033.78
465.986	41981.99
466.191	41820.2
466.397	41779.25
466.602	40673.34
466.807	43526.16
467.012	44048.39
467.218	44857.34
467.423	45096.95
467.628	45692.91
467.833	48265.16
468.038	47306.71
468.244	46884.83
468.449	48988.1
468.654	47949.78
