Data from USB4F104151__266__11-20-33-032.txt Node

Date: Wed Feb 26 11:20:33 EST 2025
User: louis
Spectrometer: USB4F10415
Trigger mode: 4
Integration Time (sec): 1.000000E-1
Scans to average: 1
Electric dark correction enabled: true
Nonlinearity correction enabled: false
Boxcar width: 0
XAxis mode: Wavelengths
Number of Pixels in Spectrum: 3648
>>>>>Begin Spectral Data<<<<<
178.204	-443.73
178.424	-443.73
178.644	-443.73
178.864	-376.14
179.084	-367.95
179.304	2.73
179.524	-21.85
179.744	-32.08
179.964	51.88
180.184	-23.89
180.404	76.46
180.624	-68.95
180.844	-60.76
181.064	-25.94
181.283	33.45
181.503	27.31
181.723	41.64
181.943	-142.68
182.163	125.61
182.383	8.87
182.602	107.18
182.822	135.85
183.042	35.5
183.262	-75.09
183.482	12.97
183.701	6.83
183.921	10.92
184.141	0.68
184.361	55.98
184.58	133.8
184.8	47.79
185.02	-77.14
185.239	58.03
185.459	33.45
185.679	82.6
185.898	-138.58
186.118	115.37
186.338	51.88
186.557	115.37
186.777	-13.65
186.997	-7.51
187.216	72.36
187.436	137.9
187.655	8.87
187.875	78.51
188.095	60.07
188.314	109.22
188.534	8.87
188.753	27.31
188.973	98.99
189.192	141.99
189.412	64.17
189.631	105.13
189.851	92.84
190.07	103.08
190.29	-52.56
190.509	-3.41
190.729	49.83
190.948	174.76
191.168	256.68
191.387	-1.37
191.607	-30.04
191.826	64.17
192.045	51.88
192.265	12.97
192.484	15.02
192.704	31.4
192.923	-36.18
193.142	156.33
193.362	115.37
193.581	174.76
193.8	66.22
194.02	72.36
194.239	64.17
194.458	82.6
194.678	47.79
194.897	60.07
195.116	60.07
195.335	4.78
195.555	60.07
195.774	17.07
195.993	88.75
196.212	62.12
196.432	-11.61
196.651	-15.7
196.87	-36.18
197.089	275.11
197.308	60.07
197.528	12.97
197.747	-46.42
197.966	58.03
198.185	180.9
198.404	47.79
198.623	101.03
198.842	58.03
199.062	191.14
199.281	127.66
199.5	23.21
199.719	144.04
199.938	62.12
200.157	119.46
200.376	111.27
200.595	127.66
200.814	6.83
201.033	-25.94
201.252	160.42
201.471	-5.46
201.69	58.03
201.909	41.64
202.128	70.31
202.347	2.73
202.566	43.69
202.785	-75.09
203.004	-5.46
203.223	238.25
203.442	25.26
203.661	0.68
203.879	105.13
204.098	113.32
204.317	0.68
204.536	154.28
204.755	6.83
204.974	45.74
205.193	-13.65
205.411	78.51
205.63	107.18
205.849	86.7
206.068	-32.08
206.287	2.73
206.505	78.51
206.724	33.45
206.943	21.16
207.162	33.45
207.381	82.6
207.599	-48.47
207.818	10.92
208.037	-11.61
208.255	45.74
208.474	55.98
208.693	70.31
208.911	80.55
209.13	84.65
209.349	58.03
209.567	131.75
209.786	117.42
210.005	109.22
210.223	-32.08
210.442	-97.62
210.661	15.02
210.879	66.22
211.098	78.51
211.316	21.16
211.535	74.41
211.753	31.4
211.972	121.51
212.191	0.68
212.409	-30.04
212.628	137.9
212.846	-25.94
213.065	-27.99
213.283	96.94
213.502	35.5
213.72	-17.75
213.938	21.16
214.157	45.74
214.375	88.75
214.594	-23.89
214.812	12.97
215.031	-99.67
215.249	-3.41
215.467	84.65
215.686	23.21
215.904	66.22
216.122	21.16
216.341	209.58
216.559	15.02
216.778	31.4
216.996	199.34
217.214	74.41
217.432	4.78
217.651	-9.56
217.869	25.26
218.087	109.22
218.306	23.21
218.524	12.97
218.742	8.87
218.96	107.18
219.179	-40.28
219.397	19.11
219.615	197.29
219.833	160.42
220.051	-21.85
220.27	80.55
220.488	137.9
220.706	82.6
220.924	21.16
221.142	-27.99
221.36	15.02
221.578	101.03
221.796	-19.8
222.015	45.74
222.233	113.32
222.451	117.42
222.669	43.69
222.887	82.6
223.105	39.59
223.323	8.87
223.541	17.07
223.759	94.89
223.977	92.84
224.195	125.61
224.413	111.27
224.631	-7.51
224.849	51.88
225.067	187.05
225.285	-11.61
225.503	49.83
225.721	-128.34
225.939	53.93
226.157	72.36
226.375	246.44
226.592	31.4
226.81	-15.7
227.028	78.51
227.246	113.32
227.464	60.07
227.682	178.86
227.9	31.4
228.117	76.46
228.335	92.84
228.553	39.59
228.771	4.78
228.989	64.17
229.206	8.87
229.424	-9.56
229.642	29.35
229.86	23.21
230.077	185
230.295	90.79
230.513	141.99
230.731	103.08
230.948	211.62
231.166	146.09
231.384	-15.7
231.601	0.68
231.819	129.7
232.037	-107.86
232.254	-11.61
232.472	-3.41
232.689	-32.08
232.907	111.27
233.125	-1.37
233.342	-5.46
233.56	-19.8
233.777	-54.61
233.995	21.16
234.213	123.56
234.43	152.23
234.648	-32.08
234.865	10.92
235.083	33.45
235.3	107.18
235.518	139.94
235.735	55.98
235.953	84.65
236.17	2.73
236.388	-21.85
236.605	29.35
236.822	154.28
237.04	137.9
237.257	125.61
237.475	-75.09
237.692	74.41
237.909	76.46
238.127	37.55
238.344	109.22
238.562	-13.65
238.779	-93.52
238.996	-101.72
239.214	-30.04
239.431	66.22
239.648	23.21
239.865	101.03
240.083	74.41
240.3	-7.51
240.517	8.87
240.735	88.75
240.952	162.47
241.169	31.4
241.386	107.18
241.603	60.07
241.821	-101.72
242.038	-17.75
242.255	45.74
242.472	-40.28
242.689	78.51
242.907	76.46
243.124	117.42
243.341	90.79
243.558	0.68
243.775	-83.28
243.992	-73.04
244.209	37.55
244.426	121.51
244.643	17.07
244.86	-38.23
245.078	127.66
245.295	82.6
245.512	66.22
245.729	-19.8
245.946	88.75
246.163	31.4
246.38	49.83
246.597	84.65
246.814	6.83
247.031	55.98
247.248	96.94
247.464	187.05
247.681	-42.32
247.898	70.31
248.115	76.46
248.332	39.59
248.549	90.79
248.766	129.7
248.983	25.26
249.2	92.84
249.417	111.27
249.633	-75.09
249.85	74.41
250.067	21.16
250.284	90.79
250.501	53.93
250.717	98.99
250.934	-15.7
251.151	64.17
251.368	-25.94
251.585	121.51
251.801	82.6
252.018	47.79
252.235	53.93
252.451	-38.23
252.668	29.35
252.885	119.46
253.102	68.27
253.318	-27.99
253.535	35.5
253.752	27.31
253.968	47.79
254.185	-89.43
254.401	64.17
254.618	109.22
254.835	49.83
255.051	146.09
255.268	127.66
255.484	53.93
255.701	33.45
255.917	115.37
256.134	-64.85
256.351	45.74
256.567	-81.24
256.784	62.12
257	-25.94
257.217	127.66
257.433	109.22
257.65	49.83
257.866	119.46
258.082	-91.48
258.299	-25.94
258.515	45.74
258.732	-62.8
258.948	25.26
259.165	70.31
259.381	-97.62
259.597	152.23
259.814	-42.32
260.03	-9.56
260.246	19.11
260.463	64.17
260.679	137.9
260.895	-3.41
261.112	29.35
261.328	19.11
261.544	-25.94
261.761	123.56
261.977	-62.8
262.193	-56.66
262.409	37.55
262.626	146.09
262.842	-11.61
263.058	39.59
263.274	98.99
263.49	51.88
263.707	33.45
263.923	19.11
264.139	-27.99
264.355	-13.65
264.571	103.08
264.787	121.51
265.004	144.04
265.22	58.03
265.436	-5.46
265.652	82.6
265.868	-27.99
266.084	12.97
266.3	80.55
266.516	27.31
266.732	60.07
266.948	148.14
267.164	12.97
267.38	62.12
267.596	21.16
267.812	221.86
268.028	60.07
268.244	21.16
268.46	-13.65
268.676	62.12
268.892	82.6
269.108	-50.52
269.324	-56.66
269.54	-19.8
269.756	119.46
269.972	-5.46
270.188	0.68
270.403	-13.65
270.619	-9.56
270.835	101.03
271.051	78.51
271.267	0.68
271.483	12.97
271.698	92.84
271.914	37.55
272.13	-7.51
272.346	29.35
272.562	119.46
272.777	109.22
272.993	33.45
273.209	-5.46
273.425	19.11
273.64	53.93
273.856	107.18
274.072	4.78
274.287	-5.46
274.503	35.5
274.719	66.22
274.934	60.07
275.15	-83.28
275.366	53.93
275.581	-71
275.797	29.35
276.012	10.92
276.228	-32.08
276.444	4.78
276.659	150.18
276.875	-1.37
277.09	29.35
277.306	86.7
277.521	92.84
277.737	84.65
277.952	127.66
278.168	4.78
278.383	37.55
278.599	109.22
278.814	121.51
279.03	80.55
279.245	119.46
279.461	103.08
279.676	109.22
279.892	-32.08
280.107	10.92
280.322	-42.32
280.538	41.64
280.753	-13.65
280.969	60.07
281.184	10.92
281.399	187.05
281.615	-21.85
281.83	92.84
282.045	-36.18
282.26	43.69
282.476	113.32
282.691	74.41
282.906	78.51
283.122	74.41
283.337	27.31
283.552	86.7
283.767	49.83
283.983	82.6
284.198	-9.56
284.413	137.9
284.628	17.07
284.843	-13.65
285.058	121.51
285.274	17.07
285.489	-32.08
285.704	74.41
285.919	31.4
286.134	-11.61
286.349	21.16
286.564	66.22
286.779	123.56
286.995	58.03
287.21	-5.46
287.425	101.03
287.64	21.16
287.855	2.73
288.07	-111.96
288.285	109.22
288.5	111.27
288.715	53.93
288.93	58.03
289.145	0.68
289.36	96.94
289.575	17.07
289.79	217.77
290.004	10.92
290.219	76.46
290.434	27.31
290.649	80.55
290.864	47.79
291.079	19.11
291.294	4.78
291.509	84.65
291.724	8.87
291.938	43.69
292.153	88.75
292.368	-48.47
292.583	90.79
292.798	35.5
293.012	-46.42
293.227	84.65
293.442	-46.42
293.657	31.4
293.871	76.46
294.086	82.6
294.301	180.9
294.516	88.75
294.73	-1.37
294.945	-25.94
295.16	19.11
295.374	127.66
295.589	113.32
295.804	33.45
296.018	144.04
296.233	125.61
296.447	-56.66
296.662	-15.7
296.877	88.75
297.091	15.02
297.306	31.4
297.52	-9.56
297.735	55.98
297.949	62.12
298.164	58.03
298.378	113.32
298.593	6.83
298.807	29.35
299.022	8.87
299.236	74.41
299.451	8.87
299.665	-7.51
299.88	-58.71
300.094	53.93
300.309	31.4
300.523	76.46
300.737	-30.04
300.952	70.31
301.166	45.74
301.381	12.97
301.595	-3.41
301.809	49.83
302.024	17.07
302.238	-25.94
302.452	88.75
302.667	-36.18
302.881	105.13
303.095	117.42
303.309	68.27
303.524	-5.46
303.738	-42.32
303.952	-46.42
304.166	76.46
304.381	-34.13
304.595	90.79
304.809	-36.18
305.023	-5.46
305.237	8.87
305.452	-99.67
305.666	31.4
305.88	156.33
306.094	107.18
306.308	109.22
306.522	55.98
306.736	53.93
306.95	23.21
307.164	117.42
307.379	0.68
307.593	189.1
307.807	127.66
308.021	35.5
308.235	119.46
308.449	-64.85
308.663	-21.85
308.877	187.05
309.091	43.69
309.305	55.98
309.519	-13.65
309.733	176.81
309.947	-56.66
310.161	111.27
310.374	123.56
310.588	127.66
310.802	-19.8
311.016	-21.85
311.23	94.89
311.444	-71
311.658	55.98
311.872	168.62
312.085	62.12
312.299	158.38
312.513	129.7
312.727	74.41
312.941	66.22
313.154	70.31
313.368	33.45
313.582	94.89
313.796	51.88
314.009	41.64
314.223	146.09
314.437	55.98
314.651	55.98
314.864	41.64
315.078	4.78
315.292	-42.32
315.505	-23.89
315.719	74.41
315.933	119.46
316.146	-7.51
316.36	-7.51
316.573	90.79
316.787	76.46
317.001	-7.51
317.214	-9.56
317.428	25.26
317.641	-87.38
317.855	4.78
318.068	86.7
318.282	96.94
318.495	203.43
318.709	111.27
318.922	88.75
319.136	129.7
319.349	86.7
319.563	103.08
319.776	68.27
319.99	-136.53
320.203	68.27
320.417	23.21
320.63	98.99
320.843	191.14
321.057	62.12
321.27	-17.75
321.483	66.22
321.697	82.6
321.91	27.31
322.124	0.68
322.337	31.4
322.55	-93.52
322.763	31.4
322.977	8.87
323.19	19.11
323.403	58.03
323.617	58.03
323.83	86.7
324.043	12.97
324.256	72.36
324.469	-89.43
324.683	107.18
324.896	62.12
325.109	45.74
325.322	-87.38
325.535	78.51
325.748	88.75
325.962	8.87
326.175	2.73
326.388	119.46
326.601	129.7
326.814	-13.65
327.027	98.99
327.24	154.28
327.453	-79.19
327.666	70.31
327.879	105.13
328.092	72.36
328.305	88.75
328.518	-36.18
328.731	-3.41
328.944	0.68
329.157	23.21
329.37	0.68
329.583	158.38
329.796	82.6
330.009	-48.47
330.222	92.84
330.435	133.8
330.648	21.16
330.861	152.23
331.073	60.07
331.286	49.83
331.499	98.99
331.712	15.02
331.925	-30.04
332.138	88.75
332.35	107.18
332.563	-54.61
332.776	55.98
332.989	-42.32
333.202	12.97
333.414	72.36
333.627	84.65
333.84	51.88
334.053	121.51
334.265	49.83
334.478	-81.24
334.691	-17.75
334.903	64.17
335.116	64.17
335.329	47.79
335.541	37.55
335.754	158.38
335.966	-44.37
336.179	47.79
336.392	10.92
336.604	37.55
336.817	96.94
337.029	113.32
337.242	31.4
337.454	15.02
337.667	23.21
337.88	109.22
338.092	111.27
338.305	49.83
338.517	2.73
338.729	111.27
338.942	115.37
339.154	-71
339.367	-77.14
339.579	72.36
339.792	53.93
340.004	113.32
340.217	10.92
340.429	137.9
340.641	43.69
340.854	-56.66
341.066	12.97
341.278	76.46
341.491	236.2
341.703	-25.94
341.915	21.16
342.128	53.93
342.34	-11.61
342.552	8.87
342.764	31.4
342.977	51.88
343.189	33.45
343.401	-5.46
343.613	17.07
343.826	37.55
344.038	-5.46
344.25	27.31
344.462	-32.08
344.674	58.03
344.886	-27.99
345.099	115.37
345.311	119.46
345.523	6.83
345.735	-58.71
345.947	51.88
346.159	37.55
346.371	-19.8
346.583	6.83
346.795	141.99
347.007	117.42
347.219	41.64
347.431	-30.04
347.643	162.47
347.855	-27.99
348.067	150.18
348.279	-54.61
348.491	70.31
348.703	51.88
348.915	41.64
349.127	8.87
349.339	2.73
349.551	-1.37
349.763	146.09
349.975	51.88
350.187	98.99
350.399	141.99
350.61	146.09
350.822	-38.23
351.034	60.07
351.246	66.22
351.458	88.75
351.669	37.55
351.881	98.99
352.093	103.08
352.305	96.94
352.517	21.16
352.728	47.79
352.94	96.94
353.152	109.22
353.363	6.83
353.575	117.42
353.787	117.42
353.999	60.07
354.21	156.33
354.422	-25.94
354.633	70.31
354.845	37.55
355.057	15.02
355.268	47.79
355.48	12.97
355.692	2.73
355.903	49.83
356.115	-32.08
356.326	-89.43
356.538	189.1
356.749	86.7
356.961	74.41
357.172	35.5
357.384	-27.99
357.595	185
357.807	2.73
358.018	8.87
358.23	113.32
358.441	223.91
358.653	98.99
358.864	37.55
359.075	23.21
359.287	55.98
359.498	47.79
359.709	105.13
359.921	76.46
360.132	4.78
360.344	68.27
360.555	19.11
360.766	-5.46
360.977	8.87
361.189	88.75
361.4	49.83
361.611	150.18
361.823	141.99
362.034	8.87
362.245	-21.85
362.456	23.21
362.667	111.27
362.879	-58.71
363.09	90.79
363.301	64.17
363.512	15.02
363.723	-19.8
363.935	-13.65
364.146	176.81
364.357	31.4
364.568	78.51
364.779	-75.09
364.99	84.65
365.201	-27.99
365.412	82.6
365.623	-44.37
365.834	31.4
366.045	39.59
366.256	131.75
366.467	31.4
366.678	6.83
366.889	47.79
367.1	4.78
367.311	141.99
367.522	-13.65
367.733	58.03
367.944	15.02
368.155	23.21
368.366	64.17
368.577	82.6
368.788	109.22
368.999	45.74
369.209	-15.7
369.42	164.52
369.631	252.58
369.842	113.32
370.053	96.94
370.264	162.47
370.474	-38.23
370.685	60.07
370.896	101.03
371.107	176.81
371.317	60.07
371.528	60.07
371.739	60.07
371.95	58.03
372.16	64.17
372.371	-48.47
372.582	-87.38
372.792	84.65
373.003	141.99
373.214	21.16
373.424	45.74
373.635	-32.08
373.846	117.42
374.056	-7.51
374.267	103.08
374.477	123.56
374.688	-9.56
374.898	49.83
375.109	98.99
375.319	92.84
375.53	66.22
375.74	121.51
375.951	47.79
376.161	45.74
376.372	152.23
376.582	-3.41
376.793	37.55
377.003	15.02
377.214	96.94
377.424	131.75
377.635	92.84
377.845	2.73
378.055	80.55
378.266	-25.94
378.476	101.03
378.686	96.94
378.897	21.16
379.107	133.8
379.317	82.6
379.528	47.79
379.738	31.4
379.948	-73.04
380.158	185
380.369	109.22
380.579	152.23
380.789	33.45
380.999	90.79
381.21	129.7
381.42	127.66
381.63	2.73
381.84	88.75
382.05	47.79
382.261	139.94
382.471	123.56
382.681	4.78
382.891	205.48
383.101	-79.19
383.311	-5.46
383.521	19.11
383.731	135.85
383.941	187.05
384.151	58.03
384.361	-17.75
384.571	96.94
384.781	88.75
384.991	232.1
385.201	150.18
385.411	133.8
385.621	101.03
385.831	51.88
386.041	96.94
386.251	58.03
386.461	109.22
386.671	-7.51
386.881	80.55
387.091	-46.42
387.301	27.31
387.511	-36.18
387.72	105.13
387.93	74.41
388.14	-64.85
388.35	39.59
388.56	94.89
388.769	107.18
388.979	86.7
389.189	-56.66
389.399	115.37
389.609	76.46
389.818	70.31
390.028	103.08
390.238	51.88
390.447	-23.89
390.657	51.88
390.867	25.26
391.076	-58.71
391.286	27.31
391.496	62.12
391.705	-40.28
391.915	148.14
392.125	68.27
392.334	51.88
392.544	146.09
392.753	111.27
392.963	-107.86
393.172	47.79
393.382	-54.61
393.591	219.82
393.801	-13.65
394.01	156.33
394.22	78.51
394.429	72.36
394.639	53.93
394.848	131.75
395.058	129.7
395.267	-56.66
395.477	146.09
395.686	55.98
395.895	209.58
396.105	197.29
396.314	21.16
396.524	4.78
396.733	-5.46
396.942	96.94
397.152	82.6
397.361	103.08
397.57	115.37
397.78	33.45
397.989	125.61
398.198	234.15
398.407	47.79
398.617	23.21
398.826	-21.85
399.035	62.12
399.244	115.37
399.453	80.55
399.663	80.55
399.872	29.35
400.081	-19.8
400.29	109.22
400.499	25.26
400.708	78.51
400.917	55.98
401.127	-3.41
401.336	-50.52
401.545	191.14
401.754	82.6
401.963	47.79
402.172	-13.65
402.381	-36.18
402.59	29.35
402.799	-40.28
403.008	146.09
403.217	19.11
403.426	68.27
403.635	-58.71
403.844	8.87
404.053	60.07
404.262	29.35
404.471	53.93
404.68	86.7
404.888	37.55
405.097	80.55
405.306	139.94
405.515	101.03
405.724	-34.13
405.933	105.13
406.142	72.36
406.35	166.57
406.559	76.46
406.768	76.46
406.977	144.04
407.185	117.42
407.394	43.69
407.603	41.64
407.812	74.41
408.02	160.42
408.229	25.26
408.438	113.32
408.646	6.83
408.855	35.5
409.064	47.79
409.272	47.79
409.481	162.47
409.69	82.6
409.898	-32.08
410.107	31.4
410.315	53.93
410.524	-56.66
410.733	12.97
410.941	25.26
411.15	90.79
411.358	88.75
411.567	160.42
411.775	47.79
411.984	23.21
412.192	98.99
412.401	23.21
412.609	219.82
412.818	82.6
413.026	68.27
413.234	-11.61
413.443	27.31
413.651	-54.61
413.86	-3.41
414.068	51.88
414.276	160.42
414.485	-17.75
414.693	180.9
414.901	201.38
415.11	64.17
415.318	74.41
415.526	-60.76
415.734	160.42
415.943	10.92
416.151	115.37
416.359	115.37
416.567	53.93
416.776	150.18
416.984	131.75
417.192	252.58
417.4	8.87
417.608	31.4
417.817	-66.9
418.025	133.8
418.233	152.23
418.441	-19.8
418.649	-99.67
418.857	119.46
419.065	103.08
419.273	-56.66
419.481	62.12
419.689	-62.8
419.897	-42.32
420.105	-32.08
420.313	19.11
420.521	144.04
420.729	70.31
420.937	-79.19
421.145	-9.56
421.353	129.7
421.561	160.42
421.769	47.79
421.977	-23.89
422.185	74.41
422.393	66.22
422.601	211.62
422.809	47.79
423.017	105.13
423.224	76.46
423.432	96.94
423.64	49.83
423.848	133.8
424.056	-54.61
424.263	156.33
424.471	96.94
424.679	146.09
424.887	4.78
425.094	150.18
425.302	-32.08
425.51	51.88
425.718	187.05
425.925	43.69
426.133	49.83
426.341	176.81
426.548	86.7
426.756	94.89
426.964	139.94
427.171	70.31
427.379	125.61
427.586	98.99
427.794	150.18
428.001	199.34
428.209	39.59
428.417	156.33
428.624	109.22
428.832	156.33
429.039	84.65
429.247	80.55
429.454	141.99
429.662	203.43
429.869	137.9
430.076	195.24
430.284	137.9
430.491	207.53
430.699	66.22
430.906	152.23
431.114	133.8
431.321	80.55
431.528	84.65
431.736	80.55
431.943	170.66
432.15	258.73
432.358	205.48
432.565	244.39
432.772	84.65
432.979	234.15
433.187	107.18
433.394	158.38
433.601	119.46
433.808	225.96
434.016	297.64
434.223	191.14
434.43	258.73
434.637	228.01
434.844	277.16
435.052	232.1
435.259	256.68
435.466	250.53
435.673	162.47
435.88	209.58
436.087	248.49
436.294	389.8
436.501	377.51
436.708	180.9
436.915	279.21
437.122	385.7
437.329	252.58
437.537	232.1
437.743	287.4
437.95	354.98
438.157	299.69
438.364	330.41
438.571	377.51
438.778	426.66
438.985	481.96
439.192	481.96
439.399	385.7
439.606	389.8
439.813	465.57
440.02	500.39
440.227	617.12
440.433	484
440.64	510.63
440.847	447.14
441.054	502.43
441.261	672.42
441.467	682.66
441.674	518.82
441.881	629.41
442.088	551.59
442.294	723.62
442.501	742.05
442.708	752.29
442.914	826.01
443.121	760.48
443.328	850.59
443.534	817.82
443.741	813.73
443.948	707.23
444.154	928.41
444.361	1137.31
444.568	977.56
444.774	957.08
444.981	903.84
445.187	1092.25
445.394	1075.87
445.6	985.76
445.807	1229.46
446.013	1280.66
446.22	1247.9
446.426	1348.25
446.633	1458.84
446.839	1616.53
447.046	1424.02
447.252	1585.81
447.459	1503.89
447.665	1534.61
447.871	1616.53
448.078	1890.96
448.284	1786.51
448.491	1821.33
448.697	1944.2
448.903	2001.55
449.11	1880.72
449.316	2038.41
449.522	2112.14
449.728	2181.77
449.935	2396.81
450.141	2343.56
450.347	2556.55
450.553	2400.9
450.76	2605.7
450.966	2749.06
451.172	2757.25
451.378	2982.53
451.584	3017.34
451.791	3187.32
451.997	3195.51
452.203	3304.06
452.409	3519.09
452.615	3648.11
452.821	3512.95
453.027	3603.06
453.233	4045.42
453.44	3797.62
453.646	4119.15
453.852	4369
454.058	4455.01
454.264	4508.26
454.47	4903.52
454.676	4895.33
454.882	5149.28
455.088	5048.93
455.294	5403.22
455.5	5558.87
455.705	5933.65
455.911	6103.63
456.117	6091.34
456.323	6459.98
456.529	6337.1
456.735	7027.26
456.941	7141.95
457.147	7602.74
457.352	7506.49
457.558	8014.38
457.764	8288.81
457.97	8395.31
458.176	8735.27
458.381	9247.26
458.587	9572.89
458.793	9921.04
458.999	9695.77
459.204	11117.06
459.41	11508.22
459.616	11426.3
459.821	12151.28
460.027	12409.33
460.233	12970.47
460.438	13257.18
460.644	13908.44
460.85	14037.46
461.055	14674.38
461.261	15292.87
461.466	14887.37
461.672	15100.36
461.878	17082.79
462.083	16705.96
462.289	17361.31
462.494	18137.49
462.7	18004.38
462.905	18104.73
463.111	19571.07
463.316	20689.26
463.522	20689.26
463.727	21709.15
463.932	22810.96
464.138	23638.34
464.343	24158.52
464.549	24279.35
464.754	26036.51
464.959	26972.43
465.165	27511.05
465.37	27212.04
465.575	27087.12
465.781	29018.35
465.986	29890.79
466.191	29214.96
466.397	29743.33
466.602	29026.54
466.807	30548.18
467.012	31219.92
467.218	31609.03
467.423	31629.51
467.628	32604.35
467.833	34142.37
468.038	33376.43
468.244	32911.54
468.449	34916.5
468.654	34103.46
468.859	34136.23
