Data from USB4F104151__120__10-46-13-958.txt Node

Date: Wed Feb 26 10:46:13 EST 2025
User: louis
Spectrometer: USB4F10415
Trigger mode: 4
Integration Time (sec): 1.000000E-1
Scans to average: 1
Electric dark correction enabled: true
Nonlinearity correction enabled: false
Boxcar width: 0
XAxis mode: Wavelengths
Number of Pixels in Spectrum: 3648
>>>>>Begin Spectral Data<<<<<
178.204	-389.11
178.424	-389.11
178.644	-389.11
178.864	-448.51
179.084	-432.12
179.304	-22.53
179.524	4.1
179.744	30.72
179.964	20.48
180.184	-16.38
180.404	10.24
180.624	14.34
180.844	10.24
181.064	-65.54
181.283	10.24
181.503	-34.82
181.723	38.91
181.943	-16.38
182.163	155.65
182.383	32.77
182.602	53.25
182.822	131.07
183.042	131.07
183.262	59.39
183.482	20.48
183.701	96.25
183.921	77.82
184.141	-53.25
184.361	108.54
184.58	129.02
184.8	63.49
185.02	63.49
185.239	141.31
185.459	94.21
185.679	86.01
185.898	-69.63
186.118	18.43
186.338	51.2
186.557	133.12
186.777	-10.24
186.997	-16.38
187.216	51.2
187.436	147.45
187.655	120.83
187.875	114.69
188.095	-22.53
188.314	182.27
188.534	90.11
188.753	-36.86
188.973	110.59
189.192	186.37
189.412	36.86
189.631	65.53
189.851	135.17
190.07	96.25
190.29	65.53
190.509	-24.58
190.729	69.63
190.948	126.97
191.168	235.52
191.387	20.48
191.607	20.48
191.826	43.01
192.045	77.82
192.265	26.62
192.484	86.01
192.704	65.53
192.923	-40.96
193.142	260.09
193.362	98.3
193.581	174.08
193.8	61.44
194.02	96.25
194.239	36.86
194.458	104.45
194.678	4.1
194.897	-61.44
195.116	16.38
195.335	88.06
195.555	90.11
195.774	10.24
195.993	153.6
196.212	-10.24
196.432	43.01
196.651	55.3
196.87	112.64
197.089	266.24
197.308	65.53
197.528	81.92
197.747	10.24
197.966	53.25
198.185	151.55
198.404	-4.1
198.623	100.35
198.842	63.49
199.062	102.4
199.281	77.82
199.5	55.3
199.719	57.34
199.938	-0
200.157	53.25
200.376	137.21
200.595	174.08
200.814	83.97
201.033	-28.67
201.252	241.66
201.471	59.39
201.69	86.01
201.909	12.29
202.128	192.51
202.347	22.53
202.566	143.36
202.785	-22.53
203.004	-59.39
203.223	278.52
203.442	98.3
203.661	67.58
203.879	118.78
204.098	135.17
204.317	-6.14
204.536	153.6
204.755	141.31
204.974	83.97
205.193	-2.05
205.411	145.41
205.63	96.25
205.849	69.63
206.068	43.01
206.287	-6.14
206.505	165.89
206.724	69.63
206.943	-12.29
207.162	-40.96
207.381	86.01
207.599	79.87
207.818	112.64
208.037	-2.05
208.255	86.01
208.474	34.82
208.693	30.72
208.911	12.29
209.13	88.06
209.349	126.97
209.567	73.73
209.786	67.58
210.005	73.73
210.223	24.58
210.442	-18.43
210.661	8.19
210.879	77.82
211.098	8.19
211.316	45.06
211.535	53.25
211.753	100.35
211.972	36.86
212.191	86.01
212.409	34.82
212.628	100.35
212.846	12.29
213.065	98.3
213.283	104.45
213.502	63.49
213.72	49.15
213.938	75.77
214.157	18.43
214.375	86.01
214.594	43.01
214.812	53.25
215.031	116.73
215.249	86.01
215.467	55.3
215.686	165.89
215.904	153.6
216.122	57.34
216.341	196.6
216.559	-10.24
216.778	67.58
216.996	188.41
217.214	34.82
217.432	47.1
217.651	20.48
217.869	-0
218.087	81.92
218.306	4.1
218.524	104.45
218.742	65.53
218.96	98.3
219.179	133.12
219.397	67.58
219.615	266.24
219.833	145.41
220.051	-40.96
220.27	151.55
220.488	129.02
220.706	200.7
220.924	20.48
221.142	22.53
221.36	38.91
221.578	20.48
221.796	34.82
222.015	106.49
222.233	59.39
222.451	133.12
222.669	18.43
222.887	92.16
223.105	-2.05
223.323	49.15
223.541	-28.67
223.759	28.67
223.977	45.06
224.195	202.75
224.413	36.86
224.631	63.49
224.849	88.06
225.067	200.7
225.285	59.39
225.503	32.77
225.721	-100.35
225.939	47.1
226.157	-4.1
226.375	225.28
226.592	10.24
226.81	83.97
227.028	126.97
227.246	149.5
227.464	96.25
227.682	110.59
227.9	81.92
228.117	47.1
228.335	53.25
228.553	4.1
228.771	79.87
228.989	12.29
229.206	139.26
229.424	26.62
229.642	34.82
229.86	-40.96
230.077	94.21
230.295	-14.34
230.513	63.49
230.731	133.12
230.948	219.13
231.166	208.89
231.384	45.06
231.601	20.48
231.819	139.26
232.037	22.53
232.254	-43.01
232.472	36.86
232.689	47.1
232.907	153.6
233.125	43.01
233.342	-79.87
233.56	59.39
233.777	86.01
233.995	59.39
234.213	139.26
234.43	57.34
234.648	81.92
234.865	4.1
235.083	100.35
235.3	112.64
235.518	161.79
235.735	165.89
235.953	63.49
236.17	116.73
236.388	2.05
236.605	32.77
236.822	63.49
237.04	104.45
237.257	112.64
237.475	-2.05
237.692	163.84
237.909	106.49
238.127	24.58
238.344	153.6
238.562	110.59
238.779	6.14
238.996	-14.34
239.214	55.3
239.431	45.06
239.648	12.29
239.865	102.4
240.083	108.54
240.3	-45.06
240.517	-0
240.735	108.54
240.952	176.13
241.169	104.45
241.386	96.25
241.603	34.82
241.821	-14.34
242.038	120.83
242.255	151.55
242.472	-22.53
242.689	108.54
242.907	161.79
243.124	10.24
243.341	106.49
243.558	63.49
243.775	-79.87
243.992	-16.38
244.209	112.64
244.426	163.84
244.643	49.15
244.86	-22.53
245.078	169.98
245.295	65.53
245.512	38.91
245.729	-77.82
245.946	77.82
246.163	81.92
246.38	38.91
246.597	106.49
246.814	61.44
247.031	122.88
247.248	71.68
247.464	57.34
247.681	36.86
247.898	112.64
248.115	77.82
248.332	-65.54
248.549	143.36
248.766	174.08
248.983	51.2
249.2	98.3
249.417	92.16
249.633	-6.14
249.85	49.15
250.067	53.25
250.284	57.34
250.501	45.06
250.717	139.26
250.934	-77.82
251.151	32.77
251.368	47.1
251.585	18.43
251.801	-34.82
252.018	-4.1
252.235	124.93
252.451	-32.77
252.668	34.82
252.885	200.7
253.102	104.45
253.318	34.82
253.535	-59.39
253.752	77.82
253.968	86.01
254.185	-88.06
254.401	-2.05
254.618	61.44
254.835	104.45
255.051	126.97
255.268	106.49
255.484	81.92
255.701	8.19
255.917	83.97
256.134	8.19
256.351	131.07
256.567	-38.91
256.784	96.25
257	-65.54
257.217	116.73
257.433	36.86
257.65	61.44
257.866	176.13
258.082	24.58
258.299	-53.25
258.515	77.82
258.732	59.39
258.948	53.25
259.165	81.92
259.381	38.91
259.597	96.25
259.814	-20.48
260.03	14.34
260.246	55.3
260.463	61.44
260.679	126.97
260.895	88.06
261.112	61.44
261.328	-49.15
261.544	-38.91
261.761	241.66
261.977	30.72
262.193	-45.06
262.409	155.65
262.626	116.73
262.842	75.77
263.058	79.87
263.274	86.01
263.49	200.7
263.707	135.17
263.923	143.36
264.139	-83.97
264.355	57.34
264.571	149.5
264.787	161.79
265.004	73.73
265.22	47.1
265.436	-12.29
265.652	18.43
265.868	53.25
266.084	10.24
266.3	69.63
266.516	-36.86
266.732	94.21
266.948	83.97
267.164	-8.19
267.38	108.54
267.596	133.12
267.812	178.17
268.028	-4.1
268.244	61.44
268.46	6.14
268.676	-24.58
268.892	55.3
269.108	53.25
269.324	-38.91
269.54	16.38
269.756	75.77
269.972	-63.49
270.188	32.77
270.403	-22.53
270.619	-2.05
270.835	43.01
271.051	-45.06
271.267	18.43
271.483	14.34
271.698	110.59
271.914	40.96
272.13	79.87
272.346	30.72
272.562	81.92
272.777	120.83
272.993	-12.29
273.209	-36.86
273.425	112.64
273.64	57.34
273.856	188.41
274.072	-73.73
274.287	32.77
274.503	131.07
274.719	106.49
274.934	-6.14
275.15	-34.82
275.366	20.48
275.581	30.72
275.797	30.72
276.012	77.82
276.228	18.43
276.444	49.15
276.659	186.37
276.875	-6.14
277.09	73.73
277.306	57.34
277.521	98.3
277.737	51.2
277.952	96.25
278.168	71.68
278.383	77.82
278.599	112.64
278.814	202.75
279.03	20.48
279.245	194.56
279.461	69.63
279.676	102.4
279.892	-10.24
280.107	-2.05
280.322	12.29
280.538	143.36
280.753	-28.67
280.969	124.93
281.184	-20.48
281.399	184.32
281.615	112.64
281.83	-12.29
282.045	-73.73
282.26	59.39
282.476	71.68
282.691	2.05
282.906	55.3
283.122	34.82
283.337	-16.38
283.552	40.96
283.767	-6.14
283.983	129.02
284.198	22.53
284.413	81.92
284.628	14.34
284.843	38.91
285.058	69.63
285.274	90.11
285.489	-40.96
285.704	98.3
285.919	34.82
286.134	165.89
286.349	45.06
286.564	24.58
286.779	81.92
286.995	30.72
287.21	-12.29
287.425	47.1
287.64	34.82
287.855	61.44
288.07	-38.91
288.285	126.97
288.5	161.79
288.715	20.48
288.93	26.62
289.145	61.44
289.36	110.59
289.575	53.25
289.79	194.56
290.004	61.44
290.219	131.07
290.434	34.82
290.649	14.34
290.864	2.05
291.079	26.62
291.294	63.49
291.509	120.83
291.724	40.96
291.938	14.34
292.153	38.91
292.368	-61.44
292.583	98.3
292.798	116.73
293.012	65.53
293.227	75.77
293.442	16.38
293.657	112.64
293.871	124.93
294.086	69.63
294.301	176.13
294.516	155.65
294.73	-2.05
294.945	-122.88
295.16	49.15
295.374	45.06
295.589	116.73
295.804	14.34
296.018	75.77
296.233	180.22
296.447	32.77
296.662	-36.86
296.877	90.11
297.091	98.3
297.306	-14.34
297.52	30.72
297.735	49.15
297.949	124.93
298.164	86.01
298.378	59.39
298.593	4.1
298.807	-47.1
299.022	57.34
299.236	79.87
299.451	61.44
299.665	-14.34
299.88	92.16
300.094	100.35
300.309	59.39
300.523	98.3
300.737	65.53
300.952	79.87
301.166	131.07
301.381	-51.2
301.595	43.01
301.809	79.87
302.024	16.38
302.238	-20.48
302.452	139.26
302.667	65.53
302.881	110.59
303.095	126.97
303.309	143.36
303.524	10.24
303.738	-8.19
303.952	8.19
304.166	104.45
304.381	-32.77
304.595	174.08
304.809	36.86
305.023	114.69
305.237	-14.34
305.452	2.05
305.666	106.49
305.88	81.92
306.094	112.64
306.308	126.97
306.522	79.87
306.736	102.4
306.95	143.36
307.164	-32.77
307.379	38.91
307.593	131.07
307.807	77.82
308.021	67.58
308.235	245.76
308.449	-40.96
308.663	45.06
308.877	165.89
309.091	49.15
309.305	77.82
309.519	-92.16
309.733	149.5
309.947	-120.83
310.161	81.92
310.374	145.41
310.588	98.3
310.802	34.82
311.016	16.38
311.23	61.44
311.444	-2.05
311.658	75.77
311.872	126.97
312.085	143.36
312.299	114.69
312.513	184.32
312.727	-12.29
312.941	-6.14
313.154	110.59
313.368	73.73
313.582	28.67
313.796	114.69
314.009	43.01
314.223	149.5
314.437	47.1
314.651	122.88
314.864	-24.58
315.078	-40.96
315.292	-71.68
315.505	-22.53
315.719	92.16
315.933	184.32
316.146	22.53
316.36	-24.58
316.573	104.45
316.787	63.49
317.001	67.58
317.214	24.58
317.428	22.53
317.641	-34.82
317.855	51.2
318.068	-34.82
318.282	63.49
318.495	151.55
318.709	83.97
318.922	24.58
319.136	147.45
319.349	131.07
319.563	12.29
319.776	190.46
319.99	-28.67
320.203	147.45
320.417	55.3
320.63	131.07
320.843	92.16
321.057	32.77
321.27	36.86
321.483	122.88
321.697	165.89
321.91	63.49
322.124	30.72
322.337	28.67
322.55	22.53
322.763	49.15
322.977	40.96
323.19	-43.01
323.403	79.87
323.617	6.14
323.83	94.21
324.043	81.92
324.256	88.06
324.469	-122.88
324.683	139.26
324.896	57.34
325.109	12.29
325.322	-106.49
325.535	143.36
325.748	108.54
325.962	-12.29
326.175	135.17
326.388	147.45
326.601	81.92
326.814	-26.62
327.027	43.01
327.24	188.41
327.453	-133.12
327.666	112.64
327.879	147.45
328.092	57.34
328.305	104.45
328.518	-4.1
328.731	49.15
328.944	28.67
329.157	135.17
329.37	-51.2
329.583	182.27
329.796	122.88
330.009	36.86
330.222	73.73
330.435	61.44
330.648	102.4
330.861	79.87
331.073	51.2
331.286	114.69
331.499	100.35
331.712	-8.19
331.925	55.3
332.138	12.29
332.35	165.89
332.563	-36.86
332.776	139.26
332.989	45.06
333.202	16.38
333.414	69.63
333.627	98.3
333.84	10.24
334.053	79.87
334.265	69.63
334.478	30.72
334.691	24.58
334.903	20.48
335.116	26.62
335.329	38.91
335.541	108.54
335.754	159.74
335.966	4.1
336.179	18.43
336.392	-8.19
336.604	83.97
336.817	83.97
337.029	77.82
337.242	79.87
337.454	104.45
337.667	-4.1
337.88	118.78
338.092	43.01
338.305	90.11
338.517	81.92
338.729	77.82
338.942	190.46
339.154	59.39
339.367	45.06
339.579	102.4
339.792	-38.91
340.004	43.01
340.217	57.34
340.429	118.78
340.641	4.1
340.854	-10.24
341.066	-45.06
341.278	104.45
341.491	233.47
341.703	36.86
341.915	6.14
342.128	102.4
342.34	40.96
342.552	-32.77
342.764	69.63
342.977	92.16
343.189	163.84
343.401	8.19
343.613	-22.53
343.826	24.58
344.038	-45.06
344.25	18.43
344.462	-0
344.674	86.01
344.886	-8.19
345.099	45.06
345.311	116.73
345.523	2.05
345.735	-47.1
345.947	79.87
346.159	120.83
346.371	65.53
346.583	36.86
346.795	272.38
347.007	18.43
347.219	83.97
347.431	34.82
347.643	124.93
347.855	14.34
348.067	178.17
348.279	18.43
348.491	28.67
348.703	102.4
348.915	-22.53
349.127	-6.14
349.339	51.2
349.551	-6.14
349.763	81.92
349.975	32.77
350.187	122.88
350.399	159.74
350.61	81.92
350.822	43.01
351.034	92.16
351.246	59.39
351.458	141.31
351.669	51.2
351.881	108.54
352.093	106.49
352.305	81.92
352.517	100.35
352.728	153.6
352.94	114.69
353.152	110.59
353.363	24.58
353.575	-16.38
353.787	176.13
353.999	51.2
354.21	157.69
354.422	-43.01
354.633	-0
354.845	94.21
355.057	75.77
355.268	90.11
355.48	139.26
355.692	-12.29
355.903	-2.05
356.115	-4.1
356.326	-47.1
356.538	124.93
356.749	96.25
356.961	122.88
357.172	22.53
357.384	40.96
357.595	147.45
357.807	-96.25
358.018	43.01
358.23	79.87
358.441	110.59
358.653	151.55
358.864	24.58
359.075	22.53
359.287	36.86
359.498	131.07
359.709	53.25
359.921	55.3
360.132	32.77
360.344	-12.29
360.555	51.2
360.766	110.59
360.977	51.2
361.189	90.11
361.4	-2.05
361.611	63.49
361.823	133.12
362.034	30.72
362.245	73.73
362.456	30.72
362.667	98.3
362.879	-67.58
363.09	81.92
363.301	69.63
363.512	45.06
363.723	71.68
363.935	51.2
364.146	90.11
364.357	57.34
364.568	139.26
364.779	-14.34
364.99	141.31
365.201	-47.1
365.412	157.69
365.623	-18.43
365.834	100.35
366.045	40.96
366.256	131.07
366.467	141.31
366.678	24.58
366.889	14.34
367.1	34.82
367.311	137.21
367.522	-6.14
367.733	147.45
367.944	102.4
368.155	65.53
368.366	129.02
368.577	83.97
368.788	88.06
368.999	-59.39
369.209	73.73
369.42	147.45
369.631	172.03
369.842	141.31
370.053	88.06
370.264	32.77
370.474	16.38
370.685	88.06
370.896	34.82
371.107	104.45
371.317	141.31
371.528	-12.29
371.739	102.4
371.95	112.64
372.16	92.16
372.371	-32.77
372.582	40.96
372.792	157.69
373.003	98.3
373.214	124.93
373.424	86.01
373.635	-28.67
373.846	172.03
374.056	143.36
374.267	49.15
374.477	4.1
374.688	36.86
374.898	63.49
375.109	116.73
375.319	4.1
375.53	77.82
375.74	98.3
375.951	20.48
376.161	53.25
376.372	196.6
376.582	-43.01
376.793	49.15
377.003	81.92
377.214	51.2
377.424	108.54
377.635	20.48
377.845	8.19
378.055	200.7
378.266	-12.29
378.476	61.44
378.686	69.63
378.897	45.06
379.107	79.87
379.317	100.35
379.528	34.82
379.738	106.49
379.948	-22.53
380.158	116.73
380.369	79.87
380.579	94.21
380.789	94.21
380.999	100.35
381.21	73.73
381.42	219.13
381.63	49.15
381.84	153.6
382.05	165.89
382.261	100.35
382.471	165.89
382.681	-10.24
382.891	108.54
383.101	63.49
383.311	-57.34
383.521	10.24
383.731	47.1
383.941	114.69
384.151	118.78
384.361	-6.14
384.571	38.91
384.781	51.2
384.991	198.65
385.201	194.56
385.411	81.92
385.621	53.25
385.831	92.16
386.041	131.07
386.251	94.21
386.461	151.55
386.671	28.67
386.881	-10.24
387.091	32.77
387.301	116.73
387.511	53.25
387.72	124.93
387.93	96.25
388.14	-36.86
388.35	90.11
388.56	98.3
388.769	186.37
388.979	83.97
389.189	-22.53
389.399	14.34
389.609	217.08
389.818	133.12
390.028	98.3
390.238	129.02
390.447	36.86
390.657	94.21
390.867	59.39
391.076	-24.58
391.286	10.24
391.496	30.72
391.705	36.86
391.915	155.65
392.125	155.65
392.334	-4.1
392.544	137.21
392.753	104.45
392.963	8.19
393.172	81.92
393.382	-28.67
393.591	163.84
393.801	40.96
394.01	184.32
394.22	40.96
394.429	73.73
394.639	20.48
394.848	30.72
395.058	32.77
395.267	-12.29
395.477	32.77
395.686	102.4
395.895	215.04
396.105	133.12
396.314	98.3
396.524	96.25
396.733	28.67
396.942	184.32
397.152	69.63
397.361	108.54
397.57	83.97
397.78	73.73
397.989	55.3
398.198	231.42
398.407	53.25
398.617	61.44
398.826	30.72
399.035	20.48
399.244	145.41
399.453	53.25
399.663	6.14
399.872	30.72
400.081	-73.73
400.29	194.56
400.499	16.38
400.708	196.6
400.917	-53.25
401.127	36.86
401.336	-12.29
401.545	182.27
401.754	112.64
401.963	73.73
402.172	94.21
402.381	-59.39
402.59	43.01
402.799	65.53
403.008	133.12
403.217	108.54
403.426	102.4
403.635	-8.19
403.844	55.3
404.053	57.34
404.262	53.25
404.471	223.23
404.68	86.01
404.888	43.01
405.097	10.24
405.306	30.72
405.515	90.11
405.724	-10.24
405.933	151.55
406.142	163.84
406.35	153.6
406.559	4.1
406.768	61.44
406.977	139.26
407.185	36.86
407.394	69.63
407.603	-47.1
407.812	73.73
408.02	83.97
408.229	22.53
408.438	124.93
408.646	16.38
408.855	98.3
409.064	143.36
409.272	18.43
409.481	118.78
409.69	-16.38
409.898	6.14
410.107	94.21
410.315	112.64
410.524	-6.14
410.733	-0
410.941	63.49
411.15	129.02
411.358	106.49
411.567	133.12
411.775	22.53
411.984	120.83
412.192	94.21
412.401	-75.77
412.609	174.08
412.818	204.8
413.026	108.54
413.234	57.34
413.443	118.78
413.651	18.43
413.86	47.1
414.068	137.21
414.276	165.89
414.485	63.49
414.693	212.99
414.901	225.28
415.11	112.64
415.318	59.39
415.526	81.92
415.734	176.13
415.943	112.64
416.151	159.74
416.359	110.59
416.567	116.73
416.776	102.4
416.984	135.17
417.192	135.17
417.4	28.67
417.608	65.53
417.817	-8.19
418.025	145.41
418.233	149.5
418.441	-18.43
418.649	-14.34
418.857	174.08
419.065	108.54
419.273	40.96
419.481	67.58
419.689	-4.1
419.897	18.43
420.105	26.62
420.313	110.59
420.521	212.99
420.729	129.02
420.937	83.97
421.145	-30.72
421.353	102.4
421.561	133.12
421.769	102.4
421.977	20.48
422.185	135.17
422.393	92.16
422.601	126.97
422.809	116.73
423.017	65.53
423.224	61.44
423.432	172.03
423.64	22.53
423.848	163.84
424.056	69.63
424.263	159.74
424.471	88.06
424.679	184.32
424.887	45.06
425.094	161.79
425.302	86.01
425.51	122.88
425.718	139.26
425.925	102.4
426.133	24.58
426.341	253.95
426.548	-26.62
426.756	90.11
426.964	149.5
427.171	59.39
427.379	116.73
427.586	141.31
427.794	104.45
428.001	131.07
428.209	178.17
428.417	206.84
428.624	137.21
428.832	83.97
429.039	153.6
429.247	26.62
429.454	139.26
429.662	227.32
429.869	155.65
430.076	157.69
430.284	155.65
430.491	247.8
430.699	178.17
430.906	233.47
431.114	194.56
431.321	143.36
431.528	147.45
431.736	126.97
431.943	194.56
432.15	186.37
432.358	159.74
432.565	165.89
432.772	-16.38
432.979	186.37
433.187	178.17
433.394	266.24
433.601	133.12
433.808	229.37
434.016	307.2
434.223	278.52
434.43	190.46
434.637	354.3
434.844	268.28
435.052	292.86
435.259	284.67
435.466	348.15
435.673	313.34
435.88	327.67
436.087	317.44
436.294	348.15
436.501	393.21
436.708	327.67
436.915	280.57
437.122	372.73
437.329	256
437.537	344.06
437.743	397.31
437.95	444.41
438.157	430.07
438.364	286.72
438.571	450.55
438.778	374.78
438.985	487.42
439.192	561.14
439.399	509.94
439.606	557.05
439.813	583.67
440.02	569.34
440.227	589.81
440.433	641.01
440.64	550.9
440.847	546.81
441.054	649.21
441.261	729.08
441.467	696.31
441.674	577.53
441.881	704.5
442.088	612.34
442.294	749.56
442.501	788.47
442.708	837.62
442.914	827.38
443.121	858.1
443.328	927.73
443.534	954.35
443.741	950.26
443.948	901.11
444.154	1089.52
444.361	1105.9
444.568	1042.42
444.774	1122.29
444.981	1095.66
445.187	1275.88
445.394	1140.72
445.6	1294.32
445.807	1357.8
446.013	1308.65
446.22	1333.23
446.426	1544.17
446.633	1609.7
446.839	1665
447.046	1535.98
447.252	1669.09
447.459	1769.44
447.665	1738.73
447.871	1826.79
448.078	2015.2
448.284	1982.43
448.491	2084.83
448.697	2105.31
448.903	2320.35
449.11	2342.88
449.316	2287.58
449.522	2545.63
449.728	2541.53
449.935	2621.4
450.141	2715.61
450.347	2785.24
450.553	2768.85
450.76	2924.5
450.966	2992.08
451.172	3227.6
451.378	3213.26
451.584	3413.96
451.791	3692.49
451.997	3692.49
452.203	3778.5
452.409	3891.14
452.615	4083.65
452.821	3895.24
453.027	4036.55
453.233	4595.64
453.44	4483
453.646	4583.35
453.852	4880.31
454.058	5171.12
454.264	5042.1
454.47	5525.42
454.676	5580.71
454.882	5869.48
455.088	5527.47
455.294	6246.3
455.5	6340.51
455.705	6832.02
455.911	6893.46
456.117	6922.13
456.323	7292.82
456.529	7339.92
456.735	7880.58
456.941	8103.81
457.147	8513.41
457.352	8746.87
457.558	9015.16
457.764	9475.95
457.97	9693.04
458.176	10026.85
458.381	10458.98
458.587	10813.27
458.793	11292.5
458.999	11298.64
459.204	12789.56
459.41	13201.21
459.616	12945.21
459.821	13561.65
460.027	14436.13
460.233	15126.3
460.438	15132.44
460.644	15765.26
460.85	15972.11
461.055	16553.73
461.261	17471.22
461.466	17094.4
461.672	17325.82
461.878	19519.19
462.083	19295.96
462.289	19609.3
462.494	20473.54
462.7	20653.76
462.905	20649.67
463.111	22578.86
463.316	23797.4
463.522	23957.14
463.727	24512.14
463.932	25945.72
464.138	26482.28
464.343	27424.35
464.549	27530.84
464.754	29693.5
464.959	30688.81
465.165	31284.77
465.37	31211.04
465.575	30813.74
465.781	32873.99
465.986	34201.08
466.191	33506.82
466.397	33672.7
466.602	32964.1
466.807	34833.9
467.012	35329.51
467.218	35888.6
467.423	36304.34
467.628	37105.1
467.833	39161.26
468.038	38380.98
468.244	37504.45
