Data from USB4F104151__189__11-05-18-833.txt Node

Date: Wed Feb 26 11:05:18 EST 2025
User: louis
Spectrometer: USB4F10415
Trigger mode: 4
Integration Time (sec): 1.000000E-1
Scans to average: 1
Electric dark correction enabled: true
Nonlinearity correction enabled: false
Boxcar width: 0
XAxis mode: Wavelengths
Number of Pixels in Spectrum: 3648
>>>>>Begin Spectral Data<<<<<
178.204	-390.82
178.424	-390.82
178.644	-390.82
178.864	-392.87
179.084	-417.44
179.304	0.34
179.524	14.68
179.744	51.54
179.964	51.54
180.184	-11.95
180.404	45.4
180.624	-126.63
180.844	33.11
181.064	-100.01
181.283	2.39
181.503	-57
181.723	96.6
181.943	-192.17
182.163	182.61
182.383	-50.86
182.602	37.2
182.822	164.18
183.042	24.92
183.262	-7.85
183.482	6.49
183.701	67.92
183.921	31.06
184.141	-52.91
184.361	139.6
184.58	84.31
184.8	37.2
185.02	-130.73
185.239	39.25
185.459	59.73
185.679	104.79
185.898	-85.67
186.118	86.36
186.338	-16.04
186.557	104.79
186.777	-61.1
186.997	2.39
187.216	26.96
187.436	211.28
187.655	61.78
187.875	49.49
188.095	41.3
188.314	155.99
188.534	121.17
188.753	16.73
188.973	76.12
189.192	258.39
189.412	16.73
189.631	67.92
189.851	57.68
190.07	129.36
190.29	-59.05
190.509	-42.67
190.729	22.87
190.948	125.27
191.168	317.78
191.387	45.4
191.607	24.92
191.826	4.44
192.045	47.44
192.265	31.06
192.484	82.26
192.704	24.92
192.923	-46.76
193.142	141.65
193.362	106.84
193.581	141.65
193.8	69.97
194.02	51.54
194.239	88.4
194.458	65.88
194.678	-71.34
194.897	24.92
195.116	-18.09
195.335	12.63
195.555	61.78
195.774	-61.1
195.993	65.88
196.212	-32.43
196.432	45.4
196.651	-28.33
196.87	-3.75
197.089	170.32
197.308	65.88
197.528	22.87
197.747	6.49
197.966	74.07
198.185	110.93
198.404	55.64
198.623	76.12
198.842	115.03
199.062	49.49
199.281	98.64
199.5	59.73
199.719	37.2
199.938	74.07
200.157	74.07
200.376	86.36
200.595	121.17
200.814	67.92
201.033	-9.9
201.252	172.37
201.471	6.49
201.69	18.77
201.909	51.54
202.128	123.22
202.347	141.65
202.566	41.3
202.785	-79.53
203.004	-7.85
203.223	231.76
203.442	-22.19
203.661	18.77
203.879	57.68
204.098	164.18
204.317	-87.72
204.536	131.41
204.755	94.55
204.974	102.74
205.193	29.01
205.411	78.16
205.63	94.55
205.849	72.02
206.068	-3.75
206.287	6.49
206.505	147.8
206.724	-9.9
206.943	-18.09
207.162	-28.33
207.381	59.73
207.599	67.92
207.818	-44.71
208.037	49.49
208.255	-16.04
208.474	86.36
208.693	47.44
208.911	4.44
209.13	29.01
209.349	86.36
209.567	59.73
209.786	-9.9
210.005	98.64
210.223	115.03
210.442	-93.87
210.661	31.06
210.879	80.21
211.098	147.8
211.316	41.3
211.535	69.97
211.753	-22.19
211.972	108.88
212.191	51.54
212.409	90.45
212.628	151.89
212.846	35.16
213.065	74.07
213.283	82.26
213.502	55.64
213.72	33.11
213.938	47.44
214.157	-32.43
214.375	139.6
214.594	-16.04
214.812	76.12
215.031	-1.71
215.249	14.68
215.467	-11.95
215.686	18.77
215.904	33.11
216.122	29.01
216.341	188.75
216.559	86.36
216.778	94.55
216.996	135.51
217.214	-32.43
217.432	26.96
217.651	-30.38
217.869	67.92
218.087	-9.9
218.306	24.92
218.524	35.16
218.742	14.68
218.96	110.93
219.179	18.77
219.397	-36.52
219.615	293.2
219.833	123.22
220.051	18.77
220.27	94.55
220.488	147.8
220.706	88.4
220.924	-59.05
221.142	22.87
221.36	106.84
221.578	12.63
221.796	-40.62
222.015	26.96
222.233	59.73
222.451	162.13
222.669	-44.71
222.887	92.5
223.105	-24.23
223.323	41.3
223.541	4.44
223.759	33.11
223.977	69.97
224.195	198.99
224.413	35.16
224.631	-24.23
224.849	43.35
225.067	225.62
225.285	-36.52
225.503	-5.8
225.721	-52.91
225.939	45.4
226.157	-26.28
226.375	246.1
226.592	53.59
226.81	74.07
227.028	127.32
227.246	149.84
227.464	39.25
227.682	76.12
227.9	80.21
228.117	-5.8
228.335	53.59
228.553	37.2
228.771	31.06
228.989	-22.19
229.206	43.35
229.424	65.88
229.642	-5.8
229.86	-106.15
230.077	82.26
230.295	16.73
230.513	151.89
230.731	69.97
230.948	147.8
231.166	178.51
231.384	53.59
231.601	-85.67
231.819	211.28
232.037	39.25
232.254	-16.04
232.472	-83.63
232.689	22.87
232.907	86.36
233.125	-36.52
233.342	22.87
233.56	-3.75
233.777	-13.99
233.995	29.01
234.213	207.19
234.43	90.45
234.648	22.87
234.865	-20.14
235.083	84.31
235.3	67.92
235.518	112.98
235.735	158.03
235.953	102.74
236.17	-9.9
236.388	45.4
236.605	57.68
236.822	88.4
237.04	121.17
237.257	39.25
237.475	-1.71
237.692	16.73
237.909	182.61
238.127	-44.71
238.344	131.41
238.562	39.25
238.779	-59.05
238.996	-40.62
239.214	-7.85
239.431	72.02
239.648	10.58
239.865	102.74
240.083	117.08
240.3	-1.71
240.517	45.4
240.735	57.68
240.952	67.92
241.169	41.3
241.386	20.82
241.603	24.92
241.821	-106.15
242.038	80.21
242.255	106.84
242.472	4.44
242.689	125.27
242.907	16.73
243.124	43.35
243.341	110.93
243.558	-50.86
243.775	-42.67
243.992	-79.53
244.209	125.27
244.426	233.81
244.643	59.73
244.86	-32.43
245.078	160.08
245.295	80.21
245.512	61.78
245.729	-7.85
245.946	90.45
246.163	65.88
246.38	51.54
246.597	49.49
246.814	0.34
247.031	74.07
247.248	53.59
247.464	112.98
247.681	61.78
247.898	47.44
248.115	4.44
248.332	-22.19
248.549	141.65
248.766	137.56
248.983	61.78
249.2	41.3
249.417	137.56
249.633	35.16
249.85	82.26
250.067	20.82
250.284	35.16
250.501	74.07
250.717	98.64
250.934	-50.86
251.151	24.92
251.368	51.54
251.585	82.26
251.801	76.12
252.018	-30.38
252.235	162.13
252.451	-91.82
252.668	78.16
252.885	155.99
253.102	55.64
253.318	80.21
253.535	-24.23
253.752	24.92
253.968	-54.95
254.185	-28.33
254.401	55.64
254.618	98.64
254.835	-3.75
255.051	110.93
255.268	84.31
255.484	45.4
255.701	4.44
255.917	53.59
256.134	-48.81
256.351	39.25
256.567	59.73
256.784	6.49
257	-130.73
257.217	188.75
257.433	49.49
257.65	-13.99
257.866	176.47
258.082	14.68
258.299	-22.19
258.515	45.4
258.732	16.73
258.948	-63.15
259.165	115.03
259.381	-97.96
259.597	72.02
259.814	-32.43
260.03	35.16
260.246	149.84
260.463	153.94
260.679	106.84
260.895	8.53
261.112	59.73
261.328	20.82
261.544	41.3
261.761	155.99
261.977	-3.75
262.193	-38.57
262.409	72.02
262.626	76.12
262.842	22.87
263.058	55.64
263.274	74.07
263.49	78.16
263.707	16.73
263.923	151.89
264.139	-93.87
264.355	49.49
264.571	139.6
264.787	41.3
265.004	92.5
265.22	6.49
265.436	10.58
265.652	63.83
265.868	74.07
266.084	35.16
266.3	31.06
266.516	14.68
266.732	49.49
266.948	-38.57
267.164	20.82
267.38	94.55
267.596	29.01
267.812	141.65
268.028	82.26
268.244	-34.47
268.46	176.47
268.676	-16.04
268.892	74.07
269.108	-9.9
269.324	-44.71
269.54	-18.09
269.756	104.79
269.972	-5.8
270.188	-52.91
270.403	-34.47
270.619	80.21
270.835	96.6
271.051	6.49
271.267	6.49
271.483	29.01
271.698	72.02
271.914	33.11
272.13	78.16
272.346	-34.47
272.562	53.59
272.777	76.12
272.993	-75.43
273.209	61.78
273.425	61.78
273.64	-108.2
273.856	90.45
274.072	26.96
274.287	0.34
274.503	51.54
274.719	98.64
274.934	-13.99
275.15	-30.38
275.366	67.92
275.581	-50.86
275.797	45.4
276.012	2.39
276.228	-7.85
276.444	6.49
276.659	139.6
276.875	-85.67
277.09	98.64
277.306	-16.04
277.521	41.3
277.737	29.01
277.952	41.3
278.168	16.73
278.383	29.01
278.599	90.45
278.814	98.64
279.03	51.54
279.245	141.65
279.461	57.68
279.676	121.17
279.892	-38.57
280.107	-11.95
280.322	63.83
280.538	86.36
280.753	-20.14
280.969	55.64
281.184	35.16
281.399	16.73
281.615	-7.85
281.83	78.16
282.045	-106.15
282.26	-59.05
282.476	14.68
282.691	123.22
282.906	84.31
283.122	57.68
283.337	-44.71
283.552	39.25
283.767	35.16
283.983	55.64
284.198	-46.76
284.413	16.73
284.628	-7.85
284.843	100.69
285.058	72.02
285.274	41.3
285.489	-13.99
285.704	74.07
285.919	10.58
286.134	-20.14
286.349	24.92
286.564	35.16
286.779	133.46
286.995	-48.81
287.21	-77.48
287.425	127.32
287.64	-7.85
287.855	39.25
288.07	-71.34
288.285	119.12
288.5	145.75
288.715	72.02
288.93	-1.71
289.145	37.2
289.36	121.17
289.575	8.53
289.79	166.23
290.004	-77.48
290.219	92.5
290.434	-50.86
290.649	-3.75
290.864	-1.71
291.079	-34.47
291.294	-9.9
291.509	78.16
291.724	-34.47
291.938	33.11
292.153	-22.19
292.368	-34.47
292.583	90.45
292.798	182.61
293.012	63.83
293.227	24.92
293.442	-1.71
293.657	110.93
293.871	121.17
294.086	63.83
294.301	186.71
294.516	53.59
294.73	49.49
294.945	24.92
295.16	18.77
295.374	125.27
295.589	166.23
295.804	43.35
296.018	41.3
296.233	106.84
296.447	2.39
296.662	-26.28
296.877	203.09
297.091	35.16
297.306	47.44
297.52	-40.62
297.735	121.17
297.949	78.16
298.164	102.74
298.378	12.63
298.593	-124.58
298.807	-34.47
299.022	69.97
299.236	110.93
299.451	31.06
299.665	2.39
299.88	-11.95
300.094	-9.9
300.309	18.77
300.523	98.64
300.737	29.01
300.952	74.07
301.166	110.93
301.381	4.44
301.595	-11.95
301.809	147.8
302.024	-42.67
302.238	-34.47
302.452	67.92
302.667	31.06
302.881	176.47
303.095	104.79
303.309	26.96
303.524	49.49
303.738	16.73
303.952	41.3
304.166	98.64
304.381	-128.68
304.595	141.65
304.809	112.98
305.023	35.16
305.237	-61.1
305.452	-71.34
305.666	43.35
305.88	100.69
306.094	6.49
306.308	22.87
306.522	10.58
306.736	41.3
306.95	123.22
307.164	-26.28
307.379	-5.8
307.593	131.41
307.807	98.64
308.021	170.32
308.235	94.55
308.449	-143.02
308.663	20.82
308.877	205.14
309.091	22.87
309.305	96.6
309.519	-97.96
309.733	145.75
309.947	-69.29
310.161	72.02
310.374	98.64
310.588	82.26
310.802	-46.76
311.016	65.88
311.23	104.79
311.444	-11.95
311.658	-24.23
311.872	115.03
312.085	149.84
312.299	151.89
312.513	190.8
312.727	88.4
312.941	-18.09
313.154	84.31
313.368	4.44
313.582	8.53
313.796	51.54
314.009	14.68
314.223	147.8
314.437	24.92
314.651	41.3
314.864	-36.52
315.078	14.68
315.292	2.39
315.505	-7.85
315.719	119.12
315.933	67.92
316.146	-89.77
316.36	26.96
316.573	94.55
316.787	102.74
317.001	121.17
317.214	-38.57
317.428	96.6
317.641	-28.33
317.855	39.25
318.068	41.3
318.282	61.78
318.495	162.13
318.709	18.77
318.922	4.44
319.136	188.75
319.349	178.51
319.563	-46.76
319.776	100.69
319.99	-7.85
320.203	63.83
320.417	26.96
320.63	98.64
320.843	162.13
321.057	29.01
321.27	37.2
321.483	39.25
321.697	94.55
321.91	26.96
322.124	49.49
322.337	90.45
322.55	-79.53
322.763	45.4
322.977	4.44
323.19	16.73
323.403	-5.8
323.617	108.88
323.83	55.64
324.043	49.49
324.256	24.92
324.469	-89.77
324.683	112.98
324.896	96.6
325.109	8.53
325.322	12.63
325.535	74.07
325.748	59.73
325.962	-9.9
326.175	-7.85
326.388	69.97
326.601	110.93
326.814	63.83
327.027	24.92
327.24	88.4
327.453	-69.29
327.666	74.07
327.879	102.74
328.092	135.51
328.305	57.68
328.518	10.58
328.731	4.44
328.944	63.83
329.157	121.17
329.37	-3.75
329.583	133.46
329.796	168.27
330.009	8.53
330.222	86.36
330.435	59.73
330.648	88.4
330.861	22.87
331.073	39.25
331.286	100.69
331.499	-18.09
331.712	-44.71
331.925	-42.67
332.138	39.25
332.35	149.84
332.563	-24.23
332.776	112.98
332.989	-16.04
333.202	-24.23
333.414	51.54
333.627	24.92
333.84	-50.86
334.053	45.4
334.265	61.78
334.478	-32.43
334.691	-9.9
334.903	-18.09
335.116	16.73
335.329	57.68
335.541	121.17
335.754	139.6
335.966	2.39
336.179	-122.54
336.392	20.82
336.604	14.68
336.817	112.98
337.029	88.4
337.242	35.16
337.454	29.01
337.667	49.49
337.88	164.18
338.092	31.06
338.305	41.3
338.517	-36.52
338.729	112.98
338.942	123.22
339.154	-95.91
339.367	-63.15
339.579	69.97
339.792	-22.19
340.004	106.84
340.217	37.2
340.429	106.84
340.641	-20.14
340.854	-89.77
341.066	-46.76
341.278	59.73
341.491	192.85
341.703	39.25
341.915	-44.71
342.128	88.4
342.34	18.77
342.552	51.54
342.764	24.92
342.977	12.63
343.189	129.36
343.401	72.02
343.613	-54.95
343.826	18.77
344.038	-77.48
344.25	88.4
344.462	-97.96
344.674	106.84
344.886	-9.9
345.099	125.27
345.311	14.68
345.523	-22.19
345.735	-59.05
345.947	55.64
346.159	69.97
346.371	6.49
346.583	-32.43
346.795	160.08
347.007	55.64
347.219	115.03
347.431	-7.85
347.643	88.4
347.855	47.44
348.067	65.88
348.279	-28.33
348.491	16.73
348.703	74.07
348.915	-57
349.127	-50.86
349.339	117.08
349.551	10.58
349.763	65.88
349.975	76.12
350.187	94.55
350.399	172.37
350.61	127.32
350.822	67.92
351.034	61.78
351.246	4.44
351.458	72.02
351.669	59.73
351.881	92.5
352.093	18.77
352.305	14.68
352.517	-11.95
352.728	170.32
352.94	57.68
353.152	76.12
353.363	-83.63
353.575	78.16
353.787	178.51
353.999	86.36
354.21	188.75
354.422	-91.82
354.633	39.25
354.845	67.92
355.057	37.2
355.268	4.44
355.48	145.75
355.692	-65.19
355.903	6.49
356.115	53.59
356.326	-48.81
356.538	72.02
356.749	115.03
356.961	129.36
357.172	-3.75
357.384	14.68
357.595	262.48
357.807	4.44
358.018	-61.1
358.23	59.73
358.441	166.23
358.653	86.36
358.864	69.97
359.075	0.34
359.287	57.68
359.498	143.7
359.709	90.45
359.921	53.59
360.132	16.73
360.344	2.39
360.555	37.2
360.766	119.12
360.977	-32.43
361.189	49.49
361.4	41.3
361.611	160.08
361.823	119.12
362.034	47.44
362.245	8.53
362.456	10.58
362.667	35.16
362.879	-40.62
363.09	29.01
363.301	139.6
363.512	37.2
363.723	-7.85
363.935	-57
364.146	37.2
364.357	-7.85
364.568	86.36
364.779	-52.91
364.99	96.6
365.201	-11.95
365.412	100.69
365.623	-22.19
365.834	88.4
366.045	12.63
366.256	63.83
366.467	96.6
366.678	24.92
366.889	57.68
367.1	16.73
367.311	96.6
367.522	-20.14
367.733	92.5
367.944	112.98
368.155	55.64
368.366	10.58
368.577	133.46
368.788	90.45
368.999	-38.57
369.209	-9.9
369.42	207.19
369.631	221.52
369.842	98.64
370.053	26.96
370.264	123.22
370.474	-106.15
370.685	112.98
370.896	35.16
371.107	104.79
371.317	74.07
371.528	-16.04
371.739	131.41
371.95	84.31
372.16	74.07
372.371	-108.2
372.582	0.34
372.792	33.11
373.003	106.84
373.214	127.32
373.424	133.46
373.635	-63.15
373.846	117.08
374.056	12.63
374.267	33.11
374.477	2.39
374.688	-7.85
374.898	51.54
375.109	-7.85
375.319	104.79
375.53	96.6
375.74	26.96
375.951	-9.9
376.161	61.78
376.372	137.56
376.582	12.63
376.793	49.49
377.003	-3.75
377.214	47.44
377.424	149.84
377.635	-3.75
377.845	59.73
378.055	110.93
378.266	6.49
378.476	67.92
378.686	129.36
378.897	49.49
379.107	-7.85
379.317	51.54
379.528	29.01
379.738	86.36
379.948	-20.14
380.158	45.4
380.369	39.25
380.579	145.75
380.789	12.63
380.999	94.55
381.21	108.88
381.42	194.9
381.63	24.92
381.84	125.27
382.05	69.97
382.261	61.78
382.471	133.46
382.681	-34.47
382.891	131.41
383.101	145.75
383.311	8.53
383.521	53.59
383.731	135.51
383.941	104.79
384.151	37.2
384.361	53.59
384.571	55.64
384.781	26.96
384.991	186.71
385.201	133.46
385.411	65.88
385.621	96.6
385.831	14.68
386.041	61.78
386.251	-20.14
386.461	139.6
386.671	51.54
386.881	78.16
387.091	37.2
387.301	131.41
387.511	49.49
387.72	69.97
387.93	24.92
388.14	24.92
388.35	100.69
388.56	131.41
388.769	88.4
388.979	31.06
389.189	47.44
389.399	-38.57
389.609	127.32
389.818	145.75
390.028	82.26
390.238	153.94
390.447	-54.95
390.657	47.44
390.867	24.92
391.076	16.73
391.286	26.96
391.496	53.59
391.705	14.68
391.915	229.71
392.125	65.88
392.334	39.25
392.544	145.75
392.753	84.31
392.963	-1.71
393.172	78.16
393.382	45.4
393.591	180.56
393.801	37.2
394.01	127.32
394.22	106.84
394.429	108.88
394.639	45.4
394.848	57.68
395.058	63.83
395.267	24.92
395.477	18.77
395.686	41.3
395.895	188.75
396.105	237.91
396.314	57.68
396.524	37.2
396.733	18.77
396.942	176.47
397.152	108.88
397.361	98.64
397.57	100.69
397.78	18.77
397.989	96.6
398.198	209.23
398.407	158.03
398.617	31.06
398.826	47.44
399.035	35.16
399.244	131.41
399.453	84.31
399.663	37.2
399.872	51.54
400.081	18.77
400.29	178.51
400.499	-83.63
400.708	76.12
400.917	35.16
401.127	33.11
401.336	37.2
401.545	233.81
401.754	158.03
401.963	96.6
402.172	55.64
402.381	-11.95
402.59	6.49
402.799	125.27
403.008	76.12
403.217	69.97
403.426	78.16
403.635	-20.14
403.844	57.68
404.053	57.68
404.262	78.16
404.471	151.89
404.68	98.64
404.888	90.45
405.097	12.63
405.306	80.21
405.515	78.16
405.724	55.64
405.933	123.22
406.142	49.49
406.35	88.4
406.559	-13.99
406.768	-32.43
406.977	172.37
407.185	-1.71
407.394	100.69
407.603	-54.95
407.812	96.6
408.02	147.8
408.229	47.44
408.438	59.73
408.646	-1.71
408.855	80.21
409.064	45.4
409.272	63.83
409.481	90.45
409.69	-13.99
409.898	-1.71
410.107	41.3
410.315	119.12
410.524	33.11
410.733	47.44
410.941	55.64
411.15	102.74
411.358	172.37
411.567	127.32
411.775	41.3
411.984	53.59
412.192	131.41
412.401	-9.9
412.609	112.98
412.818	108.88
413.026	57.68
413.234	39.25
413.443	74.07
413.651	12.63
413.86	65.88
414.068	135.51
414.276	123.22
414.485	-13.99
414.693	158.03
414.901	217.43
415.11	137.56
415.318	22.87
415.526	-63.15
415.734	160.08
415.943	45.4
416.151	151.89
416.359	-95.91
416.567	137.56
416.776	227.67
416.984	90.45
417.192	258.39
417.4	18.77
417.608	-5.8
417.817	-16.04
418.025	96.6
418.233	141.65
418.441	-24.23
418.649	-120.49
418.857	82.26
419.065	121.17
419.273	-34.47
419.481	53.59
419.689	4.44
419.897	67.92
420.105	-67.24
420.313	61.78
420.521	180.56
420.729	102.74
420.937	8.53
421.145	35.16
421.353	158.03
421.561	162.13
421.769	106.84
421.977	-18.09
422.185	162.13
422.393	69.97
422.601	145.75
422.809	57.68
423.017	117.08
423.224	65.88
423.432	176.47
423.64	102.74
423.848	180.56
424.056	18.77
424.263	117.08
424.471	20.82
424.679	76.12
424.887	6.49
425.094	155.99
425.302	160.08
425.51	110.93
425.718	117.08
425.925	6.49
426.133	-7.85
426.341	188.75
426.548	6.49
426.756	0.34
426.964	67.92
427.171	-22.19
427.379	98.64
427.586	-30.38
427.794	158.03
428.001	108.88
428.209	104.79
428.417	188.75
428.624	172.37
428.832	184.66
429.039	-11.95
429.247	65.88
429.454	115.03
429.662	297.3
429.869	182.61
430.076	137.56
430.284	186.71
430.491	246.1
430.699	219.47
430.906	278.87
431.114	82.26
431.321	123.22
431.528	108.88
431.736	186.71
431.943	180.56
432.15	256.34
432.358	233.81
432.565	280.91
432.772	-1.71
432.979	221.52
433.187	147.8
433.394	270.67
433.601	104.79
433.808	235.86
434.016	299.34
434.223	246.1
434.43	252.24
434.637	315.73
434.844	260.43
435.052	248.15
435.259	336.21
435.466	299.34
435.673	227.67
435.88	309.58
436.087	301.39
436.294	430.41
436.501	405.84
436.708	352.59
436.915	403.79
437.122	471.37
437.329	348.5
437.537	371.02
437.743	457.04
437.95	500.05
438.157	532.81
438.364	424.27
438.571	463.18
438.778	520.53
438.985	530.77
439.192	581.96
439.399	463.18
439.606	600.4
439.813	547.15
440.02	553.29
440.227	729.42
440.433	577.87
440.64	618.83
440.847	565.58
441.054	624.97
441.261	780.62
441.467	710.99
441.674	741.71
441.881	807.24
442.088	723.27
442.294	848.2
442.501	926.02
442.708	899.4
442.914	919.88
443.121	1016.13
443.328	1083.72
443.534	1261.89
443.741	1044.81
443.948	928.07
444.154	1055.05
444.361	1374.53
444.568	1206.59
444.774	1257.79
444.981	1079.62
445.187	1347.9
445.394	1444.16
445.6	1343.81
445.807	1487.17
446.013	1536.32
446.22	1503.55
446.426	1542.46
446.633	1755.45
446.839	1950.01
447.046	1653.05
447.252	1927.48
447.459	1982.78
447.665	2038.07
447.871	2058.55
448.078	2222.39
448.284	2089.27
448.491	2365.75
448.697	2378.03
448.903	2574.64
449.11	2718
449.316	2615.6
449.522	2816.3
449.728	2906.41
449.935	2949.42
450.141	3060.01
450.347	3363.11
450.553	3225.89
450.76	3320.1
450.966	3471.65
451.172	3561.76
451.378	3778.84
451.584	3887.39
451.791	4055.32
451.997	4108.57
452.203	4213.01
452.409	4624.65
452.615	4585.74
452.821	4423.95
453.027	4761.87
453.233	5296.39
453.44	5067.02
453.646	5333.25
453.852	5564.67
454.058	5699.84
454.264	5771.52
454.47	6201.59
454.676	6406.39
454.882	7012.59
455.088	6600.94
455.294	6844.65
455.5	7434.47
455.705	7887.07
455.911	7786.72
456.117	7911.64
456.323	8343.77
456.529	8372.44
456.735	9031.88
456.941	9306.31
457.147	9906.37
457.352	9861.31
457.558	10318.01
457.764	10823.86
457.97	11206.83
458.176	11520.17
458.381	12142.75
458.587	12310.68
458.793	12943.5
458.999	12945.55
459.204	14708.85
459.41	14999.66
459.616	14999.66
459.821	15890.53
460.027	16388.19
460.233	17000.53
460.438	17285.2
460.644	18286.65
460.85	18409.53
461.055	19228.72
461.261	20178.98
461.466	19781.67
461.672	19957.8
461.878	22366.21
462.083	21788.68
462.289	22597.63
462.494	23558.13
462.7	23414.77
462.905	23891.94
463.111	25821.13
463.316	26978.23
463.522	27514.8
463.727	28594.08
463.932	29720.46
464.138	30590.85
464.343	32063.34
464.549	32003.95
464.754	33865.55
464.959	35213.12
465.165	35927.86
465.37	35366.71
465.575	35370.81
465.781	37642.01
465.986	38831.88
466.191	38455.05
466.397	38610.7
466.602	37564.18
466.807	39667.45
467.012	40472.3
467.218	41201.38
467.423	41268.96
467.628	42770.12
467.833	44613.29
468.038	43984.57
468.244	42936.01
468.449	45002.41
468.654	44211.89
