Data from USB4F104151__224__11-06-11-226.txt Node

Date: Wed Feb 26 11:06:11 EST 2025
User: louis
Spectrometer: USB4F10415
Trigger mode: 4
Integration Time (sec): 1.000000E-1
Scans to average: 1
Electric dark correction enabled: true
Nonlinearity correction enabled: false
Boxcar width: 0
XAxis mode: Wavelengths
Number of Pixels in Spectrum: 3648
>>>>>Begin Spectral Data<<<<<
178.204	-393.21
178.424	-393.21
178.644	-393.21
178.864	-473.08
179.084	-374.78
179.304	-40.96
179.524	-40.96
179.744	4.1
179.964	38.91
180.184	63.49
180.404	-32.77
180.624	18.43
180.844	-28.67
181.064	-49.15
181.283	40.96
181.503	8.19
181.723	18.43
181.943	-83.97
182.163	131.07
182.383	47.1
182.602	73.73
182.822	106.49
183.042	83.97
183.262	-96.25
183.482	51.2
183.701	12.29
183.921	-6.14
184.141	-47.1
184.361	30.72
184.58	53.25
184.8	-10.24
185.02	-81.92
185.239	100.35
185.459	141.31
185.679	120.83
185.898	-20.48
186.118	102.4
186.338	118.78
186.557	155.65
186.777	-4.1
186.997	-40.96
187.216	94.21
187.436	202.75
187.655	81.92
187.875	94.21
188.095	10.24
188.314	200.7
188.534	149.5
188.753	-51.2
188.973	161.79
189.192	174.08
189.412	63.49
189.631	14.34
189.851	90.11
190.07	174.08
190.29	-100.35
190.509	-24.58
190.729	59.39
190.948	108.54
191.168	327.67
191.387	137.21
191.607	-57.34
191.826	22.53
192.045	-4.1
192.265	-18.43
192.484	135.17
192.704	96.25
192.923	-67.58
193.142	149.5
193.362	124.93
193.581	118.78
193.8	45.06
194.02	133.12
194.239	0
194.458	90.11
194.678	4.1
194.897	26.62
195.116	110.59
195.335	28.67
195.555	-22.53
195.774	-6.14
195.993	73.73
196.212	-24.58
196.432	-71.68
196.651	40.96
196.87	16.38
197.089	212.99
197.308	34.82
197.528	110.59
197.747	-47.1
197.966	-10.24
198.185	180.22
198.404	-10.24
198.623	108.54
198.842	145.41
199.062	61.44
199.281	83.97
199.5	38.91
199.719	38.91
199.938	12.29
200.157	92.16
200.376	120.83
200.595	120.83
200.814	34.82
201.033	63.49
201.252	131.07
201.471	79.87
201.69	129.02
201.909	0
202.128	163.84
202.347	75.77
202.566	88.06
202.785	-51.2
203.004	10.24
203.223	268.28
203.442	55.3
203.661	32.77
203.879	92.16
204.098	243.71
204.317	-53.25
204.536	118.78
204.755	137.21
204.974	86.01
205.193	118.78
205.411	161.79
205.63	147.45
205.849	118.78
206.068	14.34
206.287	-16.38
206.505	126.97
206.724	71.68
206.943	22.53
207.162	16.38
207.381	141.31
207.599	16.38
207.818	0
208.037	-12.29
208.255	102.4
208.474	65.54
208.693	67.58
208.911	36.86
209.13	71.68
209.349	137.21
209.567	137.21
209.786	36.86
210.005	100.35
210.223	45.06
210.442	-61.44
210.661	12.29
210.879	32.77
211.098	75.77
211.316	34.82
211.535	63.49
211.753	20.48
211.972	90.11
212.191	-30.72
212.409	0
212.628	116.73
212.846	-20.48
213.065	30.72
213.283	61.44
213.502	112.64
213.72	86.01
213.938	18.43
214.157	36.86
214.375	22.53
214.594	55.3
214.812	77.82
215.031	10.24
215.249	100.35
215.467	61.44
215.686	102.4
215.904	49.15
216.122	65.54
216.341	153.6
216.559	86.01
216.778	45.06
216.996	163.84
217.214	63.49
217.432	34.82
217.651	-26.62
217.869	120.83
218.087	57.34
218.306	94.21
218.524	53.25
218.742	-26.62
218.96	8.19
219.179	24.58
219.397	16.38
219.615	235.52
219.833	30.72
220.051	-16.38
220.27	51.2
220.488	122.88
220.706	53.25
220.924	-26.62
221.142	-24.58
221.36	45.06
221.578	28.67
221.796	100.35
222.015	12.29
222.233	53.25
222.451	264.19
222.669	-6.14
222.887	96.25
223.105	18.43
223.323	40.96
223.541	-73.73
223.759	100.35
223.977	40.96
224.195	202.75
224.413	141.31
224.631	49.15
224.849	43.01
225.067	225.28
225.285	-55.3
225.503	-26.62
225.721	-36.86
225.939	30.72
226.157	120.83
226.375	208.89
226.592	-30.72
226.81	73.73
227.028	110.59
227.246	153.6
227.464	-10.24
227.682	96.25
227.9	26.62
228.117	14.34
228.335	51.2
228.553	43.01
228.771	16.38
228.989	0
229.206	98.3
229.424	59.39
229.642	36.86
229.86	-55.3
230.077	167.93
230.295	100.35
230.513	172.03
230.731	49.15
230.948	194.56
231.166	157.69
231.384	57.34
231.601	40.96
231.819	264.19
232.037	-2.05
232.254	-55.3
232.472	-10.24
232.689	22.53
232.907	65.54
233.125	2.05
233.342	14.34
233.56	4.1
233.777	30.72
233.995	0
234.213	165.89
234.43	145.41
234.648	28.67
234.865	8.19
235.083	86.01
235.3	120.83
235.518	79.87
235.735	149.5
235.953	94.21
236.17	53.25
236.388	-10.24
236.605	53.25
236.822	43.01
237.04	133.12
237.257	145.41
237.475	-32.77
237.692	61.44
237.909	120.83
238.127	59.39
238.344	90.11
238.562	59.39
238.779	-57.34
238.996	2.05
239.214	47.1
239.431	86.01
239.648	47.1
239.865	55.3
240.083	98.3
240.3	6.14
240.517	-20.48
240.735	28.67
240.952	139.26
241.169	-6.14
241.386	77.82
241.603	-36.86
241.821	-49.15
242.038	67.58
242.255	143.36
242.472	-45.06
242.689	106.49
242.907	100.35
243.124	36.86
243.341	110.59
243.558	38.91
243.775	-28.67
243.992	-10.24
244.209	104.45
244.426	178.17
244.643	106.49
244.86	53.25
245.078	86.01
245.295	57.34
245.512	43.01
245.729	38.91
245.946	96.25
246.163	59.39
246.38	-16.38
246.597	59.39
246.814	61.44
247.031	63.49
247.248	-14.34
247.464	141.31
247.681	106.49
247.898	69.63
248.115	157.69
248.332	-53.25
248.549	124.93
248.766	200.7
248.983	108.54
249.2	51.2
249.417	188.41
249.633	22.53
249.85	28.67
250.067	96.25
250.284	16.38
250.501	77.82
250.717	104.45
250.934	28.67
251.151	51.2
251.368	53.25
251.585	55.3
251.801	81.92
252.018	-49.15
252.235	110.59
252.451	-77.82
252.668	43.01
252.885	120.83
253.102	124.93
253.318	6.14
253.535	51.2
253.752	14.34
253.968	16.38
254.185	6.14
254.401	73.73
254.618	86.01
254.835	-45.06
255.051	129.02
255.268	40.96
255.484	83.97
255.701	-20.48
255.917	34.82
256.134	-34.82
256.351	-12.29
256.567	-28.67
256.784	51.2
257	-104.45
257.217	75.77
257.433	102.4
257.65	71.68
257.866	108.54
258.082	-10.24
258.299	26.62
258.515	18.43
258.732	40.96
258.948	30.72
259.165	57.34
259.381	26.62
259.597	110.59
259.814	-4.1
260.03	20.48
260.246	77.82
260.463	135.17
260.679	131.07
260.895	86.01
261.112	71.68
261.328	69.63
261.544	2.05
261.761	167.93
261.977	14.34
262.193	-47.1
262.409	118.78
262.626	14.34
262.842	59.39
263.058	6.14
263.274	167.93
263.49	-55.3
263.707	90.11
263.923	110.59
264.139	-73.73
264.355	-28.67
264.571	131.07
264.787	100.35
265.004	98.3
265.22	38.91
265.436	-14.34
265.652	49.15
265.868	45.06
266.084	10.24
266.3	55.3
266.516	2.05
266.732	147.45
266.948	55.3
267.164	112.64
267.38	55.3
267.596	71.68
267.812	190.46
268.028	116.73
268.244	-34.82
268.46	108.54
268.676	4.1
268.892	63.49
269.108	-96.25
269.324	34.82
269.54	6.14
269.756	45.06
269.972	-38.91
270.188	24.58
270.403	-22.53
270.619	-6.14
270.835	45.06
271.051	10.24
271.267	-18.43
271.483	-10.24
271.698	47.1
271.914	106.49
272.13	45.06
272.346	79.87
272.562	63.49
272.777	94.21
272.993	67.58
273.209	18.43
273.425	43.01
273.64	-30.72
273.856	135.17
274.072	14.34
274.287	53.25
274.503	81.92
274.719	133.12
274.934	-32.77
275.15	-53.25
275.366	43.01
275.581	77.82
275.797	6.14
276.012	77.82
276.228	63.49
276.444	59.39
276.659	159.74
276.875	18.43
277.09	36.86
277.306	-22.53
277.521	79.87
277.737	73.73
277.952	32.77
278.168	24.58
278.383	-36.86
278.599	-24.58
278.814	120.83
279.03	49.15
279.245	114.69
279.461	71.68
279.676	141.31
279.892	-96.25
280.107	-86.01
280.322	73.73
280.538	12.29
280.753	-16.38
280.969	77.82
281.184	55.3
281.399	122.88
281.615	20.48
281.83	-6.14
282.045	-22.53
282.26	-6.14
282.476	-22.53
282.691	65.54
282.906	81.92
283.122	77.82
283.337	-24.58
283.552	96.25
283.767	20.48
283.983	106.49
284.198	92.16
284.413	73.73
284.628	-30.72
284.843	-24.58
285.058	90.11
285.274	40.96
285.489	-22.53
285.704	96.25
285.919	-30.72
286.134	28.67
286.349	45.06
286.564	38.91
286.779	176.13
286.995	-59.39
287.21	-34.82
287.425	30.72
287.64	-22.53
287.855	-14.34
288.07	59.39
288.285	108.54
288.5	108.54
288.715	59.39
288.93	-6.14
289.145	-18.43
289.36	100.35
289.575	-26.62
289.79	139.26
290.004	55.3
290.219	165.89
290.434	4.1
290.649	49.15
290.864	6.14
291.079	-10.24
291.294	137.21
291.509	-2.05
291.724	61.44
291.938	-24.58
292.153	47.1
292.368	26.62
292.583	4.1
292.798	38.91
293.012	75.77
293.227	57.34
293.442	-16.38
293.657	106.49
293.871	153.6
294.086	59.39
294.301	235.52
294.516	65.54
294.73	55.3
294.945	45.06
295.16	55.3
295.374	151.55
295.589	73.73
295.804	-51.2
296.018	-8.19
296.233	172.03
296.447	12.29
296.662	-4.1
296.877	147.45
297.091	135.17
297.306	90.11
297.52	67.58
297.735	86.01
297.949	106.49
298.164	49.15
298.378	-6.14
298.593	-6.14
298.807	-24.58
299.022	63.49
299.236	141.31
299.451	24.58
299.665	57.34
299.88	49.15
300.094	71.68
300.309	20.48
300.523	96.25
300.737	-43.01
300.952	61.44
301.166	59.39
301.381	14.34
301.595	-16.38
301.809	24.58
302.024	22.53
302.238	-55.3
302.452	178.17
302.667	43.01
302.881	143.36
303.095	69.63
303.309	116.73
303.524	14.34
303.738	38.91
303.952	32.77
304.166	108.54
304.381	-139.26
304.595	163.84
304.809	-14.34
305.023	47.1
305.237	-16.38
305.452	61.44
305.666	14.34
305.88	100.35
306.094	61.44
306.308	67.58
306.522	61.44
306.736	118.78
306.95	83.97
307.164	16.38
307.379	32.77
307.593	143.36
307.807	149.5
308.021	75.77
308.235	-4.1
308.449	0
308.663	45.06
308.877	223.23
309.091	55.3
309.305	100.35
309.519	-73.73
309.733	192.51
309.947	-124.93
310.161	75.77
310.374	114.69
310.588	172.03
310.802	32.77
311.016	94.21
311.23	112.64
311.444	30.72
311.658	36.86
311.872	180.22
312.085	90.11
312.299	120.83
312.513	129.02
312.727	55.3
312.941	-51.2
313.154	86.01
313.368	-45.06
313.582	63.49
313.796	57.34
314.009	6.14
314.223	135.17
314.437	98.3
314.651	102.4
314.864	57.34
315.078	36.86
315.292	-34.82
315.505	-2.05
315.719	131.07
315.933	92.16
316.146	16.38
316.36	22.53
316.573	43.01
316.787	102.4
317.001	38.91
317.214	-12.29
317.428	96.25
317.641	-22.53
317.855	0
318.068	18.43
318.282	40.96
318.495	149.5
318.709	139.26
318.922	32.77
319.136	159.74
319.349	79.87
319.563	-63.49
319.776	90.11
319.99	-61.44
320.203	147.45
320.417	61.44
320.63	176.13
320.843	233.47
321.057	30.72
321.27	98.3
321.483	137.21
321.697	120.83
321.91	38.91
322.124	49.15
322.337	22.53
322.55	-32.77
322.763	32.77
322.977	18.43
323.19	61.44
323.403	63.49
323.617	79.87
323.83	145.41
324.043	-16.38
324.256	43.01
324.469	-24.58
324.683	163.84
324.896	20.48
325.109	22.53
325.322	24.58
325.535	65.54
325.748	116.73
325.962	22.53
326.175	108.54
326.388	90.11
326.601	98.3
326.814	26.62
327.027	-43.01
327.24	153.6
327.453	-32.77
327.666	55.3
327.879	118.78
328.092	108.54
328.305	47.1
328.518	28.67
328.731	12.29
328.944	57.34
329.157	108.54
329.37	28.67
329.583	227.32
329.796	102.4
330.009	-38.91
330.222	112.64
330.435	55.3
330.648	2.05
330.861	57.34
331.073	51.2
331.286	81.92
331.499	63.49
331.712	-59.39
331.925	40.96
332.138	10.24
332.35	114.69
332.563	57.34
332.776	196.61
332.989	-28.67
333.202	-16.38
333.414	98.3
333.627	16.38
333.84	47.1
334.053	49.15
334.265	90.11
334.478	-18.43
334.691	-2.05
334.903	71.68
335.116	-8.19
335.329	45.06
335.541	73.73
335.754	174.08
335.966	-26.62
336.179	79.87
336.392	-4.1
336.604	88.06
336.817	26.62
337.029	63.49
337.242	-18.43
337.454	120.83
337.667	57.34
337.88	155.65
338.092	108.54
338.305	161.79
338.517	-6.14
338.729	139.26
338.942	124.93
339.154	-90.11
339.367	10.24
339.579	100.35
339.792	-38.91
340.004	73.73
340.217	61.44
340.429	49.15
340.641	14.34
340.854	32.77
341.066	-18.43
341.278	122.88
341.491	143.36
341.703	69.63
341.915	18.43
342.128	90.11
342.34	26.62
342.552	-6.14
342.764	-34.82
342.977	47.1
343.189	26.62
343.401	28.67
343.613	-92.16
343.826	104.45
344.038	26.62
344.25	126.97
344.462	-20.48
344.674	63.49
344.886	63.49
345.099	43.01
345.311	28.67
345.523	28.67
345.735	-34.82
345.947	20.48
346.159	73.73
346.371	43.01
346.583	-14.34
346.795	110.59
347.007	6.14
347.219	96.25
347.431	40.96
347.643	102.4
347.855	14.34
348.067	126.97
348.279	104.45
348.491	47.1
348.703	81.92
348.915	0
349.127	-36.86
349.339	14.34
349.551	-30.72
349.763	157.69
349.975	126.97
350.187	110.59
350.399	186.37
350.61	102.4
350.822	28.67
351.034	133.12
351.246	53.25
351.458	75.77
351.669	81.92
351.881	145.41
352.093	122.88
352.305	167.93
352.517	94.21
352.728	122.88
352.94	10.24
353.152	106.49
353.363	-10.24
353.575	61.44
353.787	180.22
353.999	157.69
354.21	145.41
354.422	-14.34
354.633	18.43
354.845	86.01
355.057	94.21
355.268	79.87
355.48	122.88
355.692	34.82
355.903	-18.43
356.115	-22.53
356.326	-65.54
356.538	122.88
356.749	49.15
356.961	94.21
357.172	-38.91
357.384	-73.73
357.595	153.6
357.807	-10.24
358.018	-18.43
358.23	-20.48
358.441	131.07
358.653	63.49
358.864	28.67
359.075	28.67
359.287	86.01
359.498	106.49
359.709	135.17
359.921	59.39
360.132	122.88
360.344	30.72
360.555	-53.25
360.766	94.21
360.977	-26.62
361.189	71.68
361.4	12.29
361.611	108.54
361.823	106.49
362.034	53.25
362.245	-94.21
362.456	2.05
362.667	143.36
362.879	-10.24
363.09	86.01
363.301	63.49
363.512	65.54
363.723	-24.58
363.935	71.68
364.146	141.31
364.357	28.67
364.568	57.34
364.779	-24.58
364.99	141.31
365.201	32.77
365.412	63.49
365.623	-32.77
365.834	122.88
366.045	-53.25
366.256	86.01
366.467	141.31
366.678	-24.58
366.889	10.24
367.1	18.43
367.311	38.91
367.522	-38.91
367.733	116.73
367.944	126.97
368.155	24.58
368.366	65.54
368.577	102.4
368.788	145.41
368.999	0
369.209	18.43
369.42	233.47
369.631	212.99
369.842	47.1
370.053	18.43
370.264	45.06
370.474	-12.29
370.685	73.73
370.896	88.06
371.107	143.36
371.317	55.3
371.528	16.38
371.739	126.97
371.95	104.45
372.16	167.93
372.371	4.1
372.582	-28.67
372.792	106.49
373.003	71.68
373.214	112.64
373.424	131.07
373.635	-63.49
373.846	155.65
374.056	2.05
374.267	59.39
374.477	145.41
374.688	-22.53
374.898	71.68
375.109	59.39
375.319	30.72
375.53	79.87
375.74	161.79
375.951	28.67
376.161	94.21
376.372	81.92
376.582	-4.1
376.793	49.15
377.003	-61.44
377.214	49.15
377.424	110.59
377.635	116.73
377.845	16.38
378.055	38.91
378.266	-34.82
378.476	61.44
378.686	40.96
378.897	86.01
379.107	133.12
379.317	110.59
379.528	43.01
379.738	92.16
379.948	24.58
380.158	180.22
380.369	110.59
380.579	167.93
380.789	-20.48
380.999	22.53
381.21	88.06
381.42	223.23
381.63	8.19
381.84	118.78
382.05	122.88
382.261	53.25
382.471	161.79
382.681	-8.19
382.891	139.26
383.101	137.21
383.311	18.43
383.521	26.62
383.731	26.62
383.941	96.25
384.151	65.54
384.361	32.77
384.571	104.45
384.781	112.64
384.991	249.85
385.201	169.98
385.411	212.99
385.621	53.25
385.831	28.67
386.041	-32.77
386.251	96.25
386.461	135.17
386.671	69.63
386.881	24.58
387.091	30.72
387.301	151.55
387.511	86.01
387.72	110.59
387.93	73.73
388.14	-53.25
388.35	88.06
388.56	143.36
388.769	141.31
388.979	-2.05
389.189	-53.25
389.399	90.11
389.609	143.36
389.818	124.93
390.028	14.34
390.238	104.45
390.447	-4.1
390.657	104.45
390.867	24.58
391.076	-79.87
391.286	26.62
391.496	22.53
391.705	-57.34
391.915	165.89
392.125	122.88
392.334	47.1
392.544	172.03
392.753	34.82
392.963	-22.53
393.172	59.39
393.382	40.96
393.591	176.13
393.801	43.01
394.01	153.6
394.22	110.59
394.429	22.53
394.639	45.06
394.848	131.07
395.058	47.1
395.267	34.82
395.477	98.3
395.686	83.97
395.895	186.37
396.105	225.28
396.314	196.61
396.524	-12.29
396.733	16.38
396.942	106.49
397.152	67.58
397.361	94.21
397.57	32.77
397.78	137.21
397.989	36.86
398.198	210.94
398.407	106.49
398.617	30.72
398.826	59.39
399.035	20.48
399.244	151.55
399.453	-12.29
399.663	122.88
399.872	92.16
400.081	-30.72
400.29	88.06
400.499	-30.72
400.708	88.06
400.917	118.78
401.127	2.05
401.336	49.15
401.545	198.65
401.754	108.54
401.963	94.21
402.172	63.49
402.381	-49.15
402.59	20.48
402.799	38.91
403.008	143.36
403.217	81.92
403.426	26.62
403.635	-75.77
403.844	32.77
404.053	79.87
404.262	-8.19
404.471	157.69
404.68	94.21
404.888	81.92
405.097	43.01
405.306	75.77
405.515	139.26
405.724	0
405.933	104.45
406.142	100.35
406.35	100.35
406.559	34.82
406.768	135.17
406.977	169.98
407.185	67.58
407.394	59.39
407.603	-2.05
407.812	139.26
408.02	176.13
408.229	73.73
408.438	100.35
408.646	6.14
408.855	59.39
409.064	12.29
409.272	-30.72
409.481	83.97
409.69	16.38
409.898	36.86
410.107	63.49
410.315	129.02
410.524	-45.06
410.733	149.5
410.941	94.21
411.15	176.13
411.358	94.21
411.567	69.63
411.775	98.3
411.984	59.39
412.192	102.4
412.401	30.72
412.609	247.8
412.818	149.5
413.026	92.16
413.234	45.06
413.443	114.69
413.651	22.53
413.86	22.53
414.068	176.13
414.276	178.17
414.485	55.3
414.693	212.99
414.901	219.13
415.11	49.15
415.318	36.86
415.526	43.01
415.734	184.32
415.943	43.01
416.151	116.73
416.359	77.82
416.567	139.26
416.776	141.31
416.984	102.4
417.192	137.21
417.4	4.1
417.608	36.86
417.817	12.29
418.025	129.02
418.233	147.45
418.441	6.14
418.649	45.06
418.857	77.82
419.065	194.56
419.273	-53.25
419.481	77.82
419.689	69.63
419.897	-12.29
420.105	-92.16
420.313	83.97
420.521	176.13
420.729	122.88
420.937	59.39
421.145	-55.3
421.353	147.45
421.561	186.37
421.769	86.01
421.977	0
422.185	114.69
422.393	81.92
422.601	90.11
422.809	129.02
423.017	176.13
423.224	92.16
423.432	137.21
423.64	86.01
423.848	133.12
424.056	51.2
424.263	69.63
424.471	24.58
424.679	43.01
424.887	-12.29
425.094	131.07
425.302	28.67
425.51	34.82
425.718	153.6
425.925	126.97
426.133	45.06
426.341	186.37
426.548	180.22
426.756	-14.34
426.964	153.6
427.171	98.3
427.379	114.69
427.586	63.49
427.794	143.36
428.001	157.69
428.209	129.02
428.417	135.17
428.624	194.56
428.832	63.49
429.039	71.68
429.247	71.68
429.454	161.79
429.662	212.99
429.869	118.78
430.076	155.65
430.284	104.45
430.491	225.28
430.699	184.32
430.906	190.46
431.114	178.17
431.321	174.08
431.528	182.27
431.736	151.55
431.943	153.6
432.15	79.87
432.358	219.13
432.565	266.24
432.772	63.49
432.979	194.56
433.187	122.88
433.394	223.23
433.601	96.25
433.808	299
434.016	235.52
434.223	167.93
434.43	151.55
434.637	249.85
434.844	307.2
435.052	212.99
435.259	270.33
435.466	315.39
435.673	204.8
435.88	272.38
436.087	262.14
436.294	243.71
436.501	344.06
436.708	270.33
436.915	395.26
437.122	325.63
437.329	321.53
437.537	382.97
437.743	413.69
437.95	434.17
438.157	360.44
438.364	360.44
438.571	364.54
438.778	419.83
438.985	409.59
439.192	389.11
439.399	452.6
439.606	395.26
439.813	456.7
440.02	591.86
440.227	698.36
440.433	524.28
440.64	491.51
440.847	530.42
441.054	571.38
441.261	710.65
441.467	667.64
441.674	604.15
441.881	731.12
442.088	671.73
442.294	706.55
442.501	794.61
442.708	741.36
442.914	636.92
443.121	911.35
443.328	755.7
443.534	903.15
443.741	835.57
443.948	849.91
444.154	1019.89
444.361	1130.48
444.568	899.06
444.774	933.87
444.981	958.45
445.187	1210.35
445.394	1112.05
445.6	1142.77
445.807	1234.93
446.013	1226.73
446.22	1120.24
446.426	1251.31
446.633	1423.34
446.839	1570.79
447.046	1382.38
447.252	1619.94
447.459	1419.24
447.665	1615.85
447.871	1777.64
448.078	1884.13
448.284	1718.25
448.491	1861.6
448.697	1935.33
448.903	1986.53
449.11	2050.02
449.316	2033.63
449.522	2344.92
449.728	2392.03
449.935	2351.07
450.141	2373.6
450.347	2586.58
450.553	2562.01
450.76	2664.41
450.966	2752.47
451.172	2826.2
451.378	2867.16
451.584	2990.03
451.791	3319.76
451.997	3366.86
452.203	3442.64
452.409	3538.89
452.615	3690.44
452.821	3653.58
453.027	3635.14
453.233	4095.94
453.44	3991.49
453.646	4130.75
453.852	4284.35
454.058	4603.83
454.264	4751.29
454.47	5085.11
454.676	5130.16
454.882	5445.55
455.088	5257.14
455.294	5353.39
455.5	5912.49
455.705	6360.99
455.911	6266.78
456.117	6395.81
456.323	6504.35
456.529	6680.47
456.735	7268.24
456.941	7382.93
457.147	7655.31
457.352	7985.03
457.558	8230.79
457.764	8693.63
457.97	8900.47
458.176	9322.35
458.381	9535.34
458.587	9959.27
458.793	10309.47
458.999	10071.91
459.204	11548.5
459.41	12089.16
459.616	11874.12
459.821	12461.89
460.027	13092.66
460.233	13682.48
460.438	13692.72
460.644	14470.95
460.85	14587.68
461.055	15185.69
461.261	16025.36
461.466	15562.51
461.672	15955.72
461.878	17886.96
462.083	17493.75
462.289	17942.25
462.494	18730.72
462.7	18458.34
462.905	19351.26
463.111	20592.33
463.316	21634.74
463.522	22025.9
463.727	22752.93
463.932	23678.61
464.138	24557.19
464.343	25380.48
464.549	25484.92
464.754	27387.49
464.959	28245.58
465.165	28747.34
465.37	28159.57
465.575	28446.29
465.781	30008.89
465.986	31127.08
466.191	30477.87
466.397	31102.5
466.602	30406.19
466.807	31821.34
467.012	32411.15
467.218	33160.71
467.423	33525.25
467.628	33957.37
467.833	35833.31
468.038	34962.92
468.244	34463.22
