Data from USB4F104151__184__11-05-11-334.txt Node

Date: Wed Feb 26 11:05:11 EST 2025
User: louis
Spectrometer: USB4F10415
Trigger mode: 4
Integration Time (sec): 1.000000E-1
Scans to average: 1
Electric dark correction enabled: true
Nonlinearity correction enabled: false
Boxcar width: 0
XAxis mode: Wavelengths
Number of Pixels in Spectrum: 3648
>>>>>Begin Spectral Data<<<<<
178.204	-377.51
178.424	-377.51
178.644	-377.51
178.864	-445.09
179.084	-387.75
179.304	17.75
179.524	-33.45
179.744	-21.16
179.964	42.32
180.184	34.13
180.404	58.71
180.624	5.46
180.844	-21.16
181.064	-66.22
181.283	64.85
181.503	-101.03
181.723	19.8
181.943	-62.12
182.163	181.59
182.383	-64.17
182.602	9.56
182.822	124.24
183.042	-25.26
183.262	-31.4
183.482	13.65
183.701	71
183.921	81.24
184.141	-33.45
184.361	64.85
184.58	-2.73
184.8	148.82
185.02	-0.68
185.239	50.52
185.459	50.52
185.679	77.14
185.898	-43.69
186.118	-4.78
186.338	93.52
186.557	124.24
186.777	-47.79
186.997	38.23
187.216	83.28
187.436	154.96
187.655	89.43
187.875	52.56
188.095	34.13
188.314	111.96
188.534	71
188.753	-37.55
188.973	128.34
189.192	183.63
189.412	-35.5
189.631	25.94
189.851	77.14
190.07	142.68
190.29	-49.83
190.509	-39.59
190.729	-66.22
190.948	116.05
191.168	216.4
191.387	122.2
191.607	32.08
191.826	89.43
192.045	25.94
192.265	13.65
192.484	64.85
192.704	15.7
192.923	-82.6
193.142	136.53
193.362	103.76
193.581	138.58
193.8	5.46
194.02	93.52
194.239	105.81
194.458	89.43
194.678	48.47
194.897	58.71
195.116	114
195.335	21.85
195.555	58.71
195.774	-47.79
195.993	101.72
196.212	103.76
196.432	27.99
196.651	-29.35
196.87	21.85
197.089	193.87
197.308	73.04
197.528	64.85
197.747	-35.5
197.966	11.61
198.185	118.1
198.404	-2.73
198.623	157.01
198.842	128.34
199.062	126.29
199.281	87.38
199.5	-15.02
199.719	99.67
199.938	-0.68
200.157	-15.02
200.376	85.33
200.595	42.32
200.814	132.44
201.033	-49.83
201.252	195.92
201.471	36.18
201.69	64.85
201.909	-23.21
202.128	75.09
202.347	75.09
202.566	21.85
202.785	11.61
203.004	-101.03
203.223	167.25
203.442	5.46
203.661	-72.36
203.879	-6.83
204.098	130.39
204.317	-4.78
204.536	120.15
204.755	148.82
204.974	193.87
205.193	-25.26
205.411	75.09
205.63	126.29
205.849	25.94
206.068	50.52
206.287	-72.36
206.505	107.86
206.724	-12.97
206.943	40.28
207.162	-74.41
207.381	68.95
207.599	27.99
207.818	-6.83
208.037	46.42
208.255	-39.59
208.474	56.66
208.693	27.99
208.911	36.18
209.13	107.86
209.349	126.29
209.567	21.85
209.786	17.75
210.005	89.43
210.223	146.77
210.442	-96.94
210.661	73.04
210.879	36.18
211.098	19.8
211.316	-33.45
211.535	58.71
211.753	50.52
211.972	30.04
212.191	-12.97
212.409	19.8
212.628	89.43
212.846	-66.22
213.065	64.85
213.283	130.39
213.502	40.28
213.72	17.75
213.938	42.32
214.157	-8.87
214.375	157.01
214.594	-47.79
214.812	66.9
215.031	64.85
215.249	52.56
215.467	64.85
215.686	42.32
215.904	38.23
216.122	19.8
216.341	109.91
216.559	36.18
216.778	91.48
216.996	124.24
217.214	-0.68
217.432	34.13
217.651	-64.17
217.869	7.51
218.087	-88.75
218.306	77.14
218.524	15.7
218.742	32.08
218.96	103.76
219.179	48.47
219.397	54.61
219.615	243.03
219.833	42.32
220.051	-49.83
220.27	105.81
220.488	97.62
220.706	32.08
220.924	-17.07
221.142	75.09
221.36	-8.87
221.578	107.86
221.796	13.65
222.015	-6.83
222.233	91.48
222.451	120.15
222.669	3.41
222.887	142.68
223.105	34.13
223.323	54.61
223.541	-96.94
223.759	7.51
223.977	75.09
224.195	163.15
224.413	83.28
224.631	19.8
224.849	66.9
225.067	193.87
225.285	21.85
225.503	-39.59
225.721	-144.04
225.939	85.33
226.157	-10.92
226.375	212.31
226.592	-86.7
226.81	32.08
227.028	124.24
227.246	25.94
227.464	148.82
227.682	81.24
227.9	54.61
228.117	64.85
228.335	58.71
228.553	-2.73
228.771	-45.74
228.989	60.76
229.206	48.47
229.424	87.38
229.642	-55.98
229.86	-17.07
230.077	116.05
230.295	50.52
230.513	177.49
230.731	56.66
230.948	124.24
231.166	148.82
231.384	-10.92
231.601	-25.26
231.819	204.11
232.037	-82.6
232.254	-86.7
232.472	91.48
232.689	9.56
232.907	75.09
233.125	34.13
233.342	-15.02
233.56	54.61
233.777	-27.31
233.995	85.33
234.213	167.25
234.43	36.18
234.648	9.56
234.865	46.42
235.083	79.19
235.3	23.89
235.518	109.91
235.735	122.2
235.953	48.47
236.17	25.94
236.388	85.33
236.605	60.76
236.822	56.66
237.04	107.86
237.257	99.67
237.475	32.08
237.692	19.8
237.909	68.95
238.127	-35.5
238.344	1.37
238.562	75.09
238.779	-39.59
238.996	-76.46
239.214	46.42
239.431	-6.83
239.648	34.13
239.865	138.58
240.083	66.9
240.3	32.08
240.517	-68.27
240.735	-15.02
240.952	109.91
241.169	91.48
241.386	54.61
241.603	48.47
241.821	-23.21
242.038	114
242.255	103.76
242.472	-121.51
242.689	44.37
242.907	46.42
243.124	13.65
243.341	11.61
243.558	-19.11
243.775	-51.88
243.992	-109.22
244.209	42.32
244.426	159.06
244.643	81.24
244.86	42.32
245.078	97.62
245.295	75.09
245.512	21.85
245.729	-35.5
245.946	101.72
246.163	64.85
246.38	-21.16
246.597	73.04
246.814	46.42
247.031	185.68
247.248	32.08
247.464	46.42
247.681	38.23
247.898	85.33
248.115	17.75
248.332	3.41
248.549	107.86
248.766	107.86
248.983	46.42
249.2	109.91
249.417	71
249.633	3.41
249.85	109.91
250.067	-27.31
250.284	120.15
250.501	79.19
250.717	120.15
250.934	-35.5
251.151	73.04
251.368	-47.79
251.585	114
251.801	34.13
252.018	-105.13
252.235	97.62
252.451	-33.45
252.668	40.28
252.885	150.87
253.102	114
253.318	116.05
253.535	-35.5
253.752	-8.87
253.968	-43.69
254.185	-74.41
254.401	68.95
254.618	89.43
254.835	-113.32
255.051	99.67
255.268	19.8
255.484	50.52
255.701	-29.35
255.917	154.96
256.134	-39.59
256.351	44.37
256.567	-70.31
256.784	-15.02
257	-131.75
257.217	148.82
257.433	91.48
257.65	73.04
257.866	111.96
258.082	9.56
258.299	-62.12
258.515	99.67
258.732	3.41
258.948	-19.11
259.165	30.04
259.381	-80.55
259.597	75.09
259.814	15.7
260.03	25.94
260.246	-15.02
260.463	150.87
260.679	58.71
260.895	1.37
261.112	132.44
261.328	3.41
261.544	-74.41
261.761	206.16
261.977	-43.69
262.193	-80.55
262.409	93.52
262.626	21.85
262.842	-6.83
263.058	-15.02
263.274	154.96
263.49	68.95
263.707	58.71
263.923	101.72
264.139	-127.66
264.355	54.61
264.571	97.62
264.787	58.71
265.004	157.01
265.22	71
265.436	23.89
265.652	38.23
265.868	75.09
266.084	38.23
266.3	34.13
266.516	36.18
266.732	40.28
266.948	79.19
267.164	3.41
267.38	144.72
267.596	79.19
267.812	99.67
268.028	134.48
268.244	1.37
268.46	50.52
268.676	-12.97
268.892	30.04
269.108	1.37
269.324	-31.4
269.54	19.8
269.756	114
269.972	-55.98
270.188	-76.46
270.403	13.65
270.619	-33.45
270.835	107.86
271.051	68.95
271.267	-35.5
271.483	-15.02
271.698	134.48
271.914	107.86
272.13	25.94
272.346	23.89
272.562	9.56
272.777	163.15
272.993	-8.87
273.209	-6.83
273.425	62.8
273.64	56.66
273.856	54.61
274.072	3.41
274.287	21.85
274.503	73.04
274.719	11.61
274.934	-0.68
275.15	-45.74
275.366	42.32
275.581	34.13
275.797	21.85
276.012	81.24
276.228	-47.79
276.444	75.09
276.659	118.1
276.875	-23.21
277.09	97.62
277.306	3.41
277.521	132.44
277.737	75.09
277.952	116.05
278.168	62.8
278.383	23.89
278.599	50.52
278.814	42.32
279.03	13.65
279.245	167.25
279.461	34.13
279.676	95.57
279.892	-70.31
280.107	-84.65
280.322	-0.68
280.538	95.57
280.753	-2.73
280.969	11.61
281.184	64.85
281.399	128.34
281.615	136.53
281.83	68.95
282.045	-72.36
282.26	-0.68
282.476	-47.79
282.691	56.66
282.906	52.56
283.122	89.43
283.337	54.61
283.552	44.37
283.767	-37.55
283.983	81.24
284.198	-0.68
284.413	34.13
284.628	15.7
284.843	-23.21
285.058	120.15
285.274	23.89
285.489	-66.22
285.704	62.8
285.919	-29.35
286.134	-23.21
286.349	34.13
286.564	-43.69
286.779	116.05
286.995	60.76
287.21	15.7
287.425	32.08
287.64	5.46
287.855	64.85
288.07	-12.97
288.285	93.52
288.5	73.04
288.715	62.8
288.93	25.94
289.145	11.61
289.36	152.92
289.575	27.99
289.79	150.87
290.004	13.65
290.219	114
290.434	-53.93
290.649	-10.92
290.864	62.8
291.079	44.37
291.294	32.08
291.509	60.76
291.724	23.89
291.938	3.41
292.153	66.9
292.368	46.42
292.583	-15.02
292.798	111.96
293.012	38.23
293.227	17.75
293.442	40.28
293.657	68.95
293.871	83.28
294.086	91.48
294.301	177.49
294.516	73.04
294.73	32.08
294.945	-0.68
295.16	85.33
295.374	136.53
295.589	103.76
295.804	-64.17
296.018	11.61
296.233	77.14
296.447	173.39
296.662	-8.87
296.877	105.81
297.091	19.8
297.306	40.28
297.52	-51.88
297.735	58.71
297.949	40.28
298.164	99.67
298.378	5.46
298.593	-27.31
298.807	-0.68
299.022	3.41
299.236	126.29
299.451	-53.93
299.665	25.94
299.88	30.04
300.094	34.13
300.309	97.62
300.523	44.37
300.737	19.8
300.952	54.61
301.166	130.39
301.381	-10.92
301.595	27.99
301.809	38.23
302.024	-21.16
302.238	-43.69
302.452	120.15
302.667	25.94
302.881	144.72
303.095	15.7
303.309	36.18
303.524	9.56
303.738	-43.69
303.952	30.04
304.166	11.61
304.381	-129.7
304.595	101.72
304.809	46.42
305.023	101.72
305.237	-23.21
305.452	-23.21
305.666	27.99
305.88	107.86
306.094	66.9
306.308	62.8
306.522	103.76
306.736	75.09
306.95	93.52
307.164	-62.12
307.379	19.8
307.593	99.67
307.807	81.24
308.021	148.82
308.235	120.15
308.449	-86.7
308.663	66.9
308.877	208.21
309.091	50.52
309.305	60.76
309.519	-49.83
309.733	23.89
309.947	-68.27
310.161	58.71
310.374	118.1
310.588	91.48
310.802	-15.02
311.016	-33.45
311.23	73.04
311.444	-66.22
311.658	3.41
311.872	89.43
312.085	150.87
312.299	142.68
312.513	83.28
312.727	95.57
312.941	-76.46
313.154	60.76
313.368	-15.02
313.582	15.7
313.796	107.86
314.009	-23.21
314.223	87.38
314.437	56.66
314.651	118.1
314.864	-10.92
315.078	38.23
315.292	-78.51
315.505	-2.73
315.719	95.57
315.933	50.52
316.146	-70.31
316.36	-37.55
316.573	97.62
316.787	9.56
317.001	114
317.214	-98.99
317.428	105.81
317.641	23.89
317.855	5.46
318.068	-25.26
318.282	40.28
318.495	157.01
318.709	60.76
318.922	13.65
319.136	132.44
319.349	204.11
319.563	32.08
319.776	95.57
319.99	13.65
320.203	93.52
320.417	15.7
320.63	87.38
320.843	171.35
321.057	-29.35
321.27	-37.55
321.483	27.99
321.697	124.24
321.91	34.13
322.124	83.28
322.337	-4.78
322.55	25.94
322.763	54.61
322.977	-0.68
323.19	-35.5
323.403	50.52
323.617	105.81
323.83	81.24
324.043	52.56
324.256	60.76
324.469	-21.16
324.683	79.19
324.896	-80.55
325.109	-0.68
325.322	3.41
325.535	152.92
325.748	60.76
325.962	36.18
326.175	71
326.388	-19.11
326.601	157.01
326.814	25.94
327.027	58.71
327.24	132.44
327.453	-109.22
327.666	34.13
327.879	146.77
328.092	95.57
328.305	62.8
328.518	-39.59
328.731	-10.92
328.944	17.75
329.157	91.48
329.37	34.13
329.583	128.34
329.796	66.9
330.009	-19.11
330.222	64.85
330.435	19.8
330.648	99.67
330.861	73.04
331.073	85.33
331.286	79.19
331.499	42.32
331.712	-0.68
331.925	21.85
332.138	23.89
332.35	185.68
332.563	-12.97
332.776	238.93
332.989	3.41
333.202	-92.84
333.414	105.81
333.627	56.66
333.84	17.75
334.053	101.72
334.265	-39.59
334.478	-23.21
334.691	25.94
334.903	66.9
335.116	38.23
335.329	64.85
335.541	38.23
335.754	163.15
335.966	-31.4
336.179	144.72
336.392	23.89
336.604	7.51
336.817	83.28
337.029	-2.73
337.242	85.33
337.454	95.57
337.667	-39.59
337.88	99.67
338.092	62.8
338.305	91.48
338.517	46.42
338.729	64.85
338.942	97.62
339.154	-49.83
339.367	3.41
339.579	21.85
339.792	-23.21
340.004	68.95
340.217	50.52
340.429	83.28
340.641	-12.97
340.854	-58.03
341.066	62.8
341.278	71
341.491	165.2
341.703	30.04
341.915	75.09
342.128	21.85
342.34	62.8
342.552	-39.59
342.764	7.51
342.977	-21.16
343.189	130.39
343.401	87.38
343.613	-107.18
343.826	7.51
344.038	54.61
344.25	-6.83
344.462	3.41
344.674	114
344.886	17.75
345.099	71
345.311	25.94
345.523	32.08
345.735	-78.51
345.947	62.8
346.159	54.61
346.371	109.91
346.583	42.32
346.795	75.09
347.007	-12.97
347.219	138.58
347.431	42.32
347.643	75.09
347.855	38.23
348.067	130.39
348.279	-55.98
348.491	73.04
348.703	52.56
348.915	-15.02
349.127	-23.21
349.339	5.46
349.551	5.46
349.763	5.46
349.975	30.04
350.187	36.18
350.399	193.87
350.61	48.47
350.822	34.13
351.034	54.61
351.246	-21.16
351.458	50.52
351.669	83.28
351.881	146.77
352.093	62.8
352.305	132.44
352.517	13.65
352.728	159.06
352.94	27.99
353.152	25.94
353.363	32.08
353.575	132.44
353.787	95.57
353.999	122.2
354.21	148.82
354.422	-35.5
354.633	9.56
354.845	1.37
355.057	68.95
355.268	-41.64
355.48	58.71
355.692	15.7
355.903	101.72
356.115	13.65
356.326	-37.55
356.538	99.67
356.749	130.39
356.961	148.82
357.172	-31.4
357.384	36.18
357.595	193.87
357.807	89.43
358.018	58.71
358.23	11.61
358.441	126.29
358.653	109.91
358.864	13.65
359.075	-23.21
359.287	30.04
359.498	89.43
359.709	52.56
359.921	32.08
360.132	101.72
360.344	73.04
360.555	-12.97
360.766	5.46
360.977	-43.69
361.189	34.13
361.4	-0.68
361.611	154.96
361.823	48.47
362.034	101.72
362.245	-10.92
362.456	50.52
362.667	64.85
362.879	-33.45
363.09	-43.69
363.301	79.19
363.512	40.28
363.723	-23.21
363.935	7.51
364.146	169.3
364.357	-39.59
364.568	87.38
364.779	-58.03
364.99	124.24
365.201	-15.02
365.412	163.15
365.623	-103.08
365.834	56.66
366.045	71
366.256	165.2
366.467	116.05
366.678	-2.73
366.889	56.66
367.1	-84.65
367.311	136.53
367.522	38.23
367.733	66.9
367.944	13.65
368.155	21.85
368.366	56.66
368.577	89.43
368.788	40.28
368.999	34.13
369.209	-8.87
369.42	191.83
369.631	206.16
369.842	111.96
370.053	3.41
370.264	95.57
370.474	30.04
370.685	32.08
370.896	66.9
371.107	95.57
371.317	23.89
371.528	-21.16
371.739	134.48
371.95	48.47
372.16	91.48
372.371	-80.55
372.582	-4.78
372.792	95.57
373.003	27.99
373.214	118.1
373.424	161.11
373.635	48.47
373.846	103.76
374.056	21.85
374.267	34.13
374.477	73.04
374.688	-4.78
374.898	38.23
375.109	73.04
375.319	75.09
375.53	77.14
375.74	19.8
375.951	15.7
376.161	103.76
376.372	109.91
376.582	-23.21
376.793	116.05
377.003	-31.4
377.214	-19.11
377.424	185.68
377.635	23.89
377.845	-21.16
378.055	169.3
378.266	-39.59
378.476	54.61
378.686	66.9
378.897	7.51
379.107	165.2
379.317	79.19
379.528	27.99
379.738	75.09
379.948	-2.73
380.158	73.04
380.369	40.28
380.579	93.52
380.789	21.85
380.999	-12.97
381.21	21.85
381.42	185.68
381.63	-15.02
381.84	101.72
382.05	-4.78
382.261	83.28
382.471	144.72
382.681	48.47
382.891	163.15
383.101	68.95
383.311	-51.88
383.521	-55.98
383.731	-2.73
383.941	52.56
384.151	87.38
384.361	38.23
384.571	116.05
384.781	95.57
384.991	204.11
385.201	157.01
385.411	62.8
385.621	64.85
385.831	101.72
386.041	34.13
386.251	36.18
386.461	148.82
386.671	97.62
386.881	40.28
387.091	-0.68
387.301	116.05
387.511	103.76
387.72	81.24
387.93	202.07
388.14	-92.84
388.35	25.94
388.56	25.94
388.769	62.8
388.979	21.85
389.189	-78.51
389.399	-27.31
389.609	52.56
389.818	99.67
390.028	7.51
390.238	44.37
390.447	-8.87
390.657	93.52
390.867	27.99
391.076	-84.65
391.286	42.32
391.496	101.72
391.705	-25.26
391.915	118.1
392.125	105.81
392.334	-31.4
392.544	216.4
392.753	64.85
392.963	32.08
393.172	-17.07
393.382	17.75
393.591	132.44
393.801	5.46
394.01	128.34
394.22	79.19
394.429	85.33
394.639	60.76
394.848	111.96
395.058	32.08
395.267	19.8
395.477	23.89
395.686	68.95
395.895	142.68
396.105	214.35
396.314	11.61
396.524	-8.87
396.733	-51.88
396.942	138.58
397.152	99.67
397.361	56.66
397.57	75.09
397.78	7.51
397.989	62.8
398.198	204.11
398.407	107.86
398.617	7.51
398.826	54.61
399.035	27.99
399.244	91.48
399.453	85.33
399.663	136.53
399.872	50.52
400.081	-51.88
400.29	95.57
400.499	11.61
400.708	128.34
400.917	36.18
401.127	-23.21
401.336	-15.02
401.545	220.5
401.754	195.92
401.963	159.06
402.172	27.99
402.381	13.65
402.59	3.41
402.799	7.51
403.008	58.71
403.217	50.52
403.426	103.76
403.635	-4.78
403.844	58.71
404.053	36.18
404.262	91.48
404.471	179.54
404.68	66.9
404.888	5.46
405.097	77.14
405.306	81.24
405.515	71
405.724	3.41
405.933	103.76
406.142	19.8
406.35	177.49
406.559	-31.4
406.768	95.57
406.977	103.76
407.185	15.7
407.394	25.94
407.603	-72.36
407.812	40.28
408.02	126.29
408.229	46.42
408.438	91.48
408.646	-55.98
408.855	3.41
409.064	54.61
409.272	36.18
409.481	19.8
409.69	27.99
409.898	-58.03
410.107	79.19
410.315	103.76
410.524	-66.22
410.733	48.47
410.941	1.37
411.15	132.44
411.358	77.14
411.567	103.76
411.775	46.42
411.984	105.81
412.192	58.71
412.401	48.47
412.609	148.82
412.818	91.48
413.026	62.8
413.234	50.52
413.443	17.75
413.651	11.61
413.86	87.38
414.068	140.63
414.276	157.01
414.485	-139.94
414.693	167.25
414.901	75.09
415.11	23.89
415.318	34.13
415.526	101.72
415.734	81.24
415.943	122.2
416.151	109.91
416.359	75.09
416.567	32.08
416.776	116.05
416.984	167.25
417.192	189.78
417.4	-17.07
417.608	-25.26
417.817	-8.87
418.025	163.15
418.233	144.72
418.441	-43.69
418.649	-58.03
418.857	34.13
419.065	146.77
419.273	-43.69
419.481	107.86
419.689	36.18
419.897	42.32
420.105	-148.14
420.313	163.15
420.521	118.1
420.729	191.83
420.937	36.18
421.145	-19.11
421.353	101.72
421.561	179.54
421.769	36.18
421.977	27.99
422.185	58.71
422.393	48.47
422.601	124.24
422.809	95.57
423.017	128.34
423.224	126.29
423.432	122.2
423.64	32.08
423.848	118.1
424.056	-37.55
424.263	60.76
424.471	-17.07
424.679	179.54
424.887	15.7
425.094	195.92
425.302	89.43
425.51	-58.03
425.718	48.47
425.925	93.52
426.133	-35.5
426.341	251.22
426.548	64.85
426.756	27.99
426.964	136.53
427.171	50.52
427.379	87.38
427.586	25.94
427.794	132.44
428.001	111.96
428.209	58.71
428.417	208.21
428.624	87.38
428.832	159.06
429.039	118.1
429.247	101.72
429.454	66.9
429.662	238.93
429.869	95.57
430.076	136.53
430.284	171.35
430.491	232.79
430.699	83.28
430.906	179.54
431.114	159.06
431.321	132.44
431.528	101.72
431.736	175.44
431.943	114
432.15	173.39
432.358	200.02
432.565	163.15
432.772	56.66
432.979	140.63
433.187	134.48
433.394	253.27
433.601	103.76
433.808	175.44
434.016	200.02
434.223	183.63
434.43	179.54
434.637	161.11
434.844	220.5
435.052	247.12
435.259	290.13
435.466	349.52
435.673	165.2
435.88	208.21
436.087	335.18
436.294	314.7
436.501	263.51
436.708	261.46
436.915	251.22
437.122	380.24
437.329	206.16
437.537	275.79
437.743	255.31
437.95	404.82
438.157	390.48
438.364	322.9
438.571	355.66
438.778	392.53
438.985	363.86
439.192	488.78
439.399	324.94
439.606	359.76
439.813	507.21
440.02	560.46
440.227	597.32
440.433	556.36
440.64	437.58
440.847	425.29
441.054	488.78
441.261	738.63
441.467	552.27
441.674	531.79
441.881	712.01
442.088	544.08
442.294	681.29
442.501	705.87
442.708	685.39
442.914	712.01
443.121	845.13
443.328	798.03
443.534	931.14
443.741	881.99
443.948	769.35
444.154	896.33
444.361	1072.45
444.568	992.58
444.774	951.62
444.981	922.95
445.187	1127.75
445.394	990.53
445.6	1123.65
445.807	1226.05
446.013	1148.23
446.22	1154.37
446.426	1293.63
446.633	1338.69
446.839	1525.05
447.046	1318.21
447.252	1582.4
447.459	1527.1
447.665	1471.81
447.871	1668.41
448.078	1883.45
448.284	1637.69
448.491	1983.8
448.697	1959.22
448.903	2000.18
449.11	2102.58
449.316	1963.32
449.522	2338.1
449.728	2223.41
449.935	2399.54
450.141	2364.72
450.347	2604.33
450.553	2458.93
450.76	2772.27
450.966	2729.26
451.172	2903.34
451.378	2948.39
451.584	2929.96
451.791	3175.72
451.997	3261.73
452.203	3491.1
452.409	3503.39
452.615	3706.14
452.821	3521.82
453.027	3648.8
453.233	4007.19
453.44	4105.49
453.646	4148.5
453.852	4271.38
454.058	4592.91
454.264	4506.9
454.47	4797.71
454.676	5160.2
454.882	5311.75
455.088	5217.54
455.294	5412.1
455.5	5919.99
455.705	6221.05
455.911	6104.31
456.117	6341.88
456.323	6460.66
456.529	6374.64
456.735	6978.79
456.941	7408.87
457.147	7501.03
457.352	7728.35
457.558	8135.9
457.764	8539.35
457.97	8707.28
458.176	9161.93
458.381	9475.27
458.587	9940.16
458.793	10265.78
458.999	10294.46
459.204	11340.97
459.41	11871.39
459.616	11607.2
459.821	12336.28
460.027	12745.87
460.233	13726.85
460.438	13630.6
460.644	14384.25
460.85	14443.64
461.055	15101.04
461.261	15533.16
461.466	15608.94
461.672	15744.1
461.878	17663.05
462.083	17427.53
462.289	17699.91
462.494	18615.35
462.7	18730.04
462.905	18926.64
463.111	20341.79
463.316	21439.5
463.522	21804.04
463.727	22580.22
463.932	23395.31
464.138	24259.56
464.343	25287.64
464.549	25574.35
464.754	27182.01
464.959	28027.82
465.165	28216.23
465.37	27986.86
465.575	28212.13
465.781	30100.36
465.986	30798.72
466.191	30722.94
466.397	31024
466.602	30030.73
466.807	32146.28
467.012	32226.15
467.218	32799.58
467.423	33006.43
467.628	34161.48
467.833	35523.38
468.038	34964.29
468.244	34470.73
468.449	35961.65
468.654	35382.07
468.859	35054.4
469.064	35347.26
