Data from USB4F104151__272__11-20-42-831.txt Node

Date: Wed Feb 26 11:20:42 EST 2025
User: louis
Spectrometer: USB4F10415
Trigger mode: 4
Integration Time (sec): 1.000000E-1
Scans to average: 1
Electric dark correction enabled: true
Nonlinearity correction enabled: false
Boxcar width: 0
XAxis mode: Wavelengths
Number of Pixels in Spectrum: 3648
>>>>>Begin Spectral Data<<<<<
178.204	-383.31
178.424	-383.31
178.644	-383.31
178.864	-495.95
179.084	-432.46
179.304	-57.68
179.524	24.23
179.744	-26.96
179.964	81.58
180.184	22.19
180.404	81.58
180.624	-37.2
180.844	-2.39
181.064	-151.89
181.283	7.85
181.503	-8.53
181.723	67.24
181.943	-51.54
182.163	130.73
182.383	-65.88
182.602	69.29
182.822	79.53
183.042	-4.44
183.262	-14.68
183.482	-86.36
183.701	91.82
183.921	34.47
184.141	-43.35
184.361	77.48
184.58	13.99
184.8	85.67
185.02	-35.16
185.239	81.58
185.459	83.63
185.679	73.39
185.898	-78.16
186.118	26.28
186.338	28.33
186.557	128.68
186.777	-61.78
186.997	13.99
187.216	-10.58
187.436	159.4
187.655	65.19
187.875	83.63
188.095	-6.49
188.314	159.4
188.534	116.39
188.753	-115.03
188.973	120.49
189.192	210.6
189.412	-14.68
189.631	42.67
189.851	26.28
190.07	100.01
190.29	-45.4
190.509	-10.58
190.729	61.1
190.948	118.44
191.168	212.65
191.387	71.34
191.607	-4.44
191.826	91.82
192.045	-4.44
192.265	-22.87
192.484	59.05
192.704	61.1
192.923	-65.88
193.142	149.16
193.362	108.2
193.581	75.43
193.8	32.43
194.02	110.25
194.239	73.39
194.458	18.09
194.678	50.86
194.897	-14.68
195.116	36.52
195.335	34.47
195.555	46.76
195.774	-31.06
195.993	-10.58
196.212	5.8
196.432	-78.16
196.651	-20.82
196.87	-18.77
197.089	304.81
197.308	-6.49
197.528	75.43
197.747	-20.82
197.966	61.1
198.185	89.77
198.404	-33.11
198.623	52.91
198.842	179.88
199.062	134.82
199.281	114.34
199.5	71.34
199.719	59.05
199.938	91.82
200.157	61.1
200.376	75.43
200.595	155.3
200.814	118.44
201.033	-18.77
201.252	124.58
201.471	24.23
201.69	32.43
201.909	-14.68
202.128	5.8
202.347	89.77
202.566	-0.34
202.785	-53.59
203.004	-57.68
203.223	239.27
203.442	87.72
203.661	-10.58
203.879	52.91
204.098	54.95
204.317	-29.01
204.536	106.15
204.755	81.58
204.974	124.58
205.193	-37.2
205.411	97.96
205.63	77.48
205.849	40.62
206.068	13.99
206.287	-31.06
206.505	134.82
206.724	-22.87
206.943	42.67
207.162	-12.63
207.381	34.47
207.599	22.19
207.818	18.09
208.037	-12.63
208.255	18.09
208.474	85.67
208.693	81.58
208.911	-57.68
209.13	93.87
209.349	87.72
209.567	151.21
209.786	108.2
210.005	38.57
210.223	79.53
210.442	-123.22
210.661	-53.59
210.879	122.54
211.098	-6.49
211.316	22.19
211.535	22.19
211.753	-33.11
211.972	-6.49
212.191	-10.58
212.409	-20.82
212.628	95.91
212.846	-12.63
213.065	52.91
213.283	46.76
213.502	34.47
213.72	77.48
213.938	38.57
214.157	-61.78
214.375	63.15
214.594	-22.87
214.812	102.06
215.031	22.19
215.249	11.95
215.467	1.71
215.686	81.58
215.904	-16.73
216.122	-69.97
216.341	155.3
216.559	44.71
216.778	95.91
216.996	87.72
217.214	42.67
217.432	-35.16
217.651	-96.6
217.869	28.33
218.087	71.34
218.306	42.67
218.524	87.72
218.742	50.86
218.96	122.54
219.179	50.86
219.397	-55.64
219.615	188.07
219.833	108.2
220.051	-8.53
220.27	-12.63
220.488	46.76
220.706	5.8
220.924	-65.88
221.142	-6.49
221.36	61.1
221.578	91.82
221.796	50.86
222.015	36.52
222.233	54.95
222.451	151.21
222.669	-123.22
222.887	57
223.105	-24.92
223.323	-20.82
223.541	-37.2
223.759	24.23
223.977	46.76
224.195	87.72
224.413	97.96
224.631	-18.77
224.849	95.91
225.067	179.88
225.285	7.85
225.503	30.38
225.721	-125.27
225.939	18.09
226.157	108.2
226.375	226.98
226.592	13.99
226.81	36.52
227.028	100.01
227.246	122.54
227.464	114.34
227.682	126.63
227.9	79.53
228.117	65.19
228.335	32.43
228.553	18.09
228.771	20.14
228.989	89.77
229.206	20.14
229.424	38.57
229.642	50.86
229.86	-4.44
230.077	110.25
230.295	95.91
230.513	100.01
230.731	81.58
230.948	79.53
231.166	114.34
231.384	-47.44
231.601	-39.25
231.819	173.74
232.037	-2.39
232.254	1.71
232.472	59.05
232.689	-72.02
232.907	83.63
233.125	-45.4
233.342	-10.58
233.56	7.85
233.777	5.8
233.995	40.62
234.213	77.48
234.43	38.57
234.648	-18.77
234.865	26.28
235.083	124.58
235.3	-12.63
235.518	83.63
235.735	67.24
235.953	114.34
236.17	81.58
236.388	42.67
236.605	79.53
236.822	89.77
237.04	122.54
237.257	18.09
237.475	-29.01
237.692	50.86
237.909	87.72
238.127	-29.01
238.344	65.19
238.562	42.67
238.779	-53.59
238.996	-80.21
239.214	-31.06
239.431	44.71
239.648	-63.83
239.865	40.62
240.083	69.29
240.3	-67.92
240.517	-24.92
240.735	26.28
240.952	79.53
241.169	50.86
241.386	3.75
241.603	61.1
241.821	-26.96
242.038	67.24
242.255	65.19
242.472	-22.87
242.689	32.43
242.907	52.91
243.124	38.57
243.341	-8.53
243.558	5.8
243.775	-31.06
243.992	-63.83
244.209	124.58
244.426	167.59
244.643	24.23
244.86	5.8
245.078	69.29
245.295	75.43
245.512	-16.73
245.729	22.19
245.946	63.15
246.163	18.09
246.38	-31.06
246.597	-12.63
246.814	65.19
247.031	3.75
247.248	9.9
247.464	63.15
247.681	-4.44
247.898	59.05
248.115	26.28
248.332	-53.59
248.549	130.73
248.766	120.49
248.983	67.24
249.2	20.14
249.417	118.44
249.633	-20.82
249.85	93.87
250.067	42.67
250.284	42.67
250.501	69.29
250.717	7.85
250.934	-80.21
251.151	-90.45
251.368	-10.58
251.585	63.15
251.801	28.33
252.018	-31.06
252.235	140.97
252.451	-104.79
252.668	13.99
252.885	36.52
253.102	28.33
253.318	-45.4
253.535	-22.87
253.752	-22.87
253.968	7.85
254.185	-100.69
254.401	79.53
254.618	57
254.835	-53.59
255.051	167.59
255.268	-18.77
255.484	63.15
255.701	-37.2
255.917	28.33
256.134	-39.25
256.351	26.28
256.567	20.14
256.784	-10.58
257	-65.88
257.217	57
257.433	77.48
257.65	-26.96
257.866	155.3
258.082	-4.44
258.299	-51.54
258.515	54.95
258.732	54.95
258.948	-29.01
259.165	48.81
259.381	-22.87
259.597	108.2
259.814	44.71
260.03	-20.82
260.246	-6.49
260.463	159.4
260.679	140.97
260.895	77.48
261.112	13.99
261.328	-2.39
261.544	-18.77
261.761	159.4
261.977	-47.44
262.193	-41.3
262.409	122.54
262.626	22.19
262.842	22.19
263.058	-74.07
263.274	102.06
263.49	3.75
263.707	93.87
263.923	130.73
264.139	-63.83
264.355	34.47
264.571	54.95
264.787	-8.53
265.004	34.47
265.22	1.71
265.436	-29.01
265.652	-24.92
265.868	50.86
266.084	-108.88
266.3	-4.44
266.516	-88.4
266.732	46.76
266.948	32.43
267.164	-35.16
267.38	61.1
267.596	32.43
267.812	85.67
268.028	83.63
268.244	-22.87
268.46	110.25
268.676	-51.54
268.892	-20.82
269.108	-35.16
269.324	-20.82
269.54	-45.4
269.756	48.81
269.972	-57.68
270.188	-29.01
270.403	-88.4
270.619	-35.16
270.835	95.91
271.051	-41.3
271.267	-10.58
271.483	-14.68
271.698	130.73
271.914	20.14
272.13	11.95
272.346	7.85
272.562	63.15
272.777	54.95
272.993	-22.87
273.209	-10.58
273.425	67.24
273.64	-102.74
273.856	85.67
274.072	-29.01
274.287	-45.4
274.503	61.1
274.719	69.29
274.934	-26.96
275.15	-67.92
275.366	42.67
275.581	-65.88
275.797	69.29
276.012	65.19
276.228	32.43
276.444	42.67
276.659	124.58
276.875	30.38
277.09	-4.44
277.306	30.38
277.521	28.33
277.737	-59.73
277.952	126.63
278.168	110.25
278.383	57
278.599	-16.73
278.814	57
279.03	11.95
279.245	143.02
279.461	11.95
279.676	132.78
279.892	-63.83
280.107	-35.16
280.322	-74.07
280.538	44.71
280.753	20.14
280.969	91.82
281.184	-0.34
281.399	132.78
281.615	42.67
281.83	24.23
282.045	-135.51
282.26	-37.2
282.476	-16.73
282.691	71.34
282.906	77.48
283.122	1.71
283.337	-69.97
283.552	32.43
283.767	63.15
283.983	52.91
284.198	11.95
284.413	104.11
284.628	-35.16
284.843	32.43
285.058	52.91
285.274	-53.59
285.489	-8.53
285.704	95.91
285.919	7.85
286.134	-51.54
286.349	-22.87
286.564	-6.49
286.779	108.2
286.995	-51.54
287.21	-63.83
287.425	63.15
287.64	30.38
287.855	36.52
288.07	-110.93
288.285	132.78
288.5	110.25
288.715	97.96
288.93	18.09
289.145	-29.01
289.36	59.05
289.575	-26.96
289.79	69.29
290.004	-41.3
290.219	116.39
290.434	-14.68
290.649	-55.64
290.864	-4.44
291.079	-20.82
291.294	-16.73
291.509	-24.92
291.724	3.75
291.938	-39.25
292.153	61.1
292.368	65.19
292.583	11.95
292.798	97.96
293.012	83.63
293.227	54.95
293.442	-20.82
293.657	114.34
293.871	67.24
294.086	42.67
294.301	118.44
294.516	61.1
294.73	93.87
294.945	-43.35
295.16	22.19
295.374	38.57
295.589	81.58
295.804	-26.96
296.018	-16.73
296.233	73.39
296.447	44.71
296.662	22.19
296.877	102.06
297.091	54.95
297.306	9.9
297.52	-80.21
297.735	24.23
297.949	44.71
298.164	26.28
298.378	-4.44
298.593	-4.44
298.807	1.71
299.022	67.24
299.236	110.25
299.451	-6.49
299.665	-8.53
299.88	22.19
300.094	-6.49
300.309	32.43
300.523	26.28
300.737	-90.45
300.952	26.28
301.166	36.52
301.381	-96.6
301.595	-76.12
301.809	-4.44
302.024	20.14
302.238	-72.02
302.452	120.49
302.667	-20.82
302.881	79.53
303.095	50.86
303.309	97.96
303.524	-2.39
303.738	63.15
303.952	-35.16
304.166	97.96
304.381	-8.53
304.595	132.78
304.809	-59.73
305.023	-4.44
305.237	7.85
305.452	-41.3
305.666	104.11
305.88	67.24
306.094	38.57
306.308	50.86
306.522	32.43
306.736	77.48
306.95	132.78
307.164	-16.73
307.379	1.71
307.593	73.39
307.807	95.91
308.021	32.43
308.235	110.25
308.449	-127.32
308.663	34.47
308.877	214.7
309.091	42.67
309.305	91.82
309.519	-90.45
309.733	83.63
309.947	-121.17
310.161	71.34
310.374	42.67
310.588	81.58
310.802	-51.54
311.016	71.34
311.23	42.67
311.444	-37.2
311.658	89.77
311.872	73.39
312.085	38.57
312.299	140.97
312.513	50.86
312.727	-2.39
312.941	-35.16
313.154	16.04
313.368	-4.44
313.582	71.34
313.796	9.9
314.009	61.1
314.223	100.01
314.437	-4.44
314.651	61.1
314.864	36.52
315.078	-20.82
315.292	-53.59
315.505	24.23
315.719	65.19
315.933	26.28
316.146	18.09
316.36	-65.88
316.573	106.15
316.787	38.57
317.001	73.39
317.214	-45.4
317.428	5.8
317.641	-49.49
317.855	5.8
318.068	24.23
318.282	46.76
318.495	161.45
318.709	46.76
318.922	44.71
319.136	57
319.349	69.29
319.563	28.33
319.776	54.95
319.99	-102.74
320.203	106.15
320.417	-31.06
320.63	104.11
320.843	208.55
321.057	67.24
321.27	-37.2
321.483	46.76
321.697	159.4
321.91	38.57
322.124	46.76
322.337	57
322.55	-51.54
322.763	42.67
322.977	44.71
323.19	-14.68
323.403	38.57
323.617	75.43
323.83	95.91
324.043	22.19
324.256	34.47
324.469	-82.26
324.683	143.02
324.896	-8.53
325.109	-6.49
325.322	-55.64
325.535	57
325.748	126.63
325.962	-37.2
326.175	69.29
326.388	1.71
326.601	11.95
326.814	32.43
327.027	-22.87
327.24	112.3
327.453	-84.31
327.666	-8.53
327.879	136.87
328.092	93.87
328.305	83.63
328.518	-22.87
328.731	-51.54
328.944	-55.64
329.157	18.09
329.37	28.33
329.583	116.39
329.796	97.96
330.009	-53.59
330.222	81.58
330.435	106.15
330.648	44.71
330.861	44.71
331.073	16.04
331.286	102.06
331.499	24.23
331.712	3.75
331.925	3.75
332.138	89.77
332.35	130.73
332.563	-0.34
332.776	140.97
332.989	-110.93
333.202	-35.16
333.414	52.91
333.627	-8.53
333.84	36.52
334.053	132.78
334.265	36.52
334.478	-55.64
334.691	11.95
334.903	-33.11
335.116	-4.44
335.329	36.52
335.541	61.1
335.754	192.17
335.966	83.63
336.179	48.81
336.392	28.33
336.604	-22.87
336.817	26.28
337.029	63.15
337.242	44.71
337.454	44.71
337.667	18.09
337.88	169.64
338.092	57
338.305	18.09
338.517	-55.64
338.729	7.85
338.942	79.53
339.154	-35.16
339.367	-69.97
339.579	63.15
339.792	-16.73
340.004	69.29
340.217	13.99
340.429	38.57
340.641	-92.5
340.854	-57.68
341.066	20.14
341.278	67.24
341.491	-0.34
341.703	42.67
341.915	42.67
342.128	93.87
342.34	38.57
342.552	-88.4
342.764	-10.58
342.977	42.67
343.189	65.19
343.401	52.91
343.613	-129.36
343.826	34.47
344.038	-6.49
344.25	91.82
344.462	-61.78
344.674	26.28
344.886	69.29
345.099	57
345.311	42.67
345.523	11.95
345.735	-29.01
345.947	28.33
346.159	-10.58
346.371	63.15
346.583	-18.77
346.795	235.18
347.007	91.82
347.219	67.24
347.431	40.62
347.643	157.35
347.855	-29.01
348.067	108.2
348.279	-29.01
348.491	13.99
348.703	87.72
348.915	11.95
349.127	32.43
349.339	77.48
349.551	-57.68
349.763	106.15
349.975	-0.34
350.187	44.71
350.399	104.11
350.61	100.01
350.822	24.23
351.034	-8.53
351.246	26.28
351.458	22.19
351.669	40.62
351.881	124.58
352.093	42.67
352.305	102.06
352.517	61.1
352.728	253.61
352.94	65.19
353.152	57
353.363	-8.53
353.575	32.43
353.787	81.58
353.999	44.71
354.21	42.67
354.422	-26.96
354.633	-10.58
354.845	-2.39
355.057	-24.92
355.268	65.19
355.48	91.82
355.692	20.14
355.903	50.86
356.115	-45.4
356.326	-133.46
356.538	46.76
356.749	104.11
356.961	95.91
357.172	7.85
357.384	-102.74
357.595	169.64
357.807	-47.44
358.018	-41.3
358.23	20.14
358.441	100.01
358.653	50.86
358.864	-45.4
359.075	-65.88
359.287	-0.34
359.498	52.91
359.709	83.63
359.921	-24.92
360.132	81.58
360.344	44.71
360.555	-16.73
360.766	52.91
360.977	-45.4
361.189	18.09
361.4	-18.77
361.611	85.67
361.823	118.44
362.034	52.91
362.245	-24.92
362.456	42.67
362.667	26.28
362.879	-47.44
363.09	67.24
363.301	110.25
363.512	36.52
363.723	-45.4
363.935	50.86
364.146	63.15
364.357	-10.58
364.568	26.28
364.779	-33.11
364.99	132.78
365.201	38.57
365.412	54.95
365.623	-94.55
365.834	-0.34
366.045	30.38
366.256	50.86
366.467	97.96
366.678	-18.77
366.889	102.06
367.1	-49.49
367.311	-18.77
367.522	48.81
367.733	114.34
367.944	40.62
368.155	-12.63
368.366	106.15
368.577	112.3
368.788	126.63
368.999	5.8
369.209	9.9
369.42	100.01
369.631	167.59
369.842	108.2
370.053	-31.06
370.264	65.19
370.474	-47.44
370.685	5.8
370.896	-49.49
371.107	61.1
371.317	44.71
371.528	52.91
371.739	126.63
371.95	102.06
372.16	120.49
372.371	-26.96
372.582	24.23
372.792	3.75
373.003	42.67
373.214	36.52
373.424	30.38
373.635	-84.31
373.846	108.2
374.056	20.14
374.267	44.71
374.477	71.34
374.688	-51.54
374.898	112.3
375.109	46.76
375.319	-18.77
375.53	71.34
375.74	44.71
375.951	-8.53
376.161	36.52
376.372	81.58
376.582	1.71
376.793	69.29
377.003	-37.2
377.214	-20.82
377.424	110.25
377.635	34.47
377.845	63.15
378.055	106.15
378.266	-90.45
378.476	24.23
378.686	40.62
378.897	59.05
379.107	28.33
379.317	26.28
379.528	-39.25
379.738	59.05
379.948	-33.11
380.158	24.23
380.369	-33.11
380.579	44.71
380.789	-29.01
380.999	71.34
381.21	36.52
381.42	220.84
381.63	26.28
381.84	73.39
382.05	85.67
382.261	124.58
382.471	134.82
382.681	-24.92
382.891	151.21
383.101	73.39
383.311	-29.01
383.521	36.52
383.731	83.63
383.941	13.99
384.151	24.23
384.361	28.33
384.571	50.86
384.781	140.97
384.991	179.88
385.201	200.36
385.411	42.67
385.621	71.34
385.831	44.71
386.041	28.33
386.251	44.71
386.461	87.72
386.671	28.33
386.881	57
387.091	-84.31
387.301	83.63
387.511	50.86
387.72	69.29
387.93	79.53
388.14	-74.07
388.35	67.24
388.56	50.86
388.769	83.63
388.979	-0.34
389.189	42.67
389.399	11.95
389.609	93.87
389.818	44.71
390.028	59.05
390.238	91.82
390.447	5.8
390.657	79.53
390.867	36.52
391.076	-57.68
391.286	26.28
391.496	87.72
391.705	-72.02
391.915	87.72
392.125	161.45
392.334	3.75
392.544	165.54
392.753	16.04
392.963	-20.82
393.172	-20.82
393.382	-35.16
393.591	169.64
393.801	9.9
394.01	118.44
394.22	93.87
394.429	36.52
394.639	13.99
394.848	61.1
395.058	120.49
395.267	-26.96
395.477	48.81
395.686	116.39
395.895	218.79
396.105	196.26
396.314	30.38
396.524	3.75
396.733	-20.82
396.942	67.24
397.152	87.72
397.361	11.95
397.57	59.05
397.78	85.67
397.989	102.06
398.198	220.84
398.407	-2.39
398.617	40.62
398.826	83.63
399.035	-12.63
399.244	108.2
399.453	11.95
399.663	140.97
399.872	112.3
400.081	-26.96
400.29	118.44
400.499	-49.49
400.708	126.63
400.917	3.75
401.127	32.43
401.336	-29.01
401.545	149.16
401.754	50.86
401.963	75.43
402.172	-78.16
402.381	-53.59
402.59	-82.26
402.799	7.85
403.008	69.29
403.217	97.96
403.426	38.57
403.635	-112.98
403.844	7.85
404.053	-53.59
404.262	81.58
404.471	93.87
404.68	52.91
404.888	59.05
405.097	-69.97
405.306	18.09
405.515	112.3
405.724	-8.53
405.933	110.25
406.142	-43.35
406.35	100.01
406.559	3.75
406.768	48.81
406.977	100.01
407.185	71.34
407.394	106.15
407.603	-82.26
407.812	61.1
408.02	40.62
408.229	44.71
408.438	3.75
408.646	-6.49
408.855	48.81
409.064	79.53
409.272	48.81
409.481	-4.44
409.69	18.09
409.898	16.04
410.107	42.67
410.315	112.3
410.524	-10.58
410.733	20.14
410.941	-0.34
411.15	30.38
411.358	102.06
411.567	89.77
411.775	-4.44
411.984	22.19
412.192	83.63
412.401	22.19
412.609	112.3
412.818	106.15
413.026	79.53
413.234	26.28
413.443	134.82
413.651	-31.06
413.86	-2.39
414.068	183.98
414.276	165.54
414.485	20.14
414.693	157.35
414.901	208.55
415.11	46.76
415.318	-67.92
415.526	-31.06
415.734	63.15
415.943	87.72
416.151	124.58
416.359	9.9
416.567	114.34
416.776	7.85
416.984	69.29
417.192	212.65
417.4	36.52
417.608	36.52
417.817	-67.92
418.025	95.91
418.233	134.82
418.441	48.81
418.649	-26.96
418.857	30.38
419.065	87.72
419.273	-57.68
419.481	71.34
419.689	44.71
419.897	28.33
420.105	-78.16
420.313	71.34
420.521	136.87
420.729	188.07
420.937	-14.68
421.145	-49.49
421.353	67.24
421.561	155.3
421.769	65.19
421.977	-26.96
422.185	67.24
422.393	36.52
422.601	-10.58
422.809	108.2
423.017	34.47
423.224	34.47
423.432	77.48
423.64	42.67
423.848	100.01
424.056	-45.4
424.263	159.4
424.471	34.47
424.679	165.54
424.887	22.19
425.094	120.49
425.302	81.58
425.51	69.29
425.718	61.1
425.925	145.06
426.133	-0.34
426.341	186.02
426.548	18.09
426.756	20.14
426.964	100.01
427.171	-6.49
427.379	3.75
427.586	126.63
427.794	75.43
428.001	161.45
428.209	83.63
428.417	171.69
428.624	126.63
428.832	30.38
429.039	42.67
429.247	38.57
429.454	134.82
429.662	267.94
429.869	106.15
430.076	79.53
430.284	155.3
430.491	202.41
430.699	93.87
430.906	167.59
431.114	124.58
431.321	126.63
431.528	69.29
431.736	140.97
431.943	202.41
432.15	192.17
432.358	177.83
432.565	241.32
432.772	50.86
432.979	124.58
433.187	108.2
433.394	124.58
433.601	42.67
433.808	239.27
434.016	261.8
434.223	165.54
434.43	200.36
434.637	200.36
434.844	214.7
435.052	143.02
435.259	269.99
435.466	243.37
435.673	171.69
435.88	255.65
436.087	290.47
436.294	323.24
436.501	253.61
436.708	253.61
436.915	282.28
437.122	259.75
437.329	190.12
437.537	343.72
437.743	282.28
437.95	487.08
438.157	274.09
438.364	335.53
438.571	278.18
438.778	304.81
438.985	331.43
439.192	403.11
439.399	327.33
439.606	435.88
439.813	347.81
440.02	538.27
440.227	618.15
440.433	468.64
440.64	394.92
440.847	401.06
441.054	466.6
441.261	597.67
441.467	566.95
441.674	446.12
441.881	581.28
442.088	575.14
442.294	663.2
442.501	691.87
442.708	751.26
442.914	564.9
443.121	757.41
443.328	738.98
443.534	820.89
443.741	779.93
443.948	741.02
444.154	949.92
444.361	994.97
444.568	908.96
444.774	1033.88
444.981	882.33
445.187	1054.36
445.394	956.06
445.6	962.2
445.807	1097.37
446.013	1076.89
446.22	1107.61
446.426	1117.85
446.633	1296.02
446.839	1457.81
447.046	1226.39
447.252	1392.28
447.459	1416.85
447.665	1486.48
447.871	1584.79
448.078	1787.54
448.284	1689.23
448.491	1812.11
448.697	1826.45
448.903	1912.46
449.11	1951.37
449.316	1943.18
449.522	2088.59
449.728	2199.18
449.935	2250.38
450.141	2092.68
450.347	2506.37
450.553	2422.41
450.76	2403.97
450.966	2580.1
451.172	2592.39
451.378	2772.61
451.584	2879.1
451.791	3001.98
451.997	3088
452.203	3214.97
452.409	3245.69
452.615	3387
452.821	3341.94
453.027	3436.15
453.233	3817.07
453.44	3780.21
453.646	3835.5
453.852	3937.9
454.058	4202.09
454.264	4388.46
454.47	4689.51
454.676	4646.5
454.882	5045.85
455.088	4830.82
455.294	5176.92
455.5	5320.28
455.705	5840.47
455.911	5746.26
456.117	5813.84
456.323	6043.21
456.529	6037.07
456.735	6776.39
456.941	6839.87
457.147	6932.03
457.352	7224.89
457.558	7523.9
457.764	7859.76
457.97	8056.37
458.176	8480.3
458.381	8846.88
458.587	9035.3
458.793	9516.57
458.999	9448.99
459.204	10620.42
459.41	10962.44
459.616	10894.85
459.821	11611.64
460.027	11982.32
460.233	12740.07
460.438	12412.4
460.644	13274.59
460.85	13561.31
461.055	13950.42
461.261	14845.38
461.466	14308.82
461.672	14669.26
461.878	16291.25
462.083	16002.49
462.289	16672.17
462.494	17216.93
462.7	17266.08
462.905	17638.81
463.111	18822.54
463.316	19998.07
463.522	20450.67
463.727	20944.24
463.932	21851.49
464.138	22461.78
464.343	23381.32
464.549	23137.61
464.754	25363.75
464.959	25740.58
465.165	26309.91
465.37	26197.27
465.575	26193.18
465.781	27692.29
465.986	28677.37
466.191	28275.96
466.397	28452.09
466.602	28146.94
466.807	29162.73
467.012	29574.38
467.218	30563.54
467.423	30143.71
467.628	31544.52
467.833	33041.59
468.038	32754.87
468.244	31694.02
468.449	33563.82
468.654	32988.34
