Data from USB4F104151__283__11-21-00-029.txt Node

Date: Wed Feb 26 11:21:00 EST 2025
User: louis
Spectrometer: USB4F10415
Trigger mode: 4
Integration Time (sec): 1.000000E-1
Scans to average: 1
Electric dark correction enabled: true
Nonlinearity correction enabled: false
Boxcar width: 0
XAxis mode: Wavelengths
Number of Pixels in Spectrum: 3648
>>>>>Begin Spectral Data<<<<<
178.204	-339.28
178.424	-339.28
178.644	-339.28
178.864	-415.05
179.084	-408.91
179.304	-9.56
179.524	-52.56
179.744	27.31
179.964	121.51
180.184	-1.37
180.404	29.35
180.624	-89.43
180.844	-27.99
181.064	-32.08
181.283	-3.41
181.503	-17.75
181.723	55.98
181.943	-142.68
182.163	228.01
182.383	-5.46
182.602	-11.61
182.822	158.38
183.042	82.6
183.262	4.78
183.482	-58.71
183.701	70.31
183.921	74.41
184.141	27.31
184.361	129.7
184.58	49.83
184.8	164.52
185.02	33.45
185.239	127.66
185.459	139.94
185.679	113.32
185.898	-79.19
186.118	82.6
186.338	21.16
186.557	144.04
186.777	-15.7
186.997	72.36
187.216	12.97
187.436	107.18
187.655	199.34
187.875	74.41
188.095	64.17
188.314	154.28
188.534	176.81
188.753	-3.41
188.973	137.9
189.192	221.86
189.412	31.4
189.631	74.41
189.851	72.36
190.07	117.42
190.29	-79.19
190.509	78.51
190.729	98.99
190.948	219.82
191.168	324.26
191.387	119.46
191.607	43.69
191.826	86.7
192.045	80.55
192.265	19.11
192.484	107.18
192.704	90.79
192.923	-32.08
193.142	223.91
193.362	123.56
193.581	191.14
193.8	68.27
194.02	135.85
194.239	17.07
194.458	127.66
194.678	29.35
194.897	-21.84
195.116	129.7
195.335	43.69
195.555	76.46
195.774	-3.41
195.993	78.51
196.212	70.31
196.432	-60.76
196.651	-25.94
196.87	21.16
197.089	203.43
197.308	17.07
197.528	80.55
197.747	-23.89
197.966	76.46
198.185	164.52
198.404	-19.8
198.623	101.03
198.842	156.33
199.062	47.79
199.281	101.03
199.5	39.59
199.719	137.9
199.938	74.41
200.157	121.51
200.376	86.7
200.595	119.46
200.814	74.41
201.033	-77.14
201.252	174.76
201.471	98.99
201.69	62.12
201.909	23.21
202.128	109.23
202.347	80.55
202.566	70.31
202.785	-46.42
203.004	6.83
203.223	252.58
203.442	62.12
203.661	2.73
203.879	166.57
204.098	101.03
204.317	31.4
204.536	101.03
204.755	144.04
204.974	123.56
205.193	4.78
205.411	148.14
205.63	185
205.849	166.57
206.068	70.31
206.287	-38.23
206.505	127.66
206.724	29.35
206.943	43.69
207.162	27.31
207.381	185
207.599	29.35
207.818	35.5
208.037	15.02
208.255	60.07
208.474	66.22
208.693	41.64
208.911	27.31
209.13	68.27
209.349	131.75
209.567	111.27
209.786	162.47
210.005	164.52
210.223	84.65
210.442	6.83
210.661	29.35
210.879	107.18
211.098	107.18
211.316	51.88
211.535	92.84
211.753	80.55
211.972	51.88
212.191	68.27
212.409	-11.61
212.628	197.29
212.846	23.21
213.065	88.75
213.283	101.03
213.502	84.65
213.72	141.99
213.938	15.02
214.157	94.89
214.375	86.7
214.594	-5.46
214.812	185
215.031	29.35
215.249	105.13
215.467	129.7
215.686	121.51
215.904	80.55
216.122	62.12
216.341	207.53
216.559	98.99
216.778	137.9
216.996	121.51
217.214	98.99
217.432	31.4
217.651	-116.05
217.869	150.18
218.087	53.93
218.306	113.32
218.524	113.32
218.742	62.12
218.96	35.5
219.179	17.07
219.397	55.98
219.615	281.25
219.833	187.05
220.051	58.03
220.27	113.32
220.488	82.6
220.706	123.56
220.924	35.5
221.142	53.93
221.36	12.97
221.578	109.23
221.796	31.4
222.015	90.79
222.233	78.51
222.451	144.04
222.669	-5.46
222.887	68.27
223.105	58.03
223.323	53.93
223.541	55.98
223.759	72.36
223.977	10.92
224.195	160.42
224.413	101.03
224.631	12.97
224.849	133.8
225.067	201.38
225.285	53.93
225.503	58.03
225.721	-60.76
225.939	39.59
226.157	62.12
226.375	178.86
226.592	-7.51
226.81	62.12
227.028	185
227.246	150.18
227.464	101.03
227.682	158.38
227.9	70.31
228.117	90.79
228.335	66.22
228.553	31.4
228.771	88.75
228.989	117.42
229.206	125.61
229.424	29.35
229.642	37.55
229.86	4.78
230.077	123.56
230.295	64.17
230.513	152.23
230.731	109.23
230.948	176.81
231.166	109.23
231.384	41.64
231.601	-17.75
231.819	197.29
232.037	12.97
232.254	41.64
232.472	51.88
232.689	23.21
232.907	170.66
233.125	0.68
233.342	64.17
233.56	53.93
233.777	76.46
233.995	131.75
234.213	158.38
234.43	121.51
234.648	60.07
234.865	4.78
235.083	152.23
235.3	39.59
235.518	115.37
235.735	146.09
235.953	70.31
236.17	58.03
236.388	33.45
236.605	12.97
236.822	162.47
237.04	139.94
237.257	29.35
237.475	49.83
237.692	33.45
237.909	90.79
238.127	2.73
238.344	119.46
238.562	68.27
238.779	-30.04
238.996	-85.33
239.214	123.56
239.431	103.08
239.648	88.75
239.865	66.22
240.083	80.55
240.3	62.12
240.517	-9.56
240.735	60.07
240.952	109.23
241.169	88.75
241.386	156.33
241.603	41.64
241.821	-52.56
242.038	168.62
242.255	125.61
242.472	2.73
242.689	98.99
242.907	92.84
243.124	109.23
243.341	64.17
243.558	53.93
243.775	0.68
243.992	33.45
244.209	53.93
244.426	187.05
244.643	131.75
244.86	123.56
245.078	135.85
245.295	146.09
245.512	6.83
245.729	-25.94
245.946	94.89
246.163	123.56
246.38	37.55
246.597	27.31
246.814	148.14
247.031	62.12
247.248	33.45
247.464	191.14
247.681	66.22
247.898	107.18
248.115	107.18
248.332	31.4
248.549	178.86
248.766	236.2
248.983	152.23
249.2	96.94
249.417	174.76
249.633	19.11
249.85	98.99
250.067	60.07
250.284	21.16
250.501	109.23
250.717	129.7
250.934	21.16
251.151	19.11
251.368	21.16
251.585	19.11
251.801	137.9
252.018	6.83
252.235	115.37
252.451	-3.41
252.668	-30.04
252.885	111.27
253.102	55.98
253.318	49.83
253.535	25.26
253.752	66.22
253.968	39.59
254.185	-81.24
254.401	129.7
254.618	66.22
254.835	-3.41
255.051	154.28
255.268	146.09
255.484	109.23
255.701	15.02
255.917	94.89
256.134	88.75
256.351	76.46
256.567	-23.89
256.784	21.16
257	-64.85
257.217	148.14
257.433	197.29
257.65	98.99
257.866	117.42
258.082	-46.42
258.299	-23.89
258.515	78.51
258.732	64.17
258.948	-19.8
259.165	94.89
259.381	-19.8
259.597	105.13
259.814	27.31
260.03	-1.37
260.246	17.07
260.463	187.05
260.679	90.79
260.895	49.83
261.112	-17.75
261.328	31.4
261.544	-7.51
261.761	144.04
261.977	-60.76
262.193	-42.32
262.409	154.28
262.626	35.5
262.842	84.65
263.058	-34.13
263.274	119.46
263.49	60.07
263.707	131.75
263.923	94.89
264.139	-77.14
264.355	29.35
264.571	35.5
264.787	111.27
265.004	135.85
265.22	98.99
265.436	-30.04
265.652	45.74
265.868	107.18
266.084	17.07
266.3	76.46
266.516	10.92
266.732	105.13
266.948	88.75
267.164	58.03
267.38	160.42
267.596	111.27
267.812	150.18
268.028	25.26
268.244	64.17
268.46	-25.94
268.676	-7.51
268.892	92.84
269.108	-34.13
269.324	86.7
269.54	-11.61
269.756	82.6
269.972	4.78
270.188	-9.56
270.403	-19.8
270.619	41.64
270.835	131.75
271.051	31.4
271.267	-13.65
271.483	0.68
271.698	209.58
271.914	94.89
272.13	113.32
272.346	-46.42
272.562	94.89
272.777	182.95
272.993	-17.75
273.209	-34.13
273.425	189.1
273.64	-17.75
273.856	133.8
274.072	68.27
274.287	39.59
274.503	19.11
274.719	180.9
274.934	53.93
275.15	-48.47
275.366	51.88
275.581	21.16
275.797	78.51
276.012	66.22
276.228	58.03
276.444	76.46
276.659	113.32
276.875	-19.8
277.09	43.69
277.306	23.21
277.521	51.88
277.737	-1.37
277.952	84.65
278.168	115.37
278.383	29.35
278.599	62.12
278.814	191.14
279.03	64.17
279.245	213.67
279.461	105.13
279.676	141.99
279.892	-5.46
280.107	43.69
280.322	82.6
280.538	72.36
280.753	-38.23
280.969	10.92
281.184	105.13
281.399	154.28
281.615	98.99
281.83	125.61
282.045	6.83
282.26	119.46
282.476	137.9
282.691	150.18
282.906	92.84
283.122	62.12
283.337	12.97
283.552	58.03
283.767	-30.04
283.983	191.14
284.198	35.5
284.413	107.18
284.628	27.31
284.843	43.69
285.058	105.13
285.274	15.02
285.489	33.45
285.704	80.55
285.919	74.41
286.134	74.41
286.349	80.55
286.564	33.45
286.779	141.99
286.995	51.88
287.21	-5.46
287.425	43.69
287.64	47.79
287.855	58.03
288.07	-21.84
288.285	139.94
288.5	197.29
288.715	156.33
288.93	-50.52
289.145	-3.41
289.36	76.46
289.575	-9.56
289.79	113.32
290.004	68.27
290.219	215.72
290.434	78.51
290.649	119.46
290.864	-50.52
291.079	58.03
291.294	68.27
291.509	90.79
291.724	51.88
291.938	29.35
292.153	117.42
292.368	10.92
292.583	98.99
292.798	154.28
293.012	96.94
293.227	60.07
293.442	-15.7
293.657	187.05
293.871	170.66
294.086	119.46
294.301	176.81
294.516	109.23
294.73	70.31
294.945	-27.99
295.16	62.12
295.374	146.09
295.589	98.99
295.804	19.11
296.018	29.35
296.233	164.52
296.447	74.41
296.662	4.78
296.877	185
297.091	123.56
297.306	45.74
297.52	115.37
297.735	78.51
297.949	12.97
298.164	51.88
298.378	58.03
298.593	17.07
298.807	29.35
299.022	109.23
299.236	60.07
299.451	129.7
299.665	58.03
299.88	125.61
300.094	127.66
300.309	92.84
300.523	119.46
300.737	0.68
300.952	135.85
301.166	72.36
301.381	58.03
301.595	27.31
301.809	96.94
302.024	41.64
302.238	-32.08
302.452	164.52
302.667	103.08
302.881	166.57
303.095	101.03
303.309	133.8
303.524	76.46
303.738	90.79
303.952	49.83
304.166	96.94
304.381	-138.58
304.595	199.34
304.809	74.41
305.023	25.26
305.237	-7.51
305.452	66.22
305.666	78.51
305.88	64.17
306.094	197.29
306.308	115.37
306.522	119.46
306.736	105.13
306.95	131.75
307.164	45.74
307.379	43.69
307.593	107.18
307.807	221.86
308.021	113.32
308.235	101.03
308.449	-7.51
308.663	98.99
308.877	195.24
309.091	105.13
309.305	127.66
309.519	10.92
309.733	141.99
309.947	-60.76
310.161	101.03
310.374	98.99
310.588	187.05
310.802	-7.51
311.016	-34.13
311.23	60.07
311.444	-27.99
311.658	35.5
311.872	168.62
312.085	230.06
312.299	207.53
312.513	193.19
312.727	92.84
312.941	23.21
313.154	49.83
313.368	111.27
313.582	43.69
313.796	86.7
314.009	88.75
314.223	193.19
314.437	37.55
314.651	119.46
314.864	41.64
315.078	23.21
315.292	-15.7
315.505	51.88
315.719	90.79
315.933	160.42
316.146	170.66
316.36	51.88
316.573	115.37
316.787	137.9
317.001	66.22
317.214	-9.56
317.428	158.38
317.641	-71
317.855	12.97
318.068	101.03
318.282	68.27
318.495	240.3
318.709	121.51
318.922	55.98
319.136	141.99
319.349	135.85
319.563	60.07
319.776	86.7
319.99	-15.7
320.203	164.52
320.417	53.93
320.63	98.99
320.843	176.81
321.057	129.7
321.27	-27.99
321.483	80.55
321.697	133.8
321.91	41.64
322.124	68.27
322.337	45.74
322.55	2.73
322.763	101.03
322.977	74.41
323.19	-58.71
323.403	43.69
323.617	115.37
323.83	115.37
324.043	51.88
324.256	109.23
324.469	62.12
324.683	88.75
324.896	82.6
325.109	33.45
325.322	-75.09
325.535	111.27
325.748	146.09
325.962	-68.95
326.175	41.64
326.388	129.7
326.601	205.48
326.814	-9.56
327.027	64.17
327.24	146.09
327.453	-48.47
327.666	17.07
327.879	152.23
328.092	123.56
328.305	213.67
328.518	-11.61
328.731	47.79
328.944	10.92
329.157	133.8
329.37	68.27
329.583	148.14
329.796	187.05
330.009	-85.33
330.222	105.13
330.435	162.47
330.648	41.64
330.861	25.26
331.073	90.79
331.286	88.75
331.499	82.6
331.712	55.98
331.925	64.17
332.138	84.65
332.35	193.19
332.563	-38.23
332.776	141.99
332.989	35.5
333.202	33.45
333.414	51.88
333.627	60.07
333.84	-1.37
334.053	150.18
334.265	25.26
334.478	-17.75
334.691	96.94
334.903	109.23
335.116	66.22
335.329	31.4
335.541	113.32
335.754	205.48
335.966	141.99
336.179	94.89
336.392	37.55
336.604	92.84
336.817	66.22
337.029	80.55
337.242	80.55
337.454	82.6
337.667	17.07
337.88	135.85
338.092	166.57
338.305	101.03
338.517	37.55
338.729	94.89
338.942	154.28
339.154	10.92
339.367	-19.8
339.579	166.57
339.792	-32.08
340.004	98.99
340.217	33.45
340.429	82.6
340.641	-15.7
340.854	-25.94
341.066	92.84
341.278	207.53
341.491	195.24
341.703	66.22
341.915	58.03
342.128	197.29
342.34	101.03
342.552	33.45
342.764	98.99
342.977	27.31
343.189	117.42
343.401	39.59
343.613	-19.8
343.826	17.07
344.038	-21.84
344.25	101.03
344.462	31.4
344.674	92.84
344.886	25.26
345.099	90.79
345.311	86.7
345.523	19.11
345.735	12.97
345.947	-54.61
346.159	68.27
346.371	103.08
346.583	68.27
346.795	228.01
347.007	74.41
347.219	90.79
347.431	27.31
347.643	144.04
347.855	-3.41
348.067	158.38
348.279	-9.56
348.491	117.42
348.703	80.55
348.915	12.97
349.127	-13.65
349.339	92.84
349.551	78.51
349.763	90.79
349.975	76.46
350.187	127.66
350.399	207.53
350.61	170.66
350.822	-5.46
351.034	141.99
351.246	17.07
351.458	45.74
351.669	139.94
351.881	101.03
352.093	125.61
352.305	154.28
352.517	121.51
352.728	119.46
352.94	80.55
353.152	66.22
353.363	43.69
353.575	80.55
353.787	189.1
353.999	82.6
354.21	250.53
354.422	39.59
354.633	-7.51
354.845	41.64
355.057	121.51
355.268	74.41
355.48	96.94
355.692	2.73
355.903	19.11
356.115	15.02
356.326	-3.41
356.538	266.92
356.749	86.7
356.961	152.23
357.172	84.65
357.384	2.73
357.595	172.71
357.807	-15.7
358.018	29.35
358.23	27.31
358.441	164.52
358.653	109.23
358.864	88.75
359.075	27.31
359.287	39.59
359.498	123.56
359.709	88.75
359.921	115.37
360.132	80.55
360.344	35.5
360.555	35.5
360.766	58.03
360.977	0.68
361.189	123.56
361.4	103.08
361.611	123.56
361.823	152.23
362.034	148.14
362.245	-3.41
362.456	43.69
362.667	86.7
362.879	-13.65
363.09	105.13
363.301	86.7
363.512	135.85
363.723	25.26
363.935	64.17
364.146	139.94
364.357	29.35
364.568	47.79
364.779	15.02
364.99	156.33
365.201	33.45
365.412	176.81
365.623	-13.65
365.834	64.17
366.045	37.55
366.256	129.7
366.467	80.55
366.678	70.31
366.889	15.02
367.1	35.5
367.311	156.33
367.522	62.12
367.733	133.8
367.944	117.42
368.155	66.22
368.366	154.28
368.577	156.33
368.788	221.86
368.999	39.59
369.209	64.17
369.42	225.96
369.631	271.01
369.842	160.42
370.053	58.03
370.264	129.7
370.474	2.73
370.685	160.42
370.896	55.98
371.107	197.29
371.317	103.08
371.528	68.27
371.739	232.1
371.95	72.36
372.16	103.08
372.371	-11.61
372.582	51.88
372.792	141.99
373.003	88.75
373.214	103.08
373.424	49.83
373.635	-36.18
373.846	135.85
374.056	88.75
374.267	62.12
374.477	94.89
374.688	0.68
374.898	117.42
375.109	111.27
375.319	84.65
375.53	172.71
375.74	162.47
375.951	4.78
376.161	146.09
376.372	92.84
376.582	-38.23
376.793	101.03
377.003	49.83
377.214	-32.08
377.424	72.36
377.635	43.69
377.845	45.74
378.055	113.32
378.266	-19.8
378.476	103.08
378.686	96.94
378.897	66.22
379.107	193.19
379.317	133.8
379.528	41.64
379.738	96.94
379.948	49.83
380.158	92.84
380.369	55.98
380.579	92.84
380.789	80.55
380.999	141.99
381.21	219.82
381.42	346.79
381.63	117.42
381.84	43.69
382.05	133.8
382.261	258.73
382.471	158.38
382.681	80.55
382.891	121.51
383.101	74.41
383.311	82.6
383.521	62.12
383.731	131.75
383.941	123.56
384.151	80.55
384.361	123.56
384.571	27.31
384.781	86.7
384.991	215.72
385.201	133.8
385.411	84.65
385.621	121.51
385.831	129.7
386.041	80.55
386.251	82.6
386.461	105.13
386.671	72.36
386.881	84.65
387.091	101.03
387.301	162.47
387.511	-19.8
387.72	117.42
387.93	129.7
388.14	37.55
388.35	141.99
388.56	144.04
388.769	107.18
388.979	111.27
389.189	47.79
389.399	62.12
389.609	60.07
389.818	127.66
390.028	115.37
390.238	158.38
390.447	86.7
390.657	39.59
390.867	25.26
391.076	-38.23
391.286	129.7
391.496	68.27
391.705	21.16
391.915	127.66
392.125	174.76
392.334	-11.61
392.544	172.71
392.753	103.08
392.963	4.78
393.172	29.35
393.382	60.07
393.591	195.24
393.801	107.18
394.01	205.48
394.22	90.79
394.429	-38.23
394.639	189.1
394.848	19.11
395.058	103.08
395.267	-21.84
395.477	139.94
395.686	41.64
395.895	221.86
396.105	195.24
396.314	101.03
396.524	111.27
396.733	10.92
396.942	135.85
397.152	133.8
397.361	68.27
397.57	111.27
397.78	109.23
397.989	125.61
398.198	213.67
398.407	82.6
398.617	31.4
398.826	58.03
399.035	62.12
399.244	150.18
399.453	107.18
399.663	121.51
399.872	17.07
400.081	-11.61
400.29	141.99
400.499	144.04
400.708	174.76
400.917	33.45
401.127	92.84
401.336	2.73
401.545	158.38
401.754	193.19
401.963	162.47
402.172	-32.08
402.381	62.12
402.59	80.55
402.799	158.38
403.008	209.58
403.217	74.41
403.426	141.99
403.635	-11.61
403.844	127.66
404.053	107.18
404.262	86.7
404.471	246.44
404.68	121.51
404.888	41.64
405.097	66.22
405.306	53.93
405.515	189.1
405.724	70.31
405.933	111.27
406.142	148.14
406.35	144.04
406.559	66.22
406.768	152.23
406.977	185
407.185	70.31
407.394	66.22
407.603	35.5
407.812	101.03
408.02	156.33
408.229	8.87
408.438	123.56
408.646	-64.85
408.855	19.11
409.064	123.56
409.272	23.21
409.481	125.61
409.69	2.73
409.898	-77.14
410.107	133.8
410.315	191.14
410.524	66.22
410.733	90.79
410.941	84.65
411.15	174.76
411.358	98.99
411.567	182.95
411.775	113.32
411.984	68.27
412.192	189.1
412.401	49.83
412.609	209.58
412.818	172.71
413.026	133.8
413.234	39.59
413.443	80.55
413.651	15.02
413.86	15.02
414.068	195.24
414.276	168.62
414.485	45.74
414.693	187.05
414.901	180.9
415.11	90.79
415.318	60.07
415.526	25.26
415.734	45.74
415.943	76.46
416.151	187.05
416.359	88.75
416.567	137.9
416.776	189.1
416.984	115.37
417.192	215.72
417.4	43.69
417.608	133.8
417.817	60.07
418.025	174.76
418.233	148.14
418.441	-23.89
418.649	-21.84
418.857	119.46
419.065	152.23
419.273	27.31
419.481	139.94
419.689	74.41
419.897	49.83
420.105	19.11
420.313	131.75
420.521	86.7
420.729	160.42
420.937	21.16
421.145	43.69
421.353	96.94
421.561	156.33
421.769	193.19
421.977	53.93
422.185	123.56
422.393	62.12
422.601	187.05
422.809	64.17
423.017	115.37
423.224	127.66
423.432	166.57
423.64	62.12
423.848	228.01
424.056	19.11
424.263	92.84
424.471	64.17
424.679	207.53
424.887	64.17
425.094	174.76
425.302	195.24
425.51	178.86
425.718	80.55
425.925	144.04
426.133	12.97
426.341	248.49
426.548	119.46
426.756	80.55
426.964	141.99
427.171	88.75
427.379	60.07
427.586	86.7
427.794	88.75
428.001	287.4
428.209	137.9
428.417	252.58
428.624	193.19
428.832	154.28
429.039	101.03
429.247	139.94
429.454	160.42
429.662	178.86
429.869	228.01
430.076	217.77
430.284	176.81
430.491	246.44
430.699	76.46
430.906	277.16
431.114	193.19
431.321	197.29
431.528	129.7
431.736	176.81
431.943	131.75
432.15	172.71
432.358	254.63
432.565	420.52
432.772	160.42
432.979	289.45
433.187	187.05
433.394	289.45
433.601	162.47
433.808	242.34
434.016	318.12
434.223	307.88
434.43	225.96
434.637	375.46
434.844	377.51
435.052	354.98
435.259	301.73
435.466	363.17
435.673	318.12
435.88	326.31
436.087	397.99
436.294	379.56
436.501	371.37
436.708	279.21
436.915	340.65
437.122	463.52
437.329	330.41
437.537	363.17
437.743	377.51
437.95	570.02
438.157	383.65
438.364	428.71
438.571	426.66
438.778	531.11
438.985	563.87
439.192	574.11
439.399	492.2
439.606	617.12
439.813	598.69
440.02	662.18
440.227	742.05
440.433	664.22
440.64	666.27
440.847	672.42
441.054	729.76
441.261	766.62
441.467	791.2
441.674	744.1
441.881	971.42
442.088	750.24
442.294	887.45
442.501	928.41
442.708	1002.14
442.914	1018.52
443.121	1133.21
443.328	1086.11
443.534	1204.89
443.741	1082.01
443.948	1059.48
444.154	1180.31
444.361	1389.21
444.568	1258.14
444.774	1198.74
444.981	1129.11
445.187	1450.64
445.394	1397.4
445.6	1325.72
445.807	1536.66
446.013	1589.91
446.22	1467.03
446.426	1657.49
446.633	1800.85
446.839	1952.4
447.046	1761.94
447.252	1958.54
447.459	1854.09
447.665	2022.03
447.871	2226.82
448.078	2306.7
448.284	2241.16
448.491	2458.25
448.697	2628.23
448.903	2757.25
449.11	2683.52
449.316	2642.56
449.522	2988.67
449.728	2919.04
449.935	3031.68
450.141	2978.43
450.347	3433.08
450.553	3091.07
450.76	3412.6
450.966	3539.57
451.172	3527.28
451.378	3842.67
451.584	3814
451.791	4139.63
451.997	4115.05
452.203	4199.02
452.409	4688.48
452.615	4604.52
452.821	4610.66
453.027	4743.78
453.233	5329.5
453.44	5059.17
453.646	5425.75
453.852	5505.62
454.058	5927.5
454.264	6040.14
454.47	6402.63
454.676	6382.15
454.882	7006.78
455.088	6726.21
455.294	7008.83
455.5	7486.01
455.705	7797.3
455.911	7944.75
456.117	7950.9
456.323	8636.97
456.529	8415.79
456.735	9179.68
456.941	9179.68
457.147	9617.94
457.352	9943.57
457.558	10400.27
457.764	10840.58
457.97	11481.6
458.176	11551.23
458.381	12235.25
458.587	12210.67
458.793	12773.86
458.999	12913.13
459.204	14543.31
459.41	15225.28
459.616	14918.09
459.821	15651.26
460.027	16458.16
460.233	17312.16
460.438	17375.65
460.644	18497.94
460.85	18377.11
461.055	19024.26
461.261	20054.39
461.466	19665.28
461.672	20105.59
461.878	22233.43
462.083	22215
462.289	22683.98
462.494	23525.7
462.7	23519.56
462.905	24265.02
463.111	26276.12
463.316	27384.07
463.522	27756.8
463.727	28797.17
463.932	29796.58
464.138	30712.02
464.343	31899.84
464.549	31998.15
464.754	34162.85
464.959	35225.75
465.165	36003.97
465.37	35526.8
465.575	35326.1
465.781	38037.61
465.986	39268.44
466.191	38275.17
466.397	39032.92
466.602	38101.09
466.807	40400.96
467.012	40761.4
467.218	41365.56
467.423	41705.52
