Data from USB4F104151__49__10-43-22-076.txt Node

Date: Wed Feb 26 10:43:22 EST 2025
User: louis
Spectrometer: USB4F10415
Trigger mode: 4
Integration Time (sec): 1.000000E-1
Scans to average: 1
Electric dark correction enabled: true
Nonlinearity correction enabled: false
Boxcar width: 0
XAxis mode: Wavelengths
Number of Pixels in Spectrum: 3648
>>>>>Begin Spectral Data<<<<<
178.204	-397.48
178.424	-397.48
178.644	-397.48
178.864	-391.33
179.084	-477.35
179.304	-43.18
179.524	-49.32
179.744	-41.13
179.964	46.93
180.184	22.36
180.404	28.5
180.624	-0.17
180.844	-55.47
181.064	-2.22
181.283	51.03
181.503	-6.31
181.723	48.98
181.943	-69.8
182.163	130.9
182.383	20.31
182.602	83.8
182.822	202.58
183.042	91.99
183.262	-47.27
183.482	-0.17
183.701	-14.51
183.921	10.07
184.141	-100.52
184.361	51.03
184.58	51.03
184.8	96.08
185.02	-41.13
185.239	143.19
185.459	98.13
185.679	120.66
185.898	-129.19
186.118	79.7
186.338	-45.23
186.557	155.47
186.777	12.12
186.997	-2.22
187.216	-22.7
187.436	194.39
187.655	16.21
187.875	67.41
188.095	61.27
188.314	104.28
188.534	126.8
188.753	-14.51
188.973	48.98
189.192	223.06
189.412	-26.79
189.631	26.45
189.851	34.64
190.07	167.76
190.29	14.17
190.509	-49.32
190.729	53.08
190.948	149.33
191.168	182.1
191.387	42.84
191.607	42.84
191.826	53.08
192.045	20.31
192.265	8.02
192.484	89.94
192.704	36.69
192.923	-84.14
193.142	128.85
193.362	46.93
193.581	147.28
193.8	102.23
194.02	126.8
194.239	22.36
194.458	104.28
194.678	26.45
194.897	20.31
195.116	42.84
195.335	75.6
195.555	89.94
195.774	5.97
195.993	118.61
196.212	165.71
196.432	-92.33
196.651	16.21
196.87	51.03
197.089	264.02
197.308	57.17
197.528	61.27
197.747	-26.79
197.966	10.07
198.185	159.57
198.404	-18.6
198.623	114.52
198.842	147.28
199.062	55.12
199.281	65.36
199.5	44.88
199.719	110.42
199.938	28.5
200.157	145.24
200.376	89.94
200.595	161.62
200.814	55.12
201.033	-69.8
201.252	149.33
201.471	3.93
201.69	10.07
201.909	-32.94
202.128	32.6
202.347	63.32
202.566	79.7
202.785	-61.61
203.004	-51.37
203.223	282.45
203.442	96.08
203.661	-8.36
203.879	14.17
204.098	42.84
204.317	-34.99
204.536	57.17
204.755	75.6
204.974	108.37
205.193	-10.41
205.411	165.71
205.63	122.71
205.849	87.89
206.068	-6.31
206.287	8.02
206.505	124.76
206.724	44.88
206.943	-2.22
207.162	-4.27
207.381	53.08
207.599	28.5
207.818	65.36
208.037	-41.13
208.255	-16.55
208.474	85.84
208.693	53.08
208.911	3.93
209.13	120.66
209.349	132.95
209.567	67.41
209.786	79.7
210.005	147.28
210.223	-2.22
210.442	-32.94
210.661	26.45
210.879	40.79
211.098	53.08
211.316	96.08
211.535	132.95
211.753	-16.55
211.972	100.18
212.191	-6.31
212.409	36.69
212.628	118.61
212.846	-20.65
213.065	81.75
213.283	83.8
213.502	32.6
213.72	22.36
213.938	8.02
214.157	-18.6
214.375	63.32
214.594	-14.51
214.812	63.32
215.031	14.17
215.249	22.36
215.467	26.45
215.686	44.88
215.904	85.84
216.122	3.93
216.341	120.66
216.559	3.93
216.778	100.18
216.996	149.33
217.214	-8.36
217.432	28.5
217.651	-39.08
217.869	79.7
218.087	-20.65
218.306	34.64
218.524	83.8
218.742	1.88
218.96	110.42
219.179	44.88
219.397	44.88
219.615	241.49
219.833	163.67
220.051	-45.23
220.27	157.52
220.488	32.6
220.706	85.84
220.924	-16.55
221.142	-18.6
221.36	98.13
221.578	96.08
221.796	40.79
222.015	67.41
222.233	51.03
222.451	89.94
222.669	28.5
222.887	128.85
223.105	3.93
223.323	8.02
223.541	-2.22
223.759	69.46
223.977	22.36
224.195	147.28
224.413	12.12
224.631	38.74
224.849	65.36
225.067	190.29
225.285	-10.41
225.503	-4.27
225.721	-55.47
225.939	96.08
226.157	104.28
226.375	229.2
226.592	12.12
226.81	20.31
227.028	104.28
227.246	94.04
227.464	114.52
227.682	59.22
227.9	151.38
228.117	73.56
228.335	106.32
228.553	48.98
228.771	48.98
228.989	24.4
229.206	75.6
229.424	-2.22
229.642	-53.42
229.86	-43.18
230.077	139.09
230.295	3.93
230.513	128.85
230.731	42.84
230.948	186.19
231.166	171.86
231.384	-10.41
231.601	-49.32
231.819	190.29
232.037	24.4
232.254	12.12
232.472	18.26
232.689	65.36
232.907	61.27
233.125	8.02
233.342	10.07
233.56	40.79
233.777	-16.55
233.995	-18.6
234.213	122.71
234.43	1.88
234.648	-6.31
234.865	22.36
235.083	118.61
235.3	5.97
235.518	40.79
235.735	132.95
235.953	38.74
236.17	59.22
236.388	-39.08
236.605	102.23
236.822	151.38
237.04	57.17
237.257	83.8
237.475	-51.37
237.692	55.12
237.909	61.27
238.127	40.79
238.344	10.07
238.562	38.74
238.779	-30.89
238.996	-49.32
239.214	55.12
239.431	61.27
239.648	36.69
239.865	116.56
240.083	89.94
240.3	51.03
240.517	65.36
240.735	51.03
240.952	85.84
241.169	91.99
241.386	106.32
241.603	96.08
241.821	-73.9
242.038	143.19
242.255	106.32
242.472	-110.76
242.689	77.65
242.907	1.88
243.124	110.42
243.341	-34.99
243.558	-14.51
243.775	-8.36
243.992	-106.67
244.209	61.27
244.426	167.76
244.643	91.99
244.86	28.5
245.078	155.47
245.295	73.56
245.512	-10.41
245.729	61.27
245.946	18.26
246.163	73.56
246.38	26.45
246.597	1.88
246.814	36.69
247.031	24.4
247.248	12.12
247.464	124.76
247.681	1.88
247.898	57.17
248.115	71.51
248.332	12.12
248.549	67.41
248.766	208.72
248.983	36.69
249.2	30.55
249.417	75.6
249.633	-61.61
249.85	-37.03
250.067	98.13
250.284	53.08
250.501	-2.22
250.717	71.51
250.934	-49.32
251.151	57.17
251.368	28.5
251.585	100.18
251.801	20.31
252.018	-8.36
252.235	139.09
252.451	8.02
252.668	67.41
252.885	124.76
253.102	65.36
253.318	-49.32
253.535	48.98
253.752	-10.41
253.968	16.21
254.185	-37.03
254.401	77.65
254.618	104.28
254.835	-18.6
255.051	151.38
255.268	28.5
255.484	1.88
255.701	10.07
255.917	96.08
256.134	-12.46
256.351	16.21
256.567	-43.18
256.784	28.5
257	-51.37
257.217	126.8
257.433	69.46
257.65	85.84
257.866	149.33
258.082	-41.13
258.299	-84.14
258.515	-37.03
258.732	14.17
258.948	-20.65
259.165	57.17
259.381	-28.84
259.597	104.28
259.814	34.64
260.03	38.74
260.246	36.69
260.463	149.33
260.679	63.32
260.895	61.27
261.112	73.56
261.328	114.52
261.544	-55.47
261.761	198.48
261.977	-18.6
262.193	-51.37
262.409	69.46
262.626	-61.61
262.842	46.93
263.058	1.88
263.274	96.08
263.49	87.89
263.707	114.52
263.923	126.8
264.139	-57.51
264.355	16.21
264.571	94.04
264.787	-8.36
265.004	178
265.22	12.12
265.436	18.26
265.652	87.89
265.868	63.32
266.084	-8.36
266.3	26.45
266.516	-90.28
266.732	-6.31
266.948	110.42
267.164	85.84
267.38	61.27
267.596	104.28
267.812	151.38
268.028	75.6
268.244	-2.22
268.46	108.37
268.676	22.36
268.892	67.41
269.108	-18.6
269.324	5.97
269.54	-57.51
269.756	137.04
269.972	-18.6
270.188	-14.51
270.403	-16.55
270.619	-37.03
270.835	98.13
271.051	-12.46
271.267	-41.13
271.483	-73.9
271.698	57.17
271.914	30.55
272.13	57.17
272.346	22.36
272.562	12.12
272.777	81.75
272.993	46.93
273.209	-16.55
273.425	-4.27
273.64	8.02
273.856	98.13
274.072	-41.13
274.287	20.31
274.503	122.71
274.719	48.98
274.934	-57.51
275.15	-75.95
275.366	28.5
275.581	-22.7
275.797	-28.84
276.012	-12.46
276.228	-16.55
276.444	20.31
276.659	98.13
276.875	10.07
277.09	22.36
277.306	34.64
277.521	116.56
277.737	51.03
277.952	137.04
278.168	-2.22
278.383	30.55
278.599	59.22
278.814	32.6
279.03	59.22
279.245	77.65
279.461	-14.51
279.676	57.17
279.892	-41.13
280.107	-67.75
280.322	-61.61
280.538	57.17
280.753	-0.17
280.969	24.4
281.184	-2.22
281.399	169.81
281.615	32.6
281.83	44.88
282.045	-63.66
282.26	-73.9
282.476	71.51
282.691	159.57
282.906	36.69
283.122	-8.36
283.337	-4.27
283.552	89.94
283.767	-47.27
283.983	87.89
284.198	3.93
284.413	126.8
284.628	-39.08
284.843	77.65
285.058	59.22
285.274	-69.8
285.489	44.88
285.704	75.6
285.919	59.22
286.134	14.17
286.349	-28.84
286.564	3.93
286.779	180.05
286.995	-4.27
287.21	-6.31
287.425	63.32
287.64	28.5
287.855	112.47
288.07	-88.23
288.285	130.9
288.5	108.37
288.715	104.28
288.93	42.84
289.145	-69.8
289.36	108.37
289.575	-32.94
289.79	61.27
290.004	-0.17
290.219	-12.46
290.434	8.02
290.649	14.17
290.864	-18.6
291.079	18.26
291.294	130.9
291.509	108.37
291.724	44.88
291.938	12.12
292.153	100.18
292.368	8.02
292.583	128.85
292.798	46.93
293.012	10.07
293.227	102.23
293.442	-26.79
293.657	79.7
293.871	167.76
294.086	53.08
294.301	194.39
294.516	59.22
294.73	53.08
294.945	-41.13
295.16	36.69
295.374	120.66
295.589	83.8
295.804	-41.13
296.018	69.46
296.233	91.99
296.447	14.17
296.662	-28.84
296.877	57.17
297.091	59.22
297.306	18.26
297.52	-96.43
297.735	-12.46
297.949	67.41
298.164	-10.41
298.378	81.75
298.593	18.26
298.807	-28.84
299.022	61.27
299.236	102.23
299.451	87.89
299.665	16.21
299.88	16.21
300.094	46.93
300.309	73.56
300.523	3.93
300.737	14.17
300.952	75.6
301.166	75.6
301.381	-16.55
301.595	-22.7
301.809	51.03
302.024	26.45
302.238	26.45
302.452	180.05
302.667	24.4
302.881	116.56
303.095	75.6
303.309	-14.51
303.524	-77.99
303.738	34.64
303.952	12.12
304.166	57.17
304.381	-90.28
304.595	159.57
304.809	3.93
305.023	-22.7
305.237	118.61
305.452	67.41
305.666	75.6
305.88	89.94
306.094	38.74
306.308	98.13
306.522	81.75
306.736	139.09
306.95	79.7
307.164	36.69
307.379	36.69
307.593	175.95
307.807	175.95
308.021	139.09
308.235	-6.31
308.449	-47.27
308.663	-16.55
308.877	247.63
309.091	91.99
309.305	44.88
309.519	-65.71
309.733	94.04
309.947	-61.61
310.161	91.99
310.374	75.6
310.588	112.47
310.802	-39.08
311.016	24.4
311.23	28.5
311.444	67.41
311.658	32.6
311.872	83.8
312.085	137.04
312.299	200.53
312.513	79.7
312.727	79.7
312.941	-49.32
313.154	14.17
313.368	18.26
313.582	63.32
313.796	53.08
314.009	-4.27
314.223	137.04
314.437	73.56
314.651	145.24
314.864	67.41
315.078	-20.65
315.292	-98.47
315.505	-49.32
315.719	44.88
315.933	139.09
316.146	-43.18
316.36	16.21
316.573	102.23
316.787	53.08
317.001	75.6
317.214	-49.32
317.428	48.98
317.641	-2.22
317.855	57.17
318.068	48.98
318.282	44.88
318.495	206.67
318.709	89.94
318.922	36.69
319.136	141.14
319.349	112.47
319.563	-14.51
319.776	128.85
319.99	-65.71
320.203	114.52
320.417	34.64
320.63	135
320.843	178
321.057	96.08
321.27	-8.36
321.483	42.84
321.697	85.84
321.91	28.5
322.124	118.61
322.337	48.98
322.55	-32.94
322.763	42.84
322.977	51.03
323.19	53.08
323.403	75.6
323.617	118.61
323.83	89.94
324.043	77.65
324.256	157.52
324.469	-16.55
324.683	124.76
324.896	69.46
325.109	114.52
325.322	-80.04
325.535	104.28
325.748	48.98
325.962	-75.95
326.175	83.8
326.388	102.23
326.601	98.13
326.814	-30.89
327.027	94.04
327.24	149.33
327.453	-28.84
327.666	114.52
327.879	77.65
328.092	106.32
328.305	55.12
328.518	44.88
328.731	20.31
328.944	51.03
329.157	100.18
329.37	-6.31
329.583	130.9
329.796	128.85
330.009	-73.9
330.222	116.56
330.435	104.28
330.648	24.4
330.861	5.97
331.073	126.8
331.286	81.75
331.499	69.46
331.712	-45.23
331.925	18.26
332.138	48.98
332.35	100.18
332.563	51.03
332.776	114.52
332.989	-0.17
333.202	-22.7
333.414	-43.18
333.627	-24.75
333.84	24.4
334.053	57.17
334.265	59.22
334.478	-51.37
334.691	67.41
334.903	53.08
335.116	-98.47
335.329	10.07
335.541	34.64
335.754	165.71
335.966	-73.9
336.179	-6.31
336.392	-18.6
336.604	36.69
336.817	135
337.029	83.8
337.242	57.17
337.454	85.84
337.667	71.51
337.88	85.84
338.092	112.47
338.305	44.88
338.517	-26.79
338.729	3.93
338.942	165.71
339.154	12.12
339.367	5.97
339.579	63.32
339.792	10.07
340.004	57.17
340.217	28.5
340.429	59.22
340.641	-4.27
340.854	-41.13
341.066	3.93
341.278	79.7
341.491	141.14
341.703	63.32
341.915	20.31
342.128	110.42
342.34	5.97
342.552	-39.08
342.764	98.13
342.977	-39.08
343.189	81.75
343.401	40.79
343.613	-57.51
343.826	143.19
344.038	-22.7
344.25	51.03
344.462	-47.27
344.674	94.04
344.886	-24.75
345.099	73.56
345.311	81.75
345.523	-6.31
345.735	-49.32
345.947	16.21
346.159	59.22
346.371	38.74
346.583	-4.27
346.795	110.42
347.007	8.02
347.219	110.42
347.431	-24.75
347.643	108.37
347.855	-10.41
348.067	128.85
348.279	-69.8
348.491	46.93
348.703	16.21
348.915	34.64
349.127	10.07
349.339	24.4
349.551	-55.47
349.763	48.98
349.975	16.21
350.187	104.28
350.399	206.67
350.61	59.22
350.822	71.51
351.034	53.08
351.246	96.08
351.458	106.32
351.669	98.13
351.881	46.93
352.093	42.84
352.305	167.76
352.517	67.41
352.728	22.36
352.94	44.88
353.152	53.08
353.363	8.02
353.575	71.51
353.787	155.47
353.999	-20.65
354.21	167.76
354.422	22.36
354.633	-16.55
354.845	51.03
355.057	85.84
355.268	69.46
355.48	110.42
355.692	1.88
355.903	24.4
356.115	-0.17
356.326	-43.18
356.538	98.13
356.749	130.9
356.961	151.38
357.172	59.22
357.384	-8.36
357.595	311.12
357.807	-51.37
358.018	1.88
358.23	36.69
358.441	149.33
358.653	87.89
358.864	-41.13
359.075	-4.27
359.287	77.65
359.498	149.33
359.709	42.84
359.921	104.28
360.132	71.51
360.344	38.74
360.555	-12.46
360.766	51.03
360.977	5.97
361.189	178
361.4	28.5
361.611	132.95
361.823	98.13
362.034	-24.75
362.245	-94.38
362.456	14.17
362.667	53.08
362.879	-4.27
363.09	73.56
363.301	38.74
363.512	-22.7
363.723	-6.31
363.935	10.07
364.146	120.66
364.357	85.84
364.568	16.21
364.779	38.74
364.99	182.1
365.201	-6.31
365.412	63.32
365.623	-110.76
365.834	22.36
366.045	77.65
366.256	120.66
366.467	159.57
366.678	46.93
366.889	18.26
367.1	-18.6
367.311	137.04
367.522	61.27
367.733	59.22
367.944	22.36
368.155	10.07
368.366	112.47
368.577	96.08
368.788	87.89
368.999	-28.84
369.209	28.5
369.42	151.38
369.631	231.25
369.842	24.4
370.053	-53.42
370.264	141.14
370.474	12.12
370.685	67.41
370.896	36.69
371.107	96.08
371.317	87.89
371.528	28.5
371.739	118.61
371.95	141.14
372.16	57.17
372.371	-37.03
372.582	-32.94
372.792	69.46
373.003	112.47
373.214	77.65
373.424	40.79
373.635	-34.99
373.846	184.15
374.056	44.88
374.267	38.74
374.477	65.36
374.688	-8.36
374.898	-45.23
375.109	14.17
375.319	130.9
375.53	85.84
375.74	81.75
375.951	77.65
376.161	116.56
376.372	71.51
376.582	-4.27
376.793	122.71
377.003	40.79
377.214	3.93
377.424	102.23
377.635	-18.6
377.845	-39.08
378.055	227.15
378.266	-26.79
378.476	38.74
378.686	104.28
378.897	77.65
379.107	85.84
379.317	94.04
379.528	-14.51
379.738	100.18
379.948	24.4
380.158	57.17
380.369	-4.27
380.579	14.17
380.789	-28.84
380.999	63.32
381.21	67.41
381.42	182.1
381.63	-22.7
381.84	89.94
382.05	89.94
382.261	182.1
382.471	128.85
382.681	-45.23
382.891	94.04
383.101	40.79
383.311	-28.84
383.521	-80.04
383.731	106.32
383.941	198.48
384.151	10.07
384.361	65.36
384.571	67.41
384.781	65.36
384.991	231.25
385.201	247.63
385.411	147.28
385.621	36.69
385.831	-22.7
386.041	36.69
386.251	87.89
386.461	81.75
386.671	63.32
386.881	75.6
387.091	-10.41
387.301	124.76
387.511	91.99
387.72	122.71
387.93	132.95
388.14	-28.84
388.35	102.23
388.56	12.12
388.769	137.04
388.979	-6.31
389.189	-0.17
389.399	28.5
389.609	16.21
389.818	169.81
390.028	104.28
390.238	40.79
390.447	-0.17
390.657	100.18
390.867	42.84
391.076	1.88
391.286	48.98
391.496	53.08
391.705	5.97
391.915	182.1
392.125	141.14
392.334	-45.23
392.544	118.61
392.753	-30.89
392.963	-86.19
393.172	24.4
393.382	-2.22
393.591	223.06
393.801	-49.32
394.01	149.33
394.22	91.99
394.429	51.03
394.639	30.55
394.848	104.28
395.058	44.88
395.267	36.69
395.477	71.51
395.686	69.46
395.895	225.11
396.105	198.48
396.314	63.32
396.524	98.13
396.733	26.45
396.942	126.8
397.152	63.32
397.361	63.32
397.57	143.19
397.78	65.36
397.989	65.36
398.198	268.11
398.407	-6.31
398.617	40.79
398.826	51.03
399.035	-94.38
399.244	180.05
399.453	28.5
399.663	81.75
399.872	40.79
400.081	-24.75
400.29	108.37
400.499	-2.22
400.708	42.84
400.917	106.32
401.127	22.36
401.336	5.97
401.545	147.28
401.754	98.13
401.963	118.61
402.172	51.03
402.381	-49.32
402.59	8.02
402.799	24.4
403.008	155.47
403.217	30.55
403.426	57.17
403.635	-80.04
403.844	38.74
404.053	55.12
404.262	-53.42
404.471	141.14
404.68	63.32
404.888	-10.41
405.097	3.93
405.306	96.08
405.515	79.7
405.724	-2.22
405.933	96.08
406.142	100.18
406.35	155.47
406.559	40.79
406.768	126.8
406.977	163.67
407.185	102.23
407.394	81.75
407.603	18.26
407.812	100.18
408.02	173.91
408.229	5.97
408.438	48.98
408.646	-32.94
408.855	38.74
409.064	40.79
409.272	55.12
409.481	59.22
409.69	5.97
409.898	-26.79
410.107	65.36
410.315	81.75
410.524	-61.61
410.733	30.55
410.941	30.55
411.15	110.42
411.358	114.52
411.567	145.24
411.775	118.61
411.984	28.5
412.192	81.75
412.401	-18.6
412.609	208.72
412.818	85.84
413.026	141.14
413.234	-2.22
413.443	-16.55
413.651	71.51
413.86	77.65
414.068	122.71
414.276	221.01
414.485	24.4
414.693	178
414.901	227.15
415.11	75.6
415.318	36.69
415.526	79.7
415.734	151.38
415.943	48.98
416.151	102.23
416.359	73.56
416.567	20.31
416.776	42.84
416.984	120.66
417.192	98.13
417.4	12.12
417.608	-10.41
417.817	16.21
418.025	83.8
418.233	114.52
418.441	-12.46
418.649	-61.61
418.857	112.47
419.065	173.91
419.273	-26.79
419.481	3.93
419.689	30.55
419.897	38.74
420.105	46.93
420.313	98.13
420.521	149.33
420.729	132.95
420.937	34.64
421.145	48.98
421.353	126.8
421.561	202.58
421.769	36.69
421.977	-30.89
422.185	100.18
422.393	38.74
422.601	149.33
422.809	145.24
423.017	73.56
423.224	40.79
423.432	55.12
423.64	67.41
423.848	178
424.056	-12.46
424.263	112.47
424.471	24.4
424.679	167.76
424.887	-22.7
425.094	79.7
425.302	122.71
425.51	91.99
425.718	147.28
425.925	38.74
426.133	108.37
426.341	204.63
426.548	26.45
426.756	1.88
426.964	79.7
427.171	135
427.379	94.04
427.586	102.23
427.794	73.56
428.001	79.7
428.209	26.45
428.417	165.71
428.624	122.71
428.832	147.28
429.039	147.28
429.247	173.91
429.454	100.18
429.662	223.06
429.869	98.13
430.076	112.47
430.284	120.66
430.491	249.68
430.699	190.29
430.906	221.01
431.114	149.33
431.321	206.67
431.528	122.71
431.736	102.23
431.943	153.43
432.15	264.02
432.358	149.33
432.565	284.5
432.772	-14.51
432.979	245.59
433.187	163.67
433.394	249.68
433.601	216.91
433.808	266.07
434.016	206.67
434.223	282.45
434.43	266.07
434.637	268.11
434.844	255.83
435.052	261.97
435.259	278.35
435.466	284.5
435.673	259.92
435.88	331.6
436.087	360.27
436.294	399.18
436.501	372.56
436.708	284.5
436.915	345.94
437.122	431.95
437.329	268.11
437.537	345.94
437.743	378.7
437.95	438.09
438.157	456.53
438.364	464.72
438.571	474.96
438.778	485.2
438.985	554.83
439.192	628.56
439.399	462.67
439.606	587.6
439.813	569.16
440.02	667.47
440.227	667.47
440.433	679.75
440.64	644.94
440.847	528.21
441.054	626.51
441.261	808.78
441.467	696.14
441.674	671.56
441.881	810.82
442.088	702.28
442.294	821.06
442.501	798.54
442.708	839.5
442.914	866.12
443.121	958.28
443.328	937.8
443.534	1068.87
443.741	982.85
443.948	862.02
444.154	1048.39
444.361	1318.72
444.568	1165.12
444.774	1230.66
444.981	1206.08
445.187	1339.2
445.394	1417.02
445.6	1402.69
445.807	1521.47
446.013	1388.35
446.22	1455.94
446.426	1558.33
446.633	1707.84
446.839	1847.1
447.046	1677.12
447.252	1916.73
447.459	1861.43
447.665	1908.54
447.871	2072.37
448.078	2146.1
448.284	2019.13
448.491	2354.99
448.697	2314.03
448.903	2410.29
449.11	2475.82
449.316	2459.44
449.522	2729.77
449.728	2809.64
449.935	2826.03
450.141	2895.66
450.347	3094.31
450.553	3110.69
450.76	3172.13
450.966	3264.29
451.172	3426.08
451.378	3657.5
451.584	3725.08
451.791	3895.07
451.997	3956.5
452.203	4185.88
452.409	4445.97
452.615	4484.88
452.821	4280.08
453.027	4351.76
453.233	5023.5
453.44	4718.35
453.646	5068.55
453.852	5388.04
454.058	5478.15
454.264	5670.65
454.47	6166.26
454.676	6002.43
454.882	6641.39
455.088	6389.49
455.294	6629.1
455.5	7214.82
455.705	7530.21
455.911	7532.26
456.117	7821.02
456.323	7950.04
456.529	8019.67
456.735	9000.65
456.941	9014.99
457.147	9494.21
457.352	9504.45
457.558	9782.98
457.764	10563.25
457.97	10718.9
458.176	11013.81
458.381	11806.37
458.587	12105.37
458.793	12570.26
458.999	12404.38
459.204	14055.04
459.41	14540.41
459.616	14286.46
459.821	15279.72
460.027	15674.98
460.233	16455.26
460.438	16748.12
460.644	17765.96
460.85	17628.74
461.055	18202.18
461.261	19385.9
461.466	19072.56
461.672	19349.04
461.878	21714.44
462.083	21067.28
462.289	22142.47
462.494	22803.96
462.7	22789.63
462.905	23182.84
463.111	25013.72
463.316	26219.97
463.522	26813.88
463.727	27848.11
463.932	28865.95
464.138	29648.27
464.343	30553.48
464.549	31118.71
464.754	32824.67
464.959	34006.35
465.165	34530.63
465.37	34553.16
465.575	34411.85
465.781	36437.29
465.986	37852.44
466.191	36957.47
466.397	37475.61
466.602	36570.41
466.807	38558.98
467.012	39136.51
467.218	40248.56
467.423	40076.53
467.628	41362.65
467.833	43482.3
468.038	43029.7
468.244	42167.51
468.449	44106.93
468.654	43105.48
468.859	42935.49
