Data from USB4F104151__244__11-19-54-337.txt Node

Date: Wed Feb 26 11:19:54 EST 2025
User: louis
Spectrometer: USB4F10415
Trigger mode: 4
Integration Time (sec): 1.000000E-1
Scans to average: 1
Electric dark correction enabled: true
Nonlinearity correction enabled: false
Boxcar width: 0
XAxis mode: Wavelengths
Number of Pixels in Spectrum: 3648
>>>>>Begin Spectral Data<<<<<
178.204	-411.64
178.424	-411.64
178.644	-411.64
178.864	-430.07
179.084	-421.88
179.304	-22.53
179.524	-4.1
179.744	24.58
179.964	61.44
180.184	34.82
180.404	-47.1
180.624	-51.2
180.844	36.86
181.064	-75.77
181.283	55.3
181.503	-73.73
181.723	61.44
181.943	-51.2
182.163	145.41
182.383	-53.25
182.602	43.01
182.822	118.78
183.042	-28.67
183.262	-14.34
183.482	38.91
183.701	34.82
183.921	2.05
184.141	-36.86
184.361	75.77
184.58	0
184.8	0
185.02	-57.34
185.239	75.77
185.459	-49.15
185.679	55.3
185.898	-126.97
186.118	-8.19
186.338	-22.53
186.557	49.15
186.777	-47.1
186.997	-24.58
187.216	4.1
187.436	137.21
187.655	75.77
187.875	55.3
188.095	102.4
188.314	69.63
188.534	55.3
188.753	-79.87
188.973	118.78
189.192	176.13
189.412	-20.48
189.631	32.77
189.851	-6.14
190.07	124.93
190.29	-40.96
190.509	24.58
190.729	28.67
190.948	137.21
191.168	313.34
191.387	28.67
191.607	-14.34
191.826	-24.58
192.045	-12.29
192.265	0
192.484	100.35
192.704	2.05
192.923	2.05
193.142	163.84
193.362	22.53
193.581	118.78
193.8	36.86
194.02	61.44
194.239	55.3
194.458	61.44
194.678	-6.14
194.897	-26.62
195.116	102.4
195.335	71.68
195.555	118.78
195.774	47.1
195.993	45.06
196.212	24.58
196.432	-6.14
196.651	8.19
196.87	12.29
197.089	176.13
197.308	71.68
197.528	61.44
197.747	-67.58
197.966	137.21
198.185	155.65
198.404	-86.01
198.623	65.54
198.842	73.73
199.062	124.93
199.281	20.48
199.5	18.43
199.719	40.96
199.938	36.86
200.157	55.3
200.376	143.36
200.595	112.64
200.814	47.1
201.033	40.96
201.252	77.82
201.471	86.01
201.69	83.97
201.909	26.62
202.128	2.05
202.347	61.44
202.566	32.77
202.785	-28.67
203.004	-2.05
203.223	206.84
203.442	14.34
203.661	-57.34
203.879	43.01
204.098	161.79
204.317	16.38
204.536	73.73
204.755	79.87
204.974	43.01
205.193	16.38
205.411	135.17
205.63	114.69
205.849	45.06
206.068	59.39
206.287	10.24
206.505	186.37
206.724	55.3
206.943	-28.67
207.162	-20.48
207.381	100.35
207.599	71.68
207.818	86.01
208.037	-8.19
208.255	-32.77
208.474	36.86
208.693	40.96
208.911	30.72
209.13	133.12
209.349	71.68
209.567	63.49
209.786	53.25
210.005	12.29
210.223	20.48
210.442	-86.01
210.661	-18.43
210.879	47.1
211.098	34.82
211.316	43.01
211.535	73.73
211.753	49.15
211.972	98.3
212.191	-40.96
212.409	-18.43
212.628	75.77
212.846	-55.3
213.065	67.58
213.283	110.59
213.502	-12.29
213.72	28.67
213.938	20.48
214.157	40.96
214.375	83.97
214.594	-6.14
214.812	61.44
215.031	-20.48
215.249	-6.14
215.467	38.91
215.686	59.39
215.904	38.91
216.122	18.43
216.341	71.68
216.559	83.97
216.778	83.97
216.996	116.73
217.214	6.14
217.432	-38.91
217.651	-100.35
217.869	65.54
218.087	26.62
218.306	14.34
218.524	4.1
218.742	0
218.96	67.58
219.179	-2.05
219.397	-4.1
219.615	215.04
219.833	88.06
220.051	6.14
220.27	65.54
220.488	90.11
220.706	90.11
220.924	-18.43
221.142	-57.34
221.36	53.25
221.578	131.07
221.796	51.2
222.015	92.16
222.233	86.01
222.451	120.83
222.669	-43.01
222.887	6.14
223.105	-38.91
223.323	34.82
223.541	-20.48
223.759	-2.05
223.977	40.96
224.195	165.89
224.413	34.82
224.631	47.1
224.849	94.21
225.067	174.08
225.285	-2.05
225.503	4.1
225.721	-77.82
225.939	12.29
226.157	61.44
226.375	210.94
226.592	-28.67
226.81	0
227.028	-14.34
227.246	90.11
227.464	57.34
227.682	69.63
227.9	69.63
228.117	-8.19
228.335	104.45
228.553	24.58
228.771	34.82
228.989	20.48
229.206	112.64
229.424	2.05
229.642	-49.15
229.86	-51.2
230.077	167.93
230.295	36.86
230.513	116.73
230.731	-2.05
230.948	120.83
231.166	108.54
231.384	30.72
231.601	-6.14
231.819	190.46
232.037	-94.21
232.254	-32.77
232.472	18.43
232.689	-53.25
232.907	88.06
233.125	-4.1
233.342	-43.01
233.56	-43.01
233.777	-34.82
233.995	-22.53
234.213	36.86
234.43	10.24
234.648	79.87
234.865	0
235.083	53.25
235.3	26.62
235.518	112.64
235.735	118.78
235.953	34.82
236.17	53.25
236.388	-22.53
236.605	16.38
236.822	34.82
237.04	120.83
237.257	30.72
237.475	-63.49
237.692	61.44
237.909	36.86
238.127	-55.3
238.344	108.54
238.562	73.73
238.779	-75.77
238.996	-47.1
239.214	90.11
239.431	40.96
239.648	34.82
239.865	100.35
240.083	45.06
240.3	-79.87
240.517	-6.14
240.735	-4.1
240.952	69.63
241.169	65.54
241.386	47.1
241.603	-4.1
241.821	-77.82
242.038	24.58
242.255	0
242.472	-4.1
242.689	53.25
242.907	112.64
243.124	24.58
243.341	-10.24
243.558	-28.67
243.775	-32.77
243.992	-55.3
244.209	51.2
244.426	77.82
244.643	49.15
244.86	12.29
245.078	61.44
245.295	2.05
245.512	45.06
245.729	24.58
245.946	131.07
246.163	45.06
246.38	34.82
246.597	122.88
246.814	65.54
247.031	32.77
247.248	63.49
247.464	28.67
247.681	61.44
247.898	69.63
248.115	12.29
248.332	-34.82
248.549	124.93
248.766	55.3
248.983	-10.24
249.2	75.77
249.417	65.54
249.633	-30.72
249.85	120.83
250.067	-6.14
250.284	63.49
250.501	90.11
250.717	45.06
250.934	-43.01
251.151	20.48
251.368	63.49
251.585	36.86
251.801	-73.73
252.018	-22.53
252.235	163.84
252.451	-43.01
252.668	65.54
252.885	90.11
253.102	49.15
253.318	-53.25
253.535	16.38
253.752	-26.62
253.968	-30.72
254.185	-38.91
254.401	6.14
254.618	71.68
254.835	24.58
255.051	122.88
255.268	49.15
255.484	88.06
255.701	-22.53
255.917	112.64
256.134	-63.49
256.351	-12.29
256.567	-24.58
256.784	24.58
257	10.24
257.217	98.3
257.433	149.5
257.65	77.82
257.866	135.17
258.082	20.48
258.299	4.1
258.515	30.72
258.732	-36.86
258.948	-43.01
259.165	-8.19
259.381	-63.49
259.597	59.39
259.814	-43.01
260.03	-18.43
260.246	28.67
260.463	98.3
260.679	163.84
260.895	28.67
261.112	88.06
261.328	14.34
261.544	-18.43
261.761	133.12
261.977	-4.1
262.193	-24.58
262.409	92.16
262.626	67.58
262.842	45.06
263.058	-55.3
263.274	116.73
263.49	96.25
263.707	94.21
263.923	28.67
264.139	-75.77
264.355	49.15
264.571	55.3
264.787	102.4
265.004	139.26
265.22	45.06
265.436	-47.1
265.652	67.58
265.868	30.72
266.084	-34.82
266.3	18.43
266.516	-77.82
266.732	137.21
266.948	16.38
267.164	14.34
267.38	75.77
267.596	45.06
267.812	155.65
268.028	36.86
268.244	-2.05
268.46	90.11
268.676	40.96
268.892	43.01
269.108	-81.92
269.324	-47.1
269.54	-77.82
269.756	67.58
269.972	-75.77
270.188	30.72
270.403	-59.39
270.619	22.53
270.835	73.73
271.051	79.87
271.267	55.3
271.483	-22.53
271.698	120.83
271.914	90.11
272.13	4.1
272.346	14.34
272.562	63.49
272.777	67.58
272.993	47.1
273.209	-26.62
273.425	75.77
273.64	-55.3
273.856	81.92
274.072	-28.67
274.287	28.67
274.503	98.3
274.719	40.96
274.934	-71.68
275.15	-20.48
275.366	14.34
275.581	-38.91
275.797	6.14
276.012	159.74
276.228	26.62
276.444	6.14
276.659	131.07
276.875	2.05
277.09	-14.34
277.306	8.19
277.521	110.59
277.737	59.39
277.952	96.25
278.168	26.62
278.383	20.48
278.599	-8.19
278.814	86.01
279.03	0
279.245	92.16
279.461	-36.86
279.676	73.73
279.892	-88.06
280.107	-34.82
280.322	36.86
280.538	20.48
280.753	-38.91
280.969	112.64
281.184	20.48
281.399	96.25
281.615	18.43
281.83	45.06
282.045	-51.2
282.26	6.14
282.476	32.77
282.691	110.59
282.906	-12.29
283.122	65.54
283.337	-36.86
283.552	12.29
283.767	-45.06
283.983	71.68
284.198	20.48
284.413	-6.14
284.628	-28.67
284.843	4.1
285.058	55.3
285.274	-28.67
285.489	51.2
285.704	114.69
285.919	26.62
286.134	-40.96
286.349	57.34
286.564	6.14
286.779	186.37
286.995	36.86
287.21	-69.63
287.425	90.11
287.64	-18.43
287.855	45.06
288.07	-38.91
288.285	137.21
288.5	116.73
288.715	20.48
288.93	0
289.145	-59.39
289.36	96.25
289.575	-28.67
289.79	94.21
290.004	-120.83
290.219	43.01
290.434	20.48
290.649	-24.58
290.864	-24.58
291.079	10.24
291.294	36.86
291.509	10.24
291.724	4.1
291.938	-67.58
292.153	167.93
292.368	6.14
292.583	2.05
292.798	34.82
293.012	47.1
293.227	86.01
293.442	24.58
293.657	172.03
293.871	172.03
294.086	104.45
294.301	145.41
294.516	145.41
294.73	69.63
294.945	-43.01
295.16	10.24
295.374	98.3
295.589	102.4
295.804	2.05
296.018	77.82
296.233	225.28
296.447	20.48
296.662	2.05
296.877	51.2
297.091	40.96
297.306	77.82
297.52	65.54
297.735	67.58
297.949	79.87
298.164	174.08
298.378	8.19
298.593	-104.45
298.807	-96.25
299.022	-2.05
299.236	141.31
299.451	61.44
299.665	26.62
299.88	-18.43
300.094	53.25
300.309	-14.34
300.523	-4.1
300.737	-34.82
300.952	47.1
301.166	57.34
301.381	-79.87
301.595	-18.43
301.809	38.91
302.024	2.05
302.238	16.38
302.452	-22.53
302.667	12.29
302.881	83.97
303.095	116.73
303.309	47.1
303.524	-16.38
303.738	34.82
303.952	-2.05
304.166	-18.43
304.381	-92.16
304.595	126.97
304.809	-32.77
305.023	-8.19
305.237	-92.16
305.452	-6.14
305.666	67.58
305.88	126.97
306.094	116.73
306.308	14.34
306.522	100.35
306.736	59.39
306.95	73.73
307.164	86.01
307.379	88.06
307.593	126.97
307.807	133.12
308.021	90.11
308.235	108.54
308.449	-122.88
308.663	28.67
308.877	241.66
309.091	18.43
309.305	61.44
309.519	-100.35
309.733	141.31
309.947	-151.55
310.161	135.17
310.374	100.35
310.588	-10.24
310.802	-38.91
311.016	16.38
311.23	26.62
311.444	12.29
311.658	6.14
311.872	126.97
312.085	94.21
312.299	129.02
312.513	180.22
312.727	63.49
312.941	-45.06
313.154	77.82
313.368	-45.06
313.582	8.19
313.796	69.63
314.009	34.82
314.223	153.6
314.437	26.62
314.651	75.77
314.864	-10.24
315.078	-26.62
315.292	-67.58
315.505	-8.19
315.719	28.67
315.933	26.62
316.146	-22.53
316.36	12.29
316.573	122.88
316.787	36.86
317.001	45.06
317.214	20.48
317.428	24.58
317.641	-34.82
317.855	-28.67
318.068	34.82
318.282	61.44
318.495	182.27
318.709	98.3
318.922	-38.91
319.136	182.27
319.349	77.82
319.563	-40.96
319.776	38.91
319.99	-55.3
320.203	147.45
320.417	43.01
320.63	51.2
320.843	159.74
321.057	47.1
321.27	73.73
321.483	155.65
321.697	116.73
321.91	30.72
322.124	108.54
322.337	88.06
322.55	-43.01
322.763	22.53
322.977	22.53
323.19	-8.19
323.403	38.91
323.617	55.3
323.83	40.96
324.043	26.62
324.256	88.06
324.469	-45.06
324.683	86.01
324.896	20.48
325.109	-10.24
325.322	-57.34
325.535	116.73
325.748	22.53
325.962	-18.43
326.175	-53.25
326.388	-38.91
326.601	53.25
326.814	4.1
327.027	36.86
327.24	122.88
327.453	-77.82
327.666	18.43
327.879	118.78
328.092	135.17
328.305	16.38
328.518	-30.72
328.731	53.25
328.944	-53.25
329.157	43.01
329.37	-12.29
329.583	188.41
329.796	65.54
330.009	-61.44
330.222	36.86
330.435	-12.29
330.648	120.83
330.861	28.67
331.073	106.49
331.286	43.01
331.499	55.3
331.712	-10.24
331.925	-16.38
332.138	22.53
332.35	94.21
332.563	0
332.776	71.68
332.989	-38.91
333.202	-30.72
333.414	30.72
333.627	-6.14
333.84	-26.62
334.053	-18.43
334.265	59.39
334.478	-55.3
334.691	-51.2
334.903	-2.05
335.116	-26.62
335.329	30.72
335.541	86.01
335.754	178.17
335.966	-20.48
336.179	8.19
336.392	4.1
336.604	51.2
336.817	36.86
337.029	88.06
337.242	18.43
337.454	96.25
337.667	53.25
337.88	210.94
338.092	100.35
338.305	71.68
338.517	47.1
338.729	69.63
338.942	100.35
339.154	24.58
339.367	-43.01
339.579	26.62
339.792	10.24
340.004	106.49
340.217	-24.58
340.429	77.82
340.641	-38.91
340.854	-40.96
341.066	-53.25
341.278	71.68
341.491	159.74
341.703	36.86
341.915	-32.77
342.128	51.2
342.34	59.39
342.552	-57.34
342.764	-36.86
342.977	-4.1
343.189	104.45
343.401	-26.62
343.613	-38.91
343.826	30.72
344.038	-28.67
344.25	77.82
344.462	-20.48
344.674	57.34
344.886	90.11
345.099	30.72
345.311	92.16
345.523	-45.06
345.735	6.14
345.947	-4.1
346.159	-18.43
346.371	-38.91
346.583	12.29
346.795	172.03
347.007	0
347.219	69.63
347.431	79.87
347.643	137.21
347.855	-14.34
348.067	67.58
348.279	-26.62
348.491	57.34
348.703	79.87
348.915	-12.29
349.127	-75.77
349.339	-8.19
349.551	-30.72
349.763	63.49
349.975	40.96
350.187	102.4
350.399	112.64
350.61	90.11
350.822	20.48
351.034	90.11
351.246	100.35
351.458	20.48
351.669	69.63
351.881	79.87
352.093	83.97
352.305	131.07
352.517	55.3
352.728	112.64
352.94	55.3
353.152	14.34
353.363	-24.58
353.575	40.96
353.787	147.45
353.999	67.58
354.21	122.88
354.422	-49.15
354.633	-2.05
354.845	-10.24
355.057	2.05
355.268	38.91
355.48	26.62
355.692	-67.58
355.903	34.82
356.115	16.38
356.326	-75.77
356.538	163.84
356.749	69.63
356.961	102.4
357.172	14.34
357.384	-47.1
357.595	192.51
357.807	4.1
358.018	59.39
358.23	45.06
358.441	133.12
358.653	2.05
358.864	-8.19
359.075	30.72
359.287	116.73
359.498	71.68
359.709	118.78
359.921	65.54
360.132	139.26
360.344	-18.43
360.555	-53.25
360.766	-6.14
360.977	71.68
361.189	110.59
361.4	69.63
361.611	157.69
361.823	186.37
362.034	149.5
362.245	-32.77
362.456	63.49
362.667	47.1
362.879	4.1
363.09	-10.24
363.301	12.29
363.512	18.43
363.723	6.14
363.935	-71.68
364.146	112.64
364.357	26.62
364.568	43.01
364.779	-61.44
364.99	145.41
365.201	-98.3
365.412	186.37
365.623	-49.15
365.834	32.77
366.045	18.43
366.256	126.97
366.467	79.87
366.678	-18.43
366.889	40.96
367.1	-22.53
367.311	53.25
367.522	55.3
367.733	73.73
367.944	71.68
368.155	65.54
368.366	86.01
368.577	81.92
368.788	102.4
368.999	-12.29
369.209	-36.86
369.42	126.97
369.631	210.94
369.842	108.54
370.053	38.91
370.264	51.2
370.474	-12.29
370.685	38.91
370.896	71.68
371.107	81.92
371.317	24.58
371.528	-8.19
371.739	47.1
371.95	43.01
372.16	100.35
372.371	30.72
372.582	53.25
372.792	94.21
373.003	32.77
373.214	65.54
373.424	28.67
373.635	-40.96
373.846	165.89
374.056	24.58
374.267	83.97
374.477	10.24
374.688	14.34
374.898	90.11
375.109	57.34
375.319	63.49
375.53	104.45
375.74	129.02
375.951	14.34
376.161	75.77
376.372	22.53
376.582	32.77
376.793	20.48
377.003	8.19
377.214	6.14
377.424	98.3
377.635	-26.62
377.845	-61.44
378.055	96.25
378.266	-12.29
378.476	10.24
378.686	28.67
378.897	86.01
379.107	77.82
379.317	49.15
379.528	47.1
379.738	131.07
379.948	-129.02
380.158	112.64
380.369	71.68
380.579	34.82
380.789	-36.86
380.999	49.15
381.21	126.97
381.42	135.17
381.63	20.48
381.84	59.39
382.05	65.54
382.261	98.3
382.471	53.25
382.681	-45.06
382.891	106.49
383.101	22.53
383.311	-8.19
383.521	-45.06
383.731	51.2
383.941	83.97
384.151	36.86
384.361	59.39
384.571	45.06
384.781	55.3
384.991	184.32
385.201	227.32
385.411	38.91
385.621	16.38
385.831	2.05
386.041	40.96
386.251	22.53
386.461	104.45
386.671	-34.82
386.881	45.06
387.091	57.34
387.301	100.35
387.511	96.25
387.72	81.92
387.93	163.84
388.14	-16.38
388.35	-12.29
388.56	126.97
388.769	176.13
388.979	61.44
389.189	-8.19
389.399	6.14
389.609	147.45
389.818	129.02
390.028	-49.15
390.238	49.15
390.447	-2.05
390.657	65.54
390.867	-51.2
391.076	-20.48
391.286	6.14
391.496	28.67
391.705	53.25
391.915	90.11
392.125	151.55
392.334	24.58
392.544	143.36
392.753	-59.39
392.963	-32.77
393.172	112.64
393.382	8.19
393.591	212.99
393.801	-8.19
394.01	251.9
394.22	114.69
394.429	-12.29
394.639	-20.48
394.848	-14.34
395.058	53.25
395.267	24.58
395.477	96.25
395.686	100.35
395.895	210.94
396.105	135.17
396.314	116.73
396.524	30.72
396.733	20.48
396.942	145.41
397.152	63.49
397.361	118.78
397.57	-2.05
397.78	43.01
397.989	81.92
398.198	208.89
398.407	43.01
398.617	51.2
398.826	-4.1
399.035	92.16
399.244	131.07
399.453	45.06
399.663	88.06
399.872	55.3
400.081	-43.01
400.29	104.45
400.499	-10.24
400.708	65.54
400.917	53.25
401.127	10.24
401.336	-30.72
401.545	155.65
401.754	43.01
401.963	139.26
402.172	16.38
402.381	-53.25
402.59	-2.05
402.799	-43.01
403.008	122.88
403.217	51.2
403.426	94.21
403.635	-6.14
403.844	47.1
404.053	-28.67
404.262	-8.19
404.471	190.46
404.68	94.21
404.888	47.1
405.097	22.53
405.306	83.97
405.515	77.82
405.724	59.39
405.933	120.83
406.142	12.29
406.35	90.11
406.559	10.24
406.768	49.15
406.977	112.64
407.185	2.05
407.394	28.67
407.603	-47.1
407.812	108.54
408.02	149.5
408.229	0
408.438	30.72
408.646	-65.53
408.855	49.15
409.064	137.21
409.272	24.58
409.481	63.49
409.69	-55.3
409.898	-20.48
410.107	104.45
410.315	174.08
410.524	-10.24
410.733	96.25
410.941	40.96
411.15	120.83
411.358	94.21
411.567	108.54
411.775	69.63
411.984	53.25
412.192	145.41
412.401	-10.24
412.609	108.54
412.818	86.01
413.026	124.93
413.234	106.49
413.443	59.39
413.651	30.72
413.86	92.16
414.068	137.21
414.276	88.06
414.485	-38.91
414.693	143.36
414.901	94.21
415.11	83.97
415.318	47.1
415.526	-45.06
415.734	122.88
415.943	45.06
416.151	114.69
416.359	47.1
416.567	28.67
416.776	165.89
416.984	108.54
417.192	174.08
417.4	16.38
417.608	-16.38
417.817	-18.43
418.025	112.64
418.233	174.08
418.441	16.38
418.649	-24.58
418.857	73.73
419.065	186.37
419.273	-16.38
419.481	149.5
419.689	-4.1
419.897	14.34
420.105	-16.38
420.313	102.4
420.521	153.6
420.729	215.04
420.937	59.39
421.145	2.05
421.353	75.77
421.561	145.41
421.769	86.01
421.977	18.43
422.185	122.88
422.393	-38.91
422.601	88.06
422.809	112.64
423.017	30.72
423.224	-16.38
423.432	110.59
423.64	108.54
423.848	53.25
424.056	61.44
424.263	176.13
424.471	-32.77
424.679	178.17
424.887	-16.38
425.094	75.77
425.302	178.17
425.51	51.2
425.718	126.97
425.925	92.16
426.133	59.39
426.341	196.61
426.548	79.87
426.756	16.38
426.964	131.07
427.171	43.01
427.379	100.35
427.586	167.93
427.794	155.65
428.001	129.02
428.209	18.43
428.417	225.28
428.624	98.3
428.832	43.01
429.039	86.01
429.247	75.77
429.454	180.22
429.662	147.45
429.869	69.63
430.076	57.34
430.284	137.21
430.491	212.99
430.699	145.41
430.906	227.32
431.114	151.55
431.321	90.11
431.528	110.59
431.736	157.69
431.943	129.02
432.15	149.5
432.358	196.61
432.565	311.29
432.772	26.62
432.979	225.28
433.187	188.41
433.394	305.15
433.601	217.08
433.808	245.76
434.016	299
434.223	225.28
434.43	155.65
434.637	280.57
434.844	315.39
435.052	249.85
435.259	305.15
435.466	288.76
435.673	329.72
435.88	286.72
436.087	282.62
436.294	387.07
436.501	385.02
436.708	309.24
436.915	286.72
437.122	385.02
437.329	280.57
437.537	335.87
437.743	364.54
437.95	505.85
438.157	374.78
438.364	368.63
438.571	425.98
438.778	479.22
438.985	499.7
439.192	423.93
439.399	522.23
439.606	522.23
439.813	591.86
440.02	573.43
440.227	694.26
440.433	620.53
440.64	518.14
440.847	563.19
441.054	653.3
441.261	735.22
441.467	694.26
441.674	591.86
441.881	784.37
442.088	798.71
442.294	831.48
442.501	798.71
442.708	860.15
442.914	847.86
443.121	976.88
443.328	1005.55
443.534	1069.04
443.741	1036.27
443.948	899.06
444.154	1095.66
444.361	1206.25
444.568	1132.53
444.774	1212.4
444.981	1181.68
445.187	1355.76
445.394	1329.13
445.6	1265.64
445.807	1554.41
446.013	1437.67
446.22	1370.09
446.426	1550.31
446.633	1769.44
446.839	1843.17
447.046	1662.95
447.252	1824.74
447.459	1843.17
447.665	1918.95
447.871	1904.61
448.078	2133.98
448.284	2133.98
448.491	2328.54
448.697	2269.15
448.903	2496.47
449.11	2482.14
449.316	2363.36
449.522	2549.72
449.728	2795.48
449.935	2863.06
450.141	2834.39
450.347	3155.92
450.553	2983.89
450.76	3151.82
450.966	3377.1
451.172	3493.83
451.378	3573.71
451.584	3522.51
451.791	3792.84
451.997	3981.25
452.203	4011.97
452.409	4165.57
452.615	4497.34
452.821	4313.02
453.027	4394.94
453.233	4868.02
453.44	4638.65
453.646	5054.39
453.852	5232.56
454.058	5433.26
454.264	5562.28
454.47	5920.68
454.676	5959.59
454.882	6553.5
455.088	6338.46
455.294	6565.79
455.5	7163.79
455.705	7356.3
455.911	7387.02
456.117	7649.16
456.323	7864.2
456.529	8025.99
456.735	8556.41
456.941	9107.32
457.147	9181.04
457.352	9404.27
457.558	9854.83
457.764	10430.3
457.97	10596.19
458.176	11063.13
458.381	11358.03
458.587	11745.1
458.793	12076.87
458.999	12101.45
459.204	13838.12
459.41	14477.09
459.616	14262.05
459.821	14982.94
460.027	15302.42
460.233	16232.2
460.438	16381.7
460.644	17583.86
460.85	17434.36
461.055	18288.36
461.261	19039.97
461.466	18644.71
461.672	18888.42
461.878	21341.88
462.083	20881.09
462.289	21100.22
462.494	22621.86
462.7	22220.46
462.905	22714.02
463.111	24532.62
463.316	25968.24
463.522	26203.76
463.727	27573.85
463.932	28493.39
464.138	29400.64
464.343	30154.29
464.549	30701.1
464.754	32472.59
464.959	33584.64
465.165	34092.54
465.37	33900.03
465.575	33566.21
465.781	36376.02
465.986	37559.75
466.191	36738.51
466.397	36955.6
466.602	36423.12
466.807	38419.89
467.012	38841.78
467.218	39447.97
467.423	39726.5
467.628	40744.34
467.833	42696.05
468.038	41770.37
468.244	41192.84
468.449	43173.23
468.654	42413.43
468.859	42554.74
