Data from USB4F104151__8__10-41-21-889.txt Node

Date: Wed Feb 26 10:41:21 EST 2025
User: louis
Spectrometer: USB4F10415
Trigger mode: 4
Integration Time (sec): 1.000000E-1
Scans to average: 1
Electric dark correction enabled: true
Nonlinearity correction enabled: false
Boxcar width: 0
XAxis mode: Wavelengths
Number of Pixels in Spectrum: 3648
>>>>>Begin Spectral Data<<<<<
178.204	-414.88
178.424	-414.88
178.644	-414.88
178.864	-404.64
179.084	-357.54
179.304	39.76
179.524	-66.73
179.744	-15.53
179.964	127.83
180.184	-46.25
180.404	31.57
180.624	-66.73
180.844	-36.01
181.064	-15.53
181.283	25.43
181.503	-23.72
181.723	45.91
181.943	-62.63
182.163	203.6
182.383	-31.91
182.602	103.25
182.822	148.31
183.042	127.83
183.262	-68.78
183.482	97.11
183.701	88.92
183.921	54.1
184.141	13.14
184.361	76.63
184.58	86.87
184.8	33.62
185.02	45.91
185.239	136.02
185.459	4.95
185.679	172.88
185.898	-52.39
186.118	99.16
186.338	72.53
186.557	129.88
186.777	-44.2
186.997	21.33
187.216	105.3
187.436	176.98
187.655	115.54
187.875	144.21
188.095	-50.35
188.314	160.59
188.534	160.59
188.753	19.29
188.973	68.44
189.192	115.54
189.412	-11.43
189.631	70.48
189.851	123.73
190.07	146.26
190.29	-52.39
190.509	80.72
190.729	33.62
190.948	109.4
191.168	242.51
191.387	66.39
191.607	-81.07
191.826	54.1
192.045	54.1
192.265	-25.77
192.484	105.3
192.704	4.95
192.923	-13.48
193.142	332.62
193.362	156.5
193.581	138.07
193.8	95.06
194.02	70.48
194.239	64.34
194.458	123.73
194.678	-11.43
194.897	4.95
195.116	109.4
195.335	84.82
195.555	88.92
195.774	-27.82
195.993	142.16
196.212	31.57
196.432	-46.25
196.651	4.95
196.87	21.33
197.089	172.88
197.308	136.02
197.528	58.2
197.747	-76.97
197.966	60.24
198.185	74.58
198.404	27.48
198.623	187.22
198.842	144.21
199.062	31.57
199.281	131.92
199.5	84.82
199.719	107.35
199.938	82.77
200.157	82.77
200.376	95.06
200.595	90.96
200.814	17.24
201.033	45.91
201.252	136.02
201.471	107.35
201.69	80.72
201.909	90.96
202.128	82.77
202.347	123.73
202.566	29.52
202.785	-64.68
203.004	-15.53
203.223	215.89
203.442	82.77
203.661	-46.25
203.879	115.54
204.098	99.16
204.317	-3.24
204.536	41.81
204.755	84.82
204.974	144.21
205.193	111.44
205.411	172.88
205.63	95.06
205.849	70.48
206.068	27.48
206.287	11.09
206.505	179.03
206.724	52.05
206.943	-44.2
207.162	9.05
207.381	60.24
207.599	64.34
207.818	25.43
208.037	-44.2
208.255	99.16
208.474	144.21
208.693	187.22
208.911	62.29
209.13	181.07
209.349	109.4
209.567	58.2
209.786	103.25
210.005	90.96
210.223	50
210.442	-58.54
210.661	88.92
210.879	95.06
211.098	103.25
211.316	31.57
211.535	97.11
211.753	121.68
211.972	56.15
212.191	-15.53
212.409	31.57
212.628	-17.58
212.846	0.85
213.065	19.29
213.283	84.82
213.502	82.77
213.72	39.76
213.938	45.91
214.157	62.29
214.375	148.31
214.594	35.67
214.812	70.48
215.031	56.15
215.249	123.73
215.467	84.82
215.686	-36.01
215.904	125.78
216.122	68.44
216.341	197.46
216.559	68.44
216.778	125.78
216.996	176.98
217.214	58.2
217.432	-9.39
217.651	7
217.869	78.68
218.087	82.77
218.306	15.19
218.524	56.15
218.742	35.67
218.96	131.92
219.179	54.1
219.397	54.1
219.615	283.47
219.833	78.68
220.051	-11.43
220.27	88.92
220.488	74.58
220.706	84.82
220.924	39.76
221.142	41.81
221.36	95.06
221.578	54.1
221.796	78.68
222.015	109.4
222.233	72.53
222.451	127.83
222.669	-21.67
222.887	25.43
223.105	29.52
223.323	21.33
223.541	78.68
223.759	27.48
223.977	13.14
224.195	193.36
224.413	52.05
224.631	60.24
224.849	80.72
225.067	226.13
225.285	-3.24
225.503	25.43
225.721	-70.83
225.939	15.19
226.157	47.96
226.375	172.88
226.592	25.43
226.81	31.57
227.028	168.79
227.246	127.83
227.464	72.53
227.682	17.24
227.9	117.59
228.117	80.72
228.335	80.72
228.553	17.24
228.771	25.43
228.989	29.52
229.206	82.77
229.424	41.81
229.642	80.72
229.86	76.63
230.077	138.07
230.295	82.77
230.513	68.44
230.731	115.54
230.948	185.17
231.166	127.83
231.384	47.96
231.601	-31.91
231.819	183.12
232.037	68.44
232.254	2.9
232.472	86.87
232.689	-27.82
232.907	72.53
233.125	37.72
233.342	-13.48
233.56	-44.2
233.777	37.72
233.995	64.34
234.213	58.2
234.43	113.49
234.648	-27.82
234.865	82.77
235.083	0.85
235.3	115.54
235.518	174.93
235.735	162.64
235.953	172.88
236.17	37.72
236.388	41.81
236.605	4.95
236.822	109.4
237.04	105.3
237.257	88.92
237.475	17.24
237.692	35.67
237.909	88.92
238.127	97.11
238.344	66.39
238.562	43.86
238.779	-5.29
238.996	21.33
239.214	37.72
239.431	136.02
239.648	82.77
239.865	111.44
240.083	86.87
240.3	58.2
240.517	23.38
240.735	80.72
240.952	90.96
241.169	29.52
241.386	97.11
241.603	58.2
241.821	-25.77
242.038	121.68
242.255	107.35
242.472	-11.43
242.689	109.4
242.907	103.25
243.124	111.44
243.341	-44.2
243.558	9.05
243.775	54.1
243.992	-1.19
244.209	50
244.426	160.59
244.643	115.54
244.86	-15.53
245.078	136.02
245.295	29.52
245.512	-3.24
245.729	31.57
245.946	80.72
246.163	-36.01
246.38	74.58
246.597	50
246.814	29.52
247.031	70.48
247.248	50
247.464	72.53
247.681	82.77
247.898	15.19
248.115	152.4
248.332	-11.43
248.549	205.65
248.766	164.69
248.983	138.07
249.2	133.97
249.417	162.64
249.633	-21.67
249.85	121.68
250.067	15.19
250.284	64.34
250.501	105.3
250.717	-1.19
250.934	-33.96
251.151	72.53
251.368	82.77
251.585	-3.24
251.801	45.91
252.018	-7.34
252.235	93.01
252.451	-5.29
252.668	45.91
252.885	121.68
253.102	111.44
253.318	4.95
253.535	52.05
253.752	19.29
253.968	33.62
254.185	-87.21
254.401	97.11
254.618	27.48
254.835	-31.91
255.051	174.93
255.268	113.49
255.484	2.9
255.701	9.05
255.917	72.53
256.134	-3.24
256.351	7
256.567	-7.34
256.784	66.39
257	-46.25
257.217	111.44
257.433	115.54
257.65	72.53
257.866	103.25
258.082	-23.72
258.299	50
258.515	31.57
258.732	-40.11
258.948	21.33
259.165	113.49
259.381	2.9
259.597	136.02
259.814	82.77
260.03	23.38
260.246	29.52
260.463	66.39
260.679	179.03
260.895	107.35
261.112	62.29
261.328	62.29
261.544	-9.39
261.761	158.55
261.977	25.43
262.193	-31.91
262.409	66.39
262.626	17.24
262.842	33.62
263.058	-29.87
263.274	23.38
263.49	105.3
263.707	31.57
263.923	181.07
264.139	-31.91
264.355	60.24
264.571	205.65
264.787	107.35
265.004	113.49
265.22	162.64
265.436	39.76
265.652	117.59
265.868	123.73
266.084	25.43
266.3	-1.19
266.516	-11.43
266.732	74.58
266.948	19.29
267.164	31.57
267.38	127.83
267.596	25.43
267.812	205.65
268.028	60.24
268.244	56.15
268.46	76.63
268.676	58.2
268.892	109.4
269.108	-31.91
269.324	31.57
269.54	-38.06
269.756	119.64
269.972	-17.58
270.188	101.2
270.403	19.29
270.619	-15.53
270.835	97.11
271.051	88.92
271.267	-15.53
271.483	-56.49
271.698	95.06
271.914	41.81
272.13	107.35
272.346	-5.29
272.562	60.24
272.777	187.22
272.993	-7.34
273.209	97.11
273.425	21.33
273.64	-9.39
273.856	156.5
274.072	-23.72
274.287	-7.34
274.503	142.16
274.719	172.88
274.934	7
275.15	-68.78
275.366	7
275.581	-72.87
275.797	107.35
276.012	105.3
276.228	50
276.444	50
276.659	99.16
276.875	39.76
277.09	74.58
277.306	15.19
277.521	84.82
277.737	58.2
277.952	84.82
278.168	74.58
278.383	17.24
278.599	90.96
278.814	131.92
279.03	13.14
279.245	183.12
279.461	19.29
279.676	181.07
279.892	-101.55
280.107	13.14
280.322	-23.72
280.538	43.86
280.753	-42.15
280.969	115.54
281.184	78.68
281.399	162.64
281.615	58.2
281.83	90.96
282.045	-36.01
282.26	82.77
282.476	162.64
282.691	60.24
282.906	76.63
283.122	64.34
283.337	50
283.552	111.44
283.767	-52.39
283.983	99.16
284.198	60.24
284.413	93.01
284.628	-70.83
284.843	52.05
285.058	88.92
285.274	80.72
285.489	-33.96
285.704	39.76
285.919	-62.63
286.134	93.01
286.349	70.48
286.564	2.9
286.779	181.07
286.995	19.29
287.21	27.48
287.425	144.21
287.64	11.09
287.855	62.29
288.07	-5.29
288.285	138.07
288.5	164.69
288.715	95.06
288.93	9.05
289.145	25.43
289.36	82.77
289.575	-11.43
289.79	138.07
290.004	-21.67
290.219	166.74
290.434	54.1
290.649	-40.11
290.864	35.67
291.079	82.77
291.294	-3.24
291.509	86.87
291.724	-27.82
291.938	-46.25
292.153	56.15
292.368	60.24
292.583	115.54
292.798	84.82
293.012	-33.96
293.227	70.48
293.442	-25.77
293.657	144.21
293.871	146.26
294.086	-38.06
294.301	205.65
294.516	119.64
294.73	-3.24
294.945	4.95
295.16	140.12
295.374	213.84
295.589	70.48
295.804	11.09
296.018	84.82
296.233	99.16
296.447	105.3
296.662	29.52
296.877	158.55
297.091	90.96
297.306	64.34
297.52	-46.25
297.735	123.73
297.949	105.3
298.164	93.01
298.378	78.68
298.593	-29.87
298.807	7
299.022	60.24
299.236	166.74
299.451	58.2
299.665	35.67
299.88	11.09
300.094	29.52
300.309	0.85
300.523	56.15
300.737	7
300.952	142.16
301.166	78.68
301.381	33.62
301.595	29.52
301.809	95.06
302.024	37.72
302.238	-29.87
302.452	168.79
302.667	13.14
302.881	154.45
303.095	15.19
303.309	41.81
303.524	-74.92
303.738	93.01
303.952	-101.55
304.166	58.2
304.381	-56.49
304.595	162.64
304.809	-13.48
305.023	43.86
305.237	82.77
305.452	-5.29
305.666	127.83
305.88	131.92
306.094	172.88
306.308	82.77
306.522	179.03
306.736	-44.2
306.95	123.73
307.164	-9.39
307.379	27.48
307.593	140.12
307.807	158.55
308.021	133.97
308.235	101.2
308.449	-50.35
308.663	62.29
308.877	189.27
309.091	17.24
309.305	99.16
309.519	-101.55
309.733	123.73
309.947	-83.11
310.161	140.12
310.374	170.83
310.588	131.92
310.802	21.33
311.016	58.2
311.23	39.76
311.444	-19.63
311.658	117.59
311.872	144.21
312.085	131.92
312.299	168.79
312.513	138.07
312.727	35.67
312.941	21.33
313.154	76.63
313.368	62.29
313.582	-5.29
313.796	58.2
314.009	74.58
314.223	119.64
314.437	41.81
314.651	138.07
314.864	-11.43
315.078	76.63
315.292	-1.19
315.505	97.11
315.719	17.24
315.933	43.86
316.146	97.11
316.36	82.77
316.573	56.15
316.787	119.64
317.001	64.34
317.214	-15.53
317.428	15.19
317.641	-19.63
317.855	39.76
318.068	107.35
318.282	113.49
318.495	142.16
318.709	103.25
318.922	68.44
319.136	211.79
319.349	152.4
319.563	-29.87
319.776	43.86
319.99	-79.02
320.203	95.06
320.417	82.77
320.63	121.68
320.843	152.4
321.057	156.5
321.27	47.96
321.483	125.78
321.697	203.6
321.91	45.91
322.124	107.35
322.337	84.82
322.55	11.09
322.763	54.1
322.977	39.76
323.19	25.43
323.403	27.48
323.617	62.29
323.83	111.44
324.043	33.62
324.256	56.15
324.469	-44.2
324.683	154.45
324.896	45.91
325.109	80.72
325.322	-13.48
325.535	121.68
325.748	103.25
325.962	-9.39
326.175	105.3
326.388	93.01
326.601	80.72
326.814	-1.19
327.027	52.05
327.24	127.83
327.453	-27.82
327.666	78.68
327.879	33.62
328.092	99.16
328.305	39.76
328.518	-60.59
328.731	25.43
328.944	-23.72
329.157	21.33
329.37	37.72
329.583	240.47
329.796	164.69
330.009	-68.78
330.222	154.45
330.435	43.86
330.648	-1.19
330.861	86.87
331.073	95.06
331.286	152.4
331.499	47.96
331.712	-9.39
331.925	11.09
332.138	70.48
332.35	162.64
332.563	62.29
332.776	144.21
332.989	17.24
333.202	50
333.414	95.06
333.627	99.16
333.84	-13.48
334.053	80.72
334.265	-48.3
334.478	15.19
334.691	15.19
334.903	64.34
335.116	41.81
335.329	93.01
335.541	52.05
335.754	207.7
335.966	4.95
336.179	50
336.392	101.2
336.604	47.96
336.817	158.55
337.029	80.72
337.242	64.34
337.454	58.2
337.667	52.05
337.88	181.07
338.092	29.52
338.305	66.39
338.517	-1.19
338.729	156.5
338.942	64.34
339.154	15.19
339.367	-52.39
339.579	152.4
339.792	17.24
340.004	47.96
340.217	25.43
340.429	97.11
340.641	-44.2
340.854	31.57
341.066	58.2
341.278	99.16
341.491	117.59
341.703	45.91
341.915	19.29
342.128	121.68
342.34	35.67
342.552	-36.01
342.764	23.38
342.977	-23.72
343.189	72.53
343.401	103.25
343.613	-76.97
343.826	88.92
344.038	9.05
344.25	101.2
344.462	13.14
344.674	60.24
344.886	50
345.099	60.24
345.311	45.91
345.523	27.48
345.735	-56.49
345.947	109.4
346.159	66.39
346.371	80.72
346.583	11.09
346.795	236.37
347.007	56.15
347.219	76.63
347.431	-7.34
347.643	172.88
347.855	13.14
348.067	209.75
348.279	-27.82
348.491	25.43
348.703	142.16
348.915	13.14
349.127	-27.82
349.339	43.86
349.551	13.14
349.763	166.74
349.975	-21.67
350.187	115.54
350.399	97.11
350.61	119.64
350.822	17.24
351.034	140.12
351.246	88.92
351.458	27.48
351.669	72.53
351.881	82.77
352.093	162.64
352.305	113.49
352.517	23.38
352.728	140.12
352.94	70.48
353.152	138.07
353.363	-25.77
353.575	121.68
353.787	209.75
353.999	113.49
354.21	228.18
354.422	0.85
354.633	66.39
354.845	50
355.057	41.81
355.268	-1.19
355.48	136.02
355.692	-7.34
355.903	74.58
356.115	31.57
356.326	-93.35
356.538	86.87
356.749	82.77
356.961	107.35
357.172	23.38
357.384	0.85
357.595	230.23
357.807	-40.11
358.018	33.62
358.23	60.24
358.441	197.46
358.653	111.44
358.864	25.43
359.075	11.09
359.287	86.87
359.498	115.54
359.709	82.77
359.921	11.09
360.132	140.12
360.344	99.16
360.555	76.63
360.766	68.44
360.977	37.72
361.189	60.24
361.4	-9.39
361.611	62.29
361.823	187.22
362.034	68.44
362.245	-89.26
362.456	23.38
362.667	144.21
362.879	-1.19
363.09	105.3
363.301	-15.53
363.512	21.33
363.723	-31.91
363.935	-23.72
364.146	148.31
364.357	-40.11
364.568	70.48
364.779	-83.11
364.99	95.06
365.201	21.33
365.412	156.5
365.623	-97.45
365.834	47.96
366.045	86.87
366.256	117.59
366.467	181.07
366.678	74.58
366.889	39.76
367.1	4.95
367.311	97.11
367.522	-21.67
367.733	142.16
367.944	105.3
368.155	37.72
368.366	39.76
368.577	193.36
368.788	205.65
368.999	-19.63
369.209	29.52
369.42	195.41
369.631	158.55
369.842	80.72
370.053	19.29
370.264	150.36
370.474	-29.87
370.685	117.59
370.896	-70.83
371.107	123.73
371.317	74.58
371.528	-25.77
371.739	150.36
371.95	90.96
372.16	72.53
372.371	-40.11
372.582	52.05
372.792	138.07
373.003	82.77
373.214	103.25
373.424	15.19
373.635	66.39
373.846	162.64
374.056	62.29
374.267	56.15
374.477	33.62
374.688	-54.44
374.898	47.96
375.109	72.53
375.319	47.96
375.53	107.35
375.74	93.01
375.951	88.92
376.161	70.48
376.372	76.63
376.582	-13.48
376.793	219.99
377.003	-44.2
377.214	27.48
377.424	50
377.635	78.68
377.845	2.9
378.055	121.68
378.266	-27.82
378.476	2.9
378.686	54.1
378.897	97.11
379.107	54.1
379.317	160.59
379.528	17.24
379.738	68.44
379.948	-109.74
380.158	195.41
380.369	54.1
380.579	125.78
380.789	97.11
380.999	109.4
381.21	162.64
381.42	170.83
381.63	9.05
381.84	119.64
382.05	78.68
382.261	107.35
382.471	113.49
382.681	-40.11
382.891	199.51
383.101	66.39
383.311	-3.24
383.521	66.39
383.731	58.2
383.941	66.39
384.151	21.33
384.361	29.52
384.571	13.14
384.781	70.48
384.991	248.66
385.201	142.16
385.411	35.67
385.621	105.3
385.831	82.77
386.041	9.05
386.251	68.44
386.461	119.64
386.671	50
386.881	119.64
387.091	90.96
387.301	101.2
387.511	0.85
387.72	90.96
387.93	115.54
388.14	-66.73
388.35	45.91
388.56	146.26
388.769	123.73
388.979	62.29
389.189	-48.3
389.399	-9.39
389.609	113.49
389.818	97.11
390.028	88.92
390.238	56.15
390.447	13.14
390.657	62.29
390.867	37.72
391.076	-70.83
391.286	99.16
391.496	97.11
391.705	62.29
391.915	78.68
392.125	179.03
392.334	41.81
392.544	197.46
392.753	90.96
392.963	27.48
393.172	50
393.382	47.96
393.591	191.31
393.801	60.24
394.01	115.54
394.22	15.19
394.429	31.57
394.639	54.1
394.848	185.17
395.058	154.45
395.267	15.19
395.477	146.26
395.686	78.68
395.895	256.85
396.105	172.88
396.314	9.05
396.524	84.82
396.733	97.11
396.942	80.72
397.152	78.68
397.361	156.5
397.57	78.68
397.78	166.74
397.989	136.02
398.198	166.74
398.407	33.62
398.617	127.83
398.826	103.25
399.035	17.24
399.244	148.31
399.453	64.34
399.663	74.58
399.872	82.77
400.081	-25.77
400.29	133.97
400.499	47.96
400.708	191.31
400.917	41.81
401.127	15.19
401.336	64.34
401.545	234.32
401.754	162.64
401.963	105.3
402.172	74.58
402.381	-15.53
402.59	66.39
402.799	148.31
403.008	142.16
403.217	95.06
403.426	111.44
403.635	-17.58
403.844	93.01
404.053	23.38
404.262	13.14
404.471	133.97
404.68	78.68
404.888	25.43
405.097	45.91
405.306	33.62
405.515	107.35
405.724	70.48
405.933	52.05
406.142	60.24
406.35	115.54
406.559	58.2
406.768	56.15
406.977	174.93
407.185	78.68
407.394	0.85
407.603	-48.3
407.812	119.64
408.02	162.64
408.229	74.58
408.438	86.87
408.646	-109.74
408.855	-7.34
409.064	47.96
409.272	105.3
409.481	68.44
409.69	0.85
409.898	19.29
410.107	152.4
410.315	78.68
410.524	4.95
410.733	84.82
410.941	78.68
411.15	70.48
411.358	150.36
411.567	156.5
411.775	93.01
411.984	54.1
412.192	107.35
412.401	-11.43
412.609	185.17
412.818	131.92
413.026	152.4
413.234	84.82
413.443	31.57
413.651	-9.39
413.86	56.15
414.068	156.5
414.276	166.74
414.485	74.58
414.693	236.37
414.901	138.07
415.11	156.5
415.318	74.58
415.526	144.21
415.734	191.31
415.943	84.82
416.151	232.27
416.359	70.48
416.567	84.82
416.776	66.39
416.984	154.45
417.192	211.79
417.4	88.92
417.608	45.91
417.817	-60.59
418.025	152.4
418.233	146.26
418.441	-9.39
418.649	-5.29
418.857	84.82
419.065	215.89
419.273	82.77
419.481	88.92
419.689	62.29
419.897	74.58
420.105	39.76
420.313	142.16
420.521	115.54
420.729	88.92
420.937	58.2
421.145	-23.72
421.353	90.96
421.561	148.31
421.769	99.16
421.977	27.48
422.185	109.4
422.393	86.87
422.601	111.44
422.809	54.1
423.017	68.44
423.224	95.06
423.432	146.26
423.64	148.31
423.848	95.06
424.056	93.01
424.263	160.59
424.471	21.33
424.679	148.31
424.887	31.57
425.094	224.08
425.302	121.68
425.51	84.82
425.718	117.59
425.925	99.16
426.133	23.38
426.341	238.42
426.548	80.72
426.756	33.62
426.964	88.92
427.171	121.68
427.379	119.64
427.586	103.25
427.794	142.16
428.001	283.47
428.209	86.87
428.417	181.07
428.624	115.54
428.832	103.25
429.039	166.74
429.247	209.75
429.454	119.64
429.662	164.69
429.869	211.79
430.076	152.4
430.284	168.79
430.491	262.99
430.699	60.24
430.906	230.23
431.114	207.7
431.321	197.46
431.528	183.12
431.736	168.79
431.943	185.17
432.15	168.79
432.358	262.99
432.565	318.29
432.772	37.72
432.979	228.18
433.187	142.16
433.394	232.27
433.601	168.79
433.808	244.56
434.016	281.43
434.223	207.7
434.43	273.23
434.637	273.23
434.844	377.68
435.052	267.09
435.259	320.34
435.466	316.24
435.673	279.38
435.88	328.53
436.087	365.39
436.294	430.93
436.501	361.3
436.708	332.62
436.915	330.58
437.122	408.4
437.329	240.47
437.537	328.53
437.743	387.92
437.95	475.98
438.157	512.85
438.364	344.91
438.571	478.03
438.778	523.09
438.985	453.45
439.192	650.06
439.399	516.94
439.606	514.89
439.813	547.66
440.02	719.69
440.227	695.11
440.433	695.11
440.64	650.06
440.847	623.44
441.054	705.35
441.261	758.6
441.467	740.17
441.674	645.96
441.881	678.73
442.088	744.27
442.294	738.12
442.501	830.28
442.708	848.71
442.914	887.62
443.121	1004.36
443.328	1016.65
443.534	1014.6
443.741	1026.89
443.948	957.25
444.154	1090.37
444.361	1364.8
444.568	1209.15
444.774	1270.59
444.981	1168.2
445.187	1372.99
445.394	1293.12
445.6	1387.33
445.807	1637.18
446.013	1446.72
446.22	1397.57
446.426	1612.6
446.633	1698.62
446.839	1962.81
447.046	1600.32
447.252	1973.05
447.459	1862.46
447.665	1893.18
447.871	2036.53
448.078	2231.09
448.284	2192.18
448.491	2403.12
448.697	2347.83
448.903	2583.34
449.11	2493.23
449.316	2515.76
449.522	2798.38
449.728	2794.28
449.935	2865.96
450.141	3048.23
450.347	3195.68
450.553	3203.88
450.76	3228.45
450.966	3304.23
451.172	3527.46
451.378	3660.57
451.584	3687.2
451.791	3902.23
451.997	3928.86
452.203	4270.87
452.409	4428.56
452.615	4623.12
452.821	4557.58
453.027	4487.95
453.233	5085.96
453.44	4963.08
453.646	5092.1
453.852	5344
454.058	5473.03
454.264	5692.16
454.47	6263.54
454.676	6193.91
454.882	6861.55
455.088	6460.15
455.294	6722.29
455.5	7211.75
455.705	7584.48
455.911	7813.85
456.117	7709.41
456.323	8049.37
456.529	8141.53
456.735	8905.42
456.941	9007.82
457.147	9618.11
457.352	9702.08
457.558	9900.73
457.764	10631.86
457.97	11043.5
458.176	11358.89
458.381	11917.98
458.587	12149.4
458.793	12538.52
458.999	12704.4
459.204	14445.18
459.41	14793.33
459.616	14760.56
459.821	15458.92
460.027	16071.26
460.233	16976.47
460.438	16781.91
460.644	17672.78
460.85	17957.44
461.055	18561.59
461.261	19503.66
461.466	19311.15
461.672	19540.52
461.878	22061.57
462.083	21543.44
462.289	22225.41
462.494	22884.86
462.7	23357.94
462.905	23427.57
463.111	25213.4
463.316	26876.35
463.522	26857.92
463.727	28250.53
463.932	28850.59
464.138	29727.12
464.343	31048.06
464.549	31349.11
464.754	33468.76
464.959	34390.34
465.165	34967.87
465.37	34851.14
465.575	35164.48
465.781	37062.94
465.986	38373.64
466.191	37927.19
466.397	38140.18
466.602	37116.19
466.807	39155.97
467.012	39872.76
467.218	40466.67
467.423	40657.13
467.628	42035.41
467.833	43632.83
468.038	42975.43
468.244	42137.81
468.449	44427.44
468.654	43970.74
