Data from USB4F104151__196__11-05-27-032.txt Node

Date: Wed Feb 26 11:05:27 EST 2025
User: louis
Spectrometer: USB4F10415
Trigger mode: 4
Integration Time (sec): 1.000000E-1
Scans to average: 1
Electric dark correction enabled: true
Nonlinearity correction enabled: false
Boxcar width: 0
XAxis mode: Wavelengths
Number of Pixels in Spectrum: 3648
>>>>>Begin Spectral Data<<<<<
178.204	-370
178.424	-370
178.644	-370
178.864	-349.52
179.084	-343.38
179.304	4.78
179.524	-15.7
179.744	33.45
179.964	17.07
180.184	-15.7
180.404	88.75
180.624	6.83
180.844	-19.8
181.064	-116.05
181.283	17.07
181.503	-11.61
181.723	10.92
181.943	-71
182.163	252.58
182.383	2.73
182.602	82.6
182.822	160.42
183.042	53.93
183.262	15.02
183.482	-5.46
183.701	-9.56
183.921	51.88
184.141	-15.7
184.361	178.86
184.58	109.22
184.8	62.12
185.02	-1.37
185.239	86.7
185.459	66.22
185.679	96.94
185.898	-77.14
186.118	2.73
186.338	82.6
186.557	115.37
186.777	-103.76
186.997	-13.65
187.216	86.7
187.436	240.3
187.655	-17.75
187.875	53.93
188.095	68.27
188.314	137.9
188.534	125.61
188.753	-13.65
188.973	166.57
189.192	197.29
189.412	19.11
189.631	49.83
189.851	31.4
190.07	127.66
190.29	17.07
190.509	-5.46
190.729	39.59
190.948	187.05
191.168	213.67
191.387	111.27
191.607	141.99
191.826	92.84
192.045	78.51
192.265	-46.42
192.484	148.14
192.704	23.21
192.923	-71
193.142	197.29
193.362	49.83
193.581	133.8
193.8	76.46
194.02	68.27
194.239	133.8
194.458	55.98
194.678	2.73
194.897	19.11
195.116	92.84
195.335	98.99
195.555	76.46
195.774	2.73
195.993	166.57
196.212	109.22
196.432	35.5
196.651	-1.37
196.87	88.75
197.089	195.24
197.308	17.07
197.528	74.41
197.747	-44.37
197.966	49.83
198.185	156.33
198.404	-34.13
198.623	105.13
198.842	131.75
199.062	74.41
199.281	111.27
199.5	82.6
199.719	221.86
199.938	64.17
200.157	78.51
200.376	139.94
200.595	172.71
200.814	64.17
201.033	25.26
201.252	174.76
201.471	19.11
201.69	88.75
201.909	-40.28
202.128	211.62
202.347	90.79
202.566	51.88
202.785	6.83
203.004	-40.28
203.223	266.92
203.442	23.21
203.661	-73.04
203.879	154.28
204.098	191.14
204.317	-50.52
204.536	115.37
204.755	92.84
204.974	88.75
205.193	31.4
205.411	197.29
205.63	101.03
205.849	25.26
206.068	78.51
206.287	-36.18
206.505	144.04
206.724	76.46
206.943	31.4
207.162	35.5
207.381	68.27
207.599	58.03
207.818	43.69
208.037	-7.51
208.255	31.4
208.474	23.21
208.693	125.61
208.911	21.16
209.13	109.22
209.349	31.4
209.567	49.83
209.786	49.83
210.005	148.14
210.223	2.73
210.442	-66.9
210.661	121.51
210.879	6.83
211.098	64.17
211.316	55.98
211.535	43.69
211.753	31.4
211.972	23.21
212.191	-21.85
212.409	88.75
212.628	74.41
212.846	21.16
213.065	98.99
213.283	129.7
213.502	78.51
213.72	55.98
213.938	10.92
214.157	-23.89
214.375	74.41
214.594	-58.71
214.812	0.68
215.031	64.17
215.249	39.59
215.467	58.03
215.686	17.07
215.904	111.27
216.122	64.17
216.341	197.29
216.559	45.74
216.778	23.21
216.996	101.03
217.214	49.83
217.432	64.17
217.651	-17.75
217.869	35.5
218.087	35.5
218.306	-48.47
218.524	23.21
218.742	6.83
218.96	68.27
219.179	51.88
219.397	35.5
219.615	201.38
219.833	49.83
220.051	-21.85
220.27	117.42
220.488	66.22
220.706	105.13
220.924	25.26
221.142	49.83
221.36	127.66
221.578	74.41
221.796	41.64
222.015	23.21
222.233	74.41
222.451	156.33
222.669	-56.66
222.887	72.36
223.105	-23.89
223.323	41.64
223.541	4.78
223.759	68.27
223.977	78.51
224.195	246.44
224.413	152.23
224.631	6.83
224.849	35.5
225.067	283.3
225.285	66.22
225.503	10.92
225.721	-56.66
225.939	117.42
226.157	58.03
226.375	164.52
226.592	37.55
226.81	80.55
227.028	164.52
227.246	117.42
227.464	84.65
227.682	174.76
227.9	23.21
228.117	84.65
228.335	41.64
228.553	88.75
228.771	58.03
228.989	51.88
229.206	23.21
229.424	19.11
229.642	23.21
229.86	-62.8
230.077	119.46
230.295	27.31
230.513	156.33
230.731	53.93
230.948	158.38
231.166	154.28
231.384	-38.23
231.601	27.31
231.819	139.94
232.037	4.78
232.254	-54.61
232.472	2.73
232.689	25.26
232.907	47.79
233.125	6.83
233.342	84.65
233.56	55.98
233.777	35.5
233.995	47.79
234.213	55.98
234.43	129.7
234.648	58.03
234.865	90.79
235.083	58.03
235.3	101.03
235.518	123.56
235.735	107.18
235.953	113.32
236.17	35.5
236.388	-13.65
236.605	47.79
236.822	94.89
237.04	84.65
237.257	29.35
237.475	-3.41
237.692	72.36
237.909	111.27
238.127	12.97
238.344	-3.41
238.562	-7.51
238.779	-34.13
238.996	-68.95
239.214	-3.41
239.431	84.65
239.648	68.27
239.865	78.51
240.083	84.65
240.3	33.45
240.517	8.87
240.735	62.12
240.952	146.09
241.169	66.22
241.386	41.64
241.603	74.41
241.821	8.87
242.038	78.51
242.255	53.93
242.472	-19.8
242.689	127.66
242.907	60.07
243.124	107.18
243.341	39.59
243.558	47.79
243.775	-19.8
243.992	4.78
244.209	98.99
244.426	107.18
244.643	72.36
244.86	45.74
245.078	148.14
245.295	90.79
245.512	96.94
245.729	21.16
245.946	60.07
246.163	8.87
246.38	-9.56
246.597	133.8
246.814	33.45
247.031	15.02
247.248	35.5
247.464	60.07
247.681	107.18
247.898	23.21
248.115	51.88
248.332	-46.42
248.549	117.42
248.766	178.86
248.983	164.52
249.2	92.84
249.417	123.56
249.633	62.12
249.85	53.93
250.067	15.02
250.284	31.4
250.501	113.32
250.717	105.13
250.934	-11.61
251.151	23.21
251.368	27.31
251.585	107.18
251.801	-25.94
252.018	-58.71
252.235	123.56
252.451	-40.28
252.668	72.36
252.885	164.52
253.102	90.79
253.318	101.03
253.535	58.03
253.752	19.11
253.968	74.41
254.185	23.21
254.401	80.55
254.618	123.56
254.835	6.83
255.051	146.09
255.268	86.7
255.484	60.07
255.701	39.59
255.917	90.79
256.134	47.79
256.351	109.22
256.567	-40.28
256.784	68.27
257	-23.89
257.217	90.79
257.433	70.31
257.65	53.93
257.866	160.42
258.082	-42.32
258.299	27.31
258.515	33.45
258.732	0.68
258.948	-50.52
259.165	49.83
259.381	-75.09
259.597	96.94
259.814	-32.08
260.03	90.79
260.246	84.65
260.463	178.86
260.679	123.56
260.895	4.78
261.112	47.79
261.328	115.37
261.544	-21.85
261.761	166.57
261.977	-66.9
262.193	-111.96
262.409	105.13
262.626	43.69
262.842	141.99
263.058	-62.8
263.274	98.99
263.49	45.74
263.707	109.22
263.923	178.86
264.139	-56.66
264.355	58.03
264.571	45.74
264.787	51.88
265.004	187.05
265.22	62.12
265.436	-44.37
265.652	-7.51
265.868	29.35
266.084	15.02
266.3	70.31
266.516	17.07
266.732	21.16
266.948	25.26
267.164	39.59
267.38	150.18
267.596	55.98
267.812	66.22
268.028	131.75
268.244	21.16
268.46	49.83
268.676	-1.37
268.892	162.47
269.108	-19.8
269.324	4.78
269.54	23.21
269.756	105.13
269.972	-21.85
270.188	76.46
270.403	-15.7
270.619	41.64
270.835	101.03
271.051	49.83
271.267	101.03
271.483	-7.51
271.698	31.4
271.914	60.07
272.13	31.4
272.346	2.73
272.562	-1.37
272.777	207.53
272.993	41.64
273.209	-9.56
273.425	84.65
273.64	19.11
273.856	70.31
274.072	-19.8
274.287	10.92
274.503	137.9
274.719	137.9
274.934	-9.56
275.15	-13.65
275.366	68.27
275.581	43.69
275.797	6.83
276.012	98.99
276.228	76.46
276.444	58.03
276.659	148.14
276.875	23.21
277.09	45.74
277.306	23.21
277.521	107.18
277.737	0.68
277.952	123.56
278.168	37.55
278.383	76.46
278.599	10.92
278.814	109.22
279.03	-7.51
279.245	182.95
279.461	-5.46
279.676	103.08
279.892	-46.42
280.107	88.75
280.322	62.12
280.538	150.18
280.753	-58.71
280.969	-13.65
281.184	66.22
281.399	191.14
281.615	31.4
281.83	98.99
282.045	-13.65
282.26	-77.14
282.476	0.68
282.691	121.51
282.906	86.7
283.122	158.38
283.337	25.26
283.552	21.16
283.767	21.16
283.983	121.51
284.198	64.17
284.413	23.21
284.628	-7.51
284.843	152.23
285.058	105.13
285.274	2.73
285.489	70.31
285.704	76.46
285.919	68.27
286.134	21.16
286.349	37.55
286.564	90.79
286.779	127.66
286.995	0.68
287.21	-25.94
287.425	72.36
287.64	27.31
287.855	43.69
288.07	-34.13
288.285	119.46
288.5	162.47
288.715	84.65
288.93	33.45
289.145	88.75
289.36	51.88
289.575	29.35
289.79	125.61
290.004	27.31
290.219	92.84
290.434	-32.08
290.649	35.5
290.864	23.21
291.079	31.4
291.294	66.22
291.509	135.85
291.724	51.88
291.938	10.92
292.153	92.84
292.368	51.88
292.583	53.93
292.798	68.27
293.012	10.92
293.227	68.27
293.442	39.59
293.657	47.79
293.871	176.81
294.086	80.55
294.301	182.95
294.516	94.89
294.73	17.07
294.945	62.12
295.16	27.31
295.374	94.89
295.589	35.5
295.804	17.07
296.018	80.55
296.233	191.14
296.447	86.7
296.662	4.78
296.877	92.84
297.091	94.89
297.306	58.03
297.52	51.88
297.735	76.46
297.949	41.64
298.164	139.94
298.378	49.83
298.593	21.16
298.807	-50.52
299.022	41.64
299.236	96.94
299.451	-17.75
299.665	-9.56
299.88	37.55
300.094	88.75
300.309	-42.32
300.523	80.55
300.737	82.6
300.952	29.35
301.166	101.03
301.381	-25.94
301.595	-25.94
301.809	15.02
302.024	-50.52
302.238	-23.89
302.452	180.9
302.667	55.98
302.881	109.22
303.095	107.18
303.309	-3.41
303.524	60.07
303.738	12.97
303.952	21.16
304.166	98.99
304.381	-79.19
304.595	139.94
304.809	-13.65
305.023	10.92
305.237	19.11
305.452	10.92
305.666	60.07
305.88	121.51
306.094	150.18
306.308	107.18
306.522	111.27
306.736	37.55
306.95	74.41
307.164	62.12
307.379	47.79
307.593	189.1
307.807	141.99
308.021	170.66
308.235	164.52
308.449	-71
308.663	-13.65
308.877	258.73
309.091	-36.18
309.305	154.28
309.519	-77.14
309.733	191.14
309.947	-32.08
310.161	121.51
310.374	78.51
310.588	176.81
310.802	-56.66
311.016	23.21
311.23	62.12
311.444	-34.13
311.658	53.93
311.872	105.13
312.085	174.76
312.299	84.65
312.513	197.29
312.727	8.87
312.941	33.45
313.154	115.37
313.368	72.36
313.582	45.74
313.796	37.55
314.009	25.26
314.223	197.29
314.437	139.94
314.651	62.12
314.864	-5.46
315.078	78.51
315.292	-50.52
315.505	41.64
315.719	45.74
315.933	74.41
316.146	19.11
316.36	23.21
316.573	119.46
316.787	197.29
317.001	123.56
317.214	-50.52
317.428	47.79
317.641	0.68
317.855	-11.61
318.068	68.27
318.282	39.59
318.495	195.24
318.709	94.89
318.922	49.83
319.136	164.52
319.349	45.74
319.563	27.31
319.776	47.79
319.99	-17.75
320.203	33.45
320.417	74.41
320.63	66.22
320.843	150.18
321.057	72.36
321.27	70.31
321.483	131.75
321.697	164.52
321.91	60.07
322.124	62.12
322.337	82.6
322.55	-3.41
322.763	84.65
322.977	43.69
323.19	-68.95
323.403	39.59
323.617	78.51
323.83	113.32
324.043	74.41
324.256	41.64
324.469	-50.52
324.683	144.04
324.896	68.27
325.109	51.88
325.322	-62.8
325.535	41.64
325.748	117.42
325.962	6.83
326.175	78.51
326.388	66.22
326.601	141.99
326.814	72.36
327.027	10.92
327.24	94.89
327.453	-42.32
327.666	82.6
327.879	49.83
328.092	146.09
328.305	135.85
328.518	0.68
328.731	39.59
328.944	2.73
329.157	96.94
329.37	25.26
329.583	193.19
329.796	178.86
330.009	-50.52
330.222	162.47
330.435	168.62
330.648	88.75
330.861	33.45
331.073	180.9
331.286	119.46
331.499	27.31
331.712	-64.85
331.925	51.88
332.138	88.75
332.35	150.18
332.563	8.87
332.776	185
332.989	-19.8
333.202	0.68
333.414	113.32
333.627	31.4
333.84	-48.47
334.053	-30.04
334.265	72.36
334.478	41.64
334.691	125.61
334.903	17.07
335.116	-19.8
335.329	51.88
335.541	60.07
335.754	242.34
335.966	39.59
336.179	21.16
336.392	80.55
336.604	62.12
336.817	176.81
337.029	105.13
337.242	4.78
337.454	45.74
337.667	-9.56
337.88	144.04
338.092	45.74
338.305	62.12
338.517	72.36
338.729	84.65
338.942	92.84
339.154	-44.37
339.367	47.79
339.579	-15.7
339.792	-25.94
340.004	58.03
340.217	64.17
340.429	76.46
340.641	15.02
340.854	8.87
341.066	82.6
341.278	187.05
341.491	144.04
341.703	58.03
341.915	-25.94
342.128	150.18
342.34	-23.89
342.552	-11.61
342.764	53.93
342.977	10.92
343.189	129.7
343.401	84.65
343.613	-21.85
343.826	74.41
344.038	-91.48
344.25	60.07
344.462	-11.61
344.674	101.03
344.886	10.92
345.099	41.64
345.311	101.03
345.523	-34.13
345.735	-46.42
345.947	-17.75
346.159	125.61
346.371	113.32
346.583	51.88
346.795	170.66
347.007	45.74
347.219	80.55
347.431	-40.28
347.643	168.62
347.855	-1.37
348.067	111.27
348.279	27.31
348.491	25.26
348.703	160.42
348.915	31.4
349.127	6.83
349.339	66.22
349.551	19.11
349.763	90.79
349.975	37.55
350.187	119.46
350.399	170.66
350.61	98.99
350.822	-48.47
351.034	49.83
351.246	58.03
351.458	117.42
351.669	86.7
351.881	62.12
352.093	86.7
352.305	74.41
352.517	51.88
352.728	240.3
352.94	51.88
353.152	152.23
353.363	10.92
353.575	58.03
353.787	185
353.999	88.75
354.21	135.85
354.422	17.07
354.633	76.46
354.845	68.27
355.057	6.83
355.268	49.83
355.48	84.65
355.692	-25.94
355.903	58.03
356.115	43.69
356.326	-44.37
356.538	160.42
356.749	64.17
356.961	213.67
357.172	92.84
357.384	15.02
357.595	182.95
357.807	33.45
358.018	-42.32
358.23	39.59
358.441	82.6
358.653	105.13
358.864	-42.32
359.075	10.92
359.287	62.12
359.498	174.76
359.709	111.27
359.921	80.55
360.132	78.51
360.344	21.16
360.555	60.07
360.766	60.07
360.977	4.78
361.189	121.51
361.4	109.22
361.611	70.31
361.823	133.8
362.034	78.51
362.245	-58.71
362.456	49.83
362.667	-3.41
362.879	21.16
363.09	74.41
363.301	49.83
363.512	33.45
363.723	39.59
363.935	62.12
364.146	90.79
364.357	29.35
364.568	39.59
364.779	-21.85
364.99	111.27
365.201	-40.28
365.412	162.47
365.623	-109.91
365.834	82.6
366.045	55.98
366.256	101.03
366.467	135.85
366.678	113.32
366.889	31.4
367.1	41.64
367.311	160.42
367.522	25.26
367.733	111.27
367.944	123.56
368.155	29.35
368.366	219.82
368.577	154.28
368.788	92.84
368.999	-21.85
369.209	4.78
369.42	268.97
369.631	182.95
369.842	51.88
370.053	47.79
370.264	154.28
370.474	-40.28
370.685	60.07
370.896	31.4
371.107	213.67
371.317	139.94
371.528	27.31
371.739	131.75
371.95	98.99
372.16	127.66
372.371	21.16
372.582	129.7
372.792	113.32
373.003	0.68
373.214	41.64
373.424	82.6
373.635	90.79
373.846	144.04
374.056	62.12
374.267	47.79
374.477	96.94
374.688	0.68
374.898	88.75
375.109	135.85
375.319	-1.37
375.53	98.99
375.74	74.41
375.951	49.83
376.161	-3.41
376.372	139.94
376.582	4.78
376.793	70.31
377.003	-58.71
377.214	51.88
377.424	76.46
377.635	68.27
377.845	-42.32
378.055	170.66
378.266	-99.67
378.476	123.56
378.686	121.51
378.897	109.22
379.107	103.08
379.317	64.17
379.528	17.07
379.738	92.84
379.948	-38.23
380.158	131.75
380.369	49.83
380.579	35.5
380.789	37.55
380.999	113.32
381.21	115.37
381.42	178.86
381.63	-3.41
381.84	103.08
382.05	103.08
382.261	105.13
382.471	133.8
382.681	-30.04
382.891	154.28
383.101	-5.46
383.311	-5.46
383.521	-9.56
383.731	64.17
383.941	170.66
384.151	78.51
384.361	35.5
384.571	148.14
384.781	92.84
384.991	191.14
385.201	121.51
385.411	107.18
385.621	96.94
385.831	10.92
386.041	113.32
386.251	43.69
386.461	189.1
386.671	53.93
386.881	49.83
387.091	25.26
387.301	119.46
387.511	115.37
387.72	129.7
387.93	166.57
388.14	-19.8
388.35	101.03
388.56	74.41
388.769	127.66
388.979	92.84
389.189	-11.61
389.399	111.27
389.609	127.66
389.818	96.94
390.028	98.99
390.238	60.07
390.447	35.5
390.657	109.22
390.867	51.88
391.076	-52.56
391.286	74.41
391.496	158.38
391.705	96.94
391.915	125.61
392.125	98.99
392.334	115.37
392.544	176.81
392.753	107.18
392.963	27.31
393.172	113.32
393.382	41.64
393.591	119.46
393.801	-25.94
394.01	162.47
394.22	90.79
394.429	66.22
394.639	60.07
394.848	31.4
395.058	68.27
395.267	62.12
395.477	88.75
395.686	88.75
395.895	185
396.105	170.66
396.314	82.6
396.524	76.46
396.733	-7.51
396.942	123.56
397.152	113.32
397.361	182.95
397.57	88.75
397.78	76.46
397.989	80.55
398.198	158.38
398.407	39.59
398.617	-36.18
398.826	133.8
399.035	39.59
399.244	154.28
399.453	25.26
399.663	76.46
399.872	170.66
400.081	-17.75
400.29	96.94
400.499	76.46
400.708	78.51
400.917	39.59
401.127	37.55
401.336	33.45
401.545	209.58
401.754	152.23
401.963	123.56
402.172	35.5
402.381	-64.85
402.59	55.98
402.799	90.79
403.008	174.76
403.217	64.17
403.426	127.66
403.635	-66.9
403.844	35.5
404.053	-9.56
404.262	70.31
404.471	144.04
404.68	84.65
404.888	103.08
405.097	15.02
405.306	47.79
405.515	76.46
405.724	-19.8
405.933	160.42
406.142	51.88
406.35	39.59
406.559	64.17
406.768	45.74
406.977	164.52
407.185	82.6
407.394	129.7
407.603	-13.65
407.812	189.1
408.02	160.42
408.229	47.79
408.438	101.03
408.646	6.83
408.855	72.36
409.064	129.7
409.272	88.75
409.481	113.32
409.69	-9.56
409.898	-21.85
410.107	103.08
410.315	103.08
410.524	64.17
410.733	137.9
410.941	23.21
411.15	135.85
411.358	51.88
411.567	111.27
411.775	170.66
411.984	150.18
412.192	45.74
412.401	21.16
412.609	207.53
412.818	113.32
413.026	146.09
413.234	70.31
413.443	51.88
413.651	-11.61
413.86	78.51
414.068	152.23
414.276	152.23
414.485	25.26
414.693	211.62
414.901	203.43
415.11	162.47
415.318	12.97
415.526	70.31
415.734	111.27
415.943	51.88
416.151	193.19
416.359	53.93
416.567	141.99
416.776	70.31
416.984	141.99
417.192	236.2
417.4	-5.46
417.608	43.69
417.817	-30.04
418.025	111.27
418.233	223.91
418.441	-40.28
418.649	-75.09
418.857	101.03
419.065	158.38
419.273	33.45
419.481	58.03
419.689	88.75
419.897	62.12
420.105	-56.66
420.313	35.5
420.521	219.82
420.729	139.94
420.937	49.83
421.145	-38.23
421.353	144.04
421.561	189.1
421.769	111.27
421.977	12.97
422.185	88.75
422.393	55.98
422.601	141.99
422.809	115.37
423.017	98.99
423.224	70.31
423.432	178.86
423.64	70.31
423.848	176.81
424.056	53.93
424.263	148.14
424.471	94.89
424.679	152.23
424.887	6.83
425.094	172.71
425.302	121.51
425.51	72.36
425.718	70.31
425.925	141.99
426.133	84.65
426.341	148.14
426.548	86.7
426.756	88.75
426.964	121.51
427.171	33.45
427.379	230.06
427.586	92.84
427.794	90.79
428.001	168.62
428.209	92.84
428.417	129.7
428.624	94.89
428.832	105.13
429.039	105.13
429.247	121.51
429.454	168.62
429.662	217.77
429.869	123.56
430.076	170.66
430.284	252.58
430.491	170.66
430.699	211.62
430.906	275.11
431.114	203.43
431.321	203.43
431.528	125.61
431.736	195.24
431.943	86.7
432.15	207.53
432.358	178.86
432.565	309.93
432.772	37.55
432.979	195.24
433.187	189.1
433.394	215.72
433.601	168.62
433.808	238.25
434.016	330.41
434.223	268.97
434.43	252.58
434.637	316.07
434.844	275.11
435.052	273.06
435.259	330.41
435.466	330.41
435.673	309.93
435.88	301.73
436.087	346.79
436.294	430.76
436.501	410.28
436.708	441
436.915	377.51
437.122	334.5
437.329	357.03
437.537	451.24
437.743	488.1
437.95	539.3
438.157	383.65
438.364	455.33
438.571	490.15
438.778	465.57
438.985	496.29
439.192	570.02
439.399	481.96
439.606	549.54
439.813	467.62
440.02	666.27
440.227	651.94
440.433	742.05
440.64	559.78
440.847	598.69
441.054	684.7
441.261	760.48
441.467	760.48
441.674	688.8
441.881	748.19
442.088	670.37
442.294	805.53
442.501	922.27
442.708	922.27
442.914	846.49
443.121	1065.63
443.328	981.66
443.534	1067.67
443.741	1094.3
443.948	895.64
444.154	1120.92
444.361	1219.22
444.568	1057.43
444.774	1165.98
444.981	1067.67
445.187	1370.77
445.394	1301.14
445.6	1309.33
445.807	1395.35
446.013	1540.76
446.22	1378.97
446.426	1614.48
446.633	1602.19
446.839	1911.44
447.046	1587.86
447.252	1856.14
447.459	1841.81
447.665	1899.15
447.871	2019.98
448.078	2253.45
448.284	2247.3
448.491	2259.59
448.697	2325.13
448.903	2417.29
449.11	2452.1
449.316	2570.88
449.522	2726.53
449.728	2704
449.935	2833.02
450.141	2841.22
450.347	3138.17
450.553	3105.4
450.76	3246.71
450.966	3279.48
451.172	3461.75
451.378	3648.11
451.584	3664.5
451.791	3844.72
451.997	3943.02
452.203	4043.37
452.409	4270.7
452.615	4530.79
452.821	4266.6
453.027	4524.65
453.233	4821.6
453.44	4663.91
453.646	4981.34
453.852	5247.58
454.058	5352.02
454.264	5468.76
454.47	6052.43
454.676	5952.08
454.882	6529.61
455.088	6144.59
455.294	6601.29
455.5	7066.17
455.705	7375.42
455.911	7273.02
456.117	7453.24
456.323	7737.91
456.529	7799.35
456.735	8655.4
456.941	8915.49
457.147	9136.67
457.352	9669.14
457.558	9687.57
457.764	10529.29
457.97	10535.43
458.176	10877.44
458.381	11479.55
458.587	11614.71
458.793	12233.2
458.999	12423.66
459.204	13887.96
459.41	14170.58
459.616	14066.13
459.821	14803.4
460.027	15356.35
460.233	16259.51
460.438	16130.48
460.644	17318.31
460.85	17271.2
461.055	17983.9
461.261	18880.91
461.466	18497.94
461.672	18745.74
461.878	21293.41
462.083	20797.81
462.289	21311.85
462.494	22169.94
462.7	22466.9
462.905	22784.33
463.111	24492.34
463.316	25430.31
463.522	26165.53
463.727	26816.79
463.932	27945.22
464.138	28686.58
464.343	30023.9
464.549	30165.21
464.754	32460.99
464.959	32778.42
465.165	33677.48
465.37	33665.19
465.575	33259.7
465.781	35981.45
465.986	37089.4
466.191	36216.96
466.397	36753.53
466.602	35762.31
466.807	37656.68
467.012	38957.14
467.218	39112.79
467.423	39233.62
467.628	39981.13
467.833	42311.72
468.038	41726
468.244	40665.15
468.449	42461.22
468.654	42000.43
