Data from USB4F104151__185__11-05-12-134.txt Node

Date: Wed Feb 26 11:05:12 EST 2025
User: louis
Spectrometer: USB4F10415
Trigger mode: 4
Integration Time (sec): 1.000000E-1
Scans to average: 1
Electric dark correction enabled: true
Nonlinearity correction enabled: false
Boxcar width: 0
XAxis mode: Wavelengths
Number of Pixels in Spectrum: 3648
>>>>>Begin Spectral Data<<<<<
178.204	-478.88
178.424	-478.88
178.644	-478.88
178.864	-401.06
179.084	-411.3
179.304	2.39
179.524	-77.48
179.744	-40.62
179.964	41.3
180.184	55.64
180.404	78.16
180.624	-40.62
180.844	14.68
181.064	-77.48
181.283	43.35
181.503	-7.85
181.723	8.53
181.943	-243.37
182.163	180.56
182.383	-44.71
182.602	-16.04
182.822	133.46
183.042	-16.04
183.262	-110.25
183.482	-3.75
183.701	-1.71
183.921	82.26
184.141	-7.85
184.361	61.78
184.58	80.21
184.8	14.68
185.02	-91.82
185.239	63.83
185.459	26.96
185.679	131.41
185.898	-67.24
186.118	-16.04
186.338	76.12
186.557	129.36
186.777	-54.95
186.997	16.73
187.216	67.92
187.436	217.43
187.655	51.54
187.875	135.51
188.095	-3.75
188.314	67.92
188.534	127.32
188.753	39.25
188.973	119.12
189.192	231.76
189.412	-59.05
189.631	14.68
189.851	49.49
190.07	164.18
190.29	-93.87
190.509	29.01
190.729	88.4
190.948	205.14
191.168	239.95
191.387	26.96
191.607	-54.95
191.826	67.92
192.045	18.77
192.265	-36.52
192.484	100.69
192.704	63.83
192.923	-81.58
193.142	145.75
193.362	158.03
193.581	117.08
193.8	121.17
194.02	155.99
194.239	35.16
194.458	29.01
194.678	29.01
194.897	-69.29
195.116	29.01
195.335	6.49
195.555	65.88
195.774	-24.23
195.993	41.3
196.212	26.96
196.432	29.01
196.651	-18.09
196.87	74.07
197.089	190.8
197.308	65.88
197.528	47.44
197.747	33.11
197.966	10.58
198.185	102.74
198.404	-24.23
198.623	100.69
198.842	129.36
199.062	102.74
199.281	84.31
199.5	67.92
199.719	57.68
199.938	96.6
200.157	80.21
200.376	110.93
200.595	145.75
200.814	-16.04
201.033	24.92
201.252	96.6
201.471	133.46
201.69	67.92
201.909	108.88
202.128	94.55
202.347	119.12
202.566	88.4
202.785	-40.62
203.004	-44.71
203.223	305.49
203.442	-11.95
203.661	-3.75
203.879	98.64
204.098	69.97
204.317	-61.1
204.536	117.08
204.755	90.45
204.974	106.84
205.193	-5.8
205.411	186.71
205.63	88.4
205.849	63.83
206.068	31.06
206.287	-124.58
206.505	94.55
206.724	49.49
206.943	-48.81
207.162	-42.67
207.381	94.55
207.599	-54.95
207.818	33.11
208.037	39.25
208.255	24.92
208.474	41.3
208.693	14.68
208.911	-26.28
209.13	53.59
209.349	51.54
209.567	16.73
209.786	29.01
210.005	119.12
210.223	63.83
210.442	-95.91
210.661	-30.38
210.879	39.25
211.098	0.34
211.316	14.68
211.535	137.56
211.753	8.53
211.972	59.73
212.191	2.39
212.409	41.3
212.628	55.64
212.846	-7.85
213.065	-22.19
213.283	53.59
213.502	-75.43
213.72	63.83
213.938	35.16
214.157	-83.63
214.375	143.7
214.594	-9.9
214.812	35.16
215.031	-7.85
215.249	45.4
215.467	-48.81
215.686	-5.8
215.904	80.21
216.122	2.39
216.341	160.08
216.559	-38.57
216.778	86.36
216.996	170.32
217.214	-34.47
217.432	-24.23
217.651	-87.72
217.869	-7.85
218.087	51.54
218.306	-7.85
218.524	84.31
218.742	-11.95
218.96	82.26
219.179	20.82
219.397	0.34
219.615	291.15
219.833	90.45
220.051	-59.05
220.27	112.98
220.488	67.92
220.706	53.59
220.924	-46.76
221.142	-1.71
221.36	20.82
221.578	123.22
221.796	26.96
222.015	24.92
222.233	55.64
222.451	151.89
222.669	-16.04
222.887	20.82
223.105	-30.38
223.323	31.06
223.541	-177.83
223.759	53.59
223.977	22.87
224.195	192.85
224.413	121.17
224.631	78.16
224.849	24.92
225.067	205.14
225.285	35.16
225.503	-22.19
225.721	-128.68
225.939	10.58
226.157	35.16
226.375	178.51
226.592	-40.62
226.81	-20.14
227.028	88.4
227.246	69.97
227.464	47.44
227.682	35.16
227.9	106.84
228.117	47.44
228.335	115.03
228.553	-38.57
228.771	-9.9
228.989	74.07
229.206	76.12
229.424	-16.04
229.642	-69.29
229.86	31.06
230.077	108.88
230.295	-22.19
230.513	86.36
230.731	112.98
230.948	260.43
231.166	119.12
231.384	-11.95
231.601	-81.58
231.819	207.19
232.037	-1.71
232.254	-71.34
232.472	10.58
232.689	4.44
232.907	90.45
233.125	14.68
233.342	-13.99
233.56	14.68
233.777	29.01
233.995	78.16
234.213	160.08
234.43	100.69
234.648	63.83
234.865	6.49
235.083	31.06
235.3	6.49
235.518	143.7
235.735	151.89
235.953	4.44
236.17	4.44
236.388	33.11
236.605	51.54
236.822	63.83
237.04	127.32
237.257	31.06
237.475	-30.38
237.692	6.49
237.909	-11.95
238.127	-1.71
238.344	110.93
238.562	14.68
238.779	-59.05
238.996	-108.2
239.214	-42.67
239.431	53.59
239.648	-1.71
239.865	104.79
240.083	86.36
240.3	-26.28
240.517	-3.75
240.735	-30.38
240.952	141.65
241.169	29.01
241.386	4.44
241.603	-1.71
241.821	-79.53
242.038	74.07
242.255	141.65
242.472	-77.48
242.689	26.96
242.907	69.97
243.124	49.49
243.341	-34.47
243.558	-79.53
243.775	-26.28
243.992	-52.91
244.209	39.25
244.426	188.75
244.643	6.49
244.86	43.35
245.078	98.64
245.295	-24.23
245.512	0.34
245.729	-57
245.946	65.88
246.163	63.83
246.38	-71.34
246.597	20.82
246.814	8.53
247.031	-59.05
247.248	63.83
247.464	98.64
247.681	4.44
247.898	-5.8
248.115	51.54
248.332	-5.8
248.549	176.47
248.766	143.7
248.983	104.79
249.2	41.3
249.417	123.22
249.633	2.39
249.85	18.77
250.067	51.54
250.284	55.64
250.501	76.12
250.717	43.35
250.934	-36.52
251.151	6.49
251.368	-16.04
251.585	49.49
251.801	20.82
252.018	-97.96
252.235	82.26
252.451	-38.57
252.668	45.4
252.885	133.46
253.102	78.16
253.318	76.12
253.535	57.68
253.752	-63.15
253.968	63.83
254.185	-57
254.401	26.96
254.618	72.02
254.835	-83.63
255.051	205.14
255.268	53.59
255.484	-9.9
255.701	29.01
255.917	63.83
256.134	-5.8
256.351	59.73
256.567	-1.71
256.784	29.01
257	-83.63
257.217	139.6
257.433	80.21
257.65	61.78
257.866	106.84
258.082	-83.63
258.299	-24.23
258.515	0.34
258.732	6.49
258.948	-112.3
259.165	53.59
259.381	-5.8
259.597	92.5
259.814	22.87
260.03	43.35
260.246	12.63
260.463	149.84
260.679	78.16
260.895	-5.8
261.112	20.82
261.328	92.5
261.544	-3.75
261.761	51.54
261.977	12.63
262.193	-16.04
262.409	104.79
262.626	-26.28
262.842	26.96
263.058	-69.29
263.274	45.4
263.49	31.06
263.707	94.55
263.923	55.64
264.139	-79.53
264.355	14.68
264.571	45.4
264.787	57.68
265.004	94.55
265.22	26.96
265.436	-16.04
265.652	8.53
265.868	100.69
266.084	-95.91
266.3	69.97
266.516	-93.87
266.732	-71.34
266.948	78.16
267.164	-34.47
267.38	29.01
267.596	39.25
267.812	145.75
268.028	145.75
268.244	59.73
268.46	80.21
268.676	-18.09
268.892	78.16
269.108	-1.71
269.324	16.73
269.54	-36.52
269.756	100.69
269.972	-77.48
270.188	-18.09
270.403	-106.15
270.619	65.88
270.835	55.64
271.051	55.64
271.267	0.34
271.483	-9.9
271.698	53.59
271.914	49.49
272.13	-28.33
272.346	-26.28
272.562	18.77
272.777	166.23
272.993	-13.99
273.209	14.68
273.425	24.92
273.64	-18.09
273.856	158.03
274.072	18.77
274.287	18.77
274.503	35.16
274.719	59.73
274.934	6.49
275.15	-28.33
275.366	61.78
275.581	-32.43
275.797	67.92
276.012	76.12
276.228	24.92
276.444	39.25
276.659	92.5
276.875	-7.85
277.09	-11.95
277.306	41.3
277.521	-20.14
277.737	31.06
277.952	84.31
278.168	18.77
278.383	-3.75
278.599	2.39
278.814	90.45
279.03	-22.19
279.245	69.97
279.461	-30.38
279.676	98.64
279.892	-16.04
280.107	-63.15
280.322	14.68
280.538	20.82
280.753	-42.67
280.969	-42.67
281.184	41.3
281.399	145.75
281.615	14.68
281.83	135.51
282.045	-67.24
282.26	-65.19
282.476	24.92
282.691	86.36
282.906	2.39
283.122	22.87
283.337	-36.52
283.552	80.21
283.767	-54.95
283.983	37.2
284.198	20.82
284.413	108.88
284.628	-69.29
284.843	74.07
285.058	102.74
285.274	-100.01
285.489	-54.95
285.704	24.92
285.919	-28.33
286.134	72.02
286.349	49.49
286.564	-26.28
286.779	153.94
286.995	-11.95
287.21	-67.24
287.425	72.02
287.64	-44.71
287.855	74.07
288.07	-63.15
288.285	67.92
288.5	131.41
288.715	47.44
288.93	26.96
289.145	-11.95
289.36	43.35
289.575	22.87
289.79	82.26
290.004	-44.71
290.219	51.54
290.434	-11.95
290.649	49.49
290.864	-61.1
291.079	-32.43
291.294	12.63
291.509	20.82
291.724	22.87
291.938	35.16
292.153	20.82
292.368	-42.67
292.583	123.22
292.798	98.64
293.012	20.82
293.227	35.16
293.442	6.49
293.657	108.88
293.871	143.7
294.086	112.98
294.301	207.19
294.516	119.12
294.73	10.58
294.945	-63.15
295.16	61.78
295.374	207.19
295.589	96.6
295.804	-93.87
296.018	8.53
296.233	137.56
296.447	-28.33
296.662	10.58
296.877	155.99
297.091	82.26
297.306	53.59
297.52	41.3
297.735	-18.09
297.949	84.31
298.164	39.25
298.378	39.25
298.593	-50.86
298.807	45.4
299.022	-11.95
299.236	139.6
299.451	-22.19
299.665	18.77
299.88	78.16
300.094	65.88
300.309	26.96
300.523	51.54
300.737	-36.52
300.952	49.49
301.166	-13.99
301.381	2.39
301.595	-54.95
301.809	20.82
302.024	6.49
302.238	-22.19
302.452	158.03
302.667	41.3
302.881	123.22
303.095	78.16
303.309	4.44
303.524	-18.09
303.738	-13.99
303.952	-83.63
304.166	119.12
304.381	-67.24
304.595	121.17
304.809	47.44
305.023	-13.99
305.237	-22.19
305.452	-1.71
305.666	24.92
305.88	82.26
306.094	67.92
306.308	-13.99
306.522	31.06
306.736	-13.99
306.95	-32.43
307.164	-36.52
307.379	41.3
307.593	112.98
307.807	47.44
308.021	90.45
308.235	41.3
308.449	-42.67
308.663	67.92
308.877	272.72
309.091	47.44
309.305	31.06
309.519	-128.68
309.733	37.2
309.947	-59.05
310.161	100.69
310.374	59.73
310.588	22.87
310.802	-57
311.016	-26.28
311.23	-1.71
311.444	-50.86
311.658	84.31
311.872	112.98
312.085	139.6
312.299	45.4
312.513	88.4
312.727	-20.14
312.941	-30.38
313.154	86.36
313.368	-40.62
313.582	14.68
313.796	110.93
314.009	-9.9
314.223	133.46
314.437	78.16
314.651	55.64
314.864	-3.75
315.078	-20.14
315.292	18.77
315.505	-9.9
315.719	53.59
315.933	80.21
316.146	0.34
316.36	-40.62
316.573	98.64
316.787	110.93
317.001	96.6
317.214	-75.43
317.428	39.25
317.641	-13.99
317.855	24.92
318.068	35.16
318.282	78.16
318.495	164.18
318.709	90.45
318.922	-5.8
319.136	104.79
319.349	74.07
319.563	-61.1
319.776	86.36
319.99	-89.77
320.203	4.44
320.417	0.34
320.63	96.6
320.843	188.75
321.057	2.39
321.27	-34.47
321.483	65.88
321.697	149.84
321.91	86.36
322.124	63.83
322.337	51.54
322.55	-34.47
322.763	29.01
322.977	33.11
323.19	-26.28
323.403	24.92
323.617	74.07
323.83	104.79
324.043	45.4
324.256	57.68
324.469	-36.52
324.683	135.51
324.896	-13.99
325.109	41.3
325.322	-112.3
325.535	88.4
325.748	57.68
325.962	10.58
326.175	65.88
326.388	-16.04
326.601	168.27
326.814	8.53
327.027	47.44
327.24	106.84
327.453	-46.76
327.666	55.64
327.879	176.47
328.092	143.7
328.305	-38.57
328.518	10.58
328.731	-30.38
328.944	-61.1
329.157	14.68
329.37	24.92
329.583	153.94
329.796	119.12
330.009	33.11
330.222	24.92
330.435	125.27
330.648	-30.38
330.861	147.8
331.073	84.31
331.286	119.12
331.499	61.78
331.712	-57
331.925	6.49
332.138	8.53
332.35	37.2
332.563	65.88
332.776	106.84
332.989	-30.38
333.202	-28.33
333.414	57.68
333.627	16.73
333.84	-79.53
334.053	2.39
334.265	-9.9
334.478	49.49
334.691	-20.14
334.903	47.44
335.116	10.58
335.329	-36.52
335.541	49.49
335.754	176.47
335.966	-24.23
336.179	6.49
336.392	14.68
336.604	63.83
336.817	53.59
337.029	49.49
337.242	57.68
337.454	72.02
337.667	-26.28
337.88	119.12
338.092	0.34
338.305	14.68
338.517	8.53
338.729	155.99
338.942	80.21
339.154	-106.15
339.367	-75.43
339.579	90.45
339.792	-40.62
340.004	207.19
340.217	-16.04
340.429	10.58
340.641	0.34
340.854	-95.91
341.066	16.73
341.278	78.16
341.491	149.84
341.703	47.44
341.915	-30.38
342.128	78.16
342.34	20.82
342.552	-16.04
342.764	37.2
342.977	47.44
343.189	33.11
343.401	74.07
343.613	-130.73
343.826	45.4
344.038	-71.34
344.25	63.83
344.462	-57
344.674	-5.8
344.886	39.25
345.099	31.06
345.311	82.26
345.523	0.34
345.735	-65.19
345.947	-20.14
346.159	98.64
346.371	53.59
346.583	-5.8
346.795	135.51
347.007	43.35
347.219	98.64
347.431	-34.47
347.643	172.37
347.855	-50.86
348.067	147.8
348.279	-3.75
348.491	106.84
348.703	112.98
348.915	37.2
349.127	-34.47
349.339	-13.99
349.551	51.54
349.763	143.7
349.975	-22.19
350.187	151.89
350.399	106.84
350.61	14.68
350.822	-46.76
351.034	-1.71
351.246	-13.99
351.458	86.36
351.669	92.5
351.881	176.47
352.093	80.21
352.305	29.01
352.517	20.82
352.728	112.98
352.94	8.53
353.152	102.74
353.363	-57
353.575	67.92
353.787	100.69
353.999	115.03
354.21	129.36
354.422	-46.76
354.633	-52.91
354.845	43.35
355.057	37.2
355.268	29.01
355.48	65.88
355.692	-95.91
355.903	-11.95
356.115	18.77
356.326	-91.82
356.538	135.51
356.749	-11.95
356.961	166.23
357.172	41.3
357.384	-38.57
357.595	203.09
357.807	-1.71
358.018	26.96
358.23	20.82
358.441	110.93
358.653	24.92
358.864	-18.09
359.075	-59.05
359.287	80.21
359.498	170.32
359.709	14.68
359.921	33.11
360.132	20.82
360.344	-24.23
360.555	-16.04
360.766	49.49
360.977	6.49
361.189	104.79
361.4	24.92
361.611	35.16
361.823	67.92
362.034	72.02
362.245	-151.21
362.456	37.2
362.667	90.45
362.879	-75.43
363.09	72.02
363.301	123.22
363.512	57.68
363.723	39.25
363.935	8.53
364.146	35.16
364.357	94.55
364.568	14.68
364.779	-13.99
364.99	90.45
365.201	-48.81
365.412	39.25
365.623	-28.33
365.834	104.79
366.045	72.02
366.256	139.6
366.467	65.88
366.678	-3.75
366.889	26.96
367.1	-1.71
367.311	65.88
367.522	10.58
367.733	51.54
367.944	49.49
368.155	14.68
368.366	69.97
368.577	90.45
368.788	90.45
368.999	-32.43
369.209	49.49
369.42	221.52
369.631	227.67
369.842	90.45
370.053	-24.23
370.264	86.36
370.474	-38.57
370.685	-1.71
370.896	18.77
371.107	121.17
371.317	33.11
371.528	26.96
371.739	63.83
371.95	55.64
372.16	74.07
372.371	-93.87
372.582	-36.52
372.792	22.87
373.003	55.64
373.214	20.82
373.424	41.3
373.635	-30.38
373.846	180.56
374.056	29.01
374.267	2.39
374.477	33.11
374.688	4.44
374.898	-28.33
375.109	24.92
375.319	51.54
375.53	121.17
375.74	117.08
375.951	-13.99
376.161	106.84
376.372	49.49
376.582	-30.38
376.793	37.2
377.003	-20.14
377.214	-93.87
377.424	29.01
377.635	69.97
377.845	53.59
378.055	158.03
378.266	-20.14
378.476	-34.47
378.686	96.6
378.897	-1.71
379.107	141.65
379.317	33.11
379.528	63.83
379.738	4.44
379.948	16.73
380.158	104.79
380.369	26.96
380.579	135.51
380.789	35.16
380.999	14.68
381.21	53.59
381.42	176.47
381.63	-11.95
381.84	20.82
382.05	76.12
382.261	86.36
382.471	10.58
382.681	-24.23
382.891	201.04
383.101	26.96
383.311	-40.62
383.521	80.21
383.731	29.01
383.941	55.64
384.151	-13.99
384.361	49.49
384.571	53.59
384.781	135.51
384.991	194.9
385.201	186.71
385.411	74.07
385.621	35.16
385.831	39.25
386.041	29.01
386.251	18.77
386.461	47.44
386.671	-9.9
386.881	-79.53
387.091	49.49
387.301	139.6
387.511	59.73
387.72	84.31
387.93	26.96
388.14	-110.25
388.35	86.36
388.56	137.56
388.769	106.84
388.979	10.58
389.189	-81.58
389.399	-77.48
389.609	69.97
389.818	123.22
390.028	82.26
390.238	104.79
390.447	26.96
390.657	51.54
390.867	20.82
391.076	-30.38
391.286	-22.19
391.496	41.3
391.705	88.4
391.915	143.7
392.125	78.16
392.334	-48.81
392.544	198.99
392.753	80.21
392.963	-16.04
393.172	51.54
393.382	-3.75
393.591	127.32
393.801	43.35
394.01	158.03
394.22	82.26
394.429	24.92
394.639	67.92
394.848	22.87
395.058	65.88
395.267	12.63
395.477	80.21
395.686	35.16
395.895	102.74
396.105	108.88
396.314	117.08
396.524	84.31
396.733	-9.9
396.942	131.41
397.152	39.25
397.361	129.36
397.57	2.39
397.78	4.44
397.989	88.4
398.198	112.98
398.407	-7.85
398.617	31.06
398.826	-48.81
399.035	31.06
399.244	151.89
399.453	51.54
399.663	-1.71
399.872	119.12
400.081	-50.86
400.29	88.4
400.499	37.2
400.708	86.36
400.917	6.49
401.127	22.87
401.336	0.34
401.545	170.32
401.754	61.78
401.963	110.93
402.172	6.49
402.381	-42.67
402.59	61.78
402.799	-11.95
403.008	59.73
403.217	72.02
403.426	76.12
403.635	-30.38
403.844	14.68
404.053	-9.9
404.262	41.3
404.471	141.65
404.68	61.78
404.888	20.82
405.097	24.92
405.306	12.63
405.515	61.78
405.724	18.77
405.933	92.5
406.142	74.07
406.35	160.08
406.559	14.68
406.768	65.88
406.977	141.65
407.185	10.58
407.394	80.21
407.603	-26.28
407.812	37.2
408.02	139.6
408.229	47.44
408.438	76.12
408.646	10.58
408.855	-112.3
409.064	31.06
409.272	22.87
409.481	88.4
409.69	-22.19
409.898	-65.19
410.107	67.92
410.315	92.5
410.524	-59.05
410.733	22.87
410.941	-18.09
411.15	115.03
411.358	90.45
411.567	151.89
411.775	-22.19
411.984	31.06
412.192	117.08
412.401	74.07
412.609	151.89
412.818	127.32
413.026	18.77
413.234	8.53
413.443	18.77
413.651	-13.99
413.86	14.68
414.068	147.8
414.276	125.27
414.485	47.44
414.693	145.75
414.901	194.9
415.11	10.58
415.318	26.96
415.526	-1.71
415.734	123.22
415.943	72.02
416.151	26.96
416.359	59.73
416.567	14.68
416.776	127.32
416.984	96.6
417.192	127.32
417.4	-46.76
417.608	43.35
417.817	-9.9
418.025	121.17
418.233	127.32
418.441	59.73
418.649	-7.85
418.857	137.56
419.065	78.16
419.273	20.82
419.481	26.96
419.689	-5.8
419.897	-124.58
420.105	-20.14
420.313	84.31
420.521	31.06
420.729	59.73
420.937	31.06
421.145	-46.76
421.353	112.98
421.561	176.47
421.769	74.07
421.977	-32.43
422.185	123.22
422.393	57.68
422.601	160.08
422.809	106.84
423.017	31.06
423.224	61.78
423.432	106.84
423.64	-7.85
423.848	104.79
424.056	6.49
424.263	115.03
424.471	0.34
424.679	160.08
424.887	59.73
425.094	33.11
425.302	82.26
425.51	-22.19
425.718	141.65
425.925	119.12
426.133	-5.8
426.341	209.23
426.548	172.37
426.756	84.31
426.964	108.88
427.171	43.35
427.379	51.54
427.586	12.63
427.794	108.88
428.001	133.46
428.209	74.07
428.417	121.17
428.624	203.09
428.832	65.88
429.039	29.01
429.247	127.32
429.454	108.88
429.662	174.42
429.869	147.8
430.076	59.73
430.284	137.56
430.491	151.89
430.699	115.03
430.906	293.2
431.114	133.46
431.321	133.46
431.528	84.31
431.736	139.6
431.943	170.32
432.15	100.69
432.358	276.82
432.565	254.29
432.772	31.06
432.979	242
433.187	90.45
433.394	223.57
433.601	31.06
433.808	135.51
434.016	184.66
434.223	29.01
434.43	231.76
434.637	223.57
434.844	262.48
435.052	225.62
435.259	264.53
435.466	272.72
435.673	219.47
435.88	151.89
436.087	301.39
436.294	362.83
436.501	323.92
436.708	194.9
436.915	201.04
437.122	280.91
437.329	180.56
437.537	270.67
437.743	334.16
437.95	409.94
438.157	303.44
438.364	328.02
438.571	266.58
438.778	401.74
438.985	434.51
439.192	385.36
439.399	334.16
439.606	346.45
439.813	457.04
440.02	532.81
440.227	575.82
440.433	579.92
440.64	491.85
440.847	420.17
441.054	534.86
441.261	629.07
441.467	592.2
441.674	528.72
441.881	645.45
442.088	524.62
442.294	710.99
442.501	825.67
442.708	686.41
442.914	747.85
443.121	778.57
443.328	811.34
443.534	842.06
443.741	885.06
443.948	756.04
444.154	829.77
444.361	1028.42
444.568	883.02
444.774	940.36
444.981	829.77
445.187	1087.81
445.394	1016.13
445.6	1046.85
445.807	1204.55
446.013	1141.06
446.22	1171.78
446.426	1364.29
446.633	1397.06
446.839	1468.73
447.046	1222.98
447.252	1534.27
447.459	1448.26
447.665	1489.21
447.871	1714.49
448.078	1816.89
448.284	1765.69
448.491	1878.33
448.697	1988.92
448.903	1990.97
449.11	2060.6
449.316	2076.98
449.522	2111.8
449.728	2222.39
449.935	2292.02
450.141	2263.35
450.347	2554.16
450.553	2412.85
450.76	2517.29
450.966	2822.44
451.172	2804.01
451.378	2967.85
451.584	2930.98
451.791	3244.32
451.997	3350.82
452.203	3344.67
452.409	3518.75
452.615	3563.81
452.821	3533.09
453.027	3651.87
453.233	4083.99
453.44	3930.39
453.646	4098.33
453.852	4290.84
454.058	4409.62
454.264	4546.83
454.47	4884.75
454.676	4897.03
454.882	5384.45
455.088	5234.95
455.294	5472.51
455.5	5918.97
455.705	6113.53
455.911	6088.95
456.117	6330.61
456.323	6533.36
456.529	6682.86
456.735	7207.14
456.941	7332.07
457.147	7645.41
457.352	7915.74
457.558	7954.65
457.764	8595.67
457.97	8749.26
458.176	9181.39
458.381	9484.48
458.587	9636.03
458.793	10281.14
458.999	10219.71
459.204	11423.91
459.41	11870.37
459.616	11780.26
459.821	12339.35
460.027	12759.19
460.233	13453.45
460.438	13422.73
460.644	14190.72
460.85	14626.93
461.055	15034.48
461.261	15689.83
461.466	15505.51
461.672	15587.43
461.878	17369.16
462.083	17389.64
462.289	17858.63
462.494	18520.12
462.7	18819.13
462.905	19030.07
463.111	20510.75
463.316	21379.09
463.522	21964.81
463.727	22532.09
463.932	23312.37
464.138	24524.77
464.343	25274.32
464.549	25036.76
464.754	26961.85
464.959	28129.19
465.165	28034.99
465.37	28295.08
465.575	28192.68
465.781	30427.01
465.986	31006.59
466.191	30496.64
466.397	30543.75
466.602	30099.34
466.807	31725.43
467.012	31981.42
467.218	33220.44
467.423	32653.16
467.628	33902.42
467.833	35362.62
468.038	34944.83
468.244	34090.83
468.449	35921.71
