Data from USB4F104151__162__11-04-43-736.txt Node

Date: Wed Feb 26 11:04:43 EST 2025
User: louis
Spectrometer: USB4F10415
Trigger mode: 4
Integration Time (sec): 1.000000E-1
Scans to average: 1
Electric dark correction enabled: true
Nonlinearity correction enabled: false
Boxcar width: 0
XAxis mode: Wavelengths
Number of Pixels in Spectrum: 3648
>>>>>Begin Spectral Data<<<<<
178.204	-381.6
178.424	-381.6
178.644	-381.6
178.864	-391.84
179.084	-453.28
179.304	-70.31
179.524	-88.75
179.744	52.56
179.964	19.8
180.184	89.43
180.404	71
180.624	-21.16
180.844	-35.5
181.064	1.37
181.283	3.41
181.503	-82.6
181.723	60.76
181.943	-217.77
182.163	161.11
182.383	-62.12
182.602	42.32
182.822	173.39
183.042	91.48
183.262	-125.61
183.482	-43.69
183.701	34.13
183.921	107.86
184.141	-45.74
184.361	54.61
184.58	107.86
184.8	81.24
185.02	-0.68
185.239	128.34
185.459	36.18
185.679	64.85
185.898	-139.94
186.118	87.38
186.338	68.95
186.557	140.63
186.777	-103.08
186.997	-68.27
187.216	1.37
187.436	138.58
187.655	52.56
187.875	15.7
188.095	42.32
188.314	142.68
188.534	183.63
188.753	-84.65
188.973	101.72
189.192	111.96
189.412	36.18
189.631	52.56
189.851	107.86
190.07	75.09
190.29	42.32
190.509	-29.35
190.729	56.66
190.948	212.31
191.168	195.92
191.387	38.23
191.607	-35.5
191.826	7.51
192.045	-49.83
192.265	-8.87
192.484	52.56
192.704	75.09
192.923	1.37
193.142	200.02
193.362	150.87
193.581	118.1
193.8	109.91
194.02	58.71
194.239	73.04
194.458	30.04
194.678	64.85
194.897	34.13
195.116	107.86
195.335	83.28
195.555	81.24
195.774	42.32
195.993	81.24
196.212	11.61
196.432	-21.16
196.651	-2.73
196.87	17.75
197.089	183.63
197.308	15.7
197.528	116.05
197.747	36.18
197.966	138.58
198.185	163.15
198.404	87.38
198.623	159.06
198.842	66.9
199.062	42.32
199.281	27.99
199.5	34.13
199.719	56.66
199.938	95.57
200.157	40.28
200.376	152.91
200.595	126.29
200.814	-35.5
201.033	1.37
201.252	150.87
201.471	54.61
201.69	101.72
201.909	54.61
202.128	52.56
202.347	118.1
202.566	58.71
202.785	-33.45
203.004	11.61
203.223	300.37
203.442	52.56
203.661	-31.4
203.879	40.28
204.098	140.63
204.317	-25.26
204.536	68.95
204.755	17.75
204.974	111.96
205.193	1.37
205.411	150.87
205.63	165.2
205.849	-8.87
206.068	-21.16
206.287	-37.55
206.505	150.87
206.724	1.37
206.943	1.37
207.162	7.51
207.381	62.8
207.599	3.41
207.818	40.28
208.037	-58.03
208.255	-2.73
208.474	23.89
208.693	64.85
208.911	-17.07
209.13	89.43
209.349	-21.16
209.567	46.42
209.786	120.15
210.005	146.77
210.223	75.09
210.442	-45.74
210.661	81.24
210.879	103.76
211.098	54.61
211.316	56.66
211.535	58.71
211.753	105.81
211.972	122.2
212.191	-6.83
212.409	-0.68
212.628	11.61
212.846	-15.02
213.065	-31.4
213.283	122.2
213.502	25.94
213.72	17.75
213.938	75.09
214.157	-8.87
214.375	68.95
214.594	40.28
214.812	23.89
215.031	122.2
215.249	95.57
215.467	3.41
215.686	9.56
215.904	124.24
216.122	60.76
216.341	177.49
216.559	109.91
216.778	93.52
216.996	154.96
217.214	19.8
217.432	-29.35
217.651	-68.27
217.869	17.75
218.087	25.94
218.306	56.66
218.524	9.56
218.742	-62.12
218.96	85.33
219.179	-0.68
219.397	32.08
219.615	200.02
219.833	107.86
220.051	-55.98
220.27	1.37
220.488	83.28
220.706	15.7
220.924	3.41
221.142	1.37
221.36	23.89
221.578	105.81
221.796	-8.87
222.015	85.33
222.233	75.09
222.451	120.15
222.669	-55.98
222.887	75.09
223.105	-58.03
223.323	103.76
223.541	15.7
223.759	46.42
223.977	5.46
224.195	171.35
224.413	54.61
224.631	46.42
224.849	1.37
225.067	157.01
225.285	36.18
225.503	25.94
225.721	-51.88
225.939	32.08
226.157	85.33
226.375	206.16
226.592	21.85
226.81	46.42
227.028	118.1
227.246	85.33
227.464	48.47
227.682	19.8
227.9	66.9
228.117	32.08
228.335	52.56
228.553	40.28
228.771	17.75
228.989	58.71
229.206	-4.78
229.424	-39.59
229.642	54.61
229.86	-43.69
230.077	118.1
230.295	9.56
230.513	30.04
230.731	64.85
230.948	200.02
231.166	255.31
231.384	-0.68
231.601	-43.69
231.819	187.73
232.037	-58.03
232.254	-12.97
232.472	68.95
232.689	-53.93
232.907	163.15
233.125	-6.83
233.342	-51.88
233.56	-43.69
233.777	77.14
233.995	17.75
234.213	25.94
234.43	58.71
234.648	3.41
234.865	11.61
235.083	50.52
235.3	46.42
235.518	144.72
235.735	144.72
235.953	91.48
236.17	77.14
236.388	64.85
236.605	77.14
236.822	144.72
237.04	101.72
237.257	9.56
237.475	-96.94
237.692	27.99
237.909	44.37
238.127	60.76
238.344	15.7
238.562	25.94
238.779	-45.74
238.996	30.04
239.214	54.61
239.431	73.04
239.648	-6.83
239.865	34.13
240.083	118.1
240.3	-41.64
240.517	42.32
240.735	-12.97
240.952	159.06
241.169	99.67
241.386	124.24
241.603	52.56
241.821	-66.22
242.038	124.24
242.255	85.33
242.472	1.37
242.689	58.71
242.907	109.91
243.124	114
243.341	15.7
243.558	-41.64
243.775	-33.45
243.992	-21.16
244.209	144.72
244.426	185.68
244.643	148.82
244.86	-31.4
245.078	144.72
245.295	62.8
245.512	-66.22
245.729	-43.69
245.946	73.04
246.163	32.08
246.38	11.61
246.597	75.09
246.814	30.04
247.031	-15.02
247.248	-17.07
247.464	95.57
247.681	56.66
247.898	101.72
248.115	87.38
248.332	17.75
248.549	58.71
248.766	197.97
248.983	81.24
249.2	126.29
249.417	99.67
249.633	19.8
249.85	58.71
250.067	1.37
250.284	-2.73
250.501	87.38
250.717	107.86
250.934	-21.16
251.151	17.75
251.368	77.14
251.585	50.52
251.801	128.34
252.018	-31.4
252.235	111.96
252.451	-45.74
252.668	52.56
252.885	89.43
253.102	66.9
253.318	-6.83
253.535	21.85
253.752	19.8
253.968	-31.4
254.185	-55.98
254.401	64.85
254.618	107.86
254.835	-66.22
255.051	105.81
255.268	75.09
255.484	19.8
255.701	11.61
255.917	66.9
256.134	-45.74
256.351	34.13
256.567	21.85
256.784	42.32
257	-123.56
257.217	114
257.433	130.39
257.65	32.08
257.866	120.15
258.082	-90.79
258.299	32.08
258.515	103.76
258.732	-47.79
258.948	-58.03
259.165	23.89
259.381	27.99
259.597	62.8
259.814	46.42
260.03	44.37
260.246	-27.31
260.463	161.11
260.679	161.11
260.895	83.28
261.112	85.33
261.328	-2.73
261.544	-96.94
261.761	177.49
261.977	-33.45
262.193	-53.93
262.409	111.96
262.626	68.95
262.842	68.95
263.058	-94.89
263.274	56.66
263.49	34.13
263.707	87.38
263.923	50.52
264.139	-74.41
264.355	73.04
264.571	85.33
264.787	73.04
265.004	93.52
265.22	71
265.436	-12.97
265.652	77.14
265.868	50.52
266.084	-47.79
266.3	21.85
266.516	-92.84
266.732	85.33
266.948	103.76
267.164	-33.45
267.38	93.52
267.596	50.52
267.812	165.2
268.028	3.41
268.244	15.7
268.46	130.39
268.676	87.38
268.892	-0.68
269.108	-15.02
269.324	-55.98
269.54	-35.5
269.756	132.44
269.972	-47.79
270.188	11.61
270.403	-27.31
270.619	36.18
270.835	58.71
271.051	89.43
271.267	-55.98
271.483	-0.68
271.698	122.2
271.914	68.95
272.13	17.75
272.346	-31.4
272.562	19.8
272.777	111.96
272.993	-6.83
273.209	48.47
273.425	48.47
273.64	-84.65
273.856	54.61
274.072	40.28
274.287	13.65
274.503	77.14
274.719	44.37
274.934	-15.02
275.15	-74.41
275.366	44.37
275.581	-6.83
275.797	13.65
276.012	105.81
276.228	-17.07
276.444	93.52
276.659	89.43
276.875	-19.11
277.09	52.56
277.306	27.99
277.521	77.14
277.737	52.56
277.952	85.33
278.168	34.13
278.383	60.76
278.599	54.61
278.814	126.29
279.03	42.32
279.245	73.04
279.461	3.41
279.676	58.71
279.892	27.99
280.107	38.23
280.322	-72.36
280.538	40.28
280.753	54.61
280.969	66.9
281.184	11.61
281.399	122.2
281.615	34.13
281.83	150.87
282.045	-15.02
282.26	-72.36
282.476	25.94
282.691	130.39
282.906	136.53
283.122	58.71
283.337	58.71
283.552	32.08
283.767	40.28
283.983	126.29
284.198	-45.74
284.413	99.67
284.628	-47.79
284.843	66.9
285.058	83.28
285.274	27.99
285.489	-21.16
285.704	159.06
285.919	21.85
286.134	-6.83
286.349	-4.78
286.564	17.75
286.779	234.83
286.995	21.85
287.21	-47.79
287.425	148.82
287.64	5.46
287.855	60.76
288.07	-17.07
288.285	44.37
288.5	81.24
288.715	34.13
288.93	-64.17
289.145	-35.5
289.36	64.85
289.575	30.04
289.79	152.91
290.004	-19.11
290.219	136.53
290.434	-78.51
290.649	-27.31
290.864	-47.79
291.079	62.8
291.294	44.37
291.509	60.76
291.724	21.85
291.938	9.56
292.153	120.15
292.368	23.89
292.583	48.47
292.798	75.09
293.012	-12.97
293.227	13.65
293.442	-76.46
293.657	167.25
293.871	54.61
294.086	89.43
294.301	111.96
294.516	7.51
294.73	48.47
294.945	-62.12
295.16	-58.03
295.374	136.53
295.589	140.63
295.804	-23.21
296.018	107.86
296.233	120.15
296.447	-37.55
296.662	40.28
296.877	183.63
297.091	77.14
297.306	25.94
297.52	-6.83
297.735	-35.5
297.949	19.8
298.164	95.57
298.378	-4.78
298.593	-10.92
298.807	25.94
299.022	1.37
299.236	83.28
299.451	-27.31
299.665	15.7
299.88	25.94
300.094	75.09
300.309	68.95
300.523	30.04
300.737	44.37
300.952	48.47
301.166	75.09
301.381	3.41
301.595	25.94
301.809	3.41
302.024	-12.97
302.238	-6.83
302.452	150.87
302.667	-55.98
302.881	181.59
303.095	83.28
303.309	42.32
303.524	30.04
303.738	23.89
303.952	34.13
304.166	101.72
304.381	-17.07
304.595	173.39
304.809	40.28
305.023	32.08
305.237	42.32
305.452	15.7
305.666	38.23
305.88	40.28
306.094	114
306.308	42.32
306.522	95.57
306.736	71
306.95	136.53
307.164	15.7
307.379	-39.59
307.593	193.87
307.807	109.91
308.021	152.91
308.235	1.37
308.449	-17.07
308.663	52.56
308.877	163.15
309.091	25.94
309.305	109.91
309.519	-43.69
309.733	105.81
309.947	-6.83
310.161	87.38
310.374	87.38
310.588	179.54
310.802	-35.5
311.016	34.13
311.23	111.96
311.444	-25.26
311.658	75.09
311.872	87.38
312.085	181.59
312.299	138.58
312.513	197.97
312.727	71
312.941	-101.03
313.154	73.04
313.368	40.28
313.582	60.76
313.796	11.61
314.009	56.66
314.223	171.35
314.437	19.8
314.651	75.09
314.864	81.24
315.078	-72.36
315.292	-23.21
315.505	-15.02
315.719	66.9
315.933	71
316.146	-2.73
316.36	-31.4
316.573	56.66
316.787	93.52
317.001	77.14
317.214	-39.59
317.428	66.9
317.641	34.13
317.855	30.04
318.068	38.23
318.282	77.14
318.495	173.39
318.709	60.76
318.922	89.43
319.136	144.72
319.349	56.66
319.563	58.71
319.776	68.95
319.99	-47.79
320.203	46.42
320.417	7.51
320.63	171.35
320.843	195.92
321.057	32.08
321.27	11.61
321.483	75.09
321.697	107.86
321.91	60.76
322.124	46.42
322.337	77.14
322.55	44.37
322.763	36.18
322.977	-82.6
323.19	-23.21
323.403	58.71
323.617	101.72
323.83	107.86
324.043	-35.5
324.256	50.52
324.469	-37.55
324.683	154.96
324.896	11.61
325.109	42.32
325.322	-127.66
325.535	89.43
325.748	83.28
325.962	1.37
326.175	30.04
326.388	58.71
326.601	116.05
326.814	-4.78
327.027	56.66
327.24	157.01
327.453	-94.89
327.666	48.47
327.879	124.24
328.092	130.39
328.305	73.04
328.518	46.42
328.731	85.33
328.944	-33.45
329.157	60.76
329.37	-8.87
329.583	148.82
329.796	105.81
330.009	-35.5
330.222	146.77
330.435	81.24
330.648	93.52
330.861	-0.68
331.073	58.71
331.286	105.81
331.499	81.24
331.712	-119.46
331.925	130.39
332.138	56.66
332.35	44.37
332.563	-33.45
332.776	118.1
332.989	-25.26
333.202	27.99
333.414	42.32
333.627	-35.5
333.84	-0.68
334.053	56.66
334.265	17.75
334.478	25.94
334.691	27.99
334.903	48.47
335.116	52.56
335.329	-31.4
335.541	91.48
335.754	152.91
335.966	-17.07
336.179	87.38
336.392	-2.73
336.604	-64.17
336.817	165.2
337.029	50.52
337.242	5.46
337.454	75.09
337.667	85.33
337.88	159.06
338.092	-0.68
338.305	79.19
338.517	52.56
338.729	120.15
338.942	83.28
339.154	13.65
339.367	-78.51
339.579	111.96
339.792	-49.83
340.004	-12.97
340.217	-60.07
340.429	87.38
340.641	-6.83
340.854	-33.45
341.066	-66.22
341.278	179.54
341.491	175.44
341.703	11.61
341.915	-23.21
342.128	157.01
342.34	79.19
342.552	-53.93
342.764	-25.26
342.977	42.32
343.189	134.48
343.401	107.86
343.613	-45.74
343.826	56.66
344.038	-19.11
344.25	46.42
344.462	-70.31
344.674	32.08
344.886	30.04
345.099	38.23
345.311	91.48
345.523	-0.68
345.735	-23.21
345.947	36.18
346.159	48.47
346.371	71
346.583	87.38
346.795	163.15
347.007	60.76
347.219	50.52
347.431	68.95
347.643	132.44
347.855	-23.21
348.067	148.82
348.279	-37.55
348.491	48.47
348.703	71
348.915	30.04
349.127	54.61
349.339	19.8
349.551	-105.13
349.763	206.16
349.975	66.9
350.187	11.61
350.399	124.24
350.61	71
350.822	-47.79
351.034	71
351.246	44.37
351.458	122.2
351.669	60.76
351.881	95.57
352.093	91.48
352.305	62.8
352.517	64.85
352.728	210.26
352.94	19.8
353.152	23.89
353.363	-37.55
353.575	38.23
353.787	148.82
353.999	138.58
354.21	148.82
354.422	-35.5
354.633	-49.83
354.845	17.75
355.057	-39.59
355.268	81.24
355.48	132.44
355.692	-70.31
355.903	-6.83
356.115	-6.83
356.326	-25.26
356.538	173.39
356.749	42.32
356.961	120.15
357.172	-43.69
357.384	50.52
357.595	216.4
357.807	3.41
358.018	19.8
358.23	54.61
358.441	124.24
358.653	-0.68
358.864	30.04
359.075	-45.74
359.287	79.19
359.498	87.38
359.709	17.75
359.921	-0.68
360.132	62.8
360.344	46.42
360.555	13.65
360.766	87.38
360.977	15.7
361.189	134.48
361.4	44.37
361.611	79.19
361.823	132.44
362.034	64.85
362.245	-47.79
362.456	25.94
362.667	97.62
362.879	-19.11
363.09	58.71
363.301	42.32
363.512	83.28
363.723	-33.45
363.935	1.37
364.146	75.09
364.357	-27.31
364.568	87.38
364.779	-82.6
364.99	81.24
365.201	68.95
365.412	132.44
365.623	-82.6
365.834	7.51
366.045	46.42
366.256	27.99
366.467	93.52
366.678	77.14
366.889	44.37
367.1	34.13
367.311	101.72
367.522	3.41
367.733	56.66
367.944	103.76
368.155	-25.26
368.366	91.48
368.577	89.43
368.788	48.47
368.999	-17.07
369.209	30.04
369.42	224.59
369.631	210.26
369.842	-23.21
370.053	73.04
370.264	89.43
370.474	-19.11
370.685	60.76
370.896	71
371.107	111.96
371.317	85.33
371.528	7.51
371.739	114
371.95	87.38
372.16	34.13
372.371	-43.69
372.582	27.99
372.792	71
373.003	89.43
373.214	89.43
373.424	161.11
373.635	-35.5
373.846	116.05
374.056	7.51
374.267	44.37
374.477	85.33
374.688	-21.16
374.898	15.7
375.109	44.37
375.319	77.14
375.53	130.39
375.74	36.18
375.951	46.42
376.161	83.28
376.372	114
376.582	-2.73
376.793	99.67
377.003	23.89
377.214	-23.21
377.424	83.28
377.635	109.91
377.845	5.46
378.055	122.2
378.266	-33.45
378.476	-23.21
378.686	-0.68
378.897	107.86
379.107	189.78
379.317	25.94
379.528	7.51
379.738	103.76
379.948	-47.79
380.158	103.76
380.369	58.71
380.579	27.99
380.789	83.28
380.999	25.94
381.21	93.52
381.42	126.29
381.63	-12.97
381.84	136.53
382.05	40.28
382.261	152.91
382.471	66.9
382.681	13.65
382.891	114
383.101	73.04
383.311	-19.11
383.521	-84.65
383.731	42.32
383.941	138.58
384.151	38.23
384.361	30.04
384.571	136.53
384.781	15.7
384.991	267.6
385.201	163.15
385.411	9.56
385.621	103.76
385.831	27.99
386.041	-43.69
386.251	11.61
386.461	138.58
386.671	48.47
386.881	-12.97
387.091	-10.92
387.301	73.04
387.511	124.24
387.72	146.77
387.93	128.34
388.14	-53.93
388.35	7.51
388.56	50.52
388.769	157.01
388.979	19.8
389.189	27.99
389.399	58.71
389.609	118.1
389.818	50.52
390.028	-19.11
390.238	99.67
390.447	5.46
390.657	138.58
390.867	30.04
391.076	-68.27
391.286	93.52
391.496	23.89
391.705	25.94
391.915	124.24
392.125	89.43
392.334	-15.02
392.544	120.15
392.753	17.75
392.963	-27.31
393.172	38.23
393.382	-37.55
393.591	77.14
393.801	54.61
394.01	136.53
394.22	42.32
394.429	11.61
394.639	87.38
394.848	50.52
395.058	19.8
395.267	1.37
395.477	50.52
395.686	75.09
395.895	107.86
396.105	222.55
396.314	85.33
396.524	66.9
396.733	25.94
396.942	138.58
397.152	111.96
397.361	42.32
397.57	95.57
397.78	15.7
397.989	144.72
398.198	253.27
398.407	46.42
398.617	48.47
398.826	73.04
399.035	-10.92
399.244	126.29
399.453	46.42
399.663	54.61
399.872	40.28
400.081	19.8
400.29	79.19
400.499	17.75
400.708	71
400.917	25.94
401.127	58.71
401.336	-70.31
401.545	208.21
401.754	136.53
401.963	11.61
402.172	13.65
402.381	-55.98
402.59	46.42
402.799	25.94
403.008	157.01
403.217	34.13
403.426	101.72
403.635	-53.93
403.844	-43.69
404.053	-10.92
404.262	71
404.471	120.15
404.68	81.24
404.888	27.99
405.097	79.19
405.306	75.09
405.515	66.9
405.724	40.28
405.933	58.71
406.142	64.85
406.35	111.96
406.559	38.23
406.768	64.85
406.977	177.49
407.185	13.65
407.394	46.42
407.603	-0.68
407.812	97.62
408.02	175.44
408.229	64.85
408.438	5.46
408.646	-43.69
408.855	-29.35
409.064	99.67
409.272	27.99
409.481	58.71
409.69	1.37
409.898	1.37
410.107	23.89
410.315	136.53
410.524	7.51
410.733	193.87
410.941	-29.35
411.15	99.67
411.358	-39.59
411.567	116.05
411.775	52.56
411.984	32.08
412.192	179.54
412.401	-17.07
412.609	169.3
412.818	97.62
413.026	89.43
413.234	105.81
413.443	-21.16
413.651	9.56
413.86	19.8
414.068	103.76
414.276	165.2
414.485	44.37
414.693	179.54
414.901	157.01
415.11	62.8
415.318	68.95
415.526	77.14
415.734	140.63
415.943	66.9
416.151	173.39
416.359	56.66
416.567	54.61
416.776	116.05
416.984	89.43
417.192	87.38
417.4	46.42
417.608	25.94
417.817	-10.92
418.025	208.21
418.233	195.92
418.441	5.46
418.649	-82.6
418.857	38.23
419.065	167.25
419.273	9.56
419.481	95.57
419.689	81.24
419.897	85.33
420.105	19.8
420.313	85.33
420.521	136.53
420.729	48.47
420.937	9.56
421.145	19.8
421.353	126.29
421.561	177.49
421.769	75.09
421.977	62.8
422.185	75.09
422.393	68.95
422.601	165.2
422.809	73.04
423.017	40.28
423.224	-2.73
423.432	148.82
423.64	85.33
423.848	126.29
424.056	62.8
424.263	27.99
424.471	52.56
424.679	214.35
424.887	38.23
425.094	148.82
425.302	62.8
425.51	60.76
425.718	75.09
425.925	107.86
426.133	52.56
426.341	220.5
426.548	118.1
426.756	34.13
426.964	111.96
427.171	9.56
427.379	107.86
427.586	17.75
427.794	93.52
428.001	175.44
428.209	81.24
428.417	103.76
428.624	66.9
428.832	138.58
429.039	93.52
429.247	32.08
429.454	21.85
429.662	212.31
429.869	124.24
430.076	144.72
430.284	81.24
430.491	193.87
430.699	109.91
430.906	271.7
431.114	81.24
431.321	202.07
431.528	204.11
431.736	152.91
431.943	208.21
432.15	132.44
432.358	245.07
432.565	243.03
432.772	95.57
432.979	236.88
433.187	122.2
433.394	187.73
433.601	167.25
433.808	288.08
434.016	183.63
434.223	265.55
434.43	193.87
434.637	273.75
434.844	193.87
435.052	296.27
435.259	314.7
435.466	202.07
435.673	288.08
435.88	208.21
436.087	335.18
436.294	318.8
436.501	279.89
436.708	245.07
436.915	234.83
437.122	402.77
437.329	114
437.537	279.89
437.743	296.27
437.95	406.86
438.157	312.66
438.364	363.86
438.571	367.95
438.778	396.62
438.985	429.39
439.192	427.34
439.399	394.58
439.606	456.01
439.813	482.64
440.02	595.28
440.227	587.08
440.433	492.88
440.64	480.59
440.847	468.3
441.054	525.65
441.261	677.2
441.467	552.27
441.674	523.6
441.881	705.87
442.088	605.52
442.294	701.77
442.501	689.48
442.708	775.5
442.914	693.58
443.121	857.42
443.328	744.78
443.534	910.66
443.741	847.18
443.948	789.83
444.154	861.51
444.361	1092.93
444.568	968.01
444.774	951.62
444.981	877.9
445.187	1185.09
445.394	1080.64
445.6	1074.5
445.807	1342.78
446.013	1363.26
446.22	1164.61
446.426	1377.6
446.633	1482.05
446.839	1649.98
447.046	1332.55
447.252	1668.41
447.459	1494.33
447.665	1512.77
447.871	1742.14
448.078	1850.68
448.284	1799.48
448.491	1901.88
448.697	2073.91
448.903	1955.13
449.11	2039.09
449.316	2129.2
449.522	2323.76
449.728	2372.91
449.935	2391.34
450.141	2483.5
450.347	2612.53
450.553	2596.14
450.76	2516.27
450.966	2825.51
451.172	3007.78
451.378	3009.83
451.584	3196.2
451.791	3425.57
451.997	3421.47
452.203	3468.58
452.409	3634.46
452.615	3833.11
452.821	3765.53
453.027	3673.37
453.233	4187.41
453.44	4103.45
453.646	4193.56
453.852	4406.55
454.058	4658.45
454.264	4859.15
454.47	5192.97
454.676	5135.62
454.882	5772.54
455.088	5338.37
455.294	5797.12
455.5	6053.11
455.705	6440.18
455.911	6315.25
456.117	6522.1
456.323	6806.77
456.529	6919.4
456.735	7365.86
456.941	7767.26
457.147	7881.95
457.352	8105.18
457.558	8385.75
457.764	8948.94
457.97	9077.96
458.176	9487.56
458.381	10114.23
458.587	10077.37
458.793	10613.94
458.999	10929.33
459.204	12086.43
459.41	12285.08
459.616	12164.25
459.821	12971.15
460.027	13671.56
460.233	14128.25
460.438	14281.85
460.644	15156.33
460.85	15080.56
461.055	15752.29
461.261	16428.12
461.466	16063.58
461.672	16497.75
461.878	18558.01
462.083	18275.39
462.289	18766.9
462.494	19094.58
462.7	19622.95
462.905	19848.23
463.111	21683.21
463.316	22612.99
463.522	22893.56
463.727	23655.4
463.932	24597.47
464.138	25359.31
464.343	26332.1
464.549	26629.06
464.754	28543.91
464.959	29481.88
465.165	29483.92
465.37	29141.91
465.575	29399.96
465.781	31314.81
465.986	32138.09
466.191	31873.9
466.397	32119.66
466.602	31329.14
466.807	33147.74
467.012	33704.79
467.218	34306.89
467.423	34511.69
467.628	35365.69
467.833	36985.63
468.038	36444.97
468.244	36008.75
468.449	37321.5
468.654	36981.54
468.859	36971.3
469.064	36725.54
469.269	35918.64
