Data from USB4F104151__99__10-45-19-664.txt Node

Date: Wed Feb 26 10:45:19 EST 2025
User: louis
Spectrometer: USB4F10415
Trigger mode: 4
Integration Time (sec): 1.000000E-1
Scans to average: 1
Electric dark correction enabled: true
Nonlinearity correction enabled: false
Boxcar width: 0
XAxis mode: Wavelengths
Number of Pixels in Spectrum: 3648
>>>>>Begin Spectral Data<<<<<
178.204	-395.09
178.424	-395.09
178.644	-395.09
178.864	-401.23
179.084	-388.94
179.304	10.41
179.524	-34.64
179.744	16.55
179.964	-1.88
180.184	63.66
180.404	116.9
180.624	-28.5
180.844	-12.12
181.064	-5.97
181.283	-69.46
181.503	-108.37
181.723	53.42
181.943	-98.13
182.163	225.45
182.383	-53.08
182.602	30.89
182.822	180.39
183.042	94.38
183.262	47.27
183.482	82.09
183.701	77.99
183.921	92.33
184.141	47.27
184.361	61.61
184.58	108.71
184.8	67.75
185.02	-44.88
185.239	151.72
185.459	77.99
185.679	164.01
185.898	-1.88
186.118	94.38
186.338	41.13
186.557	12.46
186.777	-26.45
186.997	-44.88
187.216	98.47
187.436	151.72
187.655	96.43
187.875	45.23
188.095	37.03
188.314	100.52
188.534	188.58
188.753	-73.56
188.973	186.54
189.192	245.93
189.412	10.41
189.631	84.14
189.851	127.14
190.07	153.77
190.29	-42.84
190.509	12.46
190.729	30.89
190.948	143.53
191.168	295.08
191.387	145.58
191.607	14.51
191.826	80.04
192.045	57.51
192.265	-10.07
192.484	94.38
192.704	75.95
192.923	-14.17
193.142	190.63
193.362	155.82
193.581	141.48
193.8	84.14
194.02	133.29
194.239	26.79
194.458	71.85
194.678	8.36
194.897	41.13
195.116	8.36
195.335	24.75
195.555	73.9
195.774	104.62
195.993	170.15
196.212	82.09
196.432	18.6
196.651	6.31
196.87	86.19
197.089	254.12
197.308	118.95
197.528	77.99
197.747	-22.36
197.966	84.14
198.185	161.96
198.404	16.55
198.623	94.38
198.842	139.43
199.062	82.09
199.281	77.99
199.5	112.81
199.719	159.91
199.938	143.53
200.157	153.77
200.376	114.86
200.595	131.24
200.814	108.71
201.033	67.75
201.252	227.5
201.471	41.13
201.69	131.24
201.909	0.17
202.128	168.1
202.347	159.91
202.566	51.37
202.785	-59.22
203.004	-16.21
203.223	362.66
203.442	53.42
203.661	-61.27
203.879	43.18
204.098	202.92
204.317	-40.79
204.536	198.82
204.755	55.47
204.974	80.04
205.193	-91.99
205.411	94.38
205.63	139.43
205.849	73.9
206.068	69.8
206.287	-18.26
206.505	118.95
206.724	92.33
206.943	41.13
207.162	32.94
207.381	127.14
207.599	37.03
207.818	137.38
208.037	-24.4
208.255	65.71
208.474	137.38
208.693	155.82
208.911	104.62
209.13	151.72
209.349	71.85
209.567	114.86
209.786	110.76
210.005	71.85
210.223	39.08
210.442	-48.98
210.661	39.08
210.879	24.75
211.098	61.61
211.316	26.79
211.535	49.32
211.753	129.19
211.972	69.8
212.191	37.03
212.409	75.95
212.628	186.54
212.846	24.75
213.065	82.09
213.283	194.73
213.502	53.42
213.72	106.67
213.938	22.7
214.157	92.33
214.375	88.23
214.594	71.85
214.812	155.82
215.031	37.03
215.249	43.18
215.467	102.57
215.686	108.71
215.904	182.44
216.122	67.75
216.341	180.39
216.559	65.71
216.778	202.92
216.996	151.72
217.214	-20.31
217.432	-26.45
217.651	-36.69
217.869	123.05
218.087	67.75
218.306	-10.07
218.524	71.85
218.742	57.51
218.96	137.38
219.179	28.84
219.397	20.65
219.615	209.06
219.833	145.58
220.051	-12.12
220.27	100.52
220.488	147.62
220.706	178.34
220.924	53.42
221.142	-5.97
221.36	118.95
221.578	174.25
221.796	32.94
222.015	55.47
222.233	84.14
222.451	192.68
222.669	47.27
222.887	82.09
223.105	-20.31
223.323	-14.17
223.541	-67.41
223.759	63.66
223.977	-5.97
224.195	159.91
224.413	96.43
224.631	71.85
224.849	147.62
225.067	264.36
225.285	16.55
225.503	41.13
225.721	-73.56
225.939	84.14
226.157	26.79
226.375	209.06
226.592	51.37
226.81	45.23
227.028	108.71
227.246	139.43
227.464	80.04
227.682	49.32
227.9	28.84
228.117	153.77
228.335	102.57
228.553	61.61
228.771	61.61
228.989	121
229.206	145.58
229.424	65.71
229.642	82.09
229.86	-3.93
230.077	159.91
230.295	125.1
230.513	157.86
230.731	96.43
230.948	225.45
231.166	184.49
231.384	20.65
231.601	-26.45
231.819	196.78
232.037	69.8
232.254	-36.69
232.472	67.75
232.689	-114.52
232.907	194.73
233.125	28.84
233.342	-20.31
233.56	26.79
233.777	59.56
233.995	55.47
234.213	141.48
234.43	77.99
234.648	30.89
234.865	-10.07
235.083	125.1
235.3	65.71
235.518	98.47
235.735	139.43
235.953	123.05
236.17	49.32
236.388	100.52
236.605	90.28
236.822	157.86
237.04	110.76
237.257	102.57
237.475	-30.55
237.692	51.37
237.909	71.85
238.127	73.9
238.344	125.1
238.562	53.42
238.779	37.03
238.996	0.17
239.214	51.37
239.431	110.76
239.648	32.94
239.865	164.01
240.083	90.28
240.3	41.13
240.517	8.36
240.735	59.56
240.952	45.23
241.169	104.62
241.386	110.76
241.603	12.46
241.821	-30.55
242.038	55.47
242.255	155.82
242.472	16.55
242.689	12.46
242.907	37.03
243.124	108.71
243.341	20.65
243.558	45.23
243.775	-48.98
243.992	-20.31
244.209	90.28
244.426	237.74
244.643	149.67
244.86	121
245.078	143.53
245.295	129.19
245.512	77.99
245.729	24.75
245.946	100.52
246.163	104.62
246.38	14.51
246.597	73.9
246.814	45.23
247.031	45.23
247.248	6.31
247.464	131.24
247.681	-26.45
247.898	137.38
248.115	125.1
248.332	49.32
248.549	100.52
248.766	225.45
248.983	118.95
249.2	57.51
249.417	164.01
249.633	-12.12
249.85	47.27
250.067	-40.79
250.284	77.99
250.501	73.9
250.717	116.9
250.934	-36.69
251.151	53.42
251.368	-22.36
251.585	145.58
251.801	106.67
252.018	22.7
252.235	196.78
252.451	20.65
252.668	26.79
252.885	86.19
253.102	61.61
253.318	-36.69
253.535	80.04
253.752	14.51
253.968	30.89
254.185	32.94
254.401	94.38
254.618	-8.02
254.835	55.47
255.051	194.73
255.268	59.56
255.484	45.23
255.701	30.89
255.917	84.14
256.134	-18.26
256.351	22.7
256.567	0.17
256.784	-3.93
257	12.46
257.217	104.62
257.433	63.66
257.65	127.14
257.866	127.14
258.082	20.65
258.299	96.43
258.515	53.42
258.732	-30.55
258.948	-22.36
259.165	61.61
259.381	86.19
259.597	98.47
259.814	84.14
260.03	112.81
260.246	45.23
260.463	125.1
260.679	118.95
260.895	57.51
261.112	39.08
261.328	10.41
261.544	28.84
261.761	198.82
261.977	51.37
262.193	65.71
262.409	184.49
262.626	71.85
262.842	57.51
263.058	49.32
263.274	55.47
263.49	16.55
263.707	90.28
263.923	49.32
264.139	-57.17
264.355	75.95
264.571	114.86
264.787	-18.26
265.004	127.14
265.22	57.51
265.436	24.75
265.652	77.99
265.868	92.33
266.084	61.61
266.3	6.31
266.516	-8.02
266.732	55.47
266.948	-8.02
267.164	37.03
267.38	57.51
267.596	92.33
267.812	229.54
268.028	10.41
268.244	30.89
268.46	96.43
268.676	37.03
268.892	110.76
269.108	-26.45
269.324	12.46
269.54	-10.07
269.756	114.86
269.972	28.84
270.188	47.27
270.403	-30.55
270.619	92.33
270.835	49.32
271.051	65.71
271.267	20.65
271.483	8.36
271.698	164.01
271.914	14.51
272.13	112.81
272.346	67.75
272.562	123.05
272.777	157.86
272.993	51.37
273.209	-18.26
273.425	57.51
273.64	43.18
273.856	145.58
274.072	41.13
274.287	65.71
274.503	141.48
274.719	82.09
274.934	69.8
275.15	-81.75
275.366	77.99
275.581	47.27
275.797	28.84
276.012	69.8
276.228	37.03
276.444	-18.26
276.659	186.54
276.875	-65.36
277.09	6.31
277.306	-30.55
277.521	106.67
277.737	69.8
277.952	129.19
278.168	71.85
278.383	127.14
278.599	69.8
278.814	127.14
279.03	55.47
279.245	143.53
279.461	80.04
279.676	168.1
279.892	-40.79
280.107	-10.07
280.322	-26.45
280.538	59.56
280.753	-57.17
280.969	145.58
281.184	94.38
281.399	116.9
281.615	41.13
281.83	110.76
282.045	-5.97
282.26	-34.64
282.476	53.42
282.691	143.53
282.906	149.67
283.122	30.89
283.337	-22.36
283.552	37.03
283.767	37.03
283.983	149.67
284.198	18.6
284.413	133.29
284.628	-96.08
284.843	59.56
285.058	90.28
285.274	131.24
285.489	26.79
285.704	118.95
285.919	32.94
286.134	102.57
286.349	92.33
286.564	20.65
286.779	149.67
286.995	-53.08
287.21	12.46
287.425	143.53
287.64	-10.07
287.855	90.28
288.07	-61.27
288.285	108.71
288.5	170.15
288.715	149.67
288.93	63.66
289.145	43.18
289.36	75.95
289.575	43.18
289.79	112.81
290.004	53.42
290.219	100.52
290.434	-1.88
290.649	18.6
290.864	92.33
291.079	41.13
291.294	108.71
291.509	108.71
291.724	53.42
291.938	28.84
292.153	135.34
292.368	65.71
292.583	0.17
292.798	116.9
293.012	69.8
293.227	84.14
293.442	26.79
293.657	159.91
293.871	213.16
294.086	96.43
294.301	280.74
294.516	118.95
294.73	92.33
294.945	10.41
295.16	57.51
295.374	180.39
295.589	133.29
295.804	8.36
296.018	8.36
296.233	112.81
296.447	67.75
296.662	37.03
296.877	217.26
297.091	77.99
297.306	75.95
297.52	0.17
297.735	88.23
297.949	-16.21
298.164	16.55
298.378	106.67
298.593	18.6
298.807	41.13
299.022	49.32
299.236	166.06
299.451	20.65
299.665	-8.02
299.88	80.04
300.094	84.14
300.309	-18.26
300.523	90.28
300.737	-3.93
300.952	82.09
301.166	30.89
301.381	-20.31
301.595	-34.64
301.809	49.32
302.024	84.14
302.238	-12.12
302.452	155.82
302.667	53.42
302.881	188.58
303.095	192.68
303.309	73.9
303.524	61.61
303.738	73.9
303.952	61.61
304.166	100.52
304.381	-32.6
304.595	161.96
304.809	10.41
305.023	20.65
305.237	-3.93
305.452	41.13
305.666	73.9
305.88	141.48
306.094	75.95
306.308	57.51
306.522	116.9
306.736	151.72
306.95	180.39
307.164	92.33
307.379	6.31
307.593	221.35
307.807	190.63
308.021	53.42
308.235	123.05
308.449	-57.17
308.663	166.06
308.877	245.93
309.091	86.19
309.305	110.76
309.519	-18.26
309.733	143.53
309.947	-94.04
310.161	65.71
310.374	200.87
310.588	133.29
310.802	-94.04
311.016	-28.5
311.23	143.53
311.444	43.18
311.658	106.67
311.872	131.24
312.085	186.54
312.299	172.2
312.513	161.96
312.727	73.9
312.941	-36.69
313.154	67.75
313.368	73.9
313.582	145.58
313.796	108.71
314.009	51.37
314.223	186.54
314.437	121
314.651	110.76
314.864	53.42
315.078	2.22
315.292	-36.69
315.505	-10.07
315.719	82.09
315.933	112.81
316.146	12.46
316.36	84.14
316.573	254.12
316.787	84.14
317.001	61.61
317.214	20.65
317.428	84.14
317.641	34.99
317.855	57.51
318.068	18.6
318.282	65.71
318.495	192.68
318.709	102.57
318.922	84.14
319.136	135.34
319.349	106.67
319.563	92.33
319.776	63.66
319.99	65.71
320.203	108.71
320.417	75.95
320.63	30.89
320.843	192.68
321.057	28.84
321.27	67.75
321.483	65.71
321.697	196.78
321.91	51.37
322.124	108.71
322.337	100.52
322.55	8.36
322.763	53.42
322.977	55.47
323.19	-3.93
323.403	49.32
323.617	69.8
323.83	92.33
324.043	-24.4
324.256	123.05
324.469	45.23
324.683	108.71
324.896	30.89
325.109	49.32
325.322	-65.36
325.535	157.86
325.748	98.47
325.962	12.46
326.175	98.47
326.388	71.85
326.601	131.24
326.814	-14.17
327.027	123.05
327.24	178.34
327.453	-44.88
327.666	145.58
327.879	127.14
328.092	22.7
328.305	80.04
328.518	71.85
328.731	75.95
328.944	0.17
329.157	80.04
329.37	-32.6
329.583	176.3
329.796	129.19
330.009	-3.93
330.222	118.95
330.435	123.05
330.648	77.99
330.861	49.32
331.073	63.66
331.286	172.2
331.499	94.38
331.712	-20.31
331.925	45.23
332.138	98.47
332.35	135.34
332.563	6.31
332.776	123.05
332.989	24.75
333.202	61.61
333.414	69.8
333.627	39.08
333.84	-12.12
334.053	14.51
334.265	53.42
334.478	8.36
334.691	110.76
334.903	71.85
335.116	-22.36
335.329	34.99
335.541	100.52
335.754	123.05
335.966	22.7
336.179	39.08
336.392	30.89
336.604	30.89
336.817	131.24
337.029	104.62
337.242	43.18
337.454	24.75
337.667	12.46
337.88	104.62
338.092	61.61
338.305	102.57
338.517	94.38
338.729	63.66
338.942	250.02
339.154	4.27
339.367	39.08
339.579	102.57
339.792	-51.03
340.004	151.72
340.217	16.55
340.429	26.79
340.641	32.94
340.854	65.71
341.066	59.56
341.278	145.58
341.491	186.54
341.703	30.89
341.915	114.86
342.128	114.86
342.34	16.55
342.552	-77.65
342.764	28.84
342.977	-20.31
343.189	71.85
343.401	131.24
343.613	-42.84
343.826	118.95
344.038	-59.22
344.25	127.14
344.462	10.41
344.674	63.66
344.886	108.71
345.099	67.75
345.311	133.29
345.523	20.65
345.735	30.89
345.947	41.13
346.159	118.95
346.371	114.86
346.583	106.67
346.795	239.78
347.007	-24.4
347.219	75.95
347.431	34.99
347.643	131.24
347.855	-48.98
348.067	121
348.279	30.89
348.491	90.28
348.703	28.84
348.915	98.47
349.127	57.51
349.339	86.19
349.551	26.79
349.763	28.84
349.975	75.95
350.187	106.67
350.399	125.1
350.61	75.95
350.822	59.56
351.034	30.89
351.246	61.61
351.458	118.95
351.669	125.1
351.881	61.61
352.093	196.78
352.305	86.19
352.517	139.43
352.728	147.62
352.94	157.86
353.152	67.75
353.363	-40.79
353.575	30.89
353.787	221.35
353.999	112.81
354.21	247.97
354.422	-24.4
354.633	-38.74
354.845	82.09
355.057	65.71
355.268	2.22
355.48	155.82
355.692	-53.08
355.903	-14.17
356.115	28.84
356.326	-114.52
356.538	184.49
356.749	123.05
356.961	202.92
357.172	34.99
357.384	61.61
357.595	282.79
357.807	18.6
358.018	-28.5
358.23	129.19
358.441	180.39
358.653	73.9
358.864	84.14
359.075	24.75
359.287	61.61
359.498	110.76
359.709	121
359.921	143.53
360.132	82.09
360.344	39.08
360.555	43.18
360.766	32.94
360.977	57.51
361.189	77.99
361.4	-12.12
361.611	108.71
361.823	192.68
362.034	39.08
362.245	-1.88
362.456	61.61
362.667	127.14
362.879	-28.5
363.09	30.89
363.301	75.95
363.512	24.75
363.723	-30.55
363.935	-5.97
364.146	57.51
364.357	34.99
364.568	57.51
364.779	16.55
364.99	196.78
365.201	10.41
365.412	118.95
365.623	-44.88
365.834	164.01
366.045	63.66
366.256	174.25
366.467	174.25
366.678	92.33
366.889	45.23
367.1	-16.21
367.311	96.43
367.522	73.9
367.733	73.9
367.944	135.34
368.155	34.99
368.366	18.6
368.577	116.9
368.788	196.78
368.999	-1.88
369.209	30.89
369.42	190.63
369.631	258.21
369.842	80.04
370.053	59.56
370.264	104.62
370.474	-16.21
370.685	47.27
370.896	45.23
371.107	147.62
371.317	129.19
371.528	-57.17
371.739	229.54
371.95	43.18
372.16	92.33
372.371	24.75
372.582	14.51
372.792	121
373.003	116.9
373.214	80.04
373.424	125.1
373.635	47.27
373.846	176.3
374.056	92.33
374.267	139.43
374.477	90.28
374.688	-12.12
374.898	86.19
375.109	75.95
375.319	90.28
375.53	157.86
375.74	125.1
375.951	20.65
376.161	151.72
376.372	41.13
376.582	26.79
376.793	30.89
377.003	30.89
377.214	16.55
377.424	82.09
377.635	59.56
377.845	45.23
378.055	200.87
378.266	-79.7
378.476	61.61
378.686	32.94
378.897	41.13
379.107	96.43
379.317	102.57
379.528	-12.12
379.738	133.29
379.948	-32.6
380.158	118.95
380.369	63.66
380.579	182.44
380.789	65.71
380.999	63.66
381.21	127.14
381.42	151.72
381.63	28.84
381.84	110.76
382.05	145.58
382.261	231.59
382.471	121
382.681	8.36
382.891	108.71
383.101	65.71
383.311	-18.26
383.521	96.43
383.731	104.62
383.941	157.86
384.151	32.94
384.361	143.53
384.571	90.28
384.781	73.9
384.991	178.34
385.201	213.16
385.411	168.1
385.621	55.47
385.831	133.29
386.041	53.42
386.251	86.19
386.461	45.23
386.671	51.37
386.881	106.67
387.091	100.52
387.301	118.95
387.511	96.43
387.72	57.51
387.93	123.05
388.14	-69.46
388.35	80.04
388.56	14.51
388.769	127.14
388.979	34.99
389.189	-16.21
389.399	159.91
389.609	102.57
389.818	77.99
390.028	39.08
390.238	145.58
390.447	16.55
390.657	98.47
390.867	24.75
391.076	-12.12
391.286	88.23
391.496	94.38
391.705	71.85
391.915	198.82
392.125	245.93
392.334	47.27
392.544	49.32
392.753	63.66
392.963	45.23
393.172	82.09
393.382	41.13
393.591	133.29
393.801	41.13
394.01	176.3
394.22	106.67
394.429	57.51
394.639	51.37
394.848	57.51
395.058	108.71
395.267	-22.36
395.477	172.2
395.686	39.08
395.895	221.35
396.105	219.3
396.314	18.6
396.524	45.23
396.733	127.14
396.942	176.3
397.152	82.09
397.361	164.01
397.57	221.35
397.78	69.8
397.989	69.8
398.198	245.93
398.407	-1.88
398.617	43.18
398.826	39.08
399.035	63.66
399.244	53.42
399.453	51.37
399.663	80.04
399.872	157.86
400.081	34.99
400.29	235.69
400.499	73.9
400.708	147.62
400.917	86.19
401.127	34.99
401.336	28.84
401.545	196.78
401.754	178.34
401.963	112.81
402.172	59.56
402.381	-48.98
402.59	-28.5
402.799	86.19
403.008	98.47
403.217	161.96
403.426	141.48
403.635	-10.07
403.844	-14.17
404.053	92.33
404.262	28.84
404.471	168.1
404.68	110.76
404.888	88.23
405.097	69.8
405.306	188.58
405.515	123.05
405.724	53.42
405.933	204.97
406.142	135.34
406.35	110.76
406.559	59.56
406.768	114.86
406.977	164.01
407.185	114.86
407.394	61.61
407.603	-53.08
407.812	92.33
408.02	131.24
408.229	145.58
408.438	145.58
408.646	22.7
408.855	28.84
409.064	53.42
409.272	-18.26
409.481	176.3
409.69	69.8
409.898	41.13
410.107	45.23
410.315	100.52
410.524	88.23
410.733	51.37
410.941	-1.88
411.15	133.29
411.358	51.37
411.567	71.85
411.775	129.19
411.984	57.51
412.192	141.48
412.401	-26.45
412.609	176.3
412.818	198.82
413.026	100.52
413.234	49.32
413.443	16.55
413.651	41.13
413.86	-10.07
414.068	194.73
414.276	231.59
414.485	-32.6
414.693	264.36
414.901	114.86
415.11	65.71
415.318	55.47
415.526	67.75
415.734	141.48
415.943	106.67
416.151	112.81
416.359	98.47
416.567	131.24
416.776	123.05
416.984	82.09
417.192	186.54
417.4	-5.97
417.608	59.56
417.817	-71.51
418.025	110.76
418.233	192.68
418.441	14.51
418.649	61.61
418.857	96.43
419.065	178.34
419.273	75.95
419.481	110.76
419.689	41.13
419.897	-16.21
420.105	43.18
420.313	69.8
420.521	114.86
420.729	155.82
420.937	24.75
421.145	-18.26
421.353	192.68
421.561	254.12
421.769	84.14
421.977	22.7
422.185	112.81
422.393	69.8
422.601	92.33
422.809	51.37
423.017	178.34
423.224	131.24
423.432	229.54
423.64	0.17
423.848	114.86
424.056	39.08
424.263	127.14
424.471	59.56
424.679	172.2
424.887	26.79
425.094	184.49
425.302	110.76
425.51	69.8
425.718	198.82
425.925	45.23
426.133	8.36
426.341	278.69
426.548	102.57
426.756	28.84
426.964	133.29
427.171	65.71
427.379	116.9
427.586	96.43
427.794	209.06
428.001	137.38
428.209	110.76
428.417	239.78
428.624	172.2
428.832	157.86
429.039	121
429.247	12.46
429.454	143.53
429.662	211.11
429.869	184.49
430.076	188.58
430.284	227.5
430.491	170.15
430.699	231.59
430.906	233.64
431.114	108.71
431.321	168.1
431.528	129.19
431.736	116.9
431.943	229.54
432.15	200.87
432.358	202.92
432.565	327.85
432.772	92.33
432.979	268.45
433.187	190.63
433.394	229.54
433.601	151.72
433.808	286.89
434.016	319.65
434.223	223.4
434.43	250.02
434.637	311.46
434.844	321.7
435.052	227.5
435.259	315.56
435.466	260.26
435.673	293.03
435.88	303.27
436.087	377
436.294	372.9
436.501	313.51
436.708	299.17
436.915	381.09
437.122	368.81
437.329	286.89
437.537	407.72
437.743	364.71
437.95	491.68
438.157	436.39
438.364	372.9
438.571	475.3
438.778	467.11
438.985	546.98
439.192	551.07
439.399	434.34
439.606	473.25
439.813	659.62
440.02	626.85
440.227	592.03
440.433	532.64
440.64	536.74
440.847	557.22
441.054	665.76
441.261	710.82
441.467	700.58
441.674	692.38
441.881	817.31
442.088	694.43
442.294	794.78
442.501	817.31
442.708	821.41
442.914	843.93
443.121	901.28
443.328	942.24
443.534	1075.35
443.741	1018.01
443.948	841.89
444.154	1067.16
444.361	1140.89
444.568	1104.03
444.774	1083.55
444.981	1067.16
445.187	1198.23
445.394	1245.34
445.6	1314.97
445.807	1394.84
446.013	1425.56
446.22	1380.5
446.426	1556.63
446.633	1507.48
446.839	1829.01
447.046	1487
447.252	1722.51
447.459	1605.78
447.665	1722.51
447.871	1941.65
448.078	2091.15
448.284	1921.17
448.491	2105.48
448.697	2338.95
448.903	2275.46
449.11	2429.06
449.316	2300.04
449.522	2392.2
449.728	2449.54
449.935	2609.28
450.141	2773.12
450.347	2963.58
450.553	2869.37
450.76	2975.87
450.966	3182.71
451.172	3172.47
451.378	3268.73
451.584	3414.13
451.791	3584.12
451.997	3727.47
452.203	3866.74
452.409	4028.53
452.615	4106.35
452.821	4032.62
453.027	4077.68
453.233	4683.88
453.44	4491.37
453.646	4647.01
453.852	4823.14
454.058	5052.51
454.264	5089.37
454.47	5552.21
454.676	5564.5
454.882	6185.04
455.088	5763.15
455.294	6015.05
455.5	6568.01
455.705	6897.73
455.911	6942.78
456.117	7163.97
456.323	7487.54
456.529	7327.8
456.735	8114.22
456.941	8273.96
457.147	8482.86
457.352	8730.66
457.558	9224.22
457.764	9621.53
457.97	9811.99
458.176	10022.93
458.381	10756.1
458.587	10909.7
458.793	11309.05
458.999	11282.43
459.204	12965.86
459.41	13254.62
459.616	12898.28
459.821	13778.9
460.027	14409.68
460.233	15105.99
460.438	15138.76
460.644	15763.39
460.85	16215.99
461.055	16711.6
461.261	17811.35
461.466	17098.66
461.672	17438.62
461.878	19746.69
462.083	19453.83
462.289	19916.67
462.494	20514.67
462.7	20676.46
462.905	20883.31
463.111	22523.73
463.316	23650.11
463.522	24549.17
463.727	24940.33
463.932	26072.86
464.138	26851.09
464.343	27717.38
464.549	27977.47
464.754	30236.38
464.959	30772.95
465.165	31276.75
465.37	31162.06
465.575	31248.08
465.781	33445.55
465.986	34113.19
466.191	33762.98
466.397	33756.84
466.602	33326.77
466.807	35198.61
467.012	36116.1
467.218	36574.84
467.423	36425.34
