Data from USB4F104151__258__11-20-14-235.txt Node

Date: Wed Feb 26 11:20:14 EST 2025
User: louis
Spectrometer: USB4F10415
Trigger mode: 4
Integration Time (sec): 1.000000E-1
Scans to average: 1
Electric dark correction enabled: true
Nonlinearity correction enabled: false
Boxcar width: 0
XAxis mode: Wavelengths
Number of Pixels in Spectrum: 3648
>>>>>Begin Spectral Data<<<<<
178.204	-418.81
178.424	-418.81
178.644	-418.81
178.864	-433.15
179.084	-431.1
179.304	7.17
179.524	-1.02
179.744	39.94
179.964	68.61
180.184	-11.26
180.404	1.02
180.624	-54.27
180.844	-7.17
181.064	-95.23
181.283	27.65
181.503	13.31
181.723	11.26
181.943	-101.37
182.163	205.82
182.383	-33.79
182.602	72.7
182.822	111.61
183.042	101.37
183.262	-80.89
183.482	5.12
183.701	7.17
183.921	109.57
184.141	-23.55
184.361	89.09
184.58	37.89
184.8	3.07
185.02	-21.5
185.239	99.33
185.459	46.08
185.679	93.18
185.898	-56.32
186.118	35.84
186.338	46.08
186.557	111.61
186.777	-7.17
186.997	27.65
187.216	-15.36
187.436	226.3
187.655	66.56
187.875	76.8
188.095	17.41
188.314	111.61
188.534	236.54
188.753	33.79
188.973	39.94
189.192	111.61
189.412	37.89
189.631	62.46
189.851	84.99
190.07	195.58
190.29	19.46
190.509	1.02
190.729	33.79
190.948	132.09
191.168	269.31
191.387	78.85
191.607	80.89
191.826	113.66
192.045	-13.31
192.265	50.18
192.484	113.66
192.704	74.75
192.923	-17.41
193.142	156.67
193.362	117.76
193.581	119.81
193.8	89.09
194.02	144.38
194.239	142.33
194.458	74.75
194.678	-19.46
194.897	21.5
195.116	105.47
195.335	87.04
195.555	117.76
195.774	-103.42
195.993	87.04
196.212	52.22
196.432	70.65
196.651	33.79
196.87	-11.26
197.089	236.54
197.308	11.26
197.528	80.89
197.747	-46.08
197.966	76.8
198.185	119.81
198.404	70.65
198.623	156.67
198.842	76.8
199.062	138.24
199.281	142.33
199.5	82.94
199.719	89.09
199.938	-9.22
200.157	1.02
200.376	125.95
200.595	125.95
200.814	46.08
201.033	-27.65
201.252	97.28
201.471	105.47
201.69	52.22
201.909	109.57
202.128	214.01
202.347	113.66
202.566	115.71
202.785	-46.08
203.004	-3.07
203.223	259.07
203.442	-21.5
203.661	-5.12
203.879	25.6
204.098	158.72
204.317	39.94
204.536	103.42
204.755	160.77
204.974	105.47
205.193	23.55
205.411	138.24
205.63	89.09
205.849	54.27
206.068	64.51
206.287	-76.8
206.505	80.89
206.724	87.04
206.943	-33.79
207.162	25.6
207.381	19.46
207.599	84.99
207.818	103.42
208.037	25.6
208.255	62.46
208.474	54.27
208.693	44.03
208.911	-15.36
209.13	107.52
209.349	119.81
209.567	97.28
209.786	134.14
210.005	103.42
210.223	-1.02
210.442	-68.61
210.661	113.66
210.879	68.61
211.098	52.22
211.316	113.66
211.535	15.36
211.753	11.26
211.972	66.56
212.191	7.17
212.409	95.23
212.628	97.28
212.846	54.27
213.065	41.98
213.283	101.37
213.502	25.6
213.72	56.32
213.938	25.6
214.157	60.42
214.375	72.7
214.594	56.32
214.812	138.24
215.031	87.04
215.249	123.9
215.467	39.94
215.686	25.6
215.904	52.22
216.122	89.09
216.341	224.25
216.559	84.99
216.778	107.52
216.996	185.34
217.214	68.61
217.432	54.27
217.651	-62.46
217.869	52.22
218.087	3.07
218.306	17.41
218.524	72.7
218.742	25.6
218.96	168.96
219.179	84.99
219.397	29.7
219.615	257.02
219.833	99.33
220.051	-44.03
220.27	87.04
220.488	177.15
220.706	25.6
220.924	41.98
221.142	13.31
221.36	17.41
221.578	95.23
221.796	-5.12
222.015	19.46
222.233	87.04
222.451	197.63
222.669	-31.74
222.887	128
223.105	37.89
223.323	17.41
223.541	-1.02
223.759	11.26
223.977	-13.31
224.195	168.96
224.413	154.62
224.631	9.22
224.849	132.09
225.067	154.62
225.285	-25.6
225.503	-7.17
225.721	-64.51
225.939	5.12
226.157	111.61
226.375	240.64
226.592	80.89
226.81	41.98
227.028	142.33
227.246	150.53
227.464	33.79
227.682	95.23
227.9	91.13
228.117	107.52
228.335	27.65
228.553	33.79
228.771	46.08
228.989	50.18
229.206	123.9
229.424	52.22
229.642	15.36
229.86	-84.99
230.077	93.18
230.295	-33.79
230.513	146.43
230.731	144.38
230.948	185.34
231.166	99.33
231.384	54.27
231.601	-7.17
231.819	191.49
232.037	-54.27
232.254	-13.31
232.472	21.5
232.689	5.12
232.907	109.57
233.125	-5.12
233.342	-7.17
233.56	33.79
233.777	68.61
233.995	44.03
234.213	52.22
234.43	82.94
234.648	74.75
234.865	-11.26
235.083	111.61
235.3	84.99
235.518	101.37
235.735	187.39
235.953	136.19
236.17	13.31
236.388	72.7
236.605	82.94
236.822	54.27
237.04	156.67
237.257	78.85
237.475	29.7
237.692	72.7
237.909	132.09
238.127	13.31
238.344	7.17
238.562	62.46
238.779	-13.31
238.996	-23.55
239.214	29.7
239.431	76.8
239.648	-29.7
239.865	87.04
240.083	115.71
240.3	11.26
240.517	58.37
240.735	50.18
240.952	140.29
241.169	130.05
241.386	82.94
241.603	80.89
241.821	-23.55
242.038	148.48
242.255	117.76
242.472	44.03
242.689	128
242.907	136.19
243.124	9.22
243.341	19.46
243.558	37.89
243.775	-23.55
243.992	-50.18
244.209	46.08
244.426	254.97
244.643	125.95
244.86	39.94
245.078	56.32
245.295	66.56
245.512	62.46
245.729	-21.5
245.946	44.03
246.163	56.32
246.38	11.26
246.597	80.89
246.814	29.7
247.031	9.22
247.248	111.61
247.464	111.61
247.681	105.47
247.898	35.84
248.115	107.52
248.332	-3.07
248.549	154.62
248.766	148.48
248.983	15.36
249.2	181.25
249.417	121.85
249.633	-19.46
249.85	84.99
250.067	-3.07
250.284	-41.98
250.501	48.13
250.717	121.85
250.934	17.41
251.151	21.5
251.368	64.51
251.585	87.04
251.801	97.28
252.018	-11.26
252.235	107.52
252.451	35.84
252.668	29.7
252.885	156.67
253.102	87.04
253.318	62.46
253.535	-7.17
253.752	19.46
253.968	-15.36
254.185	-68.61
254.401	46.08
254.618	58.37
254.835	-35.84
255.051	123.9
255.268	140.29
255.484	103.42
255.701	62.46
255.917	113.66
256.134	19.46
256.351	31.74
256.567	41.98
256.784	58.37
257	1.02
257.217	162.81
257.433	93.18
257.65	107.52
257.866	179.2
258.082	7.17
258.299	19.46
258.515	105.47
258.732	-5.12
258.948	-21.5
259.165	46.08
259.381	-13.31
259.597	95.23
259.814	31.74
260.03	-17.41
260.246	41.98
260.463	111.61
260.679	37.89
260.895	87.04
261.112	132.09
261.328	80.89
261.544	-15.36
261.761	160.77
261.977	52.22
262.193	-31.74
262.409	138.24
262.626	25.6
262.842	9.22
263.058	41.98
263.274	46.08
263.49	54.27
263.707	119.81
263.923	91.13
264.139	-33.79
264.355	60.42
264.571	62.46
264.787	93.18
265.004	156.67
265.22	97.28
265.436	50.18
265.652	7.17
265.868	105.47
266.084	1.02
266.3	17.41
266.516	19.46
266.732	156.67
266.948	41.98
267.164	48.13
267.38	68.61
267.596	37.89
267.812	177.15
268.028	84.99
268.244	-1.02
268.46	1.02
268.676	21.5
268.892	54.27
269.108	-29.7
269.324	27.65
269.54	-35.84
269.756	128
269.972	-3.07
270.188	29.7
270.403	-35.84
270.619	9.22
270.835	113.66
271.051	58.37
271.267	3.07
271.483	33.79
271.698	166.91
271.914	121.85
272.13	80.89
272.346	64.51
272.562	27.65
272.777	89.09
272.993	5.12
273.209	82.94
273.425	132.09
273.64	33.79
273.856	37.89
274.072	-7.17
274.287	5.12
274.503	164.86
274.719	27.65
274.934	35.84
275.15	-91.13
275.366	15.36
275.581	37.89
275.797	50.18
276.012	121.85
276.228	-35.84
276.444	103.42
276.659	95.23
276.875	-48.13
277.09	-13.31
277.306	46.08
277.521	95.23
277.737	72.7
277.952	54.27
278.168	60.42
278.383	87.04
278.599	52.22
278.814	87.04
279.03	111.61
279.245	107.52
279.461	58.37
279.676	158.72
279.892	-70.65
280.107	-5.12
280.322	-19.46
280.538	113.66
280.753	13.31
280.969	103.42
281.184	23.55
281.399	109.57
281.615	109.57
281.83	97.28
282.045	-23.55
282.26	-25.6
282.476	31.74
282.691	123.9
282.906	117.76
283.122	74.75
283.337	-9.22
283.552	111.61
283.767	1.02
283.983	142.33
284.198	91.13
284.413	84.99
284.628	-3.07
284.843	60.42
285.058	13.31
285.274	13.31
285.489	1.02
285.704	46.08
285.919	-11.26
286.134	-21.5
286.349	64.51
286.564	-23.55
286.779	168.96
286.995	64.51
287.21	-70.65
287.425	175.1
287.64	27.65
287.855	41.98
288.07	-54.27
288.285	181.25
288.5	211.96
288.715	54.27
288.93	76.8
289.145	-7.17
289.36	76.8
289.575	-70.65
289.79	103.42
290.004	7.17
290.219	105.47
290.434	44.03
290.649	64.51
290.864	17.41
291.079	9.22
291.294	54.27
291.509	142.33
291.724	9.22
291.938	62.46
292.153	74.75
292.368	-5.12
292.583	95.23
292.798	119.81
293.012	76.8
293.227	31.74
293.442	52.22
293.657	113.66
293.871	187.39
294.086	107.52
294.301	193.53
294.516	134.14
294.73	130.05
294.945	-35.84
295.16	19.46
295.374	132.09
295.589	91.13
295.804	-19.46
296.018	52.22
296.233	209.92
296.447	44.03
296.662	-27.65
296.877	123.9
297.091	136.19
297.306	35.84
297.52	9.22
297.735	35.84
297.949	95.23
298.164	123.9
298.378	76.8
298.593	44.03
298.807	-9.22
299.022	-17.41
299.236	138.24
299.451	-33.79
299.665	31.74
299.88	9.22
300.094	117.76
300.309	70.65
300.523	66.56
300.737	-52.22
300.952	31.74
301.166	99.33
301.381	-39.94
301.595	-31.74
301.809	25.6
302.024	-19.46
302.238	-115.71
302.452	154.62
302.667	25.6
302.881	185.34
303.095	31.74
303.309	134.14
303.524	54.27
303.738	17.41
303.952	7.17
304.166	168.96
304.381	-37.89
304.595	109.57
304.809	41.98
305.023	5.12
305.237	-11.26
305.452	5.12
305.666	74.75
305.88	9.22
306.094	166.91
306.308	138.24
306.522	132.09
306.736	23.55
306.95	197.63
307.164	-46.08
307.379	35.84
307.593	189.44
307.807	222.2
308.021	3.07
308.235	80.89
308.449	-48.13
308.663	82.94
308.877	222.2
309.091	140.29
309.305	58.37
309.519	-56.32
309.733	142.33
309.947	5.12
310.161	27.65
310.374	130.05
310.588	103.42
310.802	-5.12
311.016	78.85
311.23	72.7
311.444	-9.22
311.658	48.13
311.872	168.96
312.085	128
312.299	191.49
312.513	128
312.727	35.84
312.941	121.85
313.154	21.5
313.368	54.27
313.582	44.03
313.796	82.94
314.009	48.13
314.223	209.92
314.437	46.08
314.651	134.14
314.864	80.89
315.078	-15.36
315.292	-87.04
315.505	13.31
315.719	121.85
315.933	39.94
316.146	3.07
316.36	19.46
316.573	154.62
316.787	154.62
317.001	58.37
317.214	-48.13
317.428	21.5
317.641	-31.74
317.855	58.37
318.068	93.18
318.282	44.03
318.495	140.29
318.709	89.09
318.922	70.65
319.136	193.53
319.349	113.66
319.563	41.98
319.776	74.75
319.99	-7.17
320.203	58.37
320.417	50.18
320.63	91.13
320.843	193.53
321.057	72.7
321.27	29.7
321.483	111.61
321.697	105.47
321.91	58.37
322.124	46.08
322.337	35.84
322.55	64.51
322.763	74.75
322.977	35.84
323.19	-39.94
323.403	-1.02
323.617	48.13
323.83	91.13
324.043	19.46
324.256	37.89
324.469	3.07
324.683	99.33
324.896	121.85
325.109	82.94
325.322	-37.89
325.535	54.27
325.748	142.33
325.962	9.22
326.175	62.46
326.388	78.85
326.601	-15.36
326.814	17.41
327.027	64.51
327.24	168.96
327.453	-17.41
327.666	72.7
327.879	130.05
328.092	35.84
328.305	148.48
328.518	1.02
328.731	-5.12
328.944	39.94
329.157	121.85
329.37	-1.02
329.583	87.04
329.796	183.29
330.009	-48.13
330.222	27.65
330.435	146.43
330.648	87.04
330.861	-25.6
331.073	37.89
331.286	142.33
331.499	142.33
331.712	11.26
331.925	103.42
332.138	97.28
332.35	105.47
332.563	3.07
332.776	195.58
332.989	48.13
333.202	50.18
333.414	74.75
333.627	-7.17
333.84	41.98
334.053	54.27
334.265	-33.79
334.478	15.36
334.691	60.42
334.903	171.01
335.116	5.12
335.329	58.37
335.541	82.94
335.754	211.96
335.966	11.26
336.179	27.65
336.392	13.31
336.604	107.52
336.817	150.53
337.029	199.68
337.242	84.99
337.454	54.27
337.667	7.17
337.88	187.39
338.092	80.89
338.305	80.89
338.517	-13.31
338.729	125.95
338.942	216.06
339.154	111.61
339.367	-21.5
339.579	115.71
339.792	-1.02
340.004	76.8
340.217	97.28
340.429	89.09
340.641	46.08
340.854	25.6
341.066	62.46
341.278	128
341.491	173.05
341.703	33.79
341.915	-15.36
342.128	99.33
342.34	64.51
342.552	29.7
342.764	7.17
342.977	68.61
343.189	39.94
343.401	19.46
343.613	-21.5
343.826	74.75
344.038	101.37
344.25	101.37
344.462	3.07
344.674	84.99
344.886	44.03
345.099	33.79
345.311	107.52
345.523	9.22
345.735	-31.74
345.947	64.51
346.159	56.32
346.371	39.94
346.583	33.79
346.795	156.67
347.007	11.26
347.219	68.61
347.431	-58.37
347.643	160.77
347.855	-3.07
348.067	125.95
348.279	-1.02
348.491	134.14
348.703	128
348.915	31.74
349.127	-82.94
349.339	70.65
349.551	-44.03
349.763	93.18
349.975	60.42
350.187	164.86
350.399	185.34
350.61	52.22
350.822	46.08
351.034	41.98
351.246	72.7
351.458	191.49
351.669	132.09
351.881	119.81
352.093	80.89
352.305	117.76
352.517	29.7
352.728	158.72
352.94	113.66
353.152	58.37
353.363	1.02
353.575	56.32
353.787	148.48
353.999	76.8
354.21	173.05
354.422	-125.95
354.633	-31.74
354.845	76.8
355.057	91.13
355.268	66.56
355.48	19.46
355.692	50.18
355.903	48.13
356.115	-62.46
356.326	-70.65
356.538	128
356.749	74.75
356.961	171.01
357.172	33.79
357.384	-21.5
357.595	185.34
357.807	74.75
358.018	11.26
358.23	91.13
358.441	138.24
358.653	117.76
358.864	109.57
359.075	52.22
359.287	109.57
359.498	185.34
359.709	82.94
359.921	62.46
360.132	160.77
360.344	99.33
360.555	107.52
360.766	121.85
360.977	-11.26
361.189	121.85
361.4	93.18
361.611	158.72
361.823	113.66
362.034	76.8
362.245	-101.37
362.456	82.94
362.667	54.27
362.879	-17.41
363.09	123.9
363.301	66.56
363.512	41.98
363.723	44.03
363.935	15.36
364.146	130.05
364.357	-19.46
364.568	46.08
364.779	-31.74
364.99	187.39
365.201	-29.7
365.412	74.75
365.623	-37.89
365.834	148.48
366.045	21.5
366.256	27.65
366.467	87.04
366.678	23.55
366.889	19.46
367.1	21.5
367.311	171.01
367.522	50.18
367.733	152.57
367.944	105.47
368.155	-29.7
368.366	175.1
368.577	168.96
368.788	140.29
368.999	-31.74
369.209	93.18
369.42	218.11
369.631	277.5
369.842	70.65
370.053	46.08
370.264	164.86
370.474	13.31
370.685	72.7
370.896	27.65
371.107	150.53
371.317	54.27
371.528	13.31
371.739	222.2
371.95	99.33
372.16	44.03
372.371	-41.98
372.582	5.12
372.792	95.23
373.003	3.07
373.214	50.18
373.424	72.7
373.635	-41.98
373.846	146.43
374.056	54.27
374.267	70.65
374.477	48.13
374.688	-56.32
374.898	74.75
375.109	50.18
375.319	123.9
375.53	222.2
375.74	125.95
375.951	52.22
376.161	119.81
376.372	132.09
376.582	13.31
376.793	80.89
377.003	17.41
377.214	1.02
377.424	35.84
377.635	39.94
377.845	64.51
378.055	128
378.266	5.12
378.476	41.98
378.686	13.31
378.897	68.61
379.107	154.62
379.317	93.18
379.528	70.65
379.738	123.9
379.948	7.17
380.158	5.12
380.369	-5.12
380.579	87.04
380.789	-41.98
380.999	168.96
381.21	191.49
381.42	248.83
381.63	41.98
381.84	39.94
382.05	70.65
382.261	103.42
382.471	117.76
382.681	39.94
382.891	201.72
383.101	123.9
383.311	-9.22
383.521	52.22
383.731	105.47
383.941	78.85
384.151	123.9
384.361	5.12
384.571	191.49
384.781	97.28
384.991	205.82
385.201	150.53
385.411	48.13
385.621	89.09
385.831	125.95
386.041	80.89
386.251	-15.36
386.461	171.01
386.671	17.41
386.881	95.23
387.091	-11.26
387.301	189.44
387.511	78.85
387.72	103.42
387.93	99.33
388.14	-41.98
388.35	64.51
388.56	160.77
388.769	156.67
388.979	56.32
389.189	11.26
389.399	99.33
389.609	144.38
389.818	87.04
390.028	82.94
390.238	103.42
390.447	-25.6
390.657	-9.22
390.867	33.79
391.076	-48.13
391.286	41.98
391.496	56.32
391.705	35.84
391.915	128
392.125	164.86
392.334	19.46
392.544	117.76
392.753	142.33
392.963	9.22
393.172	107.52
393.382	39.94
393.591	156.67
393.801	41.98
394.01	134.14
394.22	148.48
394.429	68.61
394.639	23.55
394.848	72.7
395.058	101.37
395.267	50.18
395.477	125.95
395.686	48.13
395.895	250.88
396.105	224.25
396.314	87.04
396.524	44.03
396.733	50.18
396.942	82.94
397.152	84.99
397.361	138.24
397.57	107.52
397.78	70.65
397.989	218.11
398.198	162.81
398.407	117.76
398.617	80.89
398.826	117.76
399.035	39.94
399.244	93.18
399.453	99.33
399.663	132.09
399.872	80.89
400.081	-44.03
400.29	84.99
400.499	-44.03
400.708	95.23
400.917	125.95
401.127	105.47
401.336	15.36
401.545	183.29
401.754	97.28
401.963	138.24
402.172	140.29
402.381	9.22
402.59	-29.7
402.799	48.13
403.008	160.77
403.217	62.46
403.426	74.75
403.635	-5.12
403.844	64.51
404.053	93.18
404.262	60.42
404.471	248.83
404.68	35.84
404.888	132.09
405.097	70.65
405.306	115.71
405.515	136.19
405.724	-29.7
405.933	185.34
406.142	9.22
406.35	152.57
406.559	33.79
406.768	44.03
406.977	234.49
407.185	115.71
407.394	56.32
407.603	-17.41
407.812	54.27
408.02	142.33
408.229	87.04
408.438	97.28
408.646	-60.42
408.855	93.18
409.064	72.7
409.272	72.7
409.481	130.05
409.69	25.6
409.898	-25.6
410.107	134.14
410.315	177.15
410.524	80.89
410.733	27.65
410.941	39.94
411.15	72.7
411.358	78.85
411.567	144.38
411.775	117.76
411.984	160.77
412.192	89.09
412.401	72.7
412.609	140.29
412.818	60.42
413.026	142.33
413.234	84.99
413.443	46.08
413.651	52.22
413.86	17.41
414.068	162.81
414.276	220.16
414.485	13.31
414.693	168.96
414.901	144.38
415.11	105.47
415.318	66.56
415.526	121.85
415.734	97.28
415.943	146.43
416.151	173.05
416.359	68.61
416.567	64.51
416.776	84.99
416.984	103.42
417.192	220.16
417.4	39.94
417.608	39.94
417.817	-50.18
418.025	199.68
418.233	113.66
418.441	21.5
418.649	-7.17
418.857	37.89
419.065	154.62
419.273	89.09
419.481	23.55
419.689	-3.07
419.897	-21.5
420.105	-35.84
420.313	132.09
420.521	222.2
420.729	132.09
420.937	29.7
421.145	25.6
421.353	91.13
421.561	220.16
421.769	103.42
421.977	50.18
422.185	74.75
422.393	105.47
422.601	119.81
422.809	99.33
423.017	84.99
423.224	132.09
423.432	152.57
423.64	33.79
423.848	218.11
424.056	48.13
424.263	142.33
424.471	89.09
424.679	226.3
424.887	17.41
425.094	191.49
425.302	39.94
425.51	72.7
425.718	175.1
425.925	82.94
426.133	48.13
426.341	207.87
426.548	183.29
426.756	41.98
426.964	107.52
427.171	60.42
427.379	132.09
427.586	48.13
427.794	123.9
428.001	207.87
428.209	142.33
428.417	199.68
428.624	93.18
428.832	93.18
429.039	66.56
429.247	142.33
429.454	205.82
429.662	257.02
429.869	220.16
430.076	148.48
430.284	179.2
430.491	175.1
430.699	171.01
430.906	285.69
431.114	121.85
431.321	168.96
431.528	185.34
431.736	175.1
431.943	183.29
432.15	181.25
432.358	240.64
432.565	306.17
432.772	130.05
432.979	265.21
433.187	214.01
433.394	271.36
433.601	128
433.808	279.55
434.016	207.87
434.223	211.96
434.43	209.92
434.637	343.03
434.844	390.14
435.052	306.17
435.259	363.51
435.466	359.42
435.673	265.21
435.88	367.61
436.087	517.11
436.294	392.19
436.501	416.76
436.708	314.36
436.915	297.98
437.122	439.29
437.329	338.94
437.537	396.28
437.743	418.81
437.95	484.34
438.157	418.81
438.364	390.14
438.571	494.58
438.778	578.55
438.985	572.41
439.192	529.4
439.399	539.64
439.606	523.26
439.813	599.03
440.02	668.66
440.227	683
440.433	680.95
440.64	642.04
440.847	525.3
441.054	642.04
441.261	809.97
441.467	754.68
441.674	762.87
441.881	752.63
442.088	711.67
442.294	855.03
442.501	867.31
442.708	867.31
442.914	963.57
443.121	1045.49
443.328	1104.88
443.534	1047.54
443.741	986.1
443.948	1037.3
444.154	1162.22
444.361	1334.25
444.568	1197.04
444.774	1213.42
444.981	1123.31
445.187	1424.36
445.394	1371.12
445.6	1319.92
445.807	1514.47
446.013	1489.9
446.22	1504.23
446.426	1674.21
446.633	1700.84
446.839	1836
447.046	1604.58
447.252	1858.53
447.459	1766.37
447.665	1852.39
447.871	2085.86
448.078	2137.06
448.284	2077.66
448.491	2325.47
448.697	2323.42
448.903	2601.94
449.11	2569.18
449.316	2429.91
449.522	2753.49
449.728	2808.79
449.935	3013.59
450.141	2933.72
450.347	3036.11
450.553	3066.83
450.76	3214.29
450.966	3484.62
451.172	3419.08
451.378	3699.66
451.584	3605.45
451.791	4086.72
451.997	3976.13
452.203	4258.75
452.409	4305.85
452.615	4404.16
452.821	4582.33
453.027	4410.3
453.233	5004.21
453.44	4860.85
453.646	5172.15
453.852	5362.61
454.058	5688.23
454.264	5759.91
454.47	6081.44
454.676	6267.81
454.882	6603.68
455.088	6341.54
455.294	6716.31
455.5	7269.27
455.705	7775.11
455.911	7621.52
456.117	7838.6
456.323	8213.38
456.529	8115.08
456.735	8819.58
456.941	9100.15
457.147	9302.9
457.352	9708.4
457.558	9974.63
457.764	10576.73
457.97	10873.69
458.176	11369.3
458.381	11871.05
458.587	11973.45
458.793	12608.32
458.999	12544.83
459.204	14068.52
459.41	14723.87
459.616	14273.32
459.821	15362.84
460.027	15991.56
460.233	16685.83
460.438	16753.41
460.644	17519.35
460.85	18043.63
461.055	18572
461.261	19249.88
461.466	19157.72
461.672	19567.32
461.878	21725.88
462.083	21811.89
462.289	21885.62
462.494	22842.02
462.7	22893.22
462.905	23356.06
463.111	25186.94
463.316	26284.65
463.522	26995.3
463.727	27652.7
463.932	28772.94
464.138	29919.8
464.343	30898.73
464.549	30859.82
464.754	33192.45
464.959	34202.1
465.165	34468.34
465.37	34812.4
465.575	33958.39
465.781	37032.39
465.986	37935.55
466.191	37249.48
466.397	37796.29
466.602	36981.2
466.807	39147.95
467.012	39401.89
467.218	40515.99
467.423	40368.54
467.628	41859.46
467.833	43360.62
468.038	42758.52
468.244	42289.53
468.449	43714.92
468.654	43168.11
