Data from USB4F104151__123__10-46-16-558.txt Node

Date: Wed Feb 26 10:46:16 EST 2025
User: louis
Spectrometer: USB4F10415
Trigger mode: 4
Integration Time (sec): 1.000000E-1
Scans to average: 1
Electric dark correction enabled: true
Nonlinearity correction enabled: false
Boxcar width: 0
XAxis mode: Wavelengths
Number of Pixels in Spectrum: 3648
>>>>>Begin Spectral Data<<<<<
178.204	-347.98
178.424	-347.98
178.644	-347.98
178.864	-372.56
179.084	-341.84
179.304	14.51
179.524	2.22
179.744	26.79
179.964	-59.22
180.184	51.37
180.404	45.23
180.624	10.41
180.844	0.17
181.064	-91.99
181.283	28.84
181.503	-106.32
181.723	77.99
181.943	-57.17
182.163	188.58
182.383	-55.12
182.602	16.55
182.822	198.82
183.042	151.72
183.262	22.7
183.482	-22.36
183.701	51.37
183.921	102.57
184.141	-12.12
184.361	51.37
184.58	10.41
184.8	45.23
185.02	2.22
185.239	114.86
185.459	73.9
185.679	149.67
185.898	-10.07
186.118	61.61
186.338	108.71
186.557	110.76
186.777	-130.9
186.997	32.94
187.216	84.14
187.436	252.07
187.655	69.8
187.875	49.32
188.095	-3.93
188.314	250.02
188.534	121
188.753	43.18
188.973	135.34
189.192	166.06
189.412	30.89
189.631	55.47
189.851	121
190.07	147.62
190.29	-32.6
190.509	71.85
190.729	32.94
190.948	250.02
191.168	217.26
191.387	161.96
191.607	34.99
191.826	108.71
192.045	59.56
192.265	100.52
192.484	49.32
192.704	-10.07
192.923	-24.4
193.142	172.2
193.362	41.13
193.581	114.86
193.8	32.94
194.02	121
194.239	57.51
194.458	47.27
194.678	-48.98
194.897	-18.26
195.116	69.8
195.335	75.95
195.555	51.37
195.774	-8.02
195.993	174.25
196.212	-30.55
196.432	14.51
196.651	16.55
196.87	-26.45
197.089	254.12
197.308	16.55
197.528	98.47
197.747	-83.8
197.966	80.04
198.185	141.48
198.404	-59.22
198.623	67.75
198.842	90.28
199.062	98.47
199.281	65.71
199.5	86.19
199.719	10.41
199.938	67.75
200.157	75.95
200.376	145.58
200.595	104.62
200.814	104.62
201.033	-5.97
201.252	157.86
201.471	41.13
201.69	90.28
201.909	53.42
202.128	86.19
202.347	59.56
202.566	104.62
202.785	-57.17
203.004	8.36
203.223	219.3
203.442	-1.88
203.661	-20.31
203.879	71.85
204.098	123.05
204.317	-26.45
204.536	82.09
204.755	-10.07
204.974	67.75
205.193	26.79
205.411	108.71
205.63	161.96
205.849	90.28
206.068	69.8
206.287	-53.08
206.505	176.3
206.724	43.18
206.943	20.65
207.162	-12.12
207.381	53.42
207.599	47.27
207.818	8.36
208.037	-12.12
208.255	14.51
208.474	55.47
208.693	59.56
208.911	20.65
209.13	121
209.349	22.7
209.567	104.62
209.786	90.28
210.005	22.7
210.223	61.61
210.442	-102.23
210.661	55.47
210.879	55.47
211.098	-8.02
211.316	98.47
211.535	47.27
211.753	20.65
211.972	63.66
212.191	57.51
212.409	41.13
212.628	118.95
212.846	-42.84
213.065	80.04
213.283	123.05
213.502	22.7
213.72	80.04
213.938	22.7
214.157	82.09
214.375	184.49
214.594	67.75
214.812	73.9
215.031	-38.74
215.249	20.65
215.467	96.43
215.686	77.99
215.904	100.52
216.122	86.19
216.341	180.39
216.559	65.71
216.778	59.56
216.996	45.23
217.214	45.23
217.432	61.61
217.651	-18.26
217.869	28.84
218.087	90.28
218.306	-12.12
218.524	37.03
218.742	86.19
218.96	139.43
219.179	-20.31
219.397	55.47
219.615	207.02
219.833	145.58
220.051	-69.46
220.27	116.9
220.488	114.86
220.706	43.18
220.924	0.17
221.142	-1.88
221.36	110.76
221.578	73.9
221.796	51.37
222.015	10.41
222.233	-34.64
222.451	121
222.669	-40.79
222.887	141.48
223.105	43.18
223.323	-12.12
223.541	-3.93
223.759	43.18
223.977	32.94
224.195	180.39
224.413	106.67
224.631	108.71
224.849	45.23
225.067	233.64
225.285	10.41
225.503	30.89
225.721	-51.03
225.939	14.51
226.157	39.08
226.375	198.82
226.592	6.31
226.81	-1.88
227.028	30.89
227.246	194.73
227.464	77.99
227.682	123.05
227.9	16.55
228.117	22.7
228.335	-12.12
228.553	65.71
228.771	49.32
228.989	71.85
229.206	108.71
229.424	16.55
229.642	10.41
229.86	-42.84
230.077	125.1
230.295	121
230.513	168.1
230.731	-1.88
230.948	104.62
231.166	131.24
231.384	-24.4
231.601	-10.07
231.819	196.78
232.037	34.99
232.254	-55.12
232.472	8.36
232.689	75.95
232.907	129.19
233.125	-12.12
233.342	39.08
233.56	-36.69
233.777	28.84
233.995	34.99
234.213	104.62
234.43	102.57
234.648	86.19
234.865	-28.5
235.083	77.99
235.3	65.71
235.518	53.42
235.735	149.67
235.953	86.19
236.17	75.95
236.388	53.42
236.605	12.46
236.822	96.43
237.04	133.29
237.257	155.82
237.475	-77.65
237.692	18.6
237.909	135.34
238.127	0.17
238.344	53.42
238.562	45.23
238.779	-59.22
238.996	-77.65
239.214	65.71
239.431	143.53
239.648	30.89
239.865	88.23
240.083	63.66
240.3	-26.45
240.517	63.66
240.735	39.08
240.952	202.92
241.169	121
241.386	135.34
241.603	90.28
241.821	-20.31
242.038	100.52
242.255	125.1
242.472	20.65
242.689	108.71
242.907	53.42
243.124	127.14
243.341	32.94
243.558	71.85
243.775	12.46
243.992	-18.26
244.209	131.24
244.426	145.58
244.643	55.47
244.86	30.89
245.078	114.86
245.295	-10.07
245.512	12.46
245.729	12.46
245.946	86.19
246.163	20.65
246.38	75.95
246.597	114.86
246.814	-18.26
247.031	84.14
247.248	110.76
247.464	102.57
247.681	59.56
247.898	164.01
248.115	45.23
248.332	10.41
248.549	88.23
248.766	219.3
248.983	147.62
249.2	59.56
249.417	118.95
249.633	30.89
249.85	129.19
250.067	49.32
250.284	86.19
250.501	30.89
250.717	86.19
250.934	-91.99
251.151	65.71
251.368	47.27
251.585	102.57
251.801	-20.31
252.018	2.22
252.235	30.89
252.451	-114.52
252.668	84.14
252.885	90.28
253.102	30.89
253.318	2.22
253.535	-22.36
253.752	8.36
253.968	41.13
254.185	-120.66
254.401	55.47
254.618	63.66
254.835	-20.31
255.051	153.77
255.268	28.84
255.484	147.62
255.701	12.46
255.917	145.58
256.134	18.6
256.351	-1.88
256.567	0.17
256.784	45.23
257	-67.41
257.217	94.38
257.433	67.75
257.65	43.18
257.866	180.39
258.082	-67.41
258.299	18.6
258.515	45.23
258.732	-16.21
258.948	-12.12
259.165	65.71
259.381	-55.12
259.597	108.71
259.814	2.22
260.03	-51.03
260.246	-5.97
260.463	170.15
260.679	123.05
260.895	84.14
261.112	63.66
261.328	22.7
261.544	2.22
261.761	106.67
261.977	-5.97
262.193	34.99
262.409	90.28
262.626	49.32
262.842	-12.12
263.058	-12.12
263.274	57.51
263.49	69.8
263.707	200.87
263.923	73.9
264.139	-55.12
264.355	14.51
264.571	110.76
264.787	73.9
265.004	98.47
265.22	-14.17
265.436	-5.97
265.652	-8.02
265.868	34.99
266.084	-18.26
266.3	34.99
266.516	6.31
266.732	37.03
266.948	100.52
267.164	77.99
267.38	30.89
267.596	63.66
267.812	198.82
268.028	112.81
268.244	51.37
268.46	166.06
268.676	98.47
268.892	80.04
269.108	4.27
269.324	-55.12
269.54	-126.8
269.756	135.34
269.972	-69.46
270.188	47.27
270.403	-24.4
270.619	69.8
270.835	67.75
271.051	26.79
271.267	-5.97
271.483	-12.12
271.698	82.09
271.914	96.43
272.13	53.42
272.346	-42.84
272.562	51.37
272.777	71.85
272.993	77.99
273.209	41.13
273.425	41.13
273.64	-14.17
273.856	59.56
274.072	65.71
274.287	34.99
274.503	75.95
274.719	118.95
274.934	26.79
275.15	-57.17
275.366	88.23
275.581	-1.88
275.797	10.41
276.012	24.75
276.228	4.27
276.444	26.79
276.659	80.04
276.875	22.7
277.09	-42.84
277.306	-14.17
277.521	49.32
277.737	69.8
277.952	84.14
278.168	-22.36
278.383	37.03
278.599	86.19
278.814	88.23
279.03	-5.97
279.245	166.06
279.461	45.23
279.676	49.32
279.892	-42.84
280.107	-40.79
280.322	32.94
280.538	84.14
280.753	-26.45
280.969	30.89
281.184	41.13
281.399	114.86
281.615	104.62
281.83	151.72
282.045	16.55
282.26	-61.27
282.476	26.79
282.691	151.72
282.906	10.41
283.122	6.31
283.337	-8.02
283.552	98.47
283.767	24.75
283.983	104.62
284.198	37.03
284.413	53.42
284.628	-18.26
284.843	106.67
285.058	123.05
285.274	84.14
285.489	37.03
285.704	127.14
285.919	20.65
286.134	37.03
286.349	-44.88
286.564	0.17
286.779	170.15
286.995	-20.31
287.21	-26.45
287.425	98.47
287.64	30.89
287.855	39.08
288.07	4.27
288.285	112.81
288.5	164.01
288.715	26.79
288.93	34.99
289.145	-28.5
289.36	114.86
289.575	34.99
289.79	204.97
290.004	53.42
290.219	133.29
290.434	32.94
290.649	2.22
290.864	-51.03
291.079	-26.45
291.294	129.19
291.509	32.94
291.724	82.09
291.938	-40.79
292.153	28.84
292.368	24.75
292.583	108.71
292.798	104.62
293.012	59.56
293.227	49.32
293.442	-8.02
293.657	121
293.871	-1.88
294.086	49.32
294.301	164.01
294.516	155.82
294.73	114.86
294.945	6.31
295.16	24.75
295.374	168.1
295.589	59.56
295.804	16.55
296.018	53.42
296.233	61.61
296.447	20.65
296.662	-5.97
296.877	84.14
297.091	102.57
297.306	0.17
297.52	59.56
297.735	84.14
297.949	22.7
298.164	37.03
298.378	-16.21
298.593	-5.97
298.807	22.7
299.022	-38.74
299.236	141.48
299.451	39.08
299.665	53.42
299.88	12.46
300.094	61.61
300.309	-24.4
300.523	63.66
300.737	8.36
300.952	96.43
301.166	88.23
301.381	59.56
301.595	-77.65
301.809	108.71
302.024	26.79
302.238	0.17
302.452	43.18
302.667	77.99
302.881	80.04
303.095	94.38
303.309	104.62
303.524	-18.26
303.738	6.31
303.952	-10.07
304.166	92.33
304.381	-104.28
304.595	98.47
304.809	51.37
305.023	104.62
305.237	-79.7
305.452	28.84
305.666	55.47
305.88	71.85
306.094	135.34
306.308	57.51
306.522	94.38
306.736	77.99
306.95	98.47
307.164	-10.07
307.379	45.23
307.593	141.48
307.807	121
308.021	59.56
308.235	133.29
308.449	-51.03
308.663	6.31
308.877	170.15
309.091	22.7
309.305	108.71
309.519	-46.93
309.733	80.04
309.947	-65.36
310.161	147.62
310.374	141.48
310.588	118.95
310.802	-28.5
311.016	-14.17
311.23	51.37
311.444	-12.12
311.658	80.04
311.872	227.5
312.085	110.76
312.299	63.66
312.513	149.67
312.727	121
312.941	14.51
313.154	86.19
313.368	90.28
313.582	118.95
313.796	18.6
314.009	-22.36
314.223	71.85
314.437	118.95
314.651	90.28
314.864	-10.07
315.078	28.84
315.292	-71.51
315.505	-10.07
315.719	114.86
315.933	37.03
316.146	-3.93
316.36	-34.64
316.573	129.19
316.787	116.9
317.001	82.09
317.214	-30.55
317.428	32.94
317.641	-12.12
317.855	-59.22
318.068	161.96
318.282	67.75
318.495	168.1
318.709	16.55
318.922	24.75
319.136	213.16
319.349	118.95
319.563	12.46
319.776	88.23
319.99	-102.23
320.203	125.1
320.417	39.08
320.63	82.09
320.843	192.68
321.057	47.27
321.27	108.71
321.483	67.75
321.697	143.53
321.91	135.34
322.124	22.7
322.337	155.82
322.55	34.99
322.763	16.55
322.977	18.6
323.19	-8.02
323.403	73.9
323.617	102.57
323.83	98.47
324.043	6.31
324.256	-10.07
324.469	-1.88
324.683	180.39
324.896	45.23
325.109	4.27
325.322	-46.93
325.535	192.68
325.748	118.95
325.962	-12.12
326.175	77.99
326.388	67.75
326.601	116.9
326.814	-5.97
327.027	75.95
327.24	112.81
327.453	-169.81
327.666	90.28
327.879	153.77
328.092	6.31
328.305	75.95
328.518	30.89
328.731	-73.56
328.944	71.85
329.157	37.03
329.37	102.57
329.583	209.06
329.796	231.59
330.009	-40.79
330.222	149.67
330.435	133.29
330.648	127.14
330.861	127.14
331.073	49.32
331.286	149.67
331.499	22.7
331.712	-63.32
331.925	34.99
332.138	18.6
332.35	80.04
332.563	14.51
332.776	102.57
332.989	82.09
333.202	-18.26
333.414	59.56
333.627	51.37
333.84	18.6
334.053	65.71
334.265	-1.88
334.478	4.27
334.691	55.47
334.903	84.14
335.116	-38.74
335.329	32.94
335.541	-30.55
335.754	186.54
335.966	32.94
336.179	43.18
336.392	-48.98
336.604	-14.17
336.817	63.66
337.029	104.62
337.242	30.89
337.454	133.29
337.667	55.47
337.88	127.14
338.092	88.23
338.305	100.52
338.517	20.65
338.729	90.28
338.942	161.96
339.154	4.27
339.367	-28.5
339.579	43.18
339.792	-42.84
340.004	45.23
340.217	-26.45
340.429	106.67
340.641	-71.51
340.854	2.22
341.066	26.79
341.278	77.99
341.491	145.58
341.703	16.55
341.915	16.55
342.128	137.38
342.34	49.32
342.552	-8.02
342.764	49.32
342.977	-34.64
343.189	37.03
343.401	0.17
343.613	28.84
343.826	90.28
344.038	37.03
344.25	77.99
344.462	32.94
344.674	77.99
344.886	-34.64
345.099	30.89
345.311	47.27
345.523	-30.55
345.735	-20.31
345.947	26.79
346.159	100.52
346.371	67.75
346.583	2.22
346.795	172.2
347.007	22.7
347.219	69.8
347.431	116.9
347.643	129.19
347.855	8.36
348.067	139.43
348.279	-38.74
348.491	125.1
348.703	133.29
348.915	110.76
349.127	-3.93
349.339	106.67
349.551	94.38
349.763	121
349.975	49.32
350.187	75.95
350.399	121
350.61	61.61
350.822	-34.64
351.034	55.47
351.246	102.57
351.458	63.66
351.669	77.99
351.881	159.91
352.093	137.38
352.305	155.82
352.517	20.65
352.728	153.77
352.94	49.32
353.152	96.43
353.363	12.46
353.575	41.13
353.787	121
353.999	65.71
354.21	180.39
354.422	96.43
354.633	51.37
354.845	34.99
355.057	73.9
355.268	26.79
355.48	114.86
355.692	6.31
355.903	82.09
356.115	-96.08
356.326	-48.98
356.538	125.1
356.749	80.04
356.961	159.91
357.172	75.95
357.384	-38.74
357.595	233.64
357.807	41.13
358.018	-12.12
358.23	28.84
358.441	149.67
358.653	116.9
358.864	8.36
359.075	30.89
359.287	88.23
359.498	161.96
359.709	88.23
359.921	65.71
360.132	108.71
360.344	41.13
360.555	20.65
360.766	71.85
360.977	30.89
361.189	67.75
361.4	34.99
361.611	129.19
361.823	116.9
362.034	96.43
362.245	-61.27
362.456	39.08
362.667	112.81
362.879	53.42
363.09	88.23
363.301	102.57
363.512	92.33
363.723	28.84
363.935	22.7
364.146	108.71
364.357	71.85
364.568	102.57
364.779	-114.52
364.99	153.77
365.201	92.33
365.412	96.43
365.623	-38.74
365.834	131.24
366.045	39.08
366.256	170.15
366.467	108.71
366.678	22.7
366.889	43.18
367.1	53.42
367.311	94.38
367.522	-12.12
367.733	96.43
367.944	53.42
368.155	102.57
368.366	94.38
368.577	178.34
368.788	174.25
368.999	14.51
369.209	18.6
369.42	176.3
369.631	219.3
369.842	166.06
370.053	37.03
370.264	125.1
370.474	-26.45
370.685	92.33
370.896	39.08
371.107	80.04
371.317	75.95
371.528	39.08
371.739	59.56
371.95	176.3
372.16	-14.17
372.371	-106.32
372.582	-73.56
372.792	80.04
373.003	-28.5
373.214	43.18
373.424	55.47
373.635	-26.45
373.846	135.34
374.056	65.71
374.267	133.29
374.477	157.86
374.688	-26.45
374.898	67.75
375.109	43.18
375.319	123.05
375.53	149.67
375.74	94.38
375.951	80.04
376.161	133.29
376.372	73.9
376.582	65.71
376.793	84.14
377.003	55.47
377.214	-77.65
377.424	137.38
377.635	39.08
377.845	32.94
378.055	98.47
378.266	-1.88
378.476	47.27
378.686	65.71
378.897	-24.4
379.107	88.23
379.317	73.9
379.528	16.55
379.738	84.14
379.948	4.27
380.158	143.53
380.369	104.62
380.579	147.62
380.789	108.71
380.999	209.06
381.21	77.99
381.42	188.58
381.63	30.89
381.84	112.81
382.05	82.09
382.261	145.58
382.471	149.67
382.681	-12.12
382.891	186.54
383.101	108.71
383.311	-46.93
383.521	-26.45
383.731	92.33
383.941	139.43
384.151	-34.64
384.361	-42.84
384.571	110.76
384.781	84.14
384.991	198.82
385.201	223.4
385.411	164.01
385.621	-5.97
385.831	45.23
386.041	84.14
386.251	82.09
386.461	161.96
386.671	14.51
386.881	121
387.091	59.56
387.301	157.86
387.511	10.41
387.72	145.58
387.93	84.14
388.14	14.51
388.35	41.13
388.56	121
388.769	98.47
388.979	28.84
389.189	2.22
389.399	127.14
389.609	92.33
389.818	69.8
390.028	28.84
390.238	67.75
390.447	22.7
390.657	12.46
390.867	49.32
391.076	-30.55
391.286	49.32
391.496	69.8
391.705	24.75
391.915	159.91
392.125	161.96
392.334	-30.55
392.544	135.34
392.753	24.75
392.963	14.51
393.172	-8.02
393.382	37.03
393.591	235.69
393.801	98.47
394.01	75.95
394.22	116.9
394.429	12.46
394.639	2.22
394.848	86.19
395.058	98.47
395.267	32.94
395.477	96.43
395.686	49.32
395.895	178.34
396.105	176.3
396.314	71.85
396.524	114.86
396.733	57.51
396.942	139.43
397.152	108.71
397.361	164.01
397.57	55.47
397.78	104.62
397.989	4.27
398.198	241.83
398.407	22.7
398.617	59.56
398.826	80.04
399.035	-14.17
399.244	69.8
399.453	112.81
399.663	30.89
399.872	73.9
400.081	51.37
400.29	168.1
400.499	-24.4
400.708	129.19
400.917	96.43
401.127	-28.5
401.336	61.61
401.545	217.26
401.754	133.29
401.963	65.71
402.172	22.7
402.381	-67.41
402.59	-5.97
402.799	104.62
403.008	43.18
403.217	145.58
403.426	45.23
403.635	-3.93
403.844	-63.32
404.053	43.18
404.262	-10.07
404.471	211.11
404.68	34.99
404.888	24.75
405.097	71.85
405.306	88.23
405.515	8.36
405.724	14.51
405.933	92.33
406.142	123.05
406.35	118.95
406.559	57.51
406.768	77.99
406.977	161.96
407.185	131.24
407.394	135.34
407.603	2.22
407.812	26.79
408.02	143.53
408.229	57.51
408.438	110.76
408.646	-1.88
408.855	-36.69
409.064	147.62
409.272	8.36
409.481	75.95
409.69	77.99
409.898	-18.26
410.107	71.85
410.315	104.62
410.524	-59.22
410.733	104.62
410.941	75.95
411.15	82.09
411.358	69.8
411.567	176.3
411.775	26.79
411.984	84.14
412.192	112.81
412.401	51.37
412.609	170.15
412.818	180.39
413.026	45.23
413.234	18.6
413.443	92.33
413.651	16.55
413.86	-3.93
414.068	166.06
414.276	168.1
414.485	63.66
414.693	147.62
414.901	145.58
415.11	45.23
415.318	55.47
415.526	39.08
415.734	86.19
415.943	10.41
416.151	151.72
416.359	73.9
416.567	37.03
416.776	145.58
416.984	153.77
417.192	186.54
417.4	-28.5
417.608	18.6
417.817	24.75
418.025	127.14
418.233	243.88
418.441	0.17
418.649	-18.26
418.857	73.9
419.065	219.3
419.273	-22.36
419.481	49.32
419.689	41.13
419.897	-34.64
420.105	-30.55
420.313	178.34
420.521	108.71
420.729	182.44
420.937	12.46
421.145	6.31
421.353	112.81
421.561	131.24
421.769	80.04
421.977	75.95
422.185	157.86
422.393	92.33
422.601	96.43
422.809	67.75
423.017	0.17
423.224	137.38
423.432	123.05
423.64	161.96
423.848	176.3
424.056	18.6
424.263	73.9
424.471	71.85
424.679	196.78
424.887	-28.5
425.094	180.39
425.302	100.52
425.51	104.62
425.718	180.39
425.925	51.37
426.133	-22.36
426.341	112.81
426.548	77.99
426.756	88.23
426.964	94.38
427.171	26.79
427.379	153.77
427.586	102.57
427.794	172.2
428.001	166.06
428.209	43.18
428.417	190.63
428.624	172.2
428.832	102.57
429.039	198.82
429.247	145.58
429.454	129.19
429.662	284.84
429.869	57.51
430.076	127.14
430.284	184.49
430.491	243.88
430.699	118.95
430.906	168.1
431.114	213.16
431.321	164.01
431.528	200.87
431.736	123.05
431.943	94.38
432.15	127.14
432.358	198.82
432.565	272.55
432.772	-48.98
432.979	245.93
433.187	190.63
433.394	211.11
433.601	108.71
433.808	188.58
434.016	260.26
434.223	194.73
434.43	190.63
434.637	250.02
434.844	254.12
435.052	284.84
435.259	327.85
435.466	354.47
435.673	303.27
435.88	293.03
436.087	329.89
436.294	366.76
436.501	362.66
436.708	325.8
436.915	319.65
437.122	460.96
437.329	333.99
437.537	315.56
437.743	389.28
437.95	532.64
438.157	395.43
438.364	370.85
438.571	422.05
438.778	481.44
438.985	534.69
439.192	467.11
439.399	381.09
439.606	422.05
439.813	514.21
440.02	538.79
440.227	624.8
440.433	579.75
440.64	561.31
440.847	491.68
441.054	626.85
441.261	768.16
441.467	659.62
441.674	665.76
441.881	790.69
442.088	682.14
442.294	747.68
442.501	800.93
442.708	796.83
442.914	811.17
443.121	866.46
443.328	858.27
443.534	1026.2
443.741	989.34
443.948	835.74
444.154	1015.96
444.361	1171.61
444.568	1001.63
444.774	1120.41
444.981	1024.16
445.187	1278.1
445.394	1255.58
445.6	1136.79
445.807	1237.14
446.013	1368.21
446.22	1319.06
446.426	1454.23
446.633	1532.05
446.839	1742.99
447.046	1458.32
447.252	1747.09
447.459	1783.95
447.665	1669.27
447.871	1800.34
448.078	2025.61
448.284	1937.55
448.491	2142.35
448.697	2166.92
448.903	2218.12
449.11	2242.7
449.316	2302.09
449.522	2490.5
449.728	2564.23
449.935	2680.96
450.141	2687.11
450.347	2826.37
450.553	2803.84
450.76	2961.53
450.966	3010.68
451.172	3295.35
451.378	3367.03
451.584	3352.7
451.791	3596.4
451.997	3604.6
452.203	3756.15
452.409	3819.63
452.615	4130.92
452.821	4006
453.027	4012.14
453.233	4425.83
453.44	4434.02
453.646	4604
453.852	4853.86
454.058	4917.34
454.264	5128.28
454.47	5376.09
454.676	5378.14
454.882	5947.47
455.088	5742.68
455.294	6115.41
455.5	6529.1
455.705	6864.96
455.911	6989.89
456.117	6953.02
456.323	7389.24
456.529	7135.29
456.735	7888.95
456.941	8247.34
457.147	8499.24
457.352	8527.91
457.558	8992.8
457.764	9297.95
457.97	9652.25
458.176	10082.32
458.381	10498.06
458.587	10760.2
458.793	11347.97
458.999	11157.5
459.204	12445.68
459.41	13070.31
459.616	12759.02
459.821	13735.9
460.027	14260.18
460.233	14778.31
460.438	15062.98
460.644	15792.06
460.85	15867.83
461.055	16639.92
461.261	17305.51
461.466	17127.33
461.672	17532.83
461.878	19287.94
462.083	19218.31
462.289	19611.52
462.494	20479.86
462.7	20553.59
462.905	20782.96
463.111	22550.35
463.316	23584.58
463.522	23914.3
463.727	24493.88
463.932	25743.14
464.138	26634
464.343	27576.07
464.549	27793.15
464.754	29689.57
464.959	30488.28
465.165	31184.59
465.37	30738.13
465.575	30734.04
465.781	32808.63
465.986	33785.51
466.191	33332.91
466.397	33863.33
466.602	32861.88
466.807	34635.42
467.012	35309.2
467.218	35774.09
467.423	35886.73
467.628	37138.04
467.833	38985.3
468.038	38159.97
468.244	37269.11
468.449	39306.83
