Data from USB4F104151__65__10-43-55-373.txt Node

Date: Wed Feb 26 10:43:55 EST 2025
User: louis
Spectrometer: USB4F10415
Trigger mode: 4
Integration Time (sec): 1.000000E-1
Scans to average: 1
Electric dark correction enabled: true
Nonlinearity correction enabled: false
Boxcar width: 0
XAxis mode: Wavelengths
Number of Pixels in Spectrum: 3648
>>>>>Begin Spectral Data<<<<<
178.204	-330.41
178.424	-330.41
178.644	-330.41
178.864	-350.89
179.084	-383.65
179.304	-41.64
179.524	38.23
179.744	-17.07
179.964	107.86
180.184	-15.02
180.404	-8.87
180.624	-10.92
180.844	-41.64
181.064	-8.87
181.283	23.89
181.503	-62.12
181.723	36.18
181.943	-94.89
182.163	163.15
182.383	-17.07
182.602	126.29
182.822	181.59
183.042	38.23
183.262	17.75
183.482	60.76
183.701	85.33
183.921	52.56
184.141	64.85
184.361	79.19
184.58	56.66
184.8	58.71
185.02	7.51
185.239	81.24
185.459	101.72
185.679	144.72
185.898	-103.08
186.118	83.28
186.338	56.66
186.557	126.29
186.777	-23.21
186.997	1.37
187.216	44.37
187.436	173.39
187.655	44.37
187.875	124.24
188.095	9.56
188.314	56.66
188.534	89.43
188.753	-35.5
188.973	73.04
189.192	191.83
189.412	66.9
189.631	64.85
189.851	181.59
190.07	157.01
190.29	50.52
190.509	40.28
190.729	30.04
190.948	185.68
191.168	220.5
191.387	54.61
191.607	95.57
191.826	105.81
192.045	46.42
192.265	71
192.484	-0.68
192.704	107.86
192.923	-58.03
193.142	154.96
193.362	93.52
193.581	87.38
193.8	118.1
194.02	118.1
194.239	89.43
194.458	128.34
194.678	7.51
194.897	89.43
195.116	54.61
195.335	95.57
195.555	71
195.774	-4.78
195.993	183.63
196.212	27.99
196.432	-17.07
196.651	21.85
196.87	23.89
197.089	234.83
197.308	114
197.528	111.96
197.747	-15.02
197.966	114
198.185	224.59
198.404	-45.74
198.623	120.15
198.842	157.01
199.062	60.76
199.281	191.83
199.5	-43.69
199.719	36.18
199.938	58.71
200.157	83.28
200.376	89.43
200.595	173.39
200.814	73.04
201.033	30.04
201.252	154.96
201.471	75.09
201.69	58.71
201.909	120.15
202.128	68.95
202.347	103.76
202.566	77.14
202.785	38.23
203.004	42.32
203.223	355.66
203.442	19.8
203.661	-21.16
203.879	83.28
204.098	111.96
204.317	9.56
204.536	111.96
204.755	105.81
204.974	134.48
205.193	64.85
205.411	148.82
205.63	150.87
205.849	38.23
206.068	-29.35
206.287	46.42
206.505	177.49
206.724	32.08
206.943	-10.92
207.162	99.67
207.381	75.09
207.599	30.04
207.818	25.94
208.037	34.13
208.255	42.32
208.474	48.47
208.693	71
208.911	34.13
209.13	185.68
209.349	122.2
209.567	101.72
209.786	66.9
210.005	173.39
210.223	60.76
210.442	-45.74
210.661	101.72
210.879	114
211.098	114
211.316	54.61
211.535	134.48
211.753	60.76
211.972	144.72
212.191	109.91
212.409	87.38
212.628	97.62
212.846	34.13
213.065	75.09
213.283	150.87
213.502	89.43
213.72	40.28
213.938	66.9
214.157	52.56
214.375	99.67
214.594	-15.02
214.812	128.34
215.031	25.94
215.249	103.76
215.467	15.7
215.686	75.09
215.904	54.61
216.122	56.66
216.341	173.39
216.559	89.43
216.778	93.52
216.996	101.72
217.214	-23.21
217.432	-35.5
217.651	36.18
217.869	140.63
218.087	54.61
218.306	25.94
218.524	68.95
218.742	5.46
218.96	159.06
219.179	34.13
219.397	62.8
219.615	238.93
219.833	142.68
220.051	-2.73
220.27	138.58
220.488	73.04
220.706	118.1
220.924	15.7
221.142	54.61
221.36	42.32
221.578	140.63
221.796	73.04
222.015	46.42
222.233	105.81
222.451	150.87
222.669	40.28
222.887	134.48
223.105	-76.46
223.323	27.99
223.541	-6.83
223.759	122.2
223.977	89.43
224.195	150.87
224.413	73.04
224.631	42.32
224.849	64.85
225.067	144.72
225.285	-62.12
225.503	40.28
225.721	-47.79
225.939	75.09
226.157	60.76
226.375	202.07
226.592	7.51
226.81	15.7
227.028	163.15
227.246	230.74
227.464	77.14
227.682	87.38
227.9	44.37
228.117	56.66
228.335	93.52
228.553	38.23
228.771	34.13
228.989	66.9
229.206	136.53
229.424	27.99
229.642	34.13
229.86	-27.31
230.077	136.53
230.295	140.63
230.513	128.34
230.731	105.81
230.948	134.48
231.166	183.63
231.384	66.9
231.601	48.47
231.819	169.3
232.037	11.61
232.254	-27.31
232.472	83.28
232.689	7.51
232.907	101.72
233.125	116.05
233.342	11.61
233.56	15.7
233.777	40.28
233.995	62.8
234.213	165.2
234.43	134.48
234.648	60.76
234.865	5.46
235.083	36.18
235.3	25.94
235.518	95.57
235.735	195.92
235.953	77.14
236.17	30.04
236.388	134.48
236.605	58.71
236.822	71
237.04	152.91
237.257	118.1
237.475	-2.73
237.692	13.65
237.909	34.13
238.127	3.41
238.344	66.9
238.562	7.51
238.779	7.51
238.996	13.65
239.214	25.94
239.431	97.62
239.648	50.52
239.865	95.57
240.083	56.66
240.3	54.61
240.517	40.28
240.735	15.7
240.952	99.67
241.169	62.8
241.386	109.91
241.603	17.75
241.821	40.28
242.038	105.81
242.255	163.15
242.472	-19.11
242.689	93.52
242.907	99.67
243.124	75.09
243.341	23.89
243.558	38.23
243.775	44.37
243.992	-35.5
244.209	132.44
244.426	218.45
244.643	122.2
244.86	25.94
245.078	85.33
245.295	81.24
245.512	19.8
245.729	9.56
245.946	103.76
246.163	95.57
246.38	44.37
246.597	87.38
246.814	11.61
247.031	56.66
247.248	-6.83
247.464	126.29
247.681	40.28
247.898	95.57
248.115	-15.02
248.332	-17.07
248.549	99.67
248.766	130.39
248.983	114
249.2	36.18
249.417	183.63
249.633	-70.31
249.85	152.91
250.067	62.8
250.284	87.38
250.501	128.34
250.717	85.33
250.934	-8.87
251.151	15.7
251.368	64.85
251.585	73.04
251.801	95.57
252.018	-72.36
252.235	144.72
252.451	1.37
252.668	38.23
252.885	134.48
253.102	32.08
253.318	-27.31
253.535	40.28
253.752	-19.11
253.968	23.89
254.185	11.61
254.401	54.61
254.618	87.38
254.835	15.7
255.051	161.11
255.268	107.86
255.484	81.24
255.701	114
255.917	48.47
256.134	-12.97
256.351	87.38
256.567	-12.97
256.784	40.28
257	-66.22
257.217	152.91
257.433	124.24
257.65	97.62
257.866	118.1
258.082	3.41
258.299	3.41
258.515	93.52
258.732	30.04
258.948	-92.84
259.165	30.04
259.381	-27.31
259.597	97.62
259.814	-10.92
260.03	34.13
260.246	-4.78
260.463	105.81
260.679	169.3
260.895	23.89
261.112	66.9
261.328	21.85
261.544	-41.64
261.761	130.39
261.977	23.89
262.193	17.75
262.409	109.91
262.626	5.46
262.842	126.29
263.058	83.28
263.274	181.59
263.49	144.72
263.707	114
263.923	136.53
264.139	-41.64
264.355	40.28
264.571	175.44
264.787	89.43
265.004	179.54
265.22	103.76
265.436	11.61
265.652	40.28
265.868	73.04
266.084	30.04
266.3	3.41
266.516	7.51
266.732	91.48
266.948	68.95
267.164	-12.97
267.38	89.43
267.596	85.33
267.812	206.16
268.028	81.24
268.244	13.65
268.46	34.13
268.676	95.57
268.892	111.96
269.108	-49.83
269.324	-0.68
269.54	-35.5
269.756	46.42
269.972	-23.21
270.188	27.99
270.403	-45.74
270.619	60.76
270.835	114
271.051	52.56
271.267	83.28
271.483	34.13
271.698	134.48
271.914	103.76
272.13	111.96
272.346	52.56
272.562	73.04
272.777	157.01
272.993	79.19
273.209	17.75
273.425	132.44
273.64	-129.7
273.856	130.39
274.072	25.94
274.287	-15.02
274.503	32.08
274.719	25.94
274.934	48.47
275.15	-37.55
275.366	60.76
275.581	60.76
275.797	83.28
276.012	44.37
276.228	-10.92
276.444	40.28
276.659	58.71
276.875	-37.55
277.09	9.56
277.306	-21.16
277.521	114
277.737	19.8
277.952	99.67
278.168	38.23
278.383	21.85
278.599	66.9
278.814	93.52
279.03	-39.59
279.245	152.91
279.461	81.24
279.676	75.09
279.892	-31.4
280.107	54.61
280.322	-82.6
280.538	118.1
280.753	-49.83
280.969	58.71
281.184	68.95
281.399	210.26
281.615	42.32
281.83	-2.73
282.045	-33.45
282.26	-41.64
282.476	132.44
282.691	148.82
282.906	148.82
283.122	1.37
283.337	-27.31
283.552	38.23
283.767	56.66
283.983	101.72
284.198	54.61
284.413	124.24
284.628	-35.5
284.843	-8.87
285.058	109.91
285.274	-6.83
285.489	44.37
285.704	89.43
285.919	25.94
286.134	27.99
286.349	46.42
286.564	-17.07
286.779	122.2
286.995	25.94
287.21	-33.45
287.425	120.15
287.64	56.66
287.855	97.62
288.07	-90.79
288.285	116.05
288.5	152.91
288.715	93.52
288.93	50.52
289.145	-0.68
289.36	130.39
289.575	46.42
289.79	109.91
290.004	-78.51
290.219	120.15
290.434	3.41
290.649	19.8
290.864	-8.87
291.079	50.52
291.294	64.85
291.509	138.58
291.724	81.24
291.938	58.71
292.153	-15.02
292.368	-37.55
292.583	56.66
292.798	105.81
293.012	126.29
293.227	9.56
293.442	62.8
293.657	64.85
293.871	165.2
294.086	122.2
294.301	161.11
294.516	83.28
294.73	81.24
294.945	-25.26
295.16	103.76
295.374	189.78
295.589	138.58
295.804	68.95
296.018	25.94
296.233	142.68
296.447	93.52
296.662	79.19
296.877	146.77
297.091	60.76
297.306	-53.93
297.52	42.32
297.735	48.47
297.949	73.04
298.164	103.76
298.378	116.05
298.593	-2.73
298.807	-68.27
299.022	138.58
299.236	210.26
299.451	44.37
299.665	71
299.88	64.85
300.094	62.8
300.309	27.99
300.523	5.46
300.737	58.71
300.952	154.96
301.166	64.85
301.381	5.46
301.595	30.04
301.809	81.24
302.024	-0.68
302.238	-41.64
302.452	189.78
302.667	87.38
302.881	159.06
303.095	138.58
303.309	99.67
303.524	44.37
303.738	27.99
303.952	-33.45
304.166	54.61
304.381	-94.89
304.595	79.19
304.809	-4.78
305.023	109.91
305.237	17.75
305.452	66.9
305.666	81.24
305.88	44.37
306.094	122.2
306.308	91.48
306.522	116.05
306.736	75.09
306.95	116.05
307.164	114
307.379	36.18
307.593	128.34
307.807	89.43
308.021	101.72
308.235	95.57
308.449	7.51
308.663	64.85
308.877	232.79
309.091	-21.16
309.305	150.87
309.519	-19.11
309.733	79.19
309.947	-76.46
310.161	50.52
310.374	146.77
310.588	181.59
310.802	19.8
311.016	103.76
311.23	62.8
311.444	19.8
311.658	95.57
311.872	128.34
312.085	142.68
312.299	120.15
312.513	87.38
312.727	68.95
312.941	36.18
313.154	134.48
313.368	50.52
313.582	140.63
313.796	101.72
314.009	11.61
314.223	148.82
314.437	38.23
314.651	85.33
314.864	-19.11
315.078	56.66
315.292	-21.16
315.505	-0.68
315.719	32.08
315.933	62.8
316.146	128.34
316.36	36.18
316.573	183.63
316.787	83.28
317.001	50.52
317.214	3.41
317.428	66.9
317.641	3.41
317.855	-12.97
318.068	-21.16
318.282	93.52
318.495	163.15
318.709	99.67
318.922	87.38
319.136	173.39
319.349	118.1
319.563	36.18
319.776	116.05
319.99	-31.4
320.203	107.86
320.417	23.89
320.63	52.56
320.843	202.07
321.057	85.33
321.27	40.28
321.483	89.43
321.697	152.91
321.91	75.09
322.124	77.14
322.337	142.68
322.55	13.65
322.763	134.48
322.977	13.65
323.19	32.08
323.403	89.43
323.617	128.34
323.83	181.59
324.043	-23.21
324.256	109.91
324.469	3.41
324.683	101.72
324.896	75.09
325.109	23.89
325.322	-35.5
325.535	197.97
325.748	148.82
325.962	34.13
326.175	83.28
326.388	36.18
326.601	89.43
326.814	25.94
327.027	54.61
327.24	150.87
327.453	-19.11
327.666	73.04
327.879	206.16
328.092	130.39
328.305	118.1
328.518	1.37
328.731	85.33
328.944	-45.74
329.157	136.53
329.37	34.13
329.583	173.39
329.796	171.35
330.009	-8.87
330.222	48.47
330.435	167.25
330.648	66.9
330.861	118.1
331.073	52.56
331.286	236.88
331.499	87.38
331.712	3.41
331.925	44.37
332.138	34.13
332.35	87.38
332.563	9.56
332.776	40.28
332.989	42.32
333.202	52.56
333.414	-27.31
333.627	38.23
333.84	32.08
334.053	169.3
334.265	-15.02
334.478	44.37
334.691	91.48
334.903	71
335.116	-8.87
335.329	30.04
335.541	93.52
335.754	177.49
335.966	-19.11
336.179	34.13
336.392	54.61
336.604	52.56
336.817	128.34
337.029	64.85
337.242	-15.02
337.454	148.82
337.667	111.96
337.88	103.76
338.092	138.58
338.305	105.81
338.517	21.85
338.729	75.09
338.942	163.15
339.154	64.85
339.367	19.8
339.579	134.48
339.792	17.75
340.004	101.72
340.217	-17.07
340.429	81.24
340.641	-39.59
340.854	-8.87
341.066	50.52
341.278	161.11
341.491	163.15
341.703	75.09
341.915	-31.4
342.128	150.87
342.34	116.05
342.552	93.52
342.764	60.76
342.977	17.75
343.189	103.76
343.401	107.86
343.613	-10.92
343.826	5.46
344.038	-43.69
344.25	66.9
344.462	38.23
344.674	111.96
344.886	75.09
345.099	81.24
345.311	48.47
345.523	19.8
345.735	-88.75
345.947	93.52
346.159	56.66
346.371	99.67
346.583	40.28
346.795	220.5
347.007	103.76
347.219	87.38
347.431	52.56
347.643	247.12
347.855	40.28
348.067	181.59
348.279	-49.83
348.491	19.8
348.703	111.96
348.915	40.28
349.127	-33.45
349.339	62.8
349.551	3.41
349.763	114
349.975	116.05
350.187	138.58
350.399	148.82
350.61	99.67
350.822	17.75
351.034	21.85
351.246	77.14
351.458	34.13
351.669	75.09
351.881	25.94
352.093	124.24
352.305	177.49
352.517	97.62
352.728	97.62
352.94	66.9
353.152	97.62
353.363	40.28
353.575	107.86
353.787	189.78
353.999	75.09
354.21	144.72
354.422	1.37
354.633	44.37
354.845	44.37
355.057	97.62
355.268	66.9
355.48	44.37
355.692	-21.16
355.903	11.61
356.115	9.56
356.326	13.65
356.538	152.91
356.749	75.09
356.961	218.45
357.172	42.32
357.384	-31.4
357.595	204.11
357.807	85.33
358.018	42.32
358.23	60.76
358.441	157.01
358.653	97.62
358.864	13.65
359.075	21.85
359.287	71
359.498	138.58
359.709	114
359.921	23.89
360.132	93.52
360.344	46.42
360.555	-19.11
360.766	44.37
360.977	-35.5
361.189	120.15
361.4	54.61
361.611	64.85
361.823	134.48
362.034	30.04
362.245	-64.17
362.456	118.1
362.667	140.63
362.879	-21.16
363.09	111.96
363.301	30.04
363.512	11.61
363.723	21.85
363.935	83.28
364.146	109.91
364.357	46.42
364.568	79.19
364.779	-25.26
364.99	152.91
365.201	62.8
365.412	81.24
365.623	-80.55
365.834	124.24
366.045	25.94
366.256	81.24
366.467	64.85
366.678	138.58
366.889	27.99
367.1	54.61
367.311	77.14
367.522	44.37
367.733	101.72
367.944	95.57
368.155	85.33
368.366	130.39
368.577	103.76
368.788	126.29
368.999	40.28
369.209	-39.59
369.42	146.77
369.631	290.13
369.842	62.8
370.053	58.71
370.264	95.57
370.474	25.94
370.685	157.01
370.896	83.28
371.107	161.11
371.317	87.38
371.528	11.61
371.739	120.15
371.95	118.1
372.16	99.67
372.371	-43.69
372.582	11.61
372.792	128.34
373.003	120.15
373.214	204.11
373.424	177.49
373.635	36.18
373.846	154.96
374.056	58.71
374.267	32.08
374.477	138.58
374.688	-27.31
374.898	-23.21
375.109	91.48
375.319	73.04
375.53	122.2
375.74	154.96
375.951	-12.97
376.161	105.81
376.372	114
376.582	17.75
376.793	114
377.003	30.04
377.214	-35.5
377.424	111.96
377.635	-33.45
377.845	-17.07
378.055	189.78
378.266	-25.26
378.476	34.13
378.686	142.68
378.897	146.77
379.107	134.48
379.317	23.89
379.528	34.13
379.738	56.66
379.948	-21.16
380.158	95.57
380.369	114
380.579	75.09
380.789	15.7
380.999	-2.73
381.21	97.62
381.42	245.07
381.63	77.14
381.84	128.34
382.05	95.57
382.261	152.91
382.471	124.24
382.681	5.46
382.891	179.54
383.101	95.57
383.311	-49.83
383.521	15.7
383.731	159.06
383.941	52.56
384.151	118.1
384.361	83.28
384.571	114
384.781	165.2
384.991	236.88
385.201	202.07
385.411	142.68
385.621	50.52
385.831	79.19
386.041	48.47
386.251	77.14
386.461	144.72
386.671	44.37
386.881	34.13
387.091	79.19
387.301	89.43
387.511	-23.21
387.72	138.58
387.93	81.24
388.14	-37.55
388.35	44.37
388.56	234.83
388.769	222.55
388.979	126.29
389.189	44.37
389.399	13.65
389.609	107.86
389.818	89.43
390.028	101.72
390.238	103.76
390.447	73.04
390.657	36.18
390.867	64.85
391.076	-19.11
391.286	93.52
391.496	68.95
391.705	101.72
391.915	150.87
392.125	103.76
392.334	46.42
392.544	206.16
392.753	89.43
392.963	17.75
393.172	87.38
393.382	1.37
393.591	251.22
393.801	-41.64
394.01	148.82
394.22	77.14
394.429	75.09
394.639	91.48
394.848	58.71
395.058	75.09
395.267	62.8
395.477	116.05
395.686	48.47
395.895	230.74
396.105	222.55
396.314	83.28
396.524	54.61
396.733	1.37
396.942	89.43
397.152	185.68
397.361	161.11
397.57	93.52
397.78	109.91
397.989	9.56
398.198	189.78
398.407	52.56
398.617	75.09
398.826	73.04
399.035	48.47
399.244	101.72
399.453	-2.73
399.663	97.62
399.872	25.94
400.081	-53.93
400.29	140.63
400.499	-6.83
400.708	140.63
400.917	48.47
401.127	54.61
401.336	36.18
401.545	169.3
401.754	154.96
401.963	116.05
402.172	56.66
402.381	-74.41
402.59	-19.11
402.799	48.47
403.008	146.77
403.217	73.04
403.426	44.37
403.635	-27.31
403.844	77.14
404.053	68.95
404.262	9.56
404.471	177.49
404.68	60.76
404.888	-6.83
405.097	103.76
405.306	99.67
405.515	157.01
405.724	40.28
405.933	114
406.142	30.04
406.35	128.34
406.559	40.28
406.768	44.37
406.977	118.1
407.185	132.44
407.394	79.19
407.603	-0.68
407.812	21.85
408.02	101.72
408.229	95.57
408.438	44.37
408.646	-58.03
408.855	52.56
409.064	89.43
409.272	99.67
409.481	103.76
409.69	-33.45
409.898	25.94
410.107	118.1
410.315	159.06
410.524	50.52
410.733	77.14
410.941	89.43
411.15	163.15
411.358	77.14
411.567	159.06
411.775	130.39
411.984	91.48
412.192	167.25
412.401	-35.5
412.609	134.48
412.818	93.52
413.026	105.81
413.234	66.9
413.443	11.61
413.651	40.28
413.86	89.43
414.068	79.19
414.276	152.91
414.485	11.61
414.693	138.58
414.901	154.96
415.11	79.19
415.318	71
415.526	-8.87
415.734	150.87
415.943	40.28
416.151	111.96
416.359	21.85
416.567	83.28
416.776	73.04
416.984	120.15
417.192	249.17
417.4	7.51
417.608	40.28
417.817	-29.35
418.025	91.48
418.233	75.09
418.441	44.37
418.649	7.51
418.857	93.52
419.065	109.91
419.273	1.37
419.481	97.62
419.689	73.04
419.897	50.52
420.105	-25.26
420.313	32.08
420.521	179.54
420.729	140.63
420.937	1.37
421.145	3.41
421.353	83.28
421.561	208.21
421.769	46.42
421.977	107.86
422.185	120.15
422.393	165.2
422.601	93.52
422.809	101.72
423.017	75.09
423.224	23.89
423.432	130.39
423.64	122.2
423.848	144.72
424.056	50.52
424.263	144.72
424.471	50.52
424.679	118.1
424.887	21.85
425.094	122.2
425.302	165.2
425.51	81.24
425.718	191.83
425.925	81.24
426.133	-21.16
426.341	255.31
426.548	124.24
426.756	101.72
426.964	120.15
427.171	36.18
427.379	140.63
427.586	36.18
427.794	154.96
428.001	210.26
428.209	54.61
428.417	189.78
428.624	173.39
428.832	165.2
429.039	40.28
429.247	120.15
429.454	187.73
429.662	146.77
429.869	157.01
430.076	105.81
430.284	146.77
430.491	222.55
430.699	146.77
430.906	163.15
431.114	191.83
431.321	189.78
431.528	212.31
431.736	214.35
431.943	101.72
432.15	179.54
432.358	220.5
432.565	329.04
432.772	93.52
432.979	202.07
433.187	161.11
433.394	249.17
433.601	46.42
433.808	226.64
434.016	243.03
434.223	290.13
434.43	279.89
434.637	273.75
434.844	210.26
435.052	314.7
435.259	271.7
435.466	269.65
435.673	222.55
435.88	296.27
436.087	296.27
436.294	380.24
436.501	324.94
436.708	265.55
436.915	232.79
437.122	380.24
437.329	263.51
437.537	324.94
437.743	347.47
437.95	451.92
438.157	410.96
438.364	402.77
438.571	429.39
438.778	435.53
438.985	408.91
439.192	494.93
439.399	456.01
439.606	519.5
439.813	521.55
440.02	558.41
440.227	666.96
440.433	615.76
440.64	482.64
440.847	499.02
441.054	585.04
441.261	750.92
441.467	656.72
441.674	601.42
441.881	748.87
442.088	621.9
442.294	771.4
442.501	757.07
442.708	750.92
442.914	759.11
443.121	798.03
443.328	886.09
443.534	888.14
443.741	927.05
443.948	845.13
444.154	990.53
444.361	1129.8
444.568	1056.07
444.774	1043.78
444.981	965.96
445.187	1181
445.394	1082.69
445.6	1068.36
445.807	1254.72
446.013	1244.48
446.22	1142.08
446.426	1443.14
446.633	1441.09
446.839	1561.92
447.046	1289.54
447.252	1699.13
447.459	1635.64
447.665	1555.77
447.871	1766.71
448.078	1858.87
448.284	1891.64
448.491	1948.98
448.697	2014.52
448.903	2094.39
449.11	2084.15
449.316	2022.71
449.522	2338.1
449.728	2389.3
449.935	2395.44
450.141	2426.16
450.347	2544.94
450.553	2602.29
450.76	2536.75
450.966	2759.98
451.172	2870.57
451.378	3081.51
451.584	2907.43
451.791	3314.98
451.997	3454.24
452.203	3523.87
452.409	3618.08
452.615	3786.01
452.821	3691.8
453.027	3755.29
453.233	4205.85
453.44	4048.15
453.646	4222.23
453.852	4525.33
454.058	4615.44
454.264	4748.56
454.47	5035.27
454.676	5035.27
454.882	5438.72
455.088	5307.65
455.294	5627.14
455.5	6149.37
455.705	6214.9
455.911	6386.93
456.117	6384.88
456.323	6690.03
456.529	6726.89
456.735	7408.87
456.941	7486.69
457.147	7771.36
457.352	7920.86
457.558	8410.33
457.764	8762.58
457.97	9077.96
458.176	9319.62
458.381	9778.37
458.587	9958.59
458.793	10400.95
458.999	10507.44
459.204	11797.67
459.41	12301.47
459.616	11918.5
459.821	12461.21
460.027	13237.39
460.233	13821.06
460.438	13651.08
460.644	14423.16
460.85	14640.25
461.055	15176.81
461.261	16094.3
461.466	15856.74
461.672	16282.72
461.878	17982.53
462.083	17822.79
462.289	18189.38
462.494	18494.52
462.7	19078.19
462.905	19237.94
463.111	20878.36
463.316	21787.66
463.522	22254.59
463.727	22707.19
463.932	23792.62
464.138	24675.29
464.343	25408.47
464.549	25629.65
464.754	27368.37
464.959	28253.09
465.165	28879.77
465.37	28541.86
465.575	28611.49
465.781	30569.35
465.986	31689.59
466.191	30729.09
466.397	31300.47
466.602	30421.89
466.807	32451.43
467.012	32344.94
467.218	33325.91
467.423	33647.44
467.628	34089.81
467.833	36256.56
468.038	35447.61
468.244	34540.36
468.449	36299.56
468.654	35795.76
468.859	35605.3
