Data from USB4F104151__180__11-05-06-734.txt Node

Date: Wed Feb 26 11:05:06 EST 2025
User: louis
Spectrometer: USB4F10415
Trigger mode: 4
Integration Time (sec): 1.000000E-1
Scans to average: 1
Electric dark correction enabled: true
Nonlinearity correction enabled: false
Boxcar width: 0
XAxis mode: Wavelengths
Number of Pixels in Spectrum: 3648
>>>>>Begin Spectral Data<<<<<
178.204	-344.4
178.424	-344.4
178.644	-344.4
178.864	-430.41
179.084	-379.22
179.304	-24.92
179.524	-55.64
179.744	9.9
179.964	11.95
180.184	57
180.404	32.43
180.624	28.33
180.844	-61.78
181.064	1.71
181.283	24.23
181.503	-24.92
181.723	1.71
181.943	-49.49
182.163	149.16
182.383	59.05
182.602	61.1
182.822	173.74
183.042	89.77
183.262	16.04
183.482	-31.06
183.701	32.43
183.921	-12.63
184.141	-31.06
184.361	44.71
184.58	30.38
184.8	85.67
185.02	28.33
185.239	71.34
185.459	97.96
185.679	132.78
185.898	-88.4
186.118	100.01
186.338	16.04
186.557	153.26
186.777	-82.26
186.997	54.95
187.216	7.85
187.436	229.03
187.655	91.82
187.875	42.67
188.095	16.04
188.314	124.58
188.534	177.83
188.753	7.85
188.973	108.2
189.192	106.15
189.412	-22.87
189.631	50.86
189.851	130.73
190.07	145.06
190.29	-43.35
190.509	-82.26
190.729	61.1
190.948	126.63
191.168	173.74
191.387	110.25
191.607	-8.53
191.826	85.67
192.045	65.19
192.265	11.95
192.484	57
192.704	30.38
192.923	-57.68
193.142	159.4
193.362	122.54
193.581	104.11
193.8	61.1
194.02	57
194.239	38.57
194.458	140.97
194.678	3.75
194.897	-18.77
195.116	61.1
195.335	75.43
195.555	71.34
195.774	59.05
195.993	118.44
196.212	-10.58
196.432	-4.44
196.651	-26.96
196.87	-59.73
197.089	255.65
197.308	118.44
197.528	65.19
197.747	-18.77
197.966	79.53
198.185	85.67
198.404	-0.34
198.623	175.78
198.842	132.78
199.062	128.68
199.281	110.25
199.5	52.91
199.719	44.71
199.938	32.43
200.157	91.82
200.376	130.73
200.595	132.78
200.814	63.15
201.033	-24.92
201.252	171.69
201.471	71.34
201.69	100.01
201.909	104.11
202.128	120.49
202.347	140.97
202.566	11.95
202.785	-59.73
203.004	34.47
203.223	231.08
203.442	3.75
203.661	-14.68
203.879	83.63
204.098	128.68
204.317	-24.92
204.536	87.72
204.755	42.67
204.974	89.77
205.193	16.04
205.411	188.07
205.63	181.93
205.849	-6.49
206.068	9.9
206.287	-14.68
206.505	69.29
206.724	-4.44
206.943	-24.92
207.162	7.85
207.381	81.58
207.599	9.9
207.818	13.99
208.037	44.71
208.255	22.19
208.474	83.63
208.693	120.49
208.911	79.53
209.13	102.06
209.349	136.87
209.567	73.39
209.786	79.53
210.005	145.06
210.223	48.81
210.442	-72.02
210.661	3.75
210.879	-14.68
211.098	24.23
211.316	73.39
211.535	128.68
211.753	97.96
211.972	50.86
212.191	-26.96
212.409	11.95
212.628	140.97
212.846	38.57
213.065	46.76
213.283	100.01
213.502	52.91
213.72	67.24
213.938	-4.44
214.157	67.24
214.375	85.67
214.594	28.33
214.812	134.82
215.031	-14.68
215.249	89.77
215.467	34.47
215.686	7.85
215.904	63.15
216.122	36.52
216.341	155.3
216.559	13.99
216.778	100.01
216.996	140.97
217.214	1.71
217.432	42.67
217.651	-8.53
217.869	16.04
218.087	79.53
218.306	32.43
218.524	91.82
218.742	95.91
218.96	91.82
219.179	-8.53
219.397	-8.53
219.615	284.33
219.833	26.28
220.051	18.09
220.27	75.43
220.488	147.11
220.706	67.24
220.924	-53.59
221.142	22.19
221.36	54.95
221.578	95.91
221.796	69.29
222.015	-41.3
222.233	44.71
222.451	175.78
222.669	-14.68
222.887	5.8
223.105	-47.44
223.323	106.15
223.541	-10.58
223.759	73.39
223.977	97.96
224.195	165.54
224.413	36.52
224.631	40.62
224.849	71.34
225.067	145.06
225.285	9.9
225.503	7.85
225.721	-110.93
225.939	61.1
226.157	11.95
226.375	177.83
226.592	97.96
226.81	34.47
227.028	165.54
227.246	93.87
227.464	75.43
227.682	126.63
227.9	120.49
228.117	97.96
228.335	136.87
228.553	36.52
228.771	-2.39
228.989	44.71
229.206	77.48
229.424	65.19
229.642	42.67
229.86	7.85
230.077	106.15
230.295	67.24
230.513	95.91
230.731	79.53
230.948	198.31
231.166	128.68
231.384	-39.25
231.601	-61.78
231.819	143.02
232.037	-8.53
232.254	-72.02
232.472	57
232.689	38.57
232.907	95.91
233.125	-14.68
233.342	89.77
233.56	-14.68
233.777	48.81
233.995	9.9
234.213	143.02
234.43	159.4
234.648	77.48
234.865	40.62
235.083	73.39
235.3	97.96
235.518	81.58
235.735	77.48
235.953	136.87
236.17	-29.01
236.388	18.09
236.605	36.52
236.822	87.72
237.04	116.39
237.257	44.71
237.475	-90.45
237.692	3.75
237.909	112.3
238.127	3.75
238.344	67.24
238.562	97.96
238.779	-24.92
238.996	-12.63
239.214	5.8
239.431	52.91
239.648	11.95
239.865	110.25
240.083	147.11
240.3	75.43
240.517	-31.06
240.735	-0.34
240.952	165.54
241.169	54.95
241.386	151.21
241.603	-0.34
241.821	9.9
242.038	100.01
242.255	54.95
242.472	-18.77
242.689	140.97
242.907	69.29
243.124	112.3
243.341	54.95
243.558	1.71
243.775	-14.68
243.992	-57.68
244.209	116.39
244.426	136.87
244.643	116.39
244.86	77.48
245.078	95.91
245.295	59.05
245.512	54.95
245.729	-51.54
245.946	122.54
246.163	126.63
246.38	-4.44
246.597	7.85
246.814	11.95
247.031	75.43
247.248	40.62
247.464	81.58
247.681	-2.39
247.898	36.52
248.115	63.15
248.332	75.43
248.549	214.7
248.766	165.54
248.983	124.58
249.2	116.39
249.417	104.11
249.633	-2.39
249.85	38.57
250.067	18.09
250.284	89.77
250.501	95.91
250.717	100.01
250.934	-76.12
251.151	42.67
251.368	61.1
251.585	87.72
251.801	5.8
252.018	-4.44
252.235	85.67
252.451	-72.02
252.668	48.81
252.885	95.91
253.102	77.48
253.318	20.14
253.535	57
253.752	20.14
253.968	-2.39
254.185	-72.02
254.401	34.47
254.618	42.67
254.835	40.62
255.051	120.49
255.268	61.1
255.484	46.76
255.701	30.38
255.917	67.24
256.134	24.23
256.351	38.57
256.567	-57.68
256.784	48.81
257	-63.83
257.217	81.58
257.433	20.14
257.65	73.39
257.866	167.59
258.082	-110.93
258.299	11.95
258.515	18.09
258.732	28.33
258.948	-45.4
259.165	1.71
259.381	-12.63
259.597	188.07
259.814	9.9
260.03	63.15
260.246	44.71
260.463	245.41
260.679	132.78
260.895	11.95
261.112	50.86
261.328	5.8
261.544	46.76
261.761	190.12
261.977	108.2
262.193	-35.16
262.409	120.49
262.626	83.63
262.842	75.43
263.058	-4.44
263.274	89.77
263.49	130.73
263.707	134.82
263.923	7.85
264.139	-39.25
264.355	140.97
264.571	155.3
264.787	104.11
265.004	149.16
265.22	71.34
265.436	-65.88
265.652	16.04
265.868	46.76
266.084	-55.64
266.3	18.09
266.516	-31.06
266.732	57
266.948	100.01
267.164	16.04
267.38	67.24
267.596	79.53
267.812	196.26
268.028	87.72
268.244	38.57
268.46	54.95
268.676	9.9
268.892	118.44
269.108	-72.02
269.324	-10.58
269.54	-76.12
269.756	130.73
269.972	34.47
270.188	75.43
270.403	-37.2
270.619	71.34
270.835	79.53
271.051	81.58
271.267	-74.07
271.483	34.47
271.698	116.39
271.914	83.63
272.13	71.34
272.346	30.38
272.562	106.15
272.777	106.15
272.993	-0.34
273.209	81.58
273.425	79.53
273.64	-33.11
273.856	20.14
274.072	32.43
274.287	-47.44
274.503	48.81
274.719	75.43
274.934	13.99
275.15	-69.97
275.366	50.86
275.581	3.75
275.797	28.33
276.012	38.57
276.228	18.09
276.444	-12.63
276.659	114.34
276.875	-47.44
277.09	-2.39
277.306	46.76
277.521	140.97
277.737	28.33
277.952	110.25
278.168	-22.87
278.383	59.05
278.599	85.67
278.814	155.3
279.03	13.99
279.245	128.68
279.461	48.81
279.676	118.44
279.892	-33.11
280.107	-53.59
280.322	7.85
280.538	89.77
280.753	85.67
280.969	89.77
281.184	46.76
281.399	194.22
281.615	-2.39
281.83	40.62
282.045	-41.3
282.26	38.57
282.476	-31.06
282.691	110.25
282.906	42.67
283.122	57
283.337	48.81
283.552	196.26
283.767	-2.39
283.983	87.72
284.198	16.04
284.413	16.04
284.628	-57.68
284.843	79.53
285.058	134.82
285.274	-57.68
285.489	-2.39
285.704	128.68
285.919	30.38
286.134	-2.39
286.349	11.95
286.564	1.71
286.779	186.02
286.995	75.43
287.21	-121.17
287.425	87.72
287.64	20.14
287.855	30.38
288.07	-96.6
288.285	149.16
288.5	179.88
288.715	57
288.93	110.25
289.145	-33.11
289.36	65.19
289.575	65.19
289.79	128.68
290.004	-2.39
290.219	91.82
290.434	-14.68
290.649	59.05
290.864	30.38
291.079	9.9
291.294	122.54
291.509	93.87
291.724	5.8
291.938	-8.53
292.153	-14.68
292.368	59.05
292.583	93.87
292.798	204.46
293.012	106.15
293.227	140.97
293.442	-37.2
293.657	83.63
293.871	100.01
294.086	-29.01
294.301	200.36
294.516	65.19
294.73	36.52
294.945	-86.36
295.16	52.91
295.374	124.58
295.589	147.11
295.804	-49.49
296.018	124.58
296.233	95.91
296.447	73.39
296.662	-53.59
296.877	85.67
297.091	102.06
297.306	73.39
297.52	48.81
297.735	48.81
297.949	153.26
298.164	48.81
298.378	73.39
298.593	-29.01
298.807	-10.58
299.022	3.75
299.236	196.26
299.451	-6.49
299.665	-24.92
299.88	-35.16
300.094	110.25
300.309	-14.68
300.523	42.67
300.737	-47.44
300.952	81.58
301.166	77.48
301.381	-14.68
301.595	-0.34
301.809	1.71
302.024	65.19
302.238	-20.82
302.452	81.58
302.667	73.39
302.881	67.24
303.095	87.72
303.309	77.48
303.524	-26.96
303.738	50.86
303.952	-35.16
304.166	42.67
304.381	-37.2
304.595	167.59
304.809	22.19
305.023	114.34
305.237	26.28
305.452	32.43
305.666	134.82
305.88	85.67
306.094	46.76
306.308	71.34
306.522	93.87
306.736	18.09
306.95	89.77
307.164	-96.6
307.379	-4.44
307.593	167.59
307.807	73.39
308.021	171.69
308.235	77.48
308.449	-61.78
308.663	59.05
308.877	243.37
309.091	40.62
309.305	143.02
309.519	-129.36
309.733	77.48
309.947	44.71
310.161	85.67
310.374	110.25
310.588	204.46
310.802	22.19
311.016	-39.25
311.23	81.58
311.444	46.76
311.658	69.29
311.872	126.63
312.085	153.26
312.299	124.58
312.513	143.02
312.727	140.97
312.941	7.85
313.154	87.72
313.368	59.05
313.582	-24.92
313.796	20.14
314.009	61.1
314.223	83.63
314.437	50.86
314.651	69.29
314.864	-20.82
315.078	-18.77
315.292	-26.96
315.505	36.52
315.719	63.15
315.933	30.38
316.146	1.71
316.36	-63.83
316.573	200.36
316.787	91.82
317.001	114.34
317.214	-6.49
317.428	9.9
317.641	-96.6
317.855	44.71
318.068	32.43
318.282	18.09
318.495	181.93
318.709	89.77
318.922	93.87
319.136	167.59
319.349	120.49
319.563	48.81
319.776	102.06
319.99	-10.58
320.203	69.29
320.417	75.43
320.63	126.63
320.843	165.54
321.057	46.76
321.27	18.09
321.483	93.87
321.697	179.88
321.91	22.19
322.124	20.14
322.337	40.62
322.55	-0.34
322.763	9.9
322.977	40.62
323.19	18.09
323.403	34.47
323.617	83.63
323.83	89.77
324.043	3.75
324.256	153.26
324.469	-2.39
324.683	194.22
324.896	40.62
325.109	9.9
325.322	-115.03
325.535	118.44
325.748	97.96
325.962	13.99
326.175	120.49
326.388	52.91
326.601	100.01
326.814	26.28
327.027	-22.87
327.24	147.11
327.453	-43.35
327.666	130.73
327.879	149.16
328.092	85.67
328.305	44.71
328.518	18.09
328.731	-0.34
328.944	48.81
329.157	83.63
329.37	11.95
329.583	177.83
329.796	108.2
330.009	-33.11
330.222	108.2
330.435	116.39
330.648	16.04
330.861	116.39
331.073	54.95
331.286	22.19
331.499	138.92
331.712	-10.58
331.925	73.39
332.138	77.48
332.35	128.68
332.563	-14.68
332.776	132.78
332.989	-51.54
333.202	106.15
333.414	38.57
333.627	69.29
333.84	50.86
334.053	-2.39
334.265	-16.73
334.478	13.99
334.691	-16.73
334.903	83.63
335.116	-4.44
335.329	81.58
335.541	83.63
335.754	233.13
335.966	-14.68
336.179	46.76
336.392	63.15
336.604	5.8
336.817	151.21
337.029	-0.34
337.242	34.47
337.454	38.57
337.667	24.23
337.88	220.84
338.092	124.58
338.305	71.34
338.517	16.04
338.729	83.63
338.942	194.22
339.154	9.9
339.367	26.28
339.579	85.67
339.792	-18.77
340.004	71.34
340.217	57
340.429	42.67
340.641	-39.25
340.854	3.75
341.066	24.23
341.278	59.05
341.491	251.56
341.703	118.44
341.915	-0.34
342.128	71.34
342.34	89.77
342.552	7.85
342.764	79.53
342.977	28.33
343.189	120.49
343.401	-4.44
343.613	-41.3
343.826	-10.58
344.038	-18.77
344.25	91.82
344.462	75.43
344.674	65.19
344.886	-12.63
345.099	85.67
345.311	73.39
345.523	16.04
345.735	-45.4
345.947	59.05
346.159	-4.44
346.371	44.71
346.583	-2.39
346.795	173.74
347.007	13.99
347.219	128.68
347.431	102.06
347.643	79.53
347.855	-20.82
348.067	167.59
348.279	-61.78
348.491	106.15
348.703	167.59
348.915	73.39
349.127	110.25
349.339	-8.53
349.551	48.81
349.763	93.87
349.975	-22.87
350.187	177.83
350.399	106.15
350.61	149.16
350.822	-4.44
351.034	100.01
351.246	85.67
351.458	79.53
351.669	95.91
351.881	91.82
352.093	138.92
352.305	194.22
352.517	50.86
352.728	73.39
352.94	112.3
353.152	-6.49
353.363	-18.77
353.575	87.72
353.787	140.97
353.999	57
354.21	190.12
354.422	-51.54
354.633	100.01
354.845	18.09
355.057	18.09
355.268	18.09
355.48	122.54
355.692	-18.77
355.903	36.52
356.115	9.9
356.326	-35.16
356.538	118.44
356.749	40.62
356.961	175.78
357.172	67.24
357.384	-18.77
357.595	231.08
357.807	81.58
358.018	24.23
358.23	16.04
358.441	177.83
358.653	42.67
358.864	-4.44
359.075	-20.82
359.287	65.19
359.498	145.06
359.709	97.96
359.921	18.09
360.132	89.77
360.344	40.62
360.555	-72.02
360.766	100.01
360.977	-41.3
361.189	136.87
361.4	69.29
361.611	102.06
361.823	97.96
362.034	38.57
362.245	-53.59
362.456	26.28
362.667	97.96
362.879	30.38
363.09	81.58
363.301	57
363.512	42.67
363.723	-18.77
363.935	22.19
364.146	85.67
364.357	95.91
364.568	-55.64
364.779	-55.64
364.99	183.98
365.201	-86.36
365.412	124.58
365.623	-86.36
365.834	26.28
366.045	67.24
366.256	169.64
366.467	65.19
366.678	3.75
366.889	132.78
367.1	16.04
367.311	151.21
367.522	-8.53
367.733	126.63
367.944	52.91
368.155	50.86
368.366	155.3
368.577	216.74
368.788	116.39
368.999	-72.02
369.209	50.86
369.42	276.13
369.631	175.78
369.842	104.11
370.053	11.95
370.264	134.82
370.474	-16.73
370.685	128.68
370.896	67.24
371.107	192.17
371.317	83.63
371.528	61.1
371.739	128.68
371.95	110.25
372.16	124.58
372.371	-57.68
372.582	1.71
372.792	5.8
373.003	46.76
373.214	30.38
373.424	91.82
373.635	3.75
373.846	210.6
374.056	48.81
374.267	18.09
374.477	143.02
374.688	-8.53
374.898	87.72
375.109	-6.49
375.319	120.49
375.53	67.24
375.74	116.39
375.951	46.76
376.161	61.1
376.372	124.58
376.582	11.95
376.793	67.24
377.003	-63.83
377.214	-61.78
377.424	54.95
377.635	24.23
377.845	1.71
378.055	138.92
378.266	-22.87
378.476	20.14
378.686	26.28
378.897	46.76
379.107	169.64
379.317	138.92
379.528	38.57
379.738	112.3
379.948	-18.77
380.158	100.01
380.369	69.29
380.579	69.29
380.789	-102.74
380.999	106.15
381.21	54.95
381.42	259.75
381.63	36.52
381.84	120.49
382.05	79.53
382.261	171.69
382.471	106.15
382.681	50.86
382.891	165.54
383.101	132.78
383.311	1.71
383.521	-37.2
383.731	108.2
383.941	167.59
384.151	65.19
384.361	9.9
384.571	61.1
384.781	89.77
384.991	161.45
385.201	249.51
385.411	100.01
385.621	54.95
385.831	89.77
386.041	46.76
386.251	9.9
386.461	69.29
386.671	22.19
386.881	87.72
387.091	20.14
387.301	1.71
387.511	13.99
387.72	61.1
387.93	132.78
388.14	-47.44
388.35	106.15
388.56	120.49
388.769	83.63
388.979	114.34
389.189	-10.58
389.399	97.96
389.609	69.29
389.818	157.35
390.028	20.14
390.238	71.34
390.447	26.28
390.657	91.82
390.867	36.52
391.076	-63.83
391.286	-6.49
391.496	85.67
391.705	89.77
391.915	130.73
392.125	91.82
392.334	-20.82
392.544	198.31
392.753	30.38
392.963	-20.82
393.172	20.14
393.382	-47.44
393.591	163.5
393.801	77.48
394.01	192.17
394.22	81.58
394.429	26.28
394.639	9.9
394.848	48.81
395.058	69.29
395.267	3.75
395.477	61.1
395.686	32.43
395.895	175.78
396.105	149.16
396.314	116.39
396.524	75.43
396.733	67.24
396.942	118.44
397.152	132.78
397.361	165.54
397.57	18.09
397.78	67.24
397.989	83.63
398.198	247.46
398.407	54.95
398.617	1.71
398.826	89.77
399.035	79.53
399.244	157.35
399.453	140.97
399.663	138.92
399.872	71.34
400.081	-39.25
400.29	263.85
400.499	77.48
400.708	54.95
400.917	50.86
401.127	18.09
401.336	3.75
401.545	93.87
401.754	100.01
401.963	153.26
402.172	67.24
402.381	-29.01
402.59	126.63
402.799	13.99
403.008	57
403.217	110.25
403.426	112.3
403.635	-6.49
403.844	116.39
404.053	54.95
404.262	-6.49
404.471	202.41
404.68	91.82
404.888	-8.53
405.097	85.67
405.306	81.58
405.515	124.58
405.724	126.63
405.933	112.3
406.142	67.24
406.35	126.63
406.559	-31.06
406.768	89.77
406.977	216.74
407.185	77.48
407.394	108.2
407.603	-12.63
407.812	100.01
408.02	173.74
408.229	54.95
408.438	59.05
408.646	5.8
408.855	13.99
409.064	167.59
409.272	5.8
409.481	52.91
409.69	-4.44
409.898	7.85
410.107	61.1
410.315	145.06
410.524	-6.49
410.733	77.48
410.941	5.8
411.15	126.63
411.358	116.39
411.567	159.4
411.775	114.34
411.984	75.43
412.192	118.44
412.401	52.91
412.609	200.36
412.818	165.54
413.026	130.73
413.234	-18.77
413.443	100.01
413.651	34.47
413.86	-22.87
414.068	171.69
414.276	167.59
414.485	-65.88
414.693	179.88
414.901	149.16
415.11	79.53
415.318	79.53
415.526	50.86
415.734	89.77
415.943	130.73
416.151	65.19
416.359	50.86
416.567	9.9
416.776	143.02
416.984	79.53
417.192	194.22
417.4	-20.82
417.608	22.19
417.817	-26.96
418.025	57
418.233	169.64
418.441	-37.2
418.649	-37.2
418.857	-33.11
419.065	155.3
419.273	-43.35
419.481	34.47
419.689	24.23
419.897	16.04
420.105	-31.06
420.313	116.39
420.521	155.3
420.729	204.46
420.937	59.05
421.145	18.09
421.353	134.82
421.561	214.7
421.769	124.58
421.977	34.47
422.185	138.92
422.393	40.62
422.601	128.68
422.809	13.99
423.017	87.72
423.224	75.43
423.432	143.02
423.64	114.34
423.848	104.11
424.056	-2.39
424.263	140.97
424.471	-12.63
424.679	128.68
424.887	-4.44
425.094	122.54
425.302	77.48
425.51	-0.34
425.718	85.67
425.925	65.19
426.133	59.05
426.341	179.88
426.548	50.86
426.756	40.62
426.964	190.12
427.171	69.29
427.379	143.02
427.586	102.06
427.794	102.06
428.001	163.5
428.209	108.2
428.417	149.16
428.624	65.19
428.832	46.76
429.039	73.39
429.247	102.06
429.454	95.91
429.662	218.79
429.869	155.3
430.076	159.4
430.284	110.25
430.491	198.31
430.699	153.26
430.906	204.46
431.114	138.92
431.321	153.26
431.528	104.11
431.736	167.59
431.943	155.3
432.15	206.5
432.358	214.7
432.565	286.37
432.772	118.44
432.979	272.04
433.187	222.89
433.394	249.51
433.601	173.74
433.808	247.46
434.016	194.22
434.223	237.22
434.43	192.17
434.637	210.6
434.844	284.33
435.052	163.5
435.259	249.51
435.466	259.75
435.673	276.13
435.88	374.44
436.087	315.05
436.294	358.05
436.501	343.72
436.708	237.22
436.915	351.91
437.122	399.01
437.329	212.65
437.537	329.38
437.743	339.62
437.95	446.12
438.157	343.72
438.364	321.19
438.571	493.22
438.778	431.78
438.985	501.41
439.192	507.55
439.399	384.68
439.606	568.99
439.813	525.99
440.02	618.15
440.227	671.39
440.433	618.15
440.64	521.89
440.847	534.18
441.054	677.54
441.261	736.93
441.467	671.39
441.674	612
441.881	794.27
442.088	687.78
442.294	743.07
442.501	755.36
442.708	702.11
442.914	800.41
443.121	882.33
443.328	931.48
443.534	1074.84
443.741	939.68
443.948	857.76
444.154	1083.03
444.361	1080.99
444.568	1099.42
444.774	960.16
444.981	1013.4
445.187	1261.21
445.394	1218.2
445.6	1230.49
445.807	1406.61
446.013	1230.49
446.22	1322.65
446.426	1470.1
446.633	1584.79
446.839	1715.86
447.046	1631.89
447.252	1672.85
447.459	1697.42
447.665	1779.34
447.871	1939.09
448.078	1904.27
448.284	1996.43
448.491	2047.63
448.697	2057.87
448.903	2184.84
449.11	2297.48
449.316	2231.94
449.522	2481.8
449.728	2582.15
449.935	2645.63
450.141	2709.12
450.347	2737.79
450.553	2854.53
450.76	2872.96
450.966	3112.57
451.172	3069.56
451.378	3264.12
451.584	3348.09
451.791	3591.8
451.997	3733.11
452.203	3636.85
452.409	3858.03
452.615	4071.02
452.821	3845.74
453.027	4083.31
453.233	4585.06
453.44	4425.32
453.646	4621.92
453.852	4828.77
454.058	5023.33
454.264	5035.61
454.47	5545.56
454.676	5566.04
454.882	6198.86
455.088	5860.95
455.294	6102.61
455.5	6444.62
455.705	6932.03
455.911	6831.68
456.117	7044.67
456.323	7323.19
456.529	7439.93
456.735	8011.31
456.941	8220.21
457.147	8517.16
457.352	8541.74
457.558	8969.76
457.764	9598.49
457.97	10130.96
458.176	10317.33
458.381	10595.85
458.587	11169.28
458.793	11769.34
458.999	11499
459.204	12826.09
459.41	13266.4
459.616	13147.62
459.821	13864.41
460.027	14712.27
460.233	15293.89
460.438	15418.82
460.644	16108.98
460.85	16244.15
461.055	16768.43
461.261	17788.32
461.466	17511.84
461.672	17739.16
461.878	19813.76
462.083	19766.65
462.289	19934.59
462.494	21003.63
462.7	21024.11
462.905	21566.82
463.111	23174.47
463.316	24452.41
463.522	24659.25
463.727	25601.32
463.932	26293.53
464.138	27501.83
464.343	28495.1
464.549	28794.1
464.754	31145.17
464.959	31603.91
465.165	32171.2
465.37	31638.73
465.575	31532.23
465.781	34102.43
465.986	35091.6
466.191	34360.48
466.397	34550.94
466.602	34067.62
466.807	35851.4
467.012	36387.97
467.218	37135.48
467.423	37252.21
467.628	38308.96
467.833	39742.54
468.038	39126.1
468.244	38550.62
468.449	40752.19
