Data from USB4F104151__30__10-42-27-982.txt Node

Date: Wed Feb 26 10:42:27 EST 2025
User: louis
Spectrometer: USB4F10415
Trigger mode: 4
Integration Time (sec): 1.000000E-1
Scans to average: 1
Electric dark correction enabled: true
Nonlinearity correction enabled: false
Boxcar width: 0
XAxis mode: Wavelengths
Number of Pixels in Spectrum: 3648
>>>>>Begin Spectral Data<<<<<
178.204	-390.65
178.424	-390.65
178.644	-390.65
178.864	-355.83
179.084	-398.84
179.304	-38.4
179.524	-22.02
179.744	2.56
179.964	43.52
180.184	31.23
180.404	82.43
180.624	-48.64
180.844	27.14
181.064	-48.64
181.283	33.28
181.503	-50.69
181.723	-11.78
181.943	-58.88
182.163	174.59
182.383	-34.3
182.602	74.24
182.822	170.49
183.042	29.18
183.262	-42.5
183.482	37.38
183.701	39.42
183.921	84.48
184.141	-9.73
184.361	145.92
184.58	115.2
184.8	51.71
185.02	37.38
185.239	113.15
185.459	139.77
185.679	190.97
185.898	-26.11
186.118	86.53
186.338	74.24
186.557	131.58
186.777	-50.69
186.997	37.38
187.216	20.99
187.436	211.45
187.655	80.38
187.875	117.25
188.095	82.43
188.314	209.4
188.534	143.87
188.753	-91.65
188.973	180.73
189.192	182.78
189.412	47.62
189.631	61.95
189.851	117.25
190.07	170.49
190.29	-52.74
190.509	33.28
190.729	8.7
190.948	160.25
191.168	211.45
191.387	102.91
191.607	66.05
191.826	121.34
192.045	-1.54
192.265	92.67
192.484	129.53
192.704	39.42
192.923	-99.84
193.142	117.25
193.362	98.81
193.581	221.69
193.8	123.39
194.02	68.09
194.239	51.71
194.458	-11.78
194.678	8.7
194.897	-40.45
195.116	57.86
195.335	41.47
195.555	104.96
195.774	27.14
195.993	119.29
196.212	12.8
196.432	16.9
196.651	-1.54
196.87	45.57
197.089	254.46
197.308	35.33
197.528	74.24
197.747	33.28
197.966	-1.54
198.185	129.53
198.404	27.14
198.623	127.49
198.842	123.39
199.062	51.71
199.281	164.35
199.5	80.38
199.719	107.01
199.938	51.71
200.157	100.86
200.376	129.53
200.595	107.01
200.814	31.23
201.033	25.09
201.252	195.07
201.471	31.23
201.69	88.57
201.909	14.85
202.128	121.34
202.347	129.53
202.566	102.91
202.785	-22.02
203.004	-50.69
203.223	260.6
203.442	94.72
203.661	-22.02
203.879	92.67
204.098	96.77
204.317	-50.69
204.536	154.11
204.755	133.63
204.974	55.81
205.193	84.48
205.411	150.01
205.63	4.61
205.849	135.68
206.068	133.63
206.287	-9.73
206.505	121.34
206.724	6.66
206.943	10.75
207.162	-42.5
207.381	133.63
207.599	12.8
207.818	59.9
208.037	51.71
208.255	18.94
208.474	96.77
208.693	90.62
208.911	59.9
209.13	111.1
209.349	96.77
209.567	41.47
209.786	33.28
210.005	51.71
210.223	51.71
210.442	-34.3
210.661	41.47
210.879	2.56
211.098	125.44
211.316	-36.35
211.535	113.15
211.753	109.05
211.972	102.91
212.191	57.86
212.409	-26.11
212.628	49.66
212.846	-15.87
213.065	125.44
213.283	80.38
213.502	20.99
213.72	88.57
213.938	6.66
214.157	49.66
214.375	86.53
214.594	-7.68
214.812	57.86
215.031	86.53
215.249	102.91
215.467	80.38
215.686	84.48
215.904	107.01
216.122	0.51
216.341	209.4
216.559	119.29
216.778	129.53
216.996	137.73
217.214	68.09
217.432	-13.82
217.651	-81.41
217.869	4.61
218.087	31.23
218.306	70.14
218.524	-5.63
218.742	84.48
218.96	119.29
219.179	57.86
219.397	104.96
219.615	158.21
219.833	94.72
220.051	-46.59
220.27	98.81
220.488	174.59
220.706	125.44
220.924	61.95
221.142	10.75
221.36	98.81
221.578	166.4
221.796	-5.63
222.015	84.48
222.233	25.09
222.451	152.06
222.669	-34.3
222.887	76.29
223.105	25.09
223.323	68.09
223.541	-24.06
223.759	31.23
223.977	78.33
224.195	313.85
224.413	96.77
224.631	98.81
224.849	59.9
225.067	231.93
225.285	-40.45
225.503	-11.78
225.721	-62.98
225.939	59.9
226.157	92.67
226.375	229.88
226.592	8.7
226.81	195.07
227.028	107.01
227.246	193.02
227.464	74.24
227.682	80.38
227.9	139.77
228.117	133.63
228.335	115.2
228.553	-1.54
228.771	51.71
228.989	82.43
229.206	55.81
229.424	-5.63
229.642	70.14
229.86	8.7
230.077	129.53
230.295	16.9
230.513	174.59
230.731	82.43
230.948	137.73
231.166	160.25
231.384	-22.02
231.601	-52.74
231.819	209.4
232.037	72.19
232.254	-24.06
232.472	41.47
232.689	47.62
232.907	119.29
233.125	25.09
233.342	-19.97
233.56	72.19
233.777	47.62
233.995	39.42
234.213	158.21
234.43	137.73
234.648	25.09
234.865	20.99
235.083	43.52
235.3	80.38
235.518	57.86
235.735	107.01
235.953	61.95
236.17	104.96
236.388	55.81
236.605	74.24
236.822	188.93
237.04	107.01
237.257	117.25
237.475	-30.21
237.692	51.71
237.909	96.77
238.127	61.95
238.344	90.62
238.562	39.42
238.779	-13.82
238.996	-32.26
239.214	96.77
239.431	80.38
239.648	111.1
239.865	76.29
240.083	66.05
240.3	-15.87
240.517	64
240.735	33.28
240.952	205.31
241.169	4.61
241.386	45.57
241.603	2.56
241.821	-50.69
242.038	109.05
242.255	80.38
242.472	-89.6
242.689	115.2
242.907	78.33
243.124	74.24
243.341	-56.83
243.558	2.56
243.775	16.9
243.992	-112.13
244.209	100.86
244.426	244.22
244.643	59.9
244.86	111.1
245.078	12.8
245.295	43.52
245.512	23.04
245.729	12.8
245.946	70.14
246.163	119.29
246.38	-7.68
246.597	59.9
246.814	10.75
247.031	14.85
247.248	8.7
247.464	119.29
247.681	86.53
247.898	18.94
248.115	14.85
248.332	14.85
248.549	156.16
248.766	43.52
248.983	55.81
249.2	113.15
249.417	129.53
249.633	20.99
249.85	115.2
250.067	72.19
250.284	25.09
250.501	96.77
250.717	88.57
250.934	-46.59
251.151	111.1
251.368	51.71
251.585	-1.54
251.801	111.1
252.018	10.75
252.235	147.97
252.451	-120.32
252.668	-36.35
252.885	64
253.102	35.33
253.318	2.56
253.535	57.86
253.752	68.09
253.968	51.71
254.185	-26.11
254.401	84.48
254.618	150.01
254.835	76.29
255.051	123.39
255.268	100.86
255.484	-1.54
255.701	66.05
255.917	174.59
256.134	55.81
256.351	70.14
256.567	-60.93
256.784	68.09
257	-67.07
257.217	178.69
257.433	174.59
257.65	41.47
257.866	150.01
258.082	-34.3
258.299	-13.82
258.515	29.18
258.732	-9.73
258.948	47.62
259.165	82.43
259.381	-46.59
259.597	68.09
259.814	104.96
260.03	55.81
260.246	-44.54
260.463	121.34
260.679	141.82
260.895	109.05
261.112	96.77
261.328	96.77
261.544	-22.02
261.761	205.31
261.977	18.94
262.193	-30.21
262.409	182.78
262.626	111.1
262.842	45.57
263.058	4.61
263.274	88.57
263.49	78.33
263.707	109.05
263.923	115.2
264.139	-42.5
264.355	59.9
264.571	143.87
264.787	51.71
265.004	127.49
265.22	33.28
265.436	27.14
265.652	33.28
265.868	92.67
266.084	-52.74
266.3	-9.73
266.516	20.99
266.732	68.09
266.948	14.85
267.164	-30.21
267.38	98.81
267.596	100.86
267.812	207.36
268.028	49.66
268.244	8.7
268.46	64
268.676	27.14
268.892	90.62
269.108	-7.68
269.324	10.75
269.54	-52.74
269.756	137.73
269.972	-54.78
270.188	57.86
270.403	-7.68
270.619	20.99
270.835	127.49
271.051	8.7
271.267	33.28
271.483	-24.06
271.698	104.96
271.914	64
272.13	92.67
272.346	49.66
272.562	74.24
272.777	248.32
272.993	121.34
273.209	-26.11
273.425	98.81
273.64	-65.02
273.856	86.53
274.072	4.61
274.287	23.04
274.503	90.62
274.719	82.43
274.934	43.52
275.15	29.18
275.366	66.05
275.581	-34.3
275.797	-15.87
276.012	41.47
276.228	0.51
276.444	-28.16
276.659	170.49
276.875	-13.82
277.09	-11.78
277.306	16.9
277.521	74.24
277.737	-5.63
277.952	57.86
278.168	76.29
278.383	49.66
278.599	80.38
278.814	80.38
279.03	82.43
279.245	90.62
279.461	82.43
279.676	119.29
279.892	-60.93
280.107	-22.02
280.322	39.42
280.538	82.43
280.753	33.28
280.969	109.05
281.184	84.48
281.399	135.68
281.615	31.23
281.83	76.29
282.045	-54.78
282.26	98.81
282.476	51.71
282.691	74.24
282.906	-1.54
283.122	18.94
283.337	-3.58
283.552	133.63
283.767	76.29
283.983	96.77
284.198	66.05
284.413	115.2
284.628	25.09
284.843	57.86
285.058	90.62
285.274	51.71
285.489	-103.93
285.704	150.01
285.919	61.95
286.134	27.14
286.349	14.85
286.564	84.48
286.779	174.59
286.995	35.33
287.21	12.8
287.425	47.62
287.64	-22.02
287.855	51.71
288.07	-9.73
288.285	137.73
288.5	125.44
288.715	10.75
288.93	35.33
289.145	-15.87
289.36	145.92
289.575	-13.82
289.79	127.49
290.004	-13.82
290.219	117.25
290.434	68.09
290.649	-26.11
290.864	18.94
291.079	72.19
291.294	74.24
291.509	4.61
291.724	33.28
291.938	31.23
292.153	154.11
292.368	-3.58
292.583	51.71
292.798	84.48
293.012	68.09
293.227	109.05
293.442	35.33
293.657	156.16
293.871	188.93
294.086	125.44
294.301	162.3
294.516	211.45
294.73	107.01
294.945	-32.26
295.16	-5.63
295.374	180.73
295.589	109.05
295.804	-28.16
296.018	92.67
296.233	162.3
296.447	119.29
296.662	16.9
296.877	158.21
297.091	131.58
297.306	45.57
297.52	80.38
297.735	115.2
297.949	31.23
298.164	14.85
298.378	47.62
298.593	-50.69
298.807	-44.54
299.022	6.66
299.236	176.64
299.451	33.28
299.665	18.94
299.88	20.99
300.094	74.24
300.309	47.62
300.523	57.86
300.737	-36.35
300.952	133.63
301.166	111.1
301.381	-3.58
301.595	64
301.809	49.66
302.024	6.66
302.238	66.05
302.452	182.78
302.667	45.57
302.881	152.06
303.095	199.16
303.309	43.52
303.524	53.76
303.738	37.38
303.952	39.42
304.166	88.57
304.381	-146.94
304.595	131.58
304.809	16.9
305.023	80.38
305.237	29.18
305.452	64
305.666	66.05
305.88	100.86
306.094	156.16
306.308	100.86
306.522	107.01
306.736	59.9
306.95	195.07
307.164	49.66
307.379	16.9
307.593	117.25
307.807	92.67
308.021	43.52
308.235	78.33
308.449	-56.83
308.663	66.05
308.877	279.04
309.091	-1.54
309.305	123.39
309.519	-138.75
309.733	137.73
309.947	-81.41
310.161	129.53
310.374	80.38
310.588	164.35
310.802	-58.88
311.016	16.9
311.23	98.81
311.444	31.23
311.658	18.94
311.872	180.73
312.085	127.49
312.299	117.25
312.513	84.48
312.727	-1.54
312.941	27.14
313.154	53.76
313.368	72.19
313.582	104.96
313.796	166.4
314.009	61.95
314.223	113.15
314.437	2.56
314.651	20.99
314.864	-24.06
315.078	107.01
315.292	-30.21
315.505	51.71
315.719	51.71
315.933	49.66
316.146	51.71
316.36	-24.06
316.573	102.91
316.787	70.14
317.001	80.38
317.214	-46.59
317.428	57.86
317.641	-3.58
317.855	-28.16
318.068	72.19
318.282	41.47
318.495	107.01
318.709	182.78
318.922	29.18
319.136	154.11
319.349	139.77
319.563	27.14
319.776	141.82
319.99	27.14
320.203	164.35
320.417	-9.73
320.63	121.34
320.843	168.45
321.057	96.77
321.27	16.9
321.483	113.15
321.697	115.2
321.91	107.01
322.124	51.71
322.337	43.52
322.55	25.09
322.763	84.48
322.977	16.9
323.19	-26.11
323.403	41.47
323.617	10.75
323.83	129.53
324.043	80.38
324.256	68.09
324.469	-67.07
324.683	131.58
324.896	20.99
325.109	31.23
325.322	-85.5
325.535	119.29
325.748	74.24
325.962	43.52
326.175	49.66
326.388	-13.82
326.601	139.77
326.814	37.38
327.027	51.71
327.24	178.69
327.453	4.61
327.666	37.38
327.879	98.81
328.092	61.95
328.305	39.42
328.518	39.42
328.731	-17.92
328.944	78.33
329.157	61.95
329.37	-24.06
329.583	193.02
329.796	152.06
330.009	-89.6
330.222	102.91
330.435	147.97
330.648	-5.63
330.861	88.57
331.073	102.91
331.286	141.82
331.499	80.38
331.712	-58.88
331.925	41.47
332.138	45.57
332.35	104.96
332.563	-38.4
332.776	135.68
332.989	0.51
333.202	10.75
333.414	64
333.627	35.33
333.84	-22.02
334.053	-11.78
334.265	31.23
334.478	37.38
334.691	-32.26
334.903	53.76
335.116	57.86
335.329	18.94
335.541	150.01
335.754	150.01
335.966	66.05
336.179	10.75
336.392	76.29
336.604	68.09
336.817	123.39
337.029	68.09
337.242	12.8
337.454	64
337.667	-1.54
337.88	74.24
338.092	94.72
338.305	61.95
338.517	-7.68
338.729	76.29
338.942	162.3
339.154	2.56
339.367	49.66
339.579	170.49
339.792	-69.12
340.004	61.95
340.217	16.9
340.429	123.39
340.641	18.94
340.854	-15.87
341.066	64
341.278	31.23
341.491	223.74
341.703	27.14
341.915	18.94
342.128	107.01
342.34	70.14
342.552	18.94
342.764	121.34
342.977	16.9
343.189	29.18
343.401	90.62
343.613	-42.5
343.826	98.81
344.038	59.9
344.25	88.57
344.462	-30.21
344.674	23.04
344.886	72.19
345.099	166.4
345.311	111.1
345.523	86.53
345.735	-130.56
345.947	123.39
346.159	20.99
346.371	104.96
346.583	23.04
346.795	244.22
347.007	57.86
347.219	121.34
347.431	51.71
347.643	121.34
347.855	45.57
348.067	154.11
348.279	-56.83
348.491	107.01
348.703	78.33
348.915	10.75
349.127	64
349.339	51.71
349.551	-26.11
349.763	64
349.975	35.33
350.187	98.81
350.399	211.45
350.61	96.77
350.822	14.85
351.034	96.77
351.246	64
351.458	147.97
351.669	100.86
351.881	113.15
352.093	127.49
352.305	117.25
352.517	180.73
352.728	100.86
352.94	119.29
353.152	86.53
353.363	20.99
353.575	98.81
353.787	174.59
353.999	70.14
354.21	164.35
354.422	41.47
354.633	8.7
354.845	18.94
355.057	66.05
355.268	-30.21
355.48	78.33
355.692	-34.3
355.903	90.62
356.115	-5.63
356.326	-36.35
356.538	172.54
356.749	76.29
356.961	125.44
357.172	4.61
357.384	-1.54
357.595	182.78
357.807	-15.87
358.018	-50.69
358.23	107.01
358.441	158.21
358.653	121.34
358.864	-19.97
359.075	-54.78
359.287	154.11
359.498	100.86
359.709	68.09
359.921	47.62
360.132	90.62
360.344	-46.59
360.555	-62.98
360.766	139.77
360.977	72.19
361.189	166.4
361.4	66.05
361.611	96.77
361.823	236.03
362.034	86.53
362.245	-65.02
362.456	74.24
362.667	143.87
362.879	4.61
363.09	51.71
363.301	80.38
363.512	51.71
363.723	23.04
363.935	45.57
364.146	129.53
364.357	12.8
364.568	102.91
364.779	-36.35
364.99	121.34
365.201	-50.69
365.412	139.77
365.623	-60.93
365.834	64
366.045	92.67
366.256	25.09
366.467	76.29
366.678	45.57
366.889	43.52
367.1	37.38
367.311	141.82
367.522	45.57
367.733	158.21
367.944	143.87
368.155	41.47
368.366	166.4
368.577	72.19
368.788	90.62
368.999	-75.26
369.209	29.18
369.42	147.97
369.631	221.69
369.842	84.48
370.053	76.29
370.264	121.34
370.474	-95.74
370.685	14.85
370.896	53.76
371.107	170.49
371.317	16.9
371.528	-69.12
371.739	141.82
371.95	66.05
372.16	111.1
372.371	-3.58
372.582	-50.69
372.792	176.64
373.003	35.33
373.214	74.24
373.424	51.71
373.635	-32.26
373.846	115.2
374.056	27.14
374.267	119.29
374.477	154.11
374.688	-3.58
374.898	119.29
375.109	-44.54
375.319	80.38
375.53	66.05
375.74	64
375.951	-24.06
376.161	59.9
376.372	133.63
376.582	25.09
376.793	84.48
377.003	29.18
377.214	43.52
377.424	137.73
377.635	80.38
377.845	-15.87
378.055	166.4
378.266	-40.45
378.476	70.14
378.686	31.23
378.897	80.38
379.107	147.97
379.317	72.19
379.528	12.8
379.738	188.93
379.948	49.66
380.158	74.24
380.369	113.15
380.579	111.1
380.789	64
380.999	78.33
381.21	127.49
381.42	172.54
381.63	86.53
381.84	55.81
382.05	160.25
382.261	219.64
382.471	113.15
382.681	8.7
382.891	182.78
383.101	125.44
383.311	41.47
383.521	37.38
383.731	121.34
383.941	160.25
384.151	-7.68
384.361	12.8
384.571	68.09
384.781	33.28
384.991	131.58
385.201	174.59
385.411	131.58
385.621	82.43
385.831	53.76
386.041	80.38
386.251	86.53
386.461	141.82
386.671	-3.58
386.881	55.81
387.091	14.85
387.301	104.96
387.511	66.05
387.72	119.29
387.93	20.99
388.14	-13.82
388.35	168.45
388.56	82.43
388.769	55.81
388.979	96.77
389.189	-26.11
389.399	-11.78
389.609	117.25
389.818	137.73
390.028	66.05
390.238	109.05
390.447	31.23
390.657	37.38
390.867	27.14
391.076	-34.3
391.286	-1.54
391.496	96.77
391.705	14.85
391.915	199.16
392.125	156.16
392.334	-11.78
392.544	139.77
392.753	25.09
392.963	-1.54
393.172	137.73
393.382	92.67
393.591	260.6
393.801	31.23
394.01	182.78
394.22	104.96
394.429	90.62
394.639	27.14
394.848	64
395.058	20.99
395.267	64
395.477	90.62
395.686	164.35
395.895	268.8
396.105	152.06
396.314	121.34
396.524	72.19
396.733	92.67
396.942	92.67
397.152	164.35
397.361	172.54
397.57	88.57
397.78	10.75
397.989	121.34
398.198	195.07
398.407	94.72
398.617	74.24
398.826	72.19
399.035	86.53
399.244	109.05
399.453	4.61
399.663	80.38
399.872	66.05
400.081	-13.82
400.29	123.39
400.499	47.62
400.708	90.62
400.917	68.09
401.127	51.71
401.336	37.38
401.545	205.31
401.754	174.59
401.963	113.15
402.172	41.47
402.381	-3.58
402.59	53.76
402.799	96.77
403.008	88.57
403.217	72.19
403.426	94.72
403.635	-62.98
403.844	94.72
404.053	45.57
404.262	10.75
404.471	244.22
404.68	61.95
404.888	55.81
405.097	39.42
405.306	121.34
405.515	129.53
405.724	94.72
405.933	178.69
406.142	123.39
406.35	113.15
406.559	137.73
406.768	111.1
406.977	190.97
407.185	96.77
407.394	90.62
407.603	-7.68
407.812	80.38
408.02	45.57
408.229	127.49
408.438	141.82
408.646	-50.69
408.855	68.09
409.064	137.73
409.272	158.21
409.481	158.21
409.69	143.87
409.898	-5.63
410.107	39.42
410.315	131.58
410.524	35.33
410.733	8.7
410.941	72.19
411.15	158.21
411.358	236.03
411.567	178.69
411.775	100.86
411.984	104.96
412.192	68.09
412.401	125.44
412.609	205.31
412.818	150.01
413.026	111.1
413.234	133.63
413.443	64
413.651	29.18
413.86	64
414.068	78.33
414.276	186.88
414.485	84.48
414.693	217.6
414.901	201.21
415.11	96.77
415.318	68.09
415.526	-9.73
415.734	119.29
415.943	82.43
416.151	182.78
416.359	70.14
416.567	109.05
416.776	154.11
416.984	64
417.192	242.17
417.4	33.28
417.608	18.94
417.817	37.38
418.025	109.05
418.233	115.2
418.441	-46.59
418.649	-85.5
418.857	127.49
419.065	170.49
419.273	61.95
419.481	94.72
419.689	29.18
419.897	-40.45
420.105	-13.82
420.313	141.82
420.521	223.74
420.729	160.25
420.937	10.75
421.145	45.57
421.353	117.25
421.561	133.63
421.769	131.58
421.977	78.33
422.185	111.1
422.393	51.71
422.601	190.97
422.809	156.16
423.017	47.62
423.224	172.54
423.432	133.63
423.64	57.86
423.848	143.87
424.056	-22.02
424.263	100.86
424.471	31.23
424.679	188.93
424.887	-38.4
425.094	160.25
425.302	172.54
425.51	111.1
425.718	141.82
425.925	117.25
426.133	39.42
426.341	199.16
426.548	98.81
426.756	35.33
426.964	174.59
427.171	39.42
427.379	78.33
427.586	55.81
427.794	143.87
428.001	64
428.209	70.14
428.417	248.32
428.624	180.73
428.832	125.44
429.039	66.05
429.247	88.57
429.454	174.59
429.662	264.7
429.869	219.64
430.076	145.92
430.284	176.64
430.491	270.84
430.699	180.73
430.906	256.51
431.114	172.54
431.321	100.86
431.528	111.1
431.736	188.93
431.943	201.21
432.15	211.45
432.358	285.18
432.565	244.22
432.772	66.05
432.979	330.23
433.187	236.03
433.394	227.84
433.601	193.02
433.808	395.77
434.016	326.14
434.223	340.47
434.43	262.65
434.637	365.05
434.844	414.2
435.052	332.28
435.259	299.52
435.466	336.38
435.673	291.32
435.88	406.01
436.087	442.87
436.294	385.53
436.501	461.3
436.708	383.48
436.915	399.87
437.122	500.22
437.329	342.52
437.537	475.64
437.743	381.43
437.95	539.13
438.157	539.13
438.364	418.3
438.571	520.7
438.778	584.18
438.985	543.22
439.192	569.85
439.399	596.47
439.606	580.09
439.813	637.43
440.02	715.25
440.227	836.08
440.433	651.77
440.64	729.59
440.847	647.67
441.054	731.64
441.261	891.38
441.467	801.27
441.674	797.17
441.881	909.81
442.088	864.75
442.294	1010.16
442.501	1012.21
442.708	1028.59
442.914	1044.98
443.121	1106.42
443.328	1178.09
443.534	1135.09
443.741	1239.53
443.948	1055.22
444.154	1300.97
444.361	1464.81
444.568	1257.96
444.774	1374.7
444.981	1335.79
445.187	1450.47
445.394	1468.91
445.6	1446.38
445.807	1690.09
446.013	1729
446.22	1716.71
446.426	1913.31
446.633	1874.4
446.839	2216.41
447.046	2089.44
447.252	2140.64
447.459	2071.01
447.665	2148.83
447.871	2284
448.078	2531.8
448.284	2607.58
448.491	2679.26
448.697	2609.62
448.903	3029.46
449.11	2965.97
449.316	2892.24
449.522	3199.44
449.728	3215.82
449.935	3307.98
450.141	3504.59
450.347	3588.55
450.553	3545.55
450.76	3703.24
450.966	3908.04
451.172	3897.8
451.378	4067.78
451.584	4272.57
451.791	4495.8
451.997	4587.96
452.203	4749.75
452.409	4962.74
452.615	5251.5
452.821	5136.82
453.027	5210.54
453.233	5800.36
453.44	5624.23
453.646	5986.72
453.852	6128.03
454.058	6381.98
454.264	6578.59
454.47	7010.71
454.676	6990.23
454.882	7717.26
455.088	7381.39
455.294	7774.6
455.5	8294.79
455.705	8831.35
455.911	8548.73
456.117	8790.39
456.323	9331.06
456.529	9216.37
456.735	10072.42
456.941	10479.97
457.147	10719.58
457.352	10989.91
457.558	11272.53
457.764	12319.04
457.97	12431.68
458.176	12998.97
458.381	13519.15
458.587	13592.88
458.793	14477.6
458.999	14336.29
459.204	16423.17
459.41	16453.89
459.616	16607.49
459.821	17512.69
460.027	18325.74
460.233	19353.82
460.438	18927.84
460.644	20332.75
460.85	20545.73
461.055	21373.11
461.261	22497.45
461.466	21987.5
461.672	22483.11
461.878	24707.21
462.083	24662.15
462.289	25122.94
462.494	26480.75
462.7	26228.85
462.905	26728.55
463.111	29018.18
463.316	30187.57
463.522	30879.78
463.727	31563.81
463.932	33048.58
464.138	33826.81
464.343	35071.98
464.549	35373.03
464.754	38084.54
464.959	38873.01
465.165	39790.5
465.37	39530.4
465.575	39757.73
465.781	42022.78
465.986	43384.68
466.191	42594.17
466.397	43110.25
466.602	41918.34
466.807	44466.01
467.012	45485.9
467.218	45731.65
467.423	46344
467.628	47361.84
467.833	49680.14
468.038	48912.15
468.244	47965.99
