Data from USB4F104151__176__11-05-02-134.txt Node

Date: Wed Feb 26 11:05:02 EST 2025
User: louis
Spectrometer: USB4F10415
Trigger mode: 4
Integration Time (sec): 1.000000E-1
Scans to average: 1
Electric dark correction enabled: true
Nonlinearity correction enabled: false
Boxcar width: 0
XAxis mode: Wavelengths
Number of Pixels in Spectrum: 3648
>>>>>Begin Spectral Data<<<<<
178.204	-442.7
178.424	-442.7
178.644	-442.7
178.864	-424.27
179.084	-364.88
179.304	-35.16
179.524	-59.73
179.744	-6.49
179.964	40.62
180.184	-61.78
180.404	26.28
180.624	-47.44
180.844	73.39
181.064	-41.3
181.283	36.52
181.503	5.8
181.723	69.29
181.943	-106.84
182.163	147.11
182.383	-55.64
182.602	-18.77
182.822	147.11
183.042	24.23
183.262	-37.2
183.482	-41.3
183.701	38.57
183.921	26.28
184.141	-53.59
184.361	36.52
184.58	16.04
184.8	26.28
185.02	-47.44
185.239	102.06
185.459	-6.49
185.679	147.11
185.898	-96.6
186.118	48.81
186.338	36.52
186.557	134.82
186.777	-49.49
186.997	28.33
187.216	20.14
187.436	161.45
187.655	24.23
187.875	38.57
188.095	59.05
188.314	143.02
188.534	143.02
188.753	-92.5
188.973	126.63
189.192	229.03
189.412	-16.73
189.631	-10.58
189.851	36.52
190.07	145.06
190.29	-86.36
190.509	-35.16
190.729	7.85
190.948	186.02
191.168	210.6
191.387	40.62
191.607	20.14
191.826	57
192.045	42.67
192.265	-2.39
192.484	59.05
192.704	38.57
192.923	-39.25
193.142	186.02
193.362	22.19
193.581	177.83
193.8	73.39
194.02	57
194.239	-2.39
194.458	46.76
194.678	7.85
194.897	-90.45
195.116	57
195.335	-10.58
195.555	-10.58
195.774	-51.54
195.993	95.91
196.212	-4.44
196.432	-39.25
196.651	-45.4
196.87	26.28
197.089	231.08
197.308	67.24
197.528	44.71
197.747	-86.36
197.966	-24.92
198.185	120.49
198.404	-55.64
198.623	93.87
198.842	124.58
199.062	126.63
199.281	95.91
199.5	-22.87
199.719	40.62
199.938	116.39
200.157	73.39
200.376	116.39
200.595	87.72
200.814	-45.4
201.033	-33.11
201.252	224.94
201.471	26.28
201.69	75.43
201.909	-53.59
202.128	44.71
202.347	54.95
202.566	50.86
202.785	-29.01
203.004	-16.73
203.223	167.59
203.442	89.77
203.661	-2.39
203.879	40.62
204.098	112.3
204.317	-18.77
204.536	59.05
204.755	95.91
204.974	54.95
205.193	-2.39
205.411	118.44
205.63	85.67
205.849	95.91
206.068	-78.16
206.287	89.77
206.505	124.58
206.724	71.34
206.943	3.75
207.162	-67.92
207.381	85.67
207.599	30.38
207.818	5.8
208.037	-12.63
208.255	38.57
208.474	57
208.693	50.86
208.911	36.52
209.13	54.95
209.349	128.68
209.567	71.34
209.786	22.19
210.005	122.54
210.223	-16.73
210.442	-104.79
210.661	24.23
210.879	36.52
211.098	26.28
211.316	73.39
211.535	13.99
211.753	77.48
211.972	46.76
212.191	-31.06
212.409	7.85
212.628	116.39
212.846	-74.07
213.065	132.78
213.283	69.29
213.502	32.43
213.72	46.76
213.938	46.76
214.157	-84.31
214.375	112.3
214.594	3.75
214.812	26.28
215.031	22.19
215.249	48.81
215.467	52.91
215.686	-39.25
215.904	77.48
216.122	75.43
216.341	91.82
216.559	-0.34
216.778	97.96
216.996	138.92
217.214	65.19
217.432	-10.58
217.651	-41.3
217.869	110.25
218.087	77.48
218.306	-39.25
218.524	52.91
218.742	11.95
218.96	9.9
219.179	20.14
219.397	36.52
219.615	126.63
219.833	89.77
220.051	-49.49
220.27	-10.58
220.488	149.16
220.706	11.95
220.924	50.86
221.142	-61.78
221.36	69.29
221.578	85.67
221.796	5.8
222.015	50.86
222.233	100.01
222.451	188.07
222.669	-4.44
222.887	61.1
223.105	-59.73
223.323	-2.39
223.541	-24.92
223.759	32.43
223.977	100.01
224.195	126.63
224.413	46.76
224.631	-29.01
224.849	16.04
225.067	202.41
225.285	-80.21
225.503	-78.16
225.721	-90.45
225.939	38.57
226.157	36.52
226.375	253.61
226.592	-6.49
226.81	-20.82
227.028	110.25
227.246	102.06
227.464	-35.16
227.682	13.99
227.9	44.71
228.117	40.62
228.335	36.52
228.553	36.52
228.771	3.75
228.989	30.38
229.206	71.34
229.424	-10.58
229.642	11.95
229.86	-29.01
230.077	159.4
230.295	13.99
230.513	59.05
230.731	83.63
230.948	179.88
231.166	95.91
231.384	32.43
231.601	13.99
231.819	173.74
232.037	-4.44
232.254	-18.77
232.472	-2.39
232.689	-41.3
232.907	108.2
233.125	7.85
233.342	26.28
233.56	44.71
233.777	-96.6
233.995	-57.68
234.213	130.73
234.43	-8.53
234.648	3.75
234.865	-6.49
235.083	69.29
235.3	79.53
235.518	13.99
235.735	102.06
235.953	102.06
236.17	22.19
236.388	-0.34
236.605	-14.68
236.822	28.33
237.04	67.24
237.257	36.52
237.475	-65.88
237.692	-14.68
237.909	7.85
238.127	9.9
238.344	46.76
238.562	-2.39
238.779	-80.21
238.996	-115.03
239.214	-4.44
239.431	147.11
239.648	-57.68
239.865	104.11
240.083	63.15
240.3	-41.3
240.517	16.04
240.735	7.85
240.952	91.82
241.169	61.1
241.386	38.57
241.603	-45.4
241.821	9.9
242.038	32.43
242.255	63.15
242.472	-39.25
242.689	83.63
242.907	-4.44
243.124	48.81
243.341	22.19
243.558	7.85
243.775	-26.96
243.992	-129.36
244.209	140.97
244.426	169.64
244.643	11.95
244.86	106.15
245.078	-10.58
245.295	85.67
245.512	7.85
245.729	7.85
245.946	59.05
246.163	38.57
246.38	3.75
246.597	-41.3
246.814	75.43
247.031	38.57
247.248	-16.73
247.464	38.57
247.681	28.33
247.898	38.57
248.115	67.24
248.332	28.33
248.549	126.63
248.766	136.87
248.983	95.91
249.2	44.71
249.417	38.57
249.633	3.75
249.85	13.99
250.067	-2.39
250.284	-0.34
250.501	52.91
250.717	-37.2
250.934	-102.74
251.151	36.52
251.368	26.28
251.585	32.43
251.801	54.95
252.018	-43.35
252.235	52.91
252.451	-63.83
252.668	52.91
252.885	126.63
253.102	48.81
253.318	-29.01
253.535	-31.06
253.752	-37.2
253.968	7.85
254.185	-82.26
254.401	81.58
254.618	59.05
254.835	50.86
255.051	77.48
255.268	102.06
255.484	20.14
255.701	81.58
255.917	54.95
256.134	-6.49
256.351	3.75
256.567	-6.49
256.784	-43.35
257	-108.88
257.217	102.06
257.433	145.06
257.65	-0.34
257.866	79.53
258.082	36.52
258.299	-10.58
258.515	48.81
258.732	54.95
258.948	-43.35
259.165	34.47
259.381	-131.41
259.597	69.29
259.814	7.85
260.03	89.77
260.246	-14.68
260.463	89.77
260.679	120.49
260.895	50.86
261.112	22.19
261.328	13.99
261.544	-37.2
261.761	132.78
261.977	-10.58
262.193	-43.35
262.409	36.52
262.626	63.15
262.842	-14.68
263.058	-92.5
263.274	22.19
263.49	34.47
263.707	87.72
263.923	106.15
264.139	1.71
264.355	44.71
264.571	79.53
264.787	44.71
265.004	73.39
265.22	9.9
265.436	-12.63
265.652	-29.01
265.868	83.63
266.084	-55.64
266.3	93.87
266.516	-4.44
266.732	-33.11
266.948	3.75
267.164	36.52
267.38	149.16
267.596	50.86
267.812	145.06
268.028	46.76
268.244	-49.49
268.46	44.71
268.676	100.01
268.892	48.81
269.108	-12.63
269.324	16.04
269.54	-139.6
269.756	73.39
269.972	-4.44
270.188	-26.96
270.403	-63.83
270.619	9.9
270.835	79.53
271.051	16.04
271.267	32.43
271.483	-24.92
271.698	20.14
271.914	30.38
272.13	40.62
272.346	22.19
272.562	54.95
272.777	77.48
272.993	13.99
273.209	-4.44
273.425	30.38
273.64	-155.99
273.856	63.15
274.072	-51.54
274.287	9.9
274.503	44.71
274.719	24.23
274.934	38.57
275.15	-110.93
275.366	16.04
275.581	-65.88
275.797	-2.39
276.012	-37.2
276.228	-31.06
276.444	-35.16
276.659	100.01
276.875	-88.4
277.09	-45.4
277.306	-65.88
277.521	11.95
277.737	20.14
277.952	30.38
278.168	26.28
278.383	87.72
278.599	1.71
278.814	63.15
279.03	69.29
279.245	108.2
279.461	11.95
279.676	73.39
279.892	-90.45
280.107	-86.36
280.322	-90.45
280.538	-26.96
280.753	-65.88
280.969	48.81
281.184	-16.73
281.399	118.44
281.615	50.86
281.83	95.91
282.045	-10.58
282.26	-29.01
282.476	-8.53
282.691	54.95
282.906	57
283.122	93.87
283.337	-18.77
283.552	77.48
283.767	-31.06
283.983	24.23
284.198	79.53
284.413	114.34
284.628	-18.77
284.843	-2.39
285.058	75.43
285.274	24.23
285.489	9.9
285.704	81.58
285.919	32.43
286.134	22.19
286.349	18.09
286.564	59.05
286.779	120.49
286.995	-35.16
287.21	-41.3
287.425	50.86
287.64	11.95
287.855	59.05
288.07	7.85
288.285	89.77
288.5	202.41
288.715	50.86
288.93	77.48
289.145	5.8
289.36	81.58
289.575	-55.64
289.79	91.82
290.004	-26.96
290.219	167.59
290.434	18.09
290.649	-43.35
290.864	-16.73
291.079	34.47
291.294	34.47
291.509	-10.58
291.724	-18.77
291.938	-0.34
292.153	28.33
292.368	-57.68
292.583	118.44
292.798	134.82
293.012	-49.49
293.227	63.15
293.442	-18.77
293.657	26.28
293.871	93.87
294.086	46.76
294.301	183.98
294.516	155.3
294.73	48.81
294.945	-102.74
295.16	3.75
295.374	69.29
295.589	104.11
295.804	-20.82
296.018	7.85
296.233	77.48
296.447	34.47
296.662	50.86
296.877	77.48
297.091	54.95
297.306	20.14
297.52	7.85
297.735	-12.63
297.949	77.48
298.164	52.91
298.378	11.95
298.593	-12.63
298.807	-31.06
299.022	73.39
299.236	71.34
299.451	-16.73
299.665	18.09
299.88	75.43
300.094	42.67
300.309	69.29
300.523	-20.82
300.737	71.34
300.952	18.09
301.166	71.34
301.381	-63.83
301.595	22.19
301.809	52.91
302.024	-4.44
302.238	9.9
302.452	104.11
302.667	-20.82
302.881	91.82
303.095	63.15
303.309	32.43
303.524	1.71
303.738	61.1
303.952	-55.64
304.166	7.85
304.381	-155.99
304.595	145.06
304.809	-82.26
305.023	81.58
305.237	9.9
305.452	-33.11
305.666	89.77
305.88	57
306.094	97.96
306.308	38.57
306.522	116.39
306.736	26.28
306.95	16.04
307.164	30.38
307.379	65.19
307.593	50.86
307.807	134.82
308.021	85.67
308.235	138.92
308.449	-72.02
308.663	-39.25
308.877	159.4
309.091	16.04
309.305	54.95
309.519	-98.64
309.733	36.52
309.947	-90.45
310.161	67.24
310.374	63.15
310.588	102.06
310.802	7.85
311.016	34.47
311.23	85.67
311.444	-43.35
311.658	-18.77
311.872	61.1
312.085	140.97
312.299	165.54
312.513	44.71
312.727	11.95
312.941	-39.25
313.154	100.01
313.368	16.04
313.582	26.28
313.796	75.43
314.009	-45.4
314.223	165.54
314.437	18.09
314.651	36.52
314.864	-51.54
315.078	-49.49
315.292	-51.54
315.505	-22.87
315.719	18.09
315.933	-6.49
316.146	67.24
316.36	-67.92
316.573	24.23
316.787	-0.34
317.001	42.67
317.214	-117.08
317.428	71.34
317.641	11.95
317.855	52.91
318.068	34.47
318.282	36.52
318.495	106.15
318.709	26.28
318.922	-8.53
319.136	151.21
319.349	83.63
319.563	-0.34
319.776	-18.77
319.99	-10.58
320.203	50.86
320.417	26.28
320.63	22.19
320.843	136.87
321.057	65.19
321.27	-22.87
321.483	63.15
321.697	130.73
321.91	42.67
322.124	-2.39
322.337	38.57
322.55	-4.44
322.763	34.47
322.977	-55.64
323.19	-63.83
323.403	22.19
323.617	18.09
323.83	54.95
324.043	48.81
324.256	110.25
324.469	-104.79
324.683	106.15
324.896	65.19
325.109	-33.11
325.322	-82.26
325.535	59.05
325.748	91.82
325.962	54.95
326.175	50.86
326.388	75.43
326.601	67.24
326.814	-94.55
327.027	40.62
327.24	149.16
327.453	-139.6
327.666	-22.87
327.879	104.11
328.092	61.1
328.305	-41.3
328.518	3.75
328.731	71.34
328.944	-47.44
329.157	114.34
329.37	-59.73
329.583	83.63
329.796	130.73
330.009	-29.01
330.222	59.05
330.435	57
330.648	11.95
330.861	3.75
331.073	83.63
331.286	38.57
331.499	44.71
331.712	-26.96
331.925	-31.06
332.138	104.11
332.35	163.5
332.563	46.76
332.776	65.19
332.989	20.14
333.202	42.67
333.414	42.67
333.627	-4.44
333.84	-0.34
334.053	81.58
334.265	-31.06
334.478	-29.01
334.691	-24.92
334.903	61.1
335.116	-31.06
335.329	3.75
335.541	100.01
335.754	169.64
335.966	48.81
336.179	-8.53
336.392	32.43
336.604	1.71
336.817	128.68
337.029	-6.49
337.242	-51.54
337.454	79.53
337.667	16.04
337.88	46.76
338.092	81.58
338.305	83.63
338.517	-33.11
338.729	50.86
338.942	63.15
339.154	7.85
339.367	-74.07
339.579	36.52
339.792	-22.87
340.004	77.48
340.217	11.95
340.429	79.53
340.641	-43.35
340.854	-45.4
341.066	63.15
341.278	122.54
341.491	157.35
341.703	-2.39
341.915	-0.34
342.128	167.59
342.34	63.15
342.552	-18.77
342.764	-33.11
342.977	-16.73
343.189	77.48
343.401	46.76
343.613	-69.97
343.826	57
344.038	-49.49
344.25	71.34
344.462	-47.44
344.674	46.76
344.886	-33.11
345.099	63.15
345.311	-4.44
345.523	52.91
345.735	-168.27
345.947	-4.44
346.159	-53.59
346.371	1.71
346.583	-8.53
346.795	165.54
347.007	-51.54
347.219	120.49
347.431	59.05
347.643	79.53
347.855	-0.34
348.067	140.97
348.279	-51.54
348.491	114.34
348.703	9.9
348.915	-6.49
349.127	-4.44
349.339	-0.34
349.551	5.8
349.763	126.63
349.975	40.62
350.187	63.15
350.399	143.02
350.61	24.23
350.822	36.52
351.034	-20.82
351.246	-6.49
351.458	79.53
351.669	104.11
351.881	71.34
352.093	40.62
352.305	89.77
352.517	5.8
352.728	44.71
352.94	61.1
353.152	128.68
353.363	-41.3
353.575	-10.58
353.787	194.22
353.999	83.63
354.21	100.01
354.422	-41.3
354.633	59.05
354.845	5.8
355.057	79.53
355.268	11.95
355.48	-2.39
355.692	-84.31
355.903	42.67
356.115	-31.06
356.326	-88.4
356.538	167.59
356.749	116.39
356.961	183.98
357.172	20.14
357.384	26.28
357.595	218.79
357.807	16.04
358.018	34.47
358.23	63.15
358.441	186.02
358.653	91.82
358.864	18.09
359.075	-18.77
359.287	7.85
359.498	85.67
359.709	42.67
359.921	-18.77
360.132	67.24
360.344	18.09
360.555	-61.78
360.766	38.57
360.977	18.09
361.189	79.53
361.4	3.75
361.611	48.81
361.823	46.76
362.034	48.81
362.245	5.8
362.456	42.67
362.667	100.01
362.879	-6.49
363.09	77.48
363.301	50.86
363.512	52.91
363.723	-39.25
363.935	65.19
364.146	79.53
364.357	1.71
364.568	38.57
364.779	-80.21
364.99	126.63
365.201	-47.44
365.412	48.81
365.623	-92.5
365.834	77.48
366.045	54.95
366.256	32.43
366.467	18.09
366.678	-12.63
366.889	11.95
367.1	-49.49
367.311	73.39
367.522	-55.64
367.733	48.81
367.944	104.11
368.155	-76.12
368.366	79.53
368.577	116.39
368.788	48.81
368.999	-0.34
369.209	5.8
369.42	177.83
369.631	247.46
369.842	46.76
370.053	-41.3
370.264	67.24
370.474	26.28
370.685	95.91
370.896	-45.4
371.107	188.07
371.317	5.8
371.528	63.15
371.739	89.77
371.95	71.34
372.16	91.82
372.371	-121.17
372.582	16.04
372.792	71.34
373.003	63.15
373.214	57
373.424	42.67
373.635	-8.53
373.846	122.54
374.056	-26.96
374.267	36.52
374.477	89.77
374.688	-86.36
374.898	65.19
375.109	-10.58
375.319	5.8
375.53	143.02
375.74	59.05
375.951	28.33
376.161	-14.68
376.372	44.71
376.582	18.09
376.793	95.91
377.003	-45.4
377.214	-37.2
377.424	67.24
377.635	-12.63
377.845	-65.88
378.055	143.02
378.266	-37.2
378.476	36.52
378.686	89.77
378.897	52.91
379.107	61.1
379.317	85.67
379.528	-31.06
379.738	32.43
379.948	-92.5
380.158	77.48
380.369	-43.35
380.579	81.58
380.789	-2.39
380.999	97.96
381.21	95.91
381.42	108.2
381.63	-2.39
381.84	104.11
382.05	100.01
382.261	-16.73
382.471	143.02
382.681	-41.3
382.891	100.01
383.101	9.9
383.311	-39.25
383.521	3.75
383.731	54.95
383.941	24.23
384.151	65.19
384.361	57
384.571	32.43
384.781	-4.44
384.991	165.54
385.201	104.11
385.411	73.39
385.621	61.1
385.831	67.24
386.041	16.04
386.251	71.34
386.461	52.91
386.671	28.33
386.881	-12.63
387.091	-51.54
387.301	89.77
387.511	7.85
387.72	104.11
387.93	87.72
388.14	-39.25
388.35	-22.87
388.56	102.06
388.769	-4.44
388.979	75.43
389.189	-4.44
389.399	22.19
389.609	24.23
389.818	63.15
390.028	67.24
390.238	67.24
390.447	-88.4
390.657	-10.58
390.867	-0.34
391.076	-59.73
391.286	46.76
391.496	-53.59
391.705	-20.82
391.915	52.91
392.125	140.97
392.334	87.72
392.544	179.88
392.753	79.53
392.963	-108.88
393.172	87.72
393.382	-37.2
393.591	95.91
393.801	-47.44
394.01	114.34
394.22	93.87
394.429	-4.44
394.639	5.8
394.848	54.95
395.058	48.81
395.267	44.71
395.477	169.64
395.686	40.62
395.895	235.18
396.105	175.78
396.314	120.49
396.524	30.38
396.733	1.71
396.942	79.53
397.152	75.43
397.361	116.39
397.57	93.87
397.78	93.87
397.989	140.97
398.198	132.78
398.407	73.39
398.617	30.38
398.826	38.57
399.035	38.57
399.244	59.05
399.453	40.62
399.663	-12.63
399.872	40.62
400.081	-119.12
400.29	145.06
400.499	7.85
400.708	128.68
400.917	95.91
401.127	24.23
401.336	18.09
401.545	161.45
401.754	40.62
401.963	104.11
402.172	16.04
402.381	-96.6
402.59	-35.16
402.799	36.52
403.008	89.77
403.217	16.04
403.426	11.95
403.635	-72.02
403.844	-12.63
404.053	22.19
404.262	22.19
404.471	190.12
404.68	-2.39
404.888	54.95
405.097	65.19
405.306	40.62
405.515	87.72
405.724	42.67
405.933	79.53
406.142	38.57
406.35	108.2
406.559	59.05
406.768	93.87
406.977	173.74
407.185	22.19
407.394	79.53
407.603	-67.92
407.812	77.48
408.02	145.06
408.229	48.81
408.438	61.1
408.646	-67.92
408.855	-39.25
409.064	63.15
409.272	65.19
409.481	130.73
409.69	-8.53
409.898	-39.25
410.107	-37.2
410.315	118.44
410.524	48.81
410.733	83.63
410.941	40.62
411.15	110.25
411.358	116.39
411.567	165.54
411.775	7.85
411.984	81.58
412.192	151.21
412.401	-14.68
412.609	169.64
412.818	120.49
413.026	61.1
413.234	50.86
413.443	28.33
413.651	-43.35
413.86	1.71
414.068	59.05
414.276	112.3
414.485	7.85
414.693	128.68
414.901	151.21
415.11	93.87
415.318	26.28
415.526	32.43
415.734	102.06
415.943	9.9
416.151	153.26
416.359	69.29
416.567	46.76
416.776	93.87
416.984	173.74
417.192	147.11
417.4	-61.78
417.608	13.99
417.817	36.52
418.025	130.73
418.233	87.72
418.441	-24.92
418.649	-12.63
418.857	110.25
419.065	149.16
419.273	1.71
419.481	11.95
419.689	48.81
419.897	-0.34
420.105	-41.3
420.313	97.96
420.521	136.87
420.729	216.74
420.937	-88.4
421.145	-2.39
421.353	95.91
421.561	122.54
421.769	61.1
421.977	-24.92
422.185	22.19
422.393	50.86
422.601	149.16
422.809	24.23
423.017	65.19
423.224	54.95
423.432	77.48
423.64	116.39
423.848	126.63
424.056	5.8
424.263	147.11
424.471	18.09
424.679	134.82
424.887	-55.64
425.094	48.81
425.302	108.2
425.51	59.05
425.718	104.11
425.925	114.34
426.133	-2.39
426.341	149.16
426.548	52.91
426.756	-0.34
426.964	126.63
427.171	81.58
427.379	85.67
427.586	34.47
427.794	145.06
428.001	124.58
428.209	112.3
428.417	112.3
428.624	112.3
428.832	149.16
429.039	89.77
429.247	106.15
429.454	63.15
429.662	132.78
429.869	65.19
430.076	85.67
430.284	102.06
430.491	212.65
430.699	50.86
430.906	181.93
431.114	120.49
431.321	138.92
431.528	75.43
431.736	155.3
431.943	145.06
432.15	188.07
432.358	114.34
432.565	212.65
432.772	11.95
432.979	136.87
433.187	61.1
433.394	149.16
433.601	130.73
433.808	233.13
434.016	196.26
434.223	208.55
434.43	163.5
434.637	192.17
434.844	247.46
435.052	169.64
435.259	188.07
435.466	212.65
435.673	231.08
435.88	272.04
436.087	284.33
436.294	337.57
436.501	335.53
436.708	194.22
436.915	272.04
437.122	333.48
437.329	169.64
437.537	274.09
437.743	360.1
437.95	366.25
438.157	427.68
438.364	411.3
438.571	356.01
438.778	298.66
438.985	413.35
439.192	401.06
439.399	446.12
439.606	423.59
439.813	536.23
440.02	540.32
440.227	687.78
440.433	511.65
440.64	439.97
440.847	425.64
441.054	487.08
441.261	700.06
441.467	556.71
441.674	509.6
441.881	607.91
442.088	597.67
442.294	743.07
442.501	738.98
442.708	757.41
442.914	677.54
443.121	831.13
443.328	714.4
443.534	945.82
443.741	855.71
443.948	751.26
444.154	935.58
444.361	1087.13
444.568	954.01
444.774	908.96
444.981	970.4
445.187	1142.43
445.394	1085.08
445.6	990.88
445.807	1275.54
446.013	1195.67
446.22	1212.06
446.426	1470.1
446.633	1308.31
446.839	1572.5
447.046	1308.31
447.252	1547.92
447.459	1592.98
447.665	1611.41
447.871	1775.25
448.078	1891.98
448.284	1789.58
448.491	1957.52
448.697	1980.04
448.903	2041.48
449.11	2059.92
449.316	2061.96
449.522	2358.92
449.728	2336.39
449.935	2485.89
450.141	2442.89
450.347	2557.57
450.553	2504.32
450.76	2621.06
450.966	2801.28
451.172	2932.35
451.378	2973.31
451.584	3077.76
451.791	3204.73
451.997	3464.82
452.203	3440.25
452.409	3511.93
452.615	3634.8
452.821	3659.38
453.027	3798.64
453.233	4146.8
453.44	3956.33
453.646	4300.39
453.852	4478.57
454.058	4494.95
454.264	4777.57
454.47	5006.94
454.676	4986.46
454.882	5529.17
455.088	5387.86
455.294	5572.18
455.5	5992.02
455.705	6340.17
455.911	6303.31
456.117	6575.69
456.323	6719.04
456.529	6620.74
456.735	7364.15
456.941	7573.05
457.147	8042.03
457.352	8101.42
457.558	8304.17
457.764	8912.42
457.97	9076.26
458.176	9360.92
458.381	9872.92
458.587	9991.7
458.793	10735.11
458.999	10438.16
459.204	11736.57
459.41	12340.72
459.616	11904.5
459.821	12733.93
460.027	13340.13
460.233	14083.54
460.438	14194.13
460.644	14654.92
460.85	14896.58
461.055	15584.7
461.261	16149.94
461.466	15934.9
461.672	16289.2
461.878	18288.02
462.083	18027.93
462.289	18343.31
462.494	19262.85
462.7	19314.05
462.905	19656.06
463.111	21294.44
463.316	22084.95
463.522	22279.51
463.727	23362.89
463.932	24304.95
464.138	24968.49
464.343	26041.63
464.549	26184.99
464.754	28151.04
464.959	28992.75
465.165	29240.56
465.37	29369.58
465.575	28931.31
465.781	30950.61
465.986	32029.89
466.191	31182.03
466.397	31784.13
466.602	30762.2
466.807	32971.96
467.012	33197.23
467.218	33721.51
467.423	34235.55
467.628	35400.85
467.833	36600.96
468.038	36039.81
468.244	35599.5
468.449	37174.39
468.654	36412.54
468.859	35929.22
