Data from USB4F104151__247__11-19-58-036.txt Node

Date: Wed Feb 26 11:19:58 EST 2025
User: louis
Spectrometer: USB4F10415
Trigger mode: 4
Integration Time (sec): 1.000000E-1
Scans to average: 1
Electric dark correction enabled: true
Nonlinearity correction enabled: false
Boxcar width: 0
XAxis mode: Wavelengths
Number of Pixels in Spectrum: 3648
>>>>>Begin Spectral Data<<<<<
178.204	-488.44
178.424	-488.44
178.644	-488.44
178.864	-343.03
179.084	-365.56
179.304	-19.46
179.524	11.26
179.744	44.03
179.964	48.13
180.184	31.74
180.404	58.37
180.624	-48.13
180.844	-15.36
181.064	-70.65
181.283	-13.31
181.503	-48.13
181.723	21.5
181.943	-29.7
182.163	246.78
182.383	-19.46
182.602	9.22
182.822	150.53
183.042	93.18
183.262	-54.27
183.482	17.41
183.701	99.33
183.921	9.22
184.141	-50.18
184.361	80.89
184.58	58.37
184.8	97.28
185.02	31.74
185.239	128
185.459	87.04
185.679	19.46
185.898	-37.89
186.118	64.51
186.338	39.94
186.557	144.38
186.777	-60.42
186.997	-41.98
187.216	25.6
187.436	216.06
187.655	74.75
187.875	7.17
188.095	3.07
188.314	156.67
188.534	33.79
188.753	-19.46
188.973	117.76
189.192	160.77
189.412	52.22
189.631	29.7
189.851	64.51
190.07	140.29
190.29	-54.27
190.509	-35.84
190.729	39.94
190.948	154.62
191.168	224.25
191.387	-1.02
191.607	11.26
191.826	68.61
192.045	27.65
192.265	27.65
192.484	7.17
192.704	-17.41
192.923	-31.74
193.142	171.01
193.362	173.05
193.581	125.95
193.8	44.03
194.02	15.36
194.239	37.89
194.458	140.29
194.678	-19.46
194.897	-3.07
195.116	37.89
195.335	46.08
195.555	23.55
195.774	-33.79
195.993	70.65
196.212	-31.74
196.432	-39.94
196.651	-35.84
196.87	29.7
197.089	238.59
197.308	54.27
197.528	70.65
197.747	-33.79
197.966	29.7
198.185	117.76
198.404	25.6
198.623	25.6
198.842	123.9
199.062	105.47
199.281	31.74
199.5	52.22
199.719	9.22
199.938	7.17
200.157	80.89
200.376	168.96
200.595	130.05
200.814	-19.46
201.033	-54.27
201.252	166.91
201.471	66.56
201.69	5.12
201.909	21.5
202.128	168.96
202.347	70.65
202.566	13.31
202.785	19.46
203.004	-11.26
203.223	285.69
203.442	46.08
203.661	-132.09
203.879	152.57
204.098	162.81
204.317	-31.74
204.536	119.81
204.755	54.27
204.974	89.09
205.193	-5.12
205.411	166.91
205.63	109.57
205.849	72.7
206.068	-25.6
206.287	50.18
206.505	134.14
206.724	-9.22
206.943	-78.85
207.162	23.55
207.381	56.32
207.599	62.46
207.818	58.37
208.037	-58.37
208.255	44.03
208.474	29.7
208.693	37.89
208.911	68.61
209.13	115.71
209.349	44.03
209.567	60.42
209.786	84.99
210.005	160.77
210.223	15.36
210.442	-37.89
210.661	39.94
210.879	123.9
211.098	7.17
211.316	37.89
211.535	130.05
211.753	31.74
211.972	103.42
212.191	-66.56
212.409	-23.55
212.628	78.85
212.846	-44.03
213.065	23.55
213.283	183.29
213.502	58.37
213.72	-60.42
213.938	62.46
214.157	-23.55
214.375	29.7
214.594	-11.26
214.812	66.56
215.031	5.12
215.249	21.5
215.467	33.79
215.686	17.41
215.904	50.18
216.122	29.7
216.341	222.2
216.559	60.42
216.778	115.71
216.996	171.01
217.214	70.65
217.432	-41.98
217.651	-56.32
217.869	68.61
218.087	48.13
218.306	5.12
218.524	82.94
218.742	64.51
218.96	82.94
219.179	-54.27
219.397	19.46
219.615	209.92
219.833	113.66
220.051	-31.74
220.27	21.5
220.488	117.76
220.706	25.6
220.924	-52.22
221.142	11.26
221.36	-27.65
221.578	37.89
221.796	37.89
222.015	60.42
222.233	27.65
222.451	218.11
222.669	-41.98
222.887	101.37
223.105	-33.79
223.323	21.5
223.541	-31.74
223.759	82.94
223.977	13.31
224.195	154.62
224.413	82.94
224.631	103.42
224.849	11.26
225.067	224.25
225.285	-74.75
225.503	-1.02
225.721	-19.46
225.939	142.33
226.157	-33.79
226.375	211.96
226.592	29.7
226.81	58.37
227.028	99.33
227.246	189.44
227.464	80.89
227.682	48.13
227.9	84.99
228.117	82.94
228.335	62.46
228.553	84.99
228.771	-11.26
228.989	-54.27
229.206	48.13
229.424	-54.27
229.642	-66.56
229.86	1.02
230.077	144.38
230.295	52.22
230.513	99.33
230.731	125.95
230.948	97.28
231.166	156.67
231.384	37.89
231.601	-56.32
231.819	226.3
232.037	-23.55
232.254	3.07
232.472	41.98
232.689	-33.79
232.907	136.19
233.125	33.79
233.342	-15.36
233.56	-27.65
233.777	3.07
233.995	103.42
234.213	158.72
234.43	50.18
234.648	7.17
234.865	1.02
235.083	27.65
235.3	37.89
235.518	93.18
235.735	111.61
235.953	189.44
236.17	87.04
236.388	11.26
236.605	-19.46
236.822	140.29
237.04	156.67
237.257	27.65
237.475	19.46
237.692	13.31
237.909	101.37
238.127	-35.84
238.344	121.85
238.562	46.08
238.779	-54.27
238.996	-39.94
239.214	39.94
239.431	-15.36
239.648	44.03
239.865	35.84
240.083	48.13
240.3	50.18
240.517	-1.02
240.735	105.47
240.952	84.99
241.169	93.18
241.386	52.22
241.603	33.79
241.821	-87.04
242.038	109.57
242.255	31.74
242.472	-11.26
242.689	146.43
242.907	78.85
243.124	35.84
243.341	66.56
243.558	-27.65
243.775	-93.18
243.992	-82.94
244.209	62.46
244.426	179.2
244.643	89.09
244.86	39.94
245.078	134.14
245.295	111.61
245.512	-7.17
245.729	3.07
245.946	-15.36
246.163	37.89
246.38	-48.13
246.597	50.18
246.814	62.46
247.031	68.61
247.248	48.13
247.464	136.19
247.681	87.04
247.898	109.57
248.115	136.19
248.332	-7.17
248.549	87.04
248.766	160.77
248.983	29.7
249.2	119.81
249.417	13.31
249.633	23.55
249.85	121.85
250.067	-3.07
250.284	44.03
250.501	13.31
250.717	64.51
250.934	-7.17
251.151	-17.41
251.368	50.18
251.585	35.84
251.801	87.04
252.018	-84.99
252.235	78.85
252.451	-50.18
252.668	-1.02
252.885	125.95
253.102	54.27
253.318	39.94
253.535	-5.12
253.752	-15.36
253.968	41.98
254.185	-62.46
254.401	-11.26
254.618	44.03
254.835	-7.17
255.051	123.9
255.268	136.19
255.484	41.98
255.701	82.94
255.917	48.13
256.134	23.55
256.351	50.18
256.567	-33.79
256.784	58.37
257	-80.89
257.217	50.18
257.433	70.65
257.65	138.24
257.866	91.13
258.082	-19.46
258.299	-39.94
258.515	13.31
258.732	3.07
258.948	-52.22
259.165	27.65
259.381	-25.6
259.597	17.41
259.814	-66.56
260.03	56.32
260.246	-52.22
260.463	29.7
260.679	171.01
260.895	23.55
261.112	60.42
261.328	-7.17
261.544	-66.56
261.761	150.53
261.977	54.27
262.193	-21.5
262.409	46.08
262.626	103.42
262.842	58.37
263.058	27.65
263.274	66.56
263.49	58.37
263.707	128
263.923	37.89
264.139	-78.85
264.355	29.7
264.571	62.46
264.787	-11.26
265.004	164.86
265.22	66.56
265.436	-15.36
265.652	62.46
265.868	80.89
266.084	1.02
266.3	56.32
266.516	-121.85
266.732	50.18
266.948	41.98
267.164	23.55
267.38	80.89
267.596	25.6
267.812	164.86
268.028	25.6
268.244	7.17
268.46	23.55
268.676	-62.46
268.892	9.22
269.108	-95.23
269.324	-62.46
269.54	-68.61
269.756	31.74
269.972	44.03
270.188	-15.36
270.403	31.74
270.619	-35.84
270.835	33.79
271.051	50.18
271.267	-46.08
271.483	-13.31
271.698	140.29
271.914	46.08
272.13	-5.12
272.346	-56.32
272.562	44.03
272.777	125.95
272.993	-37.89
273.209	31.74
273.425	74.75
273.64	-117.76
273.856	136.19
274.072	-48.13
274.287	13.31
274.503	101.37
274.719	64.51
274.934	-29.7
275.15	-119.81
275.366	17.41
275.581	-82.94
275.797	56.32
276.012	101.37
276.228	56.32
276.444	17.41
276.659	142.33
276.875	7.17
277.09	-37.89
277.306	70.65
277.521	29.7
277.737	48.13
277.952	-3.07
278.168	-9.22
278.383	58.37
278.599	48.13
278.814	103.42
279.03	15.36
279.245	136.19
279.461	58.37
279.676	37.89
279.892	-60.42
280.107	-68.61
280.322	-44.03
280.538	82.94
280.753	-74.75
280.969	101.37
281.184	74.75
281.399	226.3
281.615	52.22
281.83	158.72
282.045	9.22
282.26	-39.94
282.476	27.65
282.691	97.28
282.906	39.94
283.122	-21.5
283.337	3.07
283.552	-3.07
283.767	97.28
283.983	125.95
284.198	-41.98
284.413	31.74
284.628	-76.8
284.843	46.08
285.058	78.85
285.274	39.94
285.489	-9.22
285.704	41.98
285.919	-23.55
286.134	107.52
286.349	23.55
286.564	60.42
286.779	150.53
286.995	-9.22
287.21	-29.7
287.425	115.71
287.64	5.12
287.855	99.33
288.07	-66.56
288.285	70.65
288.5	101.37
288.715	64.51
288.93	25.6
289.145	25.6
289.36	136.19
289.575	1.02
289.79	117.76
290.004	33.79
290.219	91.13
290.434	-46.08
290.649	-33.79
290.864	-68.61
291.079	50.18
291.294	62.46
291.509	93.18
291.724	19.46
291.938	66.56
292.153	93.18
292.368	41.98
292.583	17.41
292.798	103.42
293.012	74.75
293.227	25.6
293.442	-76.8
293.657	56.32
293.871	128
294.086	31.74
294.301	171.01
294.516	74.75
294.73	35.84
294.945	46.08
295.16	33.79
295.374	115.71
295.589	48.13
295.804	-62.46
296.018	76.8
296.233	123.9
296.447	41.98
296.662	25.6
296.877	56.32
297.091	62.46
297.306	27.65
297.52	-19.46
297.735	91.13
297.949	44.03
298.164	35.84
298.378	19.46
298.593	-3.07
298.807	-5.12
299.022	101.37
299.236	138.24
299.451	19.46
299.665	13.31
299.88	97.28
300.094	35.84
300.309	130.05
300.523	-1.02
300.737	-93.18
300.952	103.42
301.166	95.23
301.381	39.94
301.595	-17.41
301.809	25.6
302.024	17.41
302.238	13.31
302.452	101.37
302.667	68.61
302.881	80.89
303.095	117.76
303.309	62.46
303.524	-13.31
303.738	37.89
303.952	-41.98
304.166	68.61
304.381	-132.09
304.595	70.65
304.809	-25.6
305.023	93.18
305.237	23.55
305.452	35.84
305.666	99.33
305.88	48.13
306.094	123.9
306.308	76.8
306.522	138.24
306.736	27.65
306.95	50.18
307.164	-3.07
307.379	-35.84
307.593	80.89
307.807	142.33
308.021	119.81
308.235	68.61
308.449	-80.89
308.663	58.37
308.877	261.12
309.091	95.23
309.305	64.51
309.519	-105.47
309.733	84.99
309.947	-39.94
310.161	23.55
310.374	168.96
310.588	111.61
310.802	-7.17
311.016	3.07
311.23	46.08
311.444	-15.36
311.658	56.32
311.872	121.85
312.085	142.33
312.299	171.01
312.513	160.77
312.727	78.85
312.941	9.22
313.154	-7.17
313.368	29.7
313.582	19.46
313.796	95.23
314.009	64.51
314.223	123.9
314.437	68.61
314.651	107.52
314.864	-19.46
315.078	72.7
315.292	-64.51
315.505	-25.6
315.719	101.37
315.933	-72.7
316.146	-9.22
316.36	-1.02
316.573	136.19
316.787	191.49
317.001	70.65
317.214	-84.99
317.428	80.89
317.641	-27.65
317.855	-1.02
318.068	27.65
318.282	25.6
318.495	187.39
318.709	95.23
318.922	-13.31
319.136	82.94
319.349	173.05
319.563	68.61
319.776	173.05
319.99	-11.26
320.203	125.95
320.417	60.42
320.63	109.57
320.843	150.53
321.057	27.65
321.27	37.89
321.483	-11.26
321.697	171.01
321.91	44.03
322.124	58.37
322.337	68.61
322.55	-80.89
322.763	68.61
322.977	29.7
323.19	5.12
323.403	21.5
323.617	89.09
323.83	125.95
324.043	52.22
324.256	44.03
324.469	-89.09
324.683	150.53
324.896	11.26
325.109	58.37
325.322	3.07
325.535	130.05
325.748	72.7
325.962	19.46
326.175	-21.5
326.388	64.51
326.601	162.81
326.814	-9.22
327.027	58.37
327.24	166.91
327.453	-123.9
327.666	50.18
327.879	154.62
328.092	91.13
328.305	33.79
328.518	-41.98
328.731	-56.32
328.944	17.41
329.157	89.09
329.37	78.85
329.583	197.63
329.796	183.29
330.009	-11.26
330.222	50.18
330.435	134.14
330.648	48.13
330.861	-7.17
331.073	56.32
331.286	82.94
331.499	-19.46
331.712	46.08
331.925	7.17
332.138	60.42
332.35	70.65
332.563	-13.31
332.776	99.33
332.989	31.74
333.202	-19.46
333.414	74.75
333.627	72.7
333.84	-23.55
334.053	-27.65
334.265	-50.18
334.478	-3.07
334.691	-23.55
334.903	91.13
335.116	3.07
335.329	-23.55
335.541	101.37
335.754	156.67
335.966	-64.51
336.179	115.71
336.392	-3.07
336.604	23.55
336.817	142.33
337.029	148.48
337.242	39.94
337.454	50.18
337.667	37.89
337.88	136.19
338.092	25.6
338.305	13.31
338.517	-11.26
338.729	60.42
338.942	136.19
339.154	-78.85
339.367	-84.99
339.579	78.85
339.792	-41.98
340.004	111.61
340.217	33.79
340.429	62.46
340.641	-103.42
340.854	-50.18
341.066	-50.18
341.278	80.89
341.491	218.11
341.703	111.61
341.915	-27.65
342.128	44.03
342.34	56.32
342.552	-58.37
342.764	87.04
342.977	-17.41
343.189	72.7
343.401	1.02
343.613	-80.89
343.826	31.74
344.038	-29.7
344.25	35.84
344.462	-23.55
344.674	17.41
344.886	74.75
345.099	84.99
345.311	60.42
345.523	17.41
345.735	-76.8
345.947	3.07
346.159	-25.6
346.371	-7.17
346.583	5.12
346.795	246.78
347.007	82.94
347.219	-5.12
347.431	-9.22
347.643	193.53
347.855	27.65
348.067	179.2
348.279	-29.7
348.491	-13.31
348.703	35.84
348.915	21.5
349.127	66.56
349.339	87.04
349.551	25.6
349.763	140.29
349.975	-35.84
350.187	91.13
350.399	177.15
350.61	82.94
350.822	-78.85
351.034	68.61
351.246	91.13
351.458	60.42
351.669	142.33
351.881	76.8
352.093	132.09
352.305	93.18
352.517	29.7
352.728	156.67
352.94	31.74
353.152	62.46
353.363	-27.65
353.575	50.18
353.787	228.35
353.999	74.75
354.21	140.29
354.422	-74.75
354.633	-27.65
354.845	13.31
355.057	91.13
355.268	37.89
355.48	56.32
355.692	-54.27
355.903	41.98
356.115	46.08
356.326	-93.18
356.538	209.92
356.749	111.61
356.961	162.81
357.172	31.74
357.384	-7.17
357.595	197.63
357.807	68.61
358.018	-103.42
358.23	17.41
358.441	173.05
358.653	27.65
358.864	82.94
359.075	44.03
359.287	107.52
359.498	99.33
359.709	66.56
359.921	62.46
360.132	119.81
360.344	-3.07
360.555	-44.03
360.766	91.13
360.977	-33.79
361.189	109.57
361.4	35.84
361.611	152.57
361.823	179.2
362.034	-11.26
362.245	-17.41
362.456	21.5
362.667	66.56
362.879	1.02
363.09	134.14
363.301	56.32
363.512	52.22
363.723	1.02
363.935	29.7
364.146	56.32
364.357	-46.08
364.568	76.8
364.779	-13.31
364.99	70.65
365.201	-9.22
365.412	130.05
365.623	-27.65
365.834	33.79
366.045	93.18
366.256	76.8
366.467	70.65
366.678	19.46
366.889	111.61
367.1	37.89
367.311	152.57
367.522	-7.17
367.733	56.32
367.944	60.42
368.155	-39.94
368.366	68.61
368.577	101.37
368.788	70.65
368.999	72.7
369.209	-39.94
369.42	189.44
369.631	209.92
369.842	109.57
370.053	-31.74
370.264	119.81
370.474	-60.42
370.685	5.12
370.896	111.61
371.107	168.96
371.317	66.56
371.528	48.13
371.739	154.62
371.95	23.55
372.16	54.27
372.371	-21.5
372.582	9.22
372.792	19.46
373.003	72.7
373.214	52.22
373.424	134.14
373.635	-17.41
373.846	162.81
374.056	-11.26
374.267	41.98
374.477	113.66
374.688	17.41
374.898	76.8
375.109	-25.6
375.319	41.98
375.53	78.85
375.74	9.22
375.951	-37.89
376.161	60.42
376.372	125.95
376.582	60.42
376.793	154.62
377.003	13.31
377.214	23.55
377.424	37.89
377.635	60.42
377.845	11.26
378.055	89.09
378.266	-27.65
378.476	99.33
378.686	109.57
378.897	35.84
379.107	56.32
379.317	134.14
379.528	-11.26
379.738	121.85
379.948	-33.79
380.158	70.65
380.369	23.55
380.579	103.42
380.789	50.18
380.999	121.85
381.21	56.32
381.42	173.05
381.63	41.98
381.84	91.13
382.05	74.75
382.261	101.37
382.471	189.44
382.681	-27.65
382.891	121.85
383.101	46.08
383.311	-58.37
383.521	-5.12
383.731	80.89
383.941	101.37
384.151	107.52
384.361	-78.85
384.571	46.08
384.781	107.52
384.991	173.05
385.201	144.38
385.411	-1.02
385.621	27.65
385.831	68.61
386.041	150.53
386.251	21.5
386.461	130.05
386.671	48.13
386.881	3.07
387.091	-7.17
387.301	144.38
387.511	50.18
387.72	87.04
387.93	97.28
388.14	-17.41
388.35	46.08
388.56	72.7
388.769	74.75
388.979	31.74
389.189	-35.84
389.399	48.13
389.609	84.99
389.818	25.6
390.028	78.85
390.238	74.75
390.447	-31.74
390.657	58.37
390.867	-21.5
391.076	-68.61
391.286	5.12
391.496	1.02
391.705	70.65
391.915	144.38
392.125	93.18
392.334	84.99
392.544	130.05
392.753	97.28
392.963	-93.18
393.172	37.89
393.382	25.6
393.591	115.71
393.801	35.84
394.01	103.42
394.22	80.89
394.429	9.22
394.639	11.26
394.848	107.52
395.058	-13.31
395.267	15.36
395.477	115.71
395.686	37.89
395.895	197.63
396.105	193.53
396.314	99.33
396.524	21.5
396.733	7.17
396.942	107.52
397.152	105.47
397.361	121.85
397.57	68.61
397.78	56.32
397.989	105.47
398.198	70.65
398.407	37.89
398.617	35.84
398.826	33.79
399.035	9.22
399.244	158.72
399.453	74.75
399.663	31.74
399.872	109.57
400.081	-54.27
400.29	97.28
400.499	31.74
400.708	89.09
400.917	-78.85
401.127	-3.07
401.336	11.26
401.545	218.11
401.754	105.47
401.963	113.66
402.172	41.98
402.381	-35.84
402.59	13.31
402.799	25.6
403.008	105.47
403.217	93.18
403.426	54.27
403.635	-9.22
403.844	60.42
404.053	29.7
404.262	44.03
404.471	150.53
404.68	123.9
404.888	-17.41
405.097	60.42
405.306	99.33
405.515	76.8
405.724	109.57
405.933	15.36
406.142	72.7
406.35	119.81
406.559	7.17
406.768	56.32
406.977	125.95
407.185	93.18
407.394	99.33
407.603	-9.22
407.812	1.02
408.02	158.72
408.229	134.14
408.438	17.41
408.646	-87.04
408.855	11.26
409.064	46.08
409.272	17.41
409.481	97.28
409.69	13.31
409.898	-23.55
410.107	113.66
410.315	19.46
410.524	21.5
410.733	136.19
410.941	54.27
411.15	-1.02
411.358	68.61
411.567	111.61
411.775	9.22
411.984	44.03
412.192	119.81
412.401	-9.22
412.609	195.58
412.818	164.86
413.026	105.47
413.234	15.36
413.443	33.79
413.651	-25.6
413.86	58.37
414.068	134.14
414.276	300.03
414.485	33.79
414.693	144.38
414.901	173.05
415.11	132.09
415.318	125.95
415.526	-1.02
415.734	115.71
415.943	60.42
416.151	128
416.359	52.22
416.567	119.81
416.776	123.9
416.984	84.99
417.192	152.57
417.4	13.31
417.608	39.94
417.817	-3.07
418.025	162.81
418.233	195.58
418.441	50.18
418.649	13.31
418.857	105.47
419.065	99.33
419.273	-3.07
419.481	78.85
419.689	-19.46
419.897	27.65
420.105	-33.79
420.313	187.39
420.521	179.2
420.729	111.61
420.937	-13.31
421.145	-7.17
421.353	99.33
421.561	154.62
421.769	54.27
421.977	23.55
422.185	56.32
422.393	33.79
422.601	140.29
422.809	56.32
423.017	23.55
423.224	128
423.432	107.52
423.64	-9.22
423.848	125.95
424.056	-23.55
424.263	72.7
424.471	54.27
424.679	107.52
424.887	-48.13
425.094	109.57
425.302	68.61
425.51	-37.89
425.718	99.33
425.925	87.04
426.133	-3.07
426.341	226.3
426.548	111.61
426.756	46.08
426.964	70.65
427.171	46.08
427.379	89.09
427.586	87.04
427.794	140.29
428.001	197.63
428.209	80.89
428.417	164.86
428.624	142.33
428.832	222.2
429.039	136.19
429.247	115.71
429.454	181.25
429.662	142.33
429.869	117.76
430.076	156.67
430.284	195.58
430.491	187.39
430.699	189.44
430.906	275.45
431.114	158.72
431.321	109.57
431.528	111.61
431.736	99.33
431.943	74.75
432.15	171.01
432.358	140.29
432.565	316.41
432.772	-15.36
432.979	228.35
433.187	89.09
433.394	216.06
433.601	146.43
433.808	314.36
434.016	218.11
434.223	320.51
434.43	277.5
434.637	158.72
434.844	271.36
435.052	275.45
435.259	281.6
435.466	304.12
435.673	281.6
435.88	302.08
436.087	353.27
436.294	375.8
436.501	363.51
436.708	236.54
436.915	248.83
437.122	383.99
437.329	283.64
437.537	412.67
437.743	302.08
437.95	377.85
438.157	324.6
438.364	318.46
438.571	412.67
438.778	369.66
438.985	521.21
439.192	492.54
439.399	379.9
439.606	465.91
439.813	549.88
440.02	674.81
440.227	658.42
440.433	603.13
440.64	576.5
440.847	529.4
441.054	627.7
441.261	803.83
441.467	623.61
441.674	676.85
441.881	691.19
442.088	668.66
442.294	814.07
442.501	799.73
442.708	769.01
442.914	793.59
443.121	883.7
443.328	908.27
443.534	1029.1
443.741	1012.72
443.948	859.12
444.154	988.14
444.361	1238
444.568	1012.72
444.774	1172.46
444.981	1004.53
445.187	1258.48
445.394	1197.04
445.6	1244.14
445.807	1426.41
446.013	1233.9
446.22	1418.22
446.426	1453.03
446.633	1483.75
446.839	1651.69
447.046	1582.06
447.252	1737.7
447.459	1674.21
447.665	1729.51
447.871	1942.5
448.078	1997.79
448.284	1952.74
448.491	2102.24
448.697	2196.45
448.903	2261.98
449.11	2348
449.316	2401.24
449.522	2487.26
449.728	2563.03
449.935	2647
450.141	2628.57
450.347	2962.39
450.553	2773.97
450.76	2900.95
450.966	3027.92
451.172	3185.62
451.378	3361.74
451.584	3271.63
451.791	3593.16
451.997	3625.93
452.203	3795.91
452.409	4010.95
452.615	3986.37
452.821	4039.62
453.027	4080.58
453.233	4656.06
453.44	4400.06
453.646	4690.87
453.852	4910.01
454.058	5139.38
454.264	5237.68
454.47	5569.45
454.676	5540.78
454.882	6122.4
455.088	5833.64
455.294	6112.16
455.5	6595.48
455.705	6693.79
455.911	6890.39
456.117	7039.89
456.323	7310.22
456.529	7459.73
456.735	7951.24
456.941	8360.83
457.147	8479.61
457.352	8823.67
457.558	8819.58
457.764	9468.78
457.97	9843.56
458.176	10107.75
458.381	10867.55
458.587	11023.19
458.793	11379.54
458.999	11404.11
459.204	12987.19
459.41	13286.2
459.616	13253.43
459.821	13828.91
460.027	14570.27
460.233	15129.37
460.438	15201.05
460.644	15966.99
460.85	16091.91
461.055	16724.74
461.261	17711.86
461.466	17421.05
461.672	17679.09
461.878	19624.66
462.083	19686.1
462.289	19921.62
462.494	20622.02
462.7	20767.43
462.905	21426.87
463.111	22747.81
463.316	24015.51
463.522	24412.81
463.727	25434.75
463.932	26131.06
464.138	26849.89
464.343	27896.41
464.549	28279.38
464.754	30278.19
464.959	31394.34
465.165	31568.41
465.37	31427.1
465.575	31552.03
465.781	33286.66
465.986	34712.05
466.191	34089.46
466.397	34101.75
466.602	33653.25
466.807	35637.73
467.012	36059.61
467.218	36696.53
467.423	36698.58
467.628	37788.1
467.833	39541.16
468.038	39025.07
468.244	38193.59
