Data from USB4F104151__129__10-46-25-056.txt Node

Date: Wed Feb 26 10:46:25 EST 2025
User: louis
Spectrometer: USB4F10415
Trigger mode: 4
Integration Time (sec): 1.000000E-1
Scans to average: 1
Electric dark correction enabled: true
Nonlinearity correction enabled: false
Boxcar width: 0
XAxis mode: Wavelengths
Number of Pixels in Spectrum: 3648
>>>>>Begin Spectral Data<<<<<
178.204	-422.05
178.424	-422.05
178.644	-422.05
178.864	-448.68
179.084	-397.48
179.304	5.97
179.524	20.31
179.744	12.12
179.964	57.17
180.184	22.36
180.404	36.69
180.624	-18.6
180.844	-47.27
181.064	-12.46
181.283	24.4
181.503	-110.76
181.723	10.07
181.943	-51.37
182.163	139.09
182.383	-16.55
182.602	38.74
182.822	155.47
183.042	149.33
183.262	-39.08
183.482	71.51
183.701	-24.75
183.921	110.42
184.141	-88.23
184.361	63.32
184.58	73.56
184.8	141.14
185.02	40.79
185.239	102.23
185.459	75.6
185.679	59.22
185.898	-41.13
186.118	94.04
186.338	128.85
186.557	126.8
186.777	-41.13
186.997	-34.99
187.216	89.94
187.436	257.87
187.655	55.12
187.875	151.38
188.095	32.6
188.314	143.19
188.534	124.76
188.753	10.07
188.973	48.98
189.192	128.85
189.412	12.12
189.631	-34.99
189.851	104.28
190.07	116.56
190.29	28.5
190.509	12.12
190.729	34.64
190.948	149.33
191.168	233.3
191.387	118.61
191.607	48.98
191.826	71.51
192.045	59.22
192.265	-22.7
192.484	128.85
192.704	51.03
192.923	-77.99
193.142	190.29
193.362	122.71
193.581	192.34
193.8	44.88
194.02	34.64
194.239	38.74
194.458	79.7
194.678	-30.89
194.897	-16.55
195.116	51.03
195.335	14.17
195.555	118.61
195.774	-2.22
195.993	98.13
196.212	36.69
196.432	8.02
196.651	-59.56
196.87	87.89
197.089	192.34
197.308	61.27
197.528	91.99
197.747	-59.56
197.966	73.56
198.185	126.8
198.404	-8.36
198.623	85.84
198.842	106.32
199.062	116.56
199.281	137.04
199.5	-55.47
199.719	46.93
199.938	85.84
200.157	122.71
200.376	51.03
200.595	188.24
200.814	77.65
201.033	57.17
201.252	137.04
201.471	38.74
201.69	83.8
201.909	87.89
202.128	106.32
202.347	132.95
202.566	26.45
202.785	-57.51
203.004	-30.89
203.223	245.59
203.442	22.36
203.661	-82.09
203.879	98.13
204.098	216.91
204.317	-34.99
204.536	106.32
204.755	139.09
204.974	79.7
205.193	26.45
205.411	32.6
205.63	79.7
205.849	69.46
206.068	36.69
206.287	-75.95
206.505	108.37
206.724	16.21
206.943	71.51
207.162	-10.41
207.381	87.89
207.599	-18.6
207.818	1.88
208.037	-57.51
208.255	20.31
208.474	89.94
208.693	36.69
208.911	26.45
209.13	132.95
209.349	51.03
209.567	122.71
209.786	143.19
210.005	83.8
210.223	65.36
210.442	-84.14
210.661	59.22
210.879	34.64
211.098	-6.31
211.316	51.03
211.535	94.04
211.753	83.8
211.972	116.56
212.191	-30.89
212.409	20.31
212.628	30.55
212.846	-24.75
213.065	46.93
213.283	102.23
213.502	73.56
213.72	135
213.938	-28.84
214.157	46.93
214.375	120.66
214.594	44.88
214.812	89.94
215.031	-61.61
215.249	20.31
215.467	128.85
215.686	77.65
215.904	126.8
216.122	51.03
216.341	94.04
216.559	87.89
216.778	112.47
216.996	188.24
217.214	26.45
217.432	48.98
217.651	-67.75
217.869	51.03
218.087	-8.36
218.306	28.5
218.524	61.27
218.742	69.46
218.96	75.6
219.179	65.36
219.397	-22.7
219.615	321.36
219.833	65.36
220.051	-10.41
220.27	147.28
220.488	143.19
220.706	65.36
220.924	-8.36
221.142	1.88
221.36	38.74
221.578	85.84
221.796	28.5
222.015	106.32
222.233	89.94
222.451	155.47
222.669	-12.46
222.887	55.12
223.105	1.88
223.323	46.93
223.541	28.5
223.759	14.17
223.977	55.12
224.195	137.04
224.413	18.26
224.631	69.46
224.849	57.17
225.067	128.85
225.285	112.47
225.503	-43.18
225.721	-77.99
225.939	8.02
226.157	30.55
226.375	245.59
226.592	-41.13
226.81	-39.08
227.028	59.22
227.246	89.94
227.464	61.27
227.682	118.61
227.9	102.23
228.117	51.03
228.335	89.94
228.553	61.27
228.771	87.89
228.989	57.17
229.206	94.04
229.424	51.03
229.642	-41.13
229.86	61.27
230.077	233.3
230.295	-2.22
230.513	55.12
230.731	40.79
230.948	180.05
231.166	178
231.384	22.36
231.601	12.12
231.819	171.86
232.037	-4.27
232.254	-49.32
232.472	1.88
232.689	55.12
232.907	206.67
233.125	57.17
233.342	71.51
233.56	-0.17
233.777	-10.41
233.995	-12.46
234.213	48.98
234.43	77.65
234.648	96.08
234.865	36.69
235.083	22.36
235.3	57.17
235.518	61.27
235.735	59.22
235.953	59.22
236.17	61.27
236.388	36.69
236.605	75.6
236.822	102.23
237.04	143.19
237.257	59.22
237.475	-24.75
237.692	79.7
237.909	-14.51
238.127	-0.17
238.344	24.4
238.562	102.23
238.779	-53.42
238.996	-10.41
239.214	116.56
239.431	116.56
239.648	-12.46
239.865	20.31
240.083	59.22
240.3	-28.84
240.517	-6.31
240.735	61.27
240.952	120.66
241.169	38.74
241.386	-10.41
241.603	18.26
241.821	-8.36
242.038	135
242.255	106.32
242.472	-43.18
242.689	71.51
242.907	59.22
243.124	20.31
243.341	-4.27
243.558	-49.32
243.775	-16.55
243.992	-63.66
244.209	71.51
244.426	104.28
244.643	108.37
244.86	-28.84
245.078	112.47
245.295	89.94
245.512	-45.23
245.729	-55.47
245.946	122.71
246.163	65.36
246.38	-10.41
246.597	85.84
246.814	79.7
247.031	65.36
247.248	-28.84
247.464	67.41
247.681	102.23
247.898	75.6
248.115	89.94
248.332	8.02
248.549	116.56
248.766	141.14
248.983	94.04
249.2	118.61
249.417	67.41
249.633	-37.03
249.85	85.84
250.067	20.31
250.284	67.41
250.501	38.74
250.717	89.94
250.934	-26.79
251.151	10.07
251.368	36.69
251.585	-49.32
251.801	-6.31
252.018	8.02
252.235	149.33
252.451	-49.32
252.668	59.22
252.885	118.61
253.102	53.08
253.318	75.6
253.535	18.26
253.752	3.93
253.968	-4.27
254.185	-88.23
254.401	98.13
254.618	8.02
254.835	40.79
255.051	198.48
255.268	67.41
255.484	147.28
255.701	5.97
255.917	85.84
256.134	18.26
256.351	26.45
256.567	-133.29
256.784	3.93
257	-18.6
257.217	61.27
257.433	65.36
257.65	110.42
257.866	165.71
258.082	-22.7
258.299	-39.08
258.515	110.42
258.732	5.97
258.948	77.65
259.165	38.74
259.381	-28.84
259.597	81.75
259.814	42.84
260.03	71.51
260.246	26.45
260.463	106.32
260.679	147.28
260.895	89.94
261.112	171.86
261.328	137.04
261.544	81.75
261.761	122.71
261.977	-43.18
262.193	24.4
262.409	141.14
262.626	71.51
262.842	36.69
263.058	-61.61
263.274	81.75
263.49	12.12
263.707	118.61
263.923	69.46
264.139	-75.95
264.355	100.18
264.571	104.28
264.787	139.09
265.004	135
265.22	34.64
265.436	-14.51
265.652	-12.46
265.868	98.13
266.084	-14.51
266.3	77.65
266.516	-116.9
266.732	53.08
266.948	75.6
267.164	73.56
267.38	73.56
267.596	153.43
267.812	190.29
268.028	36.69
268.244	30.55
268.46	32.6
268.676	65.36
268.892	63.32
269.108	8.02
269.324	-22.7
269.54	-20.65
269.756	143.19
269.972	-51.37
270.188	63.32
270.403	-20.65
270.619	8.02
270.835	53.08
271.051	126.8
271.267	-8.36
271.483	5.97
271.698	139.09
271.914	-0.17
272.13	137.04
272.346	20.31
272.562	53.08
272.777	53.08
272.993	-10.41
273.209	-49.32
273.425	20.31
273.64	-84.14
273.856	20.31
274.072	-67.75
274.287	42.84
274.503	175.95
274.719	73.56
274.934	14.17
275.15	-53.42
275.366	-2.22
275.581	-24.75
275.797	69.46
276.012	108.37
276.228	-39.08
276.444	94.04
276.659	116.56
276.875	-45.23
277.09	12.12
277.306	87.89
277.521	32.6
277.737	-18.6
277.952	55.12
278.168	83.8
278.383	69.46
278.599	116.56
278.814	116.56
279.03	1.88
279.245	159.57
279.461	65.36
279.676	112.47
279.892	-8.36
280.107	-118.95
280.322	18.26
280.538	59.22
280.753	-82.09
280.969	79.7
281.184	24.4
281.399	182.1
281.615	122.71
281.83	73.56
282.045	-41.13
282.26	3.93
282.476	10.07
282.691	81.75
282.906	83.8
283.122	38.74
283.337	-10.41
283.552	75.6
283.767	-10.41
283.983	169.81
284.198	57.17
284.413	1.88
284.628	-22.7
284.843	-32.94
285.058	137.04
285.274	-41.13
285.489	5.97
285.704	87.89
285.919	36.69
286.134	-41.13
286.349	116.56
286.564	34.64
286.779	110.42
286.995	61.27
287.21	-77.99
287.425	-6.31
287.64	51.03
287.855	55.12
288.07	5.97
288.285	169.81
288.5	188.24
288.715	79.7
288.93	30.55
289.145	5.97
289.36	57.17
289.575	40.79
289.79	143.19
290.004	14.17
290.219	94.04
290.434	28.5
290.649	26.45
290.864	10.07
291.079	30.55
291.294	36.69
291.509	57.17
291.724	44.88
291.938	71.51
292.153	24.4
292.368	57.17
292.583	118.61
292.798	65.36
293.012	42.84
293.227	63.32
293.442	-18.6
293.657	153.43
293.871	110.42
294.086	65.36
294.301	247.63
294.516	106.32
294.73	65.36
294.945	-32.94
295.16	30.55
295.374	71.51
295.589	171.86
295.804	55.12
296.018	104.28
296.233	122.71
296.447	100.18
296.662	-6.31
296.877	91.99
297.091	98.13
297.306	124.76
297.52	-2.22
297.735	175.95
297.949	30.55
298.164	83.8
298.378	61.27
298.593	-47.27
298.807	-39.08
299.022	38.74
299.236	233.3
299.451	34.64
299.665	22.36
299.88	77.65
300.094	61.27
300.309	135
300.523	55.12
300.737	28.5
300.952	85.84
301.166	42.84
301.381	48.98
301.595	8.02
301.809	73.56
302.024	-61.61
302.238	28.5
302.452	178
302.667	87.89
302.881	124.76
303.095	57.17
303.309	124.76
303.524	79.7
303.738	20.31
303.952	14.17
304.166	149.33
304.381	-94.38
304.595	106.32
304.809	-8.36
305.023	-39.08
305.237	-0.17
305.452	34.64
305.666	163.67
305.88	75.6
306.094	77.65
306.308	135
306.522	94.04
306.736	91.99
306.95	89.94
307.164	20.31
307.379	30.55
307.593	122.71
307.807	255.83
308.021	77.65
308.235	53.08
308.449	-108.71
308.663	-18.6
308.877	227.15
309.091	-8.36
309.305	71.51
309.519	-28.84
309.733	153.43
309.947	-98.47
310.161	96.08
310.374	83.8
310.588	85.84
310.802	-110.76
311.016	34.64
311.23	28.5
311.444	14.17
311.658	-67.75
311.872	79.7
312.085	128.85
312.299	171.86
312.513	157.52
312.727	30.55
312.941	-41.13
313.154	57.17
313.368	71.51
313.582	94.04
313.796	116.56
314.009	94.04
314.223	63.32
314.437	-6.31
314.651	46.93
314.864	-67.75
315.078	-32.94
315.292	-8.36
315.505	51.03
315.719	108.37
315.933	69.46
316.146	20.31
316.36	-37.03
316.573	106.32
316.787	130.9
317.001	63.32
317.214	-16.55
317.428	67.41
317.641	55.12
317.855	51.03
318.068	-20.65
318.282	118.61
318.495	175.95
318.709	26.45
318.922	63.32
319.136	128.85
319.349	104.28
319.563	10.07
319.776	106.32
319.99	-80.04
320.203	104.28
320.417	40.79
320.63	91.99
320.843	182.1
321.057	65.36
321.27	-67.75
321.483	42.84
321.697	171.86
321.91	85.84
322.124	48.98
322.337	71.51
322.55	32.6
322.763	10.07
322.977	-10.41
323.19	65.36
323.403	110.42
323.617	85.84
323.83	110.42
324.043	57.17
324.256	10.07
324.469	-51.37
324.683	104.28
324.896	44.88
325.109	108.37
325.322	-82.09
325.535	83.8
325.748	48.98
325.962	81.75
326.175	77.65
326.388	96.08
326.601	67.41
326.814	-57.51
327.027	28.5
327.24	114.52
327.453	-73.9
327.666	163.67
327.879	173.91
328.092	169.81
328.305	40.79
328.518	-26.79
328.731	71.51
328.944	44.88
329.157	137.04
329.37	69.46
329.583	200.53
329.796	128.85
330.009	-32.94
330.222	173.91
330.435	75.6
330.648	-16.55
330.861	44.88
331.073	100.18
331.286	124.76
331.499	61.27
331.712	1.88
331.925	42.84
332.138	28.5
332.35	110.42
332.563	-28.84
332.776	110.42
332.989	-28.84
333.202	40.79
333.414	38.74
333.627	65.36
333.84	10.07
334.053	-4.27
334.265	46.93
334.478	44.88
334.691	22.36
334.903	59.22
335.116	-10.41
335.329	18.26
335.541	96.08
335.754	122.71
335.966	30.55
336.179	-22.7
336.392	-39.08
336.604	26.45
336.817	145.24
337.029	143.19
337.242	65.36
337.454	110.42
337.667	110.42
337.88	77.65
338.092	55.12
338.305	32.6
338.517	42.84
338.729	73.56
338.942	147.28
339.154	-37.03
339.367	-100.52
339.579	48.98
339.792	-61.61
340.004	55.12
340.217	114.52
340.429	67.41
340.641	-20.65
340.854	-16.55
341.066	108.37
341.278	202.58
341.491	137.04
341.703	51.03
341.915	-12.46
342.128	42.84
342.34	63.32
342.552	-22.7
342.764	38.74
342.977	57.17
343.189	100.18
343.401	116.56
343.613	-86.19
343.826	73.56
344.038	-69.8
344.25	5.97
344.462	-37.03
344.674	36.69
344.886	-2.22
345.099	137.04
345.311	63.32
345.523	67.41
345.735	-67.75
345.947	77.65
346.159	12.12
346.371	42.84
346.583	40.79
346.795	151.38
347.007	8.02
347.219	46.93
347.431	1.88
347.643	77.65
347.855	42.84
348.067	163.67
348.279	-75.95
348.491	44.88
348.703	87.89
348.915	137.04
349.127	-34.99
349.339	-2.22
349.551	26.45
349.763	102.23
349.975	30.55
350.187	98.13
350.399	190.29
350.61	91.99
350.822	5.97
351.034	87.89
351.246	51.03
351.458	120.66
351.669	81.75
351.881	63.32
352.093	137.04
352.305	132.95
352.517	94.04
352.728	89.94
352.94	91.99
353.152	135
353.363	-20.65
353.575	51.03
353.787	196.43
353.999	42.84
354.21	153.43
354.422	-22.7
354.633	3.93
354.845	79.7
355.057	32.6
355.268	98.13
355.48	139.09
355.692	3.93
355.903	51.03
356.115	34.64
356.326	-141.48
356.538	120.66
356.749	85.84
356.961	130.9
357.172	55.12
357.384	-12.46
357.595	180.05
357.807	5.97
358.018	24.4
358.23	57.17
358.441	153.43
358.653	44.88
358.864	69.46
359.075	48.98
359.287	81.75
359.498	89.94
359.709	112.47
359.921	30.55
360.132	147.28
360.344	53.08
360.555	-41.13
360.766	61.27
360.977	-18.6
361.189	114.52
361.4	94.04
361.611	190.29
361.823	94.04
362.034	94.04
362.245	-28.84
362.456	14.17
362.667	38.74
362.879	-18.6
363.09	-10.41
363.301	10.07
363.512	5.97
363.723	10.07
363.935	-10.41
364.146	130.9
364.357	-45.23
364.568	-10.41
364.779	-90.28
364.99	69.46
365.201	-4.27
365.412	188.24
365.623	-82.09
365.834	-22.7
366.045	-16.55
366.256	108.37
366.467	145.24
366.678	67.41
366.889	100.18
367.1	36.69
367.311	122.71
367.522	44.88
367.733	79.7
367.944	59.22
368.155	126.8
368.366	124.76
368.577	143.19
368.788	128.85
368.999	65.36
369.209	102.23
369.42	145.24
369.631	141.14
369.842	130.9
370.053	75.6
370.264	55.12
370.474	-20.65
370.685	100.18
370.896	51.03
371.107	161.62
371.317	128.85
371.528	40.79
371.739	94.04
371.95	77.65
372.16	51.03
372.371	-10.41
372.582	-12.46
372.792	89.94
373.003	102.23
373.214	128.85
373.424	122.71
373.635	65.36
373.846	194.39
374.056	87.89
374.267	96.08
374.477	126.8
374.688	-6.31
374.898	91.99
375.109	169.81
375.319	94.04
375.53	87.89
375.74	87.89
375.951	61.27
376.161	114.52
376.372	100.18
376.582	61.27
376.793	102.23
377.003	-0.17
377.214	-69.8
377.424	102.23
377.635	32.6
377.845	61.27
378.055	104.28
378.266	-37.03
378.476	44.88
378.686	71.51
378.897	18.26
379.107	55.12
379.317	91.99
379.528	46.93
379.738	169.81
379.948	-4.27
380.158	149.33
380.369	18.26
380.579	32.6
380.789	71.51
380.999	104.28
381.21	171.86
381.42	171.86
381.63	73.56
381.84	75.6
382.05	149.33
382.261	128.85
382.471	135
382.681	10.07
382.891	102.23
383.101	79.7
383.311	10.07
383.521	-32.94
383.731	96.08
383.941	57.17
384.151	26.45
384.361	42.84
384.571	55.12
384.781	75.6
384.991	223.06
385.201	147.28
385.411	114.52
385.621	59.22
385.831	71.51
386.041	132.95
386.251	42.84
386.461	114.52
386.671	-61.61
386.881	61.27
387.091	-41.13
387.301	171.86
387.511	67.41
387.72	89.94
387.93	81.75
388.14	32.6
388.35	71.51
388.56	169.81
388.769	143.19
388.979	44.88
389.189	-24.75
389.399	-32.94
389.609	65.36
389.818	67.41
390.028	48.98
390.238	91.99
390.447	116.56
390.657	63.32
390.867	36.69
391.076	20.31
391.286	30.55
391.496	91.99
391.705	24.4
391.915	167.76
392.125	100.18
392.334	30.55
392.544	87.89
392.753	3.93
392.963	3.93
393.172	38.74
393.382	-8.36
393.591	143.19
393.801	-18.6
394.01	171.86
394.22	81.75
394.429	8.02
394.639	108.37
394.848	63.32
395.058	96.08
395.267	87.89
395.477	118.61
395.686	67.41
395.895	167.76
396.105	286.54
396.314	63.32
396.524	24.4
396.733	-43.18
396.942	85.84
397.152	139.09
397.361	233.3
397.57	120.66
397.78	151.38
397.989	112.47
398.198	231.25
398.407	53.08
398.617	24.4
398.826	104.28
399.035	-6.31
399.244	104.28
399.453	-2.22
399.663	81.75
399.872	53.08
400.081	-16.55
400.29	198.48
400.499	-57.51
400.708	122.71
400.917	10.07
401.127	57.17
401.336	-102.57
401.545	118.61
401.754	89.94
401.963	71.51
402.172	44.88
402.381	-24.75
402.59	44.88
402.799	48.98
403.008	94.04
403.217	77.65
403.426	75.6
403.635	-61.61
403.844	104.28
404.053	135
404.262	53.08
404.471	110.42
404.68	34.64
404.888	61.27
405.097	83.8
405.306	89.94
405.515	57.17
405.724	-0.17
405.933	59.22
406.142	40.79
406.35	44.88
406.559	38.74
406.768	130.9
406.977	243.54
407.185	114.52
407.394	91.99
407.603	1.88
407.812	51.03
408.02	218.96
408.229	32.6
408.438	61.27
408.646	-8.36
408.855	118.61
409.064	108.37
409.272	102.23
409.481	83.8
409.69	-30.89
409.898	-12.46
410.107	57.17
410.315	96.08
410.524	-18.6
410.733	42.84
410.941	96.08
411.15	94.04
411.358	94.04
411.567	157.52
411.775	53.08
411.984	22.36
412.192	96.08
412.401	69.46
412.609	196.43
412.818	169.81
413.026	169.81
413.234	12.12
413.443	42.84
413.651	57.17
413.86	30.55
414.068	157.52
414.276	233.3
414.485	12.12
414.693	155.47
414.901	212.82
415.11	94.04
415.318	8.02
415.526	87.89
415.734	110.42
415.943	55.12
416.151	137.04
416.359	20.31
416.567	98.13
416.776	71.51
416.984	57.17
417.192	132.95
417.4	48.98
417.608	75.6
417.817	26.45
418.025	98.13
418.233	155.47
418.441	42.84
418.649	-6.31
418.857	79.7
419.065	114.52
419.273	12.12
419.481	77.65
419.689	112.47
419.897	59.22
420.105	1.88
420.313	116.56
420.521	128.85
420.729	132.95
420.937	3.93
421.145	8.02
421.353	118.61
421.561	151.38
421.769	143.19
421.977	59.22
422.185	159.57
422.393	44.88
422.601	65.36
422.809	106.32
423.017	69.46
423.224	63.32
423.432	122.71
423.64	18.26
423.848	137.04
424.056	61.27
424.263	118.61
424.471	96.08
424.679	139.09
424.887	5.97
425.094	259.92
425.302	98.13
425.51	-4.27
425.718	94.04
425.925	96.08
426.133	16.21
426.341	149.33
426.548	118.61
426.756	40.79
426.964	159.57
427.171	-6.31
427.379	28.5
427.586	85.84
427.794	155.47
428.001	196.43
428.209	89.94
428.417	106.32
428.624	96.08
428.832	75.6
429.039	75.6
429.247	108.37
429.454	46.93
429.662	245.59
429.869	85.84
430.076	104.28
430.284	163.67
430.491	237.39
430.699	165.71
430.906	245.59
431.114	110.42
431.321	94.04
431.528	46.93
431.736	106.32
431.943	163.67
432.15	208.72
432.358	266.07
432.565	247.63
432.772	-4.27
432.979	192.34
433.187	169.81
433.394	245.59
433.601	30.55
433.808	161.62
434.016	206.67
434.223	229.2
434.43	75.6
434.637	309.07
434.844	229.2
435.052	282.45
435.259	272.21
435.466	257.87
435.673	231.25
435.88	313.17
436.087	251.73
436.294	302.93
436.501	300.88
436.708	255.83
436.915	251.73
437.122	413.52
437.329	212.82
437.537	390.99
437.743	364.37
437.95	499.53
438.157	419.66
438.364	395.09
438.571	382.8
438.778	499.53
438.985	403.28
439.192	481.1
439.399	462.67
439.606	554.83
439.813	585.55
440.02	657.23
440.227	696.14
440.433	524.11
440.64	618.32
440.847	524.11
441.054	526.16
441.261	761.67
441.467	649.04
441.674	550.73
441.881	737.1
442.088	630.6
442.294	700.23
442.501	726.86
442.708	794.44
442.914	847.69
443.121	823.11
443.328	835.4
443.534	989
443.741	892.74
443.948	849.74
444.154	1050.44
444.361	1169.22
444.568	1015.62
444.774	1015.62
444.981	905.03
445.187	1185.6
445.394	1273.67
445.6	1120.07
445.807	1251.14
446.013	1300.29
446.22	1118.02
446.426	1472.32
446.633	1496.89
446.839	1507.13
447.046	1369.92
447.252	1699.64
447.459	1736.51
447.665	1662.78
447.871	1804.09
448.078	1814.33
448.284	1845.05
448.491	1988.41
448.697	2139.96
448.903	2156.34
449.11	2230.07
449.316	2084.66
449.522	2414.38
449.728	2465.58
449.935	2613.04
450.141	2664.24
450.347	2780.97
450.553	2676.52
450.76	2901.8
450.966	2797.35
451.172	3067.69
451.378	3225.38
451.584	3284.77
451.791	3444.51
451.997	3563.29
452.203	3669.79
452.409	3884.83
452.615	3893.02
452.821	3872.54
453.027	4069.14
453.233	4437.78
453.44	4157.21
453.646	4681.49
453.852	4675.34
454.058	4855.56
454.264	4955.91
454.47	5441.28
454.676	5447.43
454.882	5809.92
455.088	5543.68
455.294	5959.42
455.5	6176.5
455.705	6422.26
455.911	6567.67
456.117	6698.74
456.323	6917.87
456.529	7071.47
456.735	7685.86
456.941	7878.37
457.147	8197.85
457.352	8328.92
457.558	8595.15
457.764	9060.04
457.97	9524.93
458.176	9715.39
458.381	10204.86
458.587	10442.42
458.793	10876.59
458.999	10976.94
459.204	12144.28
459.41	12568.21
459.616	12449.43
459.821	13102.73
460.027	13760.13
460.233	14403.19
460.438	14501.5
460.644	15287.92
460.85	15459.95
461.055	16174.69
461.261	16774.74
461.466	16660.06
461.672	16909.91
461.878	18505.27
462.083	18452.03
462.289	18699.83
462.494	19609.13
462.7	19863.08
462.905	20035.11
463.111	21818.89
463.316	22982.13
463.522	23119.35
463.727	24032.74
463.932	24851.93
464.138	25732.56
464.343	26439.11
464.549	26830.27
464.754	28857.76
464.959	29425.04
465.165	29988.24
465.37	29896.08
465.575	29750.67
465.781	31735.15
465.986	32748.9
466.191	32128.36
466.397	32558.44
466.602	31720.82
466.807	33394.01
467.012	34192.72
467.218	34583.88
467.423	34936.13
467.628	35497.27
467.833	37682.45
468.038	36594.98
468.244	36533.54
468.449	37887.25
