Data from USB4F104151__211__11-05-48-929.txt Node

Date: Wed Feb 26 11:05:48 EST 2025
User: louis
Spectrometer: USB4F10415
Trigger mode: 4
Integration Time (sec): 1.000000E-1
Scans to average: 1
Electric dark correction enabled: true
Nonlinearity correction enabled: false
Boxcar width: 0
XAxis mode: Wavelengths
Number of Pixels in Spectrum: 3648
>>>>>Begin Spectral Data<<<<<
178.204	-427.34
178.424	-427.34
178.644	-427.34
178.864	-435.53
179.084	-390.48
179.304	23.21
179.524	-32.08
179.744	-5.46
179.964	2.73
180.184	21.16
180.404	119.46
180.624	-30.04
180.844	-38.23
181.064	-128.34
181.283	6.83
181.503	-9.56
181.723	70.31
181.943	-114
182.163	178.86
182.383	10.92
182.602	-44.37
182.822	60.07
183.042	68.27
183.262	-99.67
183.482	-9.56
183.701	8.87
183.921	41.64
184.141	-120.15
184.361	94.89
184.58	103.08
184.8	2.73
185.02	-38.23
185.239	90.79
185.459	-17.75
185.679	55.98
185.898	-146.77
186.118	12.97
186.338	17.07
186.557	12.97
186.777	-87.38
186.997	2.73
187.216	6.83
187.436	185
187.655	29.35
187.875	64.17
188.095	-19.8
188.314	107.18
188.534	51.88
188.753	-71
188.973	29.35
189.192	154.28
189.412	0.68
189.631	0.68
189.851	168.62
190.07	166.57
190.29	-73.04
190.509	-25.94
190.729	2.73
190.948	98.99
191.168	232.1
191.387	111.27
191.607	-1.37
191.826	17.07
192.045	60.07
192.265	33.45
192.484	31.4
192.704	29.35
192.923	-81.24
193.142	154.28
193.362	39.59
193.581	172.71
193.8	82.6
194.02	55.98
194.239	-66.9
194.458	37.55
194.678	17.07
194.897	-105.81
195.116	39.59
195.335	-58.71
195.555	31.4
195.774	-21.85
195.993	111.27
196.212	-56.66
196.432	6.83
196.651	-58.71
196.87	-52.56
197.089	215.72
197.308	25.26
197.528	58.03
197.747	8.87
197.966	2.73
198.185	68.27
198.404	33.45
198.623	133.8
198.842	66.22
199.062	27.31
199.281	19.11
199.5	49.83
199.719	39.59
199.938	27.31
200.157	160.42
200.376	53.93
200.595	64.17
200.814	6.83
201.033	25.26
201.252	127.66
201.471	-19.8
201.69	76.46
201.909	-79.19
202.128	47.79
202.347	8.87
202.566	-3.41
202.785	-99.67
203.004	27.31
203.223	307.88
203.442	19.11
203.661	-62.8
203.879	45.74
204.098	107.18
204.317	-48.47
204.536	68.27
204.755	78.51
204.974	117.42
205.193	-21.85
205.411	160.42
205.63	92.84
205.849	115.37
206.068	6.83
206.287	-46.42
206.505	148.14
206.724	47.79
206.943	-9.56
207.162	-32.08
207.381	60.07
207.599	4.78
207.818	29.35
208.037	-52.56
208.255	39.59
208.474	84.65
208.693	84.65
208.911	-52.56
209.13	117.42
209.349	19.11
209.567	107.18
209.786	62.12
210.005	62.12
210.223	55.98
210.442	-99.67
210.661	12.97
210.879	86.7
211.098	70.31
211.316	86.7
211.535	70.31
211.753	-21.85
211.972	113.32
212.191	-17.75
212.409	0.68
212.628	156.33
212.846	-111.96
213.065	21.16
213.283	133.8
213.502	31.4
213.72	17.07
213.938	41.64
214.157	109.23
214.375	113.32
214.594	-3.41
214.812	31.4
215.031	-1.37
215.249	174.76
215.467	47.79
215.686	-50.52
215.904	113.32
216.122	76.46
216.341	176.81
216.559	6.83
216.778	103.08
216.996	150.18
217.214	-1.37
217.432	31.4
217.651	-165.2
217.869	-17.75
218.087	15.02
218.306	-23.89
218.524	-13.65
218.742	27.31
218.96	88.75
219.179	27.31
219.397	8.87
219.615	189.1
219.833	127.66
220.051	-32.08
220.27	90.79
220.488	131.75
220.706	111.27
220.924	25.26
221.142	-11.61
221.36	41.64
221.578	49.83
221.796	-3.41
222.015	-13.65
222.233	72.36
222.451	105.13
222.669	6.83
222.887	62.12
223.105	-1.37
223.323	-27.99
223.541	19.11
223.759	47.79
223.977	29.35
224.195	158.38
224.413	6.83
224.631	78.51
224.849	76.46
225.067	182.95
225.285	49.83
225.503	-71
225.721	-132.44
225.939	70.31
226.157	-3.41
226.375	246.44
226.592	-62.8
226.81	-15.7
227.028	113.32
227.246	178.86
227.464	29.35
227.682	55.98
227.9	-5.46
228.117	45.74
228.335	88.75
228.553	62.12
228.771	-30.04
228.989	15.02
229.206	76.46
229.424	-13.65
229.642	4.78
229.86	-23.89
230.077	101.03
230.295	72.36
230.513	43.69
230.731	31.4
230.948	199.34
231.166	133.8
231.384	-54.61
231.601	-36.18
231.819	164.52
232.037	39.59
232.254	-99.67
232.472	-38.23
232.689	2.73
232.907	68.27
233.125	-50.52
233.342	-11.61
233.56	-54.61
233.777	21.16
233.995	43.69
234.213	78.51
234.43	148.14
234.648	-1.37
234.865	-7.51
235.083	45.74
235.3	33.45
235.518	101.03
235.735	127.66
235.953	49.83
236.17	-25.94
236.388	-7.51
236.605	2.73
236.822	119.46
237.04	88.75
237.257	64.17
237.475	-42.32
237.692	25.26
237.909	64.17
238.127	-5.46
238.344	111.27
238.562	60.07
238.779	21.16
238.996	-68.95
239.214	51.88
239.431	41.64
239.648	-7.51
239.865	109.23
240.083	64.17
240.3	-7.51
240.517	51.88
240.735	21.16
240.952	117.42
241.169	98.99
241.386	8.87
241.603	55.98
241.821	-101.72
242.038	109.23
242.255	90.79
242.472	-130.39
242.689	82.6
242.907	39.59
243.124	45.74
243.341	12.97
243.558	-5.46
243.775	-40.28
243.992	-30.04
244.209	72.36
244.426	158.38
244.643	64.17
244.86	-71
245.078	74.41
245.295	31.4
245.512	10.92
245.729	45.74
245.946	51.88
246.163	64.17
246.38	-81.24
246.597	15.02
246.814	-3.41
247.031	-27.99
247.248	-38.23
247.464	88.75
247.681	-21.85
247.898	74.41
248.115	72.36
248.332	12.97
248.549	101.03
248.766	256.68
248.983	96.94
249.2	47.79
249.417	58.03
249.633	-27.99
249.85	107.18
250.067	-21.85
250.284	62.12
250.501	-9.56
250.717	135.85
250.934	-56.66
251.151	19.11
251.368	-1.37
251.585	58.03
251.801	-17.75
252.018	2.73
252.235	127.66
252.451	-32.08
252.668	-30.04
252.885	105.13
253.102	15.02
253.318	47.79
253.535	-11.61
253.752	-23.89
253.968	-21.85
254.185	-1.37
254.401	62.12
254.618	53.93
254.835	-54.61
255.051	92.84
255.268	23.21
255.484	82.6
255.701	96.94
255.917	86.7
256.134	-7.51
256.351	-27.99
256.567	-66.9
256.784	19.11
257	-89.43
257.217	76.46
257.433	113.32
257.65	45.74
257.866	207.53
258.082	-7.51
258.299	-64.85
258.515	41.64
258.732	-34.13
258.948	23.21
259.165	62.12
259.381	-120.15
259.597	68.27
259.814	58.03
260.03	2.73
260.246	86.7
260.463	80.55
260.679	176.81
260.895	53.93
261.112	76.46
261.328	17.07
261.544	-19.8
261.761	139.94
261.977	-13.65
262.193	-17.75
262.409	84.65
262.626	27.31
262.842	17.07
263.058	33.45
263.274	158.38
263.49	55.98
263.707	53.93
263.923	41.64
264.139	17.07
264.355	94.89
264.571	94.89
264.787	113.32
265.004	86.7
265.22	2.73
265.436	-17.75
265.652	15.02
265.868	-7.51
266.084	15.02
266.3	0.68
266.516	-36.18
266.732	25.26
266.948	-34.13
267.164	-13.65
267.38	141.99
267.596	39.59
267.812	182.95
268.028	47.79
268.244	45.74
268.46	68.27
268.676	-1.37
268.892	139.94
269.108	-30.04
269.324	-34.13
269.54	-58.71
269.756	53.93
269.972	-38.23
270.188	-71
270.403	-58.71
270.619	23.21
270.835	86.7
271.051	86.7
271.267	70.31
271.483	-21.85
271.698	111.27
271.914	70.31
272.13	41.64
272.346	-99.67
272.562	15.02
272.777	156.33
272.993	43.69
273.209	-25.94
273.425	182.95
273.64	-81.24
273.856	119.46
274.072	-64.85
274.287	-1.37
274.503	76.46
274.719	27.31
274.934	-19.8
275.15	-97.62
275.366	33.45
275.581	15.02
275.797	-34.13
276.012	68.27
276.228	-15.7
276.444	12.97
276.659	133.8
276.875	8.87
277.09	-5.46
277.306	15.02
277.521	33.45
277.737	25.26
277.952	21.16
278.168	-19.8
278.383	88.75
278.599	88.75
278.814	76.46
279.03	37.55
279.245	160.42
279.461	39.59
279.676	70.31
279.892	-60.76
280.107	-73.04
280.322	-64.85
280.538	-13.65
280.753	-50.52
280.969	62.12
281.184	39.59
281.399	137.9
281.615	-9.56
281.83	66.22
282.045	-73.04
282.26	35.5
282.476	29.35
282.691	-13.65
282.906	25.26
283.122	23.21
283.337	101.03
283.552	144.04
283.767	4.78
283.983	172.71
284.198	-81.24
284.413	37.55
284.628	-77.14
284.843	70.31
285.058	78.51
285.274	-58.71
285.489	-48.47
285.704	80.55
285.919	-48.47
286.134	2.73
286.349	-19.8
286.564	17.07
286.779	205.48
286.995	-27.99
287.21	-87.38
287.425	33.45
287.64	-15.7
287.855	-5.46
288.07	-93.52
288.285	74.41
288.5	115.37
288.715	94.89
288.93	62.12
289.145	0.68
289.36	29.35
289.575	27.31
289.79	29.35
290.004	-58.71
290.219	90.79
290.434	-44.37
290.649	23.21
290.864	41.64
291.079	-21.85
291.294	2.73
291.509	27.31
291.724	21.16
291.938	17.07
292.153	-36.18
292.368	-19.8
292.583	43.69
292.798	103.08
293.012	105.13
293.227	115.37
293.442	-25.94
293.657	64.17
293.871	94.89
294.086	55.98
294.301	139.94
294.516	23.21
294.73	31.4
294.945	-21.85
295.16	70.31
295.374	94.89
295.589	64.17
295.804	19.11
296.018	15.02
296.233	80.55
296.447	31.4
296.662	29.35
296.877	123.56
297.091	86.7
297.306	-107.86
297.52	84.65
297.735	37.55
297.949	23.21
298.164	17.07
298.378	35.5
298.593	-44.37
298.807	-30.04
299.022	-19.8
299.236	125.61
299.451	-58.71
299.665	55.98
299.88	41.64
300.094	31.4
300.309	-36.18
300.523	33.45
300.737	47.79
300.952	43.69
301.166	74.41
301.381	-58.71
301.595	0.68
301.809	6.83
302.024	-27.99
302.238	0.68
302.452	148.14
302.667	4.78
302.881	199.34
303.095	78.51
303.309	27.31
303.524	25.26
303.738	-17.75
303.952	33.45
304.166	0.68
304.381	-118.1
304.595	37.55
304.809	-30.04
305.023	2.73
305.237	4.78
305.452	-1.37
305.666	31.4
305.88	51.88
306.094	98.99
306.308	80.55
306.522	43.69
306.736	25.26
306.95	103.08
307.164	-34.13
307.379	0.68
307.593	107.18
307.807	103.08
308.021	82.6
308.235	39.59
308.449	2.73
308.663	15.02
308.877	215.72
309.091	-21.85
309.305	80.55
309.519	-68.95
309.733	92.84
309.947	-38.23
310.161	92.84
310.374	66.22
310.588	33.45
310.802	-54.61
311.016	45.74
311.23	51.88
311.444	-116.05
311.658	19.11
311.872	82.6
312.085	98.99
312.299	135.85
312.513	111.27
312.727	49.83
312.941	-30.04
313.154	19.11
313.368	94.89
313.582	-58.71
313.796	92.84
314.009	58.03
314.223	103.08
314.437	121.51
314.651	64.17
314.864	25.26
315.078	15.02
315.292	-25.94
315.505	10.92
315.719	103.08
315.933	-13.65
316.146	-15.7
316.36	49.83
316.573	137.9
316.787	51.88
317.001	109.23
317.214	-21.85
317.428	80.55
317.641	-87.38
317.855	17.07
318.068	15.02
318.282	19.11
318.495	170.66
318.709	43.69
318.922	39.59
319.136	154.28
319.349	76.46
319.563	-27.99
319.776	84.65
319.99	-107.86
320.203	96.94
320.417	51.88
320.63	80.55
320.843	144.04
321.057	8.87
321.27	-15.7
321.483	15.02
321.697	176.81
321.91	68.27
322.124	94.89
322.337	-11.61
322.55	-54.61
322.763	129.7
322.977	4.78
323.19	-27.99
323.403	27.31
323.617	-1.37
323.83	76.46
324.043	58.03
324.256	53.93
324.469	-5.46
324.683	148.14
324.896	-40.28
325.109	27.31
325.322	-79.19
325.535	88.75
325.748	141.99
325.962	43.69
326.175	43.69
326.388	-1.37
326.601	33.45
326.814	-21.85
327.027	53.93
327.24	60.07
327.453	-99.67
327.666	123.56
327.879	113.32
328.092	51.88
328.305	31.4
328.518	53.93
328.731	-42.32
328.944	-11.61
329.157	60.07
329.37	-15.7
329.583	174.76
329.796	98.99
330.009	-27.99
330.222	103.08
330.435	47.79
330.648	0.68
330.861	25.26
331.073	49.83
331.286	55.98
331.499	29.35
331.712	-66.9
331.925	-58.71
332.138	-3.41
332.35	109.23
332.563	-1.37
332.776	117.42
332.989	-77.14
333.202	-19.8
333.414	-42.32
333.627	55.98
333.84	47.79
334.053	-27.99
334.265	-9.56
334.478	37.55
334.691	-17.75
334.903	17.07
335.116	-32.08
335.329	-15.7
335.541	21.16
335.754	139.94
335.966	-50.52
336.179	-3.41
336.392	-11.61
336.604	58.03
336.817	66.22
337.029	0.68
337.242	51.88
337.454	105.13
337.667	-30.04
337.88	137.9
338.092	101.03
338.305	10.92
338.517	-46.42
338.729	68.27
338.942	133.8
339.154	-23.89
339.367	-62.8
339.579	35.5
339.792	10.92
340.004	49.83
340.217	68.27
340.429	80.55
340.641	-52.56
340.854	-85.33
341.066	119.46
341.278	148.14
341.491	178.86
341.703	19.11
341.915	-25.94
342.128	68.27
342.34	92.84
342.552	-7.51
342.764	58.03
342.977	35.5
343.189	15.02
343.401	111.27
343.613	8.87
343.826	17.07
344.038	-3.41
344.25	43.69
344.462	-13.65
344.674	47.79
344.886	0.68
345.099	113.32
345.311	-9.56
345.523	-15.7
345.735	-120.15
345.947	58.03
346.159	35.5
346.371	35.5
346.583	49.83
346.795	221.86
347.007	-34.13
347.219	23.21
347.431	0.68
347.643	80.55
347.855	-19.8
348.067	107.18
348.279	-34.13
348.491	66.22
348.703	41.64
348.915	35.5
349.127	29.35
349.339	-19.8
349.551	37.55
349.763	51.88
349.975	58.03
350.187	228.01
350.399	96.94
350.61	31.4
350.822	17.07
351.034	31.4
351.246	21.16
351.458	148.14
351.669	49.83
351.881	117.42
352.093	109.23
352.305	119.46
352.517	82.6
352.728	103.08
352.94	10.92
353.152	45.74
353.363	-144.72
353.575	33.45
353.787	121.51
353.999	47.79
354.21	107.18
354.422	-30.04
354.633	47.79
354.845	88.75
355.057	-1.37
355.268	76.46
355.48	76.46
355.692	-83.28
355.903	31.4
356.115	-7.51
356.326	-126.29
356.538	127.66
356.749	47.79
356.961	152.23
357.172	17.07
357.384	2.73
357.595	191.14
357.807	-73.04
358.018	8.87
358.23	51.88
358.441	115.37
358.653	148.14
358.864	37.55
359.075	-9.56
359.287	15.02
359.498	37.55
359.709	-52.56
359.921	47.79
360.132	55.98
360.344	-38.23
360.555	0.68
360.766	43.69
360.977	0.68
361.189	117.42
361.4	31.4
361.611	111.27
361.823	176.81
362.034	12.97
362.245	-122.2
362.456	35.5
362.667	68.27
362.879	-64.85
363.09	78.51
363.301	53.93
363.512	-5.46
363.723	-52.56
363.935	35.5
364.146	90.79
364.357	35.5
364.568	74.41
364.779	-89.43
364.99	88.75
365.201	-38.23
365.412	180.9
365.623	-101.72
365.834	37.55
366.045	64.17
366.256	127.66
366.467	115.37
366.678	4.78
366.889	84.65
367.1	47.79
367.311	60.07
367.522	78.51
367.733	94.89
367.944	64.17
368.155	105.13
368.366	101.03
368.577	10.92
368.788	84.65
368.999	-30.04
369.209	66.22
369.42	203.43
369.631	168.62
369.842	76.46
370.053	2.73
370.264	55.98
370.474	8.87
370.685	12.97
370.896	-25.94
371.107	107.18
371.317	35.5
371.528	-60.76
371.739	96.94
371.95	111.27
372.16	62.12
372.371	-48.47
372.582	0.68
372.792	37.55
373.003	51.88
373.214	74.41
373.424	55.98
373.635	2.73
373.846	76.46
374.056	-13.65
374.267	23.21
374.477	29.35
374.688	-83.28
374.898	72.36
375.109	19.11
375.319	6.83
375.53	141.99
375.74	60.07
375.951	-27.99
376.161	60.07
376.372	96.94
376.582	-17.75
376.793	103.08
377.003	29.35
377.214	17.07
377.424	123.56
377.635	37.55
377.845	-46.42
378.055	125.61
378.266	-50.52
378.476	-44.37
378.686	51.88
378.897	53.93
379.107	139.94
379.317	92.84
379.528	-75.09
379.738	68.27
379.948	-23.89
380.158	80.55
380.369	31.4
380.579	0.68
380.789	-21.85
380.999	68.27
381.21	53.93
381.42	209.58
381.63	15.02
381.84	105.13
382.05	96.94
382.261	33.45
382.471	109.23
382.681	-30.04
382.891	135.85
383.101	33.45
383.311	-21.85
383.521	-27.99
383.731	94.89
383.941	96.94
384.151	60.07
384.361	-32.08
384.571	58.03
384.781	78.51
384.991	170.66
385.201	176.81
385.411	86.7
385.621	70.31
385.831	101.03
386.041	62.12
386.251	70.31
386.461	103.08
386.671	51.88
386.881	-38.23
387.091	25.26
387.301	109.23
387.511	-19.8
387.72	51.88
387.93	117.42
388.14	-60.76
388.35	-19.8
388.56	180.9
388.769	115.37
388.979	8.87
389.189	-81.24
389.399	29.35
389.609	49.83
389.818	43.69
390.028	47.79
390.238	55.98
390.447	-11.61
390.657	43.69
390.867	-40.28
391.076	-23.89
391.286	-1.37
391.496	41.64
391.705	6.83
391.915	60.07
392.125	105.13
392.334	-52.56
392.544	135.85
392.753	-3.41
392.963	53.93
393.172	39.59
393.382	-71
393.591	127.66
393.801	-50.52
394.01	162.47
394.22	107.18
394.429	19.11
394.639	-25.94
394.848	21.16
395.058	35.5
395.267	66.22
395.477	98.99
395.686	-1.37
395.895	260.77
396.105	207.53
396.314	72.36
396.524	23.21
396.733	-42.32
396.942	131.75
397.152	82.6
397.361	135.85
397.57	58.03
397.78	23.21
397.989	119.46
398.198	180.9
398.407	60.07
398.617	21.16
398.826	45.74
399.035	12.97
399.244	70.31
399.453	-44.37
399.663	74.41
399.872	58.03
400.081	35.5
400.29	88.75
400.499	-54.61
400.708	117.42
400.917	-30.04
401.127	21.16
401.336	-3.41
401.545	139.94
401.754	68.27
401.963	60.07
402.172	-19.8
402.381	-85.33
402.59	31.4
402.799	29.35
403.008	29.35
403.217	-15.7
403.426	35.5
403.635	-73.04
403.844	29.35
404.053	-73.04
404.262	-27.99
404.471	115.37
404.68	139.94
404.888	-11.61
405.097	35.5
405.306	39.59
405.515	31.4
405.724	58.03
405.933	111.27
406.142	17.07
406.35	41.64
406.559	-11.61
406.768	25.26
406.977	78.51
407.185	70.31
407.394	117.42
407.603	8.87
407.812	-21.85
408.02	146.09
408.229	62.12
408.438	37.55
408.646	-25.94
408.855	0.68
409.064	35.5
409.272	39.59
409.481	121.51
409.69	27.31
409.898	-19.8
410.107	8.87
410.315	31.4
410.524	-19.8
410.733	35.5
410.941	76.46
411.15	92.84
411.358	123.56
411.567	121.51
411.775	12.97
411.984	6.83
412.192	49.83
412.401	-36.18
412.609	168.62
412.818	68.27
413.026	107.18
413.234	-1.37
413.443	2.73
413.651	-30.04
413.86	12.97
414.068	37.55
414.276	209.58
414.485	-30.04
414.693	113.32
414.901	203.43
415.11	62.12
415.318	103.08
415.526	55.98
415.734	92.84
415.943	4.78
416.151	170.66
416.359	70.31
416.567	119.46
416.776	88.75
416.984	62.12
417.192	209.58
417.4	-34.13
417.608	4.78
417.817	23.21
418.025	55.98
418.233	185
418.441	-17.75
418.649	6.83
418.857	76.46
419.065	144.04
419.273	2.73
419.481	-44.37
419.689	-9.56
419.897	-64.85
420.105	-40.28
420.313	111.27
420.521	117.42
420.729	103.08
420.937	64.17
421.145	-38.23
421.353	74.41
421.561	146.09
421.769	33.45
421.977	23.21
422.185	111.27
422.393	31.4
422.601	101.03
422.809	60.07
423.017	55.98
423.224	76.46
423.432	129.7
423.64	-11.61
423.848	94.89
424.056	47.79
424.263	121.51
424.471	64.17
424.679	162.47
424.887	-11.61
425.094	88.75
425.302	168.62
425.51	64.17
425.718	154.28
425.925	72.36
426.133	-21.85
426.341	211.62
426.548	-40.28
426.756	47.79
426.964	47.79
427.171	4.78
427.379	62.12
427.586	45.74
427.794	98.99
428.001	133.8
428.209	129.7
428.417	137.9
428.624	70.31
428.832	146.09
429.039	203.43
429.247	58.03
429.454	115.37
429.662	228.01
429.869	139.94
430.076	141.99
430.284	174.76
430.491	234.15
430.699	105.13
430.906	217.77
431.114	94.89
431.321	180.9
431.528	187.05
431.736	170.66
431.943	113.32
432.15	195.24
432.358	166.57
432.565	187.05
432.772	21.16
432.979	244.39
433.187	98.99
433.394	264.87
433.601	76.46
433.808	230.06
434.016	221.86
434.223	244.39
434.43	273.06
434.637	215.72
434.844	332.45
435.052	273.06
435.259	197.29
435.466	242.34
435.673	301.73
435.88	295.59
436.087	299.69
436.294	414.37
436.501	371.37
436.708	205.48
436.915	334.5
437.122	455.33
437.329	246.44
437.537	385.7
437.743	340.65
437.95	436.9
438.157	451.24
438.364	402.08
438.571	449.19
438.778	516.77
438.985	445.09
439.192	504.48
439.399	494.24
439.606	477.86
439.813	592.55
440.02	651.94
440.227	770.72
440.433	647.84
440.64	592.55
440.847	494.24
441.054	641.7
441.261	770.72
441.467	678.56
441.674	604.83
441.881	860.83
442.088	699.04
442.294	871.07
442.501	848.54
442.708	950.94
442.914	877.21
443.121	932.51
443.328	893.6
443.534	1098.39
443.741	991.9
443.948	993.95
444.154	1065.63
444.361	1274.52
444.568	1135.26
444.774	1073.82
444.981	1047.19
445.187	1364.63
445.394	1313.43
445.6	1264.28
445.807	1344.15
446.013	1401.49
446.22	1419.92
446.426	1682.06
446.633	1641.11
446.839	1763.98
447.046	1680.02
447.252	1862.29
447.459	1817.23
447.665	1745.55
447.871	2001.55
448.078	2278.02
448.284	2157.19
448.491	2202.25
448.697	2353.8
448.903	2411.14
449.11	2568.84
449.316	2558.6
449.522	2599.56
449.728	2718.34
449.935	2833.02
450.141	2845.31
450.347	3048.06
450.553	2955.9
450.76	3211.9
450.966	3369.59
451.172	3404.41
451.378	3547.76
451.584	3519.09
451.791	3803.76
451.997	3922.54
452.203	4022.89
452.409	4297.32
452.615	4440.68
452.821	4352.62
453.027	4354.66
453.233	5116.51
453.44	4809.31
453.646	5075.55
453.852	5399.13
454.058	5317.21
454.264	5595.73
454.47	6062.67
454.676	6011.47
454.882	6718.02
455.088	6320.71
455.294	6769.22
455.5	7041.6
455.705	7387.71
455.911	7455.29
456.117	7576.12
456.323	7967.28
456.529	7993.9
456.735	8581.67
456.941	8964.64
457.147	9222.69
457.352	9404.96
457.558	9554.46
457.764	10228.24
457.97	10715.66
458.176	11065.86
458.381	11657.72
458.587	11704.82
458.793	12499.44
458.999	12313.07
459.204	14086.61
459.41	14338.51
459.616	14139.86
459.821	15053.25
460.027	15905.21
460.233	16265.65
460.438	16382.38
460.644	17258.92
460.85	17490.34
461.055	18276.76
461.261	19104.14
461.466	18823.56
461.672	18925.96
461.878	21299.56
462.083	20892.01
462.289	21629.28
462.494	22288.73
462.7	22559.06
462.905	22995.28
463.111	24705.33
463.316	26065.18
463.522	26231.07
463.727	27138.32
463.932	28240.12
464.138	29487.34
464.343	30652.63
464.549	30257.37
464.754	32837.81
464.959	33824.93
465.165	34205.86
465.37	33896.61
465.575	33573.03
465.781	36495.49
465.986	37228.66
466.191	36808.82
466.397	37165.17
466.602	35958.92
466.807	38131.81
467.012	38672.48
467.218	39379.03
467.423	39362.64
467.628	40773.69
467.833	42866.72
468.038	42151.98
468.244	40941.63
468.449	43487.25
