Data from USB4F104151__207__11-05-42-929.txt Node

Date: Wed Feb 26 11:05:42 EST 2025
User: louis
Spectrometer: USB4F10415
Trigger mode: 4
Integration Time (sec): 1.000000E-1
Scans to average: 1
Electric dark correction enabled: true
Nonlinearity correction enabled: false
Boxcar width: 0
XAxis mode: Wavelengths
Number of Pixels in Spectrum: 3648
>>>>>Begin Spectral Data<<<<<
178.204	-348.33
178.424	-348.33
178.644	-348.33
178.864	-417.96
179.084	-331.94
179.304	-6.31
179.524	3.93
179.744	12.12
179.964	5.97
180.184	-0.17
180.404	30.55
180.624	42.84
180.844	26.45
181.064	-45.23
181.283	53.08
181.503	-100.52
181.723	-22.7
181.943	-77.99
182.163	221.01
182.383	79.7
182.602	83.8
182.822	159.57
183.042	48.98
183.262	-32.94
183.482	-2.22
183.701	65.36
183.921	110.42
184.141	3.93
184.361	59.22
184.58	-12.46
184.8	110.42
185.02	-8.36
185.239	96.08
185.459	48.98
185.679	149.33
185.898	-41.13
186.118	26.45
186.338	122.71
186.557	71.51
186.777	-0.17
186.997	28.5
187.216	46.93
187.436	161.62
187.655	42.84
187.875	67.41
188.095	51.03
188.314	112.47
188.534	110.42
188.753	-98.47
188.973	112.47
189.192	98.13
189.412	65.36
189.631	22.36
189.851	38.74
190.07	120.66
190.29	10.07
190.509	-57.51
190.729	1.88
190.948	165.71
191.168	216.91
191.387	77.65
191.607	79.7
191.826	98.13
192.045	112.47
192.265	-28.84
192.484	59.22
192.704	96.08
192.923	26.45
193.142	188.24
193.362	110.42
193.581	137.04
193.8	96.08
194.02	83.8
194.239	38.74
194.458	40.79
194.678	20.31
194.897	3.93
195.116	36.69
195.335	40.79
195.555	73.56
195.774	16.21
195.993	112.47
196.212	55.12
196.432	57.17
196.651	34.64
196.87	65.36
197.089	337.74
197.308	28.5
197.528	71.51
197.747	-59.56
197.966	73.56
198.185	122.71
198.404	-18.6
198.623	85.84
198.842	94.04
199.062	77.65
199.281	89.94
199.5	24.4
199.719	73.56
199.938	34.64
200.157	77.65
200.376	102.23
200.595	147.28
200.814	100.18
201.033	-41.13
201.252	124.76
201.471	65.36
201.69	112.47
201.909	98.13
202.128	59.22
202.347	71.51
202.566	51.03
202.785	-94.38
203.004	-24.75
203.223	259.92
203.442	100.18
203.661	-34.99
203.879	98.13
204.098	132.95
204.317	-18.6
204.536	118.61
204.755	81.75
204.974	100.18
205.193	14.17
205.411	214.87
205.63	130.9
205.849	85.84
206.068	30.55
206.287	83.8
206.505	157.52
206.724	-4.27
206.943	61.27
207.162	8.02
207.381	63.32
207.599	32.6
207.818	57.17
208.037	-0.17
208.255	34.64
208.474	42.84
208.693	10.07
208.911	-34.99
209.13	67.41
209.349	114.52
209.567	63.32
209.786	106.32
210.005	20.31
210.223	53.08
210.442	-61.61
210.661	69.46
210.879	24.4
211.098	32.6
211.316	139.09
211.535	63.32
211.753	61.27
211.972	149.33
212.191	61.27
212.409	5.97
212.628	143.19
212.846	-0.17
213.065	20.31
213.283	163.67
213.502	61.27
213.72	22.36
213.938	79.7
214.157	16.21
214.375	38.74
214.594	59.22
214.812	75.6
215.031	24.4
215.249	114.52
215.467	73.56
215.686	18.26
215.904	120.66
216.122	61.27
216.341	141.14
216.559	112.47
216.778	30.55
216.996	153.43
217.214	67.41
217.432	-20.65
217.651	16.21
217.869	57.17
218.087	32.6
218.306	98.13
218.524	122.71
218.742	73.56
218.96	112.47
219.179	14.17
219.397	69.46
219.615	270.16
219.833	149.33
220.051	-18.6
220.27	69.46
220.488	128.85
220.706	75.6
220.924	8.02
221.142	67.41
221.36	67.41
221.578	65.36
221.796	32.6
222.015	14.17
222.233	98.13
222.451	102.23
222.669	3.93
222.887	40.79
223.105	38.74
223.323	42.84
223.541	-30.89
223.759	36.69
223.977	51.03
224.195	221.01
224.413	18.26
224.631	77.65
224.849	42.84
225.067	171.86
225.285	-12.46
225.503	1.88
225.721	-116.9
225.939	59.22
226.157	-14.51
226.375	192.34
226.592	22.36
226.81	32.6
227.028	149.33
227.246	139.09
227.464	69.46
227.682	186.19
227.9	83.8
228.117	98.13
228.335	106.32
228.553	79.7
228.771	-0.17
228.989	79.7
229.206	124.76
229.424	38.74
229.642	77.65
229.86	-57.51
230.077	161.62
230.295	81.75
230.513	159.57
230.731	71.51
230.948	155.47
231.166	145.24
231.384	-24.75
231.601	14.17
231.819	202.58
232.037	-75.95
232.254	-26.79
232.472	98.13
232.689	30.55
232.907	98.13
233.125	-24.75
233.342	-69.8
233.56	91.99
233.777	-12.46
233.995	-4.27
234.213	-2.22
234.43	81.75
234.648	12.12
234.865	12.12
235.083	85.84
235.3	118.61
235.518	89.94
235.735	18.26
235.953	87.89
236.17	-26.79
236.388	38.74
236.605	79.7
236.822	85.84
237.04	141.14
237.257	108.37
237.475	5.97
237.692	18.26
237.909	89.94
238.127	12.12
238.344	20.31
238.562	26.45
238.779	3.93
238.996	42.84
239.214	102.23
239.431	151.38
239.648	32.6
239.865	77.65
240.083	91.99
240.3	16.21
240.517	1.88
240.735	24.4
240.952	46.93
241.169	48.98
241.386	87.89
241.603	83.8
241.821	-14.51
242.038	108.37
242.255	89.94
242.472	10.07
242.689	30.55
242.907	96.08
243.124	77.65
243.341	-51.37
243.558	-16.55
243.775	-6.31
243.992	-73.9
244.209	81.75
244.426	182.1
244.643	22.36
244.86	75.6
245.078	71.51
245.295	59.22
245.512	-18.6
245.729	57.17
245.946	116.56
246.163	124.76
246.38	-10.41
246.597	53.08
246.814	-28.84
247.031	57.17
247.248	20.31
247.464	118.61
247.681	69.46
247.898	79.7
248.115	91.99
248.332	-61.61
248.549	79.7
248.766	91.99
248.983	87.89
249.2	57.17
249.417	122.71
249.633	28.5
249.85	110.42
250.067	5.97
250.284	65.36
250.501	40.79
250.717	139.09
250.934	5.97
251.151	59.22
251.368	12.12
251.585	149.33
251.801	42.84
252.018	-59.56
252.235	130.9
252.451	42.84
252.668	22.36
252.885	143.19
253.102	71.51
253.318	5.97
253.535	12.12
253.752	36.69
253.968	-26.79
254.185	-106.67
254.401	65.36
254.618	141.14
254.835	5.97
255.051	130.9
255.268	104.28
255.484	116.56
255.701	3.93
255.917	147.28
256.134	22.36
256.351	79.7
256.567	-24.75
256.784	48.98
257	-71.85
257.217	126.8
257.433	132.95
257.65	46.93
257.866	122.71
258.082	1.88
258.299	20.31
258.515	79.7
258.732	8.02
258.948	53.08
259.165	26.45
259.381	-16.55
259.597	89.94
259.814	46.93
260.03	63.32
260.246	89.94
260.463	75.6
260.679	192.34
260.895	73.56
261.112	91.99
261.328	89.94
261.544	-28.84
261.761	94.04
261.977	36.69
262.193	-55.47
262.409	141.14
262.626	124.76
262.842	63.32
263.058	-43.18
263.274	77.65
263.49	77.65
263.707	57.17
263.923	147.28
264.139	-57.51
264.355	36.69
264.571	141.14
264.787	69.46
265.004	159.57
265.22	61.27
265.436	8.02
265.652	-6.31
265.868	110.42
266.084	-26.79
266.3	108.37
266.516	-63.66
266.732	-18.6
266.948	44.88
267.164	-34.99
267.38	100.18
267.596	118.61
267.812	169.81
268.028	87.89
268.244	8.02
268.46	94.04
268.676	20.31
268.892	40.79
269.108	20.31
269.324	12.12
269.54	12.12
269.756	79.7
269.972	-39.08
270.188	-20.65
270.403	14.17
270.619	-100.52
270.835	14.17
271.051	32.6
271.267	57.17
271.483	28.5
271.698	-0.17
271.914	85.84
272.13	69.46
272.346	-51.37
272.562	8.02
272.777	155.47
272.993	77.65
273.209	28.5
273.425	89.94
273.64	-4.27
273.856	91.99
274.072	-30.89
274.287	16.21
274.503	79.7
274.719	48.98
274.934	36.69
275.15	-20.65
275.366	85.84
275.581	-14.51
275.797	38.74
276.012	8.02
276.228	-12.46
276.444	75.6
276.659	161.62
276.875	1.88
277.09	57.17
277.306	22.36
277.521	53.08
277.737	26.45
277.952	53.08
278.168	71.51
278.383	57.17
278.599	51.03
278.814	28.5
279.03	5.97
279.245	135
279.461	130.9
279.676	161.62
279.892	-30.89
280.107	-20.65
280.322	22.36
280.538	126.8
280.753	44.88
280.969	18.26
281.184	20.31
281.399	204.63
281.615	24.4
281.83	98.13
282.045	-39.08
282.26	18.26
282.476	67.41
282.691	114.52
282.906	116.56
283.122	108.37
283.337	-61.61
283.552	126.8
283.767	1.88
283.983	34.64
284.198	-20.65
284.413	53.08
284.628	3.93
284.843	48.98
285.058	112.47
285.274	36.69
285.489	12.12
285.704	155.47
285.919	-6.31
286.134	42.84
286.349	73.56
286.564	30.55
286.779	225.11
286.995	14.17
287.21	22.36
287.425	98.13
287.64	-10.41
287.855	85.84
288.07	-39.08
288.285	155.47
288.5	161.62
288.715	57.17
288.93	28.5
289.145	106.32
289.36	143.19
289.575	32.6
289.79	118.61
290.004	-0.17
290.219	161.62
290.434	42.84
290.649	1.88
290.864	42.84
291.079	-30.89
291.294	16.21
291.509	73.56
291.724	53.08
291.938	-32.94
292.153	118.61
292.368	22.36
292.583	85.84
292.798	22.36
293.012	40.79
293.227	51.03
293.442	8.02
293.657	38.74
293.871	163.67
294.086	94.04
294.301	210.77
294.516	190.29
294.73	55.12
294.945	-43.18
295.16	-0.17
295.374	81.75
295.589	102.23
295.804	-24.75
296.018	65.36
296.233	132.95
296.447	91.99
296.662	-14.51
296.877	100.18
297.091	63.32
297.306	67.41
297.52	22.36
297.735	32.6
297.949	151.38
298.164	24.4
298.378	87.89
298.593	-77.99
298.807	-10.41
299.022	-2.22
299.236	112.47
299.451	32.6
299.665	-0.17
299.88	69.46
300.094	114.52
300.309	81.75
300.523	102.23
300.737	32.6
300.952	79.7
301.166	59.22
301.381	-8.36
301.595	38.74
301.809	53.08
302.024	67.41
302.238	-16.55
302.452	149.33
302.667	44.88
302.881	104.28
303.095	135
303.309	42.84
303.524	122.71
303.738	137.04
303.952	-24.75
304.166	104.28
304.381	-34.99
304.595	169.81
304.809	59.22
305.023	98.13
305.237	36.69
305.452	32.6
305.666	81.75
305.88	61.27
306.094	106.32
306.308	155.47
306.522	71.51
306.736	53.08
306.95	73.56
307.164	18.26
307.379	34.64
307.593	186.19
307.807	182.1
308.021	145.24
308.235	73.56
308.449	-123.05
308.663	30.55
308.877	233.3
309.091	102.23
309.305	91.99
309.519	-20.65
309.733	118.61
309.947	-80.04
310.161	-37.03
310.374	36.69
310.588	75.6
310.802	-86.19
311.016	-16.55
311.23	141.14
311.444	-0.17
311.658	61.27
311.872	147.28
312.085	157.52
312.299	118.61
312.513	139.09
312.727	67.41
312.941	8.02
313.154	96.08
313.368	-2.22
313.582	81.75
313.796	22.36
314.009	65.36
314.223	161.62
314.437	65.36
314.651	85.84
314.864	-8.36
315.078	8.02
315.292	-112.81
315.505	16.21
315.719	89.94
315.933	112.47
316.146	73.56
316.36	-28.84
316.573	116.56
316.787	79.7
317.001	83.8
317.214	-65.71
317.428	36.69
317.641	53.08
317.855	-24.75
318.068	51.03
318.282	83.8
318.495	200.53
318.709	71.51
318.922	65.36
319.136	182.1
319.349	106.32
319.563	16.21
319.776	85.84
319.99	-108.71
320.203	96.08
320.417	65.36
320.63	79.7
320.843	159.57
321.057	116.56
321.27	12.12
321.483	114.52
321.697	231.25
321.91	44.88
322.124	102.23
322.337	24.4
322.55	-45.23
322.763	73.56
322.977	118.61
323.19	14.17
323.403	57.17
323.617	91.99
323.83	104.28
324.043	30.55
324.256	42.84
324.469	-77.99
324.683	114.52
324.896	1.88
325.109	94.04
325.322	-24.75
325.535	137.04
325.748	94.04
325.962	-2.22
326.175	38.74
326.388	-8.36
326.601	206.67
326.814	36.69
327.027	77.65
327.24	175.95
327.453	-28.84
327.666	57.17
327.879	128.85
328.092	96.08
328.305	73.56
328.518	-6.31
328.731	24.4
328.944	61.27
329.157	98.13
329.37	-10.41
329.583	200.53
329.796	143.19
330.009	-34.99
330.222	120.66
330.435	100.18
330.648	65.36
330.861	8.02
331.073	44.88
331.286	143.19
331.499	81.75
331.712	48.98
331.925	57.17
332.138	96.08
332.35	87.89
332.563	-24.75
332.776	128.85
332.989	-8.36
333.202	36.69
333.414	65.36
333.627	89.94
333.84	48.98
334.053	24.4
334.265	38.74
334.478	24.4
334.691	42.84
334.903	48.98
335.116	-18.6
335.329	53.08
335.541	159.57
335.754	137.04
335.966	57.17
336.179	1.88
336.392	42.84
336.604	-10.41
336.817	139.09
337.029	114.52
337.242	106.32
337.454	34.64
337.667	75.6
337.88	186.19
338.092	91.99
338.305	91.99
338.517	-41.13
338.729	55.12
338.942	112.47
339.154	-43.18
339.367	-14.51
339.579	73.56
339.792	-10.41
340.004	83.8
340.217	57.17
340.429	69.46
340.641	-41.13
340.854	-34.99
341.066	65.36
341.278	202.58
341.491	237.39
341.703	24.4
341.915	-34.99
342.128	94.04
342.34	83.8
342.552	-8.36
342.764	36.69
342.977	5.97
343.189	100.18
343.401	46.93
343.613	-24.75
343.826	42.84
344.038	-49.32
344.25	77.65
344.462	-26.79
344.674	51.03
344.886	48.98
345.099	20.31
345.311	5.97
345.523	40.79
345.735	-67.75
345.947	83.8
346.159	104.28
346.371	40.79
346.583	51.03
346.795	124.76
347.007	18.26
347.219	40.79
347.431	-2.22
347.643	106.32
347.855	16.21
348.067	159.57
348.279	-18.6
348.491	61.27
348.703	100.18
348.915	48.98
349.127	30.55
349.339	38.74
349.551	34.64
349.763	130.9
349.975	46.93
350.187	8.02
350.399	157.52
350.61	55.12
350.822	46.93
351.034	26.45
351.246	57.17
351.458	145.24
351.669	53.08
351.881	79.7
352.093	130.9
352.305	130.9
352.517	57.17
352.728	77.65
352.94	132.95
353.152	124.76
353.363	-24.75
353.575	96.08
353.787	116.56
353.999	28.5
354.21	151.38
354.422	32.6
354.633	-55.47
354.845	53.08
355.057	48.98
355.268	48.98
355.48	73.56
355.692	-6.31
355.903	-77.99
356.115	-77.99
356.326	-100.52
356.538	139.09
356.749	48.98
356.961	151.38
357.172	159.57
357.384	-0.17
357.595	212.82
357.807	-20.65
358.018	10.07
358.23	-0.17
358.441	157.52
358.653	130.9
358.864	-41.13
359.075	5.97
359.287	10.07
359.498	153.43
359.709	89.94
359.921	32.6
360.132	112.47
360.344	51.03
360.555	-0.17
360.766	48.98
360.977	30.55
361.189	184.15
361.4	44.88
361.611	114.52
361.823	8.02
362.034	108.37
362.245	-80.04
362.456	139.09
362.667	124.76
362.879	-6.31
363.09	83.8
363.301	89.94
363.512	-10.41
363.723	-0.17
363.935	28.5
364.146	77.65
364.357	-26.79
364.568	71.51
364.779	-100.52
364.99	173.91
365.201	24.4
365.412	85.84
365.623	-12.46
365.834	120.66
366.045	114.52
366.256	173.91
366.467	71.51
366.678	16.21
366.889	-12.46
367.1	30.55
367.311	102.23
367.522	40.79
367.733	100.18
367.944	112.47
368.155	36.69
368.366	87.89
368.577	221.01
368.788	169.81
368.999	-26.79
369.209	69.46
369.42	165.71
369.631	247.63
369.842	59.22
370.053	69.46
370.264	55.12
370.474	-45.23
370.685	87.89
370.896	42.84
371.107	124.76
371.317	53.08
371.528	22.36
371.739	96.08
371.95	102.23
372.16	94.04
372.371	-49.32
372.582	44.88
372.792	48.98
373.003	159.57
373.214	69.46
373.424	145.24
373.635	-28.84
373.846	112.47
374.056	42.84
374.267	153.43
374.477	38.74
374.688	-16.55
374.898	77.65
375.109	51.03
375.319	59.22
375.53	116.56
375.74	122.71
375.951	1.88
376.161	165.71
376.372	89.94
376.582	89.94
376.793	124.76
377.003	3.93
377.214	-12.46
377.424	135
377.635	59.22
377.845	-2.22
378.055	161.62
378.266	-41.13
378.476	85.84
378.686	85.84
378.897	79.7
379.107	120.66
379.317	87.89
379.528	26.45
379.738	34.64
379.948	-20.65
380.158	139.09
380.369	16.21
380.579	38.74
380.789	3.93
380.999	14.17
381.21	63.32
381.42	122.71
381.63	22.36
381.84	155.47
382.05	96.08
382.261	73.56
382.471	163.67
382.681	-28.84
382.891	212.82
383.101	218.96
383.311	-53.42
383.521	-14.51
383.731	-14.51
383.941	151.38
384.151	106.32
384.361	59.22
384.571	87.89
384.781	10.07
384.991	237.39
385.201	243.54
385.411	147.28
385.621	87.89
385.831	102.23
386.041	59.22
386.251	3.93
386.461	110.42
386.671	18.26
386.881	83.8
387.091	18.26
387.301	69.46
387.511	79.7
387.72	51.03
387.93	173.91
388.14	-47.27
388.35	55.12
388.56	65.36
388.769	63.32
388.979	32.6
389.189	10.07
389.399	30.55
389.609	83.8
389.818	104.28
390.028	16.21
390.238	128.85
390.447	-18.6
390.657	10.07
390.867	5.97
391.076	-24.75
391.286	85.84
391.496	-18.6
391.705	40.79
391.915	167.76
392.125	73.56
392.334	28.5
392.544	202.58
392.753	18.26
392.963	-2.22
393.172	71.51
393.382	-49.32
393.591	165.71
393.801	12.12
394.01	237.39
394.22	110.42
394.429	1.88
394.639	48.98
394.848	85.84
395.058	112.47
395.267	85.84
395.477	94.04
395.686	100.18
395.895	190.29
396.105	208.72
396.314	110.42
396.524	55.12
396.733	69.46
396.942	155.47
397.152	40.79
397.361	143.19
397.57	44.88
397.78	46.93
397.989	36.69
398.198	221.01
398.407	130.9
398.617	26.45
398.826	36.69
399.035	85.84
399.244	155.47
399.453	46.93
399.663	46.93
399.872	20.31
400.081	1.88
400.29	128.85
400.499	3.93
400.708	75.6
400.917	104.28
401.127	22.36
401.336	46.93
401.545	247.63
401.754	225.11
401.963	153.43
402.172	61.27
402.381	-32.94
402.59	40.79
402.799	24.4
403.008	48.98
403.217	5.97
403.426	141.14
403.635	-43.18
403.844	59.22
404.053	-2.22
404.262	59.22
404.471	137.04
404.68	69.46
404.888	26.45
405.097	65.36
405.306	118.61
405.515	85.84
405.724	79.7
405.933	100.18
406.142	167.76
406.35	149.33
406.559	112.47
406.768	42.84
406.977	143.19
407.185	120.66
407.394	91.99
407.603	94.04
407.812	34.64
408.02	63.32
408.229	26.45
408.438	16.21
408.646	-41.13
408.855	36.69
409.064	104.28
409.272	20.31
409.481	104.28
409.69	-26.79
409.898	-43.18
410.107	18.26
410.315	77.65
410.524	65.36
410.733	10.07
410.941	34.64
411.15	178
411.358	59.22
411.567	108.37
411.775	53.08
411.984	38.74
412.192	42.84
412.401	-20.65
412.609	184.15
412.818	53.08
413.026	98.13
413.234	75.6
413.443	89.94
413.651	46.93
413.86	77.65
414.068	114.52
414.276	128.85
414.485	22.36
414.693	186.19
414.901	137.04
415.11	116.56
415.318	18.26
415.526	55.12
415.734	137.04
415.943	34.64
416.151	137.04
416.359	65.36
416.567	26.45
416.776	112.47
416.984	194.39
417.192	171.86
417.4	10.07
417.608	61.27
417.817	-24.75
418.025	73.56
418.233	178
418.441	32.6
418.649	-57.51
418.857	46.93
419.065	173.91
419.273	48.98
419.481	65.36
419.689	59.22
419.897	38.74
420.105	40.79
420.313	51.03
420.521	225.11
420.729	182.1
420.937	-8.36
421.145	94.04
421.353	161.62
421.561	143.19
421.769	94.04
421.977	48.98
422.185	135
422.393	48.98
422.601	141.14
422.809	8.02
423.017	63.32
423.224	63.32
423.432	175.95
423.64	89.94
423.848	100.18
424.056	-16.55
424.263	114.52
424.471	69.46
424.679	145.24
424.887	46.93
425.094	163.67
425.302	151.38
425.51	102.23
425.718	159.57
425.925	77.65
426.133	14.17
426.341	147.28
426.548	124.76
426.756	40.79
426.964	83.8
427.171	-30.89
427.379	96.08
427.586	145.24
427.794	75.6
428.001	231.25
428.209	85.84
428.417	208.72
428.624	188.24
428.832	165.71
429.039	108.37
429.247	145.24
429.454	167.76
429.662	290.64
429.869	147.28
430.076	212.82
430.284	204.63
430.491	212.82
430.699	196.43
430.906	249.68
431.114	135
431.321	165.71
431.528	122.71
431.736	196.43
431.943	145.24
432.15	200.53
432.358	153.43
432.565	243.54
432.772	42.84
432.979	288.59
433.187	104.28
433.394	233.3
433.601	120.66
433.808	264.02
434.016	235.35
434.223	235.35
434.43	241.49
434.637	282.45
434.844	194.39
435.052	204.63
435.259	257.87
435.466	276.31
435.673	321.36
435.88	325.46
436.087	372.56
436.294	390.99
436.501	343.89
436.708	270.16
436.915	315.22
437.122	425.81
437.329	309.07
437.537	325.46
437.743	339.79
437.95	485.2
438.157	425.81
438.364	442.19
438.571	438.09
438.778	395.09
438.985	458.57
439.192	540.49
439.399	511.82
439.606	548.68
439.813	552.78
440.02	692.04
440.227	687.95
440.433	581.45
440.64	511.82
440.847	610.12
441.054	587.6
441.261	720.71
441.467	696.14
441.674	692.04
441.881	751.43
442.088	667.47
442.294	761.67
442.501	814.92
442.708	874.31
442.914	835.4
443.121	892.74
443.328	868.17
443.534	1007.43
443.741	909.13
443.948	900.94
444.154	997.19
444.361	1183.56
444.568	1027.91
444.774	1075.01
444.981	1093.44
445.187	1275.71
445.394	1292.1
445.6	1292.1
445.807	1349.44
446.013	1306.43
446.22	1341.25
446.426	1507.13
446.633	1630.01
446.839	1752.89
447.046	1554.24
447.252	1662.78
447.459	1754.94
447.665	1746.75
447.871	1912.63
448.078	2055.99
448.284	1914.68
448.491	1996.6
448.697	2076.47
448.903	2279.22
449.11	2201.4
449.316	2316.08
449.522	2524.97
449.728	2598.7
449.935	2711.34
450.141	2731.82
450.347	2844.46
450.553	2834.22
450.76	3039.01
450.966	3137.32
451.172	3223.33
451.378	3276.58
451.584	3354.4
451.791	3657.5
451.997	3671.84
452.203	3776.28
452.409	4106.01
452.615	4163.35
452.821	3852.06
453.027	4087.57
453.233	4605.71
453.44	4335.38
453.646	4718.35
453.852	4890.38
454.058	5039.88
454.264	5291.78
454.47	5654.27
454.676	5797.63
454.882	5957.37
455.088	5826.3
455.294	6213.37
455.5	6592.24
455.705	6901.48
455.911	6940.4
456.117	7028.46
456.323	7302.89
456.529	7524.07
456.735	8064.73
456.941	8314.58
457.147	8406.74
457.352	8771.28
457.558	9023.18
457.764	9602.75
457.97	10008.25
458.176	10157.75
458.381	10757.81
458.587	10700.47
458.793	11370.15
458.999	11503.27
459.204	13000.33
459.41	13381.26
459.616	13186.7
459.821	13813.38
460.027	14501.5
460.233	15251.05
460.438	15298.16
460.644	15816.29
460.85	16408.15
461.055	16873.04
461.261	17800.77
461.466	17184.34
461.672	17638.98
461.878	19922.47
462.083	19664.43
462.289	20092.45
462.494	20510.24
462.7	20934.17
462.905	21274.13
463.111	22875.64
463.316	23920.1
463.522	24462.82
463.727	25134.55
463.932	26121.67
464.138	26877.37
464.343	28198.31
464.549	28071.34
464.754	30250.38
464.959	30889.34
465.165	31645.04
465.37	31104.38
465.575	31057.28
465.781	33555.8
465.986	34401.61
466.191	33819.99
466.397	34264.39
466.602	33461.59
466.807	35489.08
467.012	35874.1
467.218	36341.03
467.423	36463.91
467.628	37524.76
467.833	39419.13
468.038	38585.61
468.244	37868.82
468.449	40242.42
468.654	39433.47
