Data from USB4F104151__284__11-21-00-615.txt Node

Date: Wed Feb 26 11:21:00 EST 2025
User: louis
Spectrometer: USB4F10415
Trigger mode: 4
Integration Time (sec): 1.000000E-1
Scans to average: 1
Electric dark correction enabled: true
Nonlinearity correction enabled: false
Boxcar width: 0
XAxis mode: Wavelengths
Number of Pixels in Spectrum: 3648
>>>>>Begin Spectral Data<<<<<
178.204	-359.76
178.424	-359.76
178.644	-359.76
178.864	-394.58
179.084	-413.01
179.304	-60.76
179.524	12.97
179.744	92.84
179.964	-11.61
180.184	37.55
180.404	43.69
180.624	-73.04
180.844	-54.61
181.064	-54.61
181.283	43.69
181.503	-15.7
181.723	39.59
181.943	-40.28
182.163	201.38
182.383	-30.04
182.602	107.18
182.822	92.84
183.042	35.5
183.262	-19.8
183.482	-46.42
183.701	86.7
183.921	82.6
184.141	-77.14
184.361	90.79
184.58	8.87
184.8	68.27
185.02	8.87
185.239	6.83
185.459	103.08
185.679	96.94
185.898	-179.54
186.118	4.78
186.338	60.07
186.557	135.85
186.777	-3.41
186.997	-25.94
187.216	107.18
187.436	252.58
187.655	74.41
187.875	129.7
188.095	139.94
188.314	117.42
188.534	49.83
188.753	-27.99
188.973	86.7
189.192	252.58
189.412	72.36
189.631	53.93
189.851	-3.41
190.07	203.43
190.29	-52.56
190.509	-91.48
190.729	21.16
190.948	168.62
191.168	279.21
191.387	101.03
191.607	-9.56
191.826	74.41
192.045	39.59
192.265	-3.41
192.484	19.11
192.704	-13.65
192.923	-17.75
193.142	139.94
193.362	70.31
193.581	109.23
193.8	84.65
194.02	70.31
194.239	45.74
194.458	107.18
194.678	-46.42
194.897	-19.8
195.116	35.5
195.335	53.93
195.555	-38.23
195.774	43.69
195.993	90.79
196.212	0.68
196.432	55.98
196.651	-13.65
196.87	92.84
197.089	305.83
197.308	90.79
197.528	-5.46
197.747	-23.89
197.966	68.27
198.185	160.42
198.404	-15.7
198.623	115.37
198.842	68.27
199.062	78.51
199.281	164.52
199.5	23.21
199.719	35.5
199.938	-11.61
200.157	45.74
200.376	129.7
200.595	86.7
200.814	70.31
201.033	-42.32
201.252	107.18
201.471	23.21
201.69	96.94
201.909	31.4
202.128	78.51
202.347	111.27
202.566	25.26
202.785	-111.96
203.004	-120.15
203.223	307.88
203.442	90.79
203.661	-7.51
203.879	72.36
204.098	127.66
204.317	-5.46
204.536	53.93
204.755	8.87
204.974	164.52
205.193	-30.04
205.411	139.94
205.63	66.22
205.849	84.65
206.068	82.6
206.287	0.68
206.505	123.56
206.724	43.69
206.943	-52.56
207.162	-9.56
207.381	15.02
207.599	39.59
207.818	51.88
208.037	-73.04
208.255	10.92
208.474	64.17
208.693	55.98
208.911	-52.56
209.13	123.56
209.349	88.75
209.567	129.7
209.786	148.14
210.005	154.28
210.223	31.4
210.442	-116.05
210.661	19.11
210.879	191.14
211.098	-58.71
211.316	119.46
211.535	117.42
211.753	-11.61
211.972	47.79
212.191	21.16
212.409	31.4
212.628	178.86
212.846	4.78
213.065	82.6
213.283	119.46
213.502	45.74
213.72	4.78
213.938	60.07
214.157	-36.18
214.375	78.51
214.594	41.64
214.812	154.28
215.031	-64.85
215.249	35.5
215.467	19.11
215.686	27.31
215.904	101.03
216.122	78.51
216.341	170.66
216.559	-21.84
216.778	58.03
216.996	123.56
217.214	86.7
217.432	12.97
217.651	-9.56
217.869	49.83
218.087	4.78
218.306	25.26
218.524	146.09
218.742	12.97
218.96	45.74
219.179	53.93
219.397	53.93
219.615	193.19
219.833	113.32
220.051	-60.76
220.27	64.17
220.488	170.66
220.706	148.14
220.924	-73.04
221.142	-79.19
221.36	113.32
221.578	12.97
221.796	60.07
222.015	119.46
222.233	90.79
222.451	152.23
222.669	-27.99
222.887	70.31
223.105	-21.84
223.323	37.55
223.541	6.83
223.759	101.03
223.977	10.92
224.195	232.1
224.413	64.17
224.631	55.98
224.849	23.21
225.067	189.1
225.285	-27.99
225.503	45.74
225.721	-23.89
225.939	33.45
226.157	21.16
226.375	230.06
226.592	8.87
226.81	-21.84
227.028	191.14
227.246	84.65
227.464	82.6
227.682	55.98
227.9	98.99
228.117	6.83
228.335	37.55
228.553	45.74
228.771	10.92
228.989	78.51
229.206	96.94
229.424	41.64
229.642	78.51
229.86	-60.76
230.077	121.51
230.295	60.07
230.513	180.9
230.731	35.5
230.948	213.67
231.166	156.33
231.384	82.6
231.601	-32.08
231.819	162.47
232.037	-3.41
232.254	-21.84
232.472	41.64
232.689	-30.04
232.907	125.61
233.125	-5.46
233.342	4.78
233.56	-11.61
233.777	2.73
233.995	115.37
234.213	135.85
234.43	135.85
234.648	-9.56
234.865	17.07
235.083	55.98
235.3	15.02
235.518	76.46
235.735	176.81
235.953	119.46
236.17	6.83
236.388	76.46
236.605	17.07
236.822	162.47
237.04	119.46
237.257	76.46
237.475	-64.85
237.692	117.42
237.909	88.75
238.127	-48.47
238.344	51.88
238.562	45.74
238.779	6.83
238.996	-44.37
239.214	49.83
239.431	105.13
239.648	62.12
239.865	101.03
240.083	-1.37
240.3	23.21
240.517	45.74
240.735	-3.41
240.952	164.52
241.169	84.65
241.386	58.03
241.603	17.07
241.821	-75.09
242.038	74.41
242.255	125.61
242.472	-11.61
242.689	88.75
242.907	27.31
243.124	101.03
243.341	-7.51
243.558	-23.89
243.775	-3.41
243.992	-25.94
244.209	90.79
244.426	199.34
244.643	49.83
244.86	-13.65
245.078	78.51
245.295	55.98
245.512	25.26
245.729	8.87
245.946	41.64
246.163	80.55
246.38	51.88
246.597	64.17
246.814	-7.51
247.031	-27.99
247.248	29.35
247.464	25.26
247.681	-34.13
247.898	60.07
248.115	84.65
248.332	25.26
248.549	107.18
248.766	109.23
248.983	78.51
249.2	160.42
249.417	125.61
249.633	37.55
249.85	58.03
250.067	62.12
250.284	45.74
250.501	82.6
250.717	51.88
250.934	-44.37
251.151	12.97
251.368	27.31
251.585	-21.84
251.801	35.5
252.018	-25.94
252.235	78.51
252.451	-27.99
252.668	-3.41
252.885	115.37
253.102	76.46
253.318	21.16
253.535	62.12
253.752	-30.04
253.968	45.74
254.185	-87.38
254.401	10.92
254.618	121.51
254.835	53.93
255.051	76.46
255.268	90.79
255.484	105.13
255.701	27.31
255.917	37.55
256.134	-15.7
256.351	74.41
256.567	-46.42
256.784	-17.75
257	-46.42
257.217	92.84
257.433	117.42
257.65	17.07
257.866	139.94
258.082	31.4
258.299	-75.09
258.515	2.73
258.732	-15.7
258.948	-23.89
259.165	62.12
259.381	-93.52
259.597	117.42
259.814	33.45
260.03	-48.47
260.246	-13.65
260.463	144.04
260.679	82.6
260.895	96.94
261.112	62.12
261.328	-91.48
261.544	-3.41
261.761	176.81
261.977	-85.33
262.193	10.92
262.409	72.36
262.626	92.84
262.842	-13.65
263.058	62.12
263.274	131.75
263.49	12.97
263.707	193.19
263.923	94.89
264.139	-50.52
264.355	74.41
264.571	119.46
264.787	58.03
265.004	92.84
265.22	2.73
265.436	-5.46
265.652	-1.37
265.868	113.32
266.084	-13.65
266.3	60.07
266.516	-19.8
266.732	-21.84
266.948	43.69
267.164	23.21
267.38	45.74
267.596	92.84
267.812	133.8
268.028	82.6
268.244	-50.52
268.46	-15.7
268.676	-3.41
268.892	103.08
269.108	-42.32
269.324	-13.65
269.54	-50.52
269.756	86.7
269.972	-54.61
270.188	25.26
270.403	-36.18
270.619	37.55
270.835	82.6
271.051	19.11
271.267	55.98
271.483	-15.7
271.698	129.7
271.914	-1.37
272.13	70.31
272.346	37.55
272.562	86.7
272.777	109.23
272.993	51.88
273.209	2.73
273.425	62.12
273.64	-56.66
273.856	103.08
274.072	68.27
274.287	-19.8
274.503	82.6
274.719	121.51
274.934	53.93
275.15	-105.81
275.366	53.93
275.581	21.16
275.797	55.98
276.012	113.32
276.228	27.31
276.444	119.46
276.659	84.65
276.875	-40.28
277.09	-1.37
277.306	64.17
277.521	137.9
277.737	15.02
277.952	115.37
278.168	96.94
278.383	-5.46
278.599	144.04
278.814	29.35
279.03	-25.94
279.245	113.32
279.461	60.07
279.676	66.22
279.892	-9.56
280.107	-85.33
280.322	-15.7
280.538	64.17
280.753	-30.04
280.969	37.55
281.184	49.83
281.399	150.18
281.615	88.75
281.83	12.97
282.045	-73.04
282.26	-44.37
282.476	23.21
282.691	90.79
282.906	55.98
283.122	80.55
283.337	47.79
283.552	88.75
283.767	45.74
283.983	148.14
284.198	113.32
284.413	64.17
284.628	-136.53
284.843	17.07
285.058	148.14
285.274	62.12
285.489	-44.37
285.704	88.75
285.919	0.68
286.134	6.83
286.349	45.74
286.564	-85.33
286.779	139.94
286.995	84.65
287.21	-89.43
287.425	70.31
287.64	21.16
287.855	33.45
288.07	-97.62
288.285	148.14
288.5	164.52
288.715	51.88
288.93	39.59
289.145	-3.41
289.36	94.89
289.575	-5.46
289.79	187.05
290.004	55.98
290.219	117.42
290.434	-5.46
290.649	74.41
290.864	0.68
291.079	70.31
291.294	129.7
291.509	156.33
291.724	49.83
291.938	37.55
292.153	58.03
292.368	-3.41
292.583	66.22
292.798	160.42
293.012	74.41
293.227	84.65
293.442	10.92
293.657	88.75
293.871	144.04
294.086	115.37
294.301	172.71
294.516	113.32
294.73	-21.84
294.945	-17.75
295.16	35.5
295.374	141.99
295.589	107.18
295.804	15.02
296.018	2.73
296.233	117.42
296.447	23.21
296.662	0.68
296.877	148.14
297.091	84.65
297.306	70.31
297.52	98.99
297.735	29.35
297.949	-17.75
298.164	76.46
298.378	12.97
298.593	33.45
298.807	12.97
299.022	-5.46
299.236	199.34
299.451	-11.61
299.665	51.88
299.88	17.07
300.094	90.79
300.309	74.41
300.523	-44.37
300.737	-21.84
300.952	82.6
301.166	123.56
301.381	-21.84
301.595	21.16
301.809	47.79
302.024	-38.23
302.238	-21.84
302.452	178.86
302.667	35.5
302.881	80.55
303.095	88.75
303.309	-42.32
303.524	4.78
303.738	119.46
303.952	2.73
304.166	2.73
304.381	-83.28
304.595	178.86
304.809	-13.65
305.023	12.97
305.237	45.74
305.452	29.35
305.666	19.11
305.88	55.98
306.094	72.36
306.308	80.55
306.522	58.03
306.736	21.16
306.95	125.61
307.164	-71
307.379	62.12
307.593	162.47
307.807	199.34
308.021	146.09
308.235	84.65
308.449	-109.91
308.663	35.5
308.877	185
309.091	-1.37
309.305	43.69
309.519	-85.33
309.733	88.75
309.947	-71
310.161	125.61
310.374	119.46
310.588	66.22
310.802	2.73
311.016	8.87
311.23	123.56
311.444	19.11
311.658	-9.56
311.872	82.6
312.085	107.18
312.299	141.99
312.513	74.41
312.727	-3.41
312.941	-25.94
313.154	58.03
313.368	37.55
313.582	60.07
313.796	92.84
314.009	-25.94
314.223	121.51
314.437	107.18
314.651	92.84
314.864	72.36
315.078	43.69
315.292	43.69
315.505	-9.56
315.719	25.26
315.933	101.03
316.146	135.85
316.36	-73.04
316.573	127.66
316.787	90.79
317.001	55.98
317.214	-38.23
317.428	156.33
317.641	-56.66
317.855	43.69
318.068	58.03
318.282	58.03
318.495	168.62
318.709	82.6
318.922	35.5
319.136	156.33
319.349	92.84
319.563	-5.46
319.776	70.31
319.99	-13.65
320.203	72.36
320.417	62.12
320.63	88.75
320.843	283.3
321.057	64.17
321.27	-13.65
321.483	64.17
321.697	156.33
321.91	55.98
322.124	60.07
322.337	51.88
322.55	58.03
322.763	6.83
322.977	19.11
323.19	-103.76
323.403	0.68
323.617	68.27
323.83	96.94
324.043	53.93
324.256	90.79
324.469	-7.51
324.683	45.74
324.896	41.64
325.109	10.92
325.322	-34.13
325.535	43.69
325.748	111.27
325.962	47.79
326.175	-1.37
326.388	-30.04
326.601	135.85
326.814	-91.48
327.027	55.98
327.24	166.57
327.453	-60.76
327.666	98.99
327.879	146.09
328.092	45.74
328.305	98.99
328.518	10.92
328.731	10.92
328.944	29.35
329.157	82.6
329.37	-27.99
329.583	127.66
329.796	101.03
330.009	-73.04
330.222	60.07
330.435	105.13
330.648	39.59
330.861	58.03
331.073	152.23
331.286	74.41
331.499	92.84
331.712	-30.04
331.925	12.97
332.138	41.64
332.35	119.46
332.563	-38.23
332.776	137.9
332.989	2.73
333.202	-44.37
333.414	6.83
333.627	33.45
333.84	62.12
334.053	49.83
334.265	-19.8
334.478	23.21
334.691	35.5
334.903	62.12
335.116	-1.37
335.329	49.83
335.541	88.75
335.754	117.42
335.966	60.07
336.179	60.07
336.392	15.02
336.604	76.46
336.817	154.28
337.029	60.07
337.242	31.4
337.454	82.6
337.667	88.75
337.88	111.27
338.092	-3.41
338.305	121.51
338.517	-1.37
338.729	156.33
338.942	170.66
339.154	-19.8
339.367	-30.04
339.579	109.23
339.792	-62.8
340.004	62.12
340.217	25.26
340.429	58.03
340.641	-7.51
340.854	-3.41
341.066	76.46
341.278	109.23
341.491	133.8
341.703	109.23
341.915	-9.56
342.128	107.18
342.34	39.59
342.552	47.79
342.764	21.16
342.977	90.79
343.189	98.99
343.401	39.59
343.613	-50.52
343.826	33.45
344.038	-21.84
344.25	21.16
344.462	-1.37
344.674	60.07
344.886	-34.13
345.099	113.32
345.311	103.08
345.523	15.02
345.735	8.87
345.947	41.64
346.159	74.41
346.371	-27.99
346.583	23.21
346.795	166.57
347.007	94.89
347.219	135.85
347.431	70.31
347.643	162.47
347.855	15.02
348.067	117.42
348.279	-38.23
348.491	39.59
348.703	90.79
348.915	70.31
349.127	-48.47
349.339	62.12
349.551	-23.89
349.763	94.89
349.975	-17.75
350.187	90.79
350.399	189.1
350.61	115.37
350.822	25.26
351.034	-13.65
351.246	82.6
351.458	111.27
351.669	109.23
351.881	68.27
352.093	139.94
352.305	174.76
352.517	70.31
352.728	117.42
352.94	47.79
353.152	51.88
353.363	27.31
353.575	49.83
353.787	197.29
353.999	92.84
354.21	170.66
354.422	-1.37
354.633	49.83
354.845	39.59
355.057	-9.56
355.268	21.16
355.48	135.85
355.692	-81.24
355.903	74.41
356.115	37.55
356.326	-79.19
356.538	115.37
356.749	72.36
356.961	58.03
357.172	6.83
357.384	-21.84
357.595	271.01
357.807	-48.47
358.018	-7.51
358.23	-17.75
358.441	131.75
358.653	21.16
358.864	-15.7
359.075	-38.23
359.287	107.18
359.498	113.32
359.709	23.21
359.921	35.5
360.132	107.18
360.344	80.55
360.555	-32.08
360.766	82.6
360.977	10.92
361.189	105.13
361.4	12.97
361.611	125.61
361.823	84.65
362.034	33.45
362.245	-97.62
362.456	37.55
362.667	86.7
362.879	-50.52
363.09	111.27
363.301	29.35
363.512	-23.89
363.723	23.21
363.935	27.31
364.146	96.94
364.357	17.07
364.568	80.55
364.779	-77.14
364.99	154.28
365.201	-99.67
365.412	72.36
365.623	-73.04
365.834	29.35
366.045	72.36
366.256	62.12
366.467	119.46
366.678	21.16
366.889	86.7
367.1	49.83
367.311	105.13
367.522	45.74
367.733	78.51
367.944	53.93
368.155	66.22
368.366	43.69
368.577	103.08
368.788	119.46
368.999	-5.46
369.209	72.36
369.42	260.77
369.631	203.43
369.842	96.94
370.053	-1.37
370.264	139.94
370.474	-21.84
370.685	10.92
370.896	84.65
371.107	113.32
371.317	53.93
371.528	58.03
371.739	185
371.95	19.11
372.16	39.59
372.371	33.45
372.582	-23.89
372.792	-11.61
373.003	47.79
373.214	115.37
373.424	115.37
373.635	-15.7
373.846	68.27
374.056	47.79
374.267	51.88
374.477	139.94
374.688	19.11
374.898	164.52
375.109	82.6
375.319	53.93
375.53	121.51
375.74	64.17
375.951	39.59
376.161	12.97
376.372	96.94
376.582	-42.32
376.793	117.42
377.003	-73.04
377.214	15.02
377.424	103.08
377.635	76.46
377.845	-38.23
378.055	96.94
378.266	-60.76
378.476	66.22
378.686	41.64
378.897	-7.51
379.107	98.99
379.317	8.87
379.528	-50.52
379.738	125.61
379.948	10.92
380.158	127.66
380.369	82.6
380.579	37.55
380.789	23.21
380.999	82.6
381.21	109.23
381.42	219.82
381.63	4.78
381.84	76.46
382.05	-11.61
382.261	55.98
382.471	109.23
382.681	-3.41
382.891	148.14
383.101	78.51
383.311	-66.9
383.521	-23.89
383.731	111.27
383.941	51.88
384.151	49.83
384.361	92.84
384.571	17.07
384.781	131.75
384.991	195.24
385.201	254.63
385.411	154.28
385.621	62.12
385.831	31.4
386.041	141.99
386.251	6.83
386.461	70.31
386.671	78.51
386.881	45.74
387.091	41.64
387.301	84.65
387.511	45.74
387.72	84.65
387.93	148.14
388.14	-19.8
388.35	98.99
388.56	66.22
388.769	58.03
388.979	23.21
389.189	37.55
389.399	53.93
389.609	109.23
389.818	156.33
390.028	43.69
390.238	107.18
390.447	37.55
390.657	90.79
390.867	21.16
391.076	-36.18
391.286	76.46
391.496	74.41
391.705	74.41
391.915	182.95
392.125	123.56
392.334	68.27
392.544	160.42
392.753	90.79
392.963	2.73
393.172	25.26
393.382	51.88
393.591	215.72
393.801	41.64
394.01	119.46
394.22	123.56
394.429	12.97
394.639	51.88
394.848	29.35
395.058	115.37
395.267	15.02
395.477	115.37
395.686	60.07
395.895	199.34
396.105	211.62
396.314	88.75
396.524	12.97
396.733	-42.32
396.942	80.55
397.152	51.88
397.361	127.66
397.57	86.7
397.78	10.92
397.989	43.69
398.198	185
398.407	78.51
398.617	119.46
398.826	35.5
399.035	-9.56
399.244	121.51
399.453	41.64
399.663	33.45
399.872	84.65
400.081	4.78
400.29	150.18
400.499	-36.18
400.708	117.42
400.917	88.75
401.127	47.79
401.336	-50.52
401.545	277.16
401.754	129.7
401.963	90.79
402.172	-21.84
402.381	-15.7
402.59	29.35
402.799	19.11
403.008	27.31
403.217	78.51
403.426	68.27
403.635	10.92
403.844	58.03
404.053	98.99
404.262	8.87
404.471	230.06
404.68	109.23
404.888	27.31
405.097	86.7
405.306	35.5
405.515	17.07
405.724	49.83
405.933	109.23
406.142	88.75
406.35	164.52
406.559	41.64
406.768	88.75
406.977	144.04
407.185	115.37
407.394	113.32
407.603	17.07
407.812	31.4
408.02	180.9
408.229	60.07
408.438	111.27
408.646	39.59
408.855	58.03
409.064	105.13
409.272	-50.52
409.481	88.75
409.69	33.45
409.898	15.02
410.107	123.56
410.315	109.23
410.524	-42.32
410.733	96.94
410.941	45.74
411.15	174.76
411.358	41.64
411.567	74.41
411.775	47.79
411.984	129.7
412.192	55.98
412.401	58.03
412.609	154.28
412.818	137.9
413.026	66.22
413.234	86.7
413.443	53.93
413.651	-11.61
413.86	35.5
414.068	170.66
414.276	115.37
414.485	35.5
414.693	187.05
414.901	205.48
415.11	33.45
415.318	66.22
415.526	68.27
415.734	70.31
415.943	92.84
416.151	86.7
416.359	70.31
416.567	35.5
416.776	119.46
416.984	66.22
417.192	107.18
417.4	37.55
417.608	62.12
417.817	-11.61
418.025	96.94
418.233	90.79
418.441	37.55
418.649	-27.99
418.857	74.41
419.065	144.04
419.273	19.11
419.481	70.31
419.689	82.6
419.897	-17.75
420.105	41.64
420.313	156.33
420.521	154.28
420.729	236.2
420.937	21.16
421.145	-7.51
421.353	84.65
421.561	281.25
421.769	82.6
421.977	55.98
422.185	96.94
422.393	70.31
422.601	131.75
422.809	101.03
423.017	133.8
423.224	45.74
423.432	84.65
423.64	131.75
423.848	92.84
424.056	-13.65
424.263	111.27
424.471	74.41
424.679	217.77
424.887	39.59
425.094	193.19
425.302	127.66
425.51	29.35
425.718	98.99
425.925	111.27
426.133	49.83
426.341	299.69
426.548	70.31
426.756	41.64
426.964	53.93
427.171	15.02
427.379	60.07
427.586	141.99
427.794	139.94
428.001	111.27
428.209	111.27
428.417	144.04
428.624	86.7
428.832	105.13
429.039	209.58
429.247	66.22
429.454	115.37
429.662	230.06
429.869	166.57
430.076	80.55
430.284	135.85
430.491	219.82
430.699	197.29
430.906	174.76
431.114	228.01
431.321	105.13
431.528	150.18
431.736	225.96
431.943	160.42
432.15	209.58
432.358	225.96
432.565	289.45
432.772	86.7
432.979	234.15
433.187	111.27
433.394	225.96
433.601	109.23
433.808	293.54
434.016	228.01
434.223	250.53
434.43	250.53
434.637	346.79
434.844	324.26
435.052	154.28
435.259	297.64
435.466	389.8
435.673	365.22
435.88	314.02
436.087	381.6
436.294	395.94
436.501	397.99
436.708	281.25
436.915	365.22
437.122	406.18
437.329	330.41
437.537	336.55
437.743	404.13
437.95	471.72
438.157	498.34
438.364	512.67
438.571	443.04
438.778	467.62
438.985	518.82
439.192	492.2
439.399	465.57
439.606	539.3
439.813	617.12
440.02	649.89
440.227	813.73
440.433	639.65
440.64	623.27
440.847	594.59
441.054	621.22
441.261	860.83
441.467	795.29
441.674	737.95
441.881	801.44
442.088	819.87
442.294	864.93
442.501	1006.24
442.708	991.9
442.914	961.18
443.121	1000.09
443.328	1018.52
443.534	1079.96
443.741	1096.35
443.948	959.13
444.154	1127.07
444.361	1329.81
444.568	1104.54
444.774	1278.62
444.981	1274.52
445.187	1344.15
445.394	1372.82
445.6	1376.92
445.807	1573.52
446.013	1452.69
446.22	1520.28
446.426	1659.54
446.633	1759.89
446.839	2017.93
447.046	1735.31
447.252	1989.26
447.459	1966.73
447.665	2083.47
447.871	2118.28
448.078	2312.84
448.284	2245.26
448.491	2318.98
448.697	2534.02
448.903	2603.65
449.11	2650.75
449.316	2550.4
449.522	2851.46
449.728	2785.92
449.935	3046.01
450.141	3093.12
450.347	3134.07
450.553	3105.4
450.76	3254.9
450.966	3510.9
451.172	3658.35
451.378	3850.86
451.584	3711.6
451.791	3955.31
451.997	4121.2
452.203	4418.15
452.409	4528.74
452.615	4719.2
452.821	4358.76
453.027	4581.99
453.233	5233.24
453.44	5106.27
453.646	5196.38
453.852	5683.8
454.058	5739.09
454.264	5921.36
454.47	6275.66
454.676	6287.95
454.882	6857.28
455.088	6683.2
455.294	7125.57
455.5	7270.97
455.705	8012.34
455.911	7905.84
456.117	7854.64
456.323	8346.16
456.529	8354.35
456.735	9140.77
456.941	9302.56
457.147	9587.22
457.352	10041.87
457.558	10324.49
457.764	10881.54
457.97	11149.82
458.176	11573.75
458.381	12173.81
458.587	12354.03
458.793	13019.62
458.999	12761.58
459.204	14584.27
459.41	14928.33
459.616	14911.94
459.821	15774.14
460.027	16419.25
460.233	17129.89
460.438	17330.59
460.644	18530.7
460.85	18223.51
461.055	19022.22
461.261	19984.76
461.466	19579.26
461.672	19739.01
461.878	22452.56
462.083	22286.68
462.289	22743.38
462.494	23570.76
462.7	23826.75
462.905	24248.63
463.111	26155.29
463.316	27101.45
463.522	27537.67
463.727	28553.46
463.932	29892.83
464.138	30673.11
464.343	31742.15
464.549	32301.25
464.754	34101.41
464.959	35268.75
465.165	35907.72
465.37	35719.31
465.575	35369.1
465.781	37759.08
465.986	39346.26
466.191	38465.63
466.397	38830.17
466.602	37972.07
466.807	40155.21
467.012	40714.3
467.218	41334.84
467.423	41646.13
467.628	42813.47
467.833	45031.42
468.038	44046.35
468.244	43491.35
