Data from USB4F104151__241__11-06-35-213.txt Node

Date: Wed Feb 26 11:06:35 EST 2025
User: louis
Spectrometer: USB4F10415
Trigger mode: 4
Integration Time (sec): 1.000000E-1
Scans to average: 1
Electric dark correction enabled: true
Nonlinearity correction enabled: false
Boxcar width: 0
XAxis mode: Wavelengths
Number of Pixels in Spectrum: 3648
>>>>>Begin Spectral Data<<<<<
178.204	-383.82
178.424	-383.82
178.644	-383.82
178.864	-424.78
179.084	-377.68
179.304	66.73
179.524	-33.62
179.744	-13.14
179.964	74.92
180.184	44.2
180.404	54.44
180.624	-19.29
180.844	-15.19
181.064	-129.88
181.283	31.91
181.503	-117.59
181.723	56.49
181.943	-90.96
182.163	158.89
182.383	-58.2
182.602	95.4
182.822	97.45
183.042	7.34
183.262	72.87
183.482	-27.48
183.701	40.11
183.921	-2.9
184.141	-27.48
184.361	76.97
184.58	103.59
184.8	81.07
185.02	-33.62
185.239	154.79
185.459	50.35
185.679	101.55
185.898	-64.34
186.118	-15.19
186.338	97.45
186.557	95.4
186.777	-103.25
186.997	-64.34
187.216	33.96
187.436	158.89
187.655	64.68
187.875	58.54
188.095	101.55
188.314	122.02
188.534	103.59
188.753	-93.01
188.973	126.12
189.192	173.22
189.412	-50
189.631	31.91
189.851	17.58
190.07	64.68
190.29	-68.44
190.509	-113.49
190.729	25.77
190.948	158.89
191.168	175.27
191.387	13.48
191.607	-31.57
191.826	62.63
192.045	74.92
192.265	13.48
192.484	19.63
192.704	62.63
192.923	-117.59
193.142	158.89
193.362	109.74
193.581	193.7
193.8	38.06
194.02	93.35
194.239	62.63
194.458	165.03
194.678	56.49
194.897	-33.62
195.116	62.63
195.335	72.87
195.555	60.59
195.774	9.39
195.993	146.6
196.212	11.43
196.432	-60.24
196.651	-7
196.87	52.39
197.089	236.71
197.308	74.92
197.528	19.63
197.747	-43.86
197.966	40.11
198.185	124.07
198.404	40.11
198.623	117.93
198.842	126.12
199.062	62.63
199.281	134.31
199.5	25.77
199.719	85.16
199.938	-11.09
200.157	66.73
200.376	185.51
200.595	68.78
200.814	70.83
201.033	76.97
201.252	109.74
201.471	33.96
201.69	42.15
201.909	27.82
202.128	9.39
202.347	33.96
202.566	-17.24
202.785	-7
203.004	-4.95
203.223	197.8
203.442	44.2
203.661	-39.76
203.879	72.87
204.098	144.55
204.317	-47.96
204.536	72.87
204.755	36.01
204.974	101.55
205.193	52.39
205.411	142.5
205.63	158.89
205.849	68.78
206.068	-52.05
206.287	-72.53
206.505	101.55
206.724	44.2
206.943	13.48
207.162	19.63
207.381	101.55
207.599	-33.62
207.818	111.78
208.037	-31.57
208.255	48.3
208.474	56.49
208.693	64.68
208.911	44.2
209.13	91.31
209.349	70.83
209.567	9.39
209.786	111.78
210.005	107.69
210.223	38.06
210.442	-101.2
210.661	17.58
210.879	87.21
211.098	74.92
211.316	21.67
211.535	52.39
211.753	66.73
211.972	99.5
212.191	29.87
212.409	85.16
212.628	15.53
212.846	5.29
213.065	68.78
213.283	62.63
213.502	-7
213.72	91.31
213.938	42.15
214.157	21.67
214.375	81.07
214.594	50.35
214.812	31.91
215.031	64.68
215.249	48.3
215.467	95.4
215.686	-33.62
215.904	64.68
216.122	-72.53
216.341	150.7
216.559	87.21
216.778	97.45
216.996	169.13
217.214	-70.48
217.432	-78.68
217.651	-111.44
217.869	27.82
218.087	89.26
218.306	89.26
218.524	38.06
218.742	56.49
218.96	66.73
219.179	5.29
219.397	33.96
219.615	175.27
219.833	111.78
220.051	15.53
220.27	76.97
220.488	95.4
220.706	103.59
220.924	11.43
221.142	-58.2
221.36	101.55
221.578	107.69
221.796	33.96
222.015	91.31
222.233	56.49
222.451	160.94
222.669	-86.87
222.887	70.83
223.105	29.87
223.323	7.34
223.541	9.39
223.759	109.74
223.977	40.11
224.195	68.78
224.413	72.87
224.631	72.87
224.849	46.25
225.067	222.38
225.285	-31.57
225.503	-7
225.721	-80.72
225.939	11.43
226.157	-7
226.375	228.52
226.592	-23.38
226.81	33.96
227.028	165.03
227.246	103.59
227.464	52.39
227.682	152.74
227.9	87.21
228.117	54.44
228.335	9.39
228.553	42.15
228.771	5.29
228.989	74.92
229.206	70.83
229.424	19.63
229.642	13.48
229.86	-99.16
230.077	148.65
230.295	23.72
230.513	93.35
230.731	70.83
230.948	124.07
231.166	128.17
231.384	70.83
231.601	46.25
231.819	203.94
232.037	7.34
232.254	-47.96
232.472	46.25
232.689	-0.85
232.907	87.21
233.125	1.19
233.342	-23.38
233.56	48.3
233.777	17.58
233.995	-2.9
234.213	119.98
234.43	36.01
234.648	19.63
234.865	38.06
235.083	128.17
235.3	-15.19
235.518	97.45
235.735	124.07
235.953	101.55
236.17	3.24
236.388	76.97
236.605	138.41
236.822	85.16
237.04	126.12
237.257	126.12
237.475	1.19
237.692	-7
237.909	70.83
238.127	-13.14
238.344	85.16
238.562	27.82
238.779	-23.38
238.996	-33.62
239.214	58.54
239.431	93.35
239.648	-4.95
239.865	-41.81
240.083	165.03
240.3	29.87
240.517	-66.39
240.735	13.48
240.952	97.45
241.169	72.87
241.386	72.87
241.603	62.63
241.821	-58.2
242.038	60.59
242.255	101.55
242.472	5.29
242.689	89.26
242.907	-17.24
243.124	27.82
243.341	27.82
243.558	-29.52
243.775	-9.05
243.992	-43.86
244.209	66.73
244.426	173.22
244.643	38.06
244.86	13.48
245.078	68.78
245.295	72.87
245.512	-17.24
245.729	-88.92
245.946	113.83
246.163	21.67
246.38	40.11
246.597	83.11
246.814	-13.14
247.031	-9.05
247.248	-25.43
247.464	136.36
247.681	33.96
247.898	91.31
248.115	62.63
248.332	-2.9
248.549	62.63
248.766	220.33
248.983	95.4
249.2	72.87
249.417	101.55
249.633	-47.96
249.85	19.63
250.067	27.82
250.284	19.63
250.501	27.82
250.717	48.3
250.934	5.29
251.151	-35.67
251.368	23.72
251.585	62.63
251.801	54.44
252.018	-45.91
252.235	79.02
252.451	-68.44
252.668	1.19
252.885	144.55
253.102	148.65
253.318	-58.2
253.535	-19.29
253.752	83.11
253.968	1.19
254.185	-105.3
254.401	68.78
254.618	36.01
254.835	-0.85
255.051	111.78
255.268	109.74
255.484	3.24
255.701	33.96
255.917	70.83
256.134	15.53
256.351	33.96
256.567	-35.67
256.784	56.49
257	-95.06
257.217	117.93
257.433	42.15
257.65	40.11
257.866	138.41
258.082	-13.14
258.299	-29.52
258.515	-7
258.732	33.96
258.948	-21.33
259.165	29.87
259.381	-0.85
259.597	54.44
259.814	11.43
260.03	21.67
260.246	-47.96
260.463	119.98
260.679	66.73
260.895	115.88
261.112	99.5
261.328	11.43
261.544	-41.81
261.761	58.54
261.977	-70.48
262.193	-140.12
262.409	109.74
262.626	23.72
262.842	38.06
263.058	-7
263.274	81.07
263.49	42.15
263.707	83.11
263.923	48.3
264.139	-97.11
264.355	-4.95
264.571	115.88
264.787	85.16
265.004	107.69
265.22	46.25
265.436	-56.15
265.652	19.63
265.868	9.39
266.084	7.34
266.3	13.48
266.516	-31.57
266.732	29.87
266.948	13.48
267.164	-56.15
267.38	46.25
267.596	21.67
267.812	95.4
268.028	66.73
268.244	-45.91
268.46	87.21
268.676	17.58
268.892	21.67
269.108	-54.1
269.324	-27.48
269.54	-4.95
269.756	83.11
269.972	-86.87
270.188	-41.81
270.403	-4.95
270.619	1.19
270.835	27.82
271.051	103.59
271.267	-0.85
271.483	-13.14
271.698	76.97
271.914	72.87
272.13	-31.57
272.346	-21.33
272.562	21.67
272.777	160.94
272.993	25.77
273.209	-62.29
273.425	140.46
273.64	-72.53
273.856	64.68
274.072	5.29
274.287	-21.33
274.503	58.54
274.719	111.78
274.934	-47.96
275.15	-43.86
275.366	9.39
275.581	9.39
275.797	52.39
276.012	91.31
276.228	-76.63
276.444	38.06
276.659	64.68
276.875	-68.44
277.09	134.31
277.306	3.24
277.521	46.25
277.737	31.91
277.952	105.64
278.168	19.63
278.383	5.29
278.599	-23.38
278.814	21.67
279.03	-31.57
279.245	76.97
279.461	85.16
279.676	103.59
279.892	-31.57
280.107	-72.53
280.322	-37.72
280.538	58.54
280.753	-2.9
280.969	-21.33
281.184	-2.9
281.399	119.98
281.615	64.68
281.83	-15.19
282.045	-70.48
282.26	25.77
282.476	-37.72
282.691	89.26
282.906	89.26
283.122	134.31
283.337	-9.05
283.552	150.7
283.767	29.87
283.983	68.78
284.198	-25.43
284.413	119.98
284.628	-0.85
284.843	27.82
285.058	103.59
285.274	-41.81
285.489	-52.05
285.704	95.4
285.919	-52.05
286.134	19.63
286.349	21.67
286.564	101.55
286.779	128.17
286.995	-2.9
287.21	40.11
287.425	122.02
287.64	-21.33
287.855	50.35
288.07	-72.53
288.285	81.07
288.5	89.26
288.715	46.25
288.93	17.58
289.145	-9.05
289.36	66.73
289.575	15.53
289.79	128.17
290.004	-47.96
290.219	146.6
290.434	-27.48
290.649	-7
290.864	-9.05
291.079	-7
291.294	93.35
291.509	136.36
291.724	-23.38
291.938	21.67
292.153	79.02
292.368	52.39
292.583	42.15
292.798	29.87
293.012	1.19
293.227	91.31
293.442	29.87
293.657	105.64
293.871	105.64
294.086	33.96
294.301	199.85
294.516	48.3
294.73	23.72
294.945	-60.24
295.16	-7
295.374	40.11
295.589	54.44
295.804	3.24
296.018	33.96
296.233	144.55
296.447	62.63
296.662	83.11
296.877	79.02
297.091	56.49
297.306	-23.38
297.52	-21.33
297.735	97.45
297.949	1.19
298.164	44.2
298.378	31.91
298.593	-52.05
298.807	-13.14
299.022	-9.05
299.236	115.88
299.451	15.53
299.665	23.72
299.88	81.07
300.094	42.15
300.309	17.58
300.523	9.39
300.737	36.01
300.952	124.07
301.166	42.15
301.381	-39.76
301.595	48.3
301.809	48.3
302.024	-2.9
302.238	21.67
302.452	150.7
302.667	-66.39
302.881	179.37
303.095	132.26
303.309	62.63
303.524	52.39
303.738	-54.1
303.952	-31.57
304.166	89.26
304.381	-82.77
304.595	128.17
304.809	7.34
305.023	-2.9
305.237	-33.62
305.452	52.39
305.666	64.68
305.88	17.58
306.094	140.46
306.308	54.44
306.522	97.45
306.736	21.67
306.95	38.06
307.164	-17.24
307.379	48.3
307.593	66.73
307.807	144.55
308.021	66.73
308.235	70.83
308.449	-2.9
308.663	-2.9
308.877	124.07
309.091	50.35
309.305	9.39
309.519	-56.15
309.733	150.7
309.947	-80.72
310.161	89.26
310.374	99.5
310.588	122.02
310.802	-64.34
311.016	21.67
311.23	64.68
311.444	-70.48
311.658	-0.85
311.872	89.26
312.085	132.26
312.299	87.21
312.513	171.18
312.727	56.49
312.941	-21.33
313.154	122.02
313.368	21.67
313.582	42.15
313.796	36.01
314.009	-9.05
314.223	132.26
314.437	29.87
314.651	64.68
314.864	-23.38
315.078	-9.05
315.292	-29.52
315.505	-35.67
315.719	97.45
315.933	-25.43
316.146	-68.44
316.36	-4.95
316.573	79.02
316.787	115.88
317.001	115.88
317.214	-21.33
317.428	-19.29
317.641	-23.38
317.855	58.54
318.068	52.39
318.282	48.3
318.495	165.03
318.709	105.64
318.922	66.73
319.136	177.32
319.349	126.12
319.563	15.53
319.776	83.11
319.99	-41.81
320.203	148.65
320.417	91.31
320.63	79.02
320.843	169.13
321.057	87.21
321.27	29.87
321.483	81.07
321.697	122.02
321.91	-27.48
322.124	95.4
322.337	56.49
322.55	46.25
322.763	21.67
322.977	21.67
323.19	7.34
323.403	60.59
323.617	128.17
323.83	56.49
324.043	31.91
324.256	3.24
324.469	-62.29
324.683	175.27
324.896	-45.91
325.109	56.49
325.322	-15.19
325.535	124.07
325.748	48.3
325.962	-15.19
326.175	44.2
326.388	89.26
326.601	103.59
326.814	15.53
327.027	25.77
327.24	193.7
327.453	-133.97
327.666	146.6
327.879	134.31
328.092	103.59
328.305	81.07
328.518	-50
328.731	-19.29
328.944	3.24
329.157	68.78
329.37	11.43
329.583	187.56
329.796	134.31
330.009	-72.53
330.222	46.25
330.435	81.07
330.648	44.2
330.861	64.68
331.073	79.02
331.286	113.83
331.499	38.06
331.712	21.67
331.925	52.39
332.138	25.77
332.35	50.35
332.563	23.72
332.776	214.18
332.989	40.11
333.202	-4.95
333.414	21.67
333.627	44.2
333.84	50.35
334.053	87.21
334.265	-43.86
334.478	27.82
334.691	13.48
334.903	62.63
335.116	-43.86
335.329	29.87
335.541	64.68
335.754	185.51
335.966	52.39
336.179	29.87
336.392	13.48
336.604	-39.76
336.817	167.08
337.029	50.35
337.242	52.39
337.454	150.7
337.667	40.11
337.88	76.97
338.092	74.92
338.305	132.26
338.517	-37.72
338.729	74.92
338.942	87.21
339.154	1.19
339.367	-31.57
339.579	-0.85
339.792	11.43
340.004	83.11
340.217	-52.05
340.429	107.69
340.641	-103.25
340.854	-45.91
341.066	27.82
341.278	83.11
341.491	105.64
341.703	138.41
341.915	-66.39
342.128	-4.95
342.34	107.69
342.552	9.39
342.764	38.06
342.977	-52.05
343.189	46.25
343.401	46.25
343.613	-45.91
343.826	54.44
344.038	-43.86
344.25	33.96
344.462	11.43
344.674	115.88
344.886	136.36
345.099	93.35
345.311	48.3
345.523	36.01
345.735	-68.44
345.947	27.82
346.159	70.83
346.371	42.15
346.583	42.15
346.795	183.46
347.007	-27.48
347.219	74.92
347.431	-39.76
347.643	124.07
347.855	33.96
348.067	93.35
348.279	1.19
348.491	52.39
348.703	40.11
348.915	21.67
349.127	-58.2
349.339	-13.14
349.551	-76.63
349.763	72.87
349.975	11.43
350.187	154.79
350.399	126.12
350.61	56.49
350.822	5.29
351.034	50.35
351.246	68.78
351.458	42.15
351.669	62.63
351.881	76.97
352.093	162.98
352.305	99.5
352.517	50.35
352.728	154.79
352.94	70.83
353.152	60.59
353.363	-39.76
353.575	38.06
353.787	158.89
353.999	3.24
354.21	152.74
354.422	-62.29
354.633	50.35
354.845	111.78
355.057	128.17
355.268	62.63
355.48	38.06
355.692	-39.76
355.903	-21.33
356.115	-25.43
356.326	-70.48
356.538	99.5
356.749	83.11
356.961	175.27
357.172	76.97
357.384	-19.29
357.595	214.18
357.807	19.63
358.018	19.63
358.23	-4.95
358.441	148.65
358.653	140.46
358.864	25.77
359.075	23.72
359.287	117.93
359.498	115.88
359.709	62.63
359.921	115.88
360.132	101.55
360.344	113.83
360.555	-56.15
360.766	-21.33
360.977	-13.14
361.189	93.35
361.4	-43.86
361.611	138.41
361.823	99.5
362.034	17.58
362.245	-56.15
362.456	48.3
362.667	40.11
362.879	-60.24
363.09	107.69
363.301	72.87
363.512	64.68
363.723	-19.29
363.935	-15.19
364.146	140.46
364.357	79.02
364.568	58.54
364.779	-82.77
364.99	85.16
365.201	-9.05
365.412	142.5
365.623	-101.2
365.834	72.87
366.045	17.58
366.256	109.74
366.467	72.87
366.678	46.25
366.889	36.01
367.1	68.78
367.311	115.88
367.522	-60.24
367.733	107.69
367.944	72.87
368.155	38.06
368.366	87.21
368.577	99.5
368.788	128.17
368.999	9.39
369.209	83.11
369.42	271.53
369.631	238.76
369.842	74.92
370.053	42.15
370.264	167.08
370.474	-90.96
370.685	81.07
370.896	42.15
371.107	160.94
371.317	23.72
371.528	46.25
371.739	128.17
371.95	19.63
372.16	91.31
372.371	-19.29
372.582	40.11
372.792	66.73
373.003	93.35
373.214	103.59
373.424	87.21
373.635	-0.85
373.846	9.39
374.056	-45.91
374.267	115.88
374.477	124.07
374.688	-99.16
374.898	85.16
375.109	-2.9
375.319	85.16
375.53	44.2
375.74	66.73
375.951	-50
376.161	13.48
376.372	152.74
376.582	19.63
376.793	95.4
377.003	-25.43
377.214	-47.96
377.424	54.44
377.635	5.29
377.845	13.48
378.055	167.08
378.266	7.34
378.476	-35.67
378.686	52.39
378.897	115.88
379.107	95.4
379.317	74.92
379.528	58.54
379.738	95.4
379.948	-82.77
380.158	136.36
380.369	15.53
380.579	21.67
380.789	17.58
380.999	50.35
381.21	93.35
381.42	177.32
381.63	-33.62
381.84	62.63
382.05	99.5
382.261	46.25
382.471	111.78
382.681	-7
382.891	134.31
383.101	101.55
383.311	-11.09
383.521	36.01
383.731	124.07
383.941	76.97
384.151	40.11
384.361	-25.43
384.571	21.67
384.781	25.77
384.991	132.26
385.201	210.09
385.411	142.5
385.621	132.26
385.831	44.2
386.041	72.87
386.251	5.29
386.461	105.64
386.671	-68.44
386.881	7.34
387.091	36.01
387.301	21.67
387.511	-23.38
387.72	27.82
387.93	154.79
388.14	-50
388.35	74.92
388.56	111.78
388.769	140.46
388.979	46.25
389.189	25.77
389.399	62.63
389.609	70.83
389.818	68.78
390.028	99.5
390.238	79.02
390.447	-84.82
390.657	36.01
390.867	-11.09
391.076	-103.25
391.286	11.43
391.496	-11.09
391.705	122.02
391.915	138.41
392.125	50.35
392.334	40.11
392.544	175.27
392.753	7.34
392.963	-39.76
393.172	5.29
393.382	1.19
393.591	154.79
393.801	66.73
394.01	148.65
394.22	3.24
394.429	81.07
394.639	23.72
394.848	60.59
395.058	76.97
395.267	85.16
395.477	72.87
395.686	38.06
395.895	187.56
396.105	167.08
396.314	72.87
396.524	95.4
396.733	11.43
396.942	70.83
397.152	99.5
397.361	138.41
397.57	105.64
397.78	-54.1
397.989	79.02
398.198	177.32
398.407	60.59
398.617	25.77
398.826	74.92
399.035	38.06
399.244	126.12
399.453	150.7
399.663	122.02
399.872	103.59
400.081	11.43
400.29	177.32
400.499	-37.72
400.708	119.98
400.917	-37.72
401.127	44.2
401.336	56.49
401.545	156.84
401.754	109.74
401.963	111.78
402.172	19.63
402.381	11.43
402.59	58.54
402.799	150.7
403.008	160.94
403.217	87.21
403.426	13.48
403.635	-68.44
403.844	-62.29
404.053	11.43
404.262	50.35
404.471	162.98
404.68	72.87
404.888	-29.52
405.097	31.91
405.306	74.92
405.515	50.35
405.724	-82.77
405.933	128.17
406.142	79.02
406.35	70.83
406.559	-33.62
406.768	58.54
406.977	160.94
407.185	87.21
407.394	91.31
407.603	-58.2
407.812	48.3
408.02	122.02
408.229	50.35
408.438	126.12
408.646	-60.24
408.855	21.67
409.064	56.49
409.272	-60.24
409.481	52.39
409.69	95.4
409.898	-60.24
410.107	115.88
410.315	113.83
410.524	-60.24
410.733	1.19
410.941	46.25
411.15	85.16
411.358	52.39
411.567	162.98
411.775	54.44
411.984	29.87
412.192	97.45
412.401	-7
412.609	152.74
412.818	169.13
413.026	-17.24
413.234	50.35
413.443	-4.95
413.651	-15.19
413.86	38.06
414.068	179.37
414.276	148.65
414.485	11.43
414.693	119.98
414.901	187.56
415.11	72.87
415.318	27.82
415.526	31.91
415.734	167.08
415.943	113.83
416.151	122.02
416.359	74.92
416.567	29.87
416.776	91.31
416.984	136.36
417.192	169.13
417.4	-17.24
417.608	44.2
417.817	-121.68
418.025	42.15
418.233	218.28
418.441	99.5
418.649	54.44
418.857	56.49
419.065	146.6
419.273	68.78
419.481	60.59
419.689	79.02
419.897	50.35
420.105	-25.43
420.313	146.6
420.521	105.64
420.729	187.56
420.937	7.34
421.145	1.19
421.353	165.03
421.561	122.02
421.769	103.59
421.977	9.39
422.185	156.84
422.393	38.06
422.601	183.46
422.809	85.16
423.017	91.31
423.224	54.44
423.432	124.07
423.64	72.87
423.848	146.6
424.056	-68.44
424.263	107.69
424.471	60.59
424.679	107.69
424.887	-27.48
425.094	76.97
425.302	70.83
425.51	103.59
425.718	111.78
425.925	70.83
426.133	33.96
426.341	246.95
426.548	103.59
426.756	13.48
426.964	68.78
427.171	31.91
427.379	89.26
427.586	119.98
427.794	140.46
428.001	154.79
428.209	216.23
428.417	230.57
428.624	175.27
428.832	177.32
429.039	97.45
429.247	58.54
429.454	191.66
429.662	224.42
429.869	189.61
430.076	105.64
430.284	175.27
430.491	226.47
430.699	218.28
430.906	203.94
431.114	109.74
431.321	136.36
431.528	111.78
431.736	117.93
431.943	126.12
432.15	113.83
432.358	197.8
432.565	236.71
432.772	66.73
432.979	201.9
433.187	136.36
433.394	289.96
433.601	101.55
433.808	246.95
434.016	275.62
434.223	253.09
434.43	222.38
434.637	328.87
434.844	214.18
435.052	214.18
435.259	259.24
435.466	249
435.673	279.72
435.88	259.24
436.087	367.78
436.294	259.24
436.501	332.97
436.708	312.49
436.915	410.79
437.122	400.55
437.329	285.86
437.537	390.31
437.743	382.12
437.95	484.52
438.157	482.47
438.364	396.45
438.571	365.73
438.778	410.79
438.985	459.94
439.192	527.52
439.399	478.37
439.606	492.71
439.813	605.35
440.02	662.69
440.227	683.17
440.433	607.39
440.64	627.87
440.847	492.71
441.054	715.94
441.261	769.18
441.467	668.83
441.674	693.41
441.881	775.33
442.088	736.42
442.294	826.53
442.501	851.1
442.708	890.01
442.914	849.05
443.121	976.03
443.328	955.55
443.534	1076.38
443.741	1100.95
443.948	994.46
444.154	1049.75
444.361	1359
444.568	1123.48
444.774	1150.11
444.981	1137.82
445.187	1346.71
445.394	1350.81
445.6	1356.95
445.807	1510.55
446.013	1379.48
446.22	1442.96
446.426	1617.04
446.633	1623.19
446.839	1815.69
447.046	1643.67
447.252	1922.19
447.459	1879.18
447.665	1854.61
447.871	2051.21
448.078	2260.1
448.284	2163.85
448.491	2139.27
448.697	2503.81
448.903	2444.42
449.11	2501.76
449.316	2397.32
449.522	2866.3
449.728	2897.02
449.935	3050.62
450.141	3036.28
450.347	3148.92
450.553	3089.53
450.76	3187.83
450.966	3318.9
451.172	3482.74
451.378	3654.77
451.584	3701.87
451.791	3923.05
451.997	4009.07
452.203	4258.92
452.409	4385.9
452.615	4449.38
452.821	4473.96
453.027	4576.36
453.233	5002.33
453.44	4916.32
453.646	5188.7
453.852	5235.8
454.058	5631.06
454.264	5753.94
454.47	6267.98
454.676	6149.2
454.882	6743.11
455.088	6288.46
455.294	6800.45
455.5	7210.04
455.705	7709.75
455.911	7664.69
456.117	7707.7
456.323	8033.33
456.529	8129.58
456.735	8924.19
456.941	9122.85
457.147	9421.85
457.352	9675.8
457.558	9937.94
457.764	10488.84
457.97	10738.69
458.176	11238.4
458.381	11940.85
458.587	12125.17
458.793	12680.17
458.999	12669.93
459.204	14216.15
459.41	14726.09
459.616	14439.37
459.821	15203.27
460.027	16108.47
460.233	17001.38
460.438	16806.83
460.644	18025.37
460.85	18461.58
461.055	18744.2
461.261	19839.87
461.466	19245.96
461.672	19663.74
461.878	21957.47
462.083	21775.2
462.289	22199.13
462.494	23073.61
462.7	23233.35
462.905	23423.81
463.111	25537.32
463.316	26553.11
463.522	27116.3
463.727	28082.94
463.932	29055.73
464.138	30319.32
464.343	31132.37
464.549	31281.87
464.754	33817.25
464.959	34521.76
465.165	35433.1
465.37	34894.49
465.575	34724.5
465.781	36919.93
465.986	38330.98
466.191	37595.76
466.397	38195.81
466.602	37390.96
466.807	39170.64
467.012	39737.93
467.218	40538.69
467.423	40692.29
467.628	41830.96
467.833	44067.34
468.038	42928.67
468.244	42551.84
468.449	45117.95
468.654	43600.4
