Data from USB4F104151__109__10-45-48-061.txt Node

Date: Wed Feb 26 10:45:48 EST 2025
User: louis
Spectrometer: USB4F10415
Trigger mode: 4
Integration Time (sec): 1.000000E-1
Scans to average: 1
Electric dark correction enabled: true
Nonlinearity correction enabled: false
Boxcar width: 0
XAxis mode: Wavelengths
Number of Pixels in Spectrum: 3648
>>>>>Begin Spectral Data<<<<<
178.204	-413.86
178.424	-413.86
178.644	-413.86
178.864	-325.8
179.084	-350.37
179.304	59.22
179.524	-30.89
179.744	18.26
179.964	63.32
180.184	55.12
180.404	83.8
180.624	-47.27
180.844	-10.41
181.064	-149.67
181.283	48.98
181.503	-86.19
181.723	-4.27
181.943	-137.38
182.163	83.8
182.383	-8.36
182.602	85.84
182.822	57.17
183.042	44.88
183.262	-37.03
183.482	-41.13
183.701	-8.36
183.921	-22.7
184.141	-47.27
184.361	81.75
184.58	36.69
184.8	32.6
185.02	75.6
185.239	85.84
185.459	-8.36
185.679	104.28
185.898	-39.08
186.118	94.04
186.338	87.89
186.557	135
186.777	-61.61
186.997	46.93
187.216	44.88
187.436	175.95
187.655	130.9
187.875	22.36
188.095	18.26
188.314	151.38
188.534	116.56
188.753	-71.85
188.973	114.52
189.192	233.3
189.412	16.21
189.631	26.45
189.851	38.74
190.07	161.62
190.29	-22.7
190.509	24.4
190.729	55.12
190.948	145.24
191.168	210.77
191.387	40.79
191.607	-12.46
191.826	94.04
192.045	51.03
192.265	14.17
192.484	55.12
192.704	-59.56
192.923	-30.89
193.142	192.34
193.362	59.22
193.581	96.08
193.8	24.4
194.02	94.04
194.239	3.93
194.458	65.36
194.678	61.27
194.897	-20.65
195.116	65.36
195.335	26.45
195.555	28.5
195.774	18.26
195.993	124.76
196.212	55.12
196.432	-47.27
196.651	-6.31
196.87	-34.99
197.089	175.95
197.308	-24.75
197.528	91.99
197.747	-59.56
197.966	20.31
198.185	143.19
198.404	8.02
198.623	96.08
198.842	81.75
199.062	71.51
199.281	124.76
199.5	10.07
199.719	30.55
199.938	71.51
200.157	55.12
200.376	85.84
200.595	100.18
200.814	79.7
201.033	-14.51
201.252	106.32
201.471	-57.51
201.69	71.51
201.909	-12.46
202.128	67.41
202.347	81.75
202.566	12.12
202.785	8.02
203.004	-4.27
203.223	253.78
203.442	24.4
203.661	-45.23
203.879	73.56
204.098	128.85
204.317	-61.61
204.536	89.94
204.755	96.08
204.974	94.04
205.193	-4.27
205.411	112.47
205.63	98.13
205.849	63.32
206.068	-37.03
206.287	-53.42
206.505	65.36
206.724	32.6
206.943	-57.51
207.162	-51.37
207.381	71.51
207.599	16.21
207.818	59.22
208.037	-67.75
208.255	24.4
208.474	79.7
208.693	73.56
208.911	-14.51
209.13	122.71
209.349	118.61
209.567	30.55
209.786	89.94
210.005	3.93
210.223	-32.94
210.442	-141.48
210.661	26.45
210.879	55.12
211.098	-30.89
211.316	77.65
211.535	36.69
211.753	91.99
211.972	83.8
212.191	-39.08
212.409	-43.18
212.628	151.38
212.846	-18.6
213.065	42.84
213.283	108.37
213.502	55.12
213.72	-10.41
213.938	42.84
214.157	8.02
214.375	48.98
214.594	-10.41
214.812	100.18
215.031	44.88
215.249	5.97
215.467	83.8
215.686	42.84
215.904	67.41
216.122	44.88
216.341	112.47
216.559	16.21
216.778	106.32
216.996	132.95
217.214	65.36
217.432	28.5
217.651	-100.52
217.869	73.56
218.087	16.21
218.306	-63.66
218.524	71.51
218.742	55.12
218.96	108.37
219.179	42.84
219.397	12.12
219.615	206.67
219.833	94.04
220.051	-34.99
220.27	120.66
220.488	61.27
220.706	155.47
220.924	-55.47
221.142	-12.46
221.36	36.69
221.578	-8.36
221.796	-39.08
222.015	34.64
222.233	77.65
222.451	73.56
222.669	-88.23
222.887	40.79
223.105	53.08
223.323	-2.22
223.541	-80.04
223.759	59.22
223.977	65.36
224.195	157.52
224.413	48.98
224.631	-43.18
224.849	51.03
225.067	173.91
225.285	34.64
225.503	30.55
225.721	-88.23
225.939	91.99
226.157	-20.65
226.375	178
226.592	77.65
226.81	46.93
227.028	79.7
227.246	71.51
227.464	12.12
227.682	81.75
227.9	55.12
228.117	69.46
228.335	114.52
228.553	69.46
228.771	26.45
228.989	8.02
229.206	128.85
229.424	46.93
229.642	22.36
229.86	-65.71
230.077	114.52
230.295	22.36
230.513	73.56
230.731	-55.47
230.948	69.46
231.166	167.76
231.384	-6.31
231.601	-82.09
231.819	237.39
232.037	-22.7
232.254	-14.51
232.472	-14.51
232.689	-41.13
232.907	137.04
233.125	-2.22
233.342	-22.7
233.56	34.64
233.777	38.74
233.995	-55.47
234.213	5.97
234.43	178
234.648	20.31
234.865	26.45
235.083	-0.17
235.3	71.51
235.518	22.36
235.735	77.65
235.953	46.93
236.17	14.17
236.388	-10.41
236.605	53.08
236.822	122.71
237.04	235.35
237.257	46.93
237.475	12.12
237.692	3.93
237.909	53.08
238.127	-20.65
238.344	42.84
238.562	22.36
238.779	-47.27
238.996	40.79
239.214	40.79
239.431	100.18
239.648	-57.51
239.865	65.36
240.083	18.26
240.3	46.93
240.517	-30.89
240.735	108.37
240.952	104.28
241.169	24.4
241.386	126.8
241.603	8.02
241.821	-61.61
242.038	85.84
242.255	149.33
242.472	63.32
242.689	-8.36
242.907	135
243.124	36.69
243.341	57.17
243.558	28.5
243.775	-32.94
243.992	-104.62
244.209	155.47
244.426	155.47
244.643	40.79
244.86	34.64
245.078	104.28
245.295	14.17
245.512	-22.7
245.729	10.07
245.946	36.69
246.163	38.74
246.38	1.88
246.597	89.94
246.814	30.55
247.031	14.17
247.248	30.55
247.464	139.09
247.681	104.28
247.898	85.84
248.115	44.88
248.332	44.88
248.549	61.27
248.766	167.76
248.983	87.89
249.2	69.46
249.417	87.89
249.633	-6.31
249.85	14.17
250.067	-53.42
250.284	1.88
250.501	81.75
250.717	-12.46
250.934	-34.99
251.151	-6.31
251.368	32.6
251.585	18.26
251.801	24.4
252.018	1.88
252.235	77.65
252.451	-65.71
252.668	32.6
252.885	120.66
253.102	38.74
253.318	-39.08
253.535	-43.18
253.752	20.31
253.968	26.45
254.185	-121
254.401	32.6
254.618	124.76
254.835	14.17
255.051	137.04
255.268	71.51
255.484	14.17
255.701	5.97
255.917	14.17
256.134	-34.99
256.351	26.45
256.567	-53.42
256.784	91.99
257	-43.18
257.217	67.41
257.433	132.95
257.65	16.21
257.866	165.71
258.082	-96.43
258.299	-14.51
258.515	30.55
258.732	42.84
258.948	-2.22
259.165	44.88
259.381	1.88
259.597	34.64
259.814	-53.42
260.03	-24.75
260.246	53.08
260.463	116.56
260.679	155.47
260.895	51.03
261.112	63.32
261.328	-12.46
261.544	28.5
261.761	85.84
261.977	-22.7
262.193	-20.65
262.409	71.51
262.626	-47.27
262.842	1.88
263.058	-18.6
263.274	-2.22
263.49	16.21
263.707	46.93
263.923	110.42
264.139	-88.23
264.355	36.69
264.571	83.8
264.787	26.45
265.004	122.71
265.22	28.5
265.436	-4.27
265.652	20.31
265.868	57.17
266.084	-28.84
266.3	22.36
266.516	-41.13
266.732	22.36
266.948	40.79
267.164	16.21
267.38	42.84
267.596	67.41
267.812	169.81
268.028	-2.22
268.244	12.12
268.46	38.74
268.676	16.21
268.892	-30.89
269.108	-37.03
269.324	-71.85
269.54	-96.43
269.756	22.36
269.972	8.02
270.188	106.32
270.403	-55.47
270.619	36.69
270.835	91.99
271.051	14.17
271.267	-84.14
271.483	-51.37
271.698	69.46
271.914	112.47
272.13	30.55
272.346	-14.51
272.562	12.12
272.777	126.8
272.993	-71.85
273.209	-114.86
273.425	79.7
273.64	-65.71
273.856	61.27
274.072	-123.05
274.287	-55.47
274.503	55.12
274.719	44.88
274.934	3.93
275.15	-34.99
275.366	75.6
275.581	-22.7
275.797	10.07
276.012	26.45
276.228	34.64
276.444	-0.17
276.659	87.89
276.875	-80.04
277.09	26.45
277.306	59.22
277.521	102.23
277.737	-12.46
277.952	71.51
278.168	34.64
278.383	61.27
278.599	89.94
278.814	143.19
279.03	3.93
279.245	149.33
279.461	106.32
279.676	26.45
279.892	-65.71
280.107	-10.41
280.322	-30.89
280.538	14.17
280.753	3.93
280.969	44.88
281.184	30.55
281.399	65.36
281.615	87.89
281.83	40.79
282.045	-20.65
282.26	-2.22
282.476	32.6
282.691	116.56
282.906	79.7
283.122	-4.27
283.337	18.26
283.552	12.12
283.767	-86.19
283.983	149.33
284.198	91.99
284.413	16.21
284.628	-53.42
284.843	53.08
285.058	96.08
285.274	46.93
285.489	10.07
285.704	53.08
285.919	-26.79
286.134	46.93
286.349	26.45
286.564	8.02
286.779	188.24
286.995	59.22
287.21	-34.99
287.425	73.56
287.64	10.07
287.855	-32.94
288.07	-63.66
288.285	108.37
288.5	77.65
288.715	53.08
288.93	69.46
289.145	20.31
289.36	108.37
289.575	12.12
289.79	104.28
290.004	-26.79
290.219	51.03
290.434	-6.31
290.649	-4.27
290.864	-63.66
291.079	40.79
291.294	102.23
291.509	77.65
291.724	5.97
291.938	10.07
292.153	14.17
292.368	53.08
292.583	16.21
292.798	155.47
293.012	51.03
293.227	5.97
293.442	-32.94
293.657	143.19
293.871	55.12
294.086	81.75
294.301	135
294.516	48.98
294.73	28.5
294.945	-34.99
295.16	75.6
295.374	98.13
295.589	135
295.804	-4.27
296.018	14.17
296.233	75.6
296.447	8.02
296.662	55.12
296.877	61.27
297.091	18.26
297.306	16.21
297.52	22.36
297.735	32.6
297.949	100.18
298.164	63.32
298.378	61.27
298.593	5.97
298.807	-32.94
299.022	-16.55
299.236	94.04
299.451	126.8
299.665	26.45
299.88	8.02
300.094	16.21
300.309	-71.85
300.523	18.26
300.737	-49.32
300.952	63.32
301.166	24.4
301.381	36.69
301.595	3.93
301.809	10.07
302.024	40.79
302.238	-28.84
302.452	65.36
302.667	65.36
302.881	71.51
303.095	155.47
303.309	116.56
303.524	-26.79
303.738	30.55
303.952	10.07
304.166	122.71
304.381	-94.38
304.595	157.52
304.809	-20.65
305.023	-2.22
305.237	-67.75
305.452	12.12
305.666	75.6
305.88	53.08
306.094	155.47
306.308	112.47
306.522	120.66
306.736	48.98
306.95	53.08
307.164	10.07
307.379	89.94
307.593	112.47
307.807	112.47
308.021	75.6
308.235	46.93
308.449	20.31
308.663	38.74
308.877	186.19
309.091	-0.17
309.305	79.7
309.519	-133.29
309.733	126.8
309.947	3.93
310.161	48.98
310.374	57.17
310.588	77.65
310.802	-57.51
311.016	38.74
311.23	57.17
311.444	28.5
311.658	57.17
311.872	87.89
312.085	34.64
312.299	165.71
312.513	151.38
312.727	71.51
312.941	38.74
313.154	59.22
313.368	26.45
313.582	38.74
313.796	-49.32
314.009	24.4
314.223	145.24
314.437	79.7
314.651	151.38
314.864	-57.51
315.078	32.6
315.292	-41.13
315.505	-6.31
315.719	51.03
315.933	81.75
316.146	-22.7
316.36	-71.85
316.573	106.32
316.787	51.03
317.001	36.69
317.214	-30.89
317.428	-6.31
317.641	-2.22
317.855	77.65
318.068	-28.84
318.282	79.7
318.495	165.71
318.709	63.32
318.922	48.98
319.136	94.04
319.349	55.12
319.563	46.93
319.776	-12.46
319.99	-84.14
320.203	87.89
320.417	53.08
320.63	44.88
320.843	161.62
321.057	94.04
321.27	-77.99
321.483	32.6
321.697	71.51
321.91	-8.36
322.124	14.17
322.337	61.27
322.55	-8.36
322.763	-20.65
322.977	-39.08
323.19	-24.75
323.403	85.84
323.617	-22.7
323.83	94.04
324.043	-12.46
324.256	20.31
324.469	-125.1
324.683	130.9
324.896	32.6
325.109	-2.22
325.322	1.88
325.535	145.24
325.748	79.7
325.962	57.17
326.175	-8.36
326.388	10.07
326.601	94.04
326.814	73.56
327.027	22.36
327.24	124.76
327.453	-104.62
327.666	28.5
327.879	91.99
328.092	87.89
328.305	126.8
328.518	-10.41
328.731	-26.79
328.944	-6.31
329.157	28.5
329.37	18.26
329.583	167.76
329.796	161.62
330.009	-73.9
330.222	14.17
330.435	83.8
330.648	65.36
330.861	51.03
331.073	30.55
331.286	20.31
331.499	57.17
331.712	-18.6
331.925	-41.13
332.138	46.93
332.35	42.84
332.563	-6.31
332.776	71.51
332.989	-8.36
333.202	-59.56
333.414	22.36
333.627	55.12
333.84	-63.66
334.053	12.12
334.265	26.45
334.478	-4.27
334.691	59.22
334.903	44.88
335.116	-61.61
335.329	55.12
335.541	85.84
335.754	214.87
335.966	8.02
336.179	18.26
336.392	28.5
336.604	-61.61
336.817	36.69
337.029	110.42
337.242	130.9
337.454	65.36
337.667	77.65
337.88	114.52
338.092	30.55
338.305	44.88
338.517	-53.42
338.729	-6.31
338.942	149.33
339.154	-51.37
339.367	46.93
339.579	73.56
339.792	-22.7
340.004	36.69
340.217	12.12
340.429	81.75
340.641	-34.99
340.854	-18.6
341.066	-20.65
341.278	87.89
341.491	137.04
341.703	71.51
341.915	-67.75
342.128	20.31
342.34	32.6
342.552	-12.46
342.764	100.18
342.977	-14.51
343.189	65.36
343.401	24.4
343.613	-10.41
343.826	73.56
344.038	20.31
344.25	18.26
344.462	-26.79
344.674	67.41
344.886	53.08
345.099	81.75
345.311	65.36
345.523	65.36
345.735	-98.47
345.947	32.6
346.159	-12.46
346.371	46.93
346.583	28.5
346.795	171.86
347.007	-28.84
347.219	5.97
347.431	-84.14
347.643	100.18
347.855	8.02
348.067	124.76
348.279	8.02
348.491	51.03
348.703	48.98
348.915	-18.6
349.127	-32.94
349.339	42.84
349.551	20.31
349.763	161.62
349.975	-14.51
350.187	102.23
350.399	98.13
350.61	36.69
350.822	28.5
351.034	5.97
351.246	-10.41
351.458	79.7
351.669	42.84
351.881	28.5
352.093	110.42
352.305	116.56
352.517	-4.27
352.728	108.37
352.94	67.41
353.152	55.12
353.363	-34.99
353.575	55.12
353.787	120.66
353.999	-53.42
354.21	139.09
354.422	-59.56
354.633	-49.32
354.845	28.5
355.057	85.84
355.268	61.27
355.48	18.26
355.692	-6.31
355.903	1.88
356.115	-4.27
356.326	-123.05
356.538	30.55
356.749	98.13
356.961	128.85
357.172	36.69
357.384	-20.65
357.595	210.77
357.807	-47.27
358.018	-18.6
358.23	57.17
358.441	145.24
358.653	36.69
358.864	40.79
359.075	-8.36
359.287	-2.22
359.498	167.76
359.709	100.18
359.921	-22.7
360.132	-30.89
360.344	67.41
360.555	40.79
360.766	73.56
360.977	8.02
361.189	126.8
361.4	34.64
361.611	14.17
361.823	155.47
362.034	128.85
362.245	-133.29
362.456	12.12
362.667	36.69
362.879	-53.42
363.09	77.65
363.301	22.36
363.512	10.07
363.723	-2.22
363.935	42.84
364.146	46.93
364.357	-18.6
364.568	73.56
364.779	-18.6
364.99	206.67
365.201	-6.31
365.412	98.13
365.623	-139.43
365.834	114.52
366.045	-26.79
366.256	120.66
366.467	67.41
366.678	-43.18
366.889	77.65
367.1	-10.41
367.311	42.84
367.522	-51.37
367.733	48.98
367.944	83.8
368.155	38.74
368.366	44.88
368.577	85.84
368.788	30.55
368.999	-49.32
369.209	-2.22
369.42	296.78
369.631	190.29
369.842	38.74
370.053	-22.7
370.264	91.99
370.474	-37.03
370.685	3.93
370.896	-26.79
371.107	116.56
371.317	42.84
371.528	-32.94
371.739	18.26
371.95	83.8
372.16	24.4
372.371	-18.6
372.582	-4.27
372.792	69.46
373.003	59.22
373.214	22.36
373.424	96.08
373.635	-8.36
373.846	102.23
374.056	10.07
374.267	30.55
374.477	18.26
374.688	-55.47
374.898	46.93
375.109	40.79
375.319	38.74
375.53	48.98
375.74	79.7
375.951	38.74
376.161	36.69
376.372	67.41
376.582	-51.37
376.793	30.55
377.003	-2.22
377.214	5.97
377.424	94.04
377.635	-20.65
377.845	10.07
378.055	163.67
378.266	-51.37
378.476	-59.56
378.686	10.07
378.897	-12.46
379.107	145.24
379.317	26.45
379.528	-45.23
379.738	116.56
379.948	38.74
380.158	87.89
380.369	87.89
380.579	98.13
380.789	-8.36
380.999	106.32
381.21	77.65
381.42	141.14
381.63	-8.36
381.84	124.76
382.05	83.8
382.261	118.61
382.471	83.8
382.681	-28.84
382.891	104.28
383.101	44.88
383.311	12.12
383.521	18.26
383.731	139.09
383.941	110.42
384.151	42.84
384.361	5.97
384.571	16.21
384.781	-10.41
384.991	151.38
385.201	194.39
385.411	124.76
385.621	46.93
385.831	83.8
386.041	10.07
386.251	36.69
386.461	87.89
386.671	48.98
386.881	59.22
387.091	-0.17
387.301	69.46
387.511	53.08
387.72	87.89
387.93	108.37
388.14	-67.75
388.35	63.32
388.56	48.98
388.769	120.66
388.979	96.08
389.189	20.31
389.399	1.88
389.609	83.8
389.818	132.95
390.028	46.93
390.238	67.41
390.447	-14.51
390.657	20.31
390.867	14.17
391.076	-10.41
391.286	126.8
391.496	44.88
391.705	8.02
391.915	126.8
392.125	182.1
392.334	-10.41
392.544	126.8
392.753	-8.36
392.963	-39.08
393.172	40.79
393.382	63.32
393.591	216.91
393.801	5.97
394.01	106.32
394.22	8.02
394.429	-0.17
394.639	77.65
394.848	65.36
395.058	73.56
395.267	-20.65
395.477	102.23
395.686	110.42
395.895	221.01
396.105	180.05
396.314	32.6
396.524	51.03
396.733	-16.55
396.942	139.09
397.152	65.36
397.361	135
397.57	44.88
397.78	20.31
397.989	26.45
398.198	233.3
398.407	48.98
398.617	8.02
398.826	8.02
399.035	20.31
399.244	145.24
399.453	87.89
399.663	-30.89
399.872	40.79
400.081	-102.57
400.29	46.93
400.499	-49.32
400.708	89.94
400.917	81.75
401.127	40.79
401.336	81.75
401.545	83.8
401.754	112.47
401.963	87.89
402.172	73.56
402.381	-53.42
402.59	-12.46
402.799	91.99
403.008	63.32
403.217	30.55
403.426	53.08
403.635	-73.9
403.844	18.26
404.053	-16.55
404.262	-24.75
404.471	167.76
404.68	18.26
404.888	12.12
405.097	108.37
405.306	44.88
405.515	57.17
405.724	38.74
405.933	42.84
406.142	94.04
406.35	67.41
406.559	26.45
406.768	81.75
406.977	182.1
407.185	57.17
407.394	10.07
407.603	-14.51
407.812	96.08
408.02	75.6
408.229	10.07
408.438	110.42
408.646	-14.51
408.855	18.26
409.064	42.84
409.272	-14.51
409.481	63.32
409.69	-82.09
409.898	-18.6
410.107	22.36
410.315	87.89
410.524	83.8
410.733	102.23
410.941	94.04
411.15	87.89
411.358	30.55
411.567	22.36
411.775	46.93
411.984	22.36
412.192	36.69
412.401	-6.31
412.609	257.87
412.818	124.76
413.026	79.7
413.234	1.88
413.443	20.31
413.651	-2.22
413.86	48.98
414.068	145.24
414.276	143.19
414.485	18.26
414.693	239.44
414.901	180.05
415.11	-18.6
415.318	51.03
415.526	12.12
415.734	118.61
415.943	-24.75
416.151	110.42
416.359	-80.04
416.567	28.5
416.776	128.85
416.984	100.18
417.192	157.52
417.4	-57.51
417.608	-16.55
417.817	-20.65
418.025	137.04
418.233	124.76
418.441	-80.04
418.649	-6.31
418.857	38.74
419.065	200.53
419.273	-16.55
419.481	55.12
419.689	-16.55
419.897	30.55
420.105	-53.42
420.313	108.37
420.521	147.28
420.729	120.66
420.937	-88.23
421.145	-61.61
421.353	87.89
421.561	184.15
421.769	128.85
421.977	-4.27
422.185	63.32
422.393	-37.03
422.601	5.97
422.809	65.36
423.017	114.52
423.224	65.36
423.432	204.63
423.64	38.74
423.848	130.9
424.056	-18.6
424.263	77.65
424.471	44.88
424.679	85.84
424.887	59.22
425.094	126.8
425.302	38.74
425.51	-75.95
425.718	132.95
425.925	22.36
426.133	-61.61
426.341	272.21
426.548	69.46
426.756	16.21
426.964	106.32
427.171	-6.31
427.379	81.75
427.586	28.5
427.794	36.69
428.001	159.57
428.209	61.27
428.417	210.77
428.624	77.65
428.832	57.17
429.039	59.22
429.247	122.71
429.454	147.28
429.662	132.95
429.869	225.11
430.076	173.91
430.284	161.62
430.491	153.43
430.699	114.52
430.906	182.1
431.114	87.89
431.321	143.19
431.528	175.95
431.736	96.08
431.943	108.37
432.15	210.77
432.358	210.77
432.565	276.31
432.772	-53.42
432.979	245.59
433.187	118.61
433.394	292.69
433.601	106.32
433.808	210.77
434.016	198.48
434.223	128.85
434.43	200.53
434.637	190.29
434.844	235.35
435.052	223.06
435.259	231.25
435.466	194.39
435.673	264.02
435.88	327.5
436.087	251.73
436.294	317.26
436.501	339.79
436.708	266.07
436.915	257.87
437.122	323.41
437.329	208.72
437.537	374.61
437.743	313.17
437.95	372.56
438.157	370.51
438.364	288.59
438.571	317.26
438.778	354.13
438.985	397.14
439.192	421.71
439.399	458.57
439.606	411.47
439.813	515.92
440.02	536.4
440.227	560.97
440.433	460.62
440.64	581.45
440.847	495.44
441.054	483.15
441.261	702.28
441.467	532.3
441.674	513.87
441.881	685.9
442.088	552.78
442.294	722.76
442.501	720.71
442.708	759.63
442.914	782.15
443.121	796.49
443.328	796.49
443.534	794.44
443.741	894.79
443.948	798.54
444.154	851.78
444.361	1081.16
444.568	980.81
444.774	984.9
444.981	929.61
445.187	1146.69
445.394	1099.59
445.6	1058.63
445.807	1273.67
446.013	1224.51
446.22	1171.27
446.426	1359.68
446.633	1374.02
446.839	1527.61
447.046	1386.3
447.252	1552.19
447.459	1546.05
447.665	1564.48
447.871	1687.36
448.078	1781.56
448.284	1853.24
448.491	2031.41
448.697	1992.5
448.903	2078.52
449.11	2039.61
449.316	2076.47
449.522	2127.67
449.728	2314.03
449.935	2443.06
450.141	2463.54
450.347	2613.04
450.553	2438.96
450.76	2631.47
450.966	2754.35
451.172	2881.32
451.378	3020.58
451.584	3071.78
451.791	3227.43
451.997	3305.25
452.203	3395.36
452.409	3688.22
452.615	3663.65
452.821	3589.92
453.027	3591.97
453.233	4101.91
453.44	3979.03
453.646	4224.79
453.852	4441.87
454.058	4589.33
454.264	4787.98
454.47	5175.05
454.676	5007.11
454.882	5437.19
455.088	5187.33
455.294	5605.12
455.5	5932.79
455.705	6268.66
455.911	6399.73
456.117	6596.34
456.323	6579.95
456.529	6749.93
456.735	7120.62
456.941	7452.39
457.147	7931.61
457.352	7868.13
457.558	8146.65
457.764	8652.5
457.97	8777.42
458.176	9332.42
458.381	9565.89
458.587	9932.48
458.793	10346.17
458.999	10276.54
459.204	11644.58
459.41	12019.36
459.616	11978.4
459.821	12465.82
460.027	13000.33
460.233	13682.31
460.438	13727.36
460.644	14505.59
460.85	14653.05
461.055	15189.61
461.261	16150.11
461.466	15709.8
461.672	15939.17
461.878	17942.08
462.083	17811.01
462.289	18226.75
462.494	18859.57
462.7	18908.72
462.905	19461.68
463.111	20594.2
463.316	21773.83
463.522	22038.02
463.727	22617.6
463.932	23674.35
464.138	24335.84
464.343	25048.54
464.549	25671.12
464.754	27246.01
464.959	28272.04
465.165	28288.42
465.37	28183.98
465.575	28384.68
465.781	30516.61
465.986	31462.77
466.191	30422.41
466.397	31255.93
466.602	30289.29
466.807	32009.58
467.012	32709.99
467.218	33127.77
467.423	33035.61
467.628	34479.43
467.833	35777.84
468.038	35065.15
468.244	34495.81
468.449	36443.43
468.654	35575.09
468.859	35611.96
