Data from USB4F104151__61__10-43-49-574.txt Node

Date: Wed Feb 26 10:43:49 EST 2025
User: louis
Spectrometer: USB4F10415
Trigger mode: 4
Integration Time (sec): 1.000000E-1
Scans to average: 1
Electric dark correction enabled: true
Nonlinearity correction enabled: false
Boxcar width: 0
XAxis mode: Wavelengths
Number of Pixels in Spectrum: 3648
>>>>>Begin Spectral Data<<<<<
178.204	-379.04
178.424	-379.04
178.644	-379.04
178.864	-370.85
179.084	-407.72
179.304	-0.17
179.524	69.46
179.744	10.07
179.964	-2.22
180.184	-53.42
180.404	18.26
180.624	-26.79
180.844	61.27
181.064	-131.24
181.283	100.18
181.503	-61.61
181.723	16.21
181.943	-41.13
182.163	216.91
182.383	14.17
182.602	67.41
182.822	180.05
183.042	36.69
183.262	-63.66
183.482	18.26
183.701	94.04
183.921	5.97
184.141	-41.13
184.361	141.14
184.58	24.4
184.8	120.66
185.02	-98.47
185.239	69.46
185.459	32.6
185.679	108.37
185.898	14.17
186.118	145.24
186.338	32.6
186.557	124.76
186.777	44.88
186.997	-45.23
187.216	89.94
187.436	108.37
187.655	89.94
187.875	100.18
188.095	42.84
188.314	100.18
188.534	167.76
188.753	1.88
188.973	112.47
189.192	159.57
189.412	53.08
189.631	55.12
189.851	159.57
190.07	159.57
190.29	-18.6
190.509	22.36
190.729	36.69
190.948	153.43
191.168	251.73
191.387	102.23
191.607	-37.03
191.826	102.23
192.045	77.65
192.265	40.79
192.484	143.19
192.704	81.75
192.923	-82.09
193.142	161.62
193.362	94.04
193.581	243.54
193.8	73.56
194.02	161.62
194.239	-0.17
194.458	55.12
194.678	28.5
194.897	-0.17
195.116	65.36
195.335	57.17
195.555	135
195.774	26.45
195.993	-12.46
196.212	18.26
196.432	10.07
196.651	-0.17
196.87	34.64
197.089	356.18
197.308	5.97
197.528	110.42
197.747	-53.42
197.966	83.8
198.185	106.32
198.404	44.88
198.623	184.15
198.842	48.98
199.062	108.37
199.281	89.94
199.5	44.88
199.719	208.72
199.938	79.7
200.157	53.08
200.376	83.8
200.595	124.76
200.814	118.61
201.033	-2.22
201.252	180.05
201.471	102.23
201.69	89.94
201.909	24.4
202.128	147.28
202.347	55.12
202.566	91.99
202.785	5.97
203.004	124.76
203.223	266.07
203.442	61.27
203.661	-39.08
203.879	100.18
204.098	178
204.317	-32.94
204.536	46.93
204.755	77.65
204.974	116.56
205.193	-41.13
205.411	208.72
205.63	91.99
205.849	128.85
206.068	12.12
206.287	-22.7
206.505	180.05
206.724	16.21
206.943	16.21
207.162	10.07
207.381	135
207.599	81.75
207.818	53.08
208.037	32.6
208.255	24.4
208.474	79.7
208.693	100.18
208.911	73.56
209.13	135
209.349	137.04
209.567	102.23
209.786	137.04
210.005	89.94
210.223	24.4
210.442	5.97
210.661	-8.36
210.879	118.61
211.098	114.52
211.316	38.74
211.535	51.03
211.753	63.32
211.972	147.28
212.191	65.36
212.409	79.7
212.628	-2.22
212.846	-63.66
213.065	44.88
213.283	120.66
213.502	53.08
213.72	57.17
213.938	44.88
214.157	-20.65
214.375	122.71
214.594	77.65
214.812	145.24
215.031	63.32
215.249	46.93
215.467	67.41
215.686	40.79
215.904	8.02
216.122	106.32
216.341	132.95
216.559	83.8
216.778	116.56
216.996	151.38
217.214	18.26
217.432	69.46
217.651	16.21
217.869	130.9
218.087	81.75
218.306	22.36
218.524	8.02
218.742	73.56
218.96	126.8
219.179	61.27
219.397	143.19
219.615	317.26
219.833	118.61
220.051	3.93
220.27	184.15
220.488	192.34
220.706	14.17
220.924	71.51
221.142	-0.17
221.36	36.69
221.578	44.88
221.796	51.03
222.015	44.88
222.233	116.56
222.451	137.04
222.669	38.74
222.887	116.56
223.105	36.69
223.323	61.27
223.541	34.64
223.759	73.56
223.977	94.04
224.195	178
224.413	55.12
224.631	26.45
224.849	147.28
225.067	186.19
225.285	-14.51
225.503	24.4
225.721	-82.09
225.939	42.84
226.157	87.89
226.375	264.02
226.592	-22.7
226.81	79.7
227.028	114.52
227.246	182.1
227.464	81.75
227.682	-8.36
227.9	114.52
228.117	75.6
228.335	71.51
228.553	28.5
228.771	-61.61
228.989	87.89
229.206	221.01
229.424	38.74
229.642	98.13
229.86	40.79
230.077	186.19
230.295	75.6
230.513	98.13
230.731	126.8
230.948	112.47
231.166	126.8
231.384	38.74
231.601	-45.23
231.819	178
232.037	12.12
232.254	34.64
232.472	53.08
232.689	-8.36
232.907	178
233.125	55.12
233.342	-6.31
233.56	-24.75
233.777	36.69
233.995	28.5
234.213	79.7
234.43	34.64
234.648	44.88
234.865	48.98
235.083	108.37
235.3	87.89
235.518	112.47
235.735	141.14
235.953	98.13
236.17	108.37
236.388	-0.17
236.605	-2.22
236.822	159.57
237.04	149.33
237.257	75.6
237.475	46.93
237.692	12.12
237.909	94.04
238.127	30.55
238.344	96.08
238.562	-20.65
238.779	-51.37
238.996	-57.51
239.214	-55.47
239.431	135
239.648	5.97
239.865	46.93
240.083	38.74
240.3	59.22
240.517	-18.6
240.735	79.7
240.952	151.38
241.169	57.17
241.386	102.23
241.603	51.03
241.821	8.02
242.038	135
242.255	155.47
242.472	16.21
242.689	110.42
242.907	128.85
243.124	143.19
243.341	57.17
243.558	89.94
243.775	22.36
243.992	-84.14
244.209	122.71
244.426	130.9
244.643	69.46
244.86	3.93
245.078	98.13
245.295	100.18
245.512	34.64
245.729	28.5
245.946	59.22
246.163	132.95
246.38	-18.6
246.597	67.41
246.814	69.46
247.031	42.84
247.248	30.55
247.464	135
247.681	69.46
247.898	61.27
248.115	169.81
248.332	-10.41
248.549	63.32
248.766	223.06
248.983	79.7
249.2	63.32
249.417	157.52
249.633	65.36
249.85	143.19
250.067	38.74
250.284	106.32
250.501	38.74
250.717	79.7
250.934	-4.27
251.151	-30.89
251.368	96.08
251.585	114.52
251.801	87.89
252.018	61.27
252.235	110.42
252.451	-10.41
252.668	65.36
252.885	169.81
253.102	169.81
253.318	48.98
253.535	-30.89
253.752	28.5
253.968	26.45
254.185	57.17
254.401	116.56
254.618	167.76
254.835	36.69
255.051	169.81
255.268	53.08
255.484	71.51
255.701	87.89
255.917	118.61
256.134	3.93
256.351	118.61
256.567	-30.89
256.784	69.46
257	-20.65
257.217	61.27
257.433	112.47
257.65	36.69
257.866	106.32
258.082	-73.9
258.299	67.41
258.515	83.8
258.732	73.56
258.948	42.84
259.165	55.12
259.381	14.17
259.597	61.27
259.814	73.56
260.03	116.56
260.246	118.61
260.463	85.84
260.679	126.8
260.895	100.18
261.112	75.6
261.328	32.6
261.544	18.26
261.761	184.15
261.977	-43.18
262.193	-12.46
262.409	108.37
262.626	10.07
262.842	32.6
263.058	-18.6
263.274	116.56
263.49	57.17
263.707	106.32
263.923	40.79
264.139	-75.95
264.355	42.84
264.571	110.42
264.787	71.51
265.004	130.9
265.22	20.31
265.436	-75.95
265.652	32.6
265.868	73.56
266.084	61.27
266.3	22.36
266.516	-45.23
266.732	73.56
266.948	8.02
267.164	94.04
267.38	126.8
267.596	186.19
267.812	200.53
268.028	100.18
268.244	81.75
268.46	55.12
268.676	65.36
268.892	96.08
269.108	51.03
269.324	-71.85
269.54	73.56
269.756	57.17
269.972	8.02
270.188	-34.99
270.403	-32.94
270.619	40.79
270.835	85.84
271.051	51.03
271.267	-18.6
271.483	-2.22
271.698	106.32
271.914	85.84
272.13	53.08
272.346	87.89
272.562	8.02
272.777	139.09
272.993	40.79
273.209	22.36
273.425	128.85
273.64	-26.79
273.856	128.85
274.072	55.12
274.287	12.12
274.503	135
274.719	128.85
274.934	46.93
275.15	16.21
275.366	108.37
275.581	-18.6
275.797	102.23
276.012	55.12
276.228	46.93
276.444	69.46
276.659	145.24
276.875	20.31
277.09	-24.75
277.306	14.17
277.521	77.65
277.737	48.98
277.952	73.56
278.168	108.37
278.383	-4.27
278.599	44.88
278.814	106.32
279.03	108.37
279.245	175.95
279.461	42.84
279.676	153.43
279.892	-22.7
280.107	-49.32
280.322	34.64
280.538	81.75
280.753	-0.17
280.969	79.7
281.184	65.36
281.399	139.09
281.615	1.88
281.83	83.8
282.045	-55.47
282.26	-8.36
282.476	153.43
282.691	71.51
282.906	28.5
283.122	61.27
283.337	16.21
283.552	57.17
283.767	5.97
283.983	75.6
284.198	118.61
284.413	79.7
284.628	-0.17
284.843	1.88
285.058	112.47
285.274	30.55
285.489	26.45
285.704	46.93
285.919	-6.31
286.134	14.17
286.349	126.8
286.564	69.46
286.779	85.84
286.995	3.93
287.21	-2.22
287.425	75.6
287.64	77.65
287.855	141.14
288.07	22.36
288.285	149.33
288.5	87.89
288.715	83.8
288.93	30.55
289.145	-22.7
289.36	98.13
289.575	28.5
289.79	192.34
290.004	-22.7
290.219	110.42
290.434	-16.55
290.649	53.08
290.864	-43.18
291.079	85.84
291.294	85.84
291.509	-0.17
291.724	42.84
291.938	73.56
292.153	38.74
292.368	26.45
292.583	46.93
292.798	14.17
293.012	110.42
293.227	42.84
293.442	57.17
293.657	159.57
293.871	124.76
294.086	91.99
294.301	210.77
294.516	85.84
294.73	67.41
294.945	-49.32
295.16	40.79
295.374	22.36
295.589	87.89
295.804	32.6
296.018	85.84
296.233	98.13
296.447	36.69
296.662	32.6
296.877	186.19
297.091	67.41
297.306	32.6
297.52	71.51
297.735	12.12
297.949	61.27
298.164	38.74
298.378	18.26
298.593	40.79
298.807	67.41
299.022	57.17
299.236	91.99
299.451	14.17
299.665	57.17
299.88	65.36
300.094	71.51
300.309	-10.41
300.523	40.79
300.737	81.75
300.952	120.66
301.166	157.52
301.381	26.45
301.595	81.75
301.809	77.65
302.024	79.7
302.238	-16.55
302.452	130.9
302.667	96.08
302.881	114.52
303.095	128.85
303.309	257.87
303.524	-4.27
303.738	3.93
303.952	53.08
304.166	147.28
304.381	-90.28
304.595	214.87
304.809	30.55
305.023	-55.47
305.237	8.02
305.452	-90.28
305.666	71.51
305.88	79.7
306.094	104.28
306.308	85.84
306.522	206.67
306.736	61.27
306.95	132.95
307.164	26.45
307.379	32.6
307.593	169.81
307.807	210.77
308.021	114.52
308.235	163.67
308.449	-82.09
308.663	79.7
308.877	292.69
309.091	139.09
309.305	128.85
309.519	-159.91
309.733	173.91
309.947	-32.94
310.161	51.03
310.374	143.19
310.588	194.39
310.802	-18.6
311.016	108.37
311.23	102.23
311.444	-47.27
311.658	-20.65
311.872	161.62
312.085	208.72
312.299	77.65
312.513	169.81
312.727	67.41
312.941	5.97
313.154	36.69
313.368	24.4
313.582	28.5
313.796	91.99
314.009	36.69
314.223	163.67
314.437	94.04
314.651	83.8
314.864	8.02
315.078	-28.84
315.292	-45.23
315.505	24.4
315.719	69.46
315.933	106.32
316.146	65.36
316.36	-2.22
316.573	114.52
316.787	100.18
317.001	8.02
317.214	16.21
317.428	94.04
317.641	69.46
317.855	18.26
318.068	116.56
318.282	143.19
318.495	151.38
318.709	79.7
318.922	65.36
319.136	190.29
319.349	53.08
319.563	18.26
319.776	91.99
319.99	-16.55
320.203	120.66
320.417	83.8
320.63	67.41
320.843	157.52
321.057	89.94
321.27	46.93
321.483	114.52
321.697	161.62
321.91	57.17
322.124	100.18
322.337	79.7
322.55	61.27
322.763	116.56
322.977	59.22
323.19	36.69
323.403	57.17
323.617	61.27
323.83	165.71
324.043	-4.27
324.256	118.61
324.469	-10.41
324.683	69.46
324.896	96.08
325.109	79.7
325.322	44.88
325.535	120.66
325.748	126.8
325.962	106.32
326.175	-2.22
326.388	130.9
326.601	167.76
326.814	98.13
327.027	85.84
327.24	184.15
327.453	-53.42
327.666	130.9
327.879	135
328.092	75.6
328.305	77.65
328.518	42.84
328.731	73.56
328.944	42.84
329.157	18.26
329.37	-6.31
329.583	184.15
329.796	147.28
330.009	1.88
330.222	130.9
330.435	65.36
330.648	145.24
330.861	104.28
331.073	69.46
331.286	186.19
331.499	85.84
331.712	48.98
331.925	75.6
332.138	116.56
332.35	65.36
332.563	-14.51
332.776	167.76
332.989	16.21
333.202	-2.22
333.414	10.07
333.627	20.31
333.84	83.8
334.053	20.31
334.265	-22.7
334.478	51.03
334.691	14.17
334.903	18.26
335.116	-39.08
335.329	73.56
335.541	102.23
335.754	161.62
335.966	-24.75
336.179	91.99
336.392	14.17
336.604	61.27
336.817	128.85
337.029	81.75
337.242	26.45
337.454	85.84
337.667	32.6
337.88	132.95
338.092	-2.22
338.305	120.66
338.517	-8.36
338.729	118.61
338.942	89.94
339.154	8.02
339.367	18.26
339.579	69.46
339.792	-24.75
340.004	108.37
340.217	44.88
340.429	108.37
340.641	24.4
340.854	-6.31
341.066	44.88
341.278	98.13
341.491	182.1
341.703	24.4
341.915	5.97
342.128	63.32
342.34	79.7
342.552	-22.7
342.764	30.55
342.977	32.6
343.189	89.94
343.401	63.32
343.613	-37.03
343.826	36.69
344.038	10.07
344.25	73.56
344.462	-2.22
344.674	48.98
344.886	36.69
345.099	44.88
345.311	36.69
345.523	38.74
345.735	-61.61
345.947	67.41
346.159	167.76
346.371	44.88
346.583	12.12
346.795	106.32
347.007	24.4
347.219	124.76
347.431	12.12
347.643	96.08
347.855	5.97
348.067	169.81
348.279	-6.31
348.491	71.51
348.703	102.23
348.915	-0.17
349.127	108.37
349.339	36.69
349.551	-20.65
349.763	85.84
349.975	3.93
350.187	102.23
350.399	145.24
350.61	108.37
350.822	79.7
351.034	1.88
351.246	85.84
351.458	71.51
351.669	98.13
351.881	116.56
352.093	122.71
352.305	182.1
352.517	51.03
352.728	212.82
352.94	75.6
353.152	81.75
353.363	10.07
353.575	81.75
353.787	251.73
353.999	128.85
354.21	141.14
354.422	12.12
354.633	-14.51
354.845	57.17
355.057	40.79
355.268	32.6
355.48	190.29
355.692	12.12
355.903	3.93
356.115	36.69
356.326	-49.32
356.538	223.06
356.749	221.01
356.961	206.67
357.172	40.79
357.384	59.22
357.595	278.35
357.807	-18.6
358.018	32.6
358.23	89.94
358.441	200.53
358.653	34.64
358.864	53.08
359.075	-4.27
359.287	1.88
359.498	110.42
359.709	75.6
359.921	71.51
360.132	104.28
360.344	10.07
360.555	-108.71
360.766	83.8
360.977	63.32
361.189	110.42
361.4	77.65
361.611	75.6
361.823	87.89
362.034	63.32
362.245	-39.08
362.456	40.79
362.667	106.32
362.879	12.12
363.09	71.51
363.301	87.89
363.512	108.37
363.723	-28.84
363.935	83.8
364.146	87.89
364.357	85.84
364.568	71.51
364.779	-24.75
364.99	143.19
365.201	-4.27
365.412	141.14
365.623	-51.37
365.834	42.84
366.045	20.31
366.256	122.71
366.467	143.19
366.678	26.45
366.889	42.84
367.1	139.09
367.311	130.9
367.522	42.84
367.733	18.26
367.944	79.7
368.155	20.31
368.366	192.34
368.577	98.13
368.788	155.47
368.999	63.32
369.209	-14.51
369.42	241.49
369.631	270.16
369.842	89.94
370.053	48.98
370.264	114.52
370.474	67.41
370.685	77.65
370.896	53.08
371.107	102.23
371.317	141.14
371.528	46.93
371.739	106.32
371.95	143.19
372.16	77.65
372.371	38.74
372.582	-28.84
372.792	91.99
373.003	77.65
373.214	180.05
373.424	89.94
373.635	-26.79
373.846	155.47
374.056	48.98
374.267	151.38
374.477	147.28
374.688	24.4
374.898	153.43
375.109	51.03
375.319	63.32
375.53	137.04
375.74	171.86
375.951	10.07
376.161	65.36
376.372	139.09
376.582	1.88
376.793	87.89
377.003	67.41
377.214	14.17
377.424	98.13
377.635	-16.55
377.845	34.64
378.055	253.78
378.266	-24.75
378.476	32.6
378.686	28.5
378.897	87.89
379.107	108.37
379.317	55.12
379.528	81.75
379.738	83.8
379.948	-37.03
380.158	71.51
380.369	18.26
380.579	38.74
380.789	38.74
380.999	44.88
381.21	137.04
381.42	184.15
381.63	57.17
381.84	137.04
382.05	69.46
382.261	155.47
382.471	143.19
382.681	20.31
382.891	184.15
383.101	96.08
383.311	-30.89
383.521	57.17
383.731	79.7
383.941	114.52
384.151	75.6
384.361	65.36
384.571	91.99
384.781	139.09
384.991	204.63
385.201	167.76
385.411	69.46
385.621	106.32
385.831	87.89
386.041	59.22
386.251	32.6
386.461	171.86
386.671	55.12
386.881	161.62
387.091	20.31
387.301	137.04
387.511	135
387.72	147.28
387.93	178
388.14	-45.23
388.35	61.27
388.56	178
388.769	153.43
388.979	77.65
389.189	46.93
389.399	87.89
389.609	98.13
389.818	106.32
390.028	79.7
390.238	151.38
390.447	36.69
390.657	73.56
390.867	26.45
391.076	18.26
391.286	59.22
391.496	38.74
391.705	-10.41
391.915	161.62
392.125	124.76
392.334	-2.22
392.544	141.14
392.753	178
392.963	22.36
393.172	79.7
393.382	38.74
393.591	196.43
393.801	122.71
394.01	173.91
394.22	110.42
394.429	77.65
394.639	59.22
394.848	18.26
395.058	53.08
395.267	40.79
395.477	118.61
395.686	159.57
395.895	173.91
396.105	178
396.314	24.4
396.524	83.8
396.733	38.74
396.942	151.38
397.152	126.8
397.361	114.52
397.57	128.85
397.78	63.32
397.989	85.84
398.198	200.53
398.407	32.6
398.617	73.56
398.826	112.47
399.035	59.22
399.244	130.9
399.453	137.04
399.663	79.7
399.872	120.66
400.081	-32.94
400.29	161.62
400.499	-45.23
400.708	196.43
400.917	46.93
401.127	106.32
401.336	-22.7
401.545	147.28
401.754	141.14
401.963	124.76
402.172	116.56
402.381	-6.31
402.59	40.79
402.799	69.46
403.008	120.66
403.217	100.18
403.426	135
403.635	1.88
403.844	87.89
404.053	77.65
404.262	59.22
404.471	235.35
404.68	124.76
404.888	59.22
405.097	42.84
405.306	55.12
405.515	118.61
405.724	20.31
405.933	139.09
406.142	102.23
406.35	188.24
406.559	73.56
406.768	63.32
406.977	159.57
407.185	61.27
407.394	24.4
407.603	-47.27
407.812	30.55
408.02	77.65
408.229	57.17
408.438	44.88
408.646	-22.7
408.855	104.28
409.064	114.52
409.272	83.8
409.481	147.28
409.69	73.56
409.898	-61.61
410.107	106.32
410.315	139.09
410.524	59.22
410.733	139.09
410.941	75.6
411.15	135
411.358	124.76
411.567	180.05
411.775	157.52
411.984	112.47
412.192	153.43
412.401	-12.46
412.609	233.3
412.818	104.28
413.026	65.36
413.234	28.5
413.443	73.56
413.651	1.88
413.86	51.03
414.068	212.82
414.276	190.29
414.485	10.07
414.693	155.47
414.901	282.45
415.11	87.89
415.318	22.36
415.526	34.64
415.734	151.38
415.943	151.38
416.151	83.8
416.359	85.84
416.567	108.37
416.776	143.19
416.984	63.32
417.192	218.96
417.4	28.5
417.608	-4.27
417.817	18.26
418.025	235.35
418.233	167.76
418.441	-39.08
418.649	-14.51
418.857	65.36
419.065	186.19
419.273	32.6
419.481	122.71
419.689	63.32
419.897	126.8
420.105	48.98
420.313	75.6
420.521	159.57
420.729	171.86
420.937	44.88
421.145	79.7
421.353	124.76
421.561	153.43
421.769	67.41
421.977	-14.51
422.185	100.18
422.393	57.17
422.601	112.47
422.809	91.99
423.017	98.13
423.224	155.47
423.432	161.62
423.64	77.65
423.848	163.67
424.056	59.22
424.263	190.29
424.471	94.04
424.679	165.71
424.887	22.36
425.094	169.81
425.302	32.6
425.51	57.17
425.718	130.9
425.925	71.51
426.133	75.6
426.341	247.63
426.548	44.88
426.756	122.71
426.964	135
427.171	22.36
427.379	178
427.586	89.94
427.794	112.47
428.001	87.89
428.209	91.99
428.417	190.29
428.624	89.94
428.832	151.38
429.039	169.81
429.247	208.72
429.454	198.48
429.662	286.54
429.869	206.67
430.076	98.13
430.284	178
430.491	204.63
430.699	194.39
430.906	278.35
431.114	266.07
431.321	255.83
431.528	126.8
431.736	153.43
431.943	188.24
432.15	214.87
432.358	280.4
432.565	325.46
432.772	63.32
432.979	309.07
433.187	210.77
433.394	259.92
433.601	128.85
433.808	251.73
434.016	257.87
434.223	225.11
434.43	292.69
434.637	284.5
434.844	335.7
435.052	282.45
435.259	354.13
435.466	317.26
435.673	362.32
435.88	356.18
436.087	347.98
436.294	460.62
436.501	370.51
436.708	313.17
436.915	368.46
437.122	319.31
437.329	386.9
437.537	327.5
437.743	413.52
437.95	491.34
438.157	442.19
438.364	401.23
438.571	517.97
438.778	577.36
438.985	608.08
439.192	634.7
439.399	569.16
439.606	587.6
439.813	610.12
440.02	718.67
440.227	726.86
440.433	677.71
440.64	620.36
440.847	575.31
441.054	702.28
441.261	812.87
441.467	755.53
441.674	757.58
441.881	806.73
442.088	802.63
442.294	864.07
442.501	950.09
442.708	966.47
442.914	1083.2
443.121	943.94
443.328	1081.16
443.534	1066.82
443.741	1185.6
443.948	1083.2
444.154	1212.23
444.361	1363.78
444.568	1171.27
444.774	1283.91
444.981	1167.17
445.187	1470.27
445.394	1445.7
445.6	1326.91
445.807	1503.04
446.013	1529.66
446.22	1523.52
446.426	1648.44
446.633	1828.67
446.839	1935.16
447.046	1818.43
447.252	1984.31
447.459	1957.69
447.665	2010.93
447.871	2193.2
448.078	2301.75
448.284	2260.79
448.491	2350.9
448.697	2481.97
448.903	2676.52
449.11	2572.08
449.316	2502.45
449.522	2826.03
449.728	3008.3
449.935	3155.75
450.141	3028.78
450.347	3444.51
450.553	3327.78
450.76	3419.94
450.966	3585.82
451.172	3692.32
451.378	3731.23
451.584	3751.71
451.791	4192.02
451.997	4202.26
452.203	4220.69
452.409	4505.36
452.615	4699.92
452.821	4613.9
453.027	4675.34
453.233	5263.11
453.44	5005.06
453.646	5310.21
453.852	5560.06
454.058	5742.33
454.264	5756.67
454.47	6389.49
454.676	6326
454.882	6917.87
455.088	6711.02
455.294	7030.51
455.5	7466.72
455.705	7788.25
455.911	7960.28
456.117	7978.72
456.323	8462.04
456.529	8140.51
456.735	9109.19
456.941	9299.66
457.147	9733.82
457.352	9977.53
457.558	10266.3
457.764	10989.23
457.97	11302.57
458.176	11622.05
458.381	12203.68
458.587	12293.79
458.793	12938.9
458.999	13080.21
459.204	14540.41
459.41	15148.65
459.616	14847.6
459.821	15740.52
460.027	16510.55
460.233	17387.08
460.438	17376.84
460.644	18353.73
460.85	18470.46
461.055	19238.45
461.261	19887.65
461.466	19562.03
461.672	19926.57
461.878	22515.2
462.083	22185.47
462.289	22910.46
462.494	23621.1
462.7	24018.41
462.905	23913.96
463.111	26031.56
463.316	27094.46
463.522	27692.46
463.727	28921.24
463.932	29752.72
464.138	30797.18
464.343	31446.39
464.549	32492.9
464.754	34200.91
464.959	35001.66
465.165	36295.98
465.37	36005.17
465.575	35663.16
465.781	38108.43
465.986	38937.86
466.191	38808.84
466.397	39187.71
466.602	38268.17
466.807	40563.95
467.012	40703.21
467.218	41352.41
467.423	41749.72
467.628	43263.17
467.833	45018.28
468.038	44309.68
468.244	43324.61
468.449	45571.23
468.654	44729.51
468.859	44520.62
469.064	44709.04
