Data from USB4F104151__97__10-45-17-964.txt Node

Date: Wed Feb 26 10:45:17 EST 2025
User: louis
Spectrometer: USB4F10415
Trigger mode: 4
Integration Time (sec): 1.000000E-1
Scans to average: 1
Electric dark correction enabled: true
Nonlinearity correction enabled: false
Boxcar width: 0
XAxis mode: Wavelengths
Number of Pixels in Spectrum: 3648
>>>>>Begin Spectral Data<<<<<
178.204	-335.53
178.424	-335.53
178.644	-335.53
178.864	-390.82
179.084	-337.57
179.304	-63.15
179.524	-46.76
179.744	26.96
179.964	94.55
180.184	35.16
180.404	0.34
180.624	-5.8
180.844	-22.19
181.064	-59.05
181.283	84.31
181.503	-75.43
181.723	31.06
181.943	-106.15
182.163	198.99
182.383	-24.23
182.602	65.88
182.822	96.6
183.042	37.2
183.262	-48.81
183.482	55.64
183.701	51.54
183.921	-5.8
184.141	4.44
184.361	102.74
184.58	0.34
184.8	63.83
185.02	-24.23
185.239	176.47
185.459	6.49
185.679	139.6
185.898	-100.01
186.118	63.83
186.338	14.68
186.557	65.88
186.777	-48.81
186.997	16.73
187.216	106.84
187.436	207.19
187.655	59.73
187.875	47.44
188.095	-16.04
188.314	151.89
188.534	53.59
188.753	-34.47
188.973	139.6
189.192	196.95
189.412	-28.33
189.631	20.82
189.851	131.41
190.07	186.71
190.29	4.44
190.509	-9.9
190.729	6.49
190.948	133.46
191.168	184.66
191.387	160.08
191.607	14.68
191.826	24.92
192.045	6.49
192.265	20.82
192.484	55.64
192.704	29.01
192.923	-16.04
193.142	166.23
193.362	145.75
193.581	155.99
193.8	119.12
194.02	115.03
194.239	33.11
194.458	86.36
194.678	-24.23
194.897	6.49
195.116	72.02
195.335	41.3
195.555	76.12
195.774	6.49
195.993	129.36
196.212	96.6
196.432	80.21
196.651	-57
196.87	69.97
197.089	207.19
197.308	6.49
197.528	57.68
197.747	-28.33
197.966	131.41
198.185	104.79
198.404	43.35
198.623	117.08
198.842	67.92
199.062	149.84
199.281	104.79
199.5	82.26
199.719	151.89
199.938	72.02
200.157	125.27
200.376	63.83
200.595	129.36
200.814	100.69
201.033	39.25
201.252	160.08
201.471	145.75
201.69	117.08
201.909	127.32
202.128	82.26
202.347	67.92
202.566	63.83
202.785	-63.15
203.004	-28.33
203.223	266.58
203.442	92.5
203.661	-69.29
203.879	14.68
204.098	207.19
204.317	-63.15
204.536	78.16
204.755	104.79
204.974	102.74
205.193	35.16
205.411	119.12
205.63	78.16
205.849	110.93
206.068	2.39
206.287	16.73
206.505	61.78
206.724	18.77
206.943	-67.24
207.162	-61.1
207.381	106.84
207.599	22.87
207.818	98.64
208.037	-40.62
208.255	49.49
208.474	129.36
208.693	84.31
208.911	24.92
209.13	59.73
209.349	43.35
209.567	160.08
209.786	6.49
210.005	76.12
210.223	76.12
210.442	-116.39
210.661	-79.53
210.879	47.44
211.098	-54.95
211.316	24.92
211.535	96.6
211.753	67.92
211.972	110.93
212.191	-22.19
212.409	-67.24
212.628	72.02
212.846	-48.81
213.065	92.5
213.283	123.22
213.502	-42.67
213.72	-16.04
213.938	39.25
214.157	0.34
214.375	135.51
214.594	-26.28
214.812	39.25
215.031	24.92
215.249	20.82
215.467	88.4
215.686	39.25
215.904	61.78
216.122	35.16
216.341	160.08
216.559	12.63
216.778	141.65
216.996	127.32
217.214	6.49
217.432	-16.04
217.651	20.82
217.869	78.16
218.087	2.39
218.306	43.35
218.524	35.16
218.742	53.59
218.96	96.6
219.179	-95.91
219.397	35.16
219.615	221.52
219.833	12.63
220.051	-28.33
220.27	192.85
220.488	69.97
220.706	47.44
220.924	14.68
221.142	-1.71
221.36	100.69
221.578	96.6
221.796	72.02
222.015	-18.09
222.233	67.92
222.451	166.23
222.669	22.87
222.887	80.21
223.105	-71.34
223.323	63.83
223.541	6.49
223.759	35.16
223.977	4.44
224.195	164.18
224.413	94.55
224.631	80.21
224.849	22.87
225.067	162.13
225.285	18.77
225.503	67.92
225.721	-108.2
225.939	65.88
226.157	-7.85
226.375	201.04
226.592	-52.91
226.81	59.73
227.028	143.7
227.246	133.46
227.464	22.87
227.682	182.61
227.9	84.31
228.117	55.64
228.335	31.06
228.553	45.4
228.771	-9.9
228.989	45.4
229.206	92.5
229.424	39.25
229.642	0.34
229.86	-83.63
230.077	168.27
230.295	112.98
230.513	67.92
230.731	55.64
230.948	155.99
231.166	170.32
231.384	8.53
231.601	-95.91
231.819	106.84
232.037	-38.57
232.254	-26.28
232.472	-11.95
232.689	-3.75
232.907	100.69
233.125	74.07
233.342	-63.15
233.56	20.82
233.777	22.87
233.995	16.73
234.213	92.5
234.43	121.17
234.648	61.78
234.865	-36.52
235.083	69.97
235.3	88.4
235.518	137.56
235.735	155.99
235.953	123.22
236.17	63.83
236.388	26.96
236.605	84.31
236.822	106.84
237.04	139.6
237.257	10.58
237.475	-83.63
237.692	112.98
237.909	-38.57
238.127	35.16
238.344	31.06
238.562	37.2
238.779	-11.95
238.996	31.06
239.214	86.36
239.431	37.2
239.648	-30.38
239.865	112.98
240.083	59.73
240.3	29.01
240.517	14.68
240.735	18.77
240.952	143.7
241.169	102.74
241.386	43.35
241.603	53.59
241.821	-38.57
242.038	82.26
242.255	104.79
242.472	-24.23
242.689	98.64
242.907	59.73
243.124	41.3
243.341	84.31
243.558	6.49
243.775	-18.09
243.992	-32.43
244.209	129.36
244.426	145.75
244.643	41.3
244.86	45.4
245.078	137.56
245.295	90.45
245.512	45.4
245.729	37.2
245.946	14.68
246.163	74.07
246.38	-26.28
246.597	26.96
246.814	-9.9
247.031	24.92
247.248	10.58
247.464	155.99
247.681	6.49
247.898	131.41
248.115	55.64
248.332	-42.67
248.549	182.61
248.766	162.13
248.983	84.31
249.2	145.75
249.417	119.12
249.633	37.2
249.85	2.39
250.067	55.64
250.284	121.17
250.501	78.16
250.717	104.79
250.934	-48.81
251.151	-9.9
251.368	-20.14
251.585	35.16
251.801	65.88
252.018	-79.53
252.235	100.69
252.451	-5.8
252.668	6.49
252.885	104.79
253.102	6.49
253.318	47.44
253.535	-36.52
253.752	45.4
253.968	-7.85
254.185	-18.09
254.401	45.4
254.618	90.45
254.835	6.49
255.051	115.03
255.268	74.07
255.484	45.4
255.701	29.01
255.917	33.11
256.134	-3.75
256.351	78.16
256.567	-63.15
256.784	45.4
257	-106.15
257.217	45.4
257.433	135.51
257.65	-1.71
257.866	133.46
258.082	-34.47
258.299	-36.52
258.515	69.97
258.732	-32.43
258.948	-20.14
259.165	20.82
259.381	16.73
259.597	55.64
259.814	33.11
260.03	20.82
260.246	-42.67
260.463	39.25
260.679	82.26
260.895	55.64
261.112	51.54
261.328	4.44
261.544	-26.28
261.761	182.61
261.977	-50.86
262.193	59.73
262.409	59.73
262.626	-7.85
262.842	43.35
263.058	-5.8
263.274	135.51
263.49	63.83
263.707	92.5
263.923	72.02
264.139	-38.57
264.355	0.34
264.571	63.83
264.787	2.39
265.004	96.6
265.22	33.11
265.436	-38.57
265.652	33.11
265.868	86.36
266.084	-63.15
266.3	57.68
266.516	-122.54
266.732	31.06
266.948	74.07
267.164	35.16
267.38	137.56
267.596	78.16
267.812	153.94
268.028	-13.99
268.244	0.34
268.46	82.26
268.676	0.34
268.892	59.73
269.108	12.63
269.324	-16.04
269.54	6.49
269.756	92.5
269.972	-48.81
270.188	63.83
270.403	-36.52
270.619	61.78
270.835	63.83
271.051	-5.8
271.267	26.96
271.483	-9.9
271.698	135.51
271.914	72.02
272.13	33.11
272.346	-5.8
272.562	49.49
272.777	123.22
272.993	53.59
273.209	-65.19
273.425	100.69
273.64	16.73
273.856	147.8
274.072	84.31
274.287	29.01
274.503	63.83
274.719	74.07
274.934	16.73
275.15	-89.77
275.366	39.25
275.581	-40.62
275.797	90.45
276.012	-13.99
276.228	-3.75
276.444	22.87
276.659	137.56
276.875	-1.71
277.09	20.82
277.306	16.73
277.521	96.6
277.737	14.68
277.952	141.65
278.168	-26.28
278.383	57.68
278.599	33.11
278.814	100.69
279.03	18.77
279.245	158.03
279.461	72.02
279.676	96.6
279.892	-106.15
280.107	-28.33
280.322	-116.39
280.538	88.4
280.753	29.01
280.969	82.26
281.184	10.58
281.399	119.12
281.615	49.49
281.83	123.22
282.045	-1.71
282.26	-104.11
282.476	100.69
282.691	88.4
282.906	59.73
283.122	26.96
283.337	-20.14
283.552	49.49
283.767	0.34
283.983	102.74
284.198	-18.09
284.413	35.16
284.628	-46.76
284.843	59.73
285.058	37.2
285.274	18.77
285.489	55.64
285.704	92.5
285.919	-7.85
286.134	0.34
286.349	18.77
286.564	22.87
286.779	155.99
286.995	37.2
287.21	-73.39
287.425	112.98
287.64	61.78
287.855	86.36
288.07	-81.58
288.285	215.38
288.5	88.4
288.715	51.54
288.93	86.36
289.145	22.87
289.36	141.65
289.575	-46.76
289.79	196.95
290.004	-57
290.219	139.6
290.434	-34.47
290.649	8.53
290.864	-44.71
291.079	63.83
291.294	22.87
291.509	96.6
291.724	-26.28
291.938	43.35
292.153	45.4
292.368	-7.85
292.583	69.97
292.798	98.64
293.012	49.49
293.227	49.49
293.442	18.77
293.657	90.45
293.871	137.56
294.086	84.31
294.301	186.71
294.516	158.03
294.73	102.74
294.945	-22.19
295.16	-11.95
295.374	117.08
295.589	151.89
295.804	-34.47
296.018	55.64
296.233	90.45
296.447	22.87
296.662	14.68
296.877	82.26
297.091	180.56
297.306	16.73
297.52	-18.09
297.735	96.6
297.949	20.82
298.164	41.3
298.378	80.21
298.593	-48.81
298.807	2.39
299.022	18.77
299.236	145.75
299.451	78.16
299.665	12.63
299.88	-28.33
300.094	90.45
300.309	129.36
300.523	43.35
300.737	96.6
300.952	110.93
301.166	125.27
301.381	61.78
301.595	-20.14
301.809	63.83
302.024	-9.9
302.238	-44.71
302.452	57.68
302.667	8.53
302.881	149.84
303.095	84.31
303.309	-1.71
303.524	24.92
303.738	26.96
303.952	39.25
304.166	90.45
304.381	-97.96
304.595	139.6
304.809	24.92
305.023	119.12
305.237	-30.38
305.452	41.3
305.666	127.32
305.88	45.4
306.094	133.46
306.308	123.22
306.522	106.84
306.736	55.64
306.95	145.75
307.164	63.83
307.379	43.35
307.593	160.08
307.807	117.08
308.021	57.68
308.235	67.92
308.449	-114.34
308.663	-22.19
308.877	246.1
309.091	74.07
309.305	129.36
309.519	-104.11
309.733	80.21
309.947	-87.72
310.161	65.88
310.374	76.12
310.588	86.36
310.802	-1.71
311.016	10.58
311.23	57.68
311.444	49.49
311.658	57.68
311.872	186.71
312.085	145.75
312.299	190.8
312.513	94.55
312.727	45.4
312.941	16.73
313.154	78.16
313.368	-18.09
313.582	78.16
313.796	88.4
314.009	14.68
314.223	123.22
314.437	106.84
314.651	78.16
314.864	37.2
315.078	22.87
315.292	-16.04
315.505	-28.33
315.719	2.39
315.933	88.4
316.146	-36.52
316.36	-65.19
316.573	141.65
316.787	145.75
317.001	51.54
317.214	-3.75
317.428	92.5
317.641	-28.33
317.855	12.63
318.068	88.4
318.282	-11.95
318.495	172.37
318.709	59.73
318.922	86.36
319.136	170.32
319.349	92.5
319.563	-1.71
319.776	51.54
319.99	-44.71
320.203	82.26
320.417	84.31
320.63	92.5
320.843	164.18
321.057	67.92
321.27	-32.43
321.483	57.68
321.697	127.32
321.91	29.01
322.124	117.08
322.337	145.75
322.55	-13.99
322.763	131.41
322.977	47.44
323.19	8.53
323.403	-20.14
323.617	8.53
323.83	86.36
324.043	22.87
324.256	59.73
324.469	-61.1
324.683	84.31
324.896	59.73
325.109	51.54
325.322	-48.81
325.535	82.26
325.748	47.44
325.962	-22.19
326.175	57.68
326.388	69.97
326.601	192.85
326.814	31.06
327.027	41.3
327.24	174.42
327.453	-28.33
327.666	53.59
327.879	129.36
328.092	45.4
328.305	26.96
328.518	-3.75
328.731	-36.52
328.944	12.63
329.157	51.54
329.37	12.63
329.583	252.24
329.796	151.89
330.009	-52.91
330.222	82.26
330.435	78.16
330.648	-40.62
330.861	20.82
331.073	69.97
331.286	53.59
331.499	61.78
331.712	-54.95
331.925	88.4
332.138	82.26
332.35	108.88
332.563	-9.9
332.776	196.95
332.989	-13.99
333.202	-16.04
333.414	-46.76
333.627	61.78
333.84	18.77
334.053	106.84
334.265	-36.52
334.478	55.64
334.691	-46.76
334.903	29.01
335.116	-20.14
335.329	22.87
335.541	39.25
335.754	108.88
335.966	-11.95
336.179	98.64
336.392	18.77
336.604	39.25
336.817	76.12
337.029	31.06
337.242	26.96
337.454	141.65
337.667	65.88
337.88	104.79
338.092	67.92
338.305	84.31
338.517	2.39
338.729	151.89
338.942	90.45
339.154	-54.95
339.367	-38.57
339.579	106.84
339.792	-71.34
340.004	80.21
340.217	53.59
340.429	121.17
340.641	-22.19
340.854	-54.95
341.066	37.2
341.278	139.6
341.491	176.47
341.703	24.92
341.915	-32.43
342.128	35.16
342.34	14.68
342.552	-40.62
342.764	10.58
342.977	-20.14
343.189	43.35
343.401	92.5
343.613	14.68
343.826	117.08
344.038	61.78
344.25	16.73
344.462	22.87
344.674	123.22
344.886	-1.71
345.099	123.22
345.311	51.54
345.523	37.2
345.735	-159.4
345.947	65.88
346.159	63.83
346.371	-1.71
346.583	-38.57
346.795	205.14
347.007	-46.76
347.219	61.78
347.431	-9.9
347.643	59.73
347.855	-3.75
348.067	129.36
348.279	-50.86
348.491	-3.75
348.703	100.69
348.915	24.92
349.127	0.34
349.339	18.77
349.551	20.82
349.763	110.93
349.975	74.07
350.187	86.36
350.399	170.32
350.61	137.56
350.822	-18.09
351.034	63.83
351.246	16.73
351.458	51.54
351.669	104.79
351.881	47.44
352.093	84.31
352.305	117.08
352.517	84.31
352.728	147.8
352.94	29.01
353.152	22.87
353.363	-20.14
353.575	22.87
353.787	182.61
353.999	65.88
354.21	147.8
354.422	24.92
354.633	-63.15
354.845	74.07
355.057	67.92
355.268	22.87
355.48	102.74
355.692	-110.25
355.903	-18.09
356.115	47.44
356.326	-118.44
356.538	166.23
356.749	112.98
356.961	153.94
357.172	88.4
357.384	-3.75
357.595	248.15
357.807	39.25
358.018	-1.71
358.23	61.78
358.441	211.28
358.653	61.78
358.864	12.63
359.075	-106.15
359.287	96.6
359.498	61.78
359.709	78.16
359.921	88.4
360.132	96.6
360.344	55.64
360.555	-22.19
360.766	88.4
360.977	-26.28
361.189	141.65
361.4	53.59
361.611	145.75
361.823	182.61
362.034	106.84
362.245	-89.77
362.456	55.64
362.667	88.4
362.879	-77.48
363.09	26.96
363.301	55.64
363.512	92.5
363.723	26.96
363.935	-44.71
364.146	125.27
364.357	-9.9
364.568	43.35
364.779	-120.49
364.99	139.6
365.201	-5.8
365.412	164.18
365.623	-75.43
365.834	35.16
366.045	72.02
366.256	117.08
366.467	100.69
366.678	-42.67
366.889	108.88
367.1	-3.75
367.311	104.79
367.522	33.11
367.733	121.17
367.944	92.5
368.155	31.06
368.366	61.78
368.577	96.6
368.788	96.6
368.999	20.82
369.209	123.22
369.42	239.95
369.631	229.71
369.842	162.13
370.053	-9.9
370.264	112.98
370.474	20.82
370.685	61.78
370.896	57.68
371.107	164.18
371.317	84.31
371.528	53.59
371.739	155.99
371.95	72.02
372.16	69.97
372.371	-95.91
372.582	-5.8
372.792	84.31
373.003	94.55
373.214	82.26
373.424	78.16
373.635	14.68
373.846	151.89
374.056	65.88
374.267	74.07
374.477	92.5
374.688	6.49
374.898	59.73
375.109	63.83
375.319	63.83
375.53	153.94
375.74	53.59
375.951	10.58
376.161	88.4
376.372	131.41
376.582	-32.43
376.793	53.59
377.003	-3.75
377.214	-16.04
377.424	84.31
377.635	26.96
377.845	14.68
378.055	129.36
378.266	-24.23
378.476	45.4
378.686	33.11
378.897	43.35
379.107	164.18
379.317	45.4
379.528	104.79
379.738	63.83
379.948	-54.95
380.158	180.56
380.369	106.84
380.579	106.84
380.789	4.44
380.999	92.5
381.21	84.31
381.42	129.36
381.63	41.3
381.84	53.59
382.05	119.12
382.261	104.79
382.471	117.08
382.681	-34.47
382.891	131.41
383.101	84.31
383.311	-61.1
383.521	53.59
383.731	100.69
383.941	158.03
384.151	86.36
384.361	100.69
384.571	67.92
384.781	102.74
384.991	194.9
385.201	166.23
385.411	16.73
385.621	100.69
385.831	80.21
386.041	80.21
386.251	88.4
386.461	57.68
386.671	22.87
386.881	88.4
387.091	-5.8
387.301	112.98
387.511	59.73
387.72	74.07
387.93	186.71
388.14	-122.54
388.35	33.11
388.56	102.74
388.769	166.23
388.979	-38.57
389.189	35.16
389.399	63.83
389.609	127.32
389.818	18.77
390.028	16.73
390.238	41.3
390.447	6.49
390.657	129.36
390.867	26.96
391.076	16.73
391.286	33.11
391.496	16.73
391.705	57.68
391.915	117.08
392.125	108.88
392.334	14.68
392.544	141.65
392.753	37.2
392.963	-54.95
393.172	10.58
393.382	-20.14
393.591	160.08
393.801	59.73
394.01	184.66
394.22	45.4
394.429	61.78
394.639	-1.71
394.848	102.74
395.058	8.53
395.267	14.68
395.477	180.56
395.686	123.22
395.895	221.52
396.105	207.19
396.314	84.31
396.524	69.97
396.733	-79.53
396.942	88.4
397.152	98.64
397.361	131.41
397.57	31.06
397.78	2.39
397.989	26.96
398.198	254.29
398.407	72.02
398.617	-16.04
398.826	63.83
399.035	41.3
399.244	133.46
399.453	67.92
399.663	53.59
399.872	72.02
400.081	-34.47
400.29	131.41
400.499	-46.76
400.708	174.42
400.917	-18.09
401.127	-20.14
401.336	12.63
401.545	182.61
401.754	135.51
401.963	65.88
402.172	-7.85
402.381	24.92
402.59	12.63
402.799	51.54
403.008	112.98
403.217	72.02
403.426	145.75
403.635	-28.33
403.844	125.27
404.053	88.4
404.262	-3.75
404.471	143.7
404.68	108.88
404.888	151.89
405.097	86.36
405.306	117.08
405.515	129.36
405.724	47.44
405.933	129.36
406.142	53.59
406.35	90.45
406.559	29.01
406.768	8.53
406.977	104.79
407.185	78.16
407.394	-3.75
407.603	14.68
407.812	16.73
408.02	158.03
408.229	80.21
408.438	41.3
408.646	-1.71
408.855	86.36
409.064	43.35
409.272	29.01
409.481	115.03
409.69	6.49
409.898	-22.19
410.107	26.96
410.315	102.74
410.524	-30.38
410.733	35.16
410.941	37.2
411.15	139.6
411.358	149.84
411.567	69.97
411.775	37.2
411.984	65.88
412.192	51.54
412.401	65.88
412.609	153.94
412.818	110.93
413.026	166.23
413.234	2.39
413.443	47.44
413.651	-9.9
413.86	59.73
414.068	203.09
414.276	250.19
414.485	-26.28
414.693	170.32
414.901	110.93
415.11	43.35
415.318	102.74
415.526	59.73
415.734	67.92
415.943	26.96
416.151	151.89
416.359	100.69
416.567	61.78
416.776	55.64
416.984	78.16
417.192	188.75
417.4	57.68
417.608	22.87
417.817	84.31
418.025	61.78
418.233	160.08
418.441	-24.23
418.649	-42.67
418.857	94.55
419.065	178.51
419.273	-59.05
419.481	33.11
419.689	16.73
419.897	-38.57
420.105	-75.43
420.313	137.56
420.521	164.18
420.729	145.75
420.937	37.2
421.145	39.25
421.353	123.22
421.561	188.75
421.769	176.47
421.977	-40.62
422.185	14.68
422.393	53.59
422.601	72.02
422.809	110.93
423.017	125.27
423.224	94.55
423.432	192.85
423.64	90.45
423.848	164.18
424.056	18.77
424.263	205.14
424.471	49.49
424.679	121.17
424.887	-63.15
425.094	125.27
425.302	102.74
425.51	74.07
425.718	141.65
425.925	110.93
426.133	72.02
426.341	215.38
426.548	82.26
426.756	22.87
426.964	78.16
427.171	51.54
427.379	84.31
427.586	149.84
427.794	141.65
428.001	215.38
428.209	92.5
428.417	188.75
428.624	201.04
428.832	108.88
429.039	123.22
429.247	80.21
429.454	170.32
429.662	166.23
429.869	182.61
430.076	86.36
430.284	119.12
430.491	254.29
430.699	96.6
430.906	235.86
431.114	69.97
431.321	155.99
431.528	139.6
431.736	125.27
431.943	194.9
432.15	176.47
432.358	127.32
432.565	297.3
432.772	-5.8
432.979	211.28
433.187	172.37
433.394	276.82
433.601	131.41
433.808	192.85
434.016	270.67
434.223	221.52
434.43	211.28
434.637	246.1
434.844	258.39
435.052	311.63
435.259	231.76
435.466	342.35
435.673	227.67
435.88	217.43
436.087	350.54
436.294	391.5
436.501	420.17
436.708	162.13
436.915	358.74
437.122	293.2
437.329	321.87
437.537	340.3
437.743	354.64
437.95	457.04
438.157	344.4
438.364	426.32
438.571	383.31
438.778	495.95
438.985	457.04
439.192	508.24
439.399	418.13
439.606	481.61
439.813	559.44
440.02	606.54
440.227	676.17
440.433	608.59
440.64	508.24
440.847	592.2
441.054	678.22
441.261	731.47
441.467	645.45
441.674	616.78
441.881	768.33
442.088	637.26
442.294	780.62
442.501	899.4
442.708	870.73
442.914	866.63
443.121	928.07
443.328	907.59
443.534	960.84
443.741	936.26
443.948	770.38
444.154	1048.9
444.361	1259.84
444.568	1100.1
444.774	1165.64
444.981	1104.2
445.187	1208.64
445.394	1206.59
445.6	1220.93
445.807	1411.39
446.013	1290.56
446.22	1368.38
446.426	1495.36
446.633	1528.13
446.839	1665.34
447.046	1501.5
447.252	1849.66
447.459	1605.95
447.665	1745.21
447.871	1892.66
448.078	2031.93
448.284	1960.25
448.491	2158.9
448.697	2171.19
448.903	2214.2
449.11	2242.87
449.316	2396.46
449.522	2566.45
449.728	2554.16
449.935	2658.6
450.141	2679.08
450.347	2844.97
450.553	2838.83
450.76	2898.22
450.966	3111.21
451.172	3076.39
451.378	3346.72
451.584	3270.95
451.791	3541.28
451.997	3557.66
452.203	3528.99
452.409	3868.95
452.615	4170.01
452.821	3975.45
453.027	4075.8
453.233	4628.75
453.44	4284.69
453.646	4706.57
453.852	4780.3
454.058	5085.45
454.264	5290.24
454.47	5654.78
454.676	5617.92
454.882	6086.9
455.088	5740.8
455.294	6058.23
455.5	6441.2
455.705	6906.09
455.911	6879.47
456.117	6889.71
456.323	7268.58
456.529	7407.84
456.735	7895.26
456.941	8161.5
457.147	8437.97
457.352	8749.26
457.558	8843.47
457.764	9648.32
457.97	9795.78
458.176	9976
458.381	10676.4
458.587	10809.52
458.793	11378.86
458.999	11405.48
459.204	12652.69
459.41	13146.25
459.616	12814.48
459.821	13711.49
460.027	14295.16
460.233	14923.89
460.438	15014
460.644	15884.39
460.85	16083.04
461.055	16738.39
461.261	17399.88
461.466	17145.94
461.672	17446.99
461.878	19456.04
462.083	19355.69
462.289	19886.12
462.494	20494.36
462.7	20473.88
462.905	20879.38
463.111	22867.96
463.316	23635.95
463.522	24029.16
463.727	25104.34
463.932	26267.59
464.138	26767.29
464.343	27721.65
464.549	28307.37
464.754	30085
464.959	30699.39
465.165	31246.2
465.37	30979.96
465.575	31219.58
465.781	33306.46
465.986	34199.37
466.191	33492.82
466.397	34035.53
466.602	33159
466.807	35346.23
467.012	35667.77
467.218	36278.06
467.423	36161.33
467.628	37533.46
467.833	39710.46
468.038	38811.4
468.244	38113.04
468.449	39804.66
468.654	39020.29
