Data from USB4F104151__47__10-43-17-777.txt Node

Date: Wed Feb 26 10:43:17 EST 2025
User: louis
Spectrometer: USB4F10415
Trigger mode: 4
Integration Time (sec): 1.000000E-1
Scans to average: 1
Electric dark correction enabled: true
Nonlinearity correction enabled: false
Boxcar width: 0
XAxis mode: Wavelengths
Number of Pixels in Spectrum: 3648
>>>>>Begin Spectral Data<<<<<
178.204	-375.97
178.424	-375.97
178.644	-375.97
178.864	-449.7
179.084	-402.6
179.304	21.33
179.524	-50.35
179.744	31.57
179.964	19.29
180.184	-11.43
180.404	45.91
180.624	9.05
180.844	-29.87
181.064	-130.22
181.283	52.05
181.503	37.72
181.723	4.95
181.943	-111.78
182.163	244.56
182.383	-17.58
182.602	27.48
182.822	129.88
183.042	43.86
183.262	-1.19
183.482	15.19
183.701	76.63
183.921	97.11
184.141	-140.46
184.361	86.87
184.58	109.4
184.8	93.01
185.02	-21.67
185.239	113.49
185.459	56.15
185.679	80.72
185.898	-50.35
186.118	84.82
186.338	93.01
186.557	82.77
186.777	-5.29
186.997	-36.01
187.216	113.49
187.436	203.6
187.655	82.77
187.875	45.91
188.095	41.81
188.314	166.74
188.534	125.78
188.753	41.81
188.973	84.82
189.192	168.79
189.412	25.43
189.631	45.91
189.851	136.02
190.07	166.74
190.29	-7.34
190.509	-15.53
190.729	111.44
190.948	138.07
191.168	224.08
191.387	23.38
191.607	52.05
191.826	56.15
192.045	13.14
192.265	31.57
192.484	113.49
192.704	50
192.923	-56.49
193.142	275.28
193.362	172.88
193.581	142.16
193.8	-31.91
194.02	193.36
194.239	121.68
194.458	146.26
194.678	43.86
194.897	0.85
195.116	125.78
195.335	52.05
195.555	111.44
195.774	23.38
195.993	121.68
196.212	45.91
196.432	-9.39
196.651	11.09
196.87	-3.24
197.089	277.33
197.308	84.82
197.528	136.02
197.747	-74.92
197.966	21.33
198.185	121.68
198.404	-23.72
198.623	115.54
198.842	84.82
199.062	64.34
199.281	166.74
199.5	80.72
199.719	9.05
199.938	80.72
200.157	140.12
200.376	62.29
200.595	158.55
200.814	37.72
201.033	-17.58
201.252	217.94
201.471	74.58
201.69	84.82
201.909	-48.3
202.128	164.69
202.347	56.15
202.566	105.3
202.785	-44.2
203.004	-33.96
203.223	308.05
203.442	97.11
203.661	-52.39
203.879	164.69
204.098	136.02
204.317	-50.35
204.536	211.79
204.755	138.07
204.974	187.22
205.193	78.68
205.411	191.31
205.63	136.02
205.849	80.72
206.068	78.68
206.287	-19.63
206.505	185.17
206.724	27.48
206.943	29.52
207.162	43.86
207.381	111.44
207.599	144.21
207.818	107.35
208.037	2.9
208.255	-1.19
208.474	70.48
208.693	-3.24
208.911	11.09
209.13	119.64
209.349	138.07
209.567	113.49
209.786	86.87
210.005	105.3
210.223	23.38
210.442	-144.55
210.661	70.48
210.879	82.77
211.098	37.72
211.316	76.63
211.535	133.97
211.753	144.21
211.972	43.86
212.191	90.96
212.409	107.35
212.628	131.92
212.846	2.9
213.065	76.63
213.283	82.77
213.502	64.34
213.72	33.62
213.938	74.58
214.157	-13.48
214.375	105.3
214.594	58.2
214.812	99.16
215.031	45.91
215.249	56.15
215.467	136.02
215.686	97.11
215.904	111.44
216.122	31.57
216.341	142.16
216.559	50
216.778	146.26
216.996	70.48
217.214	43.86
217.432	21.33
217.651	17.24
217.869	66.39
218.087	103.25
218.306	78.68
218.524	74.58
218.742	62.29
218.96	58.2
219.179	-13.48
219.397	60.24
219.615	250.71
219.833	68.44
220.051	-17.58
220.27	41.81
220.488	129.88
220.706	105.3
220.924	-5.29
221.142	54.1
221.36	80.72
221.578	56.15
221.796	68.44
222.015	138.07
222.233	2.9
222.451	125.78
222.669	-60.59
222.887	80.72
223.105	60.24
223.323	62.29
223.541	-7.34
223.759	47.96
223.977	78.68
224.195	144.21
224.413	144.21
224.631	13.14
224.849	123.73
225.067	215.89
225.285	2.9
225.503	47.96
225.721	-81.07
225.939	82.77
226.157	52.05
226.375	273.23
226.592	62.29
226.81	13.14
227.028	136.02
227.246	123.73
227.464	136.02
227.682	80.72
227.9	111.44
228.117	56.15
228.335	93.01
228.553	13.14
228.771	33.62
228.989	144.21
229.206	131.92
229.424	23.38
229.642	86.87
229.86	15.19
230.077	90.96
230.295	54.1
230.513	105.3
230.731	86.87
230.948	230.23
231.166	82.77
231.384	39.76
231.601	-48.3
231.819	228.18
232.037	-27.82
232.254	-15.53
232.472	37.72
232.689	29.52
232.907	148.31
233.125	17.24
233.342	72.53
233.56	19.29
233.777	2.9
233.995	-15.53
234.213	86.87
234.43	138.07
234.648	37.72
234.865	58.2
235.083	17.24
235.3	99.16
235.518	160.59
235.735	111.44
235.953	125.78
236.17	50
236.388	72.53
236.605	21.33
236.822	125.78
237.04	74.58
237.257	90.96
237.475	0.85
237.692	41.81
237.909	119.64
238.127	-13.48
238.344	70.48
238.562	41.81
238.779	2.9
238.996	-3.24
239.214	-5.29
239.431	127.83
239.648	31.57
239.865	115.54
240.083	78.68
240.3	-27.82
240.517	-9.39
240.735	39.76
240.952	189.27
241.169	88.92
241.386	129.88
241.603	50
241.821	0.85
242.038	76.63
242.255	138.07
242.472	4.95
242.689	115.54
242.907	50
243.124	101.2
243.341	80.72
243.558	9.05
243.775	-19.63
243.992	19.29
244.209	43.86
244.426	113.49
244.643	78.68
244.86	-23.72
245.078	119.64
245.295	23.38
245.512	41.81
245.729	-7.34
245.946	56.15
246.163	37.72
246.38	54.1
246.597	58.2
246.814	39.76
247.031	2.9
247.248	2.9
247.464	107.35
247.681	84.82
247.898	123.73
248.115	76.63
248.332	47.96
248.549	152.4
248.766	260.95
248.983	19.29
249.2	166.74
249.417	119.64
249.633	11.09
249.85	129.88
250.067	52.05
250.284	95.06
250.501	76.63
250.717	58.2
250.934	-103.59
251.151	80.72
251.368	119.64
251.585	74.58
251.801	103.25
252.018	-29.87
252.235	78.68
252.451	15.19
252.668	31.57
252.885	84.82
253.102	70.48
253.318	43.86
253.535	35.67
253.752	23.38
253.968	-72.87
254.185	-56.49
254.401	88.92
254.618	111.44
254.835	19.29
255.051	93.01
255.268	29.52
255.484	52.05
255.701	99.16
255.917	70.48
256.134	-1.19
256.351	43.86
256.567	25.43
256.784	13.14
257	-25.77
257.217	146.26
257.433	156.5
257.65	82.77
257.866	127.83
258.082	0.85
258.299	13.14
258.515	11.09
258.732	2.9
258.948	86.87
259.165	27.48
259.381	-44.2
259.597	136.02
259.814	58.2
260.03	-11.43
260.246	56.15
260.463	164.69
260.679	80.72
260.895	-36.01
261.112	33.62
261.328	99.16
261.544	-1.19
261.761	209.75
261.977	25.43
262.193	41.81
262.409	58.2
262.626	121.68
262.842	15.19
263.058	-15.53
263.274	197.46
263.49	99.16
263.707	123.73
263.923	133.97
264.139	15.19
264.355	133.97
264.571	95.06
264.787	27.48
265.004	240.47
265.22	17.24
265.436	-15.53
265.652	58.2
265.868	76.63
266.084	58.2
266.3	99.16
266.516	-68.78
266.732	62.29
266.948	-25.77
267.164	54.1
267.38	121.68
267.596	13.14
267.812	115.54
268.028	82.77
268.244	41.81
268.46	31.57
268.676	15.19
268.892	66.39
269.108	50
269.324	-74.92
269.54	-46.25
269.756	70.48
269.972	-38.06
270.188	80.72
270.403	2.9
270.619	45.91
270.835	80.72
271.051	39.76
271.267	-66.73
271.483	-17.58
271.698	43.86
271.914	-11.43
272.13	99.16
272.346	-23.72
272.562	97.11
272.777	273.23
272.993	25.43
273.209	19.29
273.425	101.2
273.64	-93.35
273.856	86.87
274.072	-70.83
274.287	84.82
274.503	82.77
274.719	113.49
274.934	-11.43
275.15	-70.83
275.366	113.49
275.581	0.85
275.797	115.54
276.012	35.67
276.228	29.52
276.444	54.1
276.659	174.93
276.875	-38.06
277.09	58.2
277.306	62.29
277.521	133.97
277.737	62.29
277.952	62.29
278.168	-15.53
278.383	35.67
278.599	97.11
278.814	50
279.03	11.09
279.245	136.02
279.461	19.29
279.676	109.4
279.892	-60.59
280.107	-58.54
280.322	47.96
280.538	148.31
280.753	13.14
280.969	84.82
281.184	25.43
281.399	215.89
281.615	111.44
281.83	35.67
282.045	-40.11
282.26	23.38
282.476	-33.96
282.691	99.16
282.906	90.96
283.122	47.96
283.337	74.58
283.552	93.01
283.767	58.2
283.983	109.4
284.198	7
284.413	117.59
284.628	-36.01
284.843	70.48
285.058	117.59
285.274	82.77
285.489	-70.83
285.704	33.62
285.919	62.29
286.134	82.77
286.349	66.39
286.564	86.87
286.779	150.36
286.995	-31.91
287.21	19.29
287.425	136.02
287.64	-36.01
287.855	103.25
288.07	-44.2
288.285	125.78
288.5	142.16
288.715	62.29
288.93	13.14
289.145	-3.24
289.36	54.1
289.575	-19.63
289.79	129.88
290.004	21.33
290.219	136.02
290.434	-68.78
290.649	-7.34
290.864	-68.78
291.079	0.85
291.294	60.24
291.509	60.24
291.724	21.33
291.938	19.29
292.153	62.29
292.368	-1.19
292.583	154.45
292.798	144.21
293.012	125.78
293.227	15.19
293.442	52.05
293.657	58.2
293.871	172.88
294.086	86.87
294.301	195.41
294.516	119.64
294.73	31.57
294.945	-1.19
295.16	37.72
295.374	133.97
295.589	56.15
295.804	0.85
296.018	-38.06
296.233	121.68
296.447	148.31
296.662	27.48
296.877	140.12
297.091	70.48
297.306	54.1
297.52	-7.34
297.735	-17.58
297.949	66.39
298.164	90.96
298.378	74.58
298.593	7
298.807	15.19
299.022	60.24
299.236	199.51
299.451	-9.39
299.665	-3.24
299.88	29.52
300.094	76.63
300.309	56.15
300.523	93.01
300.737	-25.77
300.952	154.45
301.166	127.83
301.381	-17.58
301.595	-40.11
301.809	45.91
302.024	54.1
302.238	90.96
302.452	58.2
302.667	29.52
302.881	152.4
303.095	74.58
303.309	154.45
303.524	-5.29
303.738	52.05
303.952	7
304.166	58.2
304.381	-40.11
304.595	185.17
304.809	-33.96
305.023	105.3
305.237	37.72
305.452	62.29
305.666	33.62
305.88	146.26
306.094	97.11
306.308	121.68
306.522	166.74
306.736	82.77
306.95	70.48
307.164	17.24
307.379	58.2
307.593	183.12
307.807	117.59
308.021	115.54
308.235	162.64
308.449	-3.24
308.663	41.81
308.877	144.21
309.091	-13.48
309.305	78.68
309.519	-64.68
309.733	142.16
309.947	-15.53
310.161	107.35
310.374	60.24
310.588	93.01
310.802	-70.83
311.016	74.58
311.23	-1.19
311.444	-27.82
311.658	52.05
311.872	136.02
312.085	160.59
312.299	86.87
312.513	164.69
312.727	131.92
312.941	-60.59
313.154	86.87
313.368	54.1
313.582	70.48
313.796	152.4
314.009	97.11
314.223	170.83
314.437	148.31
314.651	113.49
314.864	13.14
315.078	35.67
315.292	-5.29
315.505	15.19
315.719	105.3
315.933	123.73
316.146	95.06
316.36	45.91
316.573	119.64
316.787	144.21
317.001	43.86
317.214	-42.15
317.428	68.44
317.641	47.96
317.855	13.14
318.068	-31.91
318.282	4.95
318.495	172.88
318.709	123.73
318.922	78.68
319.136	148.31
319.349	99.16
319.563	19.29
319.776	129.88
319.99	-13.48
320.203	105.3
320.417	31.57
320.63	144.21
320.843	154.45
321.057	-3.24
321.27	23.38
321.483	131.92
321.697	113.49
321.91	43.86
322.124	90.96
322.337	21.33
322.55	19.29
322.763	41.81
322.977	-15.53
323.19	27.48
323.403	109.4
323.617	84.82
323.83	158.55
324.043	19.29
324.256	2.9
324.469	-3.24
324.683	125.78
324.896	50
325.109	60.24
325.322	-126.12
325.535	166.74
325.748	172.88
325.962	23.38
326.175	-7.34
326.388	43.86
326.601	107.35
326.814	54.1
327.027	60.24
327.24	156.5
327.453	-31.91
327.666	13.14
327.879	158.55
328.092	93.01
328.305	58.2
328.518	35.67
328.731	70.48
328.944	50
329.157	37.72
329.37	41.81
329.583	195.41
329.796	82.77
330.009	4.95
330.222	160.59
330.435	80.72
330.648	68.44
330.861	33.62
331.073	56.15
331.286	82.77
331.499	70.48
331.712	39.76
331.925	54.1
332.138	103.25
332.35	117.59
332.563	-17.58
332.776	127.83
332.989	72.53
333.202	25.43
333.414	54.1
333.627	70.48
333.84	4.95
334.053	99.16
334.265	4.95
334.478	43.86
334.691	15.19
334.903	60.24
335.116	-40.11
335.329	80.72
335.541	4.95
335.754	162.64
335.966	27.48
336.179	39.76
336.392	54.1
336.604	84.82
336.817	78.68
337.029	97.11
337.242	90.96
337.454	93.01
337.667	93.01
337.88	215.89
338.092	168.79
338.305	90.96
338.517	70.48
338.729	88.92
338.942	88.92
339.154	-1.19
339.367	-21.67
339.579	88.92
339.792	-56.49
340.004	90.96
340.217	105.3
340.429	113.49
340.641	21.33
340.854	-9.39
341.066	66.39
341.278	131.92
341.491	140.12
341.703	78.68
341.915	-13.48
342.128	88.92
342.34	156.5
342.552	-5.29
342.764	70.48
342.977	2.9
343.189	-7.34
343.401	115.54
343.613	37.72
343.826	136.02
344.038	54.1
344.25	-13.48
344.462	7
344.674	86.87
344.886	76.63
345.099	117.59
345.311	101.2
345.523	25.43
345.735	-27.82
345.947	82.77
346.159	109.4
346.371	-1.19
346.583	7
346.795	242.51
347.007	17.24
347.219	121.68
347.431	60.24
347.643	111.44
347.855	19.29
348.067	127.83
348.279	-13.48
348.491	2.9
348.703	50
348.915	2.9
349.127	11.09
349.339	31.57
349.551	7
349.763	129.88
349.975	-36.01
350.187	117.59
350.399	88.92
350.61	64.34
350.822	39.76
351.034	47.96
351.246	80.72
351.458	41.81
351.669	74.58
351.881	70.48
352.093	107.35
352.305	142.16
352.517	107.35
352.728	140.12
352.94	111.44
353.152	133.97
353.363	29.52
353.575	31.57
353.787	217.94
353.999	166.74
354.21	168.79
354.422	-13.48
354.633	60.24
354.845	66.39
355.057	84.82
355.268	68.44
355.48	119.64
355.692	-19.63
355.903	84.82
356.115	-5.29
356.326	-36.01
356.538	144.21
356.749	95.06
356.961	121.68
357.172	45.91
357.384	45.91
357.595	230.23
357.807	-44.2
358.018	25.43
358.23	-1.19
358.441	201.55
358.653	148.31
358.864	21.33
359.075	4.95
359.287	17.24
359.498	82.77
359.709	136.02
359.921	76.63
360.132	47.96
360.344	58.2
360.555	39.76
360.766	93.01
360.977	50
361.189	35.67
361.4	70.48
361.611	119.64
361.823	193.36
362.034	15.19
362.245	-25.77
362.456	11.09
362.667	39.76
362.879	19.29
363.09	54.1
363.301	117.59
363.512	78.68
363.723	60.24
363.935	52.05
364.146	138.07
364.357	13.14
364.568	21.33
364.779	-11.43
364.99	107.35
365.201	76.63
365.412	187.22
365.623	-56.49
365.834	97.11
366.045	76.63
366.256	172.88
366.467	60.24
366.678	15.19
366.889	66.39
367.1	-13.48
367.311	107.35
367.522	60.24
367.733	90.96
367.944	101.2
368.155	35.67
368.366	88.92
368.577	197.46
368.788	148.31
368.999	58.2
369.209	21.33
369.42	250.71
369.631	320.34
369.842	54.1
370.053	41.81
370.264	146.26
370.474	50
370.685	4.95
370.896	39.76
371.107	117.59
371.317	78.68
371.528	76.63
371.739	164.69
371.95	152.4
372.16	123.73
372.371	-19.63
372.582	-19.63
372.792	88.92
373.003	111.44
373.214	107.35
373.424	76.63
373.635	0.85
373.846	115.54
374.056	60.24
374.267	64.34
374.477	78.68
374.688	35.67
374.898	82.77
375.109	60.24
375.319	62.29
375.53	185.17
375.74	101.2
375.951	27.48
376.161	70.48
376.372	123.73
376.582	99.16
376.793	93.01
377.003	43.86
377.214	39.76
377.424	119.64
377.635	90.96
377.845	45.91
378.055	213.84
378.266	-1.19
378.476	95.06
378.686	-31.91
378.897	66.39
379.107	146.26
379.317	66.39
379.528	68.44
379.738	138.07
379.948	74.58
380.158	58.2
380.369	93.01
380.579	97.11
380.789	80.72
380.999	148.31
381.21	144.21
381.42	170.83
381.63	72.53
381.84	88.92
382.05	107.35
382.261	166.74
382.471	136.02
382.681	4.95
382.891	166.74
383.101	78.68
383.311	-17.58
383.521	-9.39
383.731	209.75
383.941	142.16
384.151	54.1
384.361	0.85
384.571	37.72
384.781	99.16
384.991	219.99
385.201	201.55
385.411	127.83
385.621	99.16
385.831	95.06
386.041	74.58
386.251	84.82
386.461	148.31
386.671	33.62
386.881	158.55
387.091	54.1
387.301	174.93
387.511	66.39
387.72	99.16
387.93	191.31
388.14	2.9
388.35	54.1
388.56	142.16
388.769	125.78
388.979	56.15
389.189	-5.29
389.399	58.2
389.609	140.12
389.818	136.02
390.028	99.16
390.238	125.78
390.447	86.87
390.657	113.49
390.867	-1.19
391.076	13.14
391.286	105.3
391.496	41.81
391.705	101.2
391.915	123.73
392.125	115.54
392.334	37.72
392.544	76.63
392.753	21.33
392.963	0.85
393.172	19.29
393.382	60.24
393.591	170.83
393.801	-3.24
394.01	215.89
394.22	31.57
394.429	93.01
394.639	25.43
394.848	90.96
395.058	119.64
395.267	52.05
395.477	88.92
395.686	111.44
395.895	215.89
396.105	283.47
396.314	97.11
396.524	93.01
396.733	27.48
396.942	158.55
397.152	86.87
397.361	170.83
397.57	121.68
397.78	66.39
397.989	123.73
398.198	209.75
398.407	88.92
398.617	52.05
398.826	84.82
399.035	103.25
399.244	50
399.453	90.96
399.663	33.62
399.872	97.11
400.081	52.05
400.29	258.9
400.499	7
400.708	144.21
400.917	17.24
401.127	74.58
401.336	72.53
401.545	256.85
401.754	187.22
401.963	103.25
402.172	76.63
402.381	56.15
402.59	95.06
402.799	109.4
403.008	86.87
403.217	60.24
403.426	37.72
403.635	-29.87
403.844	93.01
404.053	29.52
404.262	23.38
404.471	111.44
404.68	93.01
404.888	9.05
405.097	33.62
405.306	97.11
405.515	123.73
405.724	33.62
405.933	140.12
406.142	101.2
406.35	150.36
406.559	41.81
406.768	60.24
406.977	189.27
407.185	74.58
407.394	109.4
407.603	103.25
407.812	-1.19
408.02	95.06
408.229	154.45
408.438	47.96
408.646	37.72
408.855	95.06
409.064	140.12
409.272	74.58
409.481	119.64
409.69	21.33
409.898	-64.68
410.107	154.45
410.315	179.03
410.524	29.52
410.733	164.69
410.941	80.72
411.15	-9.39
411.358	138.07
411.567	176.98
411.775	142.16
411.984	93.01
412.192	183.12
412.401	54.1
412.609	179.03
412.818	115.54
413.026	25.43
413.234	66.39
413.443	119.64
413.651	37.72
413.86	68.44
414.068	103.25
414.276	185.17
414.485	-11.43
414.693	215.89
414.901	234.32
415.11	45.91
415.318	90.96
415.526	115.54
415.734	105.3
415.943	95.06
416.151	154.45
416.359	37.72
416.567	43.86
416.776	129.88
416.984	121.68
417.192	250.71
417.4	31.57
417.608	-21.67
417.817	33.62
418.025	97.11
418.233	219.99
418.441	62.29
418.649	52.05
418.857	146.26
419.065	183.12
419.273	86.87
419.481	45.91
419.689	70.48
419.897	90.96
420.105	-5.29
420.313	191.31
420.521	160.59
420.729	168.79
420.937	29.52
421.145	25.43
421.353	174.93
421.561	119.64
421.769	117.59
421.977	-9.39
422.185	88.92
422.393	54.1
422.601	187.22
422.809	88.92
423.017	105.3
423.224	113.49
423.432	117.59
423.64	78.68
423.848	179.03
424.056	54.1
424.263	179.03
424.471	105.3
424.679	201.55
424.887	-81.07
425.094	232.27
425.302	168.79
425.51	15.19
425.718	78.68
425.925	97.11
426.133	129.88
426.341	236.37
426.548	138.07
426.756	45.91
426.964	136.02
427.171	11.09
427.379	125.78
427.586	109.4
427.794	115.54
428.001	170.83
428.209	185.17
428.417	209.75
428.624	86.87
428.832	125.78
429.039	90.96
429.247	95.06
429.454	50
429.662	260.95
429.869	203.6
430.076	185.17
430.284	189.27
430.491	203.6
430.699	207.7
430.906	215.89
431.114	97.11
431.321	199.51
431.528	123.73
431.736	183.12
431.943	248.66
432.15	242.51
432.358	203.6
432.565	260.95
432.772	37.72
432.979	181.07
433.187	183.12
433.394	199.51
433.601	138.07
433.808	170.83
434.016	340.82
434.223	275.28
434.43	224.08
434.637	351.06
434.844	365.39
435.052	308.05
435.259	371.54
435.466	357.2
435.673	344.91
435.88	349.01
436.087	418.64
436.294	426.83
436.501	385.87
436.708	369.49
436.915	373.58
437.122	369.49
437.329	281.43
437.537	402.26
437.743	455.5
437.95	484.17
438.157	439.12
438.364	402.26
438.571	506.7
438.778	506.7
438.985	545.61
439.192	545.61
439.399	459.6
439.606	510.8
439.813	584.52
440.02	699.21
440.227	740.17
440.433	709.45
440.64	639.82
440.847	578.38
441.054	676.68
441.261	783.18
441.467	729.93
441.674	838.47
441.881	826.18
442.088	736.07
442.294	805.71
442.501	922.44
442.708	891.72
442.914	910.15
443.121	1047.37
443.328	928.58
443.534	1043.27
443.741	1051.46
443.948	996.17
444.154	1186.63
444.361	1481.53
444.568	1190.72
444.774	1217.35
444.981	1157.96
445.187	1368.9
445.394	1375.04
445.6	1403.71
445.807	1502.01
446.013	1512.25
446.22	1471.29
446.426	1665.85
446.633	1770.3
446.839	1848.12
447.046	1755.96
447.252	2032.44
447.459	1880.89
447.665	1893.18
447.871	2059.06
448.078	2179.89
448.284	2227
448.491	2282.29
448.697	2370.35
448.903	2577.2
449.11	2618.16
449.316	2548.53
449.522	2724.65
449.728	2949.93
449.935	2913.06
450.141	3042.09
450.347	3183.4
450.553	2988.84
450.76	3212.07
450.966	3298.08
451.172	3240.74
451.378	3619.61
451.584	3592.99
451.791	3887.9
451.997	4061.98
452.203	4203.29
452.409	4553.49
452.615	4408.08
452.821	4258.58
453.027	4561.68
453.233	4948.75
453.44	4815.63
453.646	5038.86
453.852	5264.13
454.058	5464.83
454.264	5679.87
454.47	5950.2
454.676	6120.18
454.882	6621.94
455.088	6417.14
455.294	6703.86
455.5	7164.65
455.705	7582.43
455.911	7568.1
456.117	7719.65
456.323	8133.34
456.529	8030.94
456.735	8825.55
456.941	9044.68
457.147	9366.21
457.352	9816.77
457.558	9919.17
457.764	10576.56
457.97	10691.25
458.176	11131.56
458.381	11774.63
458.587	11936.42
458.793	12530.33
458.999	12642.96
459.204	13908.61
459.41	14510.71
459.616	14250.62
459.821	15114.86
460.027	15774.31
460.233	16458.33
460.438	16560.73
460.644	17519.18
460.85	17707.59
461.055	18344.51
461.261	19493.42
461.466	18975.28
461.672	19225.14
461.878	21662.22
462.083	21416.46
462.289	21883.4
462.494	22475.26
462.7	22839.8
462.905	23112.18
463.111	24781.28
463.316	25973.19
463.522	26464.71
463.727	27586.99
463.932	28574.11
464.138	29411.73
464.343	30527.88
464.549	30642.56
464.754	32739.68
464.959	33681.75
465.165	34117.96
465.37	34154.83
465.575	34124.11
465.781	36415.79
465.986	37431.58
466.191	36829.48
466.397	37529.88
466.602	36340.01
466.807	38742.28
467.012	39053.57
467.218	39647.48
467.423	39844.09
467.628	40823.01
467.833	43018.44
468.038	42240.21
468.244	41519.32
468.449	43133.12
468.654	42641.61
468.859	42301.65
