Data from USB4F104151__157__13-58-40-713.txt Node

Date: Thu Mar 13 13:58:40 EDT 2025
User: louis
Spectrometer: USB4F10415
Trigger mode: 4
Integration Time (sec): 1.000000E-2
Scans to average: 1
Electric dark correction enabled: true
Nonlinearity correction enabled: false
Boxcar width: 0
XAxis mode: Wavelengths
Number of Pixels in Spectrum: 3648
>>>>>Begin Spectral Data<<<<<
178.204	-18.94
178.424	-18.94
178.644	-18.94
178.864	-55.81
179.084	-61.95
179.304	-23.04
179.524	9.73
179.744	9.73
179.964	-39.42
180.184	34.3
180.404	-49.66
180.624	-14.85
180.844	-10.75
181.064	-27.14
181.283	42.5
181.503	-18.94
181.723	87.55
181.943	28.16
182.163	44.54
182.383	-8.7
182.602	65.02
182.822	73.21
183.042	-4.61
183.262	-18.94
183.482	9.73
183.701	-43.52
183.921	22.02
184.141	52.74
184.361	7.68
184.58	69.12
184.8	50.69
185.02	71.17
185.239	93.69
185.459	26.11
185.679	30.21
185.898	-51.71
186.118	17.92
186.338	73.21
186.557	-20.99
186.777	-8.7
186.997	50.69
187.216	15.87
187.436	13.82
187.655	28.16
187.875	67.07
188.095	19.97
188.314	73.21
188.534	46.59
188.753	58.88
188.973	22.02
189.192	38.4
189.412	36.35
189.631	-31.23
189.851	22.02
190.07	38.4
190.29	24.06
190.509	-25.09
190.729	1.54
190.948	103.93
191.168	-16.9
191.387	15.87
191.607	42.5
191.826	48.64
192.045	40.45
192.265	17.92
192.484	-10.75
192.704	73.21
192.923	13.82
193.142	79.36
193.362	-23.04
193.581	36.35
193.8	22.02
194.02	52.74
194.239	69.12
194.458	71.17
194.678	11.78
194.897	44.54
195.116	30.21
195.335	22.02
195.555	46.59
195.774	-10.75
195.993	40.45
196.212	28.16
196.432	42.5
196.651	71.17
196.87	-31.23
197.089	105.98
197.308	3.58
197.528	22.02
197.747	-25.09
197.966	-2.56
198.185	83.45
198.404	36.35
198.623	5.63
198.842	28.16
199.062	69.12
199.281	-12.8
199.5	38.4
199.719	15.87
199.938	-16.9
200.157	19.97
200.376	13.82
200.595	17.92
200.814	42.5
201.033	30.21
201.252	-6.66
201.471	44.54
201.69	-18.94
201.909	75.26
202.128	38.4
202.347	-0.51
202.566	-29.18
202.785	-2.56
203.004	30.21
203.223	28.16
203.442	36.35
203.661	30.21
203.879	11.78
204.098	-59.9
204.317	38.4
204.536	17.92
204.755	-4.61
204.974	19.97
205.193	54.78
205.411	38.4
205.63	87.55
205.849	97.79
206.068	-8.7
206.287	-20.99
206.505	24.06
206.724	44.54
206.943	13.82
207.162	101.89
207.381	40.45
207.599	48.64
207.818	-2.56
208.037	56.83
208.255	-35.33
208.474	38.4
208.693	-39.42
208.911	1.54
209.13	75.26
209.349	-2.56
209.567	-25.09
209.786	13.82
210.005	11.78
210.223	24.06
210.442	-47.62
210.661	19.97
210.879	7.68
211.098	50.69
211.316	24.06
211.535	50.69
211.753	71.17
211.972	38.4
212.191	-10.75
212.409	-6.66
212.628	28.16
212.846	44.54
213.065	54.78
213.283	56.83
213.502	19.97
213.72	13.82
213.938	40.45
214.157	-33.28
214.375	36.35
214.594	7.68
214.812	13.82
215.031	-45.57
215.249	40.45
215.467	32.26
215.686	26.11
215.904	42.5
216.122	-2.56
216.341	50.69
216.559	5.63
216.778	26.11
216.996	-20.99
217.214	17.92
217.432	5.63
217.651	5.63
217.869	67.07
218.087	-39.42
218.306	36.35
218.524	26.11
218.742	-10.75
218.96	67.07
219.179	38.4
219.397	48.64
219.615	89.6
219.833	34.3
220.051	-61.95
220.27	58.88
220.488	-33.28
220.706	-61.95
220.924	26.11
221.142	99.84
221.36	5.63
221.578	15.87
221.796	46.59
222.015	15.87
222.233	-23.04
222.451	83.45
222.669	-10.75
222.887	54.78
223.105	-10.75
223.323	9.73
223.541	1.54
223.759	44.54
223.977	-14.85
224.195	-18.94
224.413	36.35
224.631	28.16
224.849	-2.56
225.067	73.21
225.285	-53.76
225.503	46.59
225.721	-0.51
225.939	1.54
226.157	34.3
226.375	30.21
226.592	26.11
226.81	52.74
227.028	-10.75
227.246	79.36
227.464	-16.9
227.682	58.88
227.9	22.02
228.117	54.78
228.335	13.82
228.553	-4.61
228.771	11.78
228.989	56.83
229.206	60.93
229.424	103.93
229.642	-39.42
229.86	34.3
230.077	58.88
230.295	7.68
230.513	-39.42
230.731	56.83
230.948	50.69
231.166	30.21
231.384	-6.66
231.601	7.68
231.819	67.07
232.037	26.11
232.254	-18.94
232.472	62.98
232.689	-6.66
232.907	75.26
233.125	-29.18
233.342	38.4
233.56	3.58
233.777	108.03
233.995	1.54
234.213	-2.56
234.43	36.35
234.648	42.5
234.865	30.21
235.083	34.3
235.3	15.87
235.518	-10.75
235.735	30.21
235.953	-6.66
236.17	-14.85
236.388	-12.8
236.605	40.45
236.822	69.12
237.04	13.82
237.257	9.73
237.475	52.74
237.692	67.07
237.909	34.3
238.127	30.21
238.344	40.45
238.562	58.88
238.779	118.27
238.996	-6.66
239.214	-4.61
239.431	52.74
239.648	50.69
239.865	60.93
240.083	-6.66
240.3	62.98
240.517	26.11
240.735	15.87
240.952	-23.04
241.169	44.54
241.386	67.07
241.603	19.97
241.821	17.92
242.038	42.5
242.255	17.92
242.472	9.73
242.689	7.68
242.907	7.68
243.124	28.16
243.341	-2.56
243.558	5.63
243.775	1.54
243.992	-6.66
244.209	60.93
244.426	-8.7
244.643	42.5
244.86	24.06
245.078	3.58
245.295	-41.47
245.512	-33.28
245.729	9.73
245.946	52.74
246.163	-20.99
246.38	-4.61
246.597	42.5
246.814	1.54
247.031	67.07
247.248	54.78
247.464	1.54
247.681	52.74
247.898	44.54
248.115	15.87
248.332	13.82
248.549	56.83
248.766	99.84
248.983	83.45
249.2	7.68
249.417	24.06
249.633	5.63
249.85	36.35
250.067	38.4
250.284	3.58
250.501	5.63
250.717	5.63
250.934	9.73
251.151	5.63
251.368	50.69
251.585	3.58
251.801	-10.75
252.018	87.55
252.235	77.31
252.451	-53.76
252.668	44.54
252.885	-4.61
253.102	-31.23
253.318	15.87
253.535	60.93
253.752	89.6
253.968	38.4
254.185	-0.51
254.401	15.87
254.618	-23.04
254.835	-10.75
255.051	83.45
255.268	1.54
255.484	9.73
255.701	67.07
255.917	71.17
256.134	-27.14
256.351	22.02
256.567	34.3
256.784	19.97
257	69.12
257.217	36.35
257.433	5.63
257.65	11.78
257.866	-10.75
258.082	-25.09
258.299	-31.23
258.515	67.07
258.732	-23.04
258.948	71.17
259.165	65.02
259.381	77.31
259.597	13.82
259.814	79.36
260.03	-20.99
260.246	30.21
260.463	34.3
260.679	22.02
260.895	56.83
261.112	73.21
261.328	-55.81
261.544	67.07
261.761	19.97
261.977	79.36
262.193	19.97
262.409	30.21
262.626	13.82
262.842	79.36
263.058	-16.9
263.274	101.89
263.49	50.69
263.707	7.68
263.923	-0.51
264.139	-0.51
264.355	44.54
264.571	67.07
264.787	24.06
265.004	42.5
265.22	7.68
265.436	17.92
265.652	79.36
265.868	24.06
266.084	38.4
266.3	48.64
266.516	5.63
266.732	11.78
266.948	60.93
267.164	71.17
267.38	-18.94
267.596	34.3
267.812	99.84
268.028	42.5
268.244	48.64
268.46	48.64
268.676	-27.14
268.892	-6.66
269.108	-8.7
269.324	-37.38
269.54	-2.56
269.756	19.97
269.972	26.11
270.188	67.07
270.403	-35.33
270.619	60.93
270.835	67.07
271.051	-20.99
271.267	-37.38
271.483	30.21
271.698	36.35
271.914	42.5
272.13	32.26
272.346	75.26
272.562	50.69
272.777	19.97
272.993	28.16
273.209	19.97
273.425	3.58
273.64	132.61
273.856	24.06
274.072	42.5
274.287	71.17
274.503	38.4
274.719	24.06
274.934	5.63
275.15	11.78
275.366	71.17
275.581	19.97
275.797	52.74
276.012	-57.86
276.228	32.26
276.444	36.35
276.659	77.31
276.875	1.54
277.09	67.07
277.306	1.54
277.521	54.78
277.737	-8.7
277.952	17.92
278.168	-2.56
278.383	62.98
278.599	85.5
278.814	9.73
279.03	9.73
279.245	-16.9
279.461	28.16
279.676	65.02
279.892	97.79
280.107	24.06
280.322	71.17
280.538	36.35
280.753	42.5
280.969	56.83
281.184	-23.04
281.399	11.78
281.615	50.69
281.83	26.11
282.045	-96.77
282.26	-31.23
282.476	11.78
282.691	5.63
282.906	-53.76
283.122	83.45
283.337	-4.61
283.552	38.4
283.767	75.26
283.983	62.98
284.198	28.16
284.413	3.58
284.628	-6.66
284.843	24.06
285.058	54.78
285.274	7.68
285.489	-16.9
285.704	83.45
285.919	79.36
286.134	75.26
286.349	40.45
286.564	65.02
286.779	-49.66
286.995	26.11
287.21	-12.8
287.425	-8.7
287.64	-31.23
287.855	-27.14
288.07	-39.42
288.285	58.88
288.5	87.55
288.715	24.06
288.93	-14.85
289.145	42.5
289.36	9.73
289.575	42.5
289.79	7.68
290.004	50.69
290.219	50.69
290.434	75.26
290.649	34.3
290.864	5.63
291.079	-10.75
291.294	15.87
291.509	46.59
291.724	54.78
291.938	36.35
292.153	89.6
292.368	103.93
292.583	15.87
292.798	-43.52
293.012	9.73
293.227	60.93
293.442	77.31
293.657	19.97
293.871	28.16
294.086	26.11
294.301	60.93
294.516	17.92
294.73	30.21
294.945	13.82
295.16	69.12
295.374	-10.75
295.589	75.26
295.804	62.98
296.018	-14.85
296.233	-0.51
296.447	32.26
296.662	75.26
296.877	7.68
297.091	1.54
297.306	58.88
297.52	69.12
297.735	24.06
297.949	22.02
298.164	124.41
298.378	65.02
298.593	-12.8
298.807	99.84
299.022	114.17
299.236	-27.14
299.451	85.5
299.665	17.92
299.88	65.02
300.094	-18.94
300.309	54.78
300.523	5.63
300.737	17.92
300.952	34.3
301.166	54.78
301.381	42.5
301.595	9.73
301.809	1.54
302.024	34.3
302.238	62.98
302.452	73.21
302.667	46.59
302.881	50.69
303.095	30.21
303.309	5.63
303.524	-59.9
303.738	58.88
303.952	-12.8
304.166	26.11
304.381	-35.33
304.595	58.88
304.809	95.74
305.023	-4.61
305.237	-31.23
305.452	60.93
305.666	48.64
305.88	-4.61
306.094	11.78
306.308	-2.56
306.522	-25.09
306.736	15.87
306.95	50.69
307.164	-25.09
307.379	-16.9
307.593	54.78
307.807	79.36
308.021	108.03
308.235	36.35
308.449	9.73
308.663	54.78
308.877	46.59
309.091	77.31
309.305	40.45
309.519	24.06
309.733	71.17
309.947	50.69
310.161	9.73
310.374	44.54
310.588	7.68
310.802	22.02
311.016	-27.14
311.23	46.59
311.444	26.11
311.658	-25.09
311.872	1.54
312.085	-2.56
312.299	-12.8
312.513	65.02
312.727	26.11
312.941	77.31
313.154	77.31
313.368	-23.04
313.582	17.92
313.796	-29.18
314.009	79.36
314.223	50.69
314.437	60.93
314.651	60.93
314.864	-18.94
315.078	81.41
315.292	28.16
315.505	-8.7
315.719	17.92
315.933	75.26
316.146	48.64
316.36	-55.81
316.573	40.45
316.787	38.4
317.001	13.82
317.214	-31.23
317.428	95.74
317.641	24.06
317.855	22.02
318.068	38.4
318.282	50.69
318.495	34.3
318.709	73.21
318.922	99.84
319.136	73.21
319.349	36.35
319.563	32.26
319.776	-43.52
319.99	-12.8
320.203	67.07
320.417	19.97
320.63	7.68
320.843	26.11
321.057	11.78
321.27	9.73
321.483	13.82
321.697	60.93
321.91	108.03
322.124	67.07
322.337	32.26
322.55	50.69
322.763	44.54
322.977	60.93
323.19	36.35
323.403	95.74
323.617	65.02
323.83	32.26
324.043	54.78
324.256	-4.61
324.469	-25.09
324.683	22.02
324.896	97.79
325.109	58.88
325.322	36.35
325.535	58.88
325.748	42.5
325.962	42.5
326.175	-4.61
326.388	46.59
326.601	15.87
326.814	89.6
327.027	-6.66
327.24	15.87
327.453	11.78
327.666	19.97
327.879	71.17
328.092	36.35
328.305	46.59
328.518	28.16
328.731	50.69
328.944	54.78
329.157	44.54
329.37	50.69
329.583	67.07
329.796	42.5
330.009	-10.75
330.222	126.46
330.435	-35.33
330.648	34.3
330.861	58.88
331.073	1.54
331.286	-39.42
331.499	69.12
331.712	28.16
331.925	67.07
332.138	-4.61
332.35	34.3
332.563	28.16
332.776	24.06
332.989	44.54
333.202	38.4
333.414	5.63
333.627	62.98
333.84	15.87
334.053	48.64
334.265	34.3
334.478	75.26
334.691	62.98
334.903	-8.7
335.116	38.4
335.329	-12.8
335.541	5.63
335.754	44.54
335.966	36.35
336.179	44.54
336.392	30.21
336.604	34.3
336.817	22.02
337.029	32.26
337.242	17.92
337.454	44.54
337.667	60.93
337.88	91.65
338.092	30.21
338.305	-25.09
338.517	75.26
338.729	28.16
338.942	13.82
339.154	79.36
339.367	42.5
339.579	85.5
339.792	15.87
340.004	32.26
340.217	54.78
340.429	52.74
340.641	-12.8
340.854	7.68
341.066	65.02
341.278	91.65
341.491	50.69
341.703	28.16
341.915	3.58
342.128	22.02
342.34	42.5
342.552	103.93
342.764	52.74
342.977	30.21
343.189	93.69
343.401	28.16
343.613	44.54
343.826	89.6
344.038	83.45
344.25	32.26
344.462	9.73
344.674	50.69
344.886	60.93
345.099	15.87
345.311	-20.99
345.523	79.36
345.735	-12.8
345.947	34.3
346.159	9.73
346.371	75.26
346.583	40.45
346.795	42.5
347.007	60.93
347.219	50.69
347.431	-12.8
347.643	99.84
347.855	79.36
348.067	120.32
348.279	110.08
348.491	71.17
348.703	124.41
348.915	67.07
349.127	48.64
349.339	91.65
349.551	26.11
349.763	34.3
349.975	22.02
350.187	56.83
350.399	42.5
350.61	40.45
350.822	5.63
351.034	26.11
351.246	114.17
351.458	17.92
351.669	108.03
351.881	99.84
352.093	38.4
352.305	89.6
352.517	5.63
352.728	79.36
352.94	60.93
353.152	34.3
353.363	17.92
353.575	99.84
353.787	95.74
353.999	22.02
354.21	13.82
354.422	1.54
354.633	97.79
354.845	60.93
355.057	42.5
355.268	81.41
355.48	105.98
355.692	-14.85
355.903	54.78
356.115	99.84
356.326	24.06
356.538	50.69
356.749	46.59
356.961	62.98
357.172	32.26
357.384	108.03
357.595	5.63
357.807	83.45
358.018	126.46
358.23	17.92
358.441	52.74
358.653	13.82
358.864	11.78
359.075	62.98
359.287	26.11
359.498	79.36
359.709	38.4
359.921	30.21
360.132	46.59
360.344	13.82
360.555	-20.99
360.766	44.54
360.977	75.26
361.189	69.12
361.4	-31.23
361.611	75.26
361.823	77.31
362.034	34.3
362.245	71.17
362.456	69.12
362.667	11.78
362.879	-14.85
363.09	-0.51
363.301	42.5
363.512	50.69
363.723	36.35
363.935	34.3
364.146	79.36
364.357	15.87
364.568	36.35
364.779	75.26
364.99	11.78
365.201	44.54
365.412	44.54
365.623	-12.8
365.834	69.12
366.045	85.5
366.256	42.5
366.467	11.78
366.678	52.74
366.889	22.02
367.1	7.68
367.311	151.04
367.522	-8.7
367.733	65.02
367.944	118.27
368.155	81.41
368.366	50.69
368.577	48.64
368.788	85.5
368.999	97.79
369.209	52.74
369.42	52.74
369.631	101.89
369.842	19.97
370.053	58.88
370.264	-18.94
370.474	44.54
370.685	-27.14
370.896	17.92
371.107	62.98
371.317	1.54
371.528	42.5
371.739	65.02
371.95	36.35
372.16	67.07
372.371	79.36
372.582	48.64
372.792	-27.14
373.003	38.4
373.214	46.59
373.424	22.02
373.635	-53.76
373.846	97.79
374.056	34.3
374.267	26.11
374.477	-6.66
374.688	42.5
374.898	38.4
375.109	40.45
375.319	75.26
375.53	26.11
375.74	54.78
375.951	46.59
376.161	32.26
376.372	56.83
376.582	-45.57
376.793	9.73
377.003	50.69
377.214	30.21
377.424	-20.99
377.635	69.12
377.845	1.54
378.055	30.21
378.266	50.69
378.476	50.69
378.686	83.45
378.897	22.02
379.107	75.26
379.317	26.11
379.528	17.92
379.738	116.22
379.948	67.07
380.158	73.21
380.369	95.74
380.579	71.17
380.789	17.92
380.999	50.69
381.21	75.26
381.42	40.45
381.63	54.78
381.84	87.55
382.05	19.97
382.261	56.83
382.471	26.11
382.681	9.73
382.891	58.88
383.101	60.93
383.311	81.41
383.521	95.74
383.731	56.83
383.941	95.74
384.151	40.45
384.361	9.73
384.571	11.78
384.781	-6.66
384.991	36.35
385.201	56.83
385.411	62.98
385.621	34.3
385.831	54.78
386.041	77.31
386.251	75.26
386.461	50.69
386.671	58.88
386.881	36.35
387.091	22.02
387.301	52.74
387.511	11.78
387.72	50.69
387.93	-18.94
388.14	-20.99
388.35	-4.61
388.56	28.16
388.769	15.87
388.979	46.59
389.189	34.3
389.399	83.45
389.609	40.45
389.818	67.07
390.028	-16.9
390.238	36.35
390.447	67.07
390.657	42.5
390.867	65.02
391.076	32.26
391.286	52.74
391.496	67.07
391.705	17.92
391.915	11.78
392.125	83.45
392.334	83.45
392.544	-39.42
392.753	40.45
392.963	19.97
393.172	42.5
393.382	46.59
393.591	40.45
393.801	118.27
394.01	26.11
394.22	95.74
394.429	71.17
394.639	13.82
394.848	114.17
395.058	26.11
395.267	44.54
395.477	34.3
395.686	17.92
395.895	95.74
396.105	15.87
396.314	124.41
396.524	112.13
396.733	99.84
396.942	99.84
397.152	132.61
397.361	93.69
397.57	142.85
397.78	50.69
397.989	48.64
398.198	118.27
398.407	99.84
398.617	67.07
398.826	83.45
399.035	-12.8
399.244	24.06
399.453	153.09
399.663	71.17
399.872	73.21
400.081	50.69
400.29	56.83
400.499	36.35
400.708	91.65
400.917	95.74
401.127	85.5
401.336	-6.66
401.545	136.7
401.754	58.88
401.963	112.13
402.172	130.56
402.381	87.55
402.59	97.79
402.799	75.26
403.008	26.11
403.217	101.89
403.426	101.89
403.635	132.61
403.844	75.26
404.053	130.56
404.262	159.23
404.471	71.17
404.68	101.89
404.888	108.03
405.097	65.02
405.306	196.09
405.515	171.52
405.724	130.56
405.933	99.84
406.142	169.47
406.35	140.8
406.559	167.42
406.768	120.32
406.977	187.9
407.185	144.89
407.394	175.61
407.603	161.28
407.812	165.37
408.02	179.71
408.229	157.18
408.438	224.76
408.646	126.46
408.855	196.09
409.064	269.82
409.272	124.41
409.481	329.21
409.69	290.3
409.898	241.15
410.107	251.39
410.315	175.61
410.524	255.48
410.733	288.25
410.941	333.31
411.15	290.3
411.358	286.2
411.567	288.25
411.775	267.77
411.984	327.16
412.192	411.13
412.401	298.49
412.609	357.88
412.818	339.45
413.026	382.46
413.234	396.79
413.443	445.95
413.651	427.51
413.86	386.55
414.068	390.65
414.276	458.23
414.485	452.09
414.693	443.9
414.901	480.76
415.11	493.05
415.318	482.81
415.526	546.3
415.734	534.01
415.943	546.3
416.151	644.6
416.359	585.21
416.567	613.88
416.776	652.79
416.984	681.46
417.192	656.89
417.4	634.36
417.608	706.04
417.817	757.24
418.025	822.77
418.233	773.62
418.441	873.97
418.649	822.77
418.857	919.03
419.065	974.32
419.273	921.07
419.481	951.79
419.689	1023.47
419.897	1078.77
420.105	1058.29
420.313	1084.91
420.521	1134.06
420.729	1179.12
420.937	1244.65
421.145	1316.33
421.353	1281.52
421.561	1367.53
421.769	1338.86
421.977	1428.97
422.185	1406.44
422.393	1508.84
422.601	1758.69
422.809	1582.57
423.017	1596.9
423.224	1730.02
423.432	1818.08
423.64	1818.08
423.848	1914.34
424.056	1840.61
424.263	2020.83
424.471	2047.46
424.679	2086.37
424.887	2129.38
425.094	2172.38
425.302	2301.4
425.51	2305.5
425.718	2270.69
425.925	2424.28
426.133	2551.26
426.341	2702.81
426.548	2780.63
426.756	2909.65
426.964	2786.77
427.171	2973.14
427.379	2977.23
427.586	3165.65
427.794	3122.64
428.001	3315.15
428.209	3483.08
428.417	3392.97
428.624	3679.69
428.832	3671.5
429.039	3673.54
429.247	3712.46
429.454	4087.23
429.662	4234.69
429.869	3976.64
430.076	4203.97
430.284	4046.27
430.491	4275.65
430.699	4433.34
430.906	4457.92
431.114	4511.16
431.321	4847.03
431.528	4814.26
431.736	5156.27
431.943	5457.32
432.15	5057.97
432.358	5318.06
432.565	5727.66
432.772	5643.69
432.979	5768.62
433.187	5903.78
433.394	5918.12
433.601	6350.24
433.808	6440.35
434.016	6380.96
434.223	6444.45
434.43	7050.64
434.637	6874.52
434.844	7243.15
435.052	7476.62
435.259	7284.11
435.466	7544.2
435.673	7343.5
435.88	7773.58
436.087	8406.4
436.294	8234.37
436.501	8154.5
436.708	8330.62
436.915	8465.79
437.122	8959.35
437.329	9047.41
437.537	9201.01
437.743	9381.23
437.95	9354.61
438.157	9696.62
438.364	10214.76
438.571	9962.86
438.778	10147.17
438.985	11023.7
439.192	10710.36
439.399	10970.46
439.606	10710.36
439.813	11421.01
440.02	12223.81
440.227	11728.21
440.433	11871.56
440.64	12080.46
440.847	11869.51
441.054	12207.43
441.261	12911.93
441.467	12813.63
441.674	13114.68
441.881	13647.15
442.088	13534.51
442.294	13645.1
442.501	13821.23
442.708	13950.25
442.914	14599.46
443.121	15344.92
443.328	14937.37
443.534	16030.99
443.741	15500.56
443.948	15281.43
444.154	16559.36
444.361	16289.03
444.568	16467.2
444.774	16426.25
444.981	16530.69
445.187	17007.87
445.394	17618.16
445.6	17632.5
445.807	19219.67
446.013	18492.65
446.22	18701.54
446.426	19639.51
446.633	19967.18
446.839	20436.17
447.046	19453.14
447.252	20479.18
447.459	20475.08
447.665	20436.17
447.871	21566.65
448.078	22205.61
448.284	21306.55
448.491	21738.68
448.697	22658.21
448.903	22897.83
449.11	23170.21
449.316	22817.96
449.522	22787.24
449.728	23581.85
449.935	23741.59
450.141	23432.35
450.347	24325.26
450.553	23612.57
450.76	23882.9
450.966	24730.76
451.172	24319.12
451.378	24857.73
451.584	24675.46
451.791	25074.82
451.997	24872.07
452.203	25443.45
452.409	25394.3
452.615	24974.47
452.821	24142.99
453.027	24046.74
453.233	25480.32
453.44	24257.68
453.646	24865.92
453.852	24734.85
454.058	25203.84
454.264	24300.69
454.47	24804.49
454.676	24077.46
454.882	25246.85
455.088	22680.74
455.294	23065.76
455.5	23319.71
455.705	23747.73
455.911	22846.63
456.117	22314.16
456.323	21884.08
456.529	20677.83
456.735	21853.36
456.941	21324.99
457.147	20671.68
457.352	20356.3
457.558	19559.64
457.764	19856.59
457.97	19713.24
458.176	19260.63
458.381	19158.24
458.587	18377.96
458.793	18449.64
458.999	17308.92
459.204	18734.31
459.41	17951.98
459.616	16672
459.821	17097.98
460.027	16878.85
460.233	16196.87
460.438	15858.96
460.644	15760.66
460.85	15269.14
461.055	14968.09
461.261	14656.8
461.466	13722.93
461.672	13518.13
461.878	14349.61
462.083	13219.13
462.289	13397.3
462.494	13145.4
462.7	12569.92
462.905	11976.01
463.111	12600.64
463.316	12926.27
463.522	12492.1
463.727	12469.57
463.932	12223.81
464.138	12340.55
464.343	12502.34
464.549	11971.91
464.754	12373.32
464.959	12313.92
465.165	12152.13
465.37	11748.68
465.575	11296.08
465.781	11846.99
465.986	11642.19
466.191	11355.47
466.397	11312.47
466.602	10863.96
466.807	11021.66
467.012	11242.84
467.218	11130.2
467.423	10986.84
467.628	11007.32
467.833	11386.19
468.038	10968.41
468.244	10808.67
468.449	11095.38
468.654	10861.91
468.859	10524
