Data from USB4F104151__124__13-57-53-838.txt Node

Date: Thu Mar 13 13:57:53 EDT 2025
User: louis
Spectrometer: USB4F10415
Trigger mode: 4
Integration Time (sec): 1.000000E-2
Scans to average: 1
Electric dark correction enabled: true
Nonlinearity correction enabled: false
Boxcar width: 0
XAxis mode: Wavelengths
Number of Pixels in Spectrum: 3648
>>>>>Begin Spectral Data<<<<<
178.204	-48.3
178.424	-48.3
178.644	-48.3
178.864	-62.63
179.084	-17.58
179.304	25.43
179.524	-50.35
179.744	19.29
179.964	33.62
180.184	37.72
180.404	68.44
180.624	-40.11
180.844	-7.34
181.064	-33.96
181.283	27.48
181.503	-48.3
181.723	-31.91
181.943	-42.15
182.163	33.62
182.383	-66.73
182.602	27.48
182.822	-27.82
183.042	64.34
183.262	-33.96
183.482	0.85
183.701	-44.2
183.921	-29.87
184.141	2.9
184.361	-62.63
184.58	-62.63
184.8	23.38
185.02	-5.29
185.239	7
185.459	-36.01
185.679	37.72
185.898	0.85
186.118	39.76
186.338	-29.87
186.557	0.85
186.777	15.19
186.997	-1.19
187.216	0.85
187.436	80.72
187.655	47.96
187.875	68.44
188.095	50
188.314	-36.01
188.534	2.9
188.753	-9.39
188.973	-21.67
189.192	-33.96
189.412	39.76
189.631	-15.53
189.851	-5.29
190.07	41.81
190.29	52.05
190.509	21.33
190.729	15.19
190.948	21.33
191.168	52.05
191.387	43.86
191.607	-21.67
191.826	-9.39
192.045	52.05
192.265	93.01
192.484	-85.16
192.704	-27.82
192.923	-1.19
193.142	7
193.362	-15.53
193.581	39.76
193.8	17.24
194.02	-46.25
194.239	2.9
194.458	-33.96
194.678	90.96
194.897	47.96
195.116	52.05
195.335	47.96
195.555	45.91
195.774	-17.58
195.993	25.43
196.212	-25.77
196.432	54.1
196.651	35.67
196.87	-36.01
197.089	60.24
197.308	-44.2
197.528	13.14
197.747	17.24
197.966	21.33
198.185	17.24
198.404	47.96
198.623	-52.39
198.842	41.81
199.062	-13.48
199.281	9.05
199.5	15.19
199.719	13.14
199.938	-21.67
200.157	58.2
200.376	-58.54
200.595	19.29
200.814	68.44
201.033	-15.53
201.252	52.05
201.471	-7.34
201.69	-17.58
201.909	31.57
202.128	-36.01
202.347	7
202.566	-54.44
202.785	21.33
203.004	-50.35
203.223	27.48
203.442	39.76
203.661	29.52
203.879	-19.63
204.098	45.91
204.317	97.11
204.536	27.48
204.755	11.09
204.974	58.2
205.193	31.57
205.411	27.48
205.63	23.38
205.849	23.38
206.068	-33.96
206.287	-58.54
206.505	23.38
206.724	0.85
206.943	25.43
207.162	23.38
207.381	21.33
207.599	31.57
207.818	0.85
208.037	35.67
208.255	27.48
208.474	78.68
208.693	-15.53
208.911	25.43
209.13	17.24
209.349	19.29
209.567	43.86
209.786	-15.53
210.005	21.33
210.223	11.09
210.442	47.96
210.661	-5.29
210.879	-1.19
211.098	41.81
211.316	-11.43
211.535	-7.34
211.753	-19.63
211.972	-23.72
212.191	-42.15
212.409	-15.53
212.628	-25.77
212.846	-9.39
213.065	72.53
213.283	39.76
213.502	4.95
213.72	60.24
213.938	25.43
214.157	17.24
214.375	47.96
214.594	2.9
214.812	-11.43
215.031	23.38
215.249	37.72
215.467	19.29
215.686	43.86
215.904	45.91
216.122	-23.72
216.341	74.58
216.559	-23.72
216.778	-1.19
216.996	-9.39
217.214	-7.34
217.432	9.05
217.651	17.24
217.869	-23.72
218.087	19.29
218.306	33.62
218.524	-1.19
218.742	13.14
218.96	-33.96
219.179	-40.11
219.397	35.67
219.615	41.81
219.833	66.39
220.051	31.57
220.27	64.34
220.488	31.57
220.706	-1.19
220.924	-29.87
221.142	74.58
221.36	-81.07
221.578	60.24
221.796	58.2
222.015	31.57
222.233	54.1
222.451	35.67
222.669	-1.19
222.887	52.05
223.105	-9.39
223.323	-23.72
223.541	-50.35
223.759	9.05
223.977	11.09
224.195	17.24
224.413	13.14
224.631	-5.29
224.849	-15.53
225.067	-11.43
225.285	37.72
225.503	39.76
225.721	-9.39
225.939	-15.53
226.157	80.72
226.375	-1.19
226.592	23.38
226.81	27.48
227.028	37.72
227.246	-7.34
227.464	82.77
227.682	-1.19
227.9	39.76
228.117	66.39
228.335	-9.39
228.553	-7.34
228.771	4.95
228.989	56.15
229.206	11.09
229.424	88.92
229.642	-15.53
229.86	4.95
230.077	68.44
230.295	-7.34
230.513	-1.19
230.731	4.95
230.948	-58.54
231.166	21.33
231.384	11.09
231.601	2.9
231.819	15.19
232.037	2.9
232.254	41.81
232.472	-7.34
232.689	-42.15
232.907	31.57
233.125	-21.67
233.342	19.29
233.56	0.85
233.777	35.67
233.995	27.48
234.213	70.48
234.43	29.52
234.648	13.14
234.865	-44.2
235.083	35.67
235.3	31.57
235.518	9.05
235.735	37.72
235.953	64.34
236.17	64.34
236.388	0.85
236.605	35.67
236.822	-3.24
237.04	93.01
237.257	-21.67
237.475	-17.58
237.692	13.14
237.909	50
238.127	60.24
238.344	-15.53
238.562	62.29
238.779	4.95
238.996	31.57
239.214	17.24
239.431	66.39
239.648	-1.19
239.865	11.09
240.083	21.33
240.3	54.1
240.517	56.15
240.735	15.19
240.952	4.95
241.169	56.15
241.386	-1.19
241.603	11.09
241.821	-13.48
242.038	47.96
242.255	88.92
242.472	-9.39
242.689	-9.39
242.907	15.19
243.124	-42.15
243.341	15.19
243.558	-5.29
243.775	80.72
243.992	-33.96
244.209	19.29
244.426	64.34
244.643	35.67
244.86	7
245.078	39.76
245.295	-1.19
245.512	-7.34
245.729	13.14
245.946	19.29
246.163	17.24
246.38	-56.49
246.597	82.77
246.814	50
247.031	41.81
247.248	-27.82
247.464	41.81
247.681	7
247.898	-44.2
248.115	64.34
248.332	15.19
248.549	25.43
248.766	60.24
248.983	80.72
249.2	35.67
249.417	31.57
249.633	50
249.85	7
250.067	-17.58
250.284	64.34
250.501	0.85
250.717	97.11
250.934	35.67
251.151	15.19
251.368	-15.53
251.585	52.05
251.801	64.34
252.018	72.53
252.235	105.3
252.451	64.34
252.668	25.43
252.885	-9.39
253.102	15.19
253.318	19.29
253.535	-29.87
253.752	39.76
253.968	9.05
254.185	19.29
254.401	-29.87
254.618	21.33
254.835	-27.82
255.051	17.24
255.268	41.81
255.484	39.76
255.701	2.9
255.917	29.52
256.134	74.58
256.351	-13.48
256.567	29.52
256.784	-13.48
257	-46.25
257.217	54.1
257.433	47.96
257.65	80.72
257.866	66.39
258.082	105.3
258.299	0.85
258.515	-9.39
258.732	-19.63
258.948	88.92
259.165	-19.63
259.381	39.76
259.597	45.91
259.814	29.52
260.03	33.62
260.246	47.96
260.463	43.86
260.679	78.68
260.895	-27.82
261.112	41.81
261.328	68.44
261.544	23.38
261.761	47.96
261.977	27.48
262.193	78.68
262.409	13.14
262.626	19.29
262.842	78.68
263.058	-11.43
263.274	-1.19
263.49	-25.77
263.707	39.76
263.923	23.38
264.139	-15.53
264.355	54.1
264.571	82.77
264.787	4.95
265.004	41.81
265.22	-25.77
265.436	0.85
265.652	2.9
265.868	-5.29
266.084	-38.06
266.3	13.14
266.516	7
266.732	68.44
266.948	47.96
267.164	-9.39
267.38	54.1
267.596	68.44
267.812	39.76
268.028	39.76
268.244	72.53
268.46	80.72
268.676	13.14
268.892	45.91
269.108	0.85
269.324	37.72
269.54	-42.15
269.756	41.81
269.972	35.67
270.188	11.09
270.403	66.39
270.619	56.15
270.835	29.52
271.051	123.73
271.267	-3.24
271.483	-1.19
271.698	-64.68
271.914	-36.01
272.13	23.38
272.346	80.72
272.562	7
272.777	90.96
272.993	80.72
273.209	4.95
273.425	-83.11
273.64	23.38
273.856	62.29
274.072	29.52
274.287	72.53
274.503	52.05
274.719	2.9
274.934	-40.11
275.15	-5.29
275.366	19.29
275.581	9.05
275.797	17.24
276.012	-3.24
276.228	43.86
276.444	-23.72
276.659	27.48
276.875	-23.72
277.09	13.14
277.306	-42.15
277.521	31.57
277.737	23.38
277.952	25.43
278.168	11.09
278.383	66.39
278.599	2.9
278.814	-17.58
279.03	82.77
279.245	64.34
279.461	15.19
279.676	23.38
279.892	7
280.107	60.24
280.322	-42.15
280.538	0.85
280.753	31.57
280.969	13.14
281.184	54.1
281.399	4.95
281.615	4.95
281.83	-1.19
282.045	7
282.26	0.85
282.476	54.1
282.691	2.9
282.906	64.34
283.122	27.48
283.337	-9.39
283.552	27.48
283.767	115.54
283.983	45.91
284.198	35.67
284.413	43.86
284.628	-25.77
284.843	-11.43
285.058	-7.34
285.274	43.86
285.489	-33.96
285.704	-27.82
285.919	-9.39
286.134	23.38
286.349	52.05
286.564	25.43
286.779	-48.3
286.995	58.2
287.21	-27.82
287.425	47.96
287.64	-13.48
287.855	47.96
288.07	35.67
288.285	41.81
288.5	4.95
288.715	97.11
288.93	95.06
289.145	25.43
289.36	54.1
289.575	15.19
289.79	-25.77
290.004	7
290.219	76.63
290.434	27.48
290.649	-29.87
290.864	-72.87
291.079	66.39
291.294	50
291.509	-23.72
291.724	-81.07
291.938	-36.01
292.153	68.44
292.368	17.24
292.583	58.2
292.798	45.91
293.012	56.15
293.227	41.81
293.442	39.76
293.657	-15.53
293.871	27.48
294.086	-31.91
294.301	47.96
294.516	58.2
294.73	-1.19
294.945	76.63
295.16	60.24
295.374	50
295.589	84.82
295.804	35.67
296.018	64.34
296.233	74.58
296.447	-40.11
296.662	-9.39
296.877	68.44
297.091	29.52
297.306	54.1
297.52	52.05
297.735	-9.39
297.949	33.62
298.164	-9.39
298.378	68.44
298.593	17.24
298.807	-1.19
299.022	56.15
299.236	78.68
299.451	72.53
299.665	-42.15
299.88	33.62
300.094	-66.73
300.309	37.72
300.523	60.24
300.737	15.19
300.952	39.76
301.166	-13.48
301.381	47.96
301.595	64.34
301.809	4.95
302.024	25.43
302.238	33.62
302.452	58.2
302.667	21.33
302.881	29.52
303.095	68.44
303.309	0.85
303.524	-60.59
303.738	-33.96
303.952	-38.06
304.166	82.77
304.381	27.48
304.595	78.68
304.809	-3.24
305.023	29.52
305.237	-13.48
305.452	-5.29
305.666	86.87
305.88	41.81
306.094	52.05
306.308	27.48
306.522	-1.19
306.736	72.53
306.95	29.52
307.164	25.43
307.379	29.52
307.593	4.95
307.807	41.81
308.021	7
308.235	-7.34
308.449	27.48
308.663	23.38
308.877	74.58
309.091	23.38
309.305	23.38
309.519	-1.19
309.733	52.05
309.947	-15.53
310.161	-9.39
310.374	39.76
310.588	27.48
310.802	-23.72
311.016	66.39
311.23	2.9
311.444	35.67
311.658	35.67
311.872	17.24
312.085	35.67
312.299	29.52
312.513	-11.43
312.727	27.48
312.941	-1.19
313.154	-68.78
313.368	-7.34
313.582	-3.24
313.796	-40.11
314.009	-25.77
314.223	15.19
314.437	45.91
314.651	-27.82
314.864	-33.96
315.078	-64.68
315.292	47.96
315.505	13.14
315.719	56.15
315.933	-25.77
316.146	17.24
316.36	7
316.573	64.34
316.787	15.19
317.001	4.95
317.214	-3.24
317.428	17.24
317.641	47.96
317.855	25.43
318.068	31.57
318.282	27.48
318.495	23.38
318.709	86.87
318.922	-23.72
319.136	9.05
319.349	52.05
319.563	97.11
319.776	-23.72
319.99	-27.82
320.203	9.05
320.417	45.91
320.63	-1.19
320.843	74.58
321.057	78.68
321.27	58.2
321.483	52.05
321.697	33.62
321.91	-33.96
322.124	41.81
322.337	-21.67
322.55	9.05
322.763	37.72
322.977	7
323.19	41.81
323.403	25.43
323.617	-60.59
323.83	93.01
324.043	31.57
324.256	84.82
324.469	-29.87
324.683	-3.24
324.896	33.62
325.109	31.57
325.322	-15.53
325.535	31.57
325.748	21.33
325.962	66.39
326.175	-15.53
326.388	31.57
326.601	64.34
326.814	2.9
327.027	-15.53
327.24	41.81
327.453	25.43
327.666	-1.19
327.879	-54.44
328.092	-1.19
328.305	9.05
328.518	15.19
328.731	78.68
328.944	-23.72
329.157	-13.48
329.37	-48.3
329.583	52.05
329.796	47.96
330.009	-5.29
330.222	19.29
330.435	2.9
330.648	23.38
330.861	29.52
331.073	50
331.286	39.76
331.499	39.76
331.712	45.91
331.925	50
332.138	56.15
332.35	0.85
332.563	41.81
332.776	15.19
332.989	-19.63
333.202	41.81
333.414	15.19
333.627	13.14
333.84	52.05
334.053	-1.19
334.265	2.9
334.478	17.24
334.691	31.57
334.903	66.39
335.116	-33.96
335.329	-7.34
335.541	33.62
335.754	29.52
335.966	17.24
336.179	-15.53
336.392	56.15
336.604	-5.29
336.817	39.76
337.029	29.52
337.242	47.96
337.454	-17.58
337.667	31.57
337.88	70.48
338.092	54.1
338.305	35.67
338.517	27.48
338.729	41.81
338.942	19.29
339.154	35.67
339.367	-1.19
339.579	35.67
339.792	52.05
340.004	99.16
340.217	-7.34
340.429	21.33
340.641	-5.29
340.854	21.33
341.066	115.54
341.278	-25.77
341.491	31.57
341.703	-11.43
341.915	-36.01
342.128	13.14
342.34	88.92
342.552	7
342.764	54.1
342.977	66.39
343.189	50
343.401	33.62
343.613	47.96
343.826	17.24
344.038	-11.43
344.25	88.92
344.462	4.95
344.674	33.62
344.886	-103.59
345.099	78.68
345.311	17.24
345.523	60.24
345.735	-19.63
345.947	7
346.159	-11.43
346.371	-1.19
346.583	23.38
346.795	50
347.007	-17.58
347.219	97.11
347.431	35.67
347.643	60.24
347.855	-40.11
348.067	21.33
348.279	45.91
348.491	25.43
348.703	45.91
348.915	82.77
349.127	-38.06
349.339	80.72
349.551	37.72
349.763	35.67
349.975	66.39
350.187	-5.29
350.399	72.53
350.61	41.81
350.822	39.76
351.034	72.53
351.246	9.05
351.458	31.57
351.669	52.05
351.881	-42.15
352.093	35.67
352.305	33.62
352.517	13.14
352.728	60.24
352.94	-21.67
353.152	41.81
353.363	33.62
353.575	-7.34
353.787	0.85
353.999	41.81
354.21	80.72
354.422	-5.29
354.633	97.11
354.845	35.67
355.057	107.35
355.268	-19.63
355.48	0.85
355.692	-1.19
355.903	-15.53
356.115	97.11
356.326	11.09
356.538	45.91
356.749	64.34
356.961	50
357.172	-52.39
357.384	15.19
357.595	58.2
357.807	41.81
358.018	-29.87
358.23	-42.15
358.441	64.34
358.653	39.76
358.864	58.2
359.075	-23.72
359.287	88.92
359.498	21.33
359.709	2.9
359.921	52.05
360.132	4.95
360.344	76.63
360.555	97.11
360.766	39.76
360.977	54.1
361.189	60.24
361.4	2.9
361.611	27.48
361.823	70.48
362.034	80.72
362.245	41.81
362.456	56.15
362.667	58.2
362.879	-29.87
363.09	-7.34
363.301	62.29
363.512	-38.06
363.723	4.95
363.935	7
364.146	27.48
364.357	23.38
364.568	43.86
364.779	-15.53
364.99	47.96
365.201	50
365.412	33.62
365.623	74.58
365.834	21.33
366.045	33.62
366.256	115.54
366.467	-5.29
366.678	127.83
366.889	41.81
367.1	35.67
367.311	15.19
367.522	-23.72
367.733	84.82
367.944	39.76
368.155	70.48
368.366	23.38
368.577	-25.77
368.788	17.24
368.999	68.44
369.209	23.38
369.42	41.81
369.631	50
369.842	84.82
370.053	43.86
370.264	47.96
370.474	9.05
370.685	-17.58
370.896	82.77
371.107	125.78
371.317	88.92
371.528	-38.06
371.739	-3.24
371.95	21.33
372.16	43.86
372.371	88.92
372.582	-9.39
372.792	60.24
373.003	111.44
373.214	2.9
373.424	50
373.635	9.05
373.846	-3.24
374.056	133.97
374.267	33.62
374.477	105.3
374.688	72.53
374.898	-9.39
375.109	103.25
375.319	43.86
375.53	105.3
375.74	68.44
375.951	19.29
376.161	0.85
376.372	25.43
376.582	-13.48
376.793	60.24
377.003	58.2
377.214	33.62
377.424	74.58
377.635	62.29
377.845	21.33
378.055	54.1
378.266	72.53
378.476	7
378.686	31.57
378.897	7
379.107	17.24
379.317	-29.87
379.528	80.72
379.738	23.38
379.948	39.76
380.158	2.9
380.369	54.1
380.579	25.43
380.789	68.44
380.999	-9.39
381.21	84.82
381.42	121.68
381.63	50
381.84	78.68
382.05	37.72
382.261	45.91
382.471	64.34
382.681	-5.29
382.891	93.01
383.101	13.14
383.311	13.14
383.521	27.48
383.731	-17.58
383.941	15.19
384.151	29.52
384.361	47.96
384.571	17.24
384.781	39.76
384.991	2.9
385.201	27.48
385.411	35.67
385.621	66.39
385.831	41.81
386.041	7
386.251	-7.34
386.461	31.57
386.671	-21.67
386.881	90.96
387.091	41.81
387.301	68.44
387.511	37.72
387.72	58.2
387.93	47.96
388.14	15.19
388.35	-17.58
388.56	4.95
388.769	95.06
388.979	60.24
389.189	58.2
389.399	117.59
389.609	-9.39
389.818	29.52
390.028	13.14
390.238	76.63
390.447	50
390.657	-7.34
390.867	4.95
391.076	11.09
391.286	27.48
391.496	74.58
391.705	107.35
391.915	88.92
392.125	15.19
392.334	72.53
392.544	39.76
392.753	113.49
392.963	52.05
393.172	52.05
393.382	93.01
393.591	47.96
393.801	-29.87
394.01	76.63
394.22	43.86
394.429	84.82
394.639	103.25
394.848	101.2
395.058	123.73
395.267	25.43
395.477	105.3
395.686	125.78
395.895	70.48
396.105	52.05
396.314	99.16
396.524	68.44
396.733	88.92
396.942	66.39
397.152	80.72
397.361	107.35
397.57	125.78
397.78	31.57
397.989	39.76
398.198	66.39
398.407	109.4
398.617	60.24
398.826	15.19
399.035	101.2
399.244	17.24
399.453	60.24
399.663	127.83
399.872	60.24
400.081	117.59
400.29	138.07
400.499	15.19
400.708	62.29
400.917	111.44
401.127	97.11
401.336	95.06
401.545	144.21
401.754	105.3
401.963	101.2
402.172	129.88
402.381	84.82
402.59	105.3
402.799	115.54
403.008	127.83
403.217	123.73
403.426	80.72
403.635	150.36
403.844	97.11
404.053	101.2
404.262	103.25
404.471	62.29
404.68	101.2
404.888	131.92
405.097	109.4
405.306	121.68
405.515	146.26
405.724	97.11
405.933	140.12
406.142	166.74
406.35	160.59
406.559	103.25
406.768	133.97
406.977	183.12
407.185	226.13
407.394	179.03
407.603	105.3
407.812	107.35
408.02	142.16
408.229	156.5
408.438	158.55
408.646	142.16
408.855	193.36
409.064	213.84
409.272	195.41
409.481	244.56
409.69	172.88
409.898	230.23
410.107	299.86
410.315	224.08
410.524	240.47
410.733	205.65
410.941	260.95
411.15	301.9
411.358	232.27
411.567	234.32
411.775	267.09
411.984	265.04
412.192	363.34
412.401	338.77
412.609	412.5
412.818	412.5
413.026	344.91
413.234	463.69
413.443	461.65
413.651	437.07
413.86	445.26
414.068	514.89
414.276	447.31
414.485	514.89
414.693	494.41
414.901	549.71
415.11	586.57
415.318	557.9
415.526	586.57
415.734	615.24
415.943	680.78
416.151	662.35
416.359	682.83
416.567	633.68
416.776	662.35
416.984	740.17
417.192	756.55
417.4	789.32
417.608	768.84
417.817	785.23
418.025	832.33
418.233	916.3
418.441	877.38
418.649	867.14
418.857	942.92
419.065	965.45
419.273	996.17
419.481	1127.24
419.689	1147.72
419.897	1131.33
420.105	1178.44
420.313	1176.39
420.521	1239.87
420.729	1137.48
420.937	1297.22
421.145	1346.37
421.353	1489.73
421.561	1459.01
421.769	1526.59
421.977	1626.94
422.185	1612.6
422.393	1588.03
422.601	1749.82
422.809	1835.83
423.017	1764.15
423.224	1915.7
423.432	1915.7
423.64	1932.09
423.848	2145.08
424.056	2196.28
424.263	2274.1
424.471	2241.33
424.679	2274.1
424.887	2372.4
425.094	2491.18
425.302	2472.75
425.51	2616.11
425.718	2564.91
425.925	2745.13
426.133	2810.67
426.341	2741.04
426.548	3113.77
426.756	2972.46
426.964	3048.23
427.171	3232.55
427.379	3463.97
427.586	3449.63
427.794	3590.94
428.001	3681.05
428.209	3787.55
428.417	3805.98
428.624	4014.87
428.832	4053.78
429.039	3879.71
429.247	4090.65
429.454	4416.27
429.662	4717.33
429.869	4434.71
430.076	4664.08
430.284	4561.68
430.491	4682.51
430.699	5045
430.906	5096.2
431.114	5065.48
431.321	5440.26
431.528	5520.13
431.736	5645.06
431.943	5913.34
432.15	5688.06
432.358	5749.5
432.565	6150.9
432.772	6247.16
432.979	6464.24
433.187	6632.18
433.394	6609.65
433.601	7101.16
433.808	7135.98
434.016	6994.67
434.223	7506.66
434.43	7924.44
434.637	7690.98
434.844	8166.1
435.052	8233.69
435.259	8389.33
435.466	8442.58
435.673	8311.51
435.88	8803.02
436.087	9188.04
436.294	9382.6
436.501	9081.55
436.708	9175.75
436.915	9419.46
437.122	9990.84
437.329	9900.73
437.537	10316.47
437.743	10455.73
437.95	10468.02
438.157	10828.46
438.364	11289.26
438.571	11324.07
438.778	11463.33
438.985	12429.98
439.192	11803.3
439.399	11958.94
439.606	11981.47
439.813	12614.29
440.02	13271.69
440.227	13222.54
440.433	12968.59
440.64	13394.57
440.847	13324.94
441.054	13636.23
441.261	14391.93
441.467	14269.05
441.674	14656.12
441.881	15399.53
442.088	15288.94
442.294	15131.25
442.501	15420.01
442.708	15774.31
442.914	16243.29
443.121	16927.32
443.328	16403.04
443.534	17621.58
443.741	17146.45
443.948	17001.04
444.154	18182.72
444.361	17996.35
444.568	18195.01
444.774	18311.74
444.981	18375.23
445.187	19046.96
445.394	19790.38
445.6	19501.61
445.807	21285.39
446.013	20615.71
446.22	20941.33
446.426	21580.3
446.633	21959.17
446.839	22604.28
447.046	21799.43
447.252	22999.54
447.459	22899.19
447.665	22559.23
447.871	23906.79
448.078	24900.06
448.284	23732.72
448.491	24285.67
448.697	25010.65
448.903	25772.49
449.11	25774.54
449.316	25078.23
449.522	25489.87
449.728	26223.05
449.935	26155.46
450.141	26294.72
450.347	27126.2
450.553	26247.62
450.76	26700.22
450.966	27419.06
451.172	27005.37
451.378	27851.18
451.584	27238.84
451.791	28039.59
451.997	27853.23
452.203	28381.6
452.409	28223.91
452.615	28066.22
452.821	27054.52
453.027	26794.43
453.233	28303.78
453.44	27191.73
453.646	27341.24
453.852	27503.03
454.058	28141.99
454.264	27122.1
454.47	27445.68
454.676	27310.52
454.882	27695.53
455.088	25047.51
455.294	25846.22
455.5	26024.39
455.705	26589.63
455.911	25330.13
456.117	24957.4
456.323	24386.02
456.529	23673.32
456.735	24330.72
456.941	23732.72
457.147	23298.55
457.352	22637.05
457.558	22413.82
457.764	22350.34
457.97	22034.95
458.176	21529.1
458.381	21449.23
458.587	20429.34
458.793	20505.12
458.999	19341.87
459.204	20777.5
459.41	20183.59
459.616	18963
459.821	18836.02
460.027	18782.77
460.233	18569.79
460.438	17506.89
460.644	17707.59
460.85	16849.49
461.055	16509.53
461.261	16677.46
461.466	15516.26
461.672	14776.95
461.878	16153.18
462.083	14910.07
462.289	14623.35
462.494	14549.62
462.7	13961.86
462.905	13537.93
463.111	14314.11
463.316	14131.84
463.522	14011.01
463.727	13777.54
463.932	13927.04
464.138	13714.05
464.343	13460.1
464.549	13163.15
464.754	13818.5
464.959	13529.73
465.165	13472.39
465.37	13070.99
465.575	12524.18
465.781	13165.2
465.986	13359.75
466.191	12757.65
466.397	12368.54
466.602	11979.42
466.807	12423.83
467.012	12364.44
467.218	12239.51
467.423	12288.67
467.628	12194.46
467.833	12602.01
468.038	12253.85
468.244	11913.89
468.449	12196.51
468.654	12171.93
468.859	11905.7
469.064	11856.54
