Data from USB4F104151__291__14-02-48-236.txt Node

Date: Thu Mar 13 14:02:48 EDT 2025
User: louis
Spectrometer: USB4F10415
Trigger mode: 4
Integration Time (sec): 1.000000E-2
Scans to average: 1
Electric dark correction enabled: true
Nonlinearity correction enabled: false
Boxcar width: 0
XAxis mode: Wavelengths
Number of Pixels in Spectrum: 3648
>>>>>Begin Spectral Data<<<<<
178.204	-14.85
178.424	-14.85
178.644	-14.85
178.864	-59.9
179.084	-45.57
179.304	-41.47
179.524	-29.18
179.744	-47.62
179.964	56.83
180.184	46.59
180.404	7.68
180.624	-33.28
180.844	19.97
181.064	11.78
181.283	48.64
181.503	-53.76
181.723	13.82
181.943	9.73
182.163	-29.18
182.383	22.02
182.602	-39.42
182.822	-16.9
183.042	40.45
183.262	-20.99
183.482	34.3
183.701	-47.62
183.921	38.4
184.141	22.02
184.361	40.45
184.58	15.87
184.8	50.69
185.02	28.16
185.239	30.21
185.459	-41.47
185.679	-2.56
185.898	-20.99
186.118	48.64
186.338	62.98
186.557	69.12
186.777	-86.53
186.997	3.58
187.216	42.5
187.436	62.98
187.655	36.35
187.875	36.35
188.095	44.54
188.314	44.54
188.534	-16.9
188.753	13.82
188.973	87.55
189.192	13.82
189.412	3.58
189.631	11.78
189.851	73.21
190.07	89.6
190.29	26.11
190.509	60.93
190.729	-29.18
190.948	7.68
191.168	-14.85
191.387	40.45
191.607	85.5
191.826	5.63
192.045	52.74
192.265	11.78
192.484	-14.85
192.704	44.54
192.923	-18.94
193.142	15.87
193.362	3.58
193.581	11.78
193.8	-6.66
194.02	44.54
194.239	36.35
194.458	-8.7
194.678	52.74
194.897	-43.52
195.116	-2.56
195.335	42.5
195.555	32.26
195.774	36.35
195.993	-2.56
196.212	52.74
196.432	13.82
196.651	19.97
196.87	7.68
197.089	24.06
197.308	38.4
197.528	-10.75
197.747	-41.47
197.966	-55.81
198.185	93.69
198.404	22.02
198.623	69.12
198.842	46.59
199.062	-20.99
199.281	48.64
199.5	3.58
199.719	44.54
199.938	9.73
200.157	52.74
200.376	-2.56
200.595	19.97
200.814	-2.56
201.033	48.64
201.252	54.78
201.471	22.02
201.69	15.87
201.909	40.45
202.128	-4.61
202.347	44.54
202.566	-18.94
202.785	46.59
203.004	-27.14
203.223	44.54
203.442	36.35
203.661	32.26
203.879	-4.61
204.098	22.02
204.317	13.82
204.536	28.16
204.755	-0.51
204.974	122.37
205.193	11.78
205.411	54.78
205.63	15.87
205.849	-0.51
206.068	19.97
206.287	19.97
206.505	-45.57
206.724	75.26
206.943	36.35
207.162	-35.33
207.381	32.26
207.599	52.74
207.818	40.45
208.037	11.78
208.255	42.5
208.474	-2.56
208.693	38.4
208.911	-20.99
209.13	40.45
209.349	38.4
209.567	-2.56
209.786	-0.51
210.005	36.35
210.223	62.98
210.442	60.93
210.661	40.45
210.879	52.74
211.098	97.79
211.316	-14.85
211.535	-8.7
211.753	40.45
211.972	15.87
212.191	-4.61
212.409	19.97
212.628	1.54
212.846	5.63
213.065	50.69
213.283	69.12
213.502	46.59
213.72	30.21
213.938	-53.76
214.157	54.78
214.375	54.78
214.594	24.06
214.812	52.74
215.031	105.98
215.249	-16.9
215.467	38.4
215.686	-2.56
215.904	101.89
216.122	5.63
216.341	44.54
216.559	52.74
216.778	56.83
216.996	-8.7
217.214	-111.1
217.432	15.87
217.651	-37.38
217.869	-18.94
218.087	-23.04
218.306	60.93
218.524	67.07
218.742	11.78
218.96	30.21
219.179	-25.09
219.397	3.58
219.615	15.87
219.833	56.83
220.051	-27.14
220.27	26.11
220.488	24.06
220.706	93.69
220.924	-2.56
221.142	46.59
221.36	30.21
221.578	67.07
221.796	48.64
222.015	-0.51
222.233	5.63
222.451	-8.7
222.669	-6.66
222.887	65.02
223.105	-4.61
223.323	-12.8
223.541	5.63
223.759	-14.85
223.977	5.63
224.195	13.82
224.413	79.36
224.631	44.54
224.849	46.59
225.067	60.93
225.285	-8.7
225.503	42.5
225.721	-4.61
225.939	28.16
226.157	24.06
226.375	40.45
226.592	28.16
226.81	17.92
227.028	19.97
227.246	54.78
227.464	38.4
227.682	28.16
227.9	40.45
228.117	-53.76
228.335	1.54
228.553	15.87
228.771	36.35
228.989	38.4
229.206	77.31
229.424	5.63
229.642	-2.56
229.86	95.74
230.077	28.16
230.295	24.06
230.513	-12.8
230.731	-6.66
230.948	24.06
231.166	75.26
231.384	38.4
231.601	60.93
231.819	28.16
232.037	24.06
232.254	36.35
232.472	-12.8
232.689	46.59
232.907	17.92
233.125	-8.7
233.342	-25.09
233.56	46.59
233.777	38.4
233.995	30.21
234.213	26.11
234.43	-25.09
234.648	44.54
234.865	85.5
235.083	1.54
235.3	13.82
235.518	11.78
235.735	91.65
235.953	7.68
236.17	40.45
236.388	116.22
236.605	-4.61
236.822	-37.38
237.04	3.58
237.257	48.64
237.475	7.68
237.692	22.02
237.909	19.97
238.127	-2.56
238.344	3.58
238.562	-18.94
238.779	-37.38
238.996	-4.61
239.214	-8.7
239.431	32.26
239.648	73.21
239.865	114.17
240.083	-2.56
240.3	34.3
240.517	15.87
240.735	32.26
240.952	-29.18
241.169	-20.99
241.386	28.16
241.603	40.45
241.821	-12.8
242.038	15.87
242.255	22.02
242.472	19.97
242.689	-6.66
242.907	73.21
243.124	-16.9
243.341	56.83
243.558	-37.38
243.775	81.41
243.992	85.5
244.209	62.98
244.426	48.64
244.643	56.83
244.86	-33.28
245.078	-14.85
245.295	30.21
245.512	58.88
245.729	9.73
245.946	11.78
246.163	-2.56
246.38	-23.04
246.597	-0.51
246.814	79.36
247.031	62.98
247.248	19.97
247.464	26.11
247.681	17.92
247.898	-0.51
248.115	-2.56
248.332	19.97
248.549	-25.09
248.766	48.64
248.983	13.82
249.2	19.97
249.417	40.45
249.633	-12.8
249.85	48.64
250.067	-66.05
250.284	44.54
250.501	19.97
250.717	7.68
250.934	11.78
251.151	-8.7
251.368	93.69
251.585	-8.7
251.801	26.11
252.018	32.26
252.235	56.83
252.451	15.87
252.668	28.16
252.885	17.92
253.102	44.54
253.318	9.73
253.535	67.07
253.752	56.83
253.968	-4.61
254.185	24.06
254.401	60.93
254.618	44.54
254.835	7.68
255.051	22.02
255.268	15.87
255.484	40.45
255.701	50.69
255.917	52.74
256.134	-16.9
256.351	-4.61
256.567	67.07
256.784	60.93
257	36.35
257.217	13.82
257.433	44.54
257.65	50.69
257.866	11.78
258.082	81.41
258.299	11.78
258.515	22.02
258.732	1.54
258.948	-12.8
259.165	-72.19
259.381	62.98
259.597	11.78
259.814	81.41
260.03	7.68
260.246	46.59
260.463	17.92
260.679	-0.51
260.895	13.82
261.112	65.02
261.328	24.06
261.544	17.92
261.761	32.26
261.977	7.68
262.193	-4.61
262.409	13.82
262.626	-29.18
262.842	36.35
263.058	-51.71
263.274	79.36
263.49	3.58
263.707	22.02
263.923	-12.8
264.139	28.16
264.355	15.87
264.571	-4.61
264.787	11.78
265.004	62.98
265.22	24.06
265.436	19.97
265.652	-29.18
265.868	54.78
266.084	11.78
266.3	26.11
266.516	56.83
266.732	71.17
266.948	26.11
267.164	-4.61
267.38	19.97
267.596	19.97
267.812	46.59
268.028	22.02
268.244	-59.9
268.46	38.4
268.676	52.74
268.892	28.16
269.108	40.45
269.324	85.5
269.54	40.45
269.756	24.06
269.972	77.31
270.188	34.3
270.403	-8.7
270.619	-20.99
270.835	60.93
271.051	38.4
271.267	28.16
271.483	34.3
271.698	81.41
271.914	38.4
272.13	26.11
272.346	-59.9
272.562	67.07
272.777	-2.56
272.993	44.54
273.209	28.16
273.425	-8.7
273.64	-68.09
273.856	44.54
274.072	105.98
274.287	-29.18
274.503	-18.94
274.719	24.06
274.934	54.78
275.15	15.87
275.366	85.5
275.581	15.87
275.797	19.97
276.012	3.58
276.228	69.12
276.444	28.16
276.659	112.13
276.875	56.83
277.09	105.98
277.306	52.74
277.521	69.12
277.737	13.82
277.952	134.65
278.168	-14.85
278.383	-12.8
278.599	56.83
278.814	87.55
279.03	65.02
279.245	65.02
279.461	7.68
279.676	44.54
279.892	11.78
280.107	-10.75
280.322	73.21
280.538	60.93
280.753	38.4
280.969	42.5
281.184	-6.66
281.399	30.21
281.615	-6.66
281.83	-12.8
282.045	7.68
282.26	40.45
282.476	-2.56
282.691	3.58
282.906	40.45
283.122	28.16
283.337	7.68
283.552	32.26
283.767	44.54
283.983	65.02
284.198	-10.75
284.413	73.21
284.628	11.78
284.843	69.12
285.058	46.59
285.274	-12.8
285.489	-18.94
285.704	73.21
285.919	44.54
286.134	101.89
286.349	32.26
286.564	28.16
286.779	11.78
286.995	-14.85
287.21	50.69
287.425	3.58
287.64	52.74
287.855	11.78
288.07	97.79
288.285	28.16
288.5	-2.56
288.715	-20.99
288.93	99.84
289.145	79.36
289.36	48.64
289.575	-20.99
289.79	9.73
290.004	42.5
290.219	-53.76
290.434	24.06
290.649	30.21
290.864	65.02
291.079	85.5
291.294	50.69
291.509	36.35
291.724	54.78
291.938	52.74
292.153	-43.52
292.368	44.54
292.583	93.69
292.798	3.58
293.012	60.93
293.227	32.26
293.442	46.59
293.657	7.68
293.871	34.3
294.086	42.5
294.301	62.98
294.516	62.98
294.73	40.45
294.945	48.64
295.16	7.68
295.374	69.12
295.589	54.78
295.804	-39.42
296.018	56.83
296.233	13.82
296.447	24.06
296.662	56.83
296.877	62.98
297.091	17.92
297.306	38.4
297.52	19.97
297.735	97.79
297.949	26.11
298.164	-12.8
298.378	-16.9
298.593	52.74
298.807	62.98
299.022	-10.75
299.236	-35.33
299.451	-37.38
299.665	19.97
299.88	52.74
300.094	48.64
300.309	69.12
300.523	28.16
300.737	87.55
300.952	9.73
301.166	-8.7
301.381	28.16
301.595	118.27
301.809	9.73
302.024	-16.9
302.238	-10.75
302.452	28.16
302.667	-37.38
302.881	95.74
303.095	42.5
303.309	26.11
303.524	83.45
303.738	-0.51
303.952	-18.94
304.166	71.17
304.381	3.58
304.595	24.06
304.809	77.31
305.023	81.41
305.237	62.98
305.452	77.31
305.666	42.5
305.88	128.51
306.094	44.54
306.308	19.97
306.522	48.64
306.736	28.16
306.95	44.54
307.164	44.54
307.379	15.87
307.593	-20.99
307.807	11.78
308.021	-27.14
308.235	-2.56
308.449	-6.66
308.663	-37.38
308.877	93.69
309.091	-18.94
309.305	36.35
309.519	22.02
309.733	85.5
309.947	-53.76
310.161	-12.8
310.374	44.54
310.588	85.5
310.802	36.35
311.016	54.78
311.23	-16.9
311.444	-39.42
311.658	77.31
311.872	9.73
312.085	-4.61
312.299	42.5
312.513	22.02
312.727	93.69
312.941	40.45
313.154	-8.7
313.368	38.4
313.582	32.26
313.796	15.87
314.009	52.74
314.223	103.93
314.437	97.79
314.651	42.5
314.864	11.78
315.078	11.78
315.292	17.92
315.505	52.74
315.719	-14.85
315.933	-25.09
316.146	38.4
316.36	-8.7
316.573	42.5
316.787	15.87
317.001	128.51
317.214	91.65
317.428	-16.9
317.641	40.45
317.855	93.69
318.068	-29.18
318.282	1.54
318.495	-20.99
318.709	83.45
318.922	11.78
319.136	28.16
319.349	101.89
319.563	101.89
319.776	62.98
319.99	-35.33
320.203	97.79
320.417	30.21
320.63	52.74
320.843	3.58
321.057	62.98
321.27	5.63
321.483	48.64
321.697	28.16
321.91	32.26
322.124	1.54
322.337	56.83
322.55	-35.33
322.763	1.54
322.977	-4.61
323.19	-16.9
323.403	69.12
323.617	9.73
323.83	40.45
324.043	83.45
324.256	54.78
324.469	9.73
324.683	32.26
324.896	11.78
325.109	95.74
325.322	79.36
325.535	69.12
325.748	-0.51
325.962	-8.7
326.175	95.74
326.388	128.51
326.601	48.64
326.814	-16.9
327.027	-29.18
327.24	3.58
327.453	-35.33
327.666	-29.18
327.879	40.45
328.092	46.59
328.305	3.58
328.518	30.21
328.731	69.12
328.944	19.97
329.157	69.12
329.37	48.64
329.583	13.82
329.796	101.89
330.009	28.16
330.222	85.5
330.435	36.35
330.648	52.74
330.861	-4.61
331.073	46.59
331.286	32.26
331.499	17.92
331.712	38.4
331.925	36.35
332.138	38.4
332.35	42.5
332.563	19.97
332.776	36.35
332.989	71.17
333.202	22.02
333.414	24.06
333.627	13.82
333.84	54.78
334.053	65.02
334.265	-55.81
334.478	30.21
334.691	60.93
334.903	3.58
335.116	-14.85
335.329	24.06
335.541	28.16
335.754	28.16
335.966	19.97
336.179	-4.61
336.392	91.65
336.604	62.98
336.817	79.36
337.029	77.31
337.242	-35.33
337.454	-20.99
337.667	52.74
337.88	71.17
338.092	36.35
338.305	50.69
338.517	75.26
338.729	65.02
338.942	-4.61
339.154	77.31
339.367	11.78
339.579	30.21
339.792	42.5
340.004	28.16
340.217	36.35
340.429	7.68
340.641	-45.57
340.854	19.97
341.066	52.74
341.278	69.12
341.491	77.31
341.703	54.78
341.915	101.89
342.128	69.12
342.34	-16.9
342.552	28.16
342.764	52.74
342.977	-14.85
343.189	30.21
343.401	44.54
343.613	40.45
343.826	60.93
344.038	46.59
344.25	-10.75
344.462	-33.28
344.674	69.12
344.886	52.74
345.099	-4.61
345.311	13.82
345.523	87.55
345.735	11.78
345.947	44.54
346.159	36.35
346.371	28.16
346.583	54.78
346.795	126.46
347.007	28.16
347.219	32.26
347.431	28.16
347.643	58.88
347.855	101.89
348.067	28.16
348.279	38.4
348.491	-16.9
348.703	13.82
348.915	101.89
349.127	46.59
349.339	110.08
349.551	112.13
349.763	-6.66
349.975	-27.14
350.187	60.93
350.399	3.58
350.61	19.97
350.822	9.73
351.034	3.58
351.246	-29.18
351.458	-8.7
351.669	77.31
351.881	50.69
352.093	17.92
352.305	52.74
352.517	11.78
352.728	75.26
352.94	48.64
353.152	62.98
353.363	38.4
353.575	56.83
353.787	-4.61
353.999	48.64
354.21	28.16
354.422	65.02
354.633	28.16
354.845	93.69
355.057	-10.75
355.268	44.54
355.48	32.26
355.692	28.16
355.903	60.93
356.115	11.78
356.326	28.16
356.538	36.35
356.749	-41.47
356.961	58.88
357.172	36.35
357.384	46.59
357.595	56.83
357.807	89.6
358.018	36.35
358.23	73.21
358.441	-4.61
358.653	69.12
358.864	40.45
359.075	19.97
359.287	-23.04
359.498	40.45
359.709	9.73
359.921	56.83
360.132	122.37
360.344	46.59
360.555	56.83
360.766	130.56
360.977	9.73
361.189	95.74
361.4	28.16
361.611	89.6
361.823	34.3
362.034	71.17
362.245	28.16
362.456	15.87
362.667	7.68
362.879	54.78
363.09	9.73
363.301	128.51
363.512	-2.56
363.723	-18.94
363.935	40.45
364.146	62.98
364.357	-12.8
364.568	-39.42
364.779	54.78
364.99	85.5
365.201	52.74
365.412	11.78
365.623	-27.14
365.834	1.54
366.045	-14.85
366.256	52.74
366.467	-2.56
366.678	-6.66
366.889	52.74
367.1	7.68
367.311	32.26
367.522	-2.56
367.733	24.06
367.944	71.17
368.155	-61.95
368.366	17.92
368.577	-12.8
368.788	46.59
368.999	3.58
369.209	38.4
369.42	85.5
369.631	79.36
369.842	48.64
370.053	-6.66
370.264	11.78
370.474	52.74
370.685	46.59
370.896	77.31
371.107	71.17
371.317	93.69
371.528	38.4
371.739	40.45
371.95	52.74
372.16	42.5
372.371	26.11
372.582	38.4
372.792	-4.61
373.003	144.89
373.214	77.31
373.424	105.98
373.635	32.26
373.846	40.45
374.056	28.16
374.267	54.78
374.477	3.58
374.688	24.06
374.898	52.74
375.109	60.93
375.319	56.83
375.53	46.59
375.74	54.78
375.951	15.87
376.161	52.74
376.372	69.12
376.582	97.79
376.793	77.31
377.003	19.97
377.214	-8.7
377.424	60.93
377.635	108.03
377.845	56.83
378.055	60.93
378.266	13.82
378.476	46.59
378.686	13.82
378.897	62.98
379.107	42.5
379.317	1.54
379.528	5.63
379.738	36.35
379.948	65.02
380.158	1.54
380.369	13.82
380.579	19.97
380.789	-4.61
380.999	44.54
381.21	71.17
381.42	60.93
381.63	24.06
381.84	-20.99
382.05	124.41
382.261	-2.56
382.471	69.12
382.681	-12.8
382.891	22.02
383.101	52.74
383.311	110.08
383.521	75.26
383.731	42.5
383.941	46.59
384.151	-4.61
384.361	46.59
384.571	19.97
384.781	54.78
384.991	24.06
385.201	101.89
385.411	46.59
385.621	79.36
385.831	67.07
386.041	40.45
386.251	24.06
386.461	79.36
386.671	7.68
386.881	97.79
387.091	36.35
387.301	-10.75
387.511	91.65
387.72	19.97
387.93	40.45
388.14	69.12
388.35	32.26
388.56	11.78
388.769	-27.14
388.979	110.08
389.189	101.89
389.399	-18.94
389.609	28.16
389.818	83.45
390.028	89.6
390.238	73.21
390.447	50.69
390.657	67.07
390.867	52.74
391.076	30.21
391.286	83.45
391.496	36.35
391.705	5.63
391.915	103.93
392.125	118.27
392.334	56.83
392.544	-23.04
392.753	89.6
392.963	19.97
393.172	75.26
393.382	79.36
393.591	58.88
393.801	67.07
394.01	146.94
394.22	54.78
394.429	67.07
394.639	89.6
394.848	40.45
395.058	71.17
395.267	17.92
395.477	93.69
395.686	42.5
395.895	85.5
396.105	79.36
396.314	148.99
396.524	112.13
396.733	118.27
396.942	85.5
397.152	120.32
397.361	122.37
397.57	62.98
397.78	110.08
397.989	77.31
398.198	173.57
398.407	130.56
398.617	120.32
398.826	77.31
399.035	138.75
399.244	130.56
399.453	79.36
399.663	93.69
399.872	124.41
400.081	108.03
400.29	105.98
400.499	128.51
400.708	132.61
400.917	155.13
401.127	112.13
401.336	77.31
401.545	157.18
401.754	103.93
401.963	144.89
402.172	120.32
402.381	71.17
402.59	161.28
402.799	132.61
403.008	161.28
403.217	105.98
403.426	146.94
403.635	128.51
403.844	134.65
404.053	128.51
404.262	83.45
404.471	179.71
404.68	167.42
404.888	71.17
405.097	179.71
405.306	122.37
405.515	136.7
405.724	194.05
405.933	194.05
406.142	212.48
406.35	185.85
406.559	142.85
406.768	210.43
406.977	179.71
407.185	185.85
407.394	214.52
407.603	151.04
407.812	159.23
408.02	241.15
408.229	206.33
408.438	204.28
408.646	241.15
408.855	185.85
409.064	235
409.272	200.19
409.481	325.12
409.69	298.49
409.898	241.15
410.107	218.62
410.315	318.97
410.524	278.01
410.733	290.3
410.941	347.64
411.15	290.3
411.358	323.07
411.567	390.65
411.775	429.56
411.984	413.18
412.192	364.03
412.401	388.6
412.609	456.19
412.818	435.71
413.026	495.1
413.234	443.9
413.443	445.95
413.651	437.75
413.86	464.38
414.068	470.52
414.276	534.01
414.485	564.73
414.693	681.46
414.901	683.51
415.11	605.69
415.318	658.93
415.526	691.7
415.734	710.13
415.943	730.61
416.151	751.09
416.359	783.86
416.567	790
416.776	775.67
416.984	943.6
417.192	974.32
417.4	898.55
417.608	896.5
417.817	957.94
418.025	912.88
418.233	1002.99
418.441	1009.14
418.649	1086.96
418.857	1154.54
419.065	1134.06
419.273	1117.68
419.481	1314.28
419.689	1330.67
419.897	1396.2
420.105	1412.59
420.313	1406.44
420.521	1521.13
420.729	1521.13
420.937	1607.14
421.145	1553.9
421.353	1625.58
421.561	1811.94
421.769	1797.6
421.977	1969.63
422.185	1818.08
422.393	2043.36
422.601	2055.65
422.809	2045.41
423.017	2156
423.224	2182.62
423.432	2199.01
423.64	2338.27
423.848	2487.77
424.056	2379.23
424.263	2596.31
424.471	2538.97
424.679	2657.75
424.887	2819.54
425.094	2911.7
425.302	2913.75
425.51	2905.56
425.718	3036.63
425.925	3128.78
426.133	3444.17
426.341	3292.62
426.548	3567.05
426.756	3565
426.964	3595.72
427.171	3792.33
427.379	3898.82
427.586	4109.76
427.794	4093.38
428.001	4353.47
428.209	4582.84
428.417	4509.12
428.624	4785.59
428.832	4642.23
429.039	4705.72
429.247	4804.02
429.454	5174.71
429.662	5426.61
429.869	5191.09
430.076	5563.82
430.284	5283.25
430.491	5557.68
430.699	5797.29
430.906	5850.53
431.114	5875.11
431.321	6208.93
431.528	6217.12
431.736	6684.06
431.943	6882.71
432.15	6811.03
432.358	7003.54
432.565	7206.29
432.772	7015.83
432.979	7617.93
433.187	7712.14
433.394	7665.04
433.601	8136.07
433.808	8322.43
434.016	8265.09
434.223	8633.72
434.43	9211.25
434.637	8951.16
434.844	9600.37
435.052	9475.44
435.259	9434.48
435.466	9731.44
435.673	9626.99
435.88	10009.96
436.087	10700.12
436.294	10732.89
436.501	10407.27
436.708	10675.55
436.915	11128.15
437.122	11461.97
437.329	11498.83
437.537	11820.36
437.743	11818.32
437.95	12002.63
438.157	12567.87
438.364	13094.2
438.571	12911.93
438.778	12967.23
438.985	14413.09
439.192	13708.59
439.399	14093.61
439.606	14095.66
439.813	14703.9
440.02	15648.02
440.227	15160.6
440.433	14947.61
440.64	15443.22
440.847	15402.26
441.054	15949.07
441.261	16829.7
441.467	16622.85
441.674	17147.13
441.881	17462.52
442.088	17679.6
442.294	17353.98
442.501	17798.38
442.708	18121.96
442.914	18949.34
443.121	19727.57
443.328	19330.27
443.534	20575.43
443.741	20061.39
443.948	19973.33
444.154	21212.35
444.361	20995.26
444.568	21103.81
444.774	21284.03
444.981	21640.37
445.187	21699.76
445.394	23319.71
445.6	22662.31
445.807	24743.05
446.013	23973.01
446.22	24392.84
446.426	25279.61
446.633	25359.49
446.839	26066.03
447.046	25250.94
447.252	26571.88
447.459	26420.33
447.665	26465.39
447.871	27712.6
448.078	28669
448.284	27679.83
448.491	28288.08
448.697	29094.98
448.903	29674.56
449.11	29905.98
449.316	29547.58
449.522	29953.08
449.728	30714.92
449.935	31034.41
450.141	30936.1
450.347	31517.73
450.553	30682.16
450.76	30692.4
450.966	32050.2
451.172	31341.6
451.378	32390.16
451.584	31773.72
451.791	32437.27
451.997	32539.66
452.203	33268.74
452.409	32859.15
452.615	32607.25
452.821	31523.87
453.027	31519.78
453.233	33102.85
453.44	31800.35
453.646	32115.73
453.852	32091.16
454.058	32490.51
454.264	31718.43
454.47	32246.8
454.676	31231.01
454.882	32449.55
455.088	29639.74
455.294	30256.18
455.5	30569.52
455.705	30927.91
455.911	29168.71
456.117	29297.73
456.323	28691.53
456.529	27071.59
456.735	28451.92
456.941	27599.96
457.147	27417.69
457.352	26371.18
457.558	26072.18
457.764	26031.22
457.97	25580.67
458.176	25054.34
458.381	25369.72
458.587	24065.17
458.793	23882.9
458.999	22639.78
459.204	24300.69
459.41	23397.53
459.616	22103.21
459.821	22285.48
460.027	22244.52
460.233	21517.5
460.438	20296.91
460.644	20860.1
460.85	19703
461.055	19461.34
461.261	19610.84
461.466	18124.01
461.672	17562.87
461.878	18613.48
462.083	17552.63
462.289	17190.14
462.494	16940.29
462.7	16348.42
462.905	15934.73
463.111	16399.62
463.316	16583.94
463.522	15994.12
463.727	16360.71
463.932	16047.37
464.138	15678.74
464.343	16002.32
464.549	15633.68
464.754	15830.29
464.959	15813.9
465.165	15643.92
465.37	15230.23
465.575	14603.55
465.781	15353.11
465.986	15140.12
466.191	14849.31
466.397	14454.05
466.602	13577.52
466.807	14331.17
467.012	14390.56
467.218	14239.01
467.423	14075.18
467.628	14251.3
467.833	14753.05
468.038	14325.03
468.244	13894.96
