Data from USB4F104151__2__13-52-05-107.txt Node

Date: Thu Mar 13 13:52:05 EDT 2025
User: louis
Spectrometer: USB4F10415
Trigger mode: 4
Integration Time (sec): 1.000000E-2
Scans to average: 1
Electric dark correction enabled: true
Nonlinearity correction enabled: false
Boxcar width: 0
XAxis mode: Wavelengths
Number of Pixels in Spectrum: 3648
>>>>>Begin Spectral Data<<<<<
178.204	-50.52
178.424	-50.52
178.644	-50.52
178.864	-38.23
179.084	4.78
179.304	-17.75
179.524	-17.75
179.744	-56.66
179.964	64.17
180.184	-68.95
180.404	17.07
180.624	55.98
180.844	-40.28
181.064	-1.37
181.283	76.46
181.503	29.35
181.723	-40.28
181.943	-48.47
182.163	62.12
182.383	45.74
182.602	39.59
182.822	25.26
183.042	35.5
183.262	-54.61
183.482	-7.51
183.701	35.5
183.921	31.4
184.141	-9.56
184.361	-13.65
184.58	-13.65
184.8	47.79
185.02	66.22
185.239	49.83
185.459	35.5
185.679	60.07
185.898	43.69
186.118	37.55
186.338	2.73
186.557	78.51
186.777	15.02
186.997	-19.8
187.216	2.73
187.436	121.51
187.655	6.83
187.875	45.74
188.095	-25.94
188.314	62.12
188.534	15.02
188.753	29.35
188.973	19.11
189.192	6.83
189.412	0.68
189.631	62.12
189.851	86.7
190.07	29.35
190.29	31.4
190.509	90.79
190.729	92.84
190.948	2.73
191.168	51.88
191.387	-19.8
191.607	27.31
191.826	35.5
192.045	41.64
192.265	90.79
192.484	31.4
192.704	-34.13
192.923	23.21
193.142	27.31
193.362	70.31
193.581	21.16
193.8	19.11
194.02	19.11
194.239	-54.61
194.458	37.55
194.678	4.78
194.897	39.59
195.116	53.93
195.335	45.74
195.555	6.83
195.774	15.02
195.993	47.79
196.212	17.07
196.432	41.64
196.651	37.55
196.87	31.4
197.089	-13.65
197.308	19.11
197.528	49.83
197.747	2.73
197.966	70.31
198.185	-3.41
198.404	8.87
198.623	78.51
198.842	45.74
199.062	41.64
199.281	-27.99
199.5	8.87
199.719	17.07
199.938	43.69
200.157	47.79
200.376	-23.89
200.595	101.03
200.814	2.73
201.033	39.59
201.252	37.55
201.471	45.74
201.69	33.45
201.909	6.83
202.128	39.59
202.347	117.42
202.566	31.4
202.785	68.27
203.004	76.46
203.223	88.75
203.442	74.41
203.661	53.93
203.879	58.03
204.098	2.73
204.317	15.02
204.536	70.31
204.755	80.55
204.974	70.31
205.193	6.83
205.411	-17.75
205.63	55.98
205.849	8.87
206.068	29.35
206.287	-7.51
206.505	41.64
206.724	15.02
206.943	33.45
207.162	51.88
207.381	80.55
207.599	27.31
207.818	35.5
208.037	12.97
208.255	55.98
208.474	58.03
208.693	25.26
208.911	21.16
209.13	66.22
209.349	66.22
209.567	-13.65
209.786	37.55
210.005	-21.85
210.223	-15.7
210.442	51.88
210.661	-11.61
210.879	51.88
211.098	72.36
211.316	19.11
211.535	78.51
211.753	27.31
211.972	96.94
212.191	37.55
212.409	49.83
212.628	8.87
212.846	58.03
213.065	80.55
213.283	31.4
213.502	64.17
213.72	33.45
213.938	39.59
214.157	66.22
214.375	58.03
214.594	53.93
214.812	37.55
215.031	70.31
215.249	86.7
215.467	33.45
215.686	15.02
215.904	15.02
216.122	-15.7
216.341	86.7
216.559	47.79
216.778	76.46
216.996	60.07
217.214	62.12
217.432	12.97
217.651	76.46
217.869	68.27
218.087	58.03
218.306	-62.8
218.524	25.26
218.742	-5.46
218.96	47.79
219.179	55.98
219.397	-60.76
219.615	66.22
219.833	70.31
220.051	27.31
220.27	47.79
220.488	35.5
220.706	31.4
220.924	25.26
221.142	37.55
221.36	92.84
221.578	64.17
221.796	66.22
222.015	86.7
222.233	27.31
222.451	17.07
222.669	49.83
222.887	35.5
223.105	47.79
223.323	88.75
223.541	27.31
223.759	19.11
223.977	-50.52
224.195	62.12
224.413	19.11
224.631	80.55
224.849	15.02
225.067	47.79
225.285	10.92
225.503	96.94
225.721	29.35
225.939	39.59
226.157	-13.65
226.375	113.32
226.592	-50.52
226.81	62.12
227.028	-1.37
227.246	0.68
227.464	96.94
227.682	35.5
227.9	31.4
228.117	86.7
228.335	29.35
228.553	33.45
228.771	125.61
228.989	23.21
229.206	41.64
229.424	43.69
229.642	0.68
229.86	109.23
230.077	27.31
230.295	23.21
230.513	60.07
230.731	96.94
230.948	17.07
231.166	64.17
231.384	76.46
231.601	84.65
231.819	-17.75
232.037	78.51
232.254	-3.41
232.472	4.78
232.689	17.07
232.907	37.55
233.125	10.92
233.342	31.4
233.56	15.02
233.777	4.78
233.995	-75.09
234.213	21.16
234.43	-15.7
234.648	68.27
234.865	41.64
235.083	31.4
235.3	70.31
235.518	-11.61
235.735	31.4
235.953	47.79
236.17	66.22
236.388	27.31
236.605	-116.05
236.822	66.22
237.04	-1.37
237.257	33.45
237.475	-21.85
237.692	-19.8
237.909	51.88
238.127	123.56
238.344	4.78
238.562	39.59
238.779	72.36
238.996	76.46
239.214	23.21
239.431	45.74
239.648	55.98
239.865	144.04
240.083	-5.46
240.3	58.03
240.517	62.12
240.735	74.41
240.952	4.78
241.169	60.07
241.386	6.83
241.603	70.31
241.821	68.27
242.038	119.46
242.255	72.36
242.472	68.27
242.689	-5.46
242.907	58.03
243.124	-11.61
243.341	62.12
243.558	45.74
243.775	33.45
243.992	25.26
244.209	58.03
244.426	39.59
244.643	37.55
244.86	51.88
245.078	62.12
245.295	43.69
245.512	-71
245.729	66.22
245.946	109.23
246.163	-27.99
246.38	64.17
246.597	-9.56
246.814	-9.56
247.031	45.74
247.248	55.98
247.464	-15.7
247.681	66.22
247.898	58.03
248.115	19.11
248.332	10.92
248.549	51.88
248.766	96.94
248.983	68.27
249.2	60.07
249.417	37.55
249.633	98.99
249.85	58.03
250.067	-19.8
250.284	101.03
250.501	80.55
250.717	62.12
250.934	8.87
251.151	-19.8
251.368	68.27
251.585	37.55
251.801	15.02
252.018	29.35
252.235	8.87
252.451	-3.41
252.668	64.17
252.885	53.93
253.102	8.87
253.318	8.87
253.535	78.51
253.752	45.74
253.968	74.41
254.185	58.03
254.401	68.27
254.618	27.31
254.835	74.41
255.051	164.52
255.268	25.26
255.484	-9.56
255.701	51.88
255.917	33.45
256.134	19.11
256.351	101.03
256.567	-46.42
256.784	23.21
257	-7.51
257.217	129.7
257.433	37.55
257.65	101.03
257.866	74.41
258.082	66.22
258.299	41.64
258.515	45.74
258.732	-27.99
258.948	39.59
259.165	19.11
259.381	60.07
259.597	10.92
259.814	96.94
260.03	51.88
260.246	80.55
260.463	43.69
260.679	62.12
260.895	84.65
261.112	117.42
261.328	41.64
261.544	21.16
261.761	72.36
261.977	53.93
262.193	-7.51
262.409	33.45
262.626	41.64
262.842	101.03
263.058	-19.8
263.274	8.87
263.49	64.17
263.707	23.21
263.923	29.35
264.139	19.11
264.355	51.88
264.571	39.59
264.787	64.17
265.004	15.02
265.22	86.7
265.436	-17.75
265.652	98.99
265.868	88.75
266.084	53.93
266.3	21.16
266.516	35.5
266.732	-1.37
266.948	58.03
267.164	37.55
267.38	-5.46
267.596	80.55
267.812	107.18
268.028	86.7
268.244	43.69
268.46	45.74
268.676	78.51
268.892	19.11
269.108	-7.51
269.324	10.92
269.54	23.21
269.756	70.31
269.972	123.56
270.188	76.46
270.403	27.31
270.619	35.5
270.835	55.98
271.051	4.78
271.267	43.69
271.483	94.89
271.698	72.36
271.914	-42.32
272.13	8.87
272.346	27.31
272.562	45.74
272.777	19.11
272.993	29.35
273.209	82.6
273.425	62.12
273.64	84.65
273.856	41.64
274.072	10.92
274.287	37.55
274.503	62.12
274.719	64.17
274.934	47.79
275.15	31.4
275.366	43.69
275.581	8.87
275.797	107.18
276.012	19.11
276.228	-25.94
276.444	25.26
276.659	-50.52
276.875	58.03
277.09	15.02
277.306	68.27
277.521	96.94
277.737	51.88
277.952	74.41
278.168	72.36
278.383	107.18
278.599	19.11
278.814	47.79
279.03	58.03
279.245	39.59
279.461	-5.46
279.676	76.46
279.892	51.88
280.107	-7.51
280.322	58.03
280.538	23.21
280.753	25.26
280.969	76.46
281.184	19.11
281.399	90.79
281.615	66.22
281.83	49.83
282.045	-23.89
282.26	19.11
282.476	35.5
282.691	21.16
282.906	33.45
283.122	-42.32
283.337	33.45
283.552	31.4
283.767	96.94
283.983	-30.04
284.198	129.7
284.413	141.99
284.628	19.11
284.843	41.64
285.058	15.02
285.274	58.03
285.489	51.88
285.704	62.12
285.919	60.07
286.134	4.78
286.349	4.78
286.564	115.37
286.779	8.87
286.995	43.69
287.21	19.11
287.425	105.13
287.64	35.5
287.855	2.73
288.07	-30.04
288.285	86.7
288.5	25.26
288.715	47.79
288.93	12.97
289.145	60.07
289.36	15.02
289.575	84.65
289.79	68.27
290.004	45.74
290.219	60.07
290.434	10.92
290.649	27.31
290.864	29.35
291.079	23.21
291.294	-40.28
291.509	0.68
291.724	31.4
291.938	55.98
292.153	25.26
292.368	35.5
292.583	29.35
292.798	43.69
293.012	80.55
293.227	35.5
293.442	68.27
293.657	-5.46
293.871	113.32
294.086	45.74
294.301	64.17
294.516	35.5
294.73	60.07
294.945	-3.41
295.16	12.97
295.374	72.36
295.589	25.26
295.804	47.79
296.018	37.55
296.233	66.22
296.447	31.4
296.662	101.03
296.877	12.97
297.091	-23.89
297.306	76.46
297.52	4.78
297.735	29.35
297.949	19.11
298.164	25.26
298.378	-23.89
298.593	74.41
298.807	41.64
299.022	12.97
299.236	82.6
299.451	37.55
299.665	31.4
299.88	41.64
300.094	-25.94
300.309	64.17
300.523	49.83
300.737	62.12
300.952	43.69
301.166	19.11
301.381	41.64
301.595	-40.28
301.809	47.79
302.024	62.12
302.238	41.64
302.452	-3.41
302.667	82.6
302.881	76.46
303.095	41.64
303.309	74.41
303.524	80.55
303.738	96.94
303.952	49.83
304.166	6.83
304.381	64.17
304.595	49.83
304.809	41.64
305.023	68.27
305.237	60.07
305.452	19.11
305.666	70.31
305.88	39.59
306.094	78.51
306.308	141.99
306.522	103.08
306.736	35.5
306.95	51.88
307.164	31.4
307.379	94.89
307.593	64.17
307.807	64.17
308.021	27.31
308.235	35.5
308.449	35.5
308.663	19.11
308.877	94.89
309.091	64.17
309.305	55.98
309.519	127.66
309.733	0.68
309.947	35.5
310.161	25.26
310.374	92.84
310.588	62.12
310.802	21.16
311.016	-5.46
311.23	64.17
311.444	49.83
311.658	41.64
311.872	49.83
312.085	115.37
312.299	146.09
312.513	39.59
312.727	76.46
312.941	6.83
313.154	0.68
313.368	43.69
313.582	-17.75
313.796	72.36
314.009	23.21
314.223	19.11
314.437	80.55
314.651	58.03
314.864	92.84
315.078	-38.23
315.292	105.13
315.505	35.5
315.719	33.45
315.933	68.27
316.146	27.31
316.36	10.92
316.573	60.07
316.787	39.59
317.001	-17.75
317.214	43.69
317.428	27.31
317.641	74.41
317.855	62.12
318.068	113.32
318.282	47.79
318.495	47.79
318.709	101.03
318.922	43.69
319.136	94.89
319.349	55.98
319.563	8.87
319.776	45.74
319.99	60.07
320.203	31.4
320.417	47.79
320.63	29.35
320.843	111.27
321.057	-11.61
321.27	12.97
321.483	66.22
321.697	43.69
321.91	-15.7
322.124	49.83
322.337	96.94
322.55	80.55
322.763	-15.7
322.977	41.64
323.19	80.55
323.403	41.64
323.617	51.88
323.83	92.84
324.043	90.79
324.256	101.03
324.469	-13.65
324.683	60.07
324.896	117.42
325.109	51.88
325.322	88.75
325.535	68.27
325.748	-13.65
325.962	25.26
326.175	35.5
326.388	115.37
326.601	98.99
326.814	29.35
327.027	-15.7
327.24	49.83
327.453	8.87
327.666	92.84
327.879	31.4
328.092	4.78
328.305	6.83
328.518	119.46
328.731	-19.8
328.944	-3.41
329.157	88.75
329.37	86.7
329.583	-19.8
329.796	62.12
330.009	6.83
330.222	31.4
330.435	41.64
330.648	64.17
330.861	121.51
331.073	29.35
331.286	58.03
331.499	133.8
331.712	2.73
331.925	80.55
332.138	74.41
332.35	35.5
332.563	-62.8
332.776	35.5
332.989	88.75
333.202	55.98
333.414	53.93
333.627	8.87
333.84	60.07
334.053	21.16
334.265	15.02
334.478	84.65
334.691	51.88
334.903	94.89
335.116	-44.37
335.329	25.26
335.541	80.55
335.754	84.65
335.966	68.27
336.179	19.11
336.392	58.03
336.604	45.74
336.817	96.94
337.029	27.31
337.242	109.23
337.454	8.87
337.667	-27.99
337.88	123.56
338.092	105.13
338.305	8.87
338.517	55.98
338.729	35.5
338.942	49.83
339.154	58.03
339.367	101.03
339.579	2.73
339.792	23.21
340.004	45.74
340.217	2.73
340.429	23.21
340.641	37.55
340.854	27.31
341.066	80.55
341.278	62.12
341.491	15.02
341.703	25.26
341.915	-7.51
342.128	125.61
342.34	51.88
342.552	64.17
342.764	43.69
342.977	-44.37
343.189	8.87
343.401	60.07
343.613	109.23
343.826	-3.41
344.038	133.8
344.25	62.12
344.462	15.02
344.674	51.88
344.886	23.21
345.099	47.79
345.311	15.02
345.523	66.22
345.735	-23.89
345.947	-3.41
346.159	58.03
346.371	58.03
346.583	-64.85
346.795	84.65
347.007	66.22
347.219	29.35
347.431	68.27
347.643	105.13
347.855	74.41
348.067	55.98
348.279	88.75
348.491	8.87
348.703	33.45
348.915	-3.41
349.127	37.55
349.339	45.74
349.551	45.74
349.763	58.03
349.975	39.59
350.187	-5.46
350.399	90.79
350.61	29.35
350.822	86.7
351.034	37.55
351.246	37.55
351.458	-3.41
351.669	84.65
351.881	47.79
352.093	62.12
352.305	125.61
352.517	55.98
352.728	76.46
352.94	47.79
353.152	19.11
353.363	41.64
353.575	31.4
353.787	70.31
353.999	90.79
354.21	86.7
354.422	131.75
354.633	21.16
354.845	101.03
355.057	17.07
355.268	70.31
355.48	60.07
355.692	4.78
355.903	78.51
356.115	12.97
356.326	8.87
356.538	64.17
356.749	101.03
356.961	37.55
357.172	111.27
357.384	90.79
357.595	27.31
357.807	4.78
358.018	-1.37
358.23	25.26
358.441	121.51
358.653	21.16
358.864	31.4
359.075	60.07
359.287	62.12
359.498	53.93
359.709	78.51
359.921	92.84
360.132	53.93
360.344	72.36
360.555	55.98
360.766	139.94
360.977	80.55
361.189	4.78
361.4	10.92
361.611	84.65
361.823	88.75
362.034	29.35
362.245	60.07
362.456	109.23
362.667	55.98
362.879	90.79
363.09	4.78
363.301	41.64
363.512	25.26
363.723	19.11
363.935	25.26
364.146	68.27
364.357	49.83
364.568	121.51
364.779	17.07
364.99	55.98
365.201	25.26
365.412	74.41
365.623	76.46
365.834	68.27
366.045	60.07
366.256	64.17
366.467	47.79
366.678	49.83
366.889	92.84
367.1	76.46
367.311	35.5
367.522	55.98
367.733	29.35
367.944	10.92
368.155	82.6
368.366	25.26
368.577	27.31
368.788	21.16
368.999	88.75
369.209	68.27
369.42	6.83
369.631	53.93
369.842	117.42
370.053	64.17
370.264	49.83
370.474	68.27
370.685	125.61
370.896	27.31
371.107	10.92
371.317	43.69
371.528	84.65
371.739	58.03
371.95	68.27
372.16	76.46
372.371	60.07
372.582	129.7
372.792	55.98
373.003	49.83
373.214	74.41
373.424	141.99
373.635	21.16
373.846	111.27
374.056	-13.65
374.267	82.6
374.477	23.21
374.688	70.31
374.898	23.21
375.109	131.75
375.319	111.27
375.53	8.87
375.74	6.83
375.951	68.27
376.161	-42.32
376.372	119.46
376.582	62.12
376.793	35.5
377.003	86.7
377.214	35.5
377.424	58.03
377.635	21.16
377.845	58.03
378.055	15.02
378.266	60.07
378.476	29.35
378.686	51.88
378.897	53.93
379.107	113.32
379.317	55.98
379.528	-1.37
379.738	98.99
379.948	55.98
380.158	113.32
380.369	27.31
380.579	8.87
380.789	27.31
380.999	76.46
381.21	47.79
381.42	53.93
381.63	66.22
381.84	0.68
382.05	17.07
382.261	29.35
382.471	29.35
382.681	17.07
382.891	117.42
383.101	115.37
383.311	19.11
383.521	60.07
383.731	90.79
383.941	19.11
384.151	39.59
384.361	135.85
384.571	76.46
384.781	27.31
384.991	60.07
385.201	64.17
385.411	78.51
385.621	60.07
385.831	29.35
386.041	107.18
386.251	92.84
386.461	35.5
386.671	10.92
386.881	74.41
387.091	117.42
387.301	90.79
387.511	23.21
387.72	25.26
387.93	123.56
388.14	51.88
388.35	80.55
388.56	64.17
388.769	51.88
388.979	117.42
389.189	41.64
389.399	96.94
389.609	107.18
389.818	29.35
390.028	-1.37
390.238	76.46
390.447	66.22
390.657	78.51
390.867	154.28
391.076	135.85
391.286	92.84
391.496	113.32
391.705	45.74
391.915	152.23
392.125	86.7
392.334	94.89
392.544	62.12
392.753	92.84
392.963	47.79
393.172	37.55
393.382	35.5
393.591	107.18
393.801	74.41
394.01	88.75
394.22	107.18
394.429	64.17
394.639	58.03
394.848	107.18
395.058	133.8
395.267	131.75
395.477	68.27
395.686	55.98
395.895	47.79
396.105	123.56
396.314	98.99
396.524	115.37
396.733	60.07
396.942	119.46
397.152	88.75
397.361	141.99
397.57	84.65
397.78	55.98
397.989	53.93
398.198	107.18
398.407	107.18
398.617	74.41
398.826	62.12
399.035	98.99
399.244	158.38
399.453	92.84
399.663	45.74
399.872	150.18
400.081	51.88
400.29	172.71
400.499	111.27
400.708	90.79
400.917	103.08
401.127	94.89
401.336	115.37
401.545	121.51
401.754	117.42
401.963	160.42
402.172	107.18
402.381	76.46
402.59	86.7
402.799	135.85
403.008	86.7
403.217	121.51
403.426	162.47
403.635	203.43
403.844	146.09
404.053	94.89
404.262	127.66
404.471	90.79
404.68	125.61
404.888	166.57
405.097	180.9
405.306	135.85
405.515	94.89
405.724	162.47
405.933	144.04
406.142	189.1
406.35	129.7
406.559	166.57
406.768	178.86
406.977	234.15
407.185	156.33
407.394	180.9
407.603	201.38
407.812	248.49
408.02	164.52
408.229	201.38
408.438	174.76
408.646	246.44
408.855	213.67
409.064	86.7
409.272	236.2
409.481	240.3
409.69	271.01
409.898	225.96
410.107	311.97
410.315	271.01
410.524	365.22
410.733	289.45
410.941	332.45
411.15	305.83
411.358	363.17
411.567	354.98
411.775	408.23
411.984	336.55
412.192	365.22
412.401	395.94
412.609	416.42
412.818	395.94
413.026	377.51
413.234	381.6
413.443	465.57
413.651	391.84
413.86	467.62
414.068	471.72
414.276	469.67
414.485	494.24
414.693	477.86
414.901	508.58
415.11	563.87
415.318	496.29
415.526	641.7
415.734	623.27
415.943	660.13
416.151	713.38
416.359	727.71
416.567	817.82
416.776	799.39
416.984	785.05
417.192	819.87
417.4	737.95
417.608	811.68
417.817	885.41
418.025	799.39
418.233	1008.28
418.441	969.37
418.649	936.6
418.857	1069.72
419.065	1079.96
419.273	987.8
419.481	1082.01
419.689	1192.6
419.897	1213.08
420.105	1262.23
420.313	1378.97
420.521	1350.29
420.729	1196.7
420.937	1383.06
421.145	1454.74
421.353	1452.69
421.561	1682.06
421.769	1548.95
421.977	1690.26
422.185	1749.65
422.393	1776.27
422.601	1868.43
422.809	1815.18
423.017	1854.09
423.224	1954.44
423.432	2110.09
423.64	2214.54
423.848	2179.72
424.056	2095.75
424.263	2241.16
424.471	2415.24
424.679	2247.3
424.887	2509.44
425.094	2638.47
425.302	2704
425.51	2658.95
425.718	2744.96
425.925	2847.36
426.133	2968.19
426.341	3152.51
426.548	3179.13
426.756	3181.18
426.964	3236.47
427.171	3541.62
427.379	3560.05
427.586	3512.95
427.794	3750.51
428.001	3885.68
428.209	4000.37
428.417	4010.61
428.624	4205.16
428.832	4262.51
429.039	4287.08
429.247	4156.01
429.454	4737.63
429.662	4924
429.869	4543.08
430.076	4979.29
430.284	4852.32
430.491	4958.81
430.699	5460.57
430.906	5384.79
431.114	5481.05
431.321	5368.41
431.528	5667.41
431.736	5993.04
431.943	6306.38
432.15	6132.3
432.358	6226.51
432.565	6310.47
432.772	6505.03
432.979	6883.91
433.187	6959.68
433.394	6888
433.601	7389.75
433.808	7469.62
434.016	7473.72
434.223	7770.68
434.43	8225.33
434.637	8022.58
434.844	8579.62
435.052	8620.58
435.259	8604.2
435.466	8743.46
435.673	8774.18
435.88	9257.5
436.087	9753.11
436.294	9718.29
436.501	9196.06
436.708	9740.82
436.915	10160.66
437.122	10445.32
437.329	10353.16
437.537	10676.74
437.743	10930.69
437.95	10910.21
438.157	11295.23
438.364	11813.37
438.571	11641.34
438.778	11799.03
438.985	12902.89
439.192	12243.44
439.399	12810.73
439.606	12452.33
439.813	13287.9
440.02	13982.17
440.227	13992.41
440.433	13861.34
440.64	13992.41
440.847	14041.56
441.054	14461.39
441.261	15086.02
441.467	15432.13
441.674	15557.05
441.881	16105.91
442.088	15825.34
442.294	15694.27
442.501	16335.28
442.708	16658.86
442.914	17220
443.121	17947.03
443.328	17418.66
443.534	18649.49
443.741	18071.96
443.948	18252.18
444.154	19206.53
444.361	19042.7
444.568	19290.5
444.774	19360.13
444.981	19538.3
445.187	19945.85
445.394	20822.38
445.6	20517.23
445.807	22722.9
446.013	21635.42
446.22	22042.97
446.426	22890.83
446.633	23128.39
446.839	23648.58
447.046	22882.64
447.252	23980.35
447.459	24228.15
447.665	23859.52
447.871	25092.4
448.078	26081.56
448.284	24828.21
448.491	25413.93
448.697	26507.54
448.903	26906.9
449.11	26847.5
449.316	26497.3
449.522	27123.98
449.728	27246.86
449.935	27832.58
450.141	27967.74
450.347	28506.36
450.553	27834.63
450.76	28160.25
450.966	28879.09
451.172	28432.63
451.378	29268.2
451.584	28399.87
451.791	29305.07
451.997	29264.11
452.203	29581.54
452.409	29518.06
452.615	29380.84
452.821	28168.44
453.027	27781.38
453.233	29569.26
453.44	28012.8
453.646	28340.47
453.852	28598.52
454.058	28758.26
454.264	28145.92
454.47	29153.52
454.676	27932.93
454.882	28565.75
455.088	26282.27
455.294	26431.77
455.5	26970.38
455.705	27402.5
455.911	26118.43
456.117	25590.05
456.323	25131.31
456.529	23849.28
456.735	24879.41
456.941	24406.33
457.147	23771.46
457.352	23132.49
457.558	22534.48
457.764	23120.2
457.97	22770
458.176	22241.62
458.381	22014.3
458.587	20877.68
458.793	20969.83
458.999	19898.75
459.204	21320.04
459.41	20615.54
459.616	19472.77
459.821	19294.6
460.027	19243.4
460.233	18827.66
460.438	17924.51
460.644	18102.68
460.85	17144.23
461.055	16806.31
461.261	17111.46
461.466	15776.19
461.672	15206.85
461.878	16353.71
462.083	15327.68
462.289	14975.43
462.494	14684.62
462.7	14260.69
462.905	13763.03
463.111	14365.14
463.316	14541.26
463.522	14129.62
463.727	14197.2
463.932	13982.17
464.138	13855.19
464.343	13824.47
464.549	13617.63
464.754	14016.98
464.959	13916.63
465.165	13943.25
465.37	13365.73
465.575	12999.14
465.781	13570.52
465.986	13375.97
466.191	12952.04
466.397	12763.62
466.602	12255.73
466.807	12802.54
467.012	12732.9
467.218	12732.9
467.423	12323.31
467.628	12433.9
467.833	13056.48
468.038	12407.28
468.244	12351.98
468.449	12622.31
