Data from USB4F104151__66__13-53-53-414.txt Node

Date: Thu Mar 13 13:53:53 EDT 2025
User: louis
Spectrometer: USB4F10415
Trigger mode: 4
Integration Time (sec): 1.000000E-2
Scans to average: 1
Electric dark correction enabled: true
Nonlinearity correction enabled: false
Boxcar width: 0
XAxis mode: Wavelengths
Number of Pixels in Spectrum: 3648
>>>>>Begin Spectral Data<<<<<
178.204	-59.39
178.424	-59.39
178.644	-59.39
178.864	-88.06
179.084	-96.25
179.304	-12.29
179.524	2.05
179.744	28.67
179.964	34.82
180.184	-28.67
180.404	-20.48
180.624	2.05
180.844	8.19
181.064	14.34
181.283	-28.67
181.503	-32.77
181.723	32.77
181.943	2.05
182.163	32.77
182.383	8.19
182.602	8.19
182.822	45.06
183.042	-86.01
183.262	-14.34
183.482	6.14
183.701	26.62
183.921	-22.53
184.141	-12.29
184.361	12.29
184.58	63.49
184.8	26.62
185.02	28.67
185.239	51.2
185.459	51.2
185.679	49.15
185.898	-43.01
186.118	30.72
186.338	-6.14
186.557	59.39
186.777	-22.53
186.997	22.53
187.216	20.48
187.436	-6.14
187.655	26.62
187.875	49.15
188.095	-63.49
188.314	-24.58
188.534	-18.43
188.753	-34.82
188.973	-2.05
189.192	-28.67
189.412	36.86
189.631	69.63
189.851	-45.06
190.07	55.3
190.29	4.1
190.509	-14.34
190.729	16.38
190.948	4.1
191.168	57.34
191.387	20.48
191.607	-47.1
191.826	20.48
192.045	16.38
192.265	-16.38
192.484	14.34
192.704	-45.06
192.923	-12.29
193.142	38.91
193.362	43.01
193.581	36.86
193.8	77.82
194.02	36.86
194.239	-34.82
194.458	22.53
194.678	36.86
194.897	-47.1
195.116	67.58
195.335	20.48
195.555	-32.77
195.774	-20.48
195.993	32.77
196.212	-38.91
196.432	-22.53
196.651	12.29
196.87	0
197.089	100.35
197.308	26.62
197.528	83.97
197.747	-6.14
197.966	51.2
198.185	18.43
198.404	49.15
198.623	-53.25
198.842	-38.91
199.062	-40.96
199.281	10.24
199.5	110.59
199.719	-16.38
199.938	22.53
200.157	14.34
200.376	-16.38
200.595	-6.14
200.814	0
201.033	-14.34
201.252	6.14
201.471	-6.14
201.69	63.49
201.909	26.62
202.128	-20.48
202.347	20.48
202.566	43.01
202.785	-47.1
203.004	-47.1
203.223	77.82
203.442	38.91
203.661	32.77
203.879	-18.43
204.098	36.86
204.317	-49.15
204.536	28.67
204.755	2.05
204.974	20.48
205.193	24.58
205.411	-53.25
205.63	30.72
205.849	-71.68
206.068	-30.72
206.287	12.29
206.505	-2.05
206.724	-22.53
206.943	18.43
207.162	43.01
207.381	-14.34
207.599	65.54
207.818	-4.1
208.037	-2.05
208.255	-30.72
208.474	-18.43
208.693	36.86
208.911	-22.53
209.13	43.01
209.349	69.63
209.567	36.86
209.786	-4.1
210.005	53.25
210.223	-2.05
210.442	-26.62
210.661	-32.77
210.879	-28.67
211.098	26.62
211.316	2.05
211.535	45.06
211.753	63.49
211.972	4.1
212.191	-40.96
212.409	-43.01
212.628	26.62
212.846	-36.86
213.065	18.43
213.283	26.62
213.502	-12.29
213.72	4.1
213.938	22.53
214.157	14.34
214.375	-14.34
214.594	-2.05
214.812	57.34
215.031	-10.24
215.249	-53.25
215.467	-10.24
215.686	4.1
215.904	32.77
216.122	-26.62
216.341	45.06
216.559	10.24
216.778	73.73
216.996	43.01
217.214	6.14
217.432	-47.1
217.651	49.15
217.869	-57.34
218.087	-16.38
218.306	49.15
218.524	-28.67
218.742	-12.29
218.96	10.24
219.179	-32.77
219.397	73.73
219.615	47.1
219.833	-32.77
220.051	45.06
220.27	61.44
220.488	0
220.706	55.3
220.924	-30.72
221.142	-18.43
221.36	-16.38
221.578	18.43
221.796	-26.62
222.015	-2.05
222.233	-32.77
222.451	14.34
222.669	12.29
222.887	14.34
223.105	-2.05
223.323	8.19
223.541	10.24
223.759	18.43
223.977	0
224.195	12.29
224.413	59.39
224.631	0
224.849	-10.24
225.067	26.62
225.285	26.62
225.503	-24.58
225.721	2.05
225.939	-12.29
226.157	4.1
226.375	10.24
226.592	28.67
226.81	-30.72
227.028	-2.05
227.246	-28.67
227.464	-6.14
227.682	96.25
227.9	6.14
228.117	10.24
228.335	-2.05
228.553	-53.25
228.771	-53.25
228.989	-43.01
229.206	32.77
229.424	-32.77
229.642	6.14
229.86	-36.86
230.077	14.34
230.295	8.19
230.513	-26.62
230.731	-67.58
230.948	0
231.166	-14.34
231.384	-16.38
231.601	14.34
231.819	-28.67
232.037	40.96
232.254	-47.1
232.472	-14.34
232.689	-24.58
232.907	-30.72
233.125	40.96
233.342	4.1
233.56	-59.39
233.777	18.43
233.995	32.77
234.213	47.1
234.43	-24.58
234.648	-43.01
234.865	61.44
235.083	40.96
235.3	12.29
235.518	-34.82
235.735	28.67
235.953	40.96
236.17	34.82
236.388	38.91
236.605	14.34
236.822	34.82
237.04	-6.14
237.257	79.87
237.475	16.38
237.692	59.39
237.909	14.34
238.127	-4.1
238.344	49.15
238.562	38.91
238.779	0
238.996	-6.14
239.214	-6.14
239.431	20.48
239.648	-28.67
239.865	14.34
240.083	28.67
240.3	40.96
240.517	-36.86
240.735	28.67
240.952	6.14
241.169	-2.05
241.386	49.15
241.603	-47.1
241.821	-2.05
242.038	-16.38
242.255	40.96
242.472	32.77
242.689	30.72
242.907	-47.1
243.124	8.19
243.341	12.29
243.558	-36.86
243.775	10.24
243.992	-28.67
244.209	28.67
244.426	45.06
244.643	2.05
244.86	-40.96
245.078	14.34
245.295	26.62
245.512	43.01
245.729	28.67
245.946	22.53
246.163	20.48
246.38	-32.77
246.597	18.43
246.814	83.97
247.031	0
247.248	24.58
247.464	4.1
247.681	-2.05
247.898	14.34
248.115	-8.19
248.332	30.72
248.549	16.38
248.766	57.34
248.983	69.63
249.2	0
249.417	26.62
249.633	10.24
249.85	30.72
250.067	4.1
250.284	6.14
250.501	-14.34
250.717	53.25
250.934	-14.34
251.151	8.19
251.368	4.1
251.585	45.06
251.801	0
252.018	-18.43
252.235	-65.54
252.451	-71.68
252.668	55.3
252.885	-43.01
253.102	32.77
253.318	55.3
253.535	6.14
253.752	61.44
253.968	6.14
254.185	12.29
254.401	59.39
254.618	14.34
254.835	-2.05
255.051	20.48
255.268	24.58
255.484	-28.67
255.701	2.05
255.917	18.43
256.134	43.01
256.351	-47.1
256.567	43.01
256.784	34.82
257	18.43
257.217	63.49
257.433	0
257.65	67.58
257.866	4.1
258.082	-8.19
258.299	-4.1
258.515	24.58
258.732	77.82
258.948	-34.82
259.165	-20.48
259.381	73.73
259.597	77.82
259.814	55.3
260.03	-22.53
260.246	14.34
260.463	59.39
260.679	32.77
260.895	8.19
261.112	-4.1
261.328	77.82
261.544	57.34
261.761	16.38
261.977	-32.77
262.193	-4.1
262.409	4.1
262.626	-59.39
262.842	32.77
263.058	20.48
263.274	51.2
263.49	-10.24
263.707	-47.1
263.923	47.1
264.139	-10.24
264.355	-20.48
264.571	65.54
264.787	36.86
265.004	22.53
265.22	2.05
265.436	38.91
265.652	-57.34
265.868	-12.29
266.084	0
266.3	24.58
266.516	-18.43
266.732	14.34
266.948	-8.19
267.164	-32.77
267.38	55.3
267.596	-12.29
267.812	43.01
268.028	36.86
268.244	32.77
268.46	61.44
268.676	28.67
268.892	24.58
269.108	26.62
269.324	43.01
269.54	98.3
269.756	61.44
269.972	-57.34
270.188	-98.3
270.403	43.01
270.619	-8.19
270.835	-14.34
271.051	10.24
271.267	-38.91
271.483	-8.19
271.698	-73.73
271.914	100.35
272.13	-4.1
272.346	-8.19
272.562	-6.14
272.777	47.1
272.993	6.14
273.209	61.44
273.425	49.15
273.64	14.34
273.856	20.48
274.072	12.29
274.287	30.72
274.503	-24.58
274.719	24.58
274.934	16.38
275.15	77.82
275.366	-4.1
275.581	-45.06
275.797	57.34
276.012	36.86
276.228	10.24
276.444	2.05
276.659	49.15
276.875	6.14
277.09	-38.91
277.306	30.72
277.521	86.01
277.737	-4.1
277.952	26.62
278.168	6.14
278.383	16.38
278.599	16.38
278.814	65.54
279.03	63.49
279.245	59.39
279.461	-12.29
279.676	102.4
279.892	51.2
280.107	34.82
280.322	-53.25
280.538	-16.38
280.753	6.14
280.969	26.62
281.184	10.24
281.399	88.06
281.615	-30.72
281.83	-8.19
282.045	16.38
282.26	-6.14
282.476	-86.01
282.691	38.91
282.906	18.43
283.122	26.62
283.337	8.19
283.552	-4.1
283.767	40.96
283.983	45.06
284.198	49.15
284.413	75.77
284.628	-18.43
284.843	30.72
285.058	24.58
285.274	-69.63
285.489	4.1
285.704	-4.1
285.919	10.24
286.134	-8.19
286.349	20.48
286.564	-57.34
286.779	12.29
286.995	-38.91
287.21	-43.01
287.425	-30.72
287.64	32.77
287.855	26.62
288.07	40.96
288.285	20.48
288.5	12.29
288.715	59.39
288.93	-51.2
289.145	-6.14
289.36	18.43
289.575	-49.15
289.79	53.25
290.004	40.96
290.219	24.58
290.434	-14.34
290.649	92.16
290.864	-26.62
291.079	0
291.294	4.1
291.509	20.48
291.724	-55.3
291.938	94.21
292.153	86.01
292.368	-24.58
292.583	24.58
292.798	20.48
293.012	20.48
293.227	-26.62
293.442	-10.24
293.657	67.58
293.871	-26.62
294.086	2.05
294.301	-8.19
294.516	53.25
294.73	10.24
294.945	38.91
295.16	47.1
295.374	12.29
295.589	28.67
295.804	24.58
296.018	20.48
296.233	12.29
296.447	-4.1
296.662	36.86
296.877	34.82
297.091	55.3
297.306	2.05
297.52	6.14
297.735	-30.72
297.949	28.67
298.164	-51.2
298.378	24.58
298.593	32.77
298.807	-92.16
299.022	4.1
299.236	14.34
299.451	-22.53
299.665	-2.05
299.88	32.77
300.094	-57.34
300.309	69.63
300.523	-57.34
300.737	-38.91
300.952	30.72
301.166	-18.43
301.381	49.15
301.595	-38.91
301.809	2.05
302.024	28.67
302.238	-59.39
302.452	24.58
302.667	-53.25
302.881	24.58
303.095	43.01
303.309	-10.24
303.524	-16.38
303.738	59.39
303.952	10.24
304.166	12.29
304.381	-20.48
304.595	2.05
304.809	-14.34
305.023	12.29
305.237	16.38
305.452	47.1
305.666	40.96
305.88	38.91
306.094	6.14
306.308	16.38
306.522	-12.29
306.736	-14.34
306.95	22.53
307.164	53.25
307.379	73.73
307.593	30.72
307.807	83.97
308.021	-55.3
308.235	0
308.449	-24.58
308.663	-4.1
308.877	-2.05
309.091	26.62
309.305	43.01
309.519	-10.24
309.733	-32.77
309.947	12.29
310.161	32.77
310.374	12.29
310.588	38.91
310.802	-57.34
311.016	49.15
311.23	-69.63
311.444	-8.19
311.658	-28.67
311.872	-18.43
312.085	28.67
312.299	65.54
312.513	77.82
312.727	22.53
312.941	-28.67
313.154	10.24
313.368	20.48
313.582	-22.53
313.796	-40.96
314.009	24.58
314.223	18.43
314.437	18.43
314.651	49.15
314.864	-12.29
315.078	-36.86
315.292	26.62
315.505	55.3
315.719	24.58
315.933	4.1
316.146	-26.62
316.36	2.05
316.573	34.82
316.787	26.62
317.001	22.53
317.214	-22.53
317.428	34.82
317.641	30.72
317.855	-18.43
318.068	61.44
318.282	55.3
318.495	53.25
318.709	0
318.922	-18.43
319.136	122.88
319.349	22.53
319.563	40.96
319.776	47.1
319.99	34.82
320.203	96.25
320.417	49.15
320.63	47.1
320.843	30.72
321.057	43.01
321.27	108.54
321.483	20.48
321.697	51.2
321.91	73.73
322.124	18.43
322.337	-6.14
322.55	18.43
322.763	30.72
322.977	-12.29
323.19	8.19
323.403	18.43
323.617	10.24
323.83	6.14
324.043	0
324.256	24.58
324.469	-61.44
324.683	59.39
324.896	30.72
325.109	4.1
325.322	-90.11
325.535	88.06
325.748	49.15
325.962	38.91
326.175	12.29
326.388	43.01
326.601	79.87
326.814	-34.82
327.027	83.97
327.24	20.48
327.453	40.96
327.666	81.92
327.879	53.25
328.092	-2.05
328.305	20.48
328.518	59.39
328.731	26.62
328.944	0
329.157	67.58
329.37	-49.15
329.583	20.48
329.796	28.67
330.009	12.29
330.222	28.67
330.435	49.15
330.648	-34.82
330.861	-26.62
331.073	14.34
331.286	-6.14
331.499	26.62
331.712	16.38
331.925	32.77
332.138	26.62
332.35	12.29
332.563	-71.68
332.776	-14.34
332.989	40.96
333.202	38.91
333.414	-4.1
333.627	0
333.84	6.14
334.053	-38.91
334.265	-63.49
334.478	-22.53
334.691	-49.15
334.903	14.34
335.116	71.68
335.329	40.96
335.541	-2.05
335.754	51.2
335.966	4.1
336.179	-16.38
336.392	-51.2
336.604	0
336.817	-22.53
337.029	61.44
337.242	-6.14
337.454	51.2
337.667	24.58
337.88	-2.05
338.092	67.58
338.305	-2.05
338.517	32.77
338.729	18.43
338.942	-38.91
339.154	20.48
339.367	12.29
339.579	26.62
339.792	-8.19
340.004	22.53
340.217	20.48
340.429	20.48
340.641	30.72
340.854	43.01
341.066	-53.25
341.278	71.68
341.491	-8.19
341.703	-40.96
341.915	-40.96
342.128	26.62
342.34	22.53
342.552	-16.38
342.764	4.1
342.977	-8.19
343.189	-22.53
343.401	71.68
343.613	8.19
343.826	-40.96
344.038	-34.82
344.25	43.01
344.462	38.91
344.674	36.86
344.886	81.92
345.099	32.77
345.311	45.06
345.523	-8.19
345.735	-26.62
345.947	45.06
346.159	-6.14
346.371	45.06
346.583	34.82
346.795	34.82
347.007	-30.72
347.219	6.14
347.431	-26.62
347.643	36.86
347.855	24.58
348.067	-4.1
348.279	-30.72
348.491	24.58
348.703	40.96
348.915	30.72
349.127	2.05
349.339	43.01
349.551	-53.25
349.763	-18.43
349.975	-38.91
350.187	86.01
350.399	-4.1
350.61	49.15
350.822	-24.58
351.034	-2.05
351.246	49.15
351.458	16.38
351.669	53.25
351.881	-53.25
352.093	0
352.305	26.62
352.517	34.82
352.728	45.06
352.94	65.54
353.152	-36.86
353.363	40.96
353.575	24.58
353.787	53.25
353.999	26.62
354.21	-8.19
354.422	-22.53
354.633	10.24
354.845	36.86
355.057	10.24
355.268	47.1
355.48	-14.34
355.692	-10.24
355.903	-8.19
356.115	61.44
356.326	-69.63
356.538	79.87
356.749	-16.38
356.961	104.45
357.172	18.43
357.384	-22.53
357.595	32.77
357.807	45.06
358.018	38.91
358.23	-4.1
358.441	-12.29
358.653	38.91
358.864	-6.14
359.075	40.96
359.287	26.62
359.498	22.53
359.709	26.62
359.921	24.58
360.132	131.07
360.344	53.25
360.555	6.14
360.766	30.72
360.977	10.24
361.189	32.77
361.4	16.38
361.611	-10.24
361.823	2.05
362.034	-40.96
362.245	-34.82
362.456	-24.58
362.667	61.44
362.879	26.62
363.09	8.19
363.301	-14.34
363.512	-18.43
363.723	-6.14
363.935	-4.1
364.146	-24.58
364.357	-65.54
364.568	4.1
364.779	40.96
364.99	88.06
365.201	-26.62
365.412	86.01
365.623	-10.24
365.834	-28.67
366.045	38.91
366.256	28.67
366.467	67.58
366.678	28.67
366.889	4.1
367.1	38.91
367.311	10.24
367.522	55.3
367.733	47.1
367.944	26.62
368.155	-43.01
368.366	40.96
368.577	6.14
368.788	14.34
368.999	26.62
369.209	47.1
369.42	43.01
369.631	43.01
369.842	32.77
370.053	4.1
370.264	24.58
370.474	-28.67
370.685	-47.1
370.896	14.34
371.107	43.01
371.317	20.48
371.528	20.48
371.739	4.1
371.95	2.05
372.16	-2.05
372.371	-79.87
372.582	77.82
372.792	-20.48
373.003	71.68
373.214	20.48
373.424	24.58
373.635	20.48
373.846	-2.05
374.056	47.1
374.267	53.25
374.477	-10.24
374.688	6.14
374.898	12.29
375.109	30.72
375.319	-20.48
375.53	32.77
375.74	8.19
375.951	63.49
376.161	51.2
376.372	59.39
376.582	-12.29
376.793	-4.1
377.003	-79.87
377.214	2.05
377.424	45.06
377.635	-8.19
377.845	-8.19
378.055	53.25
378.266	-18.43
378.476	18.43
378.686	24.58
378.897	6.14
379.107	53.25
379.317	8.19
379.528	6.14
379.738	51.2
379.948	26.62
380.158	34.82
380.369	40.96
380.579	94.21
380.789	16.38
380.999	-57.34
381.21	-8.19
381.42	-43.01
381.63	-53.25
381.84	-38.91
382.05	49.15
382.261	-30.72
382.471	8.19
382.681	-4.1
382.891	-14.34
383.101	0
383.311	-53.25
383.521	83.97
383.731	16.38
383.941	38.91
384.151	30.72
384.361	-30.72
384.571	-2.05
384.781	88.06
384.991	67.58
385.201	22.53
385.411	92.16
385.621	49.15
385.831	40.96
386.041	2.05
386.251	12.29
386.461	83.97
386.671	18.43
386.881	55.3
387.091	-63.49
387.301	34.82
387.511	2.05
387.72	63.49
387.93	20.48
388.14	43.01
388.35	-16.38
388.56	26.62
388.769	47.1
388.979	18.43
389.189	-32.77
389.399	43.01
389.609	67.58
389.818	34.82
390.028	-4.1
390.238	61.44
390.447	-12.29
390.657	40.96
390.867	71.68
391.076	22.53
391.286	-26.62
391.496	10.24
391.705	2.05
391.915	-2.05
392.125	12.29
392.334	26.62
392.544	20.48
392.753	22.53
392.963	-4.1
393.172	8.19
393.382	30.72
393.591	16.38
393.801	10.24
394.01	96.25
394.22	38.91
394.429	83.97
394.639	-6.14
394.848	59.39
395.058	8.19
395.267	10.24
395.477	59.39
395.686	88.06
395.895	40.96
396.105	30.72
396.314	8.19
396.524	45.06
396.733	18.43
396.942	59.39
397.152	36.86
397.361	77.82
397.57	4.1
397.78	-2.05
397.989	-63.49
398.198	40.96
398.407	71.68
398.617	-2.05
398.826	-57.34
399.035	53.25
399.244	16.38
399.453	63.49
399.663	-2.05
399.872	24.58
400.081	79.87
400.29	71.68
400.499	57.34
400.708	114.69
400.917	71.68
401.127	-4.1
401.336	55.3
401.545	79.87
401.754	-4.1
401.963	86.01
402.172	43.01
402.381	6.14
402.59	69.63
402.799	55.3
403.008	-4.1
403.217	102.4
403.426	59.39
403.635	106.49
403.844	126.97
404.053	77.82
404.262	47.1
404.471	114.69
404.68	83.97
404.888	67.58
405.097	94.21
405.306	49.15
405.515	-10.24
405.724	4.1
405.933	90.11
406.142	139.26
406.35	106.49
406.559	126.97
406.768	75.77
406.977	86.01
407.185	129.02
407.394	55.3
407.603	67.58
407.812	108.54
408.02	100.35
408.229	133.12
408.438	100.35
408.646	77.82
408.855	122.88
409.064	100.35
409.272	155.65
409.481	77.82
409.69	118.78
409.898	104.45
410.107	147.45
410.315	174.08
410.524	120.83
410.733	188.41
410.941	98.3
411.15	104.45
411.358	104.45
411.567	151.55
411.775	157.69
411.984	155.65
412.192	225.28
412.401	217.08
412.609	169.98
412.818	253.95
413.026	188.41
413.234	253.95
413.443	245.76
413.651	225.28
413.86	143.36
414.068	258.04
414.276	256
414.485	280.57
414.693	325.63
414.901	280.57
415.11	282.62
415.318	309.24
415.526	311.29
415.734	350.2
415.943	348.15
416.151	331.77
416.359	352.25
416.567	407.55
416.776	411.64
416.984	352.25
417.192	483.32
417.4	368.63
417.608	417.79
417.817	407.55
418.025	450.55
418.233	516.09
418.441	497.66
418.649	595.96
418.857	622.58
419.065	557.05
419.273	499.7
419.481	608.25
419.689	653.3
419.897	614.39
420.105	579.58
420.313	591.86
420.521	720.88
420.729	747.51
420.937	755.7
421.145	671.73
421.353	804.85
421.561	886.77
421.769	819.19
421.977	864.24
422.185	890.87
422.393	907.25
422.601	1044.46
422.809	980.98
423.017	978.93
423.224	1058.8
423.432	1005.55
423.64	1011.7
423.848	1165.29
424.056	1144.81
424.263	1234.93
424.471	1101.81
424.679	1239.02
424.887	1404.91
425.094	1374.19
425.302	1288.17
425.51	1400.81
425.718	1507.31
425.925	1589.22
426.133	1445.87
426.341	1638.37
426.548	1673.19
426.756	1738.73
426.964	1732.58
427.171	1789.92
427.379	1810.4
427.586	1923.04
427.794	2023.39
428.001	2103.26
428.209	2045.92
428.417	2127.84
428.624	2144.22
428.832	2148.32
429.039	2263.01
429.247	2183.13
429.454	2389.98
429.662	2664.41
429.869	2451.42
430.076	2564.06
430.284	2400.22
430.491	2643.93
430.699	2676.7
430.906	2838.48
431.114	2785.24
431.321	2899.92
431.528	2955.22
431.736	3026.9
431.943	3246.03
432.15	3139.54
432.358	3272.65
432.565	3473.36
432.772	3407.82
432.979	3436.49
433.187	3653.58
433.394	3594.19
433.601	3983.3
433.808	3989.44
434.016	3811.27
434.223	4110.27
434.43	4444.09
434.637	4192.19
434.844	4331.45
435.052	4622.27
435.259	4589.5
435.466	4612.03
435.673	4517.82
435.88	4747.19
436.087	5009.33
436.294	5119.92
436.501	4933.56
436.708	5115.83
436.915	5066.67
437.122	5414.83
437.329	5398.45
437.537	5611.43
437.743	5715.88
437.95	5693.35
438.157	5922.73
438.364	6111.14
438.571	6133.67
438.778	6051.75
438.985	6698.91
439.192	6430.62
439.399	6694.81
439.606	6535.07
439.813	6842.26
440.02	7241.62
440.227	7184.27
440.433	6954.9
440.64	7303.06
440.847	7292.82
441.054	7643.02
441.261	7991.17
441.467	7868.3
441.674	8148.87
441.881	8478.59
442.088	8279.94
442.294	8329.09
442.501	8511.36
442.708	8654.72
442.914	8914.81
443.121	9570.16
443.328	9101.17
443.534	9729.9
443.741	9574.25
443.948	9424.75
444.154	9963.37
444.361	9922.41
444.568	10180.45
444.774	10022.76
444.981	10278.76
445.187	10571.61
445.394	10913.63
445.6	10665.82
445.807	11835.21
446.013	11192.15
446.22	11431.76
446.426	11994.95
446.633	12031.82
446.839	12535.62
447.046	12087.11
447.252	12787.52
447.459	12523.33
447.665	12683.07
447.871	13102.9
448.078	13756.21
448.284	13039.42
448.491	13238.07
448.697	13784.88
448.903	13987.63
449.11	14290.73
449.316	13922.09
449.522	13952.81
449.728	14546.72
449.935	14415.65
450.141	14530.34
450.347	14995.23
450.553	14257.96
450.76	14733.09
450.966	15191.83
451.172	14935.84
451.378	15372.05
451.584	15224.6
451.791	15449.88
451.997	15349.53
452.203	15570.71
452.409	15509.27
452.615	15472.4
452.821	15019.8
453.027	14700.32
453.233	15511.32
453.44	14858.01
453.646	14999.32
453.852	15015.71
454.058	15183.64
454.264	14710.56
454.47	15073.05
454.676	14720.8
454.882	15279.89
455.088	13942.57
455.294	14059.31
455.5	14083.88
455.705	14554.91
455.911	13739.82
456.117	13637.42
456.323	13299.51
456.529	12621.63
456.735	12996.41
456.941	13000.51
457.147	12592.96
457.352	12207.94
457.558	12296
457.764	12191.56
457.97	11870.03
458.176	11466.58
458.381	11624.27
458.587	11175.77
458.793	10993.5
458.999	10387.3
459.204	11231.06
459.41	10841.95
459.616	10223.46
459.821	10293.09
460.027	10037.09
460.233	9791.34
460.438	9459.57
460.644	9447.28
460.85	9168.76
461.055	8900.47
461.261	8949.62
461.466	8238.98
461.672	8116.1
461.878	8740.73
462.083	8030.09
462.289	8173.44
462.494	7987.08
462.7	7567.24
462.905	7468.94
463.111	7614.35
463.316	7636.88
463.522	7491.47
463.727	7411.6
463.932	7448.46
464.138	7440.27
464.343	7405.45
464.549	7382.93
464.754	7497.61
464.959	7356.3
465.165	7442.32
465.37	7073.68
465.575	6838.17
465.781	7290.77
465.986	7219.09
466.191	6879.13
466.397	6899.61
466.602	6477.73
466.807	6686.62
467.012	6647.71
467.218	6799.26
467.423	6514.59
467.628	6825.88
467.833	6950.81
468.038	6569.88
468.244	6426.53
468.449	6772.63
468.654	6549.4
468.859	6461.34
469.064	6543.26
469.269	6119.33
469.474	6289.31
469.679	6465.44
469.885	6045.6
