Data from USB4F104151__233__14-00-50-119.txt Node

Date: Thu Mar 13 14:00:50 EDT 2025
User: louis
Spectrometer: USB4F10415
Trigger mode: 4
Integration Time (sec): 1.000000E-2
Scans to average: 1
Electric dark correction enabled: true
Nonlinearity correction enabled: false
Boxcar width: 0
XAxis mode: Wavelengths
Number of Pixels in Spectrum: 3648
>>>>>Begin Spectral Data<<<<<
178.204	-68.95
178.424	-68.95
178.644	-68.95
178.864	-66.9
179.084	-105.81
179.304	72.36
179.524	-32.08
179.744	-54.61
179.964	45.74
180.184	-17.75
180.404	-44.37
180.624	-13.65
180.844	10.92
181.064	-7.51
181.283	47.79
181.503	27.31
181.723	-34.13
181.943	-62.8
182.163	31.4
182.383	-7.51
182.602	66.22
182.822	17.07
183.042	10.92
183.262	107.18
183.482	39.59
183.701	10.92
183.921	4.78
184.141	-27.99
184.361	47.79
184.58	58.03
184.8	49.83
185.02	-13.65
185.239	33.45
185.459	2.73
185.679	43.69
185.898	-36.18
186.118	-73.04
186.338	-27.99
186.557	78.51
186.777	-56.66
186.997	-46.42
187.216	35.5
187.436	64.17
187.655	-13.65
187.875	-19.8
188.095	8.87
188.314	-7.51
188.534	17.07
188.753	-5.46
188.973	-9.56
189.192	41.64
189.412	15.02
189.631	2.73
189.851	23.21
190.07	25.26
190.29	-54.61
190.509	27.31
190.729	53.93
190.948	33.45
191.168	115.37
191.387	0.68
191.607	-34.13
191.826	72.36
192.045	-21.84
192.265	10.92
192.484	10.92
192.704	6.83
192.923	-5.46
193.142	17.07
193.362	-9.56
193.581	0.68
193.8	-30.04
194.02	29.35
194.239	-7.51
194.458	2.73
194.678	-15.7
194.897	-23.89
195.116	-44.37
195.335	86.7
195.555	-46.42
195.774	60.07
195.993	15.02
196.212	62.12
196.432	39.59
196.651	27.31
196.87	-11.61
197.089	55.98
197.308	-11.61
197.528	35.5
197.747	-75.09
197.966	19.11
198.185	51.88
198.404	15.02
198.623	-1.37
198.842	15.02
199.062	43.69
199.281	21.16
199.5	-40.28
199.719	23.21
199.938	23.21
200.157	72.36
200.376	-1.37
200.595	12.97
200.814	12.97
201.033	-1.37
201.252	31.4
201.471	-58.71
201.69	31.4
201.909	21.16
202.128	-36.18
202.347	-1.37
202.566	-3.41
202.785	-9.56
203.004	41.64
203.223	74.41
203.442	6.83
203.661	35.5
203.879	-64.85
204.098	10.92
204.317	78.51
204.536	12.97
204.755	37.55
204.974	53.93
205.193	41.64
205.411	33.45
205.63	21.16
205.849	-36.18
206.068	4.78
206.287	-42.32
206.505	53.93
206.724	-21.84
206.943	-44.37
207.162	43.69
207.381	-23.89
207.599	12.97
207.818	29.35
208.037	35.5
208.255	23.21
208.474	6.83
208.693	-50.52
208.911	58.03
209.13	-48.47
209.349	2.73
209.567	-9.56
209.786	-25.94
210.005	-30.04
210.223	-38.23
210.442	37.55
210.661	-13.65
210.879	-1.37
211.098	10.92
211.316	103.08
211.535	-5.46
211.753	-9.56
211.972	-9.56
212.191	10.92
212.409	-3.41
212.628	43.69
212.846	-42.32
213.065	15.02
213.283	49.83
213.502	-25.94
213.72	68.27
213.938	41.64
214.157	-7.51
214.375	-1.37
214.594	31.4
214.812	8.87
215.031	109.23
215.249	19.11
215.467	25.26
215.686	43.69
215.904	117.42
216.122	47.79
216.341	-9.56
216.559	55.98
216.778	-1.37
216.996	23.21
217.214	0.68
217.432	51.88
217.651	25.26
217.869	19.11
218.087	19.11
218.306	43.69
218.524	-15.7
218.742	-27.99
218.96	92.84
219.179	12.97
219.397	2.73
219.615	-7.51
219.833	-19.8
220.051	-19.8
220.27	62.12
220.488	80.55
220.706	15.02
220.924	6.83
221.142	29.35
221.36	31.4
221.578	10.92
221.796	29.35
222.015	45.74
222.233	-42.32
222.451	60.07
222.669	-62.8
222.887	10.92
223.105	6.83
223.323	-11.61
223.541	-19.8
223.759	31.4
223.977	10.92
224.195	51.88
224.413	76.46
224.631	64.17
224.849	2.73
225.067	64.17
225.285	45.74
225.503	-54.61
225.721	37.55
225.939	31.4
226.157	60.07
226.375	92.84
226.592	-15.7
226.81	15.02
227.028	-71
227.246	39.59
227.464	10.92
227.682	21.16
227.9	-1.37
228.117	-58.71
228.335	68.27
228.553	43.69
228.771	-1.37
228.989	-5.46
229.206	55.98
229.424	-21.84
229.642	37.55
229.86	27.31
230.077	-32.08
230.295	-21.84
230.513	64.17
230.731	-1.37
230.948	103.08
231.166	76.46
231.384	0.68
231.601	51.88
231.819	39.59
232.037	-34.13
232.254	-19.8
232.472	27.31
232.689	-9.56
232.907	19.11
233.125	-42.32
233.342	-5.46
233.56	-58.71
233.777	4.78
233.995	21.16
234.213	15.02
234.43	0.68
234.648	55.98
234.865	-5.46
235.083	-54.61
235.3	58.03
235.518	10.92
235.735	64.17
235.953	31.4
236.17	-13.65
236.388	2.73
236.605	6.83
236.822	109.23
237.04	39.59
237.257	43.69
237.475	60.07
237.692	-38.23
237.909	35.5
238.127	2.73
238.344	-23.89
238.562	60.07
238.779	76.46
238.996	2.73
239.214	17.07
239.431	-36.18
239.648	-36.18
239.865	19.11
240.083	60.07
240.3	-30.04
240.517	-42.32
240.735	-3.41
240.952	-36.18
241.169	29.35
241.386	49.83
241.603	-3.41
241.821	-17.75
242.038	29.35
242.255	-58.71
242.472	19.11
242.689	-11.61
242.907	41.64
243.124	62.12
243.341	-9.56
243.558	10.92
243.775	19.11
243.992	60.07
244.209	4.78
244.426	47.79
244.643	4.78
244.86	-30.04
245.078	-19.8
245.295	15.02
245.512	-27.99
245.729	-19.8
245.946	12.97
246.163	-52.56
246.38	4.78
246.597	51.88
246.814	49.83
247.031	-38.23
247.248	109.23
247.464	2.73
247.681	-30.04
247.898	76.46
248.115	0.68
248.332	-9.56
248.549	-3.41
248.766	43.69
248.983	2.73
249.2	10.92
249.417	33.45
249.633	15.02
249.85	39.59
250.067	37.55
250.284	23.21
250.501	2.73
250.717	-3.41
250.934	-15.7
251.151	68.27
251.368	-21.84
251.585	58.03
251.801	-42.32
252.018	-3.41
252.235	-52.56
252.451	-46.42
252.668	-1.37
252.885	21.16
253.102	101.03
253.318	-38.23
253.535	-32.08
253.752	6.83
253.968	33.45
254.185	92.84
254.401	-11.61
254.618	-38.23
254.835	-38.23
255.051	19.11
255.268	17.07
255.484	43.69
255.701	-42.32
255.917	62.12
256.134	2.73
256.351	51.88
256.567	43.69
256.784	-54.61
257	4.78
257.217	4.78
257.433	76.46
257.65	-5.46
257.866	66.22
258.082	17.07
258.299	-15.7
258.515	-13.65
258.732	35.5
258.948	76.46
259.165	-21.84
259.381	10.92
259.597	-17.75
259.814	29.35
260.03	39.59
260.246	47.79
260.463	66.22
260.679	10.92
260.895	39.59
261.112	72.36
261.328	-54.61
261.544	10.92
261.761	88.75
261.977	-71
262.193	86.7
262.409	-21.84
262.626	-5.46
262.842	19.11
263.058	-42.32
263.274	-3.41
263.49	-54.61
263.707	41.64
263.923	-13.65
264.139	-32.08
264.355	23.21
264.571	68.27
264.787	27.31
265.004	29.35
265.22	43.69
265.436	17.07
265.652	10.92
265.868	39.59
266.084	47.79
266.3	10.92
266.516	-38.23
266.732	58.03
266.948	0.68
267.164	6.83
267.38	-3.41
267.596	-36.18
267.812	82.6
268.028	51.88
268.244	-38.23
268.46	43.69
268.676	-5.46
268.892	29.35
269.108	6.83
269.324	31.4
269.54	31.4
269.756	17.07
269.972	-56.66
270.188	-30.04
270.403	23.21
270.619	27.31
270.835	70.31
271.051	19.11
271.267	55.98
271.483	84.65
271.698	25.26
271.914	45.74
272.13	31.4
272.346	35.5
272.562	27.31
272.777	-11.61
272.993	-9.56
273.209	10.92
273.425	-1.37
273.64	-9.56
273.856	80.55
274.072	23.21
274.287	35.5
274.503	-25.94
274.719	17.07
274.934	47.79
275.15	19.11
275.366	35.5
275.581	29.35
275.797	15.02
276.012	-5.46
276.228	60.07
276.444	-7.51
276.659	-27.99
276.875	41.64
277.09	6.83
277.306	6.83
277.521	-1.37
277.737	88.75
277.952	47.79
278.168	74.41
278.383	-13.65
278.599	74.41
278.814	-1.37
279.03	-15.7
279.245	2.73
279.461	-30.04
279.676	-40.28
279.892	29.35
280.107	58.03
280.322	-27.99
280.538	-9.56
280.753	-1.37
280.969	80.55
281.184	96.94
281.399	2.73
281.615	21.16
281.83	-34.13
282.045	10.92
282.26	-15.7
282.476	43.69
282.691	2.73
282.906	33.45
283.122	-21.84
283.337	60.07
283.552	2.73
283.767	37.55
283.983	6.83
284.198	4.78
284.413	45.74
284.628	103.08
284.843	19.11
285.058	4.78
285.274	4.78
285.489	-5.46
285.704	96.94
285.919	60.07
286.134	27.31
286.349	-60.76
286.564	10.92
286.779	-34.13
286.995	64.17
287.21	51.88
287.425	25.26
287.64	-50.52
287.855	68.27
288.07	-30.04
288.285	45.74
288.5	31.4
288.715	-52.56
288.93	-21.84
289.145	39.59
289.36	-9.56
289.575	31.4
289.79	68.27
290.004	35.5
290.219	49.83
290.434	43.69
290.649	-54.61
290.864	25.26
291.079	-64.85
291.294	25.26
291.509	21.16
291.724	-46.42
291.938	-17.75
292.153	-44.37
292.368	4.78
292.583	2.73
292.798	37.55
293.012	19.11
293.227	-5.46
293.442	2.73
293.657	19.11
293.871	-9.56
294.086	39.59
294.301	21.16
294.516	-30.04
294.73	-9.56
294.945	-5.46
295.16	-9.56
295.374	-21.84
295.589	105.13
295.804	17.07
296.018	4.78
296.233	-36.18
296.447	-27.99
296.662	6.83
296.877	49.83
297.091	39.59
297.306	86.7
297.52	-1.37
297.735	-46.42
297.949	105.13
298.164	80.55
298.378	17.07
298.593	39.59
298.807	-21.84
299.022	15.02
299.236	-1.37
299.451	39.59
299.665	35.5
299.88	88.75
300.094	-19.8
300.309	27.31
300.523	8.87
300.737	10.92
300.952	21.16
301.166	-27.99
301.381	27.31
301.595	29.35
301.809	51.88
302.024	27.31
302.238	8.87
302.452	-5.46
302.667	8.87
302.881	-11.61
303.095	-30.04
303.309	55.98
303.524	88.75
303.738	21.16
303.952	-17.75
304.166	37.55
304.381	27.31
304.595	6.83
304.809	-7.51
305.023	37.55
305.237	-9.56
305.452	27.31
305.666	58.03
305.88	-15.7
306.094	27.31
306.308	-25.94
306.522	66.22
306.736	15.02
306.95	23.21
307.164	12.97
307.379	-1.37
307.593	-50.52
307.807	78.51
308.021	2.73
308.235	-5.46
308.449	25.26
308.663	51.88
308.877	76.46
309.091	53.93
309.305	49.83
309.519	-42.32
309.733	21.16
309.947	-19.8
310.161	27.31
310.374	-15.7
310.588	94.89
310.802	43.69
311.016	137.9
311.23	-9.56
311.444	55.98
311.658	-9.56
311.872	74.41
312.085	12.97
312.299	51.88
312.513	35.5
312.727	19.11
312.941	21.16
313.154	41.64
313.368	10.92
313.582	-54.61
313.796	49.83
314.009	68.27
314.223	19.11
314.437	-5.46
314.651	-1.37
314.864	51.88
315.078	-30.04
315.292	6.83
315.505	64.17
315.719	62.12
315.933	53.93
316.146	17.07
316.36	10.92
316.573	64.17
316.787	29.35
317.001	33.45
317.214	60.07
317.428	43.69
317.641	12.97
317.855	17.07
318.068	10.92
318.282	51.88
318.495	-23.89
318.709	4.78
318.922	4.78
319.136	19.11
319.349	43.69
319.563	-5.46
319.776	43.69
319.99	27.31
320.203	35.5
320.417	-21.84
320.63	-5.46
320.843	12.97
321.057	47.79
321.27	29.35
321.483	-13.65
321.697	53.93
321.91	60.07
322.124	29.35
322.337	-7.51
322.55	68.27
322.763	47.79
322.977	-52.56
323.19	-17.75
323.403	45.74
323.617	62.12
323.83	-36.18
324.043	35.5
324.256	-1.37
324.469	-19.8
324.683	70.31
324.896	-17.75
325.109	74.41
325.322	-13.65
325.535	-19.8
325.748	-3.41
325.962	-9.56
326.175	103.08
326.388	62.12
326.601	-9.56
326.814	68.27
327.027	-52.56
327.24	29.35
327.453	-3.41
327.666	78.51
327.879	111.27
328.092	62.12
328.305	29.35
328.518	19.11
328.731	60.07
328.944	39.59
329.157	2.73
329.37	29.35
329.583	15.02
329.796	6.83
330.009	0.68
330.222	31.4
330.435	51.88
330.648	27.31
330.861	41.64
331.073	47.79
331.286	-21.84
331.499	10.92
331.712	8.87
331.925	60.07
332.138	25.26
332.35	60.07
332.563	8.87
332.776	27.31
332.989	15.02
333.202	21.16
333.414	39.59
333.627	2.73
333.84	-9.56
334.053	25.26
334.265	27.31
334.478	84.65
334.691	-3.41
334.903	23.21
335.116	25.26
335.329	43.69
335.541	45.74
335.754	19.11
335.966	-75.09
336.179	70.31
336.392	58.03
336.604	45.74
336.817	27.31
337.029	2.73
337.242	15.02
337.454	96.94
337.667	86.7
337.88	51.88
338.092	41.64
338.305	37.55
338.517	10.92
338.729	45.74
338.942	4.78
339.154	43.69
339.367	-13.65
339.579	45.74
339.792	19.11
340.004	25.26
340.217	-34.13
340.429	-36.18
340.641	21.16
340.854	60.07
341.066	27.31
341.278	-27.99
341.491	31.4
341.703	-3.41
341.915	39.59
342.128	29.35
342.34	10.92
342.552	51.88
342.764	12.97
342.977	49.83
343.189	29.35
343.401	31.4
343.613	-21.84
343.826	76.46
344.038	15.02
344.25	6.83
344.462	43.69
344.674	2.73
344.886	49.83
345.099	109.23
345.311	17.07
345.523	101.03
345.735	8.87
345.947	19.11
346.159	-3.41
346.371	31.4
346.583	23.21
346.795	33.45
347.007	-58.71
347.219	-21.84
347.431	60.07
347.643	33.45
347.855	-9.56
348.067	88.75
348.279	-25.94
348.491	51.88
348.703	15.02
348.915	43.69
349.127	-5.46
349.339	88.75
349.551	-62.8
349.763	0.68
349.975	58.03
350.187	78.51
350.399	17.07
350.61	31.4
350.822	29.35
351.034	25.26
351.246	76.46
351.458	-5.46
351.669	41.64
351.881	80.55
352.093	21.16
352.305	19.11
352.517	76.46
352.728	76.46
352.94	-21.84
353.152	105.13
353.363	-3.41
353.575	31.4
353.787	94.89
353.999	88.75
354.21	49.83
354.422	90.79
354.633	-23.89
354.845	109.23
355.057	33.45
355.268	103.08
355.48	21.16
355.692	10.92
355.903	25.26
356.115	23.21
356.326	21.16
356.538	41.64
356.749	70.31
356.961	62.12
357.172	41.64
357.384	-3.41
357.595	98.99
357.807	70.31
358.018	29.35
358.23	12.97
358.441	-3.41
358.653	53.93
358.864	64.17
359.075	-5.46
359.287	6.83
359.498	-5.46
359.709	45.74
359.921	4.78
360.132	10.92
360.344	72.36
360.555	-46.42
360.766	76.46
360.977	0.68
361.189	94.89
361.4	-5.46
361.611	51.88
361.823	19.11
362.034	6.83
362.245	0.68
362.456	6.83
362.667	15.02
362.879	12.97
363.09	55.98
363.301	19.11
363.512	0.68
363.723	35.5
363.935	58.03
364.146	-32.08
364.357	-21.84
364.568	80.55
364.779	45.74
364.99	74.41
365.201	70.31
365.412	39.59
365.623	58.03
365.834	72.36
366.045	49.83
366.256	45.74
366.467	76.46
366.678	92.84
366.889	51.88
367.1	10.92
367.311	68.27
367.522	27.31
367.733	2.73
367.944	21.16
368.155	29.35
368.366	27.31
368.577	35.5
368.788	76.46
368.999	12.97
369.209	19.11
369.42	45.74
369.631	2.73
369.842	27.31
370.053	78.51
370.264	86.7
370.474	-9.56
370.685	37.55
370.896	12.97
371.107	17.07
371.317	2.73
371.528	-32.08
371.739	76.46
371.95	29.35
372.16	-46.42
372.371	51.88
372.582	-7.51
372.792	6.83
373.003	33.45
373.214	43.69
373.424	21.16
373.635	10.92
373.846	47.79
374.056	19.11
374.267	60.07
374.477	58.03
374.688	60.07
374.898	94.89
375.109	-1.37
375.319	31.4
375.53	-21.84
375.74	15.02
375.951	43.69
376.161	10.92
376.372	25.26
376.582	23.21
376.793	51.88
377.003	78.51
377.214	27.31
377.424	43.69
377.635	41.64
377.845	-25.94
378.055	47.79
378.266	68.27
378.476	-15.7
378.686	62.12
378.897	70.31
379.107	31.4
379.317	45.74
379.528	-5.46
379.738	23.21
379.948	12.97
380.158	-1.37
380.369	33.45
380.579	37.55
380.789	-15.7
380.999	62.12
381.21	27.31
381.42	35.5
381.63	74.41
381.84	10.92
382.05	49.83
382.261	10.92
382.471	47.79
382.681	64.17
382.891	68.27
383.101	31.4
383.311	-5.46
383.521	29.35
383.731	35.5
383.941	45.74
384.151	72.36
384.361	12.97
384.571	6.83
384.781	33.45
384.991	31.4
385.201	43.69
385.411	33.45
385.621	31.4
385.831	15.02
386.041	4.78
386.251	53.93
386.461	117.42
386.671	41.64
386.881	19.11
387.091	15.02
387.301	35.5
387.511	-11.61
387.72	-9.56
387.93	47.79
388.14	51.88
388.35	70.31
388.56	41.64
388.769	62.12
388.979	41.64
389.189	64.17
389.399	76.46
389.609	37.55
389.818	23.21
390.028	62.12
390.238	58.03
390.447	4.78
390.657	-3.41
390.867	21.16
391.076	60.07
391.286	-30.04
391.496	-23.89
391.705	41.64
391.915	92.84
392.125	43.69
392.334	84.65
392.544	90.79
392.753	70.31
392.963	62.12
393.172	0.68
393.382	19.11
393.591	119.46
393.801	33.45
394.01	92.84
394.22	107.18
394.429	47.79
394.639	86.7
394.848	4.78
395.058	141.99
395.267	72.36
395.477	72.36
395.686	-19.8
395.895	84.65
396.105	51.88
396.314	60.07
396.524	2.73
396.733	31.4
396.942	23.21
397.152	39.59
397.361	43.69
397.57	47.79
397.78	74.41
397.989	64.17
398.198	96.94
398.407	47.79
398.617	103.08
398.826	51.88
399.035	-13.65
399.244	72.36
399.453	68.27
399.663	60.07
399.872	62.12
400.081	47.79
400.29	111.27
400.499	-30.04
400.708	35.5
400.917	115.37
401.127	103.08
401.336	60.07
401.545	117.42
401.754	82.6
401.963	82.6
402.172	39.59
402.381	47.79
402.59	43.69
402.799	60.07
403.008	72.36
403.217	94.89
403.426	96.94
403.635	90.79
403.844	111.27
404.053	107.18
404.262	131.75
404.471	103.08
404.68	131.75
404.888	62.12
405.097	199.34
405.306	107.18
405.515	27.31
405.724	94.89
405.933	55.98
406.142	98.99
406.35	119.46
406.559	78.51
406.768	141.99
406.977	103.08
407.185	123.56
407.394	88.75
407.603	148.14
407.812	236.2
408.02	133.8
408.229	168.62
408.438	182.95
408.646	152.23
408.855	123.56
409.064	191.14
409.272	189.1
409.481	201.38
409.69	201.38
409.898	232.1
410.107	225.96
410.315	268.97
410.524	189.1
410.733	297.64
410.941	185
411.15	262.82
411.358	207.53
411.567	254.63
411.775	248.49
411.984	219.82
412.192	217.77
412.401	234.15
412.609	307.88
412.818	289.45
413.026	275.11
413.234	242.34
413.443	357.03
413.651	348.84
413.86	381.6
414.068	352.93
414.276	371.37
414.485	338.6
414.693	393.89
414.901	365.22
415.11	420.52
415.318	490.15
415.526	471.72
415.734	471.72
415.943	479.91
416.151	539.3
416.359	537.25
416.567	639.65
416.776	578.21
416.984	590.5
417.192	637.6
417.4	610.98
417.608	592.55
417.817	613.03
418.025	715.42
418.233	664.22
418.441	680.61
418.649	772.77
418.857	838.3
419.065	813.73
419.273	813.73
419.481	840.35
419.689	916.12
419.897	942.75
420.105	942.75
420.313	1026.72
420.521	1127.07
420.729	1004.19
420.937	985.76
421.145	1116.83
421.353	1143.45
421.561	1200.79
421.769	1272.47
421.977	1274.52
422.185	1297.05
422.393	1346.2
422.601	1514.13
422.809	1542.8
423.017	1411.73
423.224	1622.67
423.432	1589.91
423.64	1634.96
423.848	1796.75
424.056	1628.82
424.263	1763.98
424.471	1761.94
424.679	1823.37
424.887	1835.66
425.094	2093.71
425.302	1921.68
425.51	2189.96
425.718	2073.23
425.925	2267.78
426.133	2296.46
426.341	2419.33
426.548	2529.92
426.756	2488.96
426.964	2525.83
427.171	2738.82
427.379	2689.67
427.586	2708.1
427.794	2716.29
428.001	2919.04
428.209	3107.45
428.417	2960
428.624	3230.33
428.832	3299.96
429.039	3222.14
429.247	3205.75
429.454	3467.89
429.662	3703.41
429.869	3598.96
430.076	3768.95
430.284	3803.76
430.491	3748.47
430.699	4026.99
430.906	3836.53
431.114	4162.16
431.321	4131.44
431.528	4328.04
431.736	4690.53
431.943	4704.87
432.15	4655.72
432.358	4606.56
432.565	5077.6
432.772	5024.35
432.979	5161.56
433.187	5360.22
433.394	5378.65
433.601	5614.16
433.808	5753.43
434.016	5585.49
434.223	5941.84
434.43	6197.84
434.637	6126.16
434.844	6533.7
435.052	6521.42
435.259	6699.59
435.466	6670.92
435.673	6580.81
435.88	6914.63
436.087	7373.37
436.294	7252.54
436.501	7242.3
436.708	7279.16
436.915	7670.33
437.122	8008.24
437.329	8002.1
437.537	8241.71
437.743	8272.43
437.95	8239.66
438.157	8559.14
438.364	8888.87
438.571	8970.79
438.778	9007.65
438.985	9736.73
439.192	9390.62
439.399	9511.45
439.606	9566.74
439.813	10123.79
440.02	10689.03
440.227	10357.26
440.433	10220.05
440.64	10701.32
440.847	10361.36
441.054	10938.88
441.261	11500.03
441.467	11436.54
441.674	11575.8
441.881	11971.06
442.088	12083.7
442.294	12104.18
442.501	12237.3
442.708	12450.28
442.914	13060.58
443.121	13449.69
443.328	13154.79
443.534	14258.64
443.741	13736.41
443.948	13478.36
444.154	14445.01
444.361	14404.05
444.568	14641.61
444.774	14541.26
444.981	14768.59
445.187	15153.6
445.394	15712.7
445.6	15499.71
445.807	17365.41
446.013	16140.72
446.22	16550.32
446.426	17125.8
446.633	17385.89
446.839	17820.06
447.046	17086.89
447.252	18131.35
447.459	18209.17
447.665	18184.6
447.871	18891.15
448.078	19638.65
448.284	18768.27
448.491	19517.82
448.697	19698.05
448.903	20324.72
449.11	20289.91
449.316	20291.96
449.522	20615.54
449.728	20642.16
449.935	21123.43
450.141	21061.99
450.347	21459.3
450.553	20867.44
450.76	21309.8
450.966	21913.95
451.172	21598.56
451.378	22286.68
451.584	21598.56
451.791	22114.65
451.997	22296.92
452.203	22575.44
452.409	22692.18
452.615	22505.81
452.821	21641.57
453.027	21438.82
453.233	22481.24
453.44	21864.8
453.646	22085.98
453.852	21942.62
454.058	22327.64
454.264	21674.34
454.47	22387.03
454.676	21631.33
454.882	22079.83
455.088	20240.76
455.294	20691.31
455.5	20853.1
455.705	21436.77
455.911	20056.44
456.117	19995
456.323	19597.7
456.529	18436.5
456.735	19370.37
456.941	18878.86
457.147	18522.51
457.352	18190.74
457.558	17873.31
457.764	18143.64
457.97	17586.59
458.176	17275.3
458.381	17551.77
458.587	16286.13
458.793	16388.53
458.999	15468.99
459.204	16468.4
459.41	16124.34
459.616	14989.77
459.821	15190.47
460.027	15262.15
460.233	14809.54
460.438	14051.8
460.644	14092.76
460.85	13511.13
461.055	13382.11
461.261	13363.68
461.466	12442.09
461.672	11839.99
461.878	12810.73
462.083	12052.98
462.289	11815.41
462.494	11766.26
462.7	11258.37
462.905	10877.44
463.111	11198.98
463.316	11330.05
463.522	10963.46
463.727	11207.17
463.932	11119.1
464.138	10826.25
464.343	10899.97
464.549	10627.59
464.754	10985.99
464.959	10818.05
465.165	10865.16
465.37	10215.95
465.575	10062.35
465.781	10414.6
465.986	10656.26
466.191	10242.57
466.397	10043.92
466.602	9556.5
466.807	9978.39
467.012	9890.32
467.218	9658.9
467.423	9693.72
467.628	9624.09
467.833	10295.82
468.038	9871.89
468.244	9570.84
468.449	9757.21
