Data from USB4F104151__164__13-58-47-232.txt Node

Date: Thu Mar 13 13:58:47 EDT 2025
User: louis
Spectrometer: USB4F10415
Trigger mode: 4
Integration Time (sec): 1.000000E-2
Scans to average: 1
Electric dark correction enabled: true
Nonlinearity correction enabled: false
Boxcar width: 0
XAxis mode: Wavelengths
Number of Pixels in Spectrum: 3648
>>>>>Begin Spectral Data<<<<<
178.204	-53.08
178.424	-53.08
178.644	-53.08
178.864	-57.17
179.084	-57.17
179.304	16.55
179.524	18.6
179.744	18.6
179.964	20.65
180.184	-65.36
180.404	-36.69
180.624	18.6
180.844	16.55
181.064	4.27
181.283	-16.21
181.503	30.89
181.723	-26.45
181.943	-73.56
182.163	-20.31
182.383	39.08
182.602	20.65
182.822	55.47
183.042	-48.98
183.262	45.23
183.482	39.08
183.701	14.51
183.921	-12.12
184.141	-26.45
184.361	32.94
184.58	16.55
184.8	4.27
185.02	2.22
185.239	-5.97
185.459	2.22
185.679	10.41
185.898	-24.4
186.118	37.03
186.338	-102.23
186.557	61.61
186.777	10.41
186.997	-5.97
187.216	-36.69
187.436	43.18
187.655	6.31
187.875	69.8
188.095	-30.55
188.314	0.17
188.534	65.71
188.753	-53.08
188.973	-57.17
189.192	53.42
189.412	-67.41
189.631	-34.64
189.851	-102.23
190.07	65.71
190.29	14.51
190.509	69.8
190.729	77.99
190.948	53.42
191.168	47.27
191.387	8.36
191.607	28.84
191.826	18.6
192.045	-94.04
192.265	22.7
192.484	20.65
192.704	96.43
192.923	20.65
193.142	88.23
193.362	47.27
193.581	2.22
193.8	-12.12
194.02	69.8
194.239	41.13
194.458	37.03
194.678	12.46
194.897	16.55
195.116	28.84
195.335	30.89
195.555	0.17
195.774	4.27
195.993	-3.93
196.212	-28.5
196.432	-24.4
196.651	-36.69
196.87	4.27
197.089	26.79
197.308	-12.12
197.528	88.23
197.747	45.23
197.966	-46.93
198.185	24.75
198.404	49.32
198.623	16.55
198.842	-16.21
199.062	-48.98
199.281	67.75
199.5	0.17
199.719	-1.88
199.938	47.27
200.157	67.75
200.376	45.23
200.595	61.61
200.814	47.27
201.033	-18.26
201.252	-44.88
201.471	24.75
201.69	14.51
201.909	41.13
202.128	30.89
202.347	-3.93
202.566	-8.02
202.785	-53.08
203.004	22.7
203.223	63.66
203.442	-38.74
203.661	24.75
203.879	22.7
204.098	45.23
204.317	-10.07
204.536	65.71
204.755	8.36
204.974	39.08
205.193	32.94
205.411	14.51
205.63	49.32
205.849	-28.5
206.068	-38.74
206.287	-10.07
206.505	28.84
206.724	53.42
206.943	51.37
207.162	-20.31
207.381	-22.36
207.599	69.8
207.818	2.22
208.037	-36.69
208.255	59.56
208.474	12.46
208.693	37.03
208.911	32.94
209.13	24.75
209.349	24.75
209.567	61.61
209.786	4.27
210.005	57.51
210.223	0.17
210.442	43.18
210.661	16.55
210.879	-40.79
211.098	-20.31
211.316	61.61
211.535	4.27
211.753	39.08
211.972	24.75
212.191	-8.02
212.409	4.27
212.628	6.31
212.846	51.37
213.065	-16.21
213.283	-22.36
213.502	-3.93
213.72	-16.21
213.938	6.31
214.157	61.61
214.375	32.94
214.594	-67.41
214.812	16.55
215.031	16.55
215.249	2.22
215.467	53.42
215.686	-38.74
215.904	32.94
216.122	14.51
216.341	28.84
216.559	69.8
216.778	0.17
216.996	4.27
217.214	22.7
217.432	75.95
217.651	-44.88
217.869	47.27
218.087	-26.45
218.306	22.7
218.524	51.37
218.742	-5.97
218.96	59.56
219.179	53.42
219.397	65.71
219.615	-12.12
219.833	57.51
220.051	-14.17
220.27	43.18
220.488	6.31
220.706	71.85
220.924	123.05
221.142	-61.27
221.36	47.27
221.578	37.03
221.796	-26.45
222.015	10.41
222.233	22.7
222.451	10.41
222.669	63.66
222.887	-3.93
223.105	32.94
223.323	22.7
223.541	-3.93
223.759	16.55
223.977	16.55
224.195	0.17
224.413	12.46
224.631	18.6
224.849	20.65
225.067	28.84
225.285	-22.36
225.503	61.61
225.721	-8.02
225.939	16.55
226.157	-18.26
226.375	55.47
226.592	-22.36
226.81	69.8
227.028	4.27
227.246	90.28
227.464	28.84
227.682	4.27
227.9	55.47
228.117	-36.69
228.335	45.23
228.553	43.18
228.771	10.41
228.989	55.47
229.206	-16.21
229.424	121
229.642	37.03
229.86	12.46
230.077	28.84
230.295	4.27
230.513	0.17
230.731	37.03
230.948	53.42
231.166	61.61
231.384	39.08
231.601	-18.26
231.819	90.28
232.037	22.7
232.254	71.85
232.472	63.66
232.689	4.27
232.907	20.65
233.125	53.42
233.342	18.6
233.56	-79.7
233.777	-38.74
233.995	39.08
234.213	65.71
234.43	24.75
234.648	-44.88
234.865	4.27
235.083	65.71
235.3	61.61
235.518	86.19
235.735	51.37
235.953	71.85
236.17	53.42
236.388	-18.26
236.605	47.27
236.822	6.31
237.04	32.94
237.257	37.03
237.475	2.22
237.692	-20.31
237.909	-10.07
238.127	22.7
238.344	12.46
238.562	69.8
238.779	-59.22
238.996	28.84
239.214	-14.17
239.431	20.65
239.648	-40.79
239.865	-3.93
240.083	20.65
240.3	28.84
240.517	-42.84
240.735	18.6
240.952	12.46
241.169	-40.79
241.386	43.18
241.603	-1.88
241.821	-32.6
242.038	-32.6
242.255	-12.12
242.472	55.47
242.689	24.75
242.907	37.03
243.124	-28.5
243.341	-5.97
243.558	2.22
243.775	8.36
243.992	32.94
244.209	39.08
244.426	104.62
244.643	30.89
244.86	-10.07
245.078	45.23
245.295	16.55
245.512	20.65
245.729	65.71
245.946	-63.32
246.163	10.41
246.38	-36.69
246.597	30.89
246.814	12.46
247.031	20.65
247.248	-10.07
247.464	20.65
247.681	12.46
247.898	-1.88
248.115	39.08
248.332	63.66
248.549	0.17
248.766	0.17
248.983	43.18
249.2	8.36
249.417	16.55
249.633	2.22
249.85	69.8
250.067	-28.5
250.284	26.79
250.501	-16.21
250.717	4.27
250.934	-16.21
251.151	28.84
251.368	-8.02
251.585	34.99
251.801	10.41
252.018	-48.98
252.235	61.61
252.451	28.84
252.668	-36.69
252.885	-30.55
253.102	43.18
253.318	28.84
253.535	18.6
253.752	22.7
253.968	0.17
254.185	55.47
254.401	20.65
254.618	106.67
254.835	34.99
255.051	37.03
255.268	18.6
255.484	-28.5
255.701	69.8
255.917	47.27
256.134	-44.88
256.351	4.27
256.567	-16.21
256.784	39.08
257	-55.12
257.217	86.19
257.433	45.23
257.65	-26.45
257.866	51.37
258.082	20.65
258.299	12.46
258.515	4.27
258.732	-63.32
258.948	90.28
259.165	-20.31
259.381	-26.45
259.597	-5.97
259.814	12.46
260.03	-5.97
260.246	86.19
260.463	90.28
260.679	26.79
260.895	-34.64
261.112	45.23
261.328	14.51
261.544	-16.21
261.761	61.61
261.977	55.47
262.193	63.66
262.409	-1.88
262.626	55.47
262.842	22.7
263.058	75.95
263.274	73.9
263.49	-53.08
263.707	106.67
263.923	22.7
264.139	37.03
264.355	20.65
264.571	26.79
264.787	-1.88
265.004	30.89
265.22	-79.7
265.436	-14.17
265.652	4.27
265.868	135.34
266.084	-87.89
266.3	65.71
266.516	61.61
266.732	-59.22
266.948	-1.88
267.164	12.46
267.38	63.66
267.596	49.32
267.812	18.6
268.028	47.27
268.244	-65.36
268.46	110.76
268.676	4.27
268.892	80.04
269.108	-75.6
269.324	80.04
269.54	30.89
269.756	45.23
269.972	-3.93
270.188	30.89
270.403	-53.08
270.619	57.51
270.835	18.6
271.051	-18.26
271.267	55.47
271.483	-36.69
271.698	8.36
271.914	41.13
272.13	45.23
272.346	8.36
272.562	-8.02
272.777	2.22
272.993	45.23
273.209	12.46
273.425	-36.69
273.64	30.89
273.856	61.61
274.072	-24.4
274.287	8.36
274.503	26.79
274.719	49.32
274.934	26.79
275.15	32.94
275.366	45.23
275.581	-65.36
275.797	-3.93
276.012	100.52
276.228	32.94
276.444	37.03
276.659	92.33
276.875	14.51
277.09	41.13
277.306	14.51
277.521	82.09
277.737	-36.69
277.952	96.43
278.168	22.7
278.383	18.6
278.599	-20.31
278.814	41.13
279.03	-34.64
279.245	12.46
279.461	6.31
279.676	41.13
279.892	16.55
280.107	14.51
280.322	67.75
280.538	-32.6
280.753	-12.12
280.969	94.38
281.184	-65.36
281.399	20.65
281.615	-8.02
281.83	-38.74
282.045	75.95
282.26	32.94
282.476	37.03
282.691	39.08
282.906	0.17
283.122	4.27
283.337	49.32
283.552	51.37
283.767	39.08
283.983	12.46
284.198	0.17
284.413	-81.75
284.628	45.23
284.843	-10.07
285.058	80.04
285.274	-34.64
285.489	-22.36
285.704	0.17
285.919	-5.97
286.134	-8.02
286.349	14.51
286.564	-28.5
286.779	0.17
286.995	2.22
287.21	63.66
287.425	14.51
287.64	67.75
287.855	-42.84
288.07	16.55
288.285	77.99
288.5	49.32
288.715	6.31
288.93	63.66
289.145	18.6
289.36	102.57
289.575	28.84
289.79	49.32
290.004	28.84
290.219	28.84
290.434	20.65
290.649	-30.55
290.864	-1.88
291.079	53.42
291.294	-20.31
291.509	53.42
291.724	67.75
291.938	0.17
292.153	53.42
292.368	-12.12
292.583	22.7
292.798	14.51
293.012	69.8
293.227	69.8
293.442	-8.02
293.657	-1.88
293.871	32.94
294.086	4.27
294.301	-40.79
294.516	110.76
294.73	67.75
294.945	30.89
295.16	32.94
295.374	2.22
295.589	49.32
295.804	26.79
296.018	63.66
296.233	53.42
296.447	82.09
296.662	-42.84
296.877	67.75
297.091	-14.17
297.306	-28.5
297.52	-42.84
297.735	-1.88
297.949	39.08
298.164	45.23
298.378	34.99
298.593	30.89
298.807	6.31
299.022	6.31
299.236	47.27
299.451	94.38
299.665	90.28
299.88	30.89
300.094	45.23
300.309	34.99
300.523	-53.08
300.737	14.51
300.952	0.17
301.166	98.47
301.381	18.6
301.595	55.47
301.809	53.42
302.024	100.52
302.238	14.51
302.452	4.27
302.667	-46.93
302.881	-40.79
303.095	4.27
303.309	-12.12
303.524	67.75
303.738	34.99
303.952	-34.64
304.166	45.23
304.381	-26.45
304.595	53.42
304.809	-44.88
305.023	6.31
305.237	32.94
305.452	41.13
305.666	28.84
305.88	34.99
306.094	114.86
306.308	-20.31
306.522	-12.12
306.736	45.23
306.95	-42.84
307.164	0.17
307.379	34.99
307.593	88.23
307.807	34.99
308.021	-26.45
308.235	-81.75
308.449	-16.21
308.663	57.51
308.877	96.43
309.091	4.27
309.305	20.65
309.519	-24.4
309.733	65.71
309.947	-22.36
310.161	57.51
310.374	37.03
310.588	-12.12
310.802	28.84
311.016	63.66
311.23	98.47
311.444	37.03
311.658	-32.6
311.872	96.43
312.085	-18.26
312.299	12.46
312.513	16.55
312.727	16.55
312.941	32.94
313.154	34.99
313.368	-8.02
313.582	-20.31
313.796	12.46
314.009	47.27
314.223	-44.88
314.437	12.46
314.651	102.57
314.864	75.95
315.078	12.46
315.292	-14.17
315.505	65.71
315.719	28.84
315.933	16.55
316.146	16.55
316.36	96.43
316.573	28.84
316.787	49.32
317.001	4.27
317.214	28.84
317.428	-16.21
317.641	34.99
317.855	20.65
318.068	-28.5
318.282	28.84
318.495	88.23
318.709	-18.26
318.922	-87.89
319.136	86.19
319.349	8.36
319.563	102.57
319.776	20.65
319.99	-26.45
320.203	10.41
320.417	-8.02
320.63	28.84
320.843	28.84
321.057	32.94
321.27	32.94
321.483	-3.93
321.697	0.17
321.91	0.17
322.124	4.27
322.337	-36.69
322.55	75.95
322.763	-12.12
322.977	18.6
323.19	20.65
323.403	-1.88
323.617	32.94
323.83	16.55
324.043	26.79
324.256	32.94
324.469	55.47
324.683	59.56
324.896	12.46
325.109	121
325.322	-14.17
325.535	53.42
325.748	37.03
325.962	112.81
326.175	22.7
326.388	94.38
326.601	51.37
326.814	-14.17
327.027	57.51
327.24	4.27
327.453	-28.5
327.666	65.71
327.879	102.57
328.092	-1.88
328.305	-12.12
328.518	55.47
328.731	28.84
328.944	84.14
329.157	16.55
329.37	18.6
329.583	69.8
329.796	28.84
330.009	-3.93
330.222	57.51
330.435	43.18
330.648	49.32
330.861	-5.97
331.073	16.55
331.286	-26.45
331.499	28.84
331.712	43.18
331.925	-14.17
332.138	-22.36
332.35	-28.5
332.563	-26.45
332.776	16.55
332.989	-1.88
333.202	-8.02
333.414	-3.93
333.627	-5.97
333.84	53.42
334.053	34.99
334.265	-18.26
334.478	14.51
334.691	-18.26
334.903	30.89
335.116	2.22
335.329	14.51
335.541	16.55
335.754	-36.69
335.966	-18.26
336.179	26.79
336.392	-10.07
336.604	55.47
336.817	28.84
337.029	-22.36
337.242	-5.97
337.454	16.55
337.667	-10.07
337.88	22.7
338.092	86.19
338.305	39.08
338.517	8.36
338.729	30.89
338.942	-26.45
339.154	63.66
339.367	12.46
339.579	28.84
339.792	-16.21
340.004	6.31
340.217	49.32
340.429	86.19
340.641	47.27
340.854	61.61
341.066	-3.93
341.278	-3.93
341.491	12.46
341.703	39.08
341.915	-10.07
342.128	-10.07
342.34	6.31
342.552	47.27
342.764	-10.07
342.977	24.75
343.189	2.22
343.401	6.31
343.613	-69.46
343.826	10.41
344.038	-24.4
344.25	-32.6
344.462	51.37
344.674	34.99
344.886	32.94
345.099	26.79
345.311	-12.12
345.523	10.41
345.735	26.79
345.947	41.13
346.159	14.51
346.371	4.27
346.583	28.84
346.795	6.31
347.007	2.22
347.219	8.36
347.431	-26.45
347.643	77.99
347.855	2.22
348.067	59.56
348.279	-46.93
348.491	-36.69
348.703	53.42
348.915	71.85
349.127	18.6
349.339	121
349.551	-8.02
349.763	69.8
349.975	24.75
350.187	88.23
350.399	-3.93
350.61	106.67
350.822	-48.98
351.034	-14.17
351.246	-12.12
351.458	77.99
351.669	-1.88
351.881	-42.84
352.093	20.65
352.305	45.23
352.517	14.51
352.728	41.13
352.94	61.61
353.152	51.37
353.363	0.17
353.575	-8.02
353.787	-22.36
353.999	51.37
354.21	59.56
354.422	47.27
354.633	51.37
354.845	41.13
355.057	16.55
355.268	-28.5
355.48	-53.08
355.692	73.9
355.903	73.9
356.115	32.94
356.326	39.08
356.538	32.94
356.749	6.31
356.961	20.65
357.172	65.71
357.384	18.6
357.595	16.55
357.807	47.27
358.018	28.84
358.23	-36.69
358.441	47.27
358.653	61.61
358.864	45.23
359.075	28.84
359.287	61.61
359.498	6.31
359.709	-42.84
359.921	-1.88
360.132	37.03
360.344	-38.74
360.555	-10.07
360.766	-30.55
360.977	53.42
361.189	55.47
361.4	6.31
361.611	63.66
361.823	12.46
362.034	10.41
362.245	39.08
362.456	-30.55
362.667	28.84
362.879	86.19
363.09	43.18
363.301	-1.88
363.512	61.61
363.723	37.03
363.935	32.94
364.146	90.28
364.357	-18.26
364.568	106.67
364.779	55.47
364.99	73.9
365.201	6.31
365.412	-16.21
365.623	-40.79
365.834	16.55
366.045	32.94
366.256	-36.69
366.467	-40.79
366.678	43.18
366.889	37.03
367.1	57.51
367.311	-3.93
367.522	-32.6
367.733	55.47
367.944	75.95
368.155	12.46
368.366	2.22
368.577	37.03
368.788	118.95
368.999	34.99
369.209	61.61
369.42	30.89
369.631	59.56
369.842	65.71
370.053	-28.5
370.264	47.27
370.474	-20.31
370.685	14.51
370.896	53.42
371.107	6.31
371.317	16.55
371.528	24.75
371.739	57.51
371.95	10.41
372.16	-53.08
372.371	37.03
372.582	32.94
372.792	28.84
373.003	28.84
373.214	24.75
373.424	75.95
373.635	24.75
373.846	37.03
374.056	6.31
374.267	-18.26
374.477	-10.07
374.688	41.13
374.898	34.99
375.109	20.65
375.319	59.56
375.53	22.7
375.74	73.9
375.951	69.8
376.161	43.18
376.372	-51.03
376.582	10.41
376.793	4.27
377.003	43.18
377.214	53.42
377.424	45.23
377.635	8.36
377.845	26.79
378.055	18.6
378.266	-12.12
378.476	24.75
378.686	14.51
378.897	55.47
379.107	26.79
379.317	-1.88
379.528	-14.17
379.738	57.51
379.948	32.94
380.158	34.99
380.369	-30.55
380.579	8.36
380.789	-61.27
380.999	61.61
381.21	12.46
381.42	73.9
381.63	-3.93
381.84	-20.31
382.05	-3.93
382.261	32.94
382.471	-24.4
382.681	18.6
382.891	45.23
383.101	32.94
383.311	41.13
383.521	55.47
383.731	6.31
383.941	123.05
384.151	-98.13
384.361	-18.26
384.571	22.7
384.781	-8.02
384.991	77.99
385.201	-34.64
385.411	-42.84
385.621	-1.88
385.831	53.42
386.041	80.04
386.251	-5.97
386.461	26.79
386.671	-30.55
386.881	24.75
387.091	26.79
387.301	39.08
387.511	-3.93
387.72	47.27
387.93	63.66
388.14	-10.07
388.35	-5.97
388.56	86.19
388.769	45.23
388.979	39.08
389.189	-26.45
389.399	51.37
389.609	-8.02
389.818	45.23
390.028	-3.93
390.238	69.8
390.447	69.8
390.657	20.65
390.867	53.42
391.076	63.66
391.286	20.65
391.496	80.04
391.705	77.99
391.915	2.22
392.125	-5.97
392.334	-26.45
392.544	61.61
392.753	6.31
392.963	6.31
393.172	18.6
393.382	8.36
393.591	39.08
393.801	77.99
394.01	-22.36
394.22	12.46
394.429	53.42
394.639	-14.17
394.848	114.86
395.058	24.75
395.267	-16.21
395.477	30.89
395.686	102.57
395.895	6.31
396.105	110.76
396.314	-28.5
396.524	37.03
396.733	51.37
396.942	73.9
397.152	-8.02
397.361	4.27
397.57	102.57
397.78	-8.02
397.989	88.23
398.198	37.03
398.407	94.38
398.617	24.75
398.826	47.27
399.035	80.04
399.244	104.62
399.453	43.18
399.663	71.85
399.872	4.27
400.081	80.04
400.29	28.84
400.499	41.13
400.708	-16.21
400.917	20.65
401.127	80.04
401.336	67.75
401.545	114.86
401.754	-3.93
401.963	53.42
402.172	84.14
402.381	2.22
402.59	12.46
402.799	20.65
403.008	39.08
403.217	84.14
403.426	28.84
403.635	0.17
403.844	65.71
404.053	37.03
404.262	77.99
404.471	45.23
404.68	129.19
404.888	41.13
405.097	55.47
405.306	86.19
405.515	73.9
405.724	88.23
405.933	82.09
406.142	-12.12
406.35	82.09
406.559	26.79
406.768	39.08
406.977	67.75
407.185	75.95
407.394	88.23
407.603	37.03
407.812	106.67
408.02	53.42
408.229	106.67
408.438	71.85
408.646	77.99
408.855	104.62
409.064	75.95
409.272	65.71
409.481	47.27
409.69	149.67
409.898	184.49
410.107	59.56
410.315	129.19
410.524	73.9
410.733	247.97
410.941	157.86
411.15	135.34
411.358	127.14
411.567	135.34
411.775	84.14
411.984	116.9
412.192	200.87
412.401	178.34
412.609	196.78
412.818	137.38
413.026	180.39
413.234	127.14
413.443	186.54
413.651	133.29
413.86	211.11
414.068	186.54
414.276	176.3
414.485	166.06
414.693	190.63
414.901	213.16
415.11	239.78
415.318	286.89
415.526	172.2
415.734	227.5
415.943	284.84
416.151	252.07
416.359	215.21
416.567	307.37
416.776	284.84
416.984	264.36
417.192	319.65
417.4	272.55
417.608	325.8
417.817	317.61
418.025	358.57
418.233	333.99
418.441	338.09
418.649	401.57
418.857	362.66
419.065	417.96
419.273	370.85
419.481	405.67
419.689	512.16
419.897	503.97
420.105	475.3
420.313	444.58
420.521	487.59
420.729	495.78
420.937	446.63
421.145	485.54
421.353	616.61
421.561	563.36
421.769	614.56
421.977	671.9
422.185	506.02
422.393	667.81
422.601	647.33
422.809	702.62
423.017	729.25
423.224	704.67
423.432	749.73
423.64	764.06
423.848	753.82
424.056	800.93
424.263	882.85
424.471	852.13
424.679	884.89
424.887	942.24
425.094	927.9
425.302	891.04
425.51	1083.55
425.718	1075.35
425.925	987.29
426.133	1061.02
426.341	1155.23
426.548	1220.76
426.756	1247.38
426.964	1192.09
427.171	1218.71
427.379	1282.2
427.586	1249.43
427.794	1351.83
428.001	1362.07
428.209	1501.33
428.417	1439.89
428.624	1634.45
428.832	1530
429.039	1511.57
429.247	1599.63
429.454	1650.83
429.662	1720.46
429.869	1573.01
430.076	1831.05
430.284	1773.71
430.491	1767.57
430.699	1994.89
430.906	1757.33
431.114	1902.73
431.321	2050.19
431.528	2048.14
431.736	2234.5
431.943	2285.7
432.15	2103.43
432.358	2207.88
432.565	2310.28
432.772	2322.57
432.979	2494.6
433.187	2642.05
433.394	2543.75
433.601	2691.2
433.808	2656.39
434.016	2715.78
434.223	2834.56
434.43	2889.85
434.637	2844.8
434.844	3004.54
435.052	3123.32
435.259	3176.57
435.466	3156.09
435.673	3094.65
435.88	3276.92
436.087	3453.05
436.294	3651.7
436.501	3334.26
436.708	3514.49
436.915	3522.68
437.122	3674.23
437.329	3846.26
437.537	3915.89
437.743	3821.68
437.95	3807.34
438.157	4118.64
438.364	4227.18
438.571	4169.84
438.778	4276.33
438.985	4702.31
439.192	4558.95
439.399	4649.06
439.606	4517.99
439.813	4853.86
440.02	5091.42
440.227	4827.23
440.433	4968.54
440.64	5077.09
440.847	5005.41
441.054	5140.57
441.261	5505.11
441.467	5451.86
441.674	5584.98
441.881	5771.35
442.088	5855.31
442.294	5664.85
442.501	5718.1
442.708	5877.84
442.914	6156.36
443.121	6334.54
443.328	6402.12
443.534	6744.13
443.741	6621.25
443.948	6473.8
444.154	6789.19
444.361	6758.47
444.568	6713.41
444.774	6807.62
444.981	6867.01
445.187	7192.64
445.394	7385.15
445.6	7260.22
445.807	7888.95
446.013	7671.86
446.22	7989.3
446.426	8149.04
446.633	8259.63
446.839	8622.12
447.046	8351.79
447.252	8618.02
447.459	8673.32
447.665	8693.8
447.871	8962.08
448.078	9420.83
448.284	9132.06
448.491	9469.98
448.697	9668.63
448.903	9791.51
449.11	9715.73
449.316	9564.18
449.522	9828.37
449.728	10049.55
449.935	10176.53
450.141	10272.78
450.347	10612.74
450.553	10311.69
450.76	10231.82
450.966	10768.39
451.172	10684.42
451.378	10545.16
451.584	10715.14
451.791	10786.82
451.997	10756.1
452.203	11038.72
452.409	10975.24
452.615	11055.11
452.821	10543.11
453.027	10541.07
453.233	11030.53
453.44	10674.18
453.646	10700.81
453.852	10924.04
454.058	10940.42
454.264	10721.29
454.47	10932.23
454.676	10524.68
454.882	11141.12
455.088	10125.33
455.294	10141.71
455.5	10256.4
455.705	10340.36
455.911	10194.96
456.117	10108.94
456.323	9553.94
456.529	9177.12
456.735	9541.66
456.941	9457.69
457.147	9375.77
457.352	8869.92
457.558	8898.59
457.764	8929.31
457.97	8800.29
458.176	8706.09
458.381	8589.35
458.587	8157.23
458.793	8226.86
458.999	7847.99
459.204	8382.51
459.41	8079.41
459.616	7465.02
459.821	7565.37
460.027	7495.74
460.233	7295.04
460.438	7024.7
460.644	7172.16
460.85	6834.24
461.055	6737.99
461.261	6541.38
461.466	6185.04
461.672	6107.21
461.878	6451.27
462.083	6109.26
462.289	5912.66
462.494	5894.22
462.7	5746.77
462.905	5369.94
463.111	5587.03
463.316	5589.08
463.522	5517.4
463.727	5496.92
463.932	5318.75
464.138	5333.08
464.343	5371.99
464.549	5298.27
464.754	5486.68
464.959	5486.68
465.165	5380.18
465.37	5271.64
465.575	5015.65
465.781	5216.35
465.986	5267.55
466.191	5015.65
466.397	4989.02
466.602	4812.9
466.807	4915.3
467.012	4868.19
467.218	5050.46
467.423	4784.23
467.628	4649.06
467.833	5068.89
468.038	4862.05
468.244	4700.26
468.449	4860
468.654	4921.44
468.859	4642.92
469.064	4685.92
469.269	4544.61
469.474	4632.68
469.679	4608.1
469.885	4540.52
470.09	4573.28
