Data from USB4F104151__91__13-54-31-590.txt Node

Date: Thu Mar 13 13:54:31 EDT 2025
User: louis
Spectrometer: USB4F10415
Trigger mode: 4
Integration Time (sec): 1.000000E-2
Scans to average: 1
Electric dark correction enabled: true
Nonlinearity correction enabled: false
Boxcar width: 0
XAxis mode: Wavelengths
Number of Pixels in Spectrum: 3648
>>>>>Begin Spectral Data<<<<<
178.204	-2.9
178.424	-2.9
178.644	-2.9
178.864	-39.76
179.084	-43.86
179.304	7.34
179.524	19.63
179.744	25.77
179.964	46.25
180.184	-17.24
180.404	-60.24
180.624	15.53
180.844	-72.53
181.064	-13.14
181.283	27.82
181.503	19.63
181.723	1.19
181.943	-95.06
182.163	93.35
182.383	17.58
182.602	-41.81
182.822	5.29
183.042	119.98
183.262	23.72
183.482	7.34
183.701	27.82
183.921	46.25
184.141	42.15
184.361	136.36
184.58	46.25
184.8	42.15
185.02	15.53
185.239	19.63
185.459	58.54
185.679	44.2
185.898	17.58
186.118	31.91
186.338	91.31
186.557	52.39
186.777	-62.29
186.997	50.35
187.216	31.91
187.436	9.39
187.655	33.96
187.875	56.49
188.095	-11.09
188.314	23.72
188.534	46.25
188.753	-17.24
188.973	21.67
189.192	-21.33
189.412	-11.09
189.631	9.39
189.851	-7
190.07	-11.09
190.29	-50
190.509	81.07
190.729	-35.67
190.948	64.68
191.168	117.93
191.387	25.77
191.607	21.67
191.826	-19.29
192.045	-13.14
192.265	15.53
192.484	7.34
192.704	-70.48
192.923	54.44
193.142	-7
193.362	31.91
193.581	72.87
193.8	-13.14
194.02	15.53
194.239	74.92
194.458	33.96
194.678	-21.33
194.897	48.3
195.116	60.59
195.335	-23.38
195.555	23.72
195.774	91.31
195.993	1.19
196.212	113.83
196.432	42.15
196.651	58.54
196.87	1.19
197.089	66.73
197.308	60.59
197.528	13.48
197.747	64.68
197.966	15.53
198.185	-13.14
198.404	87.21
198.623	5.29
198.842	1.19
199.062	56.49
199.281	40.11
199.5	-17.24
199.719	23.72
199.938	72.87
200.157	23.72
200.376	-33.62
200.595	64.68
200.814	-9.05
201.033	19.63
201.252	36.01
201.471	60.59
201.69	17.58
201.909	9.39
202.128	1.19
202.347	-2.9
202.566	19.63
202.785	93.35
203.004	-47.96
203.223	89.26
203.442	50.35
203.661	68.78
203.879	46.25
204.098	64.68
204.317	54.44
204.536	64.68
204.755	-35.67
204.974	64.68
205.193	48.3
205.411	21.67
205.63	-35.67
205.849	46.25
206.068	64.68
206.287	85.16
206.505	62.63
206.724	101.55
206.943	36.01
207.162	-9.05
207.381	38.06
207.599	23.72
207.818	31.91
208.037	83.11
208.255	36.01
208.474	38.06
208.693	58.54
208.911	79.02
209.13	68.78
209.349	66.73
209.567	31.91
209.786	33.96
210.005	62.63
210.223	56.49
210.442	62.63
210.661	48.3
210.879	-33.62
211.098	33.96
211.316	126.12
211.535	21.67
211.753	5.29
211.972	13.48
212.191	9.39
212.409	58.54
212.628	62.63
212.846	25.77
213.065	38.06
213.283	76.97
213.502	-13.14
213.72	11.43
213.938	13.48
214.157	64.68
214.375	9.39
214.594	-37.72
214.812	60.59
215.031	29.87
215.249	-41.81
215.467	46.25
215.686	74.92
215.904	40.11
216.122	48.3
216.341	21.67
216.559	72.87
216.778	-4.95
216.996	76.97
217.214	44.2
217.432	21.67
217.651	17.58
217.869	13.48
218.087	60.59
218.306	42.15
218.524	36.01
218.742	44.2
218.96	113.83
219.179	58.54
219.397	56.49
219.615	48.3
219.833	72.87
220.051	56.49
220.27	19.63
220.488	27.82
220.706	-11.09
220.924	-11.09
221.142	29.87
221.36	38.06
221.578	-17.24
221.796	-11.09
222.015	-9.05
222.233	-0.85
222.451	95.4
222.669	50.35
222.887	83.11
223.105	-64.34
223.323	64.68
223.541	-4.95
223.759	54.44
223.977	21.67
224.195	54.44
224.413	31.91
224.631	58.54
224.849	21.67
225.067	38.06
225.285	23.72
225.503	81.07
225.721	52.39
225.939	25.77
226.157	42.15
226.375	50.35
226.592	38.06
226.81	13.48
227.028	68.78
227.246	9.39
227.464	25.77
227.682	46.25
227.9	60.59
228.117	54.44
228.335	-17.24
228.553	19.63
228.771	42.15
228.989	48.3
229.206	-23.38
229.424	29.87
229.642	9.39
229.86	44.2
230.077	76.97
230.295	15.53
230.513	23.72
230.731	-41.81
230.948	13.48
231.166	15.53
231.384	48.3
231.601	-37.72
231.819	42.15
232.037	29.87
232.254	66.73
232.472	13.48
232.689	48.3
232.907	23.72
233.125	-29.52
233.342	70.83
233.56	48.3
233.777	64.68
233.995	27.82
234.213	89.26
234.43	-2.9
234.648	-31.57
234.865	-41.81
235.083	101.55
235.3	11.43
235.518	95.4
235.735	15.53
235.953	72.87
236.17	-23.38
236.388	101.55
236.605	48.3
236.822	68.78
237.04	-7
237.257	31.91
237.475	1.19
237.692	5.29
237.909	21.67
238.127	58.54
238.344	48.3
238.562	-0.85
238.779	3.24
238.996	36.01
239.214	29.87
239.431	44.2
239.648	17.58
239.865	70.83
240.083	3.24
240.3	27.82
240.517	-41.81
240.735	46.25
240.952	56.49
241.169	52.39
241.386	48.3
241.603	46.25
241.821	-41.81
242.038	72.87
242.255	50.35
242.472	3.24
242.689	50.35
242.907	19.63
243.124	-11.09
243.341	56.49
243.558	50.35
243.775	-9.05
243.992	-0.85
244.209	56.49
244.426	33.96
244.643	19.63
244.86	70.83
245.078	-7
245.295	48.3
245.512	-13.14
245.729	111.78
245.946	60.59
246.163	5.29
246.38	87.21
246.597	56.49
246.814	42.15
247.031	-19.29
247.248	42.15
247.464	44.2
247.681	42.15
247.898	52.39
248.115	40.11
248.332	-15.19
248.549	-25.43
248.766	101.55
248.983	62.63
249.2	25.77
249.417	23.72
249.633	48.3
249.85	54.44
250.067	19.63
250.284	56.49
250.501	46.25
250.717	38.06
250.934	-64.34
251.151	81.07
251.368	1.19
251.585	64.68
251.801	40.11
252.018	81.07
252.235	64.68
252.451	40.11
252.668	36.01
252.885	48.3
253.102	-9.05
253.318	97.45
253.535	21.67
253.752	38.06
253.968	62.63
254.185	5.29
254.401	54.44
254.618	21.67
254.835	33.96
255.051	50.35
255.268	1.19
255.484	-15.19
255.701	-54.1
255.917	-27.48
256.134	56.49
256.351	72.87
256.567	-17.24
256.784	81.07
257	-13.14
257.217	13.48
257.433	42.15
257.65	64.68
257.866	87.21
258.082	66.73
258.299	-50
258.515	33.96
258.732	11.43
258.948	9.39
259.165	33.96
259.381	48.3
259.597	46.25
259.814	9.39
260.03	79.02
260.246	3.24
260.463	56.49
260.679	-2.9
260.895	48.3
261.112	76.97
261.328	9.39
261.544	27.82
261.761	52.39
261.977	-0.85
262.193	11.43
262.409	21.67
262.626	-72.53
262.842	54.44
263.058	5.29
263.274	40.11
263.49	93.35
263.707	74.92
263.923	-37.72
264.139	7.34
264.355	72.87
264.571	17.58
264.787	79.02
265.004	107.69
265.22	70.83
265.436	27.82
265.652	-37.72
265.868	19.63
266.084	60.59
266.3	3.24
266.516	21.67
266.732	42.15
266.948	31.91
267.164	25.77
267.38	29.87
267.596	107.69
267.812	64.68
268.028	87.21
268.244	46.25
268.46	52.39
268.676	19.63
268.892	-27.48
269.108	50.35
269.324	-58.2
269.54	-17.24
269.756	17.58
269.972	25.77
270.188	52.39
270.403	-9.05
270.619	5.29
270.835	25.77
271.051	62.63
271.267	15.53
271.483	40.11
271.698	1.19
271.914	13.48
272.13	31.91
272.346	-21.33
272.562	48.3
272.777	70.83
272.993	33.96
273.209	64.68
273.425	105.64
273.64	19.63
273.856	44.2
274.072	46.25
274.287	23.72
274.503	54.44
274.719	-31.57
274.934	52.39
275.15	38.06
275.366	46.25
275.581	11.43
275.797	76.97
276.012	-35.67
276.228	-21.33
276.444	-9.05
276.659	99.5
276.875	95.4
277.09	27.82
277.306	5.29
277.521	52.39
277.737	64.68
277.952	-0.85
278.168	19.63
278.383	66.73
278.599	19.63
278.814	-33.62
279.03	33.96
279.245	38.06
279.461	-11.09
279.676	33.96
279.892	-15.19
280.107	27.82
280.322	56.49
280.538	68.78
280.753	-45.91
280.969	40.11
281.184	72.87
281.399	48.3
281.615	38.06
281.83	21.67
282.045	68.78
282.26	85.16
282.476	25.77
282.691	99.5
282.906	15.53
283.122	25.77
283.337	17.58
283.552	42.15
283.767	9.39
283.983	50.35
284.198	107.69
284.413	-41.81
284.628	46.25
284.843	31.91
285.058	9.39
285.274	87.21
285.489	54.44
285.704	-13.14
285.919	33.96
286.134	46.25
286.349	52.39
286.564	5.29
286.779	-27.48
286.995	19.63
287.21	17.58
287.425	130.22
287.64	52.39
287.855	25.77
288.07	13.48
288.285	23.72
288.5	15.53
288.715	36.01
288.93	27.82
289.145	19.63
289.36	56.49
289.575	-4.95
289.79	105.64
290.004	33.96
290.219	-25.43
290.434	-4.95
290.649	-0.85
290.864	1.19
291.079	19.63
291.294	15.53
291.509	38.06
291.724	13.48
291.938	25.77
292.153	23.72
292.368	60.59
292.583	-9.05
292.798	-25.43
293.012	31.91
293.227	17.58
293.442	144.55
293.657	-13.14
293.871	93.35
294.086	15.53
294.301	15.53
294.516	48.3
294.73	97.45
294.945	27.82
295.16	31.91
295.374	42.15
295.589	33.96
295.804	60.59
296.018	46.25
296.233	74.92
296.447	48.3
296.662	-39.76
296.877	44.2
297.091	17.58
297.306	-23.38
297.52	62.63
297.735	25.77
297.949	87.21
298.164	-2.9
298.378	21.67
298.593	50.35
298.807	91.31
299.022	105.64
299.236	44.2
299.451	56.49
299.665	-29.52
299.88	54.44
300.094	-33.62
300.309	60.59
300.523	58.54
300.737	-7
300.952	36.01
301.166	-0.85
301.381	1.19
301.595	36.01
301.809	60.59
302.024	68.78
302.238	-15.19
302.452	60.59
302.667	46.25
302.881	122.02
303.095	52.39
303.309	-47.96
303.524	38.06
303.738	38.06
303.952	60.59
304.166	36.01
304.381	-2.9
304.595	107.69
304.809	-25.43
305.023	15.53
305.237	25.77
305.452	36.01
305.666	9.39
305.88	17.58
306.094	31.91
306.308	76.97
306.522	27.82
306.736	109.74
306.95	21.67
307.164	-9.05
307.379	60.59
307.593	-4.95
307.807	-11.09
308.021	52.39
308.235	44.2
308.449	17.58
308.663	-29.52
308.877	44.2
309.091	15.53
309.305	122.02
309.519	85.16
309.733	-0.85
309.947	33.96
310.161	76.97
310.374	31.91
310.588	21.67
310.802	9.39
311.016	91.31
311.23	158.89
311.444	3.24
311.658	13.48
311.872	33.96
312.085	40.11
312.299	74.92
312.513	119.98
312.727	23.72
312.941	54.44
313.154	13.48
313.368	13.48
313.582	13.48
313.796	48.3
314.009	54.44
314.223	64.68
314.437	81.07
314.651	5.29
314.864	-2.9
315.078	54.44
315.292	15.53
315.505	42.15
315.719	31.91
315.933	46.25
316.146	15.53
316.36	40.11
316.573	29.87
316.787	111.78
317.001	68.78
317.214	5.29
317.428	21.67
317.641	1.19
317.855	33.96
318.068	-4.95
318.282	44.2
318.495	23.72
318.709	76.97
318.922	36.01
319.136	52.39
319.349	33.96
319.563	5.29
319.776	15.53
319.99	36.01
320.203	50.35
320.417	15.53
320.63	31.91
320.843	89.26
321.057	-4.95
321.27	58.54
321.483	-7
321.697	72.87
321.91	5.29
322.124	46.25
322.337	25.77
322.55	46.25
322.763	25.77
322.977	113.83
323.19	52.39
323.403	-7
323.617	7.34
323.83	23.72
324.043	9.39
324.256	9.39
324.469	29.87
324.683	-29.52
324.896	27.82
325.109	46.25
325.322	50.35
325.535	44.2
325.748	54.44
325.962	7.34
326.175	29.87
326.388	62.63
326.601	27.82
326.814	5.29
327.027	-2.9
327.24	21.67
327.453	-9.05
327.666	27.82
327.879	81.07
328.092	48.3
328.305	-11.09
328.518	62.63
328.731	58.54
328.944	72.87
329.157	48.3
329.37	31.91
329.583	38.06
329.796	-17.24
330.009	9.39
330.222	7.34
330.435	62.63
330.648	74.92
330.861	89.26
331.073	101.55
331.286	40.11
331.499	33.96
331.712	36.01
331.925	29.87
332.138	89.26
332.35	19.63
332.563	-0.85
332.776	17.58
332.989	93.35
333.202	5.29
333.414	7.34
333.627	31.91
333.84	36.01
334.053	-9.05
334.265	60.59
334.478	66.73
334.691	46.25
334.903	36.01
335.116	42.15
335.329	15.53
335.541	54.44
335.754	76.97
335.966	-29.52
336.179	81.07
336.392	15.53
336.604	54.44
336.817	11.43
337.029	7.34
337.242	-4.95
337.454	52.39
337.667	56.49
337.88	27.82
338.092	36.01
338.305	52.39
338.517	48.3
338.729	38.06
338.942	74.92
339.154	130.22
339.367	-25.43
339.579	70.83
339.792	79.02
340.004	58.54
340.217	36.01
340.429	9.39
340.641	7.34
340.854	25.77
341.066	23.72
341.278	3.24
341.491	87.21
341.703	17.58
341.915	79.02
342.128	40.11
342.34	-0.85
342.552	-17.24
342.764	-15.19
342.977	-4.95
343.189	107.69
343.401	50.35
343.613	38.06
343.826	31.91
344.038	9.39
344.25	15.53
344.462	-0.85
344.674	-13.14
344.886	-0.85
345.099	42.15
345.311	64.68
345.523	79.02
345.735	7.34
345.947	38.06
346.159	-15.19
346.371	44.2
346.583	11.43
346.795	89.26
347.007	-13.14
347.219	27.82
347.431	89.26
347.643	85.16
347.855	99.5
348.067	25.77
348.279	7.34
348.491	132.26
348.703	46.25
348.915	29.87
349.127	38.06
349.339	74.92
349.551	87.21
349.763	-17.24
349.975	70.83
350.187	15.53
350.399	-35.67
350.61	-35.67
350.822	31.91
351.034	44.2
351.246	15.53
351.458	99.5
351.669	19.63
351.881	5.29
352.093	64.68
352.305	21.67
352.517	-2.9
352.728	5.29
352.94	23.72
353.152	48.3
353.363	83.11
353.575	156.84
353.787	95.4
353.999	99.5
354.21	83.11
354.422	124.07
354.633	-25.43
354.845	17.58
355.057	36.01
355.268	-4.95
355.48	58.54
355.692	38.06
355.903	36.01
356.115	58.54
356.326	74.92
356.538	7.34
356.749	62.63
356.961	25.77
357.172	21.67
357.384	23.72
357.595	31.91
357.807	105.64
358.018	95.4
358.23	64.68
358.441	101.55
358.653	72.87
358.864	7.34
359.075	29.87
359.287	9.39
359.498	33.96
359.709	46.25
359.921	-4.95
360.132	42.15
360.344	38.06
360.555	27.82
360.766	83.11
360.977	25.77
361.189	52.39
361.4	-19.29
361.611	85.16
361.823	54.44
362.034	54.44
362.245	23.72
362.456	79.02
362.667	33.96
362.879	17.58
363.09	15.53
363.301	72.87
363.512	25.77
363.723	85.16
363.935	-58.2
364.146	33.96
364.357	-13.14
364.568	83.11
364.779	19.63
364.99	44.2
365.201	91.31
365.412	132.26
365.623	113.83
365.834	38.06
366.045	19.63
366.256	23.72
366.467	50.35
366.678	76.97
366.889	1.19
367.1	81.07
367.311	95.4
367.522	-23.38
367.733	105.64
367.944	38.06
368.155	9.39
368.366	40.11
368.577	81.07
368.788	54.44
368.999	25.77
369.209	44.2
369.42	91.31
369.631	64.68
369.842	62.63
370.053	74.92
370.264	21.67
370.474	99.5
370.685	42.15
370.896	-21.33
371.107	13.48
371.317	72.87
371.528	15.53
371.739	40.11
371.95	23.72
372.16	25.77
372.371	9.39
372.582	27.82
372.792	44.2
373.003	62.63
373.214	54.44
373.424	107.69
373.635	42.15
373.846	76.97
374.056	-25.43
374.267	25.77
374.477	50.35
374.688	29.87
374.898	48.3
375.109	-84.82
375.319	-0.85
375.53	58.54
375.74	7.34
375.951	-13.14
376.161	1.19
376.372	79.02
376.582	83.11
376.793	74.92
377.003	-2.9
377.214	74.92
377.424	44.2
377.635	19.63
377.845	-9.05
378.055	31.91
378.266	-0.85
378.476	15.53
378.686	62.63
378.897	83.11
379.107	9.39
379.317	91.31
379.528	70.83
379.738	1.19
379.948	60.59
380.158	85.16
380.369	-2.9
380.579	-15.19
380.789	64.68
380.999	54.44
381.21	79.02
381.42	158.89
381.63	36.01
381.84	107.69
382.05	40.11
382.261	33.96
382.471	48.3
382.681	89.26
382.891	79.02
383.101	79.02
383.311	-62.29
383.521	52.39
383.731	83.11
383.941	56.49
384.151	50.35
384.361	19.63
384.571	29.87
384.781	9.39
384.991	50.35
385.201	105.64
385.411	56.49
385.621	-23.38
385.831	113.83
386.041	81.07
386.251	27.82
386.461	54.44
386.671	93.35
386.881	68.78
387.091	7.34
387.301	60.59
387.511	50.35
387.72	15.53
387.93	74.92
388.14	-29.52
388.35	54.44
388.56	-31.57
388.769	97.45
388.979	64.68
389.189	36.01
389.399	38.06
389.609	52.39
389.818	58.54
390.028	13.48
390.238	130.22
390.447	42.15
390.657	21.67
390.867	79.02
391.076	-0.85
391.286	27.82
391.496	81.07
391.705	17.58
391.915	111.78
392.125	74.92
392.334	79.02
392.544	68.78
392.753	115.88
392.963	64.68
393.172	117.93
393.382	95.4
393.591	25.77
393.801	7.34
394.01	95.4
394.22	23.72
394.429	66.73
394.639	101.55
394.848	52.39
395.058	72.87
395.267	62.63
395.477	109.74
395.686	56.49
395.895	79.02
396.105	66.73
396.314	81.07
396.524	25.77
396.733	40.11
396.942	76.97
397.152	68.78
397.361	36.01
397.57	9.39
397.78	134.31
397.989	99.5
398.198	132.26
398.407	97.45
398.617	50.35
398.826	60.59
399.035	187.56
399.244	130.22
399.453	36.01
399.663	81.07
399.872	33.96
400.081	83.11
400.29	74.92
400.499	36.01
400.708	74.92
400.917	109.74
401.127	97.45
401.336	13.48
401.545	107.69
401.754	52.39
401.963	52.39
402.172	107.69
402.381	97.45
402.59	48.3
402.799	48.3
403.008	29.87
403.217	142.5
403.426	44.2
403.635	15.53
403.844	113.83
404.053	58.54
404.262	115.88
404.471	50.35
404.68	36.01
404.888	74.92
405.097	25.77
405.306	130.22
405.515	115.88
405.724	107.69
405.933	89.26
406.142	107.69
406.35	74.92
406.559	117.93
406.768	103.59
406.977	195.75
407.185	101.55
407.394	156.84
407.603	70.83
407.812	154.79
408.02	72.87
408.229	158.89
408.438	132.26
408.646	101.55
408.855	97.45
409.064	119.98
409.272	107.69
409.481	113.83
409.69	134.31
409.898	140.46
410.107	169.13
410.315	124.07
410.524	185.51
410.733	210.09
410.941	175.27
411.15	158.89
411.358	216.23
411.567	226.47
411.775	156.84
411.984	281.77
412.192	185.51
412.401	273.57
412.609	212.14
412.818	249
413.026	228.52
413.234	253.09
413.443	195.75
413.651	259.24
413.86	222.38
414.068	324.77
414.276	271.53
414.485	267.43
414.693	292.01
414.901	316.58
415.11	365.73
415.318	402.6
415.526	365.73
415.734	369.83
415.943	382.12
416.151	392.36
416.359	382.12
416.567	449.7
416.776	498.85
416.984	474.28
417.192	447.65
417.4	498.85
417.608	443.56
417.817	588.96
418.025	490.66
418.233	605.35
418.441	591.01
418.649	582.82
418.857	664.74
419.065	615.59
419.273	629.92
419.481	584.87
419.689	695.46
419.897	660.64
420.105	758.94
420.313	707.74
420.521	687.26
420.729	765.09
420.937	754.85
421.145	789.66
421.353	863.39
421.561	988.32
421.769	873.63
421.977	945.31
422.185	892.06
422.393	996.51
422.601	1141.91
422.809	1107.1
423.017	1066.14
423.224	1137.82
423.432	1197.21
423.64	1186.97
423.848	1279.13
424.056	1283.22
424.263	1350.81
424.471	1283.22
424.679	1342.61
424.887	1391.77
425.094	1494.16
425.302	1385.62
425.51	1633.43
425.718	1602.71
425.925	1653.91
426.133	1664.15
426.341	1723.54
426.548	1920.14
426.756	1852.56
426.964	1797.26
427.171	1911.95
427.379	2000.01
427.586	2077.83
427.794	2129.03
428.001	2219.14
428.209	2393.22
428.417	2235.53
428.624	2440.33
428.832	2434.18
429.039	2378.89
429.247	2296.97
429.454	2610.31
429.662	2706.56
429.869	2620.55
430.076	2782.34
430.284	2720.9
430.491	2837.63
430.699	2991.23
430.906	2935.93
431.114	3030.14
431.321	3064.96
431.528	3275.9
431.736	3216.51
431.943	3601.52
432.15	3599.48
432.358	3533.94
432.565	3550.32
432.772	3630.2
432.979	3945.58
433.187	3900.53
433.394	3943.53
433.601	4195.43
433.808	4123.76
434.016	4215.91
434.223	4363.37
434.43	4578.4
434.637	4488.29
434.844	4764.77
435.052	5002.33
435.259	4928.61
435.466	5114.97
435.673	4916.32
435.88	5231.71
436.087	5461.08
436.294	5473.37
436.501	5512.28
436.708	5499.99
436.915	5596.25
437.122	5760.08
437.329	5928.02
437.537	5901.39
437.743	6257.74
437.95	6118.48
438.157	6442.06
438.364	6704.2
438.571	6609.99
438.778	6595.65
438.985	7435.32
439.192	6868.03
439.399	7248.96
439.606	6970.43
439.813	7386.17
440.02	7971.89
440.227	7719.99
440.433	7613.49
440.64	7883.83
440.847	7928.88
441.054	8186.93
441.261	8565.8
441.467	8381.48
441.674	8764.45
441.881	9026.59
442.088	8989.73
442.294	8926.24
442.501	9104.42
442.708	9331.74
442.914	9643.03
443.121	10173.46
443.328	9733.14
443.534	10515.47
443.741	10056.72
443.948	10181.65
444.154	10748.93
444.361	10763.27
444.568	10837
444.774	10701.83
444.981	11035.65
445.187	11224.06
445.394	11652.09
445.6	11437.05
445.807	12686.31
446.013	12190.7
446.22	12157.94
446.426	12827.62
446.633	12706.79
446.839	13235.17
447.046	12721.13
447.252	13224.93
447.459	13497.31
447.665	13611.99
447.871	14105.56
448.078	14711.75
448.284	13855.7
448.491	14269.39
448.697	14863.3
448.903	15043.53
449.11	15111.11
449.316	14955.46
449.522	15219.65
449.728	15514.56
449.935	15664.06
450.141	15793.08
450.347	15836.09
450.553	15354.82
450.76	15690.68
450.966	16128.95
451.172	15891.38
451.378	16325.55
451.584	15948.73
451.791	16266.16
451.997	16483.25
452.203	16520.11
452.409	16663.47
452.615	16386.99
452.821	15879.1
453.027	15514.56
453.233	16341.94
453.44	15995.83
453.646	15983.54
453.852	16278.45
454.058	16231.35
454.264	15893.43
454.47	16255.92
454.676	15948.73
454.882	16397.23
455.088	14777.29
455.294	14904.26
455.5	15121.35
455.705	15215.55
455.911	14980.04
456.117	14330.83
456.323	14394.32
456.529	13386.72
456.735	14076.88
456.941	13775.83
457.147	13577.18
457.352	13050.85
457.558	12844.01
457.764	12903.4
457.97	12665.83
458.176	12372.97
458.381	12495.85
458.587	11781.11
458.793	11641.85
458.999	11269.12
459.204	11803.64
459.41	11555.83
459.616	10773.51
459.821	10906.63
460.027	10712.07
460.233	10351.63
460.438	10177.55
460.644	10345.48
460.85	9655.32
461.055	9528.35
461.261	9544.73
461.466	8920.1
461.672	8434.73
461.878	9403.42
462.083	8522.79
462.289	8512.55
462.494	8299.56
462.7	8010.8
462.905	7894.07
463.111	8062
463.316	8088.62
463.522	8150.06
463.727	7887.92
463.932	8014.9
464.138	7881.78
464.343	8039.47
464.549	7691.32
464.754	7994.42
464.959	8100.91
465.165	7883.83
465.37	7496.76
465.575	7410.75
465.781	7699.51
465.986	7652.41
466.191	7408.7
466.397	7298.11
466.602	6814.79
466.807	7031.87
467.012	7244.86
467.218	7095.36
467.423	6929.47
467.628	7169.09
467.833	7482.42
468.038	7234.62
468.244	6863.94
468.449	7109.69
468.654	6960.19
468.859	6806.59
469.064	7052.35
469.269	6505.54
469.474	6630.47
469.679	6642.76
469.885	6745.16
