Data from USB4F104151__88__13-54-28-290.txt Node

Date: Thu Mar 13 13:54:28 EDT 2025
User: louis
Spectrometer: USB4F10415
Trigger mode: 4
Integration Time (sec): 1.000000E-2
Scans to average: 1
Electric dark correction enabled: true
Nonlinearity correction enabled: false
Boxcar width: 0
XAxis mode: Wavelengths
Number of Pixels in Spectrum: 3648
>>>>>Begin Spectral Data<<<<<
178.204	-49.49
178.424	-49.49
178.644	-49.49
178.864	-12.63
179.084	-16.73
179.304	-55.64
179.524	34.47
179.744	57
179.964	54.95
180.184	-45.4
180.404	36.52
180.624	-67.92
180.844	-55.64
181.064	-29.01
181.283	46.76
181.503	-0.34
181.723	24.23
181.943	28.33
182.163	69.29
182.383	36.52
182.602	-12.63
182.822	87.72
183.042	-57.68
183.262	-0.34
183.482	100.01
183.701	50.86
183.921	-18.77
184.141	16.04
184.361	93.87
184.58	73.39
184.8	52.91
185.02	61.1
185.239	32.43
185.459	46.76
185.679	16.04
185.898	16.04
186.118	32.43
186.338	22.19
186.557	89.77
186.777	38.57
186.997	32.43
187.216	24.23
187.436	1.71
187.655	18.09
187.875	132.78
188.095	50.86
188.314	100.01
188.534	67.24
188.753	85.67
188.973	-16.73
189.192	63.15
189.412	48.81
189.631	40.62
189.851	11.95
190.07	57
190.29	9.9
190.509	9.9
190.729	122.54
190.948	44.71
191.168	57
191.387	61.1
191.607	50.86
191.826	77.48
192.045	50.86
192.265	38.57
192.484	9.9
192.704	-2.39
192.923	-4.44
193.142	9.9
193.362	13.99
193.581	20.14
193.8	75.43
194.02	-2.39
194.239	97.96
194.458	-0.34
194.678	36.52
194.897	7.85
195.116	-16.73
195.335	50.86
195.555	52.91
195.774	54.95
195.993	42.67
196.212	75.43
196.432	1.71
196.651	9.9
196.87	30.38
197.089	91.82
197.308	5.8
197.528	3.75
197.747	69.29
197.966	38.57
198.185	-8.53
198.404	63.15
198.623	30.38
198.842	9.9
199.062	79.53
199.281	38.57
199.5	52.91
199.719	24.23
199.938	42.67
200.157	42.67
200.376	18.09
200.595	59.05
200.814	69.29
201.033	65.19
201.252	-76.12
201.471	-16.73
201.69	-14.68
201.909	67.24
202.128	136.87
202.347	57
202.566	48.81
202.785	-4.44
203.004	-12.63
203.223	48.81
203.442	13.99
203.661	-26.96
203.879	-22.87
204.098	-43.35
204.317	-2.39
204.536	46.76
204.755	18.09
204.974	-8.53
205.193	54.95
205.411	44.71
205.63	-72.02
205.849	40.62
206.068	-10.58
206.287	50.86
206.505	1.71
206.724	42.67
206.943	69.29
207.162	13.99
207.381	104.11
207.599	65.19
207.818	36.52
208.037	5.8
208.255	22.19
208.474	52.91
208.693	5.8
208.911	81.58
209.13	-18.77
209.349	26.28
209.567	-12.63
209.786	91.82
210.005	16.04
210.223	54.95
210.442	44.71
210.661	-14.68
210.879	32.43
211.098	106.15
211.316	54.95
211.535	16.04
211.753	42.67
211.972	13.99
212.191	24.23
212.409	48.81
212.628	16.04
212.846	13.99
213.065	79.53
213.283	18.09
213.502	24.23
213.72	-55.64
213.938	100.01
214.157	-10.58
214.375	52.91
214.594	44.71
214.812	77.48
215.031	65.19
215.249	-18.77
215.467	42.67
215.686	26.28
215.904	48.81
216.122	57
216.341	32.43
216.559	-76.12
216.778	40.62
216.996	-6.49
217.214	22.19
217.432	79.53
217.651	-12.63
217.869	42.67
218.087	50.86
218.306	-37.2
218.524	128.68
218.742	22.19
218.96	81.58
219.179	50.86
219.397	13.99
219.615	112.3
219.833	-4.44
220.051	-45.4
220.27	67.24
220.488	22.19
220.706	81.58
220.924	81.58
221.142	1.71
221.36	20.14
221.578	-22.87
221.796	71.34
222.015	-22.87
222.233	67.24
222.451	36.52
222.669	-6.49
222.887	65.19
223.105	13.99
223.323	87.72
223.541	61.1
223.759	102.06
223.977	26.28
224.195	42.67
224.413	26.28
224.631	32.43
224.849	42.67
225.067	36.52
225.285	7.85
225.503	48.81
225.721	18.09
225.939	89.77
226.157	50.86
226.375	73.39
226.592	26.28
226.81	-0.34
227.028	20.14
227.246	71.34
227.464	13.99
227.682	34.47
227.9	18.09
228.117	91.82
228.335	30.38
228.553	46.76
228.771	59.05
228.989	11.95
229.206	-8.53
229.424	30.38
229.642	3.75
229.86	-8.53
230.077	44.71
230.295	26.28
230.513	40.62
230.731	46.76
230.948	1.71
231.166	42.67
231.384	-22.87
231.601	83.63
231.819	65.19
232.037	34.47
232.254	11.95
232.472	85.67
232.689	32.43
232.907	22.19
233.125	122.54
233.342	16.04
233.56	3.75
233.777	-47.44
233.995	28.33
234.213	81.58
234.43	36.52
234.648	38.57
234.865	87.72
235.083	122.54
235.3	-14.68
235.518	106.15
235.735	42.67
235.953	38.57
236.17	28.33
236.388	26.28
236.605	-33.11
236.822	77.48
237.04	69.29
237.257	-6.49
237.475	30.38
237.692	24.23
237.909	50.86
238.127	3.75
238.344	20.14
238.562	83.63
238.779	52.91
238.996	7.85
239.214	-2.39
239.431	50.86
239.648	52.91
239.865	83.63
240.083	-14.68
240.3	73.39
240.517	9.9
240.735	50.86
240.952	42.67
241.169	116.39
241.386	1.71
241.603	-14.68
241.821	22.19
242.038	108.2
242.255	-8.53
242.472	-4.44
242.689	50.86
242.907	75.43
243.124	13.99
243.341	52.91
243.558	130.73
243.775	-24.92
243.992	40.62
244.209	28.33
244.426	77.48
244.643	48.81
244.86	44.71
245.078	57
245.295	11.95
245.512	44.71
245.729	69.29
245.946	7.85
246.163	57
246.38	40.62
246.597	50.86
246.814	24.23
247.031	73.39
247.248	69.29
247.464	71.34
247.681	36.52
247.898	81.58
248.115	24.23
248.332	34.47
248.549	34.47
248.766	91.82
248.983	50.86
249.2	81.58
249.417	30.38
249.633	87.72
249.85	61.1
250.067	42.67
250.284	34.47
250.501	89.77
250.717	100.01
250.934	20.14
251.151	18.09
251.368	67.24
251.585	38.57
251.801	-18.77
252.018	-61.78
252.235	-6.49
252.451	40.62
252.668	50.86
252.885	110.25
253.102	18.09
253.318	75.43
253.535	65.19
253.752	-37.2
253.968	1.71
254.185	73.39
254.401	7.85
254.618	26.28
254.835	-6.49
255.051	26.28
255.268	9.9
255.484	1.71
255.701	83.63
255.917	95.91
256.134	36.52
256.351	91.82
256.567	44.71
256.784	32.43
257	-33.11
257.217	50.86
257.433	38.57
257.65	5.8
257.866	30.38
258.082	5.8
258.299	16.04
258.515	34.47
258.732	-14.68
258.948	34.47
259.165	50.86
259.381	-2.39
259.597	22.19
259.814	24.23
260.03	44.71
260.246	28.33
260.463	34.47
260.679	30.38
260.895	57
261.112	97.96
261.328	-18.77
261.544	40.62
261.761	46.76
261.977	69.29
262.193	5.8
262.409	13.99
262.626	63.15
262.842	-45.4
263.058	54.95
263.274	-22.87
263.49	97.96
263.707	79.53
263.923	3.75
264.139	-35.16
264.355	-8.53
264.571	20.14
264.787	11.95
265.004	22.19
265.22	81.58
265.436	40.62
265.652	85.67
265.868	46.76
266.084	16.04
266.3	-4.44
266.516	44.71
266.732	48.81
266.948	81.58
267.164	20.14
267.38	30.38
267.596	83.63
267.812	16.04
268.028	16.04
268.244	-4.44
268.46	65.19
268.676	69.29
268.892	9.9
269.108	30.38
269.324	46.76
269.54	81.58
269.756	46.76
269.972	34.47
270.188	24.23
270.403	36.52
270.619	77.48
270.835	24.23
271.051	122.54
271.267	40.62
271.483	104.11
271.698	44.71
271.914	22.19
272.13	-57.68
272.346	44.71
272.562	-0.34
272.777	112.3
272.993	7.85
273.209	16.04
273.425	67.24
273.64	34.47
273.856	9.9
274.072	73.39
274.287	24.23
274.503	77.48
274.719	1.71
274.934	30.38
275.15	91.82
275.366	30.38
275.581	-24.92
275.797	9.9
276.012	34.47
276.228	30.38
276.444	73.39
276.659	95.91
276.875	3.75
277.09	91.82
277.306	18.09
277.521	7.85
277.737	30.38
277.952	173.74
278.168	54.95
278.383	89.77
278.599	52.91
278.814	46.76
279.03	69.29
279.245	28.33
279.461	50.86
279.676	73.39
279.892	13.99
280.107	26.28
280.322	18.09
280.538	63.15
280.753	77.48
280.969	59.05
281.184	-0.34
281.399	26.28
281.615	73.39
281.83	42.67
282.045	7.85
282.26	132.78
282.476	-12.63
282.691	91.82
282.906	1.71
283.122	28.33
283.337	97.96
283.552	13.99
283.767	30.38
283.983	30.38
284.198	26.28
284.413	11.95
284.628	40.62
284.843	87.72
285.058	28.33
285.274	-6.49
285.489	79.53
285.704	114.34
285.919	61.1
286.134	63.15
286.349	46.76
286.564	-12.63
286.779	79.53
286.995	26.28
287.21	22.19
287.425	40.62
287.64	7.85
287.855	13.99
288.07	110.25
288.285	112.3
288.5	3.75
288.715	122.54
288.93	40.62
289.145	9.9
289.36	30.38
289.575	36.52
289.79	-14.68
290.004	57
290.219	44.71
290.434	46.76
290.649	3.75
290.864	77.48
291.079	16.04
291.294	28.33
291.509	1.71
291.724	11.95
291.938	-22.87
292.153	85.67
292.368	-18.77
292.583	65.19
292.798	48.81
293.012	52.91
293.227	24.23
293.442	91.82
293.657	38.57
293.871	38.57
294.086	52.91
294.301	3.75
294.516	57
294.73	13.99
294.945	26.28
295.16	63.15
295.374	63.15
295.589	110.25
295.804	40.62
296.018	50.86
296.233	79.53
296.447	36.52
296.662	71.34
296.877	73.39
297.091	46.76
297.306	67.24
297.52	30.38
297.735	59.05
297.949	-35.16
298.164	24.23
298.378	59.05
298.593	87.72
298.807	93.87
299.022	61.1
299.236	48.81
299.451	22.19
299.665	44.71
299.88	104.11
300.094	34.47
300.309	5.8
300.523	18.09
300.737	-20.82
300.952	83.63
301.166	71.34
301.381	83.63
301.595	69.29
301.809	36.52
302.024	22.19
302.238	36.52
302.452	52.91
302.667	-67.92
302.881	13.99
303.095	75.43
303.309	16.04
303.524	38.57
303.738	46.76
303.952	48.81
304.166	61.1
304.381	57
304.595	36.52
304.809	38.57
305.023	24.23
305.237	140.97
305.452	-0.34
305.666	65.19
305.88	89.77
306.094	13.99
306.308	40.62
306.522	-8.53
306.736	130.73
306.95	34.47
307.164	3.75
307.379	67.24
307.593	5.8
307.807	32.43
308.021	9.9
308.235	5.8
308.449	36.52
308.663	9.9
308.877	85.67
309.091	48.81
309.305	61.1
309.519	-12.63
309.733	52.91
309.947	16.04
310.161	57
310.374	54.95
310.588	16.04
310.802	52.91
311.016	-16.73
311.23	75.43
311.444	36.52
311.658	-16.73
311.872	36.52
312.085	52.91
312.299	89.77
312.513	-10.58
312.727	52.91
312.941	-29.01
313.154	5.8
313.368	16.04
313.582	61.1
313.796	44.71
314.009	93.87
314.223	85.67
314.437	13.99
314.651	50.86
314.864	77.48
315.078	77.48
315.292	50.86
315.505	83.63
315.719	36.52
315.933	-49.49
316.146	52.91
316.36	-4.44
316.573	114.34
316.787	69.29
317.001	18.09
317.214	91.82
317.428	83.63
317.641	85.67
317.855	59.05
318.068	42.67
318.282	11.95
318.495	114.34
318.709	30.38
318.922	-8.53
319.136	73.39
319.349	7.85
319.563	36.52
319.776	65.19
319.99	81.58
320.203	36.52
320.417	48.81
320.63	71.34
320.843	18.09
321.057	26.28
321.27	93.87
321.483	59.05
321.697	34.47
321.91	46.76
322.124	-31.06
322.337	40.62
322.55	-6.49
322.763	50.86
322.977	110.25
323.19	50.86
323.403	26.28
323.617	89.77
323.83	59.05
324.043	-18.77
324.256	20.14
324.469	7.85
324.683	26.28
324.896	59.05
325.109	110.25
325.322	-2.39
325.535	73.39
325.748	108.2
325.962	24.23
326.175	46.76
326.388	20.14
326.601	50.86
326.814	-4.44
327.027	97.96
327.24	87.72
327.453	38.57
327.666	54.95
327.879	30.38
328.092	36.52
328.305	40.62
328.518	-2.39
328.731	20.14
328.944	32.43
329.157	118.44
329.37	-41.3
329.583	42.67
329.796	71.34
330.009	42.67
330.222	48.81
330.435	104.11
330.648	30.38
330.861	32.43
331.073	63.15
331.286	57
331.499	67.24
331.712	-10.58
331.925	-12.63
332.138	46.76
332.35	116.39
332.563	18.09
332.776	-4.44
332.989	91.82
333.202	77.48
333.414	38.57
333.627	71.34
333.84	110.25
334.053	44.71
334.265	52.91
334.478	36.52
334.691	57
334.903	-41.3
335.116	63.15
335.329	26.28
335.541	42.67
335.754	20.14
335.966	69.29
336.179	75.43
336.392	3.75
336.604	40.62
336.817	-2.39
337.029	59.05
337.242	18.09
337.454	44.71
337.667	65.19
337.88	71.34
338.092	102.06
338.305	67.24
338.517	48.81
338.729	75.43
338.942	126.63
339.154	26.28
339.367	54.95
339.579	42.67
339.792	85.67
340.004	28.33
340.217	85.67
340.429	108.2
340.641	89.77
340.854	18.09
341.066	75.43
341.278	57
341.491	38.57
341.703	16.04
341.915	-12.63
342.128	13.99
342.34	54.95
342.552	67.24
342.764	61.1
342.977	30.38
343.189	-4.44
343.401	73.39
343.613	63.15
343.826	48.81
344.038	24.23
344.25	-6.49
344.462	85.67
344.674	100.01
344.886	-22.87
345.099	97.96
345.311	30.38
345.523	57
345.735	79.53
345.947	32.43
346.159	61.1
346.371	95.91
346.583	-12.63
346.795	54.95
347.007	34.47
347.219	26.28
347.431	85.67
347.643	75.43
347.855	20.14
348.067	7.85
348.279	75.43
348.491	75.43
348.703	75.43
348.915	54.95
349.127	26.28
349.339	87.72
349.551	57
349.763	48.81
349.975	54.95
350.187	38.57
350.399	26.28
350.61	48.81
350.822	32.43
351.034	57
351.246	36.52
351.458	16.04
351.669	11.95
351.881	52.91
352.093	71.34
352.305	59.05
352.517	73.39
352.728	100.01
352.94	18.09
353.152	128.68
353.363	32.43
353.575	32.43
353.787	22.19
353.999	61.1
354.21	132.78
354.422	54.95
354.633	18.09
354.845	52.91
355.057	13.99
355.268	104.11
355.48	30.38
355.692	16.04
355.903	-18.77
356.115	100.01
356.326	42.67
356.538	42.67
356.749	69.29
356.961	13.99
357.172	48.81
357.384	73.39
357.595	26.28
357.807	13.99
358.018	11.95
358.23	75.43
358.441	65.19
358.653	67.24
358.864	104.11
359.075	13.99
359.287	44.71
359.498	130.73
359.709	48.81
359.921	26.28
360.132	40.62
360.344	-0.34
360.555	48.81
360.766	73.39
360.977	-6.49
361.189	153.26
361.4	48.81
361.611	93.87
361.823	22.19
362.034	65.19
362.245	20.14
362.456	42.67
362.667	97.96
362.879	18.09
363.09	59.05
363.301	42.67
363.512	20.14
363.723	81.58
363.935	38.57
364.146	87.72
364.357	46.76
364.568	85.67
364.779	11.95
364.99	48.81
365.201	61.1
365.412	89.77
365.623	30.38
365.834	89.77
366.045	-2.39
366.256	42.67
366.467	93.87
366.678	38.57
366.889	18.09
367.1	52.91
367.311	63.15
367.522	67.24
367.733	95.91
367.944	34.47
368.155	106.15
368.366	69.29
368.577	95.91
368.788	65.19
368.999	67.24
369.209	108.2
369.42	75.43
369.631	63.15
369.842	3.75
370.053	48.81
370.264	79.53
370.474	-31.06
370.685	57
370.896	95.91
371.107	-16.73
371.317	134.82
371.528	-22.87
371.739	32.43
371.95	100.01
372.16	77.48
372.371	61.1
372.582	40.62
372.792	42.67
373.003	73.39
373.214	95.91
373.424	46.76
373.635	38.57
373.846	42.67
374.056	81.58
374.267	11.95
374.477	120.49
374.688	75.43
374.898	61.1
375.109	13.99
375.319	71.34
375.53	-26.96
375.74	87.72
375.951	-8.53
376.161	57
376.372	50.86
376.582	54.95
376.793	42.67
377.003	-24.92
377.214	124.58
377.424	18.09
377.635	73.39
377.845	13.99
378.055	-12.63
378.266	81.58
378.476	-12.63
378.686	7.85
378.897	126.63
379.107	54.95
379.317	128.68
379.528	65.19
379.738	134.82
379.948	65.19
380.158	122.54
380.369	59.05
380.579	77.48
380.789	61.1
380.999	67.24
381.21	57
381.42	169.64
381.63	24.23
381.84	97.96
382.05	59.05
382.261	65.19
382.471	48.81
382.681	26.28
382.891	-22.87
383.101	102.06
383.311	50.86
383.521	52.91
383.731	36.52
383.941	67.24
384.151	7.85
384.361	28.33
384.571	48.81
384.781	67.24
384.991	102.06
385.201	42.67
385.411	89.77
385.621	57
385.831	32.43
386.041	46.76
386.251	30.38
386.461	102.06
386.671	-10.58
386.881	95.91
387.091	20.14
387.301	50.86
387.511	-14.68
387.72	93.87
387.93	18.09
388.14	91.82
388.35	50.86
388.56	104.11
388.769	81.58
388.979	40.62
389.189	91.82
389.399	93.87
389.609	61.1
389.818	36.52
390.028	143.02
390.238	134.82
390.447	36.52
390.657	104.11
390.867	65.19
391.076	85.67
391.286	81.58
391.496	-0.34
391.705	143.02
391.915	95.91
392.125	24.23
392.334	71.34
392.544	155.3
392.753	24.23
392.963	63.15
393.172	85.67
393.382	34.47
393.591	83.63
393.801	87.72
394.01	190.12
394.22	102.06
394.429	50.86
394.639	112.3
394.848	75.43
395.058	116.39
395.267	57
395.477	104.11
395.686	77.48
395.895	63.15
396.105	108.2
396.314	65.19
396.524	97.96
396.733	71.34
396.942	75.43
397.152	114.34
397.361	128.68
397.57	13.99
397.78	46.76
397.989	63.15
398.198	97.96
398.407	85.67
398.617	120.49
398.826	67.24
399.035	132.78
399.244	138.92
399.453	59.05
399.663	120.49
399.872	100.01
400.081	50.86
400.29	102.06
400.499	79.53
400.708	114.34
400.917	79.53
401.127	149.16
401.336	112.3
401.545	112.3
401.754	67.24
401.963	110.25
402.172	153.26
402.381	36.52
402.59	73.39
402.799	132.78
403.008	122.54
403.217	40.62
403.426	173.74
403.635	87.72
403.844	97.96
404.053	102.06
404.262	138.92
404.471	65.19
404.68	151.21
404.888	120.49
405.097	102.06
405.306	155.3
405.515	190.12
405.724	36.52
405.933	120.49
406.142	204.46
406.35	157.35
406.559	145.06
406.768	171.69
406.977	157.35
407.185	140.97
407.394	157.35
407.603	220.84
407.812	153.26
408.02	165.54
408.229	202.41
408.438	140.97
408.646	218.79
408.855	204.46
409.064	183.98
409.272	241.32
409.481	161.45
409.69	280.23
409.898	243.37
410.107	239.27
410.315	261.8
410.524	224.94
410.733	231.08
410.941	351.91
411.15	265.89
411.358	310.95
411.567	370.34
411.775	294.57
411.984	333.48
412.192	417.44
412.401	394.92
412.609	329.38
412.818	331.43
413.026	390.82
413.234	380.58
413.443	394.92
413.651	337.57
413.86	476.84
414.068	487.08
414.276	444.07
414.485	489.12
414.693	462.5
414.901	536.23
415.11	485.03
415.318	478.88
415.526	614.05
415.734	581.28
415.943	585.38
416.151	513.7
416.359	521.89
416.567	650.91
416.776	708.26
416.984	646.82
417.192	743.07
417.4	736.93
417.608	765.6
417.817	708.26
418.025	728.74
418.233	824.99
418.441	868
418.649	849.57
418.857	831.13
419.065	997.02
419.273	962.2
419.481	984.73
419.689	1091.23
419.897	1158.81
420.105	1259.16
420.313	1210.01
420.521	1158.81
420.729	1197.72
420.937	1255.06
421.145	1302.17
421.353	1293.97
421.561	1373.85
421.769	1463.96
421.977	1443.48
422.185	1560.21
422.393	1539.73
422.601	1574.55
422.809	1672.85
423.017	1705.62
423.224	1650.32
423.432	1871.5
423.64	1861.26
423.848	1965.71
424.056	1988.24
424.263	2072.2
424.471	2070.16
424.679	2199.18
424.887	2184.84
425.094	2266.76
425.302	2279.05
425.51	2459.27
425.718	2557.57
425.925	2459.27
426.133	2569.86
426.341	2649.73
426.548	2821.76
426.756	2823.81
426.964	2811.52
427.171	3047.04
427.379	3145.34
427.586	3208.83
427.794	3264.12
428.001	3481.21
428.209	3622.52
428.417	3434.1
428.624	3604.08
428.832	3784.3
429.039	3630.71
429.247	3843.7
429.454	4126.32
429.662	4269.67
429.869	4142.7
430.076	4372.07
430.284	4394.6
430.491	4441.7
430.699	4720.23
430.906	4738.66
431.114	4738.66
431.321	4771.43
431.528	5045.85
431.736	5146.2
431.943	5566.04
432.15	5459.54
432.358	5604.95
432.565	5797.46
432.772	5801.55
432.979	6032.97
433.187	6030.93
433.394	6065.74
433.601	6561.35
433.808	6729.28
434.016	6620.74
434.223	6956.61
434.43	7347.77
434.637	6991.42
434.844	7650.87
435.052	7593.53
435.259	7624.25
435.466	7636.53
435.673	7638.58
435.88	8076.85
436.087	8619.56
436.294	8513.06
436.501	8443.43
436.708	8496.68
436.915	8906.27
437.122	9176.61
437.329	9156.13
437.537	9434.65
437.743	9756.18
437.95	9655.83
438.157	10116.62
438.364	10311.18
438.571	10427.92
438.778	10202.64
438.985	11249.15
439.192	10905.09
439.399	11150.85
439.606	11232.77
439.813	11689.46
440.02	12281.33
440.227	12123.63
440.433	12031.48
440.64	12420.59
440.847	12062.19
441.054	12598.76
441.261	13266.4
441.467	13174.24
441.674	13573.6
441.881	13905.37
442.088	13970.9
442.294	13948.37
442.501	14323.15
442.708	14464.46
442.914	15295.94
443.121	15857.08
443.328	15152.58
443.534	16543.15
443.741	16037.3
443.948	15871.42
444.154	17051.05
444.361	16950.7
444.568	16760.23
444.774	16858.54
444.981	17247.65
445.187	17644.96
445.394	18349.46
445.6	18179.48
445.807	19809.66
446.013	18664.85
446.22	19594.62
446.426	20151.67
446.633	20338.04
446.839	20704.62
447.046	20180.34
447.252	21146.98
447.459	21124.46
447.665	21249.38
447.871	22109.53
448.078	22973.77
448.284	21974.36
448.491	22297.94
448.697	23209.29
448.903	23426.37
449.11	23600.45
449.316	23518.53
449.522	23727.42
449.728	24431.93
449.935	25118
450.141	24849.71
450.347	25414.95
450.553	24337.72
450.76	24417.59
450.966	25312.55
451.172	25214.25
451.378	25740.58
451.584	25531.69
451.791	25937.18
451.997	25879.84
452.203	26219.8
452.409	26250.52
452.615	26017.05
452.821	25181.48
453.027	24855.86
453.233	26092.83
453.44	24837.42
453.646	25679.14
453.852	24974.64
454.058	25734.43
454.264	25095.47
454.47	25496.87
454.676	24792.37
454.882	25627.94
455.088	23481.67
455.294	23932.22
455.5	24556.85
455.705	24587.57
455.911	23393.61
456.117	22818.13
456.323	22801.74
456.529	21429.6
456.735	22295.89
456.941	21882.2
457.147	21278.05
457.352	20684.14
457.558	20471.15
457.764	20432.24
457.97	19871.1
458.176	19705.21
458.381	19783.04
458.587	18957.71
458.793	18558.35
458.999	17612.19
459.204	19051.91
459.41	18783.63
459.616	17636.77
459.821	17538.46
460.027	17165.73
460.233	16946.6
460.438	16219.57
460.644	16178.61
460.85	15660.48
461.055	15433.15
461.261	15222.21
461.466	14167.51
461.672	13989.33
461.878	14829
462.083	13784.54
462.289	13405.66
462.494	13520.35
462.7	12963.3
462.905	12457.45
463.111	12969.44
463.316	12865
463.522	12713.45
463.727	12717.54
463.932	12674.54
464.138	12529.13
464.343	12539.37
464.549	12105.2
464.754	12572.14
464.959	12527.08
465.165	12346.86
465.37	11879.93
465.575	11507.2
465.781	12209.65
465.986	12166.64
466.191	11695.61
466.397	11484.67
466.602	10878.47
466.807	11372.03
467.012	11369.98
467.218	11296.25
467.423	11075.07
467.628	11345.41
467.833	11881.97
468.038	11406.84
468.244	11005.44
468.449	11369.98
468.654	10771.97
