Data from USB4F104151__203__13-59-50-165.txt Node

Date: Thu Mar 13 13:59:50 EDT 2025
User: louis
Spectrometer: USB4F10415
Trigger mode: 4
Integration Time (sec): 1.000000E-2
Scans to average: 1
Electric dark correction enabled: true
Nonlinearity correction enabled: false
Boxcar width: 0
XAxis mode: Wavelengths
Number of Pixels in Spectrum: 3648
>>>>>Begin Spectral Data<<<<<
178.204	-95.06
178.424	-95.06
178.644	-95.06
178.864	-93.01
179.084	-62.29
179.304	7.34
179.524	25.77
179.744	25.77
179.964	-52.05
180.184	15.53
180.404	3.24
180.624	21.67
180.844	-31.57
181.064	11.43
181.283	1.19
181.503	27.82
181.723	-56.15
181.943	-9.05
182.163	-27.48
182.383	-72.53
182.602	33.96
182.822	15.53
183.042	1.19
183.262	-70.48
183.482	-7
183.701	60.59
183.921	7.34
184.141	36.01
184.361	-29.52
184.58	7.34
184.8	9.39
185.02	-31.57
185.239	-27.48
185.459	-39.76
185.679	-27.48
185.898	44.2
186.118	46.25
186.338	17.58
186.557	66.73
186.777	-64.34
186.997	-7
187.216	3.24
187.436	40.11
187.655	46.25
187.875	17.58
188.095	-62.29
188.314	11.43
188.534	68.78
188.753	40.11
188.973	33.96
189.192	25.77
189.412	56.49
189.631	13.48
189.851	1.19
190.07	-9.05
190.29	13.48
190.509	60.59
190.729	44.2
190.948	48.3
191.168	79.02
191.387	38.06
191.607	-9.05
191.826	60.59
192.045	40.11
192.265	72.87
192.484	58.54
192.704	76.97
192.923	50.35
193.142	23.72
193.362	-25.43
193.581	33.96
193.8	-29.52
194.02	111.78
194.239	40.11
194.458	-9.05
194.678	52.39
194.897	-25.43
195.116	54.44
195.335	-25.43
195.555	13.48
195.774	33.96
195.993	-37.72
196.212	50.35
196.432	-60.24
196.651	44.2
196.87	5.29
197.089	81.07
197.308	5.29
197.528	44.2
197.747	56.49
197.966	40.11
198.185	68.78
198.404	-21.33
198.623	62.63
198.842	-2.9
199.062	42.15
199.281	40.11
199.5	-68.44
199.719	-11.09
199.938	50.35
200.157	52.39
200.376	25.77
200.595	-31.57
200.814	-21.33
201.033	-9.05
201.252	29.87
201.471	-33.62
201.69	48.3
201.909	1.19
202.128	-60.24
202.347	44.2
202.566	1.19
202.785	36.01
203.004	29.87
203.223	76.97
203.442	-37.72
203.661	-50
203.879	50.35
204.098	81.07
204.317	15.53
204.536	72.87
204.755	-19.29
204.974	-25.43
205.193	-21.33
205.411	89.26
205.63	-41.81
205.849	15.53
206.068	15.53
206.287	62.63
206.505	17.58
206.724	31.91
206.943	-9.05
207.162	56.49
207.381	1.19
207.599	7.34
207.818	50.35
208.037	-13.14
208.255	-39.76
208.474	-9.05
208.693	7.34
208.911	62.63
209.13	40.11
209.349	-4.95
209.567	62.63
209.786	31.91
210.005	142.5
210.223	11.43
210.442	17.58
210.661	-97.11
210.879	-97.11
211.098	-17.24
211.316	54.44
211.535	-54.1
211.753	48.3
211.972	11.43
212.191	56.49
212.409	74.92
212.628	56.49
212.846	81.07
213.065	-15.19
213.283	31.91
213.502	21.67
213.72	42.15
213.938	15.53
214.157	-0.85
214.375	54.44
214.594	-0.85
214.812	52.39
215.031	29.87
215.249	-54.1
215.467	42.15
215.686	9.39
215.904	-31.57
216.122	11.43
216.341	11.43
216.559	87.21
216.778	87.21
216.996	5.29
217.214	33.96
217.432	-0.85
217.651	-17.24
217.869	31.91
218.087	9.39
218.306	17.58
218.524	-0.85
218.742	15.53
218.96	74.92
219.179	11.43
219.397	9.39
219.615	7.34
219.833	46.25
220.051	17.58
220.27	-9.05
220.488	46.25
220.706	-19.29
220.924	-21.33
221.142	40.11
221.36	11.43
221.578	-25.43
221.796	-9.05
222.015	-27.48
222.233	13.48
222.451	58.54
222.669	25.77
222.887	64.68
223.105	-15.19
223.323	-15.19
223.541	3.24
223.759	7.34
223.977	-4.95
224.195	52.39
224.413	113.83
224.631	-0.85
224.849	29.87
225.067	31.91
225.285	7.34
225.503	48.3
225.721	3.24
225.939	60.59
226.157	-131.92
226.375	79.02
226.592	3.24
226.81	58.54
227.028	-25.43
227.246	101.55
227.464	-60.24
227.682	38.06
227.9	15.53
228.117	-47.96
228.335	23.72
228.553	46.25
228.771	15.53
228.989	-13.14
229.206	-39.76
229.424	-13.14
229.642	62.63
229.86	-37.72
230.077	-29.52
230.295	91.31
230.513	46.25
230.731	-82.77
230.948	44.2
231.166	17.58
231.384	-39.76
231.601	7.34
231.819	-9.05
232.037	-2.9
232.254	-15.19
232.472	5.29
232.689	60.59
232.907	44.2
233.125	48.3
233.342	46.25
233.56	-11.09
233.777	25.77
233.995	31.91
234.213	50.35
234.43	33.96
234.648	74.92
234.865	7.34
235.083	-39.76
235.3	44.2
235.518	89.26
235.735	-50
235.953	-47.96
236.17	60.59
236.388	-29.52
236.605	52.39
236.822	83.11
237.04	111.78
237.257	13.48
237.475	101.55
237.692	44.2
237.909	17.58
238.127	19.63
238.344	19.63
238.562	9.39
238.779	-7
238.996	-4.95
239.214	17.58
239.431	1.19
239.648	99.5
239.865	-4.95
240.083	-19.29
240.3	58.54
240.517	5.29
240.735	95.4
240.952	-11.09
241.169	25.77
241.386	60.59
241.603	56.49
241.821	62.63
242.038	3.24
242.255	-29.52
242.472	33.96
242.689	-21.33
242.907	7.34
243.124	27.82
243.341	54.44
243.558	74.92
243.775	9.39
243.992	-2.9
244.209	11.43
244.426	56.49
244.643	122.02
244.86	21.67
245.078	17.58
245.295	19.63
245.512	-52.05
245.729	27.82
245.946	50.35
246.163	23.72
246.38	-0.85
246.597	64.68
246.814	56.49
247.031	17.58
247.248	58.54
247.464	31.91
247.681	85.16
247.898	9.39
248.115	7.34
248.332	-9.05
248.549	23.72
248.766	19.63
248.983	68.78
249.2	87.21
249.417	-88.92
249.633	38.06
249.85	40.11
250.067	40.11
250.284	50.35
250.501	19.63
250.717	97.45
250.934	-21.33
251.151	-17.24
251.368	-0.85
251.585	-31.57
251.801	11.43
252.018	11.43
252.235	-35.67
252.451	13.48
252.668	-90.96
252.885	-0.85
253.102	7.34
253.318	62.63
253.535	15.53
253.752	-17.24
253.968	3.24
254.185	-4.95
254.401	38.06
254.618	-17.24
254.835	15.53
255.051	15.53
255.268	17.58
255.484	40.11
255.701	62.63
255.917	85.16
256.134	66.73
256.351	64.68
256.567	74.92
256.784	89.26
257	1.19
257.217	70.83
257.433	-33.62
257.65	15.53
257.866	15.53
258.082	-25.43
258.299	-11.09
258.515	29.87
258.732	-68.44
258.948	-0.85
259.165	40.11
259.381	-0.85
259.597	3.24
259.814	-56.15
260.03	76.97
260.246	3.24
260.463	-29.52
260.679	25.77
260.895	15.53
261.112	1.19
261.328	44.2
261.544	-25.43
261.761	109.74
261.977	-21.33
262.193	33.96
262.409	72.87
262.626	-15.19
262.842	44.2
263.058	-17.24
263.274	109.74
263.49	1.19
263.707	31.91
263.923	7.34
264.139	21.67
264.355	-2.9
264.571	85.16
264.787	21.67
265.004	27.82
265.22	81.07
265.436	46.25
265.652	83.11
265.868	33.96
266.084	-9.05
266.3	-11.09
266.516	15.53
266.732	33.96
266.948	27.82
267.164	21.67
267.38	-7
267.596	44.2
267.812	-0.85
268.028	74.92
268.244	9.39
268.46	25.77
268.676	29.87
268.892	1.19
269.108	-21.33
269.324	44.2
269.54	25.77
269.756	9.39
269.972	19.63
270.188	68.78
270.403	-86.87
270.619	74.92
270.835	23.72
271.051	7.34
271.267	64.68
271.483	31.91
271.698	-9.05
271.914	54.44
272.13	-45.91
272.346	83.11
272.562	60.59
272.777	-25.43
272.993	3.24
273.209	56.49
273.425	17.58
273.64	23.72
273.856	19.63
274.072	-7
274.287	7.34
274.503	9.39
274.719	-54.1
274.934	19.63
275.15	25.77
275.366	62.63
275.581	-4.95
275.797	17.58
276.012	7.34
276.228	31.91
276.444	1.19
276.659	3.24
276.875	-11.09
277.09	85.16
277.306	-2.9
277.521	25.77
277.737	-7
277.952	48.3
278.168	40.11
278.383	44.2
278.599	72.87
278.814	1.19
279.03	23.72
279.245	109.74
279.461	81.07
279.676	56.49
279.892	-7
280.107	23.72
280.322	-4.95
280.538	25.77
280.753	17.58
280.969	119.98
281.184	3.24
281.399	-50
281.615	3.24
281.83	27.82
282.045	-41.81
282.26	40.11
282.476	40.11
282.691	11.43
282.906	27.82
283.122	93.35
283.337	46.25
283.552	87.21
283.767	-35.67
283.983	9.39
284.198	-4.95
284.413	-39.76
284.628	42.15
284.843	3.24
285.058	23.72
285.274	58.54
285.489	-45.91
285.704	11.43
285.919	81.07
286.134	27.82
286.349	1.19
286.564	-21.33
286.779	-15.19
286.995	33.96
287.21	3.24
287.425	40.11
287.64	-47.96
287.855	-7
288.07	40.11
288.285	70.83
288.5	17.58
288.715	27.82
288.93	-0.85
289.145	-0.85
289.36	-50
289.575	-7
289.79	23.72
290.004	29.87
290.219	25.77
290.434	103.59
290.649	3.24
290.864	38.06
291.079	93.35
291.294	81.07
291.509	40.11
291.724	70.83
291.938	11.43
292.153	58.54
292.368	-25.43
292.583	117.93
292.798	-9.05
293.012	9.39
293.227	-13.14
293.442	48.3
293.657	60.59
293.871	-62.29
294.086	40.11
294.301	48.3
294.516	83.11
294.73	-56.15
294.945	-58.2
295.16	7.34
295.374	3.24
295.589	1.19
295.804	1.19
296.018	11.43
296.233	11.43
296.447	19.63
296.662	-17.24
296.877	-66.39
297.091	-31.57
297.306	66.73
297.52	36.01
297.735	72.87
297.949	17.58
298.164	54.44
298.378	70.83
298.593	3.24
298.807	-64.34
299.022	81.07
299.236	81.07
299.451	11.43
299.665	36.01
299.88	25.77
300.094	66.73
300.309	58.54
300.523	-11.09
300.737	60.59
300.952	11.43
301.166	44.2
301.381	3.24
301.595	25.77
301.809	36.01
302.024	5.29
302.238	31.91
302.452	33.96
302.667	-7
302.881	46.25
303.095	31.91
303.309	-11.09
303.524	-29.52
303.738	7.34
303.952	48.3
304.166	132.26
304.381	-21.33
304.595	9.39
304.809	48.3
305.023	40.11
305.237	33.96
305.452	62.63
305.666	23.72
305.88	5.29
306.094	91.31
306.308	46.25
306.522	1.19
306.736	7.34
306.95	1.19
307.164	38.06
307.379	27.82
307.593	99.5
307.807	-11.09
308.021	42.15
308.235	-21.33
308.449	-31.57
308.663	3.24
308.877	79.02
309.091	-25.43
309.305	-0.85
309.519	46.25
309.733	-13.14
309.947	25.77
310.161	62.63
310.374	58.54
310.588	58.54
310.802	33.96
311.016	31.91
311.23	33.96
311.444	50.35
311.658	19.63
311.872	27.82
312.085	40.11
312.299	54.44
312.513	38.06
312.727	-52.05
312.941	33.96
313.154	-0.85
313.368	44.2
313.582	29.87
313.796	107.69
314.009	11.43
314.223	52.39
314.437	101.55
314.651	-2.9
314.864	-21.33
315.078	76.97
315.292	36.01
315.505	3.24
315.719	38.06
315.933	128.17
316.146	-0.85
316.36	72.87
316.573	-0.85
316.787	27.82
317.001	9.39
317.214	19.63
317.428	19.63
317.641	56.49
317.855	46.25
318.068	-19.29
318.282	9.39
318.495	15.53
318.709	9.39
318.922	-25.43
319.136	54.44
319.349	-23.38
319.563	107.69
319.776	60.59
319.99	7.34
320.203	33.96
320.417	13.48
320.63	36.01
320.843	25.77
321.057	74.92
321.27	56.49
321.483	48.3
321.697	7.34
321.91	60.59
322.124	11.43
322.337	81.07
322.55	-23.38
322.763	3.24
322.977	27.82
323.19	81.07
323.403	64.68
323.617	3.24
323.83	5.29
324.043	48.3
324.256	1.19
324.469	9.39
324.683	-7
324.896	7.34
325.109	50.35
325.322	-11.09
325.535	113.83
325.748	31.91
325.962	7.34
326.175	36.01
326.388	21.67
326.601	81.07
326.814	64.68
327.027	29.87
327.24	64.68
327.453	25.77
327.666	105.64
327.879	19.63
328.092	23.72
328.305	66.73
328.518	33.96
328.731	46.25
328.944	42.15
329.157	81.07
329.37	-39.76
329.583	64.68
329.796	50.35
330.009	17.58
330.222	11.43
330.435	17.58
330.648	23.72
330.861	-4.95
331.073	56.49
331.286	60.59
331.499	15.53
331.712	27.82
331.925	-9.05
332.138	-33.62
332.35	76.97
332.563	7.34
332.776	54.44
332.989	29.87
333.202	54.44
333.414	66.73
333.627	23.72
333.84	25.77
334.053	31.91
334.265	23.72
334.478	113.83
334.691	68.78
334.903	23.72
335.116	19.63
335.329	5.29
335.541	23.72
335.754	-70.48
335.966	-19.29
336.179	72.87
336.392	46.25
336.604	66.73
336.817	31.91
337.029	3.24
337.242	-13.14
337.454	89.26
337.667	56.49
337.88	42.15
338.092	58.54
338.305	95.4
338.517	19.63
338.729	25.77
338.942	19.63
339.154	-33.62
339.367	46.25
339.579	97.45
339.792	15.53
340.004	83.11
340.217	27.82
340.429	31.91
340.641	48.3
340.854	-7
341.066	36.01
341.278	44.2
341.491	23.72
341.703	-7
341.915	42.15
342.128	36.01
342.34	5.29
342.552	64.68
342.764	3.24
342.977	-21.33
343.189	27.82
343.401	-2.9
343.613	25.77
343.826	7.34
344.038	54.44
344.25	76.97
344.462	15.53
344.674	40.11
344.886	33.96
345.099	72.87
345.311	31.91
345.523	9.39
345.735	-11.09
345.947	-9.05
346.159	29.87
346.371	40.11
346.583	19.63
346.795	81.07
347.007	17.58
347.219	70.83
347.431	21.67
347.643	89.26
347.855	107.69
348.067	93.35
348.279	7.34
348.491	64.68
348.703	25.77
348.915	48.3
349.127	33.96
349.339	109.74
349.551	25.77
349.763	89.26
349.975	17.58
350.187	52.39
350.399	68.78
350.61	89.26
350.822	85.16
351.034	42.15
351.246	-17.24
351.458	70.83
351.669	29.87
351.881	7.34
352.093	-41.81
352.305	29.87
352.517	46.25
352.728	56.49
352.94	-15.19
353.152	40.11
353.363	70.83
353.575	27.82
353.787	-7
353.999	33.96
354.21	40.11
354.422	25.77
354.633	25.77
354.845	54.44
355.057	-19.29
355.268	-15.19
355.48	25.77
355.692	93.35
355.903	56.49
356.115	-66.39
356.326	15.53
356.538	54.44
356.749	15.53
356.961	66.73
357.172	36.01
357.384	33.96
357.595	38.06
357.807	48.3
358.018	58.54
358.23	64.68
358.441	70.83
358.653	97.45
358.864	33.96
359.075	74.92
359.287	31.91
359.498	44.2
359.709	76.97
359.921	56.49
360.132	58.54
360.344	31.91
360.555	44.2
360.766	68.78
360.977	27.82
361.189	29.87
361.4	27.82
361.611	-17.24
361.823	74.92
362.034	64.68
362.245	29.87
362.456	56.49
362.667	-9.05
362.879	40.11
363.09	15.53
363.301	13.48
363.512	23.72
363.723	31.91
363.935	23.72
364.146	33.96
364.357	33.96
364.568	83.11
364.779	99.5
364.99	19.63
365.201	62.63
365.412	-19.29
365.623	36.01
365.834	76.97
366.045	54.44
366.256	-17.24
366.467	40.11
366.678	31.91
366.889	52.39
367.1	-13.14
367.311	-13.14
367.522	44.2
367.733	64.68
367.944	-4.95
368.155	54.44
368.366	74.92
368.577	19.63
368.788	31.91
368.999	13.48
369.209	48.3
369.42	56.49
369.631	36.01
369.842	1.19
370.053	33.96
370.264	9.39
370.474	-37.72
370.685	31.91
370.896	3.24
371.107	-17.24
371.317	-17.24
371.528	64.68
371.739	23.72
371.95	115.88
372.16	105.64
372.371	89.26
372.582	44.2
372.792	31.91
373.003	68.78
373.214	50.35
373.424	27.82
373.635	66.73
373.846	-17.24
374.056	31.91
374.267	36.01
374.477	89.26
374.688	56.49
374.898	31.91
375.109	11.43
375.319	54.44
375.53	60.59
375.74	66.73
375.951	31.91
376.161	29.87
376.372	-9.05
376.582	62.63
376.793	99.5
377.003	70.83
377.214	-15.19
377.424	-4.95
377.635	-21.33
377.845	76.97
378.055	36.01
378.266	27.82
378.476	68.78
378.686	54.44
378.897	7.34
379.107	68.78
379.317	21.67
379.528	38.06
379.738	56.49
379.948	42.15
380.158	72.87
380.369	87.21
380.579	83.11
380.789	21.67
380.999	44.2
381.21	95.4
381.42	7.34
381.63	-23.38
381.84	50.35
382.05	109.74
382.261	33.96
382.471	81.07
382.681	48.3
382.891	33.96
383.101	23.72
383.311	56.49
383.521	15.53
383.731	31.91
383.941	113.83
384.151	40.11
384.361	74.92
384.571	13.48
384.781	19.63
384.991	79.02
385.201	70.83
385.411	72.87
385.621	-2.9
385.831	68.78
386.041	60.59
386.251	44.2
386.461	-0.85
386.671	19.63
386.881	36.01
387.091	13.48
387.301	60.59
387.511	83.11
387.72	68.78
387.93	115.88
388.14	66.73
388.35	44.2
388.56	76.97
388.769	17.58
388.979	117.93
389.189	38.06
389.399	83.11
389.609	132.26
389.818	74.92
390.028	21.67
390.238	23.72
390.447	58.54
390.657	58.54
390.867	-31.57
391.076	40.11
391.286	85.16
391.496	15.53
391.705	-2.9
391.915	99.5
392.125	101.55
392.334	68.78
392.544	36.01
392.753	60.59
392.963	19.63
393.172	54.44
393.382	79.02
393.591	99.5
393.801	107.69
394.01	89.26
394.22	60.59
394.429	62.63
394.639	95.4
394.848	97.45
395.058	128.17
395.267	79.02
395.477	58.54
395.686	107.69
395.895	44.2
396.105	66.73
396.314	158.89
396.524	72.87
396.733	119.98
396.942	134.31
397.152	62.63
397.361	56.49
397.57	99.5
397.78	21.67
397.989	142.5
398.198	81.07
398.407	29.87
398.617	54.44
398.826	193.7
399.035	72.87
399.244	72.87
399.453	76.97
399.663	122.02
399.872	89.26
400.081	165.03
400.29	79.02
400.499	70.83
400.708	115.88
400.917	46.25
401.127	142.5
401.336	126.12
401.545	142.5
401.754	132.26
401.963	107.69
402.172	72.87
402.381	42.15
402.59	99.5
402.799	189.61
403.008	101.55
403.217	109.74
403.426	146.6
403.635	134.31
403.844	136.36
404.053	189.61
404.262	119.98
404.471	167.08
404.68	169.13
404.888	109.74
405.097	119.98
405.306	128.17
405.515	222.38
405.724	208.04
405.933	199.85
406.142	156.84
406.35	234.66
406.559	216.23
406.768	160.94
406.977	187.56
407.185	203.94
407.394	173.22
407.603	246.95
407.812	220.33
408.02	128.17
408.229	275.62
408.438	226.47
408.646	269.48
408.855	228.52
409.064	273.57
409.272	216.23
409.481	281.77
409.69	310.44
409.898	230.57
410.107	326.82
410.315	296.1
410.524	320.68
410.733	373.92
410.941	365.73
411.15	384.16
411.358	425.12
411.567	404.64
411.775	367.78
411.984	349.35
412.192	429.22
412.401	459.94
412.609	478.37
412.818	421.03
413.026	447.65
413.234	515.23
413.443	562.34
413.651	588.96
413.86	572.58
414.068	560.29
414.276	609.44
414.485	601.25
414.693	640.16
414.901	728.22
415.11	771.23
415.318	746.66
415.526	744.61
415.734	707.74
415.943	746.66
416.151	830.62
416.359	771.23
416.567	808.09
416.776	787.61
416.984	916.64
417.192	908.44
417.4	951.45
417.608	969.88
417.817	955.55
418.025	1055.9
418.233	1105.05
418.441	1168.54
418.649	1193.11
418.857	1119.39
419.065	1203.35
419.273	1344.66
419.481	1254.55
419.689	1389.72
419.897	1410.2
420.105	1531.03
420.313	1457.3
420.521	1543.32
420.729	1590.42
420.937	1651.86
421.145	1760.4
421.353	1741.97
421.561	1909.9
421.769	1748.11
421.977	1887.37
422.185	2014.35
422.393	2088.07
422.601	2206.86
422.809	2245.77
423.017	2114.7
423.224	2256.01
423.432	2333.83
423.64	2421.89
423.848	2643.07
424.056	2616.45
424.263	2745.47
424.471	2761.86
424.679	2839.68
424.887	2919.55
425.094	3073.15
425.302	3089.53
425.51	3255.42
425.718	3359.86
425.925	3353.72
426.133	3452.02
426.341	3585.14
426.548	3730.55
426.756	3757.17
426.964	3849.33
427.171	4054.12
427.379	4062.32
427.586	4232.3
427.794	4250.73
428.001	4709.47
428.209	4707.43
428.417	4594.79
428.624	5055.58
428.832	5045.34
429.039	5049.44
429.247	4940.9
429.454	5403.74
429.662	5655.64
429.869	5356.63
430.076	5735.51
430.284	5669.97
430.491	5848.15
430.699	6014.03
430.906	6136.91
431.114	6290.51
431.321	6460.49
431.528	6706.24
431.736	6952
431.943	7310.4
432.15	7142.46
432.358	7273.53
432.565	7642.17
432.772	7347.26
432.979	7945.27
433.187	8307.76
433.394	8059.95
433.601	8846.37
433.808	8639.53
434.016	8750.12
434.223	9120.8
434.43	9524.25
434.637	9266.21
434.844	9798.68
435.052	10279.95
435.259	10071.06
435.466	10118.16
435.673	10181.65
435.88	10855.43
436.087	11314.17
436.294	11351.04
436.501	11117.57
436.708	11299.84
436.915	11535.35
437.122	12030.96
437.329	12151.79
437.537	12516.33
437.743	12952.55
437.95	12776.42
438.157	13417.44
438.364	13757.4
438.571	13743.06
438.778	13671.39
438.985	15018.95
439.192	14513.1
439.399	15043.53
439.606	14431.18
439.813	15258.56
440.02	16468.91
440.227	15973.3
440.433	15918.01
440.64	16712.62
440.847	16069.56
441.054	16731.05
441.261	17660.83
441.467	17652.64
441.674	17968.02
441.881	18543.5
442.088	18598.8
442.294	18447.25
442.501	18858.89
442.708	19252.1
442.914	20439.92
443.121	21048.17
443.328	20534.13
443.534	21730.14
443.741	20958.06
443.948	21166.95
444.154	22469.46
444.361	22135.64
444.568	22477.65
444.774	22432.6
444.981	22772.56
445.187	23427.91
445.394	24316.73
445.6	23987
445.807	26424.09
446.013	25033.52
446.22	25770.79
446.426	26829.59
446.633	26909.46
446.839	27726.6
447.046	26637.08
447.252	28326.65
447.459	28123.9
447.665	28046.08
447.871	29287.15
448.078	30710.49
448.284	29123.31
448.491	29676.26
448.697	31013.59
448.903	31636.17
449.11	31888.07
449.316	31279.82
449.522	31519.43
449.728	32455.36
449.935	32930.48
450.141	32778.93
450.347	33677.99
450.553	32715.45
450.76	33245.87
450.966	33995.43
451.172	33637.03
451.378	34540.19
451.584	34106.02
451.791	34763.42
451.997	34802.33
452.203	34853.53
452.409	35256.98
452.615	35052.18
452.821	33577.64
453.027	33352.37
453.233	34640.54
453.44	33546.92
453.646	33952.42
453.852	34050.72
454.058	34923.16
454.264	33835.69
454.47	34333.34
454.676	33575.59
454.882	34826.9
455.088	32082.63
455.294	32176.83
455.5	32494.27
455.705	33372.85
455.911	31523.53
456.117	31171.28
456.323	30735.06
456.529	29108.97
456.735	30409.43
456.941	29754.08
457.147	29244.14
457.352	28383.99
457.558	27677.44
457.764	28265.21
457.97	27396.87
458.176	26712.85
458.381	26862.35
458.587	25807.65
458.793	25748.26
458.999	24402.74
459.204	26211.1
459.41	25228.07
459.616	23589.7
459.821	23868.22
460.027	23710.53
460.233	23102.28
460.438	22180.7
460.644	22285.14
460.85	21334.89
461.055	20988.78
461.261	21099.37
461.466	19452.8
461.672	18992.01
461.878	20329.33
462.083	18916.23
462.289	18629.52
462.494	18373.52
462.7	17752.99
462.905	17363.87
463.111	17525.66
463.316	17644.45
463.522	17439.65
463.727	17628.06
463.932	17275.81
464.138	17421.22
464.343	17394.59
464.549	16737.2
464.754	17298.34
464.959	17296.29
465.165	17034.15
465.37	16386.99
465.575	15768.51
465.781	16679.85
465.986	16702.38
466.191	16196.53
466.397	16036.79
466.602	15096.77
466.807	15479.74
467.012	15858.62
467.218	15444.93
467.423	15270.85
467.628	15582.14
467.833	16137.14
468.038	15596.48
468.244	15383.49
468.449	15727.55
