Data from USB4F104151__97__13-54-37-449.txt Node

Date: Thu Mar 13 13:54:37 EDT 2025
User: louis
Spectrometer: USB4F10415
Trigger mode: 4
Integration Time (sec): 1.000000E-2
Scans to average: 1
Electric dark correction enabled: true
Nonlinearity correction enabled: false
Boxcar width: 0
XAxis mode: Wavelengths
Number of Pixels in Spectrum: 3648
>>>>>Begin Spectral Data<<<<<
178.204	-83.11
178.424	-83.11
178.644	-83.11
178.864	-76.97
179.084	-25.77
179.304	13.14
179.524	-9.39
179.744	-19.63
179.964	21.33
180.184	-15.53
180.404	-33.96
180.624	66.39
180.844	-1.19
181.064	-33.96
181.283	-17.58
181.503	84.82
181.723	-54.44
181.943	-38.06
182.163	21.33
182.383	-60.59
182.602	19.29
182.822	39.76
183.042	23.38
183.262	29.52
183.482	-3.24
183.701	23.38
183.921	17.24
184.141	2.9
184.361	37.72
184.58	4.95
184.8	-81.07
185.02	0.85
185.239	15.19
185.459	-11.43
185.679	19.29
185.898	-23.72
186.118	-23.72
186.338	25.43
186.557	37.72
186.777	13.14
186.997	-33.96
187.216	72.53
187.436	15.19
187.655	60.24
187.875	4.95
188.095	37.72
188.314	56.15
188.534	90.96
188.753	13.14
188.973	13.14
189.192	-1.19
189.412	25.43
189.631	13.14
189.851	11.09
190.07	-33.96
190.29	-31.91
190.509	93.01
190.729	-42.15
190.948	64.34
191.168	29.52
191.387	-19.63
191.607	45.91
191.826	35.67
192.045	-38.06
192.265	27.48
192.484	31.57
192.704	19.29
192.923	-56.49
193.142	15.19
193.362	7
193.581	-46.25
193.8	47.96
194.02	72.53
194.239	-38.06
194.458	-3.24
194.678	7
194.897	25.43
195.116	45.91
195.335	9.05
195.555	50
195.774	-9.39
195.993	13.14
196.212	0.85
196.432	13.14
196.651	-23.72
196.87	-9.39
197.089	-1.19
197.308	41.81
197.528	7
197.747	56.15
197.966	4.95
198.185	9.05
198.404	-11.43
198.623	56.15
198.842	-66.73
199.062	13.14
199.281	-23.72
199.5	39.76
199.719	39.76
199.938	72.53
200.157	33.62
200.376	7
200.595	7
200.814	41.81
201.033	-64.68
201.252	17.24
201.471	-36.01
201.69	-31.91
201.909	-3.24
202.128	47.96
202.347	37.72
202.566	25.43
202.785	2.9
203.004	2.9
203.223	31.57
203.442	-13.48
203.661	29.52
203.879	9.05
204.098	13.14
204.317	50
204.536	-9.39
204.755	52.05
204.974	74.58
205.193	17.24
205.411	19.29
205.63	54.1
205.849	-29.87
206.068	50
206.287	11.09
206.505	-3.24
206.724	-11.43
206.943	25.43
207.162	-68.78
207.381	0.85
207.599	74.58
207.818	-25.77
208.037	19.29
208.255	-3.24
208.474	74.58
208.693	11.09
208.911	-33.96
209.13	19.29
209.349	-7.34
209.567	35.67
209.786	23.38
210.005	39.76
210.223	2.9
210.442	-25.77
210.661	29.52
210.879	2.9
211.098	-21.67
211.316	72.53
211.535	50
211.753	-52.39
211.972	-23.72
212.191	-1.19
212.409	-25.77
212.628	21.33
212.846	23.38
213.065	-9.39
213.283	60.24
213.502	7
213.72	-40.11
213.938	-1.19
214.157	50
214.375	13.14
214.594	19.29
214.812	70.48
215.031	-60.59
215.249	-54.44
215.467	72.53
215.686	21.33
215.904	25.43
216.122	50
216.341	11.09
216.559	29.52
216.778	50
216.996	39.76
217.214	64.34
217.432	2.9
217.651	-29.87
217.869	-31.91
218.087	-5.29
218.306	74.58
218.524	17.24
218.742	19.29
218.96	-17.58
219.179	131.92
219.397	-31.91
219.615	17.24
219.833	62.29
220.051	-29.87
220.27	25.43
220.488	39.76
220.706	-25.77
220.924	4.95
221.142	-46.25
221.36	82.77
221.578	47.96
221.796	-31.91
222.015	-11.43
222.233	25.43
222.451	54.1
222.669	23.38
222.887	19.29
223.105	54.1
223.323	2.9
223.541	-1.19
223.759	23.38
223.977	37.72
224.195	60.24
224.413	45.91
224.631	0.85
224.849	45.91
225.067	11.09
225.285	39.76
225.503	119.64
225.721	-52.39
225.939	25.43
226.157	37.72
226.375	27.48
226.592	-40.11
226.81	58.2
227.028	-19.63
227.246	23.38
227.464	-3.24
227.682	7
227.9	50
228.117	-29.87
228.335	31.57
228.553	37.72
228.771	-13.48
228.989	-15.53
229.206	31.57
229.424	9.05
229.642	-9.39
229.86	-29.87
230.077	56.15
230.295	-7.34
230.513	78.68
230.731	52.05
230.948	0.85
231.166	-48.3
231.384	-56.49
231.601	27.48
231.819	11.09
232.037	-15.53
232.254	-44.2
232.472	-15.53
232.689	60.24
232.907	41.81
233.125	-13.48
233.342	27.48
233.56	-48.3
233.777	52.05
233.995	37.72
234.213	45.91
234.43	33.62
234.648	72.53
234.865	-17.58
235.083	-25.77
235.3	2.9
235.518	54.1
235.735	37.72
235.953	76.63
236.17	17.24
236.388	-9.39
236.605	33.62
236.822	0.85
237.04	-15.53
237.257	76.63
237.475	-23.72
237.692	15.19
237.909	52.05
238.127	-38.06
238.344	25.43
238.562	33.62
238.779	-5.29
238.996	29.52
239.214	50
239.431	-25.77
239.648	-15.53
239.865	13.14
240.083	78.68
240.3	60.24
240.517	-1.19
240.735	74.58
240.952	29.52
241.169	70.48
241.386	29.52
241.603	25.43
241.821	-11.43
242.038	76.63
242.255	11.09
242.472	9.05
242.689	47.96
242.907	19.29
243.124	0.85
243.341	2.9
243.558	52.05
243.775	62.29
243.992	-7.34
244.209	39.76
244.426	9.05
244.643	82.77
244.86	64.34
245.078	9.05
245.295	-3.24
245.512	-15.53
245.729	64.34
245.946	56.15
246.163	-3.24
246.38	50
246.597	2.9
246.814	72.53
247.031	27.48
247.248	23.38
247.464	13.14
247.681	11.09
247.898	47.96
248.115	21.33
248.332	31.57
248.549	15.19
248.766	56.15
248.983	33.62
249.2	11.09
249.417	33.62
249.633	23.38
249.85	27.48
250.067	-38.06
250.284	64.34
250.501	29.52
250.717	47.96
250.934	21.33
251.151	17.24
251.368	0.85
251.585	-31.91
251.801	60.24
252.018	19.29
252.235	56.15
252.451	113.49
252.668	2.9
252.885	25.43
253.102	84.82
253.318	9.05
253.535	7
253.752	21.33
253.968	31.57
254.185	58.2
254.401	-5.29
254.618	72.53
254.835	-5.29
255.051	21.33
255.268	29.52
255.484	50
255.701	11.09
255.917	-17.58
256.134	25.43
256.351	-33.96
256.567	35.67
256.784	31.57
257	4.95
257.217	23.38
257.433	95.06
257.65	50
257.866	82.77
258.082	2.9
258.299	39.76
258.515	-9.39
258.732	29.52
258.948	23.38
259.165	-1.19
259.381	23.38
259.597	15.19
259.814	19.29
260.03	-29.87
260.246	0.85
260.463	43.86
260.679	41.81
260.895	-27.82
261.112	47.96
261.328	7
261.544	-3.24
261.761	-40.11
261.977	-3.24
262.193	60.24
262.409	31.57
262.626	-11.43
262.842	0.85
263.058	-27.82
263.274	-29.87
263.49	0.85
263.707	33.62
263.923	-17.58
264.139	-19.63
264.355	60.24
264.571	70.48
264.787	29.52
265.004	33.62
265.22	29.52
265.436	15.19
265.652	76.63
265.868	19.29
266.084	39.76
266.3	-5.29
266.516	-58.54
266.732	58.2
266.948	0.85
267.164	-23.72
267.38	7
267.596	-25.77
267.812	82.77
268.028	9.05
268.244	-36.01
268.46	25.43
268.676	-66.73
268.892	19.29
269.108	47.96
269.324	-27.82
269.54	35.67
269.756	23.38
269.972	-11.43
270.188	2.9
270.403	-7.34
270.619	-5.29
270.835	-95.4
271.051	17.24
271.267	107.35
271.483	72.53
271.698	23.38
271.914	76.63
272.13	-9.39
272.346	54.1
272.562	50
272.777	4.95
272.993	-31.91
273.209	-9.39
273.425	-50.35
273.64	39.76
273.856	60.24
274.072	64.34
274.287	7
274.503	17.24
274.719	37.72
274.934	50
275.15	13.14
275.366	80.72
275.581	0.85
275.797	105.3
276.012	58.2
276.228	-62.63
276.444	13.14
276.659	-7.34
276.875	105.3
277.09	52.05
277.306	-13.48
277.521	62.29
277.737	-40.11
277.952	39.76
278.168	-31.91
278.383	31.57
278.599	13.14
278.814	-7.34
279.03	-15.53
279.245	17.24
279.461	17.24
279.676	31.57
279.892	60.24
280.107	0.85
280.322	-19.63
280.538	45.91
280.753	31.57
280.969	99.16
281.184	-5.29
281.399	-99.5
281.615	17.24
281.83	39.76
282.045	52.05
282.26	33.62
282.476	-25.77
282.691	78.68
282.906	23.38
283.122	-42.15
283.337	-3.24
283.552	33.62
283.767	-25.77
283.983	58.2
284.198	-52.39
284.413	13.14
284.628	-29.87
284.843	-21.67
285.058	68.44
285.274	35.67
285.489	-7.34
285.704	-19.63
285.919	-11.43
286.134	43.86
286.349	41.81
286.564	45.91
286.779	15.19
286.995	62.29
287.21	7
287.425	13.14
287.64	31.57
287.855	86.87
288.07	27.48
288.285	23.38
288.5	-70.83
288.715	15.19
288.93	68.44
289.145	45.91
289.36	-19.63
289.575	-19.63
289.79	17.24
290.004	25.43
290.219	13.14
290.434	72.53
290.649	45.91
290.864	76.63
291.079	-17.58
291.294	101.2
291.509	-17.58
291.724	25.43
291.938	35.67
292.153	76.63
292.368	-76.97
292.583	23.38
292.798	70.48
293.012	31.57
293.227	37.72
293.442	-3.24
293.657	17.24
293.871	-1.19
294.086	47.96
294.301	62.29
294.516	54.1
294.73	29.52
294.945	78.68
295.16	72.53
295.374	0.85
295.589	11.09
295.804	17.24
296.018	-91.31
296.233	82.77
296.447	-44.2
296.662	72.53
296.877	-19.63
297.091	-27.82
297.306	15.19
297.52	-3.24
297.735	21.33
297.949	39.76
298.164	64.34
298.378	68.44
298.593	-7.34
298.807	-33.96
299.022	50
299.236	39.76
299.451	13.14
299.665	37.72
299.88	50
300.094	56.15
300.309	29.52
300.523	45.91
300.737	82.77
300.952	11.09
301.166	35.67
301.381	-7.34
301.595	-85.16
301.809	68.44
302.024	-9.39
302.238	-3.24
302.452	31.57
302.667	-9.39
302.881	97.11
303.095	86.87
303.309	72.53
303.524	-3.24
303.738	56.15
303.952	-3.24
304.166	66.39
304.381	17.24
304.595	11.09
304.809	19.29
305.023	66.39
305.237	41.81
305.452	19.29
305.666	33.62
305.88	41.81
306.094	17.24
306.308	39.76
306.522	47.96
306.736	60.24
306.95	60.24
307.164	-5.29
307.379	-7.34
307.593	-25.77
307.807	0.85
308.021	103.25
308.235	31.57
308.449	35.67
308.663	74.58
308.877	9.05
309.091	88.92
309.305	64.34
309.519	35.67
309.733	105.3
309.947	-62.63
310.161	-38.06
310.374	35.67
310.588	35.67
310.802	25.43
311.016	72.53
311.23	62.29
311.444	13.14
311.658	17.24
311.872	11.09
312.085	9.05
312.299	0.85
312.513	-56.49
312.727	-5.29
312.941	-17.58
313.154	-9.39
313.368	31.57
313.582	80.72
313.796	31.57
314.009	-52.39
314.223	70.48
314.437	17.24
314.651	25.43
314.864	43.86
315.078	15.19
315.292	54.1
315.505	39.76
315.719	54.1
315.933	58.2
316.146	11.09
316.36	7
316.573	-1.19
316.787	27.48
317.001	-19.63
317.214	-11.43
317.428	-1.19
317.641	45.91
317.855	2.9
318.068	45.91
318.282	95.06
318.495	-25.77
318.709	-13.48
318.922	21.33
319.136	47.96
319.349	-3.24
319.563	80.72
319.776	37.72
319.99	11.09
320.203	43.86
320.417	72.53
320.63	17.24
320.843	103.25
321.057	23.38
321.27	-5.29
321.483	-25.77
321.697	95.06
321.91	29.52
322.124	-38.06
322.337	50
322.55	39.76
322.763	-23.72
322.977	-70.83
323.19	-5.29
323.403	35.67
323.617	74.58
323.83	72.53
324.043	60.24
324.256	-11.43
324.469	52.05
324.683	23.38
324.896	47.96
325.109	80.72
325.322	58.2
325.535	52.05
325.748	45.91
325.962	95.06
326.175	43.86
326.388	41.81
326.601	-3.24
326.814	33.62
327.027	2.9
327.24	41.81
327.453	4.95
327.666	17.24
327.879	13.14
328.092	23.38
328.305	47.96
328.518	39.76
328.731	35.67
328.944	56.15
329.157	4.95
329.37	-15.53
329.583	-7.34
329.796	13.14
330.009	52.05
330.222	52.05
330.435	70.48
330.648	99.16
330.861	-60.59
331.073	54.1
331.286	39.76
331.499	13.14
331.712	33.62
331.925	35.67
332.138	99.16
332.35	-13.48
332.563	9.05
332.776	117.59
332.989	35.67
333.202	-15.53
333.414	58.2
333.627	37.72
333.84	50
334.053	93.01
334.265	82.77
334.478	99.16
334.691	58.2
334.903	54.1
335.116	25.43
335.329	72.53
335.541	37.72
335.754	15.19
335.966	-19.63
336.179	47.96
336.392	2.9
336.604	31.57
336.817	25.43
337.029	0.85
337.242	0.85
337.454	9.05
337.667	25.43
337.88	25.43
338.092	29.52
338.305	41.81
338.517	74.58
338.729	52.05
338.942	54.1
339.154	19.29
339.367	31.57
339.579	23.38
339.792	-5.29
340.004	121.68
340.217	27.48
340.429	103.25
340.641	19.29
340.854	66.39
341.066	72.53
341.278	76.63
341.491	64.34
341.703	45.91
341.915	27.48
342.128	-11.43
342.34	-9.39
342.552	-36.01
342.764	80.72
342.977	31.57
343.189	56.15
343.401	78.68
343.613	58.2
343.826	74.58
344.038	50
344.25	21.33
344.462	27.48
344.674	41.81
344.886	86.87
345.099	21.33
345.311	4.95
345.523	56.15
345.735	-5.29
345.947	15.19
346.159	13.14
346.371	31.57
346.583	93.01
346.795	41.81
347.007	76.63
347.219	-7.34
347.431	41.81
347.643	25.43
347.855	103.25
348.067	76.63
348.279	50
348.491	54.1
348.703	52.05
348.915	17.24
349.127	7
349.339	68.44
349.551	39.76
349.763	31.57
349.975	47.96
350.187	50
350.399	21.33
350.61	35.67
350.822	-33.96
351.034	-31.91
351.246	-31.91
351.458	80.72
351.669	23.38
351.881	-25.77
352.093	47.96
352.305	88.92
352.517	27.48
352.728	9.05
352.94	70.48
353.152	17.24
353.363	58.2
353.575	19.29
353.787	39.76
353.999	45.91
354.21	-25.77
354.422	103.25
354.633	29.52
354.845	60.24
355.057	-1.19
355.268	19.29
355.48	39.76
355.692	27.48
355.903	-3.24
356.115	-11.43
356.326	-9.39
356.538	60.24
356.749	23.38
356.961	33.62
357.172	62.29
357.384	47.96
357.595	58.2
357.807	37.72
358.018	2.9
358.23	37.72
358.441	64.34
358.653	45.91
358.864	35.67
359.075	27.48
359.287	-1.19
359.498	111.44
359.709	39.76
359.921	-38.06
360.132	33.62
360.344	15.19
360.555	47.96
360.766	47.96
360.977	47.96
361.189	-15.53
361.4	-62.63
361.611	15.19
361.823	74.58
362.034	101.2
362.245	41.81
362.456	-21.67
362.667	115.54
362.879	-23.72
363.09	29.52
363.301	80.72
363.512	0.85
363.723	56.15
363.935	33.62
364.146	60.24
364.357	-50.35
364.568	60.24
364.779	0.85
364.99	86.87
365.201	23.38
365.412	90.96
365.623	23.38
365.834	15.19
366.045	58.2
366.256	58.2
366.467	-5.29
366.678	90.96
366.889	9.05
367.1	-48.3
367.311	17.24
367.522	-15.53
367.733	41.81
367.944	37.72
368.155	21.33
368.366	27.48
368.577	70.48
368.788	115.54
368.999	41.81
369.209	-1.19
369.42	-3.24
369.631	25.43
369.842	31.57
370.053	-9.39
370.264	95.06
370.474	39.76
370.685	70.48
370.896	29.52
371.107	33.62
371.317	-5.29
371.528	27.48
371.739	23.38
371.95	35.67
372.16	39.76
372.371	72.53
372.582	47.96
372.792	19.29
373.003	-29.87
373.214	27.48
373.424	7
373.635	133.97
373.846	33.62
374.056	4.95
374.267	56.15
374.477	60.24
374.688	68.44
374.898	66.39
375.109	11.09
375.319	-15.53
375.53	97.11
375.74	2.9
375.951	25.43
376.161	60.24
376.372	41.81
376.582	47.96
376.793	58.2
377.003	109.4
377.214	45.91
377.424	9.05
377.635	58.2
377.845	52.05
378.055	54.1
378.266	117.59
378.476	56.15
378.686	56.15
378.897	17.24
379.107	-1.19
379.317	-15.53
379.528	11.09
379.738	23.38
379.948	-9.39
380.158	109.4
380.369	76.63
380.579	54.1
380.789	66.39
380.999	50
381.21	56.15
381.42	19.29
381.63	-1.19
381.84	111.44
382.05	70.48
382.261	47.96
382.471	15.19
382.681	25.43
382.891	52.05
383.101	101.2
383.311	39.76
383.521	56.15
383.731	52.05
383.941	74.58
384.151	39.76
384.361	45.91
384.571	-66.73
384.781	50
384.991	35.67
385.201	119.64
385.411	-7.34
385.621	76.63
385.831	37.72
386.041	23.38
386.251	50
386.461	72.53
386.671	66.39
386.881	-21.67
387.091	54.1
387.301	76.63
387.511	39.76
387.72	76.63
387.93	4.95
388.14	47.96
388.35	52.05
388.56	60.24
388.769	64.34
388.979	41.81
389.189	80.72
389.399	2.9
389.609	72.53
389.818	11.09
390.028	-23.72
390.238	62.29
390.447	64.34
390.657	13.14
390.867	33.62
391.076	47.96
391.286	54.1
391.496	86.87
391.705	33.62
391.915	76.63
392.125	68.44
392.334	47.96
392.544	54.1
392.753	88.92
392.963	-15.53
393.172	39.76
393.382	95.06
393.591	101.2
393.801	-13.48
394.01	17.24
394.22	105.3
394.429	27.48
394.639	54.1
394.848	23.38
395.058	142.16
395.267	11.09
395.477	76.63
395.686	80.72
395.895	15.19
396.105	7
396.314	7
396.524	29.52
396.733	115.54
396.942	54.1
397.152	11.09
397.361	47.96
397.57	62.29
397.78	13.14
397.989	82.77
398.198	113.49
398.407	162.64
398.617	80.72
398.826	27.48
399.035	95.06
399.244	88.92
399.453	90.96
399.663	66.39
399.872	95.06
400.081	11.09
400.29	142.16
400.499	37.72
400.708	70.48
400.917	80.72
401.127	105.3
401.336	64.34
401.545	144.21
401.754	88.92
401.963	45.91
402.172	88.92
402.381	35.67
402.59	58.2
402.799	131.92
403.008	144.21
403.217	152.4
403.426	101.2
403.635	97.11
403.844	84.82
404.053	138.07
404.262	80.72
404.471	144.21
404.68	95.06
404.888	129.88
405.097	125.78
405.306	123.73
405.515	84.82
405.724	185.17
405.933	152.4
406.142	123.73
406.35	207.7
406.559	158.55
406.768	113.49
406.977	197.46
407.185	78.68
407.394	115.54
407.603	189.27
407.812	187.22
408.02	179.03
408.229	203.6
408.438	154.45
408.646	181.07
408.855	222.03
409.064	312.14
409.272	183.12
409.481	275.28
409.69	244.56
409.898	199.51
410.107	236.37
410.315	267.09
410.524	240.47
410.733	273.23
410.941	256.85
411.15	226.13
411.358	262.99
411.567	275.28
411.775	228.18
411.984	336.72
412.192	334.67
412.401	418.64
412.609	338.77
412.818	279.38
413.026	310.1
413.234	303.95
413.443	383.82
413.651	424.78
413.86	351.06
414.068	432.97
414.276	492.37
414.485	418.64
414.693	490.32
414.901	447.31
415.11	428.88
415.318	459.6
415.526	543.57
415.734	572.24
415.943	576.33
416.151	648.01
416.359	633.68
416.567	635.72
416.776	717.64
416.984	627.53
417.192	705.35
417.4	779.08
417.608	762.7
417.817	809.8
418.025	809.8
418.233	873.29
418.441	838.47
418.649	795.47
418.857	914.25
419.065	987.97
419.273	908.1
419.481	1004.36
419.689	1006.41
419.897	1196.87
420.105	1061.7
420.313	1037.13
420.521	1135.43
420.729	1184.58
420.937	1237.83
421.145	1260.35
421.353	1370.94
421.561	1364.8
421.769	1372.99
421.977	1489.73
422.185	1444.67
422.393	1561.41
422.601	1649.47
422.809	1610.56
423.017	1764.15
423.224	1841.98
423.432	1831.74
423.64	1948.47
423.848	2040.63
424.056	1936.18
424.263	2011.96
424.471	2032.44
424.679	2149.17
424.887	2173.75
425.094	2304.82
425.302	2362.16
425.51	2380.59
425.718	2435.89
425.925	2448.18
426.133	2622.25
426.341	2730.8
426.548	2892.59
426.756	2872.11
426.964	2913.06
427.171	3005.22
427.379	3001.13
427.586	3298.08
427.794	3326.75
428.001	3509.02
428.209	3570.46
428.417	3656.48
428.624	3851.03
428.832	3711.77
429.039	3781.4
429.247	3877.66
429.454	4100.89
429.662	4283.16
429.869	4154.13
430.076	4381.46
430.284	4283.16
430.491	4520.72
430.699	4586.26
430.906	4684.56
431.114	4770.57
431.321	4811.53
431.528	5032.71
431.736	5243.65
431.943	5526.27
432.15	5301
432.358	5389.06
432.565	5724.93
432.772	5737.21
432.979	5985.02
433.187	5970.68
433.394	6130.42
433.601	6703.86
433.808	6687.47
434.016	6449.91
434.223	6636.27
434.43	7308.01
434.637	7211.75
434.844	7678.69
435.052	7740.13
435.259	7703.26
435.466	7664.35
435.673	7768.8
435.88	8200.92
436.087	8696.53
436.294	8682.19
436.501	8356.57
436.708	8489.68
436.915	9038.54
437.122	9302.73
437.329	9405.13
437.537	9618.11
437.743	9724.61
437.95	9452.23
438.157	10173.11
438.364	10480.31
438.571	10470.07
438.778	10562.23
438.985	11688.61
439.192	10920.62
439.399	11379.37
439.606	11068.08
439.813	11842.21
440.02	12552.85
440.227	12294.81
440.433	12157.6
440.64	12520.09
440.847	12417.69
441.054	12735.12
441.261	13617.8
441.467	13259.4
441.674	13390.47
441.881	14453.37
442.088	14418.55
442.294	14031.49
442.501	14125.69
442.708	14801.52
442.914	15284.84
443.121	15895.14
443.328	15372.91
443.534	16431.71
443.741	15999.59
443.948	15809.12
444.154	17042
444.361	16872.02
444.568	17068.62
444.774	17185.36
444.981	17291.85
445.187	17812.04
445.394	18518.59
445.6	18311.74
445.807	20165.15
446.013	19100.21
446.22	19542.57
446.426	20400.67
446.633	20529.69
446.839	20974.1
447.046	20290.08
447.252	21424.65
447.459	21631.5
447.665	21449.23
447.871	22323.71
448.078	23075.32
448.284	21905.93
448.491	23009.78
448.697	23628.27
448.903	24080.87
449.11	24193.51
449.316	23482.86
449.522	23974.38
449.728	24537.57
449.935	24783.32
450.141	24830.43
450.347	25749.96
450.553	24556
450.76	25219.54
450.966	25600.46
451.172	25362.9
451.378	26210.76
451.584	25506.26
451.791	26311.11
451.997	26372.55
452.203	26528.19
452.409	26235.33
452.615	26472.9
452.821	25287.12
453.027	25227.73
453.233	26339.78
453.44	25272.79
453.646	25545.17
453.852	25911.75
454.058	26452.42
454.264	24883.67
454.47	25907.66
454.676	25115.09
454.882	26089.93
455.088	23755.24
455.294	24003.05
455.5	24531.42
455.705	24642.01
455.911	24035.81
456.117	23095.8
456.323	22837.75
456.529	21701.13
456.735	22467.07
456.941	21887.5
457.147	21731.85
457.352	21053.97
457.558	20900.37
457.764	20955.67
457.97	20341.28
458.176	20046.37
458.381	20083.23
458.587	19073.59
458.793	18983.48
458.999	18195.01
459.204	19524.14
459.41	18932.28
459.616	17576.52
459.821	17588.81
460.027	17470.03
460.233	16980.56
460.438	16304.73
460.644	16777.81
460.85	15731.3
461.055	15520.36
461.261	15489.64
461.466	14457.46
461.672	14023.3
461.878	14971.5
462.083	13873.79
462.289	13728.39
462.494	13400.71
462.7	12763.79
462.905	12622.48
463.111	13003.41
463.316	13077.13
463.522	12800.66
463.727	12876.43
463.932	12814.99
464.138	12630.68
464.343	12634.77
464.549	12356.25
464.754	12608.15
464.959	12511.89
465.165	12698.26
465.37	12143.26
465.575	11563.68
465.781	12303
465.986	12194.46
466.191	11664.04
466.397	11569.83
466.602	11094.7
466.807	11670.18
467.012	11575.97
467.218	11317.93
467.423	11256.49
467.628	11203.24
467.833	11797.15
468.038	11322.02
468.244	11008.69
468.449	11584.16
468.654	11203.24
468.859	11018.93
469.064	11106.99
469.269	10453.69
469.474	10621.62
