Data from USB4F104151__120__13-55-03-567.txt Node

Date: Thu Mar 13 13:55:03 EDT 2025
User: louis
Spectrometer: USB4F10415
Trigger mode: 4
Integration Time (sec): 1.000000E-2
Scans to average: 1
Electric dark correction enabled: true
Nonlinearity correction enabled: false
Boxcar width: 0
XAxis mode: Wavelengths
Number of Pixels in Spectrum: 3648
>>>>>Begin Spectral Data<<<<<
178.204	-25.94
178.424	-25.94
178.644	-25.94
178.864	-56.66
179.084	-64.85
179.304	-7.51
179.524	-42.32
179.744	-48.47
179.964	55.98
180.184	27.31
180.404	80.55
180.624	-46.42
180.844	10.92
181.064	-17.75
181.283	-34.13
181.503	-1.37
181.723	23.21
181.943	-73.04
182.163	60.07
182.383	-11.61
182.602	113.32
182.822	15.02
183.042	37.55
183.262	37.55
183.482	-5.46
183.701	-52.56
183.921	35.5
184.141	45.74
184.361	-1.37
184.58	-17.75
184.8	53.93
185.02	-3.41
185.239	23.21
185.459	12.97
185.679	37.55
185.898	43.69
186.118	72.36
186.338	41.64
186.557	-34.13
186.777	-44.37
186.997	45.74
187.216	-46.42
187.436	47.79
187.655	41.64
187.875	39.59
188.095	27.31
188.314	-13.65
188.534	8.87
188.753	43.69
188.973	-21.84
189.192	80.55
189.412	39.59
189.631	8.87
189.851	-83.28
190.07	84.65
190.29	45.74
190.509	35.5
190.729	23.21
190.948	72.36
191.168	21.16
191.387	2.73
191.607	4.78
191.826	68.27
192.045	23.21
192.265	17.07
192.484	8.87
192.704	41.64
192.923	-27.99
193.142	19.11
193.362	-66.9
193.581	45.74
193.8	25.26
194.02	0.68
194.239	33.45
194.458	4.78
194.678	6.83
194.897	6.83
195.116	33.45
195.335	107.18
195.555	31.4
195.774	-48.47
195.993	43.69
196.212	51.88
196.432	27.31
196.651	-15.7
196.87	51.88
197.089	4.78
197.308	127.66
197.528	66.22
197.747	-3.41
197.966	21.16
198.185	35.5
198.404	-21.84
198.623	41.64
198.842	10.92
199.062	-9.56
199.281	19.11
199.5	33.45
199.719	47.79
199.938	29.35
200.157	47.79
200.376	37.55
200.595	72.36
200.814	39.59
201.033	12.97
201.252	41.64
201.471	-5.46
201.69	-19.8
201.909	39.59
202.128	15.02
202.347	58.03
202.566	51.88
202.785	-7.51
203.004	-46.42
203.223	-23.89
203.442	-11.61
203.661	4.78
203.879	-3.41
204.098	23.21
204.317	-30.04
204.536	37.55
204.755	-1.37
204.974	-40.28
205.193	15.02
205.411	10.92
205.63	-36.18
205.849	23.21
206.068	-21.84
206.287	-17.75
206.505	2.73
206.724	23.21
206.943	-50.52
207.162	43.69
207.381	12.97
207.599	80.55
207.818	-5.46
208.037	-38.23
208.255	8.87
208.474	17.07
208.693	6.83
208.911	51.88
209.13	-3.41
209.349	15.02
209.567	-25.94
209.786	53.93
210.005	-34.13
210.223	15.02
210.442	-19.8
210.661	-32.08
210.879	51.88
211.098	21.16
211.316	-15.7
211.535	33.45
211.753	29.35
211.972	51.88
212.191	-13.65
212.409	21.16
212.628	-3.41
212.846	-17.75
213.065	-36.18
213.283	51.88
213.502	-17.75
213.72	-50.52
213.938	15.02
214.157	4.78
214.375	-48.47
214.594	41.64
214.812	70.31
215.031	-71
215.249	10.92
215.467	43.69
215.686	-50.52
215.904	39.59
216.122	15.02
216.341	25.26
216.559	-9.56
216.778	113.32
216.996	86.7
217.214	21.16
217.432	23.21
217.651	-13.65
217.869	27.31
218.087	12.97
218.306	-5.46
218.524	60.07
218.742	0.68
218.96	-54.61
219.179	-15.7
219.397	15.02
219.615	6.83
219.833	55.98
220.051	-25.94
220.27	-19.8
220.488	-21.84
220.706	-42.32
220.924	29.35
221.142	76.46
221.36	23.21
221.578	-38.23
221.796	-25.94
222.015	33.45
222.233	88.75
222.451	62.12
222.669	-25.94
222.887	31.4
223.105	-5.46
223.323	80.55
223.541	29.35
223.759	78.51
223.977	8.87
224.195	10.92
224.413	29.35
224.631	35.5
224.849	33.45
225.067	70.31
225.285	0.68
225.503	-1.37
225.721	70.31
225.939	-25.94
226.157	31.4
226.375	-1.37
226.592	-1.37
226.81	6.83
227.028	19.11
227.246	96.94
227.464	-7.51
227.682	-36.18
227.9	62.12
228.117	17.07
228.335	-56.66
228.553	41.64
228.771	-19.8
228.989	78.51
229.206	58.03
229.424	12.97
229.642	45.74
229.86	86.7
230.077	49.83
230.295	53.93
230.513	23.21
230.731	68.27
230.948	10.92
231.166	31.4
231.384	25.26
231.601	-58.71
231.819	8.87
232.037	33.45
232.254	23.21
232.472	-7.51
232.689	-30.04
232.907	23.21
233.125	70.31
233.342	-15.7
233.56	-11.61
233.777	60.07
233.995	15.02
234.213	98.99
234.43	10.92
234.648	47.79
234.865	-9.56
235.083	80.55
235.3	33.45
235.518	0.68
235.735	64.17
235.953	137.9
236.17	39.59
236.388	-23.89
236.605	15.02
236.822	74.41
237.04	33.45
237.257	-25.94
237.475	51.88
237.692	74.41
237.909	45.74
238.127	17.07
238.344	4.78
238.562	86.7
238.779	2.73
238.996	0.68
239.214	8.87
239.431	-5.46
239.648	58.03
239.865	-40.28
240.083	33.45
240.3	62.12
240.517	8.87
240.735	-5.46
240.952	60.07
241.169	12.97
241.386	10.92
241.603	-36.18
241.821	64.17
242.038	27.31
242.255	-40.28
242.472	-9.56
242.689	31.4
242.907	-5.46
243.124	2.73
243.341	86.7
243.558	41.64
243.775	62.12
243.992	33.45
244.209	78.51
244.426	68.27
244.643	80.55
244.86	-15.7
245.078	64.17
245.295	29.35
245.512	76.46
245.729	113.32
245.946	-19.8
246.163	51.88
246.38	2.73
246.597	-19.8
246.814	127.66
247.031	49.83
247.248	-1.37
247.464	74.41
247.681	4.78
247.898	6.83
248.115	27.31
248.332	53.93
248.549	68.27
248.766	80.55
248.983	55.98
249.2	90.79
249.417	-23.89
249.633	15.02
249.85	41.64
250.067	-7.51
250.284	10.92
250.501	2.73
250.717	-34.13
250.934	-34.13
251.151	35.5
251.368	58.03
251.585	82.6
251.801	66.22
252.018	15.02
252.235	47.79
252.451	21.16
252.668	-13.65
252.885	78.51
253.102	-25.94
253.318	23.21
253.535	78.51
253.752	-3.41
253.968	8.87
254.185	-25.94
254.401	19.11
254.618	-13.65
254.835	19.11
255.051	43.69
255.268	-42.32
255.484	45.74
255.701	76.46
255.917	39.59
256.134	19.11
256.351	49.83
256.567	49.83
256.784	82.6
257	45.74
257.217	19.11
257.433	62.12
257.65	27.31
257.866	58.03
258.082	60.07
258.299	80.55
258.515	-13.65
258.732	-7.51
258.948	37.55
259.165	25.26
259.381	47.79
259.597	80.55
259.814	58.03
260.03	21.16
260.246	21.16
260.463	-17.75
260.679	78.51
260.895	-1.37
261.112	2.73
261.328	-1.37
261.544	-5.46
261.761	-7.51
261.977	47.79
262.193	10.92
262.409	29.35
262.626	10.92
262.842	-34.13
263.058	51.88
263.274	35.5
263.49	-5.46
263.707	62.12
263.923	8.87
264.139	111.27
264.355	47.79
264.571	-34.13
264.787	2.73
265.004	45.74
265.22	-3.41
265.436	90.79
265.652	82.6
265.868	31.4
266.084	12.97
266.3	70.31
266.516	27.31
266.732	35.5
266.948	-56.66
267.164	10.92
267.38	78.51
267.596	31.4
267.812	58.03
268.028	8.87
268.244	43.69
268.46	47.79
268.676	25.26
268.892	49.83
269.108	25.26
269.324	23.21
269.54	-23.89
269.756	-52.56
269.972	25.26
270.188	25.26
270.403	-46.42
270.619	-1.37
270.835	21.16
271.051	45.74
271.267	53.93
271.483	-17.75
271.698	-60.76
271.914	70.31
272.13	41.64
272.346	-5.46
272.562	-25.94
272.777	-40.28
272.993	60.07
273.209	-23.89
273.425	51.88
273.64	47.79
273.856	27.31
274.072	68.27
274.287	-1.37
274.503	29.35
274.719	70.31
274.934	35.5
275.15	35.5
275.366	60.07
275.581	45.74
275.797	-13.65
276.012	-40.28
276.228	49.83
276.444	31.4
276.659	62.12
276.875	23.21
277.09	21.16
277.306	109.23
277.521	-19.8
277.737	27.31
277.952	23.21
278.168	43.69
278.383	23.21
278.599	58.03
278.814	10.92
279.03	-19.8
279.245	23.21
279.461	15.02
279.676	31.4
279.892	29.35
280.107	107.18
280.322	2.73
280.538	15.02
280.753	41.64
280.969	68.27
281.184	-68.95
281.399	15.02
281.615	-36.18
281.83	-32.08
282.045	-25.94
282.26	6.83
282.476	-25.94
282.691	64.17
282.906	27.31
283.122	-19.8
283.337	-56.66
283.552	53.93
283.767	39.59
283.983	49.83
284.198	86.7
284.413	-21.84
284.628	4.78
284.843	-30.04
285.058	76.46
285.274	25.26
285.489	15.02
285.704	39.59
285.919	-75.09
286.134	23.21
286.349	27.31
286.564	-7.51
286.779	41.64
286.995	51.88
287.21	8.87
287.425	29.35
287.64	-52.56
287.855	-3.41
288.07	-50.52
288.285	43.69
288.5	41.64
288.715	64.17
288.93	8.87
289.145	70.31
289.36	-50.52
289.575	-15.7
289.79	41.64
290.004	25.26
290.219	8.87
290.434	29.35
290.649	-5.46
290.864	51.88
291.079	-23.89
291.294	43.69
291.509	6.83
291.724	-13.65
291.938	37.55
292.153	68.27
292.368	12.97
292.583	-21.84
292.798	78.51
293.012	45.74
293.227	10.92
293.442	4.78
293.657	84.65
293.871	31.4
294.086	33.45
294.301	84.65
294.516	0.68
294.73	19.11
294.945	64.17
295.16	-44.37
295.374	-40.28
295.589	10.92
295.804	45.74
296.018	53.93
296.233	35.5
296.447	12.97
296.662	41.64
296.877	64.17
297.091	23.21
297.306	39.59
297.52	96.94
297.735	53.93
297.949	66.22
298.164	-21.84
298.378	-17.75
298.593	4.78
298.807	15.02
299.022	25.26
299.236	105.13
299.451	72.36
299.665	78.51
299.88	23.21
300.094	47.79
300.309	31.4
300.523	43.69
300.737	-27.99
300.952	2.73
301.166	-3.41
301.381	-21.84
301.595	60.07
301.809	62.12
302.024	-1.37
302.238	-1.37
302.452	0.68
302.667	76.46
302.881	60.07
303.095	-19.8
303.309	6.83
303.524	4.78
303.738	17.07
303.952	35.5
304.166	66.22
304.381	-44.37
304.595	58.03
304.809	-25.94
305.023	47.79
305.237	27.31
305.452	15.02
305.666	37.55
305.88	19.11
306.094	76.46
306.308	25.26
306.522	41.64
306.736	15.02
306.95	21.16
307.164	-11.61
307.379	66.22
307.593	72.36
307.807	-15.7
308.021	72.36
308.235	-25.94
308.449	-15.7
308.663	88.75
308.877	113.32
309.091	8.87
309.305	53.93
309.519	29.35
309.733	60.07
309.947	-25.94
310.161	39.59
310.374	84.65
310.588	66.22
310.802	4.78
311.016	58.03
311.23	8.87
311.444	51.88
311.658	107.18
311.872	10.92
312.085	39.59
312.299	4.78
312.513	-17.75
312.727	23.21
312.941	27.31
313.154	51.88
313.368	37.55
313.582	27.31
313.796	90.79
314.009	53.93
314.223	90.79
314.437	111.27
314.651	-3.41
314.864	74.41
315.078	8.87
315.292	-1.37
315.505	47.79
315.719	88.75
315.933	53.93
316.146	51.88
316.36	27.31
316.573	109.23
316.787	72.36
317.001	37.55
317.214	27.31
317.428	37.55
317.641	-3.41
317.855	121.51
318.068	47.79
318.282	60.07
318.495	78.51
318.709	-1.37
318.922	33.45
319.136	86.7
319.349	31.4
319.563	31.4
319.776	27.31
319.99	10.92
320.203	47.79
320.417	33.45
320.63	0.68
320.843	119.46
321.057	12.97
321.27	62.12
321.483	-13.65
321.697	74.41
321.91	51.88
322.124	55.98
322.337	25.26
322.55	33.45
322.763	-13.65
322.977	41.64
323.19	53.93
323.403	-9.56
323.617	80.55
323.83	45.74
324.043	-32.08
324.256	72.36
324.469	82.6
324.683	86.7
324.896	55.98
325.109	123.56
325.322	17.07
325.535	39.59
325.748	23.21
325.962	-11.61
326.175	23.21
326.388	10.92
326.601	74.41
326.814	-19.8
327.027	45.74
327.24	6.83
327.453	-19.8
327.666	62.12
327.879	35.5
328.092	60.07
328.305	-5.46
328.518	31.4
328.731	98.99
328.944	-25.94
329.157	-15.7
329.37	31.4
329.583	68.27
329.796	21.16
330.009	27.31
330.222	8.87
330.435	68.27
330.648	25.26
330.861	70.31
331.073	15.02
331.286	96.94
331.499	-5.46
331.712	21.16
331.925	43.69
332.138	37.55
332.35	70.31
332.563	-9.56
332.776	152.23
332.989	-25.94
333.202	-15.7
333.414	6.83
333.627	51.88
333.84	12.97
334.053	66.22
334.265	43.69
334.478	-21.84
334.691	-34.13
334.903	21.16
335.116	45.74
335.329	25.26
335.541	58.03
335.754	49.83
335.966	72.36
336.179	51.88
336.392	-25.94
336.604	-34.13
336.817	53.93
337.029	51.88
337.242	45.74
337.454	29.35
337.667	37.55
337.88	45.74
338.092	8.87
338.305	45.74
338.517	-5.46
338.729	33.45
338.942	119.46
339.154	76.46
339.367	17.07
339.579	74.41
339.792	41.64
340.004	43.69
340.217	-15.7
340.429	51.88
340.641	19.11
340.854	4.78
341.066	-62.8
341.278	86.7
341.491	12.97
341.703	150.18
341.915	10.92
342.128	80.55
342.34	43.69
342.552	17.07
342.764	-7.51
342.977	33.45
343.189	45.74
343.401	2.73
343.613	58.03
343.826	10.92
344.038	-7.51
344.25	84.65
344.462	41.64
344.674	0.68
344.886	39.59
345.099	176.81
345.311	45.74
345.523	51.88
345.735	-11.61
345.947	62.12
346.159	25.26
346.371	62.12
346.583	51.88
346.795	90.79
347.007	41.64
347.219	19.11
347.431	33.45
347.643	66.22
347.855	35.5
348.067	45.74
348.279	55.98
348.491	10.92
348.703	31.4
348.915	41.64
349.127	88.75
349.339	76.46
349.551	80.55
349.763	23.21
349.975	84.65
350.187	37.55
350.399	51.88
350.61	-21.84
350.822	27.31
351.034	78.51
351.246	10.92
351.458	107.18
351.669	-23.89
351.881	45.74
352.093	53.93
352.305	47.79
352.517	94.89
352.728	129.7
352.94	-13.65
353.152	113.32
353.363	31.4
353.575	35.5
353.787	-5.46
353.999	49.83
354.21	25.26
354.422	21.16
354.633	21.16
354.845	-23.89
355.057	23.21
355.268	-3.41
355.48	6.83
355.692	31.4
355.903	19.11
356.115	51.88
356.326	-15.7
356.538	49.83
356.749	8.87
356.961	47.79
357.172	-1.37
357.384	55.98
357.595	0.68
357.807	74.41
358.018	8.87
358.23	76.46
358.441	53.93
358.653	78.51
358.864	12.97
359.075	82.6
359.287	78.51
359.498	76.46
359.709	17.07
359.921	58.03
360.132	74.41
360.344	21.16
360.555	55.98
360.766	58.03
360.977	60.07
361.189	64.17
361.4	49.83
361.611	27.31
361.823	23.21
362.034	37.55
362.245	86.7
362.456	6.83
362.667	156.33
362.879	27.31
363.09	15.02
363.301	82.6
363.512	55.98
363.723	121.51
363.935	60.07
364.146	60.07
364.357	49.83
364.568	35.5
364.779	-7.51
364.99	64.17
365.201	37.55
365.412	4.78
365.623	-13.65
365.834	62.12
366.045	23.21
366.256	105.13
366.467	94.89
366.678	53.93
366.889	-27.99
367.1	68.27
367.311	0.68
367.522	25.26
367.733	88.75
367.944	12.97
368.155	76.46
368.366	19.11
368.577	0.68
368.788	53.93
368.999	74.41
369.209	94.89
369.42	33.45
369.631	80.55
369.842	23.21
370.053	78.51
370.264	15.02
370.474	21.16
370.685	-30.04
370.896	33.45
371.107	-3.41
371.317	58.03
371.528	88.75
371.739	19.11
371.95	82.6
372.16	12.97
372.371	72.36
372.582	133.8
372.792	27.31
373.003	-25.94
373.214	-25.94
373.424	47.79
373.635	53.93
373.846	39.59
374.056	53.93
374.267	21.16
374.477	25.26
374.688	88.75
374.898	31.4
375.109	98.99
375.319	60.07
375.53	19.11
375.74	178.86
375.951	58.03
376.161	35.5
376.372	180.9
376.582	15.02
376.793	60.07
377.003	35.5
377.214	55.98
377.424	51.88
377.635	0.68
377.845	43.69
378.055	37.55
378.266	17.07
378.476	39.59
378.686	68.27
378.897	6.83
379.107	70.31
379.317	-42.32
379.528	35.5
379.738	113.32
379.948	15.02
380.158	68.27
380.369	-11.61
380.579	109.23
380.789	0.68
380.999	92.84
381.21	64.17
381.42	137.9
381.63	17.07
381.84	-17.75
382.05	-1.37
382.261	94.89
382.471	92.84
382.681	19.11
382.891	72.36
383.101	19.11
383.311	10.92
383.521	92.84
383.731	92.84
383.941	82.6
384.151	-9.56
384.361	90.79
384.571	23.21
384.781	21.16
384.991	62.12
385.201	88.75
385.411	27.31
385.621	62.12
385.831	60.07
386.041	82.6
386.251	23.21
386.461	94.89
386.671	37.55
386.881	45.74
387.091	82.6
387.301	4.78
387.511	-3.41
387.72	70.31
387.93	51.88
388.14	78.51
388.35	92.84
388.56	74.41
388.769	45.74
388.979	72.36
389.189	29.35
389.399	27.31
389.609	111.27
389.818	45.74
390.028	-17.75
390.238	90.79
390.447	-9.56
390.657	-3.41
390.867	96.94
391.076	88.75
391.286	12.97
391.496	41.64
391.705	27.31
391.915	131.75
392.125	23.21
392.334	107.18
392.544	74.41
392.753	53.93
392.963	70.31
393.172	49.83
393.382	29.35
393.591	131.75
393.801	96.94
394.01	129.7
394.22	125.61
394.429	43.69
394.639	96.94
394.848	121.51
395.058	15.02
395.267	80.55
395.477	29.35
395.686	80.55
395.895	88.75
396.105	96.94
396.314	33.45
396.524	21.16
396.733	137.9
396.942	137.9
397.152	150.18
397.361	107.18
397.57	152.23
397.78	141.99
397.989	107.18
398.198	162.47
398.407	119.46
398.617	70.31
398.826	74.41
399.035	53.93
399.244	84.65
399.453	103.08
399.663	141.99
399.872	107.18
400.081	113.32
400.29	113.32
400.499	47.79
400.708	123.56
400.917	103.08
401.127	168.62
401.336	103.08
401.545	107.18
401.754	131.75
401.963	49.83
402.172	101.03
402.381	115.37
402.59	107.18
402.799	148.14
403.008	76.46
403.217	144.04
403.426	119.46
403.635	101.03
403.844	125.61
404.053	111.27
404.262	94.89
404.471	160.42
404.68	225.96
404.888	146.09
405.097	86.7
405.306	119.46
405.515	150.18
405.724	72.36
405.933	223.91
406.142	117.42
406.35	238.25
406.559	209.58
406.768	199.34
406.977	160.42
407.185	172.71
407.394	217.77
407.603	174.76
407.812	174.76
408.02	232.1
408.229	178.86
408.438	209.58
408.646	219.82
408.855	164.52
409.064	180.9
409.272	215.72
409.481	322.21
409.69	324.26
409.898	320.17
410.107	369.32
410.315	287.4
410.524	264.87
410.733	357.03
410.941	363.17
411.15	377.51
411.358	365.22
411.567	479.91
411.775	391.84
411.984	453.28
412.192	373.41
412.401	475.81
412.609	438.95
412.818	441
413.026	436.9
413.234	502.44
413.443	522.91
413.651	590.5
413.86	598.69
414.068	623.27
414.276	637.6
414.485	582.31
414.693	633.51
414.901	709.28
415.11	631.46
415.318	684.7
415.526	785.05
415.734	813.73
415.943	813.73
416.151	756.38
416.359	785.05
416.567	844.45
416.776	830.11
416.984	959.13
417.192	1016.48
417.4	973.47
417.608	1036.95
417.817	1032.86
418.025	1018.52
418.233	1184.41
418.441	938.65
418.649	1129.11
418.857	1325.72
419.065	1235.61
419.273	1266.33
419.481	1350.29
419.689	1489.56
419.897	1503.89
420.105	1497.75
420.313	1620.63
420.521	1546.9
420.729	1604.24
420.937	1563.28
421.145	1690.26
421.353	1763.98
421.561	1827.47
421.769	1835.66
421.977	2019.98
422.185	1870.48
422.393	2153.1
422.601	2245.26
422.809	2220.68
423.017	2271.88
423.224	2288.26
423.432	2370.18
423.64	2462.34
423.848	2568.84
424.056	2566.79
424.263	2900.61
424.471	2790.02
424.679	2763.39
424.887	3054.2
425.094	3019.39
425.302	3058.3
425.51	3187.32
425.718	3351.16
425.925	3447.41
426.133	3525.24
426.341	3668.59
426.548	3760.75
426.756	3881.58
426.964	3711.6
427.171	4129.39
427.379	4344.42
427.586	4242.03
427.794	4475.49
428.001	4639.33
428.209	4735.59
428.417	4805.22
428.624	5118.56
428.832	5132.89
429.039	5212.76
429.247	5003.87
429.454	5687.89
429.662	5859.92
429.869	5493.33
430.076	5943.89
430.284	5747.28
430.491	5927.5
430.699	6386.25
430.906	6402.63
431.114	6408.78
431.321	6556.23
431.528	6822.47
431.736	7078.46
431.943	7553.59
432.15	7346.75
432.358	7492.15
432.565	7787.06
432.772	7649.85
432.979	8041.01
433.187	8313.39
433.394	8454.7
433.601	8993.31
433.808	8884.77
434.016	8780.32
434.223	9212.45
434.43	9888.28
434.637	9617.94
434.844	10238.48
435.052	10596.87
435.259	10422.8
435.466	10566.15
435.673	10443.28
435.88	11002.37
436.087	11473.4
436.294	11573.75
436.501	11502.08
436.708	11434.49
436.915	11799.03
437.122	12532.2
437.329	12509.68
437.537	12921.32
437.743	12933.61
437.95	12749.29
438.157	13613.53
438.364	14133.72
438.571	14170.58
438.778	14004.69
438.985	15368.64
439.192	14897.61
439.399	15145.41
439.606	14997.96
439.813	15845.82
440.02	16791.98
440.227	16460.21
440.433	16452.02
440.64	16767.4
440.847	16560.56
441.054	16945.58
441.261	18473.36
441.467	18147.73
441.674	18620.81
441.881	19179.91
442.088	19171.72
442.294	19114.37
442.501	19763.58
442.708	19556.74
442.914	20648.3
443.121	21430.63
443.328	20660.59
443.534	22319.45
443.741	21547.36
443.948	21502.31
444.154	22935.88
444.361	23034.19
444.568	22853.97
444.774	22880.59
444.981	23316.81
445.187	24070.46
445.394	24990
445.6	24635.7
445.807	27050.25
446.013	25698.59
446.22	26157.34
446.426	27703.56
446.633	27640.07
446.839	28215.55
447.046	27273.48
447.252	28760.31
447.459	28805.36
447.665	28541.18
447.871	29917.41
448.078	31224.01
448.284	29677.8
448.491	30179.55
448.697	31604.94
448.903	32385.21
449.11	32409.79
449.316	31873.22
449.522	32340.16
449.728	33114.29
449.935	33099.95
450.141	33351.85
450.347	34146.47
450.553	33038.51
450.76	32968.88
450.966	34435.23
451.172	34076.83
451.378	35043.48
451.584	34328.73
451.791	35072.15
451.997	34902.17
452.203	35340.43
452.409	35377.29
452.615	35405.97
452.821	33919.14
453.027	33894.57
453.233	35356.82
453.44	34130.08
453.646	34461.85
453.852	34502.81
454.058	34828.44
454.264	33984.68
454.47	34943.13
454.676	34048.16
454.882	34984.08
455.088	31830.21
455.294	32352.44
455.5	33050.8
455.705	33499.31
455.911	31908.04
456.117	31441.1
456.323	30994.64
456.529	29182.19
456.735	30370.01
456.941	29661.41
457.147	29221.1
457.352	28625.14
457.558	28354.81
457.764	28350.71
457.97	27414.79
458.176	26880.27
458.381	27332.87
458.587	25594.15
458.793	26095.9
458.999	24176.95
459.204	26181.92
459.41	25303.34
459.616	23943.49
459.821	23884.09
460.027	23832.89
460.233	23320.9
460.438	22018.39
460.644	22333.78
460.85	21383.52
461.055	20959.59
461.261	20986.22
461.466	19464.58
461.672	18739.6
461.878	20148.6
462.083	18737.55
462.289	18649.49
462.494	18332.05
462.7	17633.69
462.905	17330.59
463.111	17377.7
463.316	17688.99
463.522	17285.54
463.727	17377.7
463.932	17160.61
464.138	17240.48
464.343	17150.37
464.549	16538.03
464.754	17377.7
464.959	17103.27
465.165	17039.78
465.37	16155.06
465.575	15690.17
465.781	16290.23
465.986	16427.44
466.191	15940.02
466.397	15667.64
466.602	14854.6
466.807	15280.58
467.012	15327.68
467.218	15571.39
467.423	15151.56
467.628	15253.95
