Data from USB4F104151__19__13-52-32-223.txt Node

Date: Thu Mar 13 13:52:32 EDT 2025
User: louis
Spectrometer: USB4F10415
Trigger mode: 4
Integration Time (sec): 1.000000E-2
Scans to average: 1
Electric dark correction enabled: true
Nonlinearity correction enabled: false
Boxcar width: 0
XAxis mode: Wavelengths
Number of Pixels in Spectrum: 3648
>>>>>Begin Spectral Data<<<<<
178.204	-4.78
178.424	-4.78
178.644	-4.78
178.864	-117.42
179.084	-17.07
179.304	34.13
179.524	13.65
179.744	-33.45
179.964	-53.93
180.184	-43.69
180.404	34.13
180.624	-33.45
180.844	-17.07
181.064	101.72
181.283	58.71
181.503	-27.31
181.723	-33.45
181.943	-8.87
182.163	-10.92
182.383	-37.55
182.602	40.28
182.822	23.89
183.042	38.23
183.262	-2.73
183.482	19.8
183.701	-12.97
183.921	-29.35
184.141	-39.59
184.361	21.85
184.58	68.95
184.8	-17.07
185.02	17.75
185.239	56.66
185.459	40.28
185.679	13.65
185.898	50.52
186.118	23.89
186.338	13.65
186.557	15.7
186.777	13.65
186.997	32.08
187.216	1.37
187.436	-43.69
187.655	-31.4
187.875	15.7
188.095	-25.26
188.314	9.56
188.534	13.65
188.753	71
188.973	50.52
189.192	34.13
189.412	-0.68
189.631	40.28
189.851	-47.79
190.07	40.28
190.29	27.99
190.509	15.7
190.729	38.23
190.948	13.65
191.168	62.8
191.387	48.47
191.607	-47.79
191.826	87.38
192.045	3.41
192.265	-60.07
192.484	48.47
192.704	1.37
192.923	11.61
193.142	34.13
193.362	19.8
193.581	50.52
193.8	-8.87
194.02	54.61
194.239	17.75
194.458	17.75
194.678	50.52
194.897	-35.5
195.116	73.04
195.335	-2.73
195.555	-43.69
195.774	27.99
195.993	17.75
196.212	-25.26
196.432	-10.92
196.651	36.18
196.87	85.33
197.089	48.47
197.308	48.47
197.528	30.04
197.747	9.56
197.966	17.75
198.185	30.04
198.404	-31.4
198.623	42.32
198.842	-15.02
199.062	50.52
199.281	44.37
199.5	114
199.719	101.72
199.938	68.95
200.157	17.75
200.376	36.18
200.595	3.41
200.814	-12.97
201.033	68.95
201.252	-8.87
201.471	-4.78
201.69	-23.21
201.909	-12.97
202.128	-4.78
202.347	25.94
202.566	9.56
202.785	11.61
203.004	-25.26
203.223	5.46
203.442	-37.55
203.661	21.85
203.879	27.99
204.098	-31.4
204.317	54.61
204.536	30.04
204.755	62.8
204.974	60.76
205.193	-15.02
205.411	44.37
205.63	-4.78
205.849	17.75
206.068	97.62
206.287	-80.55
206.505	-47.79
206.724	66.9
206.943	40.28
207.162	-21.16
207.381	-6.83
207.599	15.7
207.818	40.28
208.037	-62.12
208.255	7.51
208.474	68.95
208.693	58.71
208.911	52.56
209.13	27.99
209.349	46.42
209.567	81.24
209.786	-35.5
210.005	101.72
210.223	103.76
210.442	-23.21
210.661	19.8
210.879	30.04
211.098	144.72
211.316	7.51
211.535	46.42
211.753	60.76
211.972	38.23
212.191	-0.68
212.409	-70.31
212.628	1.37
212.846	7.51
213.065	13.65
213.283	50.52
213.502	32.08
213.72	21.85
213.938	40.28
214.157	1.37
214.375	50.52
214.594	73.04
214.812	79.19
215.031	48.47
215.249	15.7
215.467	25.94
215.686	-10.92
215.904	75.09
216.122	50.52
216.341	-10.92
216.559	40.28
216.778	-21.16
216.996	23.89
217.214	36.18
217.432	-15.02
217.651	-43.69
217.869	101.72
218.087	11.61
218.306	87.38
218.524	25.94
218.742	-12.97
218.96	93.52
219.179	-17.07
219.397	46.42
219.615	68.95
219.833	36.18
220.051	-10.92
220.27	56.66
220.488	48.47
220.706	64.85
220.924	3.41
221.142	30.04
221.36	-8.87
221.578	34.13
221.796	-6.83
222.015	85.33
222.233	-4.78
222.451	56.66
222.669	-31.4
222.887	3.41
223.105	5.46
223.323	9.56
223.541	-4.78
223.759	73.04
223.977	50.52
224.195	58.71
224.413	15.7
224.631	-35.5
224.849	7.51
225.067	-10.92
225.285	-15.02
225.503	5.46
225.721	-0.68
225.939	77.14
226.157	21.85
226.375	89.43
226.592	21.85
226.81	89.43
227.028	-21.16
227.246	19.8
227.464	66.9
227.682	64.85
227.9	128.34
228.117	64.85
228.335	40.28
228.553	34.13
228.771	44.37
228.989	25.94
229.206	-0.68
229.424	15.7
229.642	15.7
229.86	1.37
230.077	30.04
230.295	5.46
230.513	38.23
230.731	1.37
230.948	60.76
231.166	42.32
231.384	1.37
231.601	-43.69
231.819	25.94
232.037	-0.68
232.254	-29.35
232.472	27.99
232.689	42.32
232.907	101.72
233.125	-35.5
233.342	-4.78
233.56	21.85
233.777	79.19
233.995	46.42
234.213	-6.83
234.43	-51.88
234.648	-17.07
234.865	21.85
235.083	54.61
235.3	19.8
235.518	42.32
235.735	66.9
235.953	48.47
236.17	-15.02
236.388	17.75
236.605	17.75
236.822	36.18
237.04	36.18
237.257	-25.26
237.475	-55.98
237.692	81.24
237.909	-6.83
238.127	23.89
238.344	50.52
238.562	5.46
238.779	-66.22
238.996	17.75
239.214	36.18
239.431	34.13
239.648	54.61
239.865	38.23
240.083	32.08
240.3	58.71
240.517	85.33
240.735	27.99
240.952	17.75
241.169	87.38
241.386	75.09
241.603	73.04
241.821	-4.78
242.038	85.33
242.255	13.65
242.472	91.48
242.689	40.28
242.907	-25.26
243.124	-10.92
243.341	44.37
243.558	-12.97
243.775	46.42
243.992	15.7
244.209	23.89
244.426	21.85
244.643	71
244.86	38.23
245.078	-21.16
245.295	36.18
245.512	56.66
245.729	48.47
245.946	42.32
246.163	-12.97
246.38	27.99
246.597	27.99
246.814	93.52
247.031	11.61
247.248	36.18
247.464	42.32
247.681	23.89
247.898	44.37
248.115	77.14
248.332	34.13
248.549	56.66
248.766	68.95
248.983	1.37
249.2	-47.79
249.417	-10.92
249.633	48.47
249.85	48.47
250.067	34.13
250.284	-4.78
250.501	34.13
250.717	44.37
250.934	83.28
251.151	-37.55
251.368	1.37
251.585	15.7
251.801	-8.87
252.018	46.42
252.235	13.65
252.451	23.89
252.668	-15.02
252.885	44.37
253.102	15.7
253.318	1.37
253.535	75.09
253.752	-8.87
253.968	-33.45
254.185	-8.87
254.401	-19.11
254.618	13.65
254.835	-10.92
255.051	36.18
255.268	34.13
255.484	40.28
255.701	42.32
255.917	13.65
256.134	36.18
256.351	60.76
256.567	-6.83
256.784	5.46
257	87.38
257.217	89.43
257.433	13.65
257.65	23.89
257.866	73.04
258.082	62.8
258.299	-25.26
258.515	36.18
258.732	68.95
258.948	64.85
259.165	-21.16
259.381	-0.68
259.597	62.8
259.814	56.66
260.03	3.41
260.246	66.9
260.463	30.04
260.679	58.71
260.895	-17.07
261.112	40.28
261.328	-6.83
261.544	-10.92
261.761	83.28
261.977	-27.31
262.193	3.41
262.409	-92.84
262.626	75.09
262.842	1.37
263.058	46.42
263.274	68.95
263.49	46.42
263.707	83.28
263.923	25.94
264.139	-29.35
264.355	19.8
264.571	30.04
264.787	87.38
265.004	64.85
265.22	-49.83
265.436	50.52
265.652	36.18
265.868	89.43
266.084	19.8
266.3	52.56
266.516	-62.12
266.732	36.18
266.948	-2.73
267.164	52.56
267.38	-29.35
267.596	105.81
267.812	23.89
268.028	46.42
268.244	85.33
268.46	-12.97
268.676	30.04
268.892	21.85
269.108	30.04
269.324	32.08
269.54	23.89
269.756	19.8
269.972	62.8
270.188	48.47
270.403	-4.78
270.619	30.04
270.835	44.37
271.051	40.28
271.267	42.32
271.483	83.28
271.698	99.67
271.914	-4.78
272.13	52.56
272.346	1.37
272.562	93.52
272.777	15.7
272.993	-29.35
273.209	68.95
273.425	36.18
273.64	75.09
273.856	50.52
274.072	60.76
274.287	89.43
274.503	-12.97
274.719	23.89
274.934	71
275.15	-17.07
275.366	3.41
275.581	-17.07
275.797	15.7
276.012	38.23
276.228	56.66
276.444	42.32
276.659	81.24
276.875	58.71
277.09	62.8
277.306	17.75
277.521	19.8
277.737	-0.68
277.952	-31.4
278.168	44.37
278.383	19.8
278.599	66.9
278.814	48.47
279.03	-21.16
279.245	97.62
279.461	23.89
279.676	32.08
279.892	19.8
280.107	75.09
280.322	17.75
280.538	-2.73
280.753	23.89
280.969	21.85
281.184	19.8
281.399	17.75
281.615	-15.02
281.83	30.04
282.045	-33.45
282.26	21.85
282.476	19.8
282.691	44.37
282.906	-0.68
283.122	-4.78
283.337	-23.21
283.552	68.95
283.767	3.41
283.983	-8.87
284.198	52.56
284.413	11.61
284.628	54.61
284.843	38.23
285.058	75.09
285.274	34.13
285.489	56.66
285.704	97.62
285.919	15.7
286.134	25.94
286.349	50.52
286.564	11.61
286.779	62.8
286.995	64.85
287.21	23.89
287.425	21.85
287.64	44.37
287.855	66.9
288.07	32.08
288.285	58.71
288.5	30.04
288.715	-12.97
288.93	-15.02
289.145	89.43
289.36	93.52
289.575	3.41
289.79	30.04
290.004	79.19
290.219	64.85
290.434	60.76
290.649	1.37
290.864	48.47
291.079	19.8
291.294	124.24
291.509	56.66
291.724	17.75
291.938	42.32
292.153	-0.68
292.368	-8.87
292.583	11.61
292.798	11.61
293.012	48.47
293.227	87.38
293.442	44.37
293.657	7.51
293.871	9.56
294.086	56.66
294.301	-8.87
294.516	19.8
294.73	38.23
294.945	-49.83
295.16	42.32
295.374	15.7
295.589	79.19
295.804	-4.78
296.018	52.56
296.233	36.18
296.447	40.28
296.662	64.85
296.877	36.18
297.091	52.56
297.306	13.65
297.52	-10.92
297.735	93.52
297.949	25.94
298.164	5.46
298.378	1.37
298.593	21.85
298.807	60.76
299.022	52.56
299.236	13.65
299.451	-4.78
299.665	25.94
299.88	-29.35
300.094	58.71
300.309	48.47
300.523	21.85
300.737	42.32
300.952	-33.45
301.166	-17.07
301.381	-8.87
301.595	79.19
301.809	9.56
302.024	21.85
302.238	42.32
302.452	68.95
302.667	-4.78
302.881	60.76
303.095	-21.16
303.309	-37.55
303.524	54.61
303.738	19.8
303.952	-33.45
304.166	-12.97
304.381	52.56
304.595	60.76
304.809	5.46
305.023	73.04
305.237	40.28
305.452	-23.21
305.666	32.08
305.88	93.52
306.094	48.47
306.308	68.95
306.522	77.14
306.736	58.71
306.95	-2.73
307.164	30.04
307.379	54.61
307.593	46.42
307.807	77.14
308.021	101.72
308.235	44.37
308.449	15.7
308.663	-47.79
308.877	54.61
309.091	54.61
309.305	71
309.519	-8.87
309.733	73.04
309.947	-12.97
310.161	46.42
310.374	-15.02
310.588	75.09
310.802	68.95
311.016	23.89
311.23	9.56
311.444	75.09
311.658	91.48
311.872	11.61
312.085	54.61
312.299	34.13
312.513	95.57
312.727	44.37
312.941	60.76
313.154	-17.07
313.368	9.56
313.582	32.08
313.796	25.94
314.009	-19.11
314.223	19.8
314.437	34.13
314.651	27.99
314.864	79.19
315.078	91.48
315.292	62.8
315.505	62.8
315.719	52.56
315.933	68.95
316.146	-23.21
316.36	11.61
316.573	34.13
316.787	-19.11
317.001	19.8
317.214	50.52
317.428	-19.11
317.641	114
317.855	103.76
318.068	48.47
318.282	36.18
318.495	36.18
318.709	44.37
318.922	58.71
319.136	73.04
319.349	36.18
319.563	58.71
319.776	23.89
319.99	66.9
320.203	60.76
320.417	58.71
320.63	17.75
320.843	32.08
321.057	11.61
321.27	32.08
321.483	66.9
321.697	27.99
321.91	-15.02
322.124	105.81
322.337	38.23
322.55	19.8
322.763	77.14
322.977	11.61
323.19	60.76
323.403	7.51
323.617	62.8
323.83	68.95
324.043	46.42
324.256	21.85
324.469	-19.11
324.683	46.42
324.896	46.42
325.109	87.38
325.322	85.33
325.535	27.99
325.748	-25.26
325.962	54.61
326.175	11.61
326.388	58.71
326.601	105.81
326.814	38.23
327.027	40.28
327.24	44.37
327.453	38.23
327.666	52.56
327.879	77.14
328.092	32.08
328.305	-45.74
328.518	93.52
328.731	5.46
328.944	56.66
329.157	56.66
329.37	87.38
329.583	62.8
329.796	103.76
330.009	-23.21
330.222	101.72
330.435	93.52
330.648	60.76
330.861	44.37
331.073	54.61
331.286	91.48
331.499	89.43
331.712	25.94
331.925	46.42
332.138	21.85
332.35	68.95
332.563	60.76
332.776	95.57
332.989	-2.73
333.202	38.23
333.414	54.61
333.627	15.7
333.84	15.7
334.053	134.48
334.265	30.04
334.478	32.08
334.691	73.04
334.903	1.37
335.116	13.65
335.329	52.56
335.541	91.48
335.754	46.42
335.966	64.85
336.179	-6.83
336.392	50.52
336.604	21.85
336.817	75.09
337.029	9.56
337.242	-70.31
337.454	42.32
337.667	99.67
337.88	60.76
338.092	93.52
338.305	-10.92
338.517	79.19
338.729	56.66
338.942	73.04
339.154	44.37
339.367	56.66
339.579	62.8
339.792	21.85
340.004	36.18
340.217	52.56
340.429	25.94
340.641	44.37
340.854	81.24
341.066	15.7
341.278	71
341.491	91.48
341.703	97.62
341.915	56.66
342.128	44.37
342.34	13.65
342.552	46.42
342.764	38.23
342.977	99.67
343.189	83.28
343.401	62.8
343.613	25.94
343.826	-0.68
344.038	34.13
344.25	27.99
344.462	116.05
344.674	87.38
344.886	-6.83
345.099	-2.73
345.311	116.05
345.523	-31.4
345.735	36.18
345.947	52.56
346.159	36.18
346.371	68.95
346.583	21.85
346.795	75.09
347.007	19.8
347.219	-8.87
347.431	91.48
347.643	81.24
347.855	-6.83
348.067	116.05
348.279	23.89
348.491	52.56
348.703	7.51
348.915	42.32
349.127	-0.68
349.339	101.72
349.551	54.61
349.763	71
349.975	58.71
350.187	17.75
350.399	-2.73
350.61	13.65
350.822	27.99
351.034	62.8
351.246	-25.26
351.458	101.72
351.669	-21.16
351.881	77.14
352.093	111.96
352.305	79.19
352.517	44.37
352.728	95.57
352.94	-27.31
353.152	-25.26
353.363	-12.97
353.575	95.57
353.787	56.66
353.999	114
354.21	30.04
354.422	25.94
354.633	48.47
354.845	140.63
355.057	52.56
355.268	5.46
355.48	68.95
355.692	-19.11
355.903	46.42
356.115	62.8
356.326	60.76
356.538	71
356.749	38.23
356.961	54.61
357.172	-8.87
357.384	64.85
357.595	95.57
357.807	81.24
358.018	17.75
358.23	27.99
358.441	95.57
358.653	50.52
358.864	42.32
359.075	64.85
359.287	68.95
359.498	-41.64
359.709	27.99
359.921	34.13
360.132	79.19
360.344	1.37
360.555	-2.73
360.766	32.08
360.977	97.62
361.189	114
361.4	77.14
361.611	23.89
361.823	-6.83
362.034	1.37
362.245	34.13
362.456	68.95
362.667	32.08
362.879	11.61
363.09	118.1
363.301	1.37
363.512	5.46
363.723	7.51
363.935	60.76
364.146	13.65
364.357	-58.03
364.568	93.52
364.779	34.13
364.99	48.47
365.201	30.04
365.412	52.56
365.623	-27.31
365.834	40.28
366.045	66.9
366.256	42.32
366.467	99.67
366.678	-41.64
366.889	-17.07
367.1	91.48
367.311	-47.79
367.522	89.43
367.733	83.28
367.944	54.61
368.155	48.47
368.366	11.61
368.577	17.75
368.788	97.62
368.999	15.7
369.209	21.85
369.42	30.04
369.631	40.28
369.842	46.42
370.053	42.32
370.264	42.32
370.474	9.56
370.685	52.56
370.896	23.89
371.107	17.75
371.317	71
371.528	27.99
371.739	95.57
371.95	-10.92
372.16	52.56
372.371	9.56
372.582	85.33
372.792	34.13
373.003	40.28
373.214	56.66
373.424	56.66
373.635	1.37
373.846	77.14
374.056	30.04
374.267	68.95
374.477	23.89
374.688	40.28
374.898	68.95
375.109	68.95
375.319	11.61
375.53	85.33
375.74	17.75
375.951	71
376.161	11.61
376.372	77.14
376.582	27.99
376.793	48.47
377.003	40.28
377.214	36.18
377.424	91.48
377.635	11.61
377.845	36.18
378.055	52.56
378.266	79.19
378.476	38.23
378.686	109.91
378.897	50.52
379.107	-4.78
379.317	34.13
379.528	30.04
379.738	91.48
379.948	9.56
380.158	62.8
380.369	42.32
380.579	105.81
380.789	75.09
380.999	101.72
381.21	62.8
381.42	114
381.63	79.19
381.84	21.85
382.05	81.24
382.261	97.62
382.471	75.09
382.681	3.41
382.891	52.56
383.101	27.99
383.311	-6.83
383.521	99.67
383.731	40.28
383.941	48.47
384.151	116.05
384.361	34.13
384.571	52.56
384.781	75.09
384.991	25.94
385.201	128.34
385.411	81.24
385.621	-21.16
385.831	54.61
386.041	111.96
386.251	5.46
386.461	-0.68
386.671	60.76
386.881	54.61
387.091	83.28
387.301	66.9
387.511	87.38
387.72	38.23
387.93	52.56
388.14	71
388.35	103.76
388.56	101.72
388.769	103.76
388.979	56.66
389.189	38.23
389.399	111.96
389.609	19.8
389.818	21.85
390.028	9.56
390.238	46.42
390.447	-8.87
390.657	87.38
390.867	7.51
391.076	66.9
391.286	3.41
391.496	25.94
391.705	13.65
391.915	103.76
392.125	50.52
392.334	13.65
392.544	116.05
392.753	114
392.963	77.14
393.172	68.95
393.382	58.71
393.591	81.24
393.801	11.61
394.01	60.76
394.22	85.33
394.429	62.8
394.639	-10.92
394.848	120.15
395.058	44.37
395.267	48.47
395.477	109.91
395.686	101.72
395.895	120.15
396.105	138.58
396.314	130.39
396.524	91.48
396.733	132.44
396.942	130.39
397.152	36.18
397.361	73.04
397.57	138.58
397.78	89.43
397.989	154.96
398.198	91.48
398.407	144.72
398.617	204.11
398.826	136.53
399.035	93.52
399.244	128.34
399.453	120.15
399.663	150.87
399.872	73.04
400.081	56.66
400.29	197.97
400.499	95.57
400.708	177.49
400.917	79.19
401.127	130.39
401.336	91.48
401.545	154.96
401.754	144.72
401.963	54.61
402.172	148.82
402.381	81.24
402.59	167.25
402.799	93.52
403.008	99.67
403.217	140.63
403.426	126.29
403.635	173.39
403.844	75.09
404.053	138.58
404.262	134.48
404.471	187.73
404.68	140.63
404.888	171.35
405.097	148.82
405.306	230.74
405.515	146.77
405.724	159.06
405.933	126.29
406.142	171.35
406.35	187.73
406.559	206.16
406.768	134.48
406.977	232.79
407.185	202.07
407.394	245.07
407.603	259.41
407.812	245.07
408.02	243.03
408.229	138.58
408.438	292.18
408.646	255.31
408.855	341.33
409.064	298.32
409.272	279.89
409.481	220.5
409.69	232.79
409.898	277.84
410.107	316.75
410.315	316.75
410.524	361.81
410.733	388.43
410.941	408.91
411.15	376.14
411.358	341.33
411.567	382.29
411.775	392.53
411.984	331.09
412.192	542.03
412.401	433.49
412.609	585.04
412.818	566.6
413.026	626
413.234	513.36
413.443	640.33
413.651	486.73
413.86	535.89
414.068	607.56
414.276	576.84
414.485	601.42
414.693	673.1
414.901	681.29
415.11	808.26
415.318	798.03
415.526	662.86
415.734	793.93
415.943	832.84
416.151	853.32
416.359	945.48
416.567	888.14
416.776	988.49
416.984	972.1
417.192	970.05
417.4	1043.78
417.608	1088.84
417.817	1131.84
418.025	1123.65
418.233	1262.91
418.441	1207.62
418.649	1281.35
418.857	1238.34
419.065	1359.17
419.273	1307.97
419.481	1412.42
419.689	1449.28
419.897	1557.82
420.105	1682.75
420.313	1594.68
420.521	1674.56
420.729	1701.18
420.937	1740.09
421.145	1938.74
421.353	1899.83
421.561	1998.13
421.769	2075.96
421.977	2174.26
422.185	2170.16
422.393	2282.8
422.601	2381.11
422.809	2401.58
423.017	2385.2
423.224	2573.61
423.432	2573.61
423.64	2676.01
423.848	2925.86
424.056	2766.12
424.263	2938.15
424.471	3030.31
424.679	2954.54
424.887	3251.49
425.094	3134.76
425.302	3257.64
425.51	3437.86
425.718	3566.88
425.925	3706.14
426.133	3800.35
426.341	3925.27
426.548	4142.36
426.756	4142.36
426.964	4119.83
427.171	4519.18
427.379	4597.01
427.586	4605.2
427.794	4664.59
428.001	4990.22
428.209	5242.12
428.417	5045.51
428.624	5393.67
428.832	5434.63
429.039	5453.06
429.247	5471.49
429.454	5940.47
429.662	6386.93
429.869	6020.35
430.076	6454.51
430.284	6204.66
430.491	6399.22
430.699	6780.14
430.906	6790.38
431.114	6778.09
431.321	7142.63
431.528	7394.53
431.736	7675.1
431.943	8162.52
432.15	7793.89
432.358	7797.98
432.565	8436.95
432.772	8412.37
432.979	8760.53
433.187	8989.9
433.394	8948.94
433.601	9592
433.808	9635.01
434.016	9829.57
434.223	9893.05
434.43	10544.31
434.637	10446.01
434.844	10939.57
435.052	11089.07
435.259	11228.33
435.466	11248.81
435.673	11232.43
435.88	11725.99
436.087	12477.59
436.294	12561.56
436.501	12264.6
436.708	12250.27
436.915	13083.79
437.122	13522.05
437.329	13270.15
437.537	13751.43
437.743	13980.8
437.95	14122.11
438.157	14646.39
438.364	15248.49
438.571	15236.2
438.778	15262.83
438.985	16700.5
439.192	16206.94
439.399	16495.71
439.606	16084.06
439.813	17267.79
440.02	18175.04
440.227	17757.25
440.433	17677.38
440.64	18132.03
440.847	17980.48
441.054	18795.57
441.261	19852.33
441.467	19403.82
441.674	19868.71
441.881	20878.36
442.088	20640.79
442.294	20268.06
442.501	21046.29
442.708	21548.04
442.914	22281.22
443.121	23108.6
443.328	22596.6
443.534	24296.42
443.741	23389.17
443.948	23294.96
444.154	24902.62
444.361	24753.12
444.568	24933.34
444.774	24886.23
444.981	25396.18
445.187	26174.41
445.394	26948.54
445.6	26373.06
445.807	28900.25
446.013	28240.81
446.22	28418.98
446.426	29483.92
446.633	29662.1
446.839	30858.11
447.046	29563.79
447.252	31296.38
447.459	31384.44
447.665	30899.07
447.871	32301.93
448.078	33979.21
448.284	32404.33
448.491	32869.22
448.697	34190.16
448.903	35042.11
449.11	35111.74
449.316	34493.25
449.522	34968.38
449.728	35978.03
449.935	35973.94
450.141	36113.2
450.347	36641.57
450.553	35808.05
450.76	36623.14
450.966	37557.02
451.172	36707.11
451.378	37864.21
451.584	37264.16
451.791	37919.51
451.997	37935.89
452.203	37999.38
452.409	38581
452.615	38095.63
452.821	36829.99
453.027	36432.68
453.233	38392.59
453.44	36805.41
453.646	37155.61
453.852	37374.75
454.058	37819.16
454.264	36776.74
454.47	37167.9
454.676	36408.11
454.882	37499.67
455.088	34440.01
455.294	34908.99
455.5	35709.75
455.705	35865.39
455.911	34181.96
456.117	33194.84
456.323	32953.18
456.529	31388.53
456.735	32336.74
456.941	31515.51
457.147	31226.74
457.352	30479.24
457.558	30069.64
457.764	30364.55
457.97	29227.93
458.176	28986.27
458.381	28838.81
458.587	27333.56
458.793	27417.52
458.999	25922.51
459.204	27972.52
459.41	27050.94
459.616	25263.06
459.821	25564.11
460.027	25465.81
460.233	24714.2
460.438	23614.44
460.644	23815.15
460.85	22744.06
461.055	22502.4
461.261	22092.8
461.466	20614.17
461.672	20089.89
461.878	21511.18
462.083	20120.61
462.289	19727.4
462.494	19741.74
462.7	18756.66
462.905	18256.96
463.111	18988.08
463.316	18924.6
463.522	18375.74
463.727	18623.55
463.932	18500.67
464.138	18396.22
464.343	18371.65
464.549	18021.44
464.754	18404.41
464.959	18201.66
465.165	18285.63
465.37	17130.58
465.575	16809.04
465.781	17611.85
465.986	17886.28
466.191	16979.03
466.397	16802.9
466.602	15860.84
466.807	16442.46
467.012	16507.99
467.218	16315.48
467.423	16245.85
467.628	16499.8
467.833	17216.59
468.038	16464.99
