Data from USB4F104151__288__14-02-43-664.txt Node

Date: Thu Mar 13 14:02:43 EDT 2025
User: louis
Spectrometer: USB4F10415
Trigger mode: 4
Integration Time (sec): 1.000000E-2
Scans to average: 1
Electric dark correction enabled: true
Nonlinearity correction enabled: false
Boxcar width: 0
XAxis mode: Wavelengths
Number of Pixels in Spectrum: 3648
>>>>>Begin Spectral Data<<<<<
178.204	-61.95
178.424	-61.95
178.644	-61.95
178.864	3.58
179.084	13.82
179.304	15.87
179.524	7.68
179.744	-6.66
179.964	-61.95
180.184	-18.94
180.404	13.82
180.624	32.26
180.844	26.11
181.064	-10.75
181.283	40.45
181.503	-25.09
181.723	-12.8
181.943	-4.61
182.163	38.4
182.383	15.87
182.602	60.93
182.822	30.21
183.042	58.88
183.262	9.73
183.482	-39.42
183.701	42.5
183.921	44.54
184.141	34.3
184.361	5.63
184.58	24.06
184.8	11.78
185.02	65.02
185.239	28.16
185.459	-16.9
185.679	-31.23
185.898	-29.18
186.118	116.22
186.338	13.82
186.557	-18.94
186.777	-8.7
186.997	5.63
187.216	60.93
187.436	42.5
187.655	13.82
187.875	17.92
188.095	11.78
188.314	-6.66
188.534	36.35
188.753	-2.56
188.973	52.74
189.192	65.02
189.412	5.63
189.631	-23.04
189.851	15.87
190.07	-2.56
190.29	11.78
190.509	17.92
190.729	28.16
190.948	50.69
191.168	85.5
191.387	-12.8
191.607	-53.76
191.826	-23.04
192.045	54.78
192.265	-10.75
192.484	40.45
192.704	1.54
192.923	-39.42
193.142	48.64
193.362	38.4
193.581	69.12
193.8	62.98
194.02	52.74
194.239	95.74
194.458	54.78
194.678	17.92
194.897	26.11
195.116	22.02
195.335	99.84
195.555	42.5
195.774	26.11
195.993	22.02
196.212	44.54
196.432	9.73
196.651	46.59
196.87	-2.56
197.089	-10.75
197.308	93.69
197.528	-20.99
197.747	26.11
197.966	9.73
198.185	91.65
198.404	-6.66
198.623	11.78
198.842	36.35
199.062	-2.56
199.281	95.74
199.5	40.45
199.719	38.4
199.938	44.54
200.157	60.93
200.376	22.02
200.595	54.78
200.814	52.74
201.033	1.54
201.252	22.02
201.471	34.3
201.69	38.4
201.909	32.26
202.128	-27.14
202.347	7.68
202.566	9.73
202.785	38.4
203.004	24.06
203.223	46.59
203.442	17.92
203.661	7.68
203.879	-14.85
204.098	118.27
204.317	3.58
204.536	17.92
204.755	9.73
204.974	32.26
205.193	-10.75
205.411	-14.85
205.63	62.98
205.849	34.3
206.068	9.73
206.287	42.5
206.505	124.41
206.724	30.21
206.943	-16.9
207.162	-6.66
207.381	54.78
207.599	15.87
207.818	5.63
208.037	50.69
208.255	-35.33
208.474	17.92
208.693	54.78
208.911	-18.94
209.13	24.06
209.349	9.73
209.567	1.54
209.786	52.74
210.005	1.54
210.223	58.88
210.442	-2.56
210.661	83.45
210.879	22.02
211.098	3.58
211.316	91.65
211.535	3.58
211.753	-29.18
211.972	-25.09
212.191	83.45
212.409	99.84
212.628	36.35
212.846	1.54
213.065	-35.33
213.283	11.78
213.502	15.87
213.72	3.58
213.938	101.89
214.157	46.59
214.375	91.65
214.594	9.73
214.812	13.82
215.031	32.26
215.249	40.45
215.467	34.3
215.686	1.54
215.904	75.26
216.122	44.54
216.341	-4.61
216.559	34.3
216.778	58.88
216.996	34.3
217.214	-6.66
217.432	69.12
217.651	58.88
217.869	5.63
218.087	-45.57
218.306	32.26
218.524	1.54
218.742	62.98
218.96	46.59
219.179	24.06
219.397	62.98
219.615	3.58
219.833	-23.04
220.051	-35.33
220.27	-14.85
220.488	58.88
220.706	48.64
220.924	17.92
221.142	69.12
221.36	67.07
221.578	-10.75
221.796	26.11
222.015	52.74
222.233	1.54
222.451	28.16
222.669	32.26
222.887	67.07
223.105	-70.14
223.323	87.55
223.541	-14.85
223.759	-29.18
223.977	-14.85
224.195	11.78
224.413	52.74
224.631	3.58
224.849	17.92
225.067	58.88
225.285	-20.99
225.503	22.02
225.721	-27.14
225.939	50.69
226.157	32.26
226.375	30.21
226.592	-23.04
226.81	-2.56
227.028	34.3
227.246	44.54
227.464	87.55
227.682	22.02
227.9	-10.75
228.117	87.55
228.335	34.3
228.553	54.78
228.771	34.3
228.989	58.88
229.206	15.87
229.424	-12.8
229.642	-23.04
229.86	52.74
230.077	83.45
230.295	40.45
230.513	91.65
230.731	77.31
230.948	-35.33
231.166	89.6
231.384	-12.8
231.601	19.97
231.819	91.65
232.037	54.78
232.254	-4.61
232.472	17.92
232.689	114.17
232.907	44.54
233.125	-53.76
233.342	26.11
233.56	38.4
233.777	69.12
233.995	62.98
234.213	9.73
234.43	13.82
234.648	73.21
234.865	-107.01
235.083	-8.7
235.3	36.35
235.518	89.6
235.735	128.51
235.953	-8.7
236.17	38.4
236.388	36.35
236.605	17.92
236.822	3.58
237.04	62.98
237.257	50.69
237.475	13.82
237.692	-4.61
237.909	58.88
238.127	-33.28
238.344	-18.94
238.562	-12.8
238.779	-43.52
238.996	58.88
239.214	32.26
239.431	1.54
239.648	52.74
239.865	-2.56
240.083	30.21
240.3	9.73
240.517	-14.85
240.735	67.07
240.952	38.4
241.169	42.5
241.386	-18.94
241.603	-14.85
241.821	93.69
242.038	69.12
242.255	69.12
242.472	42.5
242.689	1.54
242.907	91.65
243.124	-6.66
243.341	50.69
243.558	-23.04
243.775	36.35
243.992	22.02
244.209	36.35
244.426	34.3
244.643	52.74
244.86	83.45
245.078	9.73
245.295	9.73
245.512	-6.66
245.729	11.78
245.946	-0.51
246.163	24.06
246.38	7.68
246.597	99.84
246.814	-12.8
247.031	28.16
247.248	-37.38
247.464	24.06
247.681	-16.9
247.898	19.97
248.115	-4.61
248.332	30.21
248.549	15.87
248.766	79.36
248.983	-0.51
249.2	65.02
249.417	91.65
249.633	42.5
249.85	9.73
250.067	69.12
250.284	69.12
250.501	87.55
250.717	-27.14
250.934	105.98
251.151	26.11
251.368	75.26
251.585	58.88
251.801	44.54
252.018	-57.86
252.235	11.78
252.451	32.26
252.668	71.17
252.885	67.07
253.102	58.88
253.318	34.3
253.535	22.02
253.752	15.87
253.968	26.11
254.185	30.21
254.401	28.16
254.618	26.11
254.835	26.11
255.051	38.4
255.268	-37.38
255.484	30.21
255.701	118.27
255.917	28.16
256.134	77.31
256.351	13.82
256.567	5.63
256.784	1.54
257	5.63
257.217	85.5
257.433	1.54
257.65	9.73
257.866	48.64
258.082	22.02
258.299	13.82
258.515	-4.61
258.732	3.58
258.948	62.98
259.165	11.78
259.381	65.02
259.597	17.92
259.814	30.21
260.03	17.92
260.246	95.74
260.463	19.97
260.679	62.98
260.895	26.11
261.112	60.93
261.328	-6.66
261.544	15.87
261.761	54.78
261.977	5.63
262.193	-35.33
262.409	60.93
262.626	-4.61
262.842	36.35
263.058	-4.61
263.274	7.68
263.49	1.54
263.707	9.73
263.923	28.16
264.139	50.69
264.355	3.58
264.571	36.35
264.787	26.11
265.004	11.78
265.22	46.59
265.436	71.17
265.652	-23.04
265.868	54.78
266.084	5.63
266.3	122.37
266.516	58.88
266.732	99.84
266.948	67.07
267.164	3.58
267.38	-25.09
267.596	65.02
267.812	44.54
268.028	36.35
268.244	32.26
268.46	42.5
268.676	-14.85
268.892	-16.9
269.108	24.06
269.324	46.59
269.54	-20.99
269.756	91.65
269.972	42.5
270.188	112.13
270.403	118.27
270.619	-12.8
270.835	-27.14
271.051	-8.7
271.267	30.21
271.483	69.12
271.698	34.3
271.914	75.26
272.13	28.16
272.346	52.74
272.562	44.54
272.777	54.78
272.993	44.54
273.209	1.54
273.425	30.21
273.64	-10.75
273.856	28.16
274.072	7.68
274.287	58.88
274.503	-12.8
274.719	-12.8
274.934	52.74
275.15	15.87
275.366	48.64
275.581	-43.52
275.797	1.54
276.012	28.16
276.228	44.54
276.444	9.73
276.659	99.84
276.875	-12.8
277.09	73.21
277.306	42.5
277.521	83.45
277.737	26.11
277.952	40.45
278.168	-41.47
278.383	40.45
278.599	-0.51
278.814	97.79
279.03	22.02
279.245	54.78
279.461	101.89
279.676	67.07
279.892	46.59
280.107	3.58
280.322	-0.51
280.538	60.93
280.753	-59.9
280.969	1.54
281.184	62.98
281.399	24.06
281.615	22.02
281.83	3.58
282.045	-23.04
282.26	48.64
282.476	112.13
282.691	81.41
282.906	40.45
283.122	30.21
283.337	9.73
283.552	7.68
283.767	34.3
283.983	69.12
284.198	11.78
284.413	-4.61
284.628	3.58
284.843	9.73
285.058	48.64
285.274	83.45
285.489	-23.04
285.704	36.35
285.919	-4.61
286.134	-27.14
286.349	89.6
286.564	17.92
286.779	46.59
286.995	40.45
287.21	46.59
287.425	71.17
287.64	-6.66
287.855	42.5
288.07	40.45
288.285	65.02
288.5	19.97
288.715	71.17
288.93	13.82
289.145	3.58
289.36	62.98
289.575	52.74
289.79	60.93
290.004	-55.81
290.219	-20.99
290.434	34.3
290.649	-84.48
290.864	-16.9
291.079	48.64
291.294	46.59
291.509	48.64
291.724	26.11
291.938	44.54
292.153	103.93
292.368	65.02
292.583	22.02
292.798	65.02
293.012	71.17
293.227	26.11
293.442	67.07
293.657	9.73
293.871	116.22
294.086	22.02
294.301	56.83
294.516	134.65
294.73	24.06
294.945	17.92
295.16	19.97
295.374	9.73
295.589	19.97
295.804	1.54
296.018	-10.75
296.233	97.79
296.447	67.07
296.662	67.07
296.877	89.6
297.091	54.78
297.306	50.69
297.52	-4.61
297.735	50.69
297.949	110.08
298.164	75.26
298.378	-41.47
298.593	50.69
298.807	50.69
299.022	118.27
299.236	67.07
299.451	1.54
299.665	-20.99
299.88	30.21
300.094	1.54
300.309	26.11
300.523	1.54
300.737	62.98
300.952	36.35
301.166	120.32
301.381	5.63
301.595	75.26
301.809	144.89
302.024	-2.56
302.238	19.97
302.452	30.21
302.667	13.82
302.881	9.73
303.095	112.13
303.309	24.06
303.524	36.35
303.738	28.16
303.952	48.64
304.166	3.58
304.381	60.93
304.595	73.21
304.809	67.07
305.023	67.07
305.237	34.3
305.452	26.11
305.666	-14.85
305.88	7.68
306.094	9.73
306.308	120.32
306.522	81.41
306.736	50.69
306.95	67.07
307.164	28.16
307.379	38.4
307.593	69.12
307.807	56.83
308.021	58.88
308.235	9.73
308.449	-10.75
308.663	124.41
308.877	103.93
309.091	-14.85
309.305	7.68
309.519	-2.56
309.733	26.11
309.947	34.3
310.161	71.17
310.374	-20.99
310.588	36.35
310.802	32.26
311.016	26.11
311.23	48.64
311.444	42.5
311.658	13.82
311.872	34.3
312.085	50.69
312.299	95.74
312.513	62.98
312.727	71.17
312.941	48.64
313.154	34.3
313.368	52.74
313.582	38.4
313.796	-2.56
314.009	77.31
314.223	42.5
314.437	81.41
314.651	87.55
314.864	36.35
315.078	28.16
315.292	116.22
315.505	-27.14
315.719	71.17
315.933	26.11
316.146	-10.75
316.36	-53.76
316.573	44.54
316.787	13.82
317.001	54.78
317.214	46.59
317.428	85.5
317.641	-2.56
317.855	1.54
318.068	99.84
318.282	1.54
318.495	5.63
318.709	34.3
318.922	-39.42
319.136	89.6
319.349	69.12
319.563	60.93
319.776	3.58
319.99	-18.94
320.203	87.55
320.417	48.64
320.63	67.07
320.843	87.55
321.057	-47.62
321.27	85.5
321.483	-27.14
321.697	83.45
321.91	34.3
322.124	42.5
322.337	26.11
322.55	97.79
322.763	-6.66
322.977	17.92
323.19	-10.75
323.403	-14.85
323.617	-27.14
323.83	40.45
324.043	13.82
324.256	40.45
324.469	15.87
324.683	50.69
324.896	3.58
325.109	97.79
325.322	5.63
325.535	46.59
325.748	62.98
325.962	50.69
326.175	5.63
326.388	19.97
326.601	75.26
326.814	99.84
327.027	116.22
327.24	36.35
327.453	56.83
327.666	101.89
327.879	54.78
328.092	-18.94
328.305	73.21
328.518	60.93
328.731	75.26
328.944	-14.85
329.157	77.31
329.37	24.06
329.583	112.13
329.796	22.02
330.009	83.45
330.222	50.69
330.435	58.88
330.648	42.5
330.861	83.45
331.073	-4.61
331.286	17.92
331.499	1.54
331.712	30.21
331.925	19.97
332.138	9.73
332.35	11.78
332.563	1.54
332.776	42.5
332.989	67.07
333.202	9.73
333.414	75.26
333.627	89.6
333.84	87.55
334.053	52.74
334.265	50.69
334.478	-57.86
334.691	-14.85
334.903	99.84
335.116	11.78
335.329	50.69
335.541	36.35
335.754	1.54
335.966	62.98
336.179	85.5
336.392	44.54
336.604	65.02
336.817	3.58
337.029	-6.66
337.242	58.88
337.454	42.5
337.667	32.26
337.88	128.51
338.092	91.65
338.305	50.69
338.517	34.3
338.729	28.16
338.942	34.3
339.154	91.65
339.367	17.92
339.579	48.64
339.792	-4.61
340.004	69.12
340.217	13.82
340.429	110.08
340.641	58.88
340.854	58.88
341.066	62.98
341.278	67.07
341.491	116.22
341.703	-61.95
341.915	36.35
342.128	46.59
342.34	50.69
342.552	9.73
342.764	9.73
342.977	-18.94
343.189	54.78
343.401	50.69
343.613	30.21
343.826	-29.18
344.038	-31.23
344.25	-10.75
344.462	75.26
344.674	17.92
344.886	48.64
345.099	19.97
345.311	62.98
345.523	-35.33
345.735	81.41
345.947	34.3
346.159	58.88
346.371	85.5
346.583	28.16
346.795	60.93
347.007	101.89
347.219	-2.56
347.431	54.78
347.643	112.13
347.855	58.88
348.067	69.12
348.279	40.45
348.491	69.12
348.703	19.97
348.915	77.31
349.127	3.58
349.339	69.12
349.551	-0.51
349.763	34.3
349.975	-8.7
350.187	126.46
350.399	54.78
350.61	-6.66
350.822	71.17
351.034	87.55
351.246	91.65
351.458	32.26
351.669	77.31
351.881	17.92
352.093	116.22
352.305	-6.66
352.517	5.63
352.728	1.54
352.94	13.82
353.152	54.78
353.363	77.31
353.575	105.98
353.787	118.27
353.999	32.26
354.21	75.26
354.422	22.02
354.633	7.68
354.845	30.21
355.057	60.93
355.268	34.3
355.48	67.07
355.692	-0.51
355.903	153.09
356.115	22.02
356.326	56.83
356.538	67.07
356.749	54.78
356.961	62.98
357.172	34.3
357.384	9.73
357.595	50.69
357.807	17.92
358.018	52.74
358.23	44.54
358.441	99.84
358.653	69.12
358.864	42.5
359.075	46.59
359.287	-0.51
359.498	48.64
359.709	124.41
359.921	-14.85
360.132	42.5
360.344	110.08
360.555	85.5
360.766	42.5
360.977	103.93
361.189	118.27
361.4	36.35
361.611	81.41
361.823	30.21
362.034	36.35
362.245	3.58
362.456	50.69
362.667	28.16
362.879	50.69
363.09	112.13
363.301	26.11
363.512	26.11
363.723	69.12
363.935	26.11
364.146	1.54
364.357	60.93
364.568	32.26
364.779	91.65
364.99	-29.18
365.201	24.06
365.412	34.3
365.623	44.54
365.834	83.45
366.045	73.21
366.256	112.13
366.467	40.45
366.678	44.54
366.889	1.54
367.1	36.35
367.311	69.12
367.522	85.5
367.733	54.78
367.944	42.5
368.155	7.68
368.366	89.6
368.577	34.3
368.788	22.02
368.999	-4.61
369.209	58.88
369.42	-2.56
369.631	91.65
369.842	7.68
370.053	73.21
370.264	77.31
370.474	122.37
370.685	3.58
370.896	26.11
371.107	38.4
371.317	42.5
371.528	89.6
371.739	62.98
371.95	22.02
372.16	26.11
372.371	9.73
372.582	48.64
372.792	73.21
373.003	22.02
373.214	52.74
373.424	58.88
373.635	105.98
373.846	62.98
374.056	42.5
374.267	67.07
374.477	40.45
374.688	24.06
374.898	-0.51
375.109	99.84
375.319	28.16
375.53	67.07
375.74	-10.75
375.951	103.93
376.161	112.13
376.372	144.89
376.582	24.06
376.793	126.46
377.003	-10.75
377.214	50.69
377.424	40.45
377.635	32.26
377.845	5.63
378.055	99.84
378.266	-2.56
378.476	67.07
378.686	11.78
378.897	42.5
379.107	52.74
379.317	114.17
379.528	32.26
379.738	99.84
379.948	95.74
380.158	93.69
380.369	19.97
380.579	116.22
380.789	22.02
380.999	52.74
381.21	56.83
381.42	54.78
381.63	71.17
381.84	62.98
382.05	62.98
382.261	30.21
382.471	56.83
382.681	19.97
382.891	44.54
383.101	60.93
383.311	69.12
383.521	-6.66
383.731	114.17
383.941	5.63
384.151	15.87
384.361	-72.19
384.571	46.59
384.781	54.78
384.991	42.5
385.201	38.4
385.411	22.02
385.621	34.3
385.831	9.73
386.041	118.27
386.251	89.6
386.461	9.73
386.671	83.45
386.881	54.78
387.091	30.21
387.301	95.74
387.511	120.32
387.72	62.98
387.93	65.02
388.14	69.12
388.35	60.93
388.56	108.03
388.769	112.13
388.979	77.31
389.189	-6.66
389.399	89.6
389.609	22.02
389.818	28.16
390.028	52.74
390.238	36.35
390.447	87.55
390.657	15.87
390.867	85.5
391.076	15.87
391.286	85.5
391.496	34.3
391.705	126.46
391.915	54.78
392.125	89.6
392.334	108.03
392.544	89.6
392.753	132.61
392.963	67.07
393.172	83.45
393.382	60.93
393.591	91.65
393.801	95.74
394.01	105.98
394.22	99.84
394.429	75.26
394.639	52.74
394.848	110.08
395.058	103.93
395.267	97.79
395.477	67.07
395.686	157.18
395.895	126.46
396.105	118.27
396.314	93.69
396.524	24.06
396.733	81.41
396.942	153.09
397.152	71.17
397.361	26.11
397.57	105.98
397.78	85.5
397.989	110.08
398.198	120.32
398.407	65.02
398.617	124.41
398.826	124.41
399.035	103.93
399.244	60.93
399.453	58.88
399.663	134.65
399.872	108.03
400.081	99.84
400.29	85.5
400.499	-2.56
400.708	91.65
400.917	99.84
401.127	52.74
401.336	167.42
401.545	120.32
401.754	52.74
401.963	130.56
402.172	85.5
402.381	101.89
402.59	181.76
402.799	136.7
403.008	99.84
403.217	110.08
403.426	58.88
403.635	155.13
403.844	122.37
404.053	112.13
404.262	118.27
404.471	126.46
404.68	132.61
404.888	130.56
405.097	183.81
405.306	126.46
405.515	185.85
405.724	181.76
405.933	163.33
406.142	116.22
406.35	132.61
406.559	142.85
406.768	132.61
406.977	198.14
407.185	198.14
407.394	226.81
407.603	192
407.812	282.11
408.02	206.33
408.229	214.52
408.438	173.57
408.646	257.53
408.855	220.67
409.064	226.81
409.272	271.87
409.481	280.06
409.69	247.29
409.898	278.01
410.107	237.05
410.315	312.83
410.524	265.72
410.733	239.1
410.941	300.54
411.15	359.93
411.358	370.17
411.567	400.89
411.775	353.79
411.984	388.6
412.192	472.57
412.401	390.65
412.609	447.99
412.818	468.47
413.026	392.7
413.234	503.29
413.443	521.72
413.651	501.24
413.86	515.58
414.068	542.2
414.276	556.54
414.485	538.1
414.693	603.64
414.901	589.3
415.11	665.08
415.318	665.08
415.526	691.7
415.734	773.62
415.943	783.86
416.151	845.3
416.359	732.66
416.567	843.25
416.776	796.15
416.984	884.21
417.192	890.35
417.4	902.64
417.608	906.74
417.817	939.51
418.025	1093.1
418.233	1146.35
418.441	1035.76
418.649	1144.3
418.857	1134.06
419.065	1304.04
419.273	1267.18
419.481	1175.02
419.689	1361.39
419.897	1388.01
420.105	1441.26
420.313	1560.04
420.521	1465.83
420.729	1453.55
420.937	1541.61
421.145	1627.62
421.353	1713.64
421.561	1900
421.769	1852.9
421.977	1877.48
422.185	1869.28
422.393	2037.22
422.601	2049.5
422.809	2201.05
423.017	2115.04
423.224	2278.88
423.432	2391.52
423.64	2276.83
423.848	2477.53
424.056	2481.63
424.263	2706.9
424.471	2639.32
424.679	2639.32
424.887	2958.8
425.094	2880.98
425.302	3024.34
425.51	3169.74
425.718	3237.33
425.925	3110.35
426.133	3212.75
426.341	3446.22
426.548	3530.19
426.756	3618.25
426.964	3732.94
427.171	3847.62
427.379	4040.13
427.586	4081.09
427.794	4279.74
428.001	4322.75
428.209	4396.48
428.417	4371.9
428.624	4795.83
428.832	4853.17
429.039	4769.21
429.247	4761.02
429.454	5008.82
429.662	5567.92
429.869	5205.42
430.076	5633.45
430.284	5379.5
430.491	5512.62
430.699	5981.6
430.906	5975.46
431.114	6081.96
431.321	6344.1
431.528	6493.6
431.736	6888.85
431.943	7107.99
432.15	6905.24
432.358	6981.01
432.565	7251.35
432.772	7363.98
432.979	7796.11
433.187	7783.82
433.394	7918.98
433.601	8449.41
433.808	8371.58
434.016	8498.56
434.223	8676.73
434.43	9260.4
434.637	8957.3
434.844	9573.74
435.052	9799.02
435.259	9799.02
435.466	9950.57
435.673	9670
435.88	10407.27
436.087	10927.45
436.294	10894.68
436.501	10538.34
436.708	10853.72
436.915	11158.87
437.122	11867.47
437.329	11617.61
437.537	12025.16
437.743	12332.36
437.95	12133.7
438.157	12789.05
438.364	13448.5
438.571	13313.33
438.778	13350.2
438.985	14464.29
439.192	13868.33
439.399	14468.39
439.606	14271.78
439.813	14806.3
440.02	15727.89
440.227	15549.71
440.433	15105.31
440.64	15994.12
440.847	15740.18
441.054	16110.86
441.261	17261.82
441.467	16895.23
441.674	17450.23
441.881	18048.24
442.088	17790.19
442.294	17741.04
442.501	17986.8
442.708	18543.85
442.914	19416.28
443.121	20045.01
443.328	19725.52
443.534	21116.09
443.741	20554.95
443.948	20268.23
444.154	21714.1
444.361	21517.5
444.568	21691.57
444.774	21638.33
444.981	21953.71
445.187	22459.56
445.394	23489.69
445.6	23043.23
445.807	25379.96
446.013	24097.94
446.22	24575.11
446.426	25490.56
446.633	25785.46
446.839	26639.47
447.046	25433.21
447.252	27018.34
447.459	26903.65
447.665	26958.95
447.871	28085.33
448.078	28982.34
448.284	27927.64
448.491	28406.86
448.697	30014.52
448.903	30131.25
449.11	30622.76
449.316	30014.52
449.522	30403.63
449.728	31179.81
449.935	31511.58
450.141	31546.4
450.347	31634.46
450.553	31040.55
450.76	31624.22
450.966	32740.36
451.172	32158.74
451.378	32652.3
451.584	32199.7
451.791	32830.48
451.997	32996.36
452.203	33604.61
452.409	33580.03
452.615	33291.27
452.821	32316.43
453.027	32248.85
453.233	33438.72
453.44	32060.44
453.646	32115.73
453.852	32830.48
454.058	33033.22
454.264	32271.38
454.47	32408.59
454.676	31923.22
454.882	33109
455.088	30133.3
455.294	30805.03
455.5	30882.86
455.705	31525.92
455.911	30075.96
456.117	29963.32
456.323	29275.2
456.529	27798.62
456.735	28814.41
456.941	28177.49
457.147	27628.63
457.352	26870.89
457.558	26762.34
457.764	26559.59
457.97	26045.55
458.176	25455.74
458.381	25601.15
458.587	24128.66
458.793	24278.16
458.999	23047.33
459.204	24824.97
459.41	24157.33
459.616	22408.36
459.821	22574.25
460.027	22367.4
460.233	21800.12
460.438	20710.6
460.644	21220.54
460.85	20206.8
461.055	20032.72
461.261	19729.62
461.466	18207.98
461.672	17702.13
461.878	19326.17
462.083	17798.38
462.289	17413.37
462.494	17417.46
462.7	16628.99
462.905	16141.58
463.111	16657.67
463.316	16622.85
463.522	16477.44
463.727	16434.44
463.932	16303.37
464.138	16166.15
464.343	16327.94
464.549	15731.98
464.754	16403.72
464.959	15957.26
465.165	15906.06
465.37	15219.99
465.575	14779.68
465.781	15521.04
465.986	15463.7
466.191	15115.55
466.397	14728.48
466.602	13972.78
466.807	14447.91
467.012	14445.86
467.218	14386.47
467.423	14325.03
467.628	14294.31
467.833	14886.17
468.038	14124.33
468.244	14050.6
468.449	14734.62
468.654	14009.64
