Data from USB4F104151__1__13-51-55-953.txt Node

Date: Thu Mar 13 13:51:55 EDT 2025
User: louis
Spectrometer: USB4F10415
Trigger mode: 4
Integration Time (sec): 1.000000E-2
Scans to average: 1
Electric dark correction enabled: true
Nonlinearity correction enabled: false
Boxcar width: 0
XAxis mode: Wavelengths
Number of Pixels in Spectrum: 3648
>>>>>Begin Spectral Data<<<<<
178.204	-36.86
178.424	-36.86
178.644	-36.86
178.864	2.05
179.084	-16.38
179.304	-67.58
179.524	57.34
179.744	-30.72
179.964	14.34
180.184	-24.58
180.404	38.91
180.624	-110.59
180.844	16.38
181.064	-40.96
181.283	38.91
181.503	49.15
181.723	59.39
181.943	14.34
182.163	118.78
182.383	63.49
182.602	-12.29
182.822	43.01
183.042	-18.43
183.262	36.86
183.482	-18.43
183.701	47.1
183.921	49.15
184.141	51.2
184.361	18.43
184.58	22.53
184.8	26.62
185.02	-32.77
185.239	59.39
185.459	-26.62
185.679	114.69
185.898	53.25
186.118	24.58
186.338	-8.19
186.557	30.72
186.777	-26.62
186.997	-2.05
187.216	4.1
187.436	49.15
187.655	38.91
187.875	8.19
188.095	-75.77
188.314	81.92
188.534	-16.38
188.753	67.58
188.973	69.63
189.192	34.82
189.412	108.54
189.631	79.87
189.851	-22.53
190.07	-20.48
190.29	24.58
190.509	-10.24
190.729	47.1
190.948	20.48
191.168	38.91
191.387	24.58
191.607	16.38
191.826	8.19
192.045	-30.72
192.265	45.06
192.484	47.1
192.704	-53.25
192.923	20.48
193.142	77.82
193.362	32.77
193.581	32.77
193.8	63.49
194.02	49.15
194.239	10.24
194.458	36.86
194.678	20.48
194.897	129.02
195.116	69.63
195.335	6.14
195.555	4.1
195.774	-6.14
195.993	55.3
196.212	26.62
196.432	-10.24
196.651	69.63
196.87	43.01
197.089	26.62
197.308	69.63
197.528	49.15
197.747	16.38
197.966	55.3
198.185	38.91
198.404	-57.34
198.623	75.77
198.842	63.49
199.062	55.3
199.281	-28.67
199.5	-8.19
199.719	77.82
199.938	75.77
200.157	10.24
200.376	24.58
200.595	38.91
200.814	71.68
201.033	40.96
201.252	86.01
201.471	-18.43
201.69	-6.14
201.909	110.59
202.128	96.25
202.347	24.58
202.566	65.54
202.785	30.72
203.004	-24.58
203.223	-2.05
203.442	-53.25
203.661	59.39
203.879	22.53
204.098	14.34
204.317	0
204.536	26.62
204.755	63.49
204.974	53.25
205.193	-14.34
205.411	67.58
205.63	57.34
205.849	81.92
206.068	20.48
206.287	79.87
206.505	49.15
206.724	-10.24
206.943	18.43
207.162	-12.29
207.381	51.2
207.599	59.39
207.818	36.86
208.037	18.43
208.255	57.34
208.474	26.62
208.693	24.58
208.911	40.96
209.13	47.1
209.349	16.38
209.567	4.1
209.786	65.54
210.005	28.67
210.223	30.72
210.442	-8.19
210.661	90.11
210.879	0
211.098	63.49
211.316	20.48
211.535	100.35
211.753	-6.14
211.972	104.45
212.191	-4.1
212.409	20.48
212.628	-8.19
212.846	43.01
213.065	20.48
213.283	24.58
213.502	28.67
213.72	12.29
213.938	-2.05
214.157	38.91
214.375	-8.19
214.594	26.62
214.812	116.73
215.031	57.34
215.249	28.67
215.467	28.67
215.686	-147.45
215.904	65.54
216.122	36.86
216.341	83.97
216.559	81.92
216.778	8.19
216.996	118.78
217.214	43.01
217.432	20.48
217.651	67.58
217.869	45.06
218.087	16.38
218.306	-2.05
218.524	32.77
218.742	83.97
218.96	65.54
219.179	26.62
219.397	-2.05
219.615	43.01
219.833	63.49
220.051	34.82
220.27	61.44
220.488	2.05
220.706	90.11
220.924	36.86
221.142	34.82
221.36	8.19
221.578	4.1
221.796	69.63
222.015	22.53
222.233	81.92
222.451	24.58
222.669	2.05
222.887	-6.14
223.105	65.54
223.323	83.97
223.541	-34.82
223.759	51.2
223.977	20.48
224.195	-14.34
224.413	-4.1
224.631	81.92
224.849	65.54
225.067	55.3
225.285	79.87
225.503	96.25
225.721	106.49
225.939	40.96
226.157	55.3
226.375	118.78
226.592	36.86
226.81	71.68
227.028	49.15
227.246	36.86
227.464	4.1
227.682	73.73
227.9	47.1
228.117	55.3
228.335	38.91
228.553	28.67
228.771	2.05
228.989	-14.34
229.206	2.05
229.424	49.15
229.642	36.86
229.86	-8.19
230.077	-4.1
230.295	59.39
230.513	86.01
230.731	12.29
230.948	24.58
231.166	71.68
231.384	20.48
231.601	34.82
231.819	61.44
232.037	-2.05
232.254	30.72
232.472	36.86
232.689	2.05
232.907	55.3
233.125	20.48
233.342	108.54
233.56	32.77
233.777	-30.72
233.995	28.67
234.213	79.87
234.43	22.53
234.648	28.67
234.865	-32.77
235.083	-14.34
235.3	59.39
235.518	14.34
235.735	94.21
235.953	-4.1
236.17	112.64
236.388	77.82
236.605	-36.86
236.822	10.24
237.04	24.58
237.257	96.25
237.475	24.58
237.692	-12.29
237.909	28.67
238.127	4.1
238.344	90.11
238.562	14.34
238.779	-32.77
238.996	-53.25
239.214	8.19
239.431	40.96
239.648	77.82
239.865	34.82
240.083	151.55
240.3	20.48
240.517	8.19
240.735	26.62
240.952	34.82
241.169	4.1
241.386	20.48
241.603	67.58
241.821	43.01
242.038	61.44
242.255	88.06
242.472	86.01
242.689	14.34
242.907	96.25
243.124	-30.72
243.341	32.77
243.558	-51.2
243.775	-61.44
243.992	51.2
244.209	65.54
244.426	14.34
244.643	92.16
244.86	32.77
245.078	67.58
245.295	108.54
245.512	71.68
245.729	16.38
245.946	90.11
246.163	94.21
246.38	61.44
246.597	-2.05
246.814	-32.77
247.031	51.2
247.248	6.14
247.464	24.58
247.681	28.67
247.898	-2.05
248.115	86.01
248.332	26.62
248.549	45.06
248.766	59.39
248.983	45.06
249.2	59.39
249.417	26.62
249.633	47.1
249.85	8.19
250.067	-8.19
250.284	20.48
250.501	-6.14
250.717	6.14
250.934	71.68
251.151	51.2
251.368	30.72
251.585	24.58
251.801	131.07
252.018	-32.77
252.235	-22.53
252.451	73.73
252.668	36.86
252.885	49.15
253.102	-12.29
253.318	-4.1
253.535	22.53
253.752	55.3
253.968	51.2
254.185	-10.24
254.401	57.34
254.618	38.91
254.835	22.53
255.051	73.73
255.268	32.77
255.484	30.72
255.701	65.54
255.917	45.06
256.134	-30.72
256.351	65.54
256.567	55.3
256.784	34.82
257	-16.38
257.217	28.67
257.433	94.21
257.65	69.63
257.866	28.67
258.082	-8.19
258.299	-36.86
258.515	65.54
258.732	6.14
258.948	55.3
259.165	-8.19
259.381	10.24
259.597	57.34
259.814	43.01
260.03	0
260.246	126.97
260.463	-4.1
260.679	36.86
260.895	16.38
261.112	116.73
261.328	77.82
261.544	30.72
261.761	98.3
261.977	2.05
262.193	116.73
262.409	55.3
262.626	61.44
262.842	61.44
263.058	32.77
263.274	49.15
263.49	63.49
263.707	45.06
263.923	73.73
264.139	30.72
264.355	10.24
264.571	69.63
264.787	28.67
265.004	71.68
265.22	28.67
265.436	20.48
265.652	-6.14
265.868	47.1
266.084	47.1
266.3	57.34
266.516	63.49
266.732	94.21
266.948	-28.67
267.164	47.1
267.38	-16.38
267.596	61.44
267.812	12.29
268.028	2.05
268.244	40.96
268.46	69.63
268.676	45.06
268.892	69.63
269.108	71.68
269.324	36.86
269.54	36.86
269.756	79.87
269.972	18.43
270.188	73.73
270.403	71.68
270.619	-12.29
270.835	-49.15
271.051	51.2
271.267	26.62
271.483	14.34
271.698	-43.01
271.914	36.86
272.13	20.48
272.346	51.2
272.562	26.62
272.777	71.68
272.993	-8.19
273.209	24.58
273.425	-28.67
273.64	28.67
273.856	45.06
274.072	55.3
274.287	65.54
274.503	63.49
274.719	20.48
274.934	16.38
275.15	16.38
275.366	49.15
275.581	40.96
275.797	63.49
276.012	26.62
276.228	0
276.444	34.82
276.659	24.58
276.875	122.88
277.09	-2.05
277.306	18.43
277.521	77.82
277.737	63.49
277.952	75.77
278.168	75.77
278.383	-12.29
278.599	129.02
278.814	34.82
279.03	0
279.245	65.54
279.461	94.21
279.676	71.68
279.892	26.62
280.107	0
280.322	28.67
280.538	55.3
280.753	6.14
280.969	14.34
281.184	-12.29
281.399	53.25
281.615	51.2
281.83	36.86
282.045	59.39
282.26	45.06
282.476	36.86
282.691	79.87
282.906	71.68
283.122	10.24
283.337	55.3
283.552	36.86
283.767	-26.62
283.983	63.49
284.198	69.63
284.413	14.34
284.628	2.05
284.843	10.24
285.058	26.62
285.274	86.01
285.489	4.1
285.704	77.82
285.919	-12.29
286.134	32.77
286.349	49.15
286.564	30.72
286.779	43.01
286.995	59.39
287.21	-36.86
287.425	12.29
287.64	8.19
287.855	22.53
288.07	34.82
288.285	59.39
288.5	49.15
288.715	53.25
288.93	-12.29
289.145	77.82
289.36	77.82
289.575	45.06
289.79	-30.72
290.004	88.06
290.219	53.25
290.434	71.68
290.649	45.06
290.864	18.43
291.079	24.58
291.294	53.25
291.509	36.86
291.724	8.19
291.938	28.67
292.153	92.16
292.368	63.49
292.583	30.72
292.798	-12.29
293.012	61.44
293.227	10.24
293.442	90.11
293.657	51.2
293.871	116.73
294.086	22.53
294.301	51.2
294.516	90.11
294.73	88.06
294.945	51.2
295.16	81.92
295.374	36.86
295.589	43.01
295.804	-20.48
296.018	79.87
296.233	40.96
296.447	73.73
296.662	30.72
296.877	75.77
297.091	47.1
297.306	-2.05
297.52	43.01
297.735	30.72
297.949	14.34
298.164	28.67
298.378	20.48
298.593	14.34
298.807	22.53
299.022	32.77
299.236	83.97
299.451	65.54
299.665	77.82
299.88	24.58
300.094	30.72
300.309	75.77
300.523	-6.14
300.737	-12.29
300.952	40.96
301.166	49.15
301.381	-34.82
301.595	67.58
301.809	65.54
302.024	83.97
302.238	51.2
302.452	81.92
302.667	40.96
302.881	28.67
303.095	2.05
303.309	12.29
303.524	51.2
303.738	53.25
303.952	2.05
304.166	8.19
304.381	45.06
304.595	-12.29
304.809	34.82
305.023	92.16
305.237	110.59
305.452	139.26
305.666	67.58
305.88	69.63
306.094	63.49
306.308	20.48
306.522	47.1
306.736	32.77
306.95	79.87
307.164	43.01
307.379	-2.05
307.593	34.82
307.807	-4.1
308.021	43.01
308.235	88.06
308.449	28.67
308.663	24.58
308.877	106.49
309.091	81.92
309.305	-20.48
309.519	-26.62
309.733	92.16
309.947	24.58
310.161	43.01
310.374	-10.24
310.588	38.91
310.802	24.58
311.016	47.1
311.23	20.48
311.444	-24.58
311.658	16.38
311.872	20.48
312.085	0
312.299	81.92
312.513	-6.14
312.727	-45.06
312.941	20.48
313.154	16.38
313.368	-14.34
313.582	45.06
313.796	-16.38
314.009	12.29
314.223	55.3
314.437	22.53
314.651	47.1
314.864	69.63
315.078	71.68
315.292	53.25
315.505	20.48
315.719	36.86
315.933	83.97
316.146	110.59
316.36	26.62
316.573	92.16
316.787	-4.1
317.001	57.34
317.214	53.25
317.428	4.1
317.641	32.77
317.855	36.86
318.068	28.67
318.282	81.92
318.495	75.77
318.709	38.91
318.922	8.19
319.136	53.25
319.349	81.92
319.563	63.49
319.776	43.01
319.99	83.97
320.203	92.16
320.417	106.49
320.63	63.49
320.843	-10.24
321.057	71.68
321.27	45.06
321.483	18.43
321.697	38.91
321.91	51.2
322.124	83.97
322.337	-18.43
322.55	26.62
322.763	49.15
322.977	32.77
323.19	26.62
323.403	16.38
323.617	30.72
323.83	69.63
324.043	43.01
324.256	26.62
324.469	40.96
324.683	47.1
324.896	30.72
325.109	90.11
325.322	-43.01
325.535	100.35
325.748	90.11
325.962	-16.38
326.175	86.01
326.388	69.63
326.601	108.54
326.814	34.82
327.027	-2.05
327.24	88.06
327.453	53.25
327.666	-57.34
327.879	51.2
328.092	43.01
328.305	67.58
328.518	65.54
328.731	53.25
328.944	38.91
329.157	47.1
329.37	88.06
329.583	59.39
329.796	63.49
330.009	67.58
330.222	12.29
330.435	12.29
330.648	14.34
330.861	83.97
331.073	73.73
331.286	32.77
331.499	86.01
331.712	118.78
331.925	12.29
332.138	126.97
332.35	75.77
332.563	20.48
332.776	86.01
332.989	-40.96
333.202	86.01
333.414	45.06
333.627	28.67
333.84	30.72
334.053	90.11
334.265	-32.77
334.478	43.01
334.691	22.53
334.903	32.77
335.116	-6.14
335.329	61.44
335.541	38.91
335.754	108.54
335.966	38.91
336.179	75.77
336.392	34.82
336.604	32.77
336.817	49.15
337.029	55.3
337.242	36.86
337.454	65.54
337.667	71.68
337.88	53.25
338.092	24.58
338.305	110.59
338.517	-14.34
338.729	86.01
338.942	49.15
339.154	77.82
339.367	49.15
339.579	65.54
339.792	98.3
340.004	26.62
340.217	102.4
340.429	57.34
340.641	4.1
340.854	26.62
341.066	-18.43
341.278	77.82
341.491	49.15
341.703	22.53
341.915	81.92
342.128	43.01
342.34	75.77
342.552	-22.53
342.764	40.96
342.977	-20.48
343.189	8.19
343.401	122.88
343.613	47.1
343.826	75.77
344.038	43.01
344.25	14.34
344.462	88.06
344.674	122.88
344.886	69.63
345.099	43.01
345.311	-22.53
345.523	47.1
345.735	53.25
345.947	-2.05
346.159	79.87
346.371	14.34
346.583	34.82
346.795	88.06
347.007	59.39
347.219	45.06
347.431	45.06
347.643	106.49
347.855	-2.05
348.067	116.73
348.279	14.34
348.491	65.54
348.703	59.39
348.915	116.73
349.127	102.4
349.339	61.44
349.551	-55.3
349.763	106.49
349.975	47.1
350.187	-24.58
350.399	73.73
350.61	61.44
350.822	86.01
351.034	79.87
351.246	108.54
351.458	30.72
351.669	-28.67
351.881	88.06
352.093	43.01
352.305	77.82
352.517	45.06
352.728	61.44
352.94	0
353.152	53.25
353.363	69.63
353.575	55.3
353.787	4.1
353.999	71.68
354.21	100.35
354.422	18.43
354.633	71.68
354.845	49.15
355.057	36.86
355.268	81.92
355.48	16.38
355.692	106.49
355.903	4.1
356.115	114.69
356.326	2.05
356.538	45.06
356.749	71.68
356.961	108.54
357.172	14.34
357.384	55.3
357.595	79.87
357.807	36.86
358.018	30.72
358.23	-10.24
358.441	59.39
358.653	40.96
358.864	32.77
359.075	61.44
359.287	102.4
359.498	18.43
359.709	57.34
359.921	73.73
360.132	-2.05
360.344	63.49
360.555	61.44
360.766	90.11
360.977	10.24
361.189	59.39
361.4	71.68
361.611	63.49
361.823	2.05
362.034	96.25
362.245	77.82
362.456	45.06
362.667	-2.05
362.879	57.34
363.09	-8.19
363.301	40.96
363.512	98.3
363.723	-36.86
363.935	40.96
364.146	28.67
364.357	8.19
364.568	124.93
364.779	-24.58
364.99	12.29
365.201	49.15
365.412	36.86
365.623	45.06
365.834	59.39
366.045	49.15
366.256	94.21
366.467	18.43
366.678	63.49
366.889	51.2
367.1	34.82
367.311	47.1
367.522	32.77
367.733	32.77
367.944	20.48
368.155	8.19
368.366	51.2
368.577	-8.19
368.788	106.49
368.999	75.77
369.209	63.49
369.42	108.54
369.631	61.44
369.842	61.44
370.053	12.29
370.264	63.49
370.474	-47.1
370.685	65.54
370.896	57.34
371.107	79.87
371.317	94.21
371.528	141.31
371.739	45.06
371.95	61.44
372.16	65.54
372.371	18.43
372.582	102.4
372.792	51.2
373.003	83.97
373.214	57.34
373.424	65.54
373.635	65.54
373.846	49.15
374.056	65.54
374.267	75.77
374.477	94.21
374.688	2.05
374.898	47.1
375.109	32.77
375.319	86.01
375.53	98.3
375.74	79.87
375.951	18.43
376.161	59.39
376.372	86.01
376.582	116.73
376.793	88.06
377.003	69.63
377.214	59.39
377.424	26.62
377.635	67.58
377.845	61.44
378.055	126.97
378.266	59.39
378.476	151.55
378.686	32.77
378.897	14.34
379.107	22.53
379.317	38.91
379.528	38.91
379.738	137.21
379.948	98.3
380.158	36.86
380.369	-26.62
380.579	53.25
380.789	59.39
380.999	38.91
381.21	36.86
381.42	94.21
381.63	2.05
381.84	83.97
382.05	40.96
382.261	40.96
382.471	83.97
382.681	24.58
382.891	43.01
383.101	65.54
383.311	-22.53
383.521	81.92
383.731	110.59
383.941	55.3
384.151	36.86
384.361	18.43
384.571	-6.14
384.781	57.34
384.991	45.06
385.201	61.44
385.411	24.58
385.621	40.96
385.831	55.3
386.041	122.88
386.251	86.01
386.461	98.3
386.671	38.91
386.881	32.77
387.091	24.58
387.301	-6.14
387.511	92.16
387.72	86.01
387.93	49.15
388.14	63.49
388.35	55.3
388.56	59.39
388.769	81.92
388.979	65.54
389.189	92.16
389.399	102.4
389.609	112.64
389.818	14.34
390.028	71.68
390.238	10.24
390.447	26.62
390.657	6.14
390.867	38.91
391.076	81.92
391.286	86.01
391.496	43.01
391.705	34.82
391.915	133.12
392.125	104.45
392.334	63.49
392.544	26.62
392.753	28.67
392.963	143.36
393.172	49.15
393.382	90.11
393.591	100.35
393.801	51.2
394.01	143.36
394.22	122.88
394.429	77.82
394.639	88.06
394.848	86.01
395.058	47.1
395.267	63.49
395.477	81.92
395.686	118.78
395.895	86.01
396.105	81.92
396.314	59.39
396.524	69.63
396.733	36.86
396.942	149.5
397.152	73.73
397.361	114.69
397.57	65.54
397.78	145.41
397.989	77.82
398.198	129.02
398.407	4.1
398.617	98.3
398.826	83.97
399.035	108.54
399.244	63.49
399.453	114.69
399.663	49.15
399.872	116.73
400.081	116.73
400.29	63.49
400.499	145.41
400.708	143.36
400.917	129.02
401.127	77.82
401.336	165.89
401.545	98.3
401.754	139.26
401.963	122.88
402.172	178.17
402.381	118.78
402.59	98.3
402.799	94.21
403.008	137.21
403.217	90.11
403.426	110.59
403.635	167.93
403.844	163.84
404.053	98.3
404.262	131.07
404.471	174.08
404.68	92.16
404.888	231.42
405.097	141.31
405.306	212.99
405.515	198.65
405.724	92.16
405.933	196.61
406.142	147.45
406.35	241.66
406.559	212.99
406.768	110.59
406.977	182.27
407.185	243.71
407.394	151.55
407.603	174.08
407.812	219.13
408.02	258.04
408.229	223.23
408.438	172.03
408.646	237.56
408.855	108.54
409.064	227.32
409.272	253.95
409.481	299
409.69	296.96
409.898	241.66
410.107	301.05
410.315	294.91
410.524	256
410.733	299
410.941	258.04
411.15	270.33
411.358	325.63
411.567	397.31
411.775	389.11
411.984	327.68
412.192	350.2
412.401	397.31
412.609	319.48
412.818	419.83
413.026	405.5
413.234	391.16
413.443	452.6
413.651	487.42
413.86	487.42
414.068	534.52
414.276	538.62
414.485	548.86
414.693	540.66
414.901	518.14
415.11	565.24
415.318	630.77
415.526	565.24
415.734	669.69
415.943	716.79
416.151	712.69
416.359	700.41
416.567	829.43
416.776	731.12
416.984	737.27
417.192	794.61
417.4	894.96
417.608	749.56
417.817	942.07
418.025	821.24
418.233	870.39
418.441	929.78
418.649	1034.22
418.857	1028.08
419.065	1042.42
419.273	1026.03
419.481	1153.01
419.689	1193.97
419.897	1370.09
420.105	1271.79
420.313	1372.14
420.521	1396.71
420.729	1335.28
420.937	1443.82
421.145	1468.39
421.353	1542.12
421.561	1591.27
421.769	1685.48
421.977	1841.12
422.185	1632.23
422.393	1726.44
422.601	1814.5
422.809	2011.11
423.017	1865.7
423.224	2009.06
423.432	2021.35
423.64	2025.44
423.848	2258.91
424.056	2215.9
424.263	2418.65
424.471	2459.61
424.679	2441.18
424.887	2502.62
425.094	2639.83
425.302	2656.22
425.51	2750.42
425.718	2760.66
425.925	2840.53
426.133	2996.18
426.341	3174.35
426.548	3280.85
426.756	3219.41
426.964	3256.27
427.171	3520.46
427.379	3336.14
427.586	3559.37
427.794	3782.6
428.001	3823.56
428.209	4075.46
428.417	3862.47
428.624	4390.85
428.832	4411.32
429.039	4147.14
429.247	4360.13
429.454	4747.19
429.662	4865.97
429.869	4718.52
430.076	5078.96
430.284	5076.91
430.491	5164.98
430.699	5466.03
430.906	5099.44
431.114	5478.32
431.321	5623.72
431.528	5740.46
431.736	6176.67
431.943	6502.3
432.15	6356.9
432.358	6299.55
432.565	6680.47
432.772	6715.29
432.979	6942.61
433.187	6930.33
433.394	7149.46
433.601	7440.27
433.808	7645.07
434.016	7442.32
434.223	7831.43
434.43	8267.65
434.637	8136.58
434.844	8599.42
435.052	8875.9
435.259	8836.99
435.466	9054.07
435.673	8634.24
435.88	9408.37
436.087	9973.61
436.294	9959.27
436.501	9584.49
436.708	9820.01
436.915	10094.44
437.122	10639.2
437.329	10569.57
437.537	10876.76
437.743	11147.09
437.95	10819.42
438.157	11679.57
438.364	12113.74
438.571	12019.53
438.778	11919.18
438.985	13215.54
439.192	12736.32
439.399	13049.66
439.606	12664.64
439.813	13694.77
440.02	14151.46
440.227	14167.85
440.433	13965.1
440.64	14333.73
440.847	14245.67
441.054	14702.37
441.261	15550.23
441.467	15376.15
441.674	15957.77
441.881	16455.43
442.088	16297.74
442.294	16164.62
442.501	16512.77
442.708	16791.3
442.914	17422.07
443.121	18462.44
443.328	17927.92
443.534	18880.22
443.741	18478.82
443.948	18388.71
444.154	19824.34
444.361	19330.78
444.568	19740.37
444.774	19680.98
444.981	19904.21
445.187	20332.23
445.394	21239.48
445.6	21206.72
445.807	23058.08
446.013	22199.98
446.22	22271.66
446.426	23205.53
446.633	23389.85
446.839	24366.73
447.046	22912.67
447.252	24616.58
447.459	24794.76
447.665	24723.08
447.871	25544.31
448.078	26613.35
448.284	25339.52
448.491	25933.43
448.697	27086.43
448.903	27700.83
449.11	27643.48
449.316	26832.49
449.522	27465.31
449.728	28216.91
449.935	28237.39
450.141	28737.1
450.347	29161.03
450.553	27901.53
450.76	28464.72
450.966	29544
451.172	29183.55
451.378	29722.17
451.584	29240.9
451.791	30203.44
451.997	30006.84
452.203	30180.92
452.409	30430.77
452.615	30207.54
452.821	28907.08
453.027	28851.78
453.233	30246.45
453.44	28888.65
453.646	29206.08
453.852	29414.98
454.058	30148.15
454.264	29122.12
454.47	29832.76
454.676	28661.32
454.882	29861.43
455.088	27094.63
455.294	27393.63
455.5	27749.98
455.705	28235.35
455.911	26781.29
456.117	26687.08
456.323	26046.07
456.529	24811.14
456.735	25939.57
456.941	25228.93
457.147	24698.5
457.352	23844.5
457.558	23574.17
457.764	23672.47
457.97	23303.84
458.176	23082.66
458.381	23035.55
458.587	21599.93
458.793	21685.94
458.999	20645.57
459.204	22109.87
459.41	21231.29
459.616	20057.81
459.821	20010.7
460.027	19836.63
460.233	19193.56
460.438	18595.56
460.644	18890.46
460.85	17774.32
461.055	17630.96
461.261	17540.85
461.466	16088.84
461.672	15595.28
461.878	17000.19
462.083	16256.78
462.289	15730.45
462.494	15376.15
462.7	14747.42
462.905	14378.79
463.111	14696.22
463.316	14819.1
463.522	14507.81
463.727	14366.5
463.932	14604.07
464.138	14288.68
464.343	14473
464.549	14141.22
464.754	14454.56
464.959	14192.42
465.165	14331.69
465.37	13815.6
465.575	13428.53
465.781	13932.33
465.986	13842.22
466.191	13303.6
466.397	13127.48
466.602	12576.58
466.807	12920.63
467.012	12900.16
467.218	12810.04
467.423	12779.32
467.628	12836.67
467.833	13363
468.038	13141.82
468.244	12678.97
468.449	13023.03
