Data from USB4F104151__298__14-03-03-104.txt Node

Date: Thu Mar 13 14:03:03 EDT 2025
User: louis
Spectrometer: USB4F10415
Trigger mode: 4
Integration Time (sec): 1.000000E-2
Scans to average: 1
Electric dark correction enabled: true
Nonlinearity correction enabled: false
Boxcar width: 0
XAxis mode: Wavelengths
Number of Pixels in Spectrum: 3648
>>>>>Begin Spectral Data<<<<<
178.204	-11.26
178.424	-11.26
178.644	-11.26
178.864	-54.27
179.084	-62.46
179.304	-5.12
179.524	-35.84
179.744	3.07
179.964	13.31
180.184	76.8
180.404	-3.07
180.624	-39.94
180.844	-25.6
181.064	-17.41
181.283	44.03
181.503	-29.7
181.723	19.46
181.943	19.46
182.163	29.7
182.383	1.02
182.602	11.26
182.822	3.07
183.042	-3.07
183.262	44.03
183.482	46.08
183.701	44.03
183.921	-5.12
184.141	23.55
184.361	35.84
184.58	87.04
184.8	29.7
185.02	-52.22
185.239	68.61
185.459	33.79
185.679	-13.31
185.898	15.36
186.118	25.6
186.338	15.36
186.557	76.8
186.777	1.02
186.997	-5.12
187.216	17.41
187.436	-19.46
187.655	37.89
187.875	27.65
188.095	39.94
188.314	27.65
188.534	29.7
188.753	46.08
188.973	15.36
189.192	19.46
189.412	21.5
189.631	-25.6
189.851	-5.12
190.07	41.98
190.29	33.79
190.509	15.36
190.729	-19.46
190.948	19.46
191.168	109.57
191.387	-21.5
191.607	52.22
191.826	31.74
192.045	13.31
192.265	31.74
192.484	39.94
192.704	44.03
192.923	-97.28
193.142	23.55
193.362	-21.5
193.581	48.13
193.8	44.03
194.02	-23.55
194.239	35.84
194.458	31.74
194.678	13.31
194.897	80.89
195.116	19.46
195.335	19.46
195.555	60.42
195.774	3.07
195.993	-15.36
196.212	-23.55
196.432	35.84
196.651	-15.36
196.87	54.27
197.089	91.13
197.308	-29.7
197.528	80.89
197.747	84.99
197.966	52.22
198.185	-5.12
198.404	87.04
198.623	13.31
198.842	52.22
199.062	107.52
199.281	125.95
199.5	-3.07
199.719	23.55
199.938	66.56
200.157	91.13
200.376	44.03
200.595	-13.31
200.814	-19.46
201.033	-15.36
201.252	-7.17
201.471	56.32
201.69	-48.13
201.909	80.89
202.128	68.61
202.347	37.89
202.566	107.52
202.785	31.74
203.004	66.56
203.223	-11.26
203.442	74.75
203.661	31.74
203.879	78.85
204.098	74.75
204.317	72.7
204.536	50.18
204.755	87.04
204.974	76.8
205.193	-21.5
205.411	29.7
205.63	7.17
205.849	19.46
206.068	-3.07
206.287	-5.12
206.505	68.61
206.724	54.27
206.943	-41.98
207.162	19.46
207.381	44.03
207.599	35.84
207.818	-13.31
208.037	31.74
208.255	27.65
208.474	1.02
208.693	33.79
208.911	46.08
209.13	37.89
209.349	-50.18
209.567	80.89
209.786	80.89
210.005	70.65
210.223	-5.12
210.442	11.26
210.661	76.8
210.879	13.31
211.098	60.42
211.316	115.71
211.535	-5.12
211.753	19.46
211.972	82.94
212.191	-23.55
212.409	-5.12
212.628	27.65
212.846	29.7
213.065	15.36
213.283	48.13
213.502	3.07
213.72	3.07
213.938	46.08
214.157	-15.36
214.375	27.65
214.594	46.08
214.812	89.09
215.031	21.5
215.249	-33.79
215.467	-29.7
215.686	13.31
215.904	-7.17
216.122	23.55
216.341	31.74
216.559	93.18
216.778	23.55
216.996	52.22
217.214	-54.27
217.432	52.22
217.651	74.75
217.869	72.7
218.087	-13.31
218.306	-33.79
218.524	-27.65
218.742	13.31
218.96	111.61
219.179	-1.02
219.397	62.46
219.615	15.36
219.833	27.65
220.051	-17.41
220.27	7.17
220.488	-1.02
220.706	29.7
220.924	23.55
221.142	72.7
221.36	39.94
221.578	39.94
221.796	21.5
222.015	54.27
222.233	35.84
222.451	39.94
222.669	-31.74
222.887	27.65
223.105	-27.65
223.323	23.55
223.541	-13.31
223.759	64.51
223.977	13.31
224.195	35.84
224.413	66.56
224.631	76.8
224.849	3.07
225.067	-41.98
225.285	3.07
225.503	3.07
225.721	54.27
225.939	60.42
226.157	35.84
226.375	76.8
226.592	-21.5
226.81	35.84
227.028	54.27
227.246	84.99
227.464	60.42
227.682	21.5
227.9	19.46
228.117	17.41
228.335	-17.41
228.553	82.94
228.771	33.79
228.989	50.18
229.206	52.22
229.424	82.94
229.642	48.13
229.86	19.46
230.077	44.03
230.295	52.22
230.513	-3.07
230.731	80.89
230.948	52.22
231.166	27.65
231.384	39.94
231.601	-37.89
231.819	58.37
232.037	13.31
232.254	-9.22
232.472	39.94
232.689	29.7
232.907	23.55
233.125	31.74
233.342	56.32
233.56	-3.07
233.777	21.5
233.995	-3.07
234.213	37.89
234.43	-25.6
234.648	84.99
234.865	-35.84
235.083	21.5
235.3	17.41
235.518	58.37
235.735	11.26
235.953	-27.65
236.17	60.42
236.388	11.26
236.605	1.02
236.822	70.65
237.04	29.7
237.257	27.65
237.475	7.17
237.692	13.31
237.909	89.09
238.127	19.46
238.344	15.36
238.562	-3.07
238.779	93.18
238.996	44.03
239.214	-17.41
239.431	62.46
239.648	11.26
239.865	56.32
240.083	7.17
240.3	31.74
240.517	-27.65
240.735	31.74
240.952	31.74
241.169	76.8
241.386	-27.65
241.603	-50.18
241.821	54.27
242.038	66.56
242.255	-33.79
242.472	23.55
242.689	48.13
242.907	50.18
243.124	-5.12
243.341	60.42
243.558	33.79
243.775	33.79
243.992	27.65
244.209	15.36
244.426	78.85
244.643	27.65
244.86	52.22
245.078	27.65
245.295	-5.12
245.512	44.03
245.729	50.18
245.946	66.56
246.163	-23.55
246.38	52.22
246.597	-3.07
246.814	19.46
247.031	82.94
247.248	80.89
247.464	41.98
247.681	13.31
247.898	-9.22
248.115	39.94
248.332	37.89
248.549	44.03
248.766	37.89
248.983	111.61
249.2	27.65
249.417	31.74
249.633	78.85
249.85	56.32
250.067	27.65
250.284	-21.5
250.501	13.31
250.717	99.33
250.934	78.85
251.151	11.26
251.368	15.36
251.585	1.02
251.801	68.61
252.018	50.18
252.235	52.22
252.451	-5.12
252.668	37.89
252.885	74.75
253.102	-46.08
253.318	-19.46
253.535	29.7
253.752	27.65
253.968	44.03
254.185	29.7
254.401	13.31
254.618	109.57
254.835	58.37
255.051	80.89
255.268	5.12
255.484	48.13
255.701	60.42
255.917	39.94
256.134	52.22
256.351	17.41
256.567	-33.79
256.784	-7.17
257	3.07
257.217	74.75
257.433	60.42
257.65	23.55
257.866	19.46
258.082	25.6
258.299	19.46
258.515	-3.07
258.732	84.99
258.948	19.46
259.165	-13.31
259.381	19.46
259.597	-3.07
259.814	3.07
260.03	64.51
260.246	33.79
260.463	-5.12
260.679	97.28
260.895	46.08
261.112	93.18
261.328	-52.22
261.544	46.08
261.761	39.94
261.977	-1.02
262.193	41.98
262.409	27.65
262.626	80.89
262.842	44.03
263.058	-3.07
263.274	44.03
263.49	-3.07
263.707	52.22
263.923	50.18
264.139	7.17
264.355	13.31
264.571	27.65
264.787	48.13
265.004	13.31
265.22	-1.02
265.436	-13.31
265.652	74.75
265.868	13.31
266.084	15.36
266.3	5.12
266.516	-1.02
266.732	80.89
266.948	44.03
267.164	-33.79
267.38	-3.07
267.596	37.89
267.812	-13.31
268.028	109.57
268.244	56.32
268.46	-1.02
268.676	7.17
268.892	48.13
269.108	35.84
269.324	19.46
269.54	27.65
269.756	95.23
269.972	11.26
270.188	64.51
270.403	46.08
270.619	13.31
270.835	-60.42
271.051	80.89
271.267	70.65
271.483	103.42
271.698	33.79
271.914	25.6
272.13	25.6
272.346	44.03
272.562	50.18
272.777	76.8
272.993	52.22
273.209	29.7
273.425	5.12
273.64	60.42
273.856	44.03
274.072	-41.98
274.287	39.94
274.503	7.17
274.719	52.22
274.934	29.7
275.15	11.26
275.366	44.03
275.581	19.46
275.797	21.5
276.012	25.6
276.228	111.61
276.444	64.51
276.659	25.6
276.875	35.84
277.09	33.79
277.306	27.65
277.521	68.61
277.737	39.94
277.952	58.37
278.168	1.02
278.383	46.08
278.599	68.61
278.814	84.99
279.03	25.6
279.245	58.37
279.461	19.46
279.676	46.08
279.892	19.46
280.107	13.31
280.322	50.18
280.538	44.03
280.753	35.84
280.969	52.22
281.184	37.89
281.399	37.89
281.615	-13.31
281.83	15.36
282.045	17.41
282.26	-15.36
282.476	54.27
282.691	33.79
282.906	70.65
283.122	44.03
283.337	3.07
283.552	84.99
283.767	-5.12
283.983	-11.26
284.198	-19.46
284.413	31.74
284.628	60.42
284.843	50.18
285.058	1.02
285.274	27.65
285.489	-15.36
285.704	-25.6
285.919	35.84
286.134	56.32
286.349	11.26
286.564	37.89
286.779	60.42
286.995	46.08
287.21	5.12
287.425	60.42
287.64	-23.55
287.855	68.61
288.07	11.26
288.285	19.46
288.5	23.55
288.715	27.65
288.93	52.22
289.145	97.28
289.36	44.03
289.575	-5.12
289.79	52.22
290.004	-7.17
290.219	15.36
290.434	27.65
290.649	130.05
290.864	-21.5
291.079	64.51
291.294	29.7
291.509	48.13
291.724	11.26
291.938	-39.94
292.153	44.03
292.368	17.41
292.583	27.65
292.798	7.17
293.012	27.65
293.227	62.46
293.442	39.94
293.657	25.6
293.871	19.46
294.086	84.99
294.301	48.13
294.516	113.66
294.73	37.89
294.945	3.07
295.16	7.17
295.374	70.65
295.589	21.5
295.804	-7.17
296.018	-21.5
296.233	95.23
296.447	23.55
296.662	35.84
296.877	-23.55
297.091	48.13
297.306	115.71
297.52	80.89
297.735	15.36
297.949	-80.89
298.164	54.27
298.378	-25.6
298.593	19.46
298.807	21.5
299.022	5.12
299.236	9.22
299.451	-1.02
299.665	74.75
299.88	52.22
300.094	41.98
300.309	101.37
300.523	-60.42
300.737	25.6
300.952	52.22
301.166	-11.26
301.381	84.99
301.595	60.42
301.809	15.36
302.024	31.74
302.238	-17.41
302.452	13.31
302.667	58.37
302.881	80.89
303.095	46.08
303.309	46.08
303.524	1.02
303.738	70.65
303.952	35.84
304.166	-3.07
304.381	13.31
304.595	3.07
304.809	39.94
305.023	58.37
305.237	44.03
305.452	46.08
305.666	15.36
305.88	46.08
306.094	5.12
306.308	35.84
306.522	23.55
306.736	41.98
306.95	19.46
307.164	48.13
307.379	37.89
307.593	5.12
307.807	-23.55
308.021	33.79
308.235	82.94
308.449	33.79
308.663	31.74
308.877	-37.89
309.091	11.26
309.305	48.13
309.519	31.74
309.733	84.99
309.947	1.02
310.161	66.56
310.374	19.46
310.588	101.37
310.802	17.41
311.016	37.89
311.23	-17.41
311.444	46.08
311.658	37.89
311.872	48.13
312.085	48.13
312.299	52.22
312.513	60.42
312.727	80.89
312.941	62.46
313.154	-3.07
313.368	70.65
313.582	62.46
313.796	-1.02
314.009	25.6
314.223	84.99
314.437	-13.31
314.651	-21.5
314.864	37.89
315.078	52.22
315.292	15.36
315.505	29.7
315.719	99.33
315.933	82.94
316.146	7.17
316.36	46.08
316.573	52.22
316.787	84.99
317.001	84.99
317.214	31.74
317.428	27.65
317.641	-25.6
317.855	82.94
318.068	-5.12
318.282	19.46
318.495	27.65
318.709	107.52
318.922	37.89
319.136	35.84
319.349	95.23
319.563	-17.41
319.776	9.22
319.99	50.18
320.203	25.6
320.417	37.89
320.63	101.37
320.843	60.42
321.057	-1.02
321.27	44.03
321.483	60.42
321.697	39.94
321.91	93.18
322.124	-1.02
322.337	68.61
322.55	72.7
322.763	17.41
322.977	54.27
323.19	93.18
323.403	19.46
323.617	17.41
323.83	52.22
324.043	5.12
324.256	56.32
324.469	7.17
324.683	93.18
324.896	58.37
325.109	46.08
325.322	-33.79
325.535	115.71
325.748	19.46
325.962	46.08
326.175	21.5
326.388	103.42
326.601	3.07
326.814	70.65
327.027	48.13
327.24	23.55
327.453	19.46
327.666	87.04
327.879	21.5
328.092	31.74
328.305	70.65
328.518	11.26
328.731	33.79
328.944	74.75
329.157	-27.65
329.37	-13.31
329.583	50.18
329.796	7.17
330.009	19.46
330.222	11.26
330.435	17.41
330.648	-13.31
330.861	29.7
331.073	74.75
331.286	93.18
331.499	-29.7
331.712	46.08
331.925	7.17
332.138	-13.31
332.35	119.81
332.563	74.75
332.776	103.42
332.989	41.98
333.202	64.51
333.414	35.84
333.627	56.32
333.84	52.22
334.053	80.89
334.265	31.74
334.478	62.46
334.691	19.46
334.903	-29.7
335.116	11.26
335.329	64.51
335.541	-1.02
335.754	11.26
335.966	21.5
336.179	39.94
336.392	-46.08
336.604	70.65
336.817	-17.41
337.029	15.36
337.242	84.99
337.454	74.75
337.667	11.26
337.88	95.23
338.092	1.02
338.305	58.37
338.517	39.94
338.729	60.42
338.942	46.08
339.154	76.8
339.367	-31.74
339.579	35.84
339.792	78.85
340.004	132.09
340.217	-5.12
340.429	80.89
340.641	-64.51
340.854	78.85
341.066	29.7
341.278	19.46
341.491	-21.5
341.703	35.84
341.915	76.8
342.128	103.42
342.34	29.7
342.552	-52.22
342.764	39.94
342.977	17.41
343.189	3.07
343.401	62.46
343.613	5.12
343.826	91.13
344.038	99.33
344.25	109.57
344.462	84.99
344.674	64.51
344.886	3.07
345.099	84.99
345.311	39.94
345.523	11.26
345.735	125.95
345.947	-37.89
346.159	-11.26
346.371	17.41
346.583	60.42
346.795	72.7
347.007	41.98
347.219	70.65
347.431	72.7
347.643	13.31
347.855	-11.26
348.067	-46.08
348.279	56.32
348.491	-29.7
348.703	23.55
348.915	13.31
349.127	-25.6
349.339	48.13
349.551	52.22
349.763	84.99
349.975	41.98
350.187	19.46
350.399	56.32
350.61	111.61
350.822	27.65
351.034	50.18
351.246	72.7
351.458	41.98
351.669	37.89
351.881	56.32
352.093	-41.98
352.305	84.99
352.517	64.51
352.728	62.46
352.94	15.36
353.152	78.85
353.363	-3.07
353.575	101.37
353.787	39.94
353.999	109.57
354.21	70.65
354.422	21.5
354.633	37.89
354.845	46.08
355.057	60.42
355.268	66.56
355.48	76.8
355.692	48.13
355.903	35.84
356.115	54.27
356.326	37.89
356.538	62.46
356.749	82.94
356.961	3.07
357.172	27.65
357.384	-13.31
357.595	62.46
357.807	21.5
358.018	50.18
358.23	70.65
358.441	39.94
358.653	52.22
358.864	15.36
359.075	97.28
359.287	17.41
359.498	13.31
359.709	-37.89
359.921	44.03
360.132	31.74
360.344	107.52
360.555	72.7
360.766	56.32
360.977	33.79
361.189	111.61
361.4	31.74
361.611	130.05
361.823	68.61
362.034	56.32
362.245	-1.02
362.456	31.74
362.667	60.42
362.879	66.56
363.09	117.76
363.301	62.46
363.512	-1.02
363.723	13.31
363.935	54.27
364.146	25.6
364.357	-15.36
364.568	-1.02
364.779	39.94
364.99	35.84
365.201	17.41
365.412	39.94
365.623	74.75
365.834	121.85
366.045	33.79
366.256	103.42
366.467	64.51
366.678	111.61
366.889	117.76
367.1	48.13
367.311	60.42
367.522	27.65
367.733	56.32
367.944	-35.84
368.155	44.03
368.366	37.89
368.577	3.07
368.788	70.65
368.999	62.46
369.209	27.65
369.42	84.99
369.631	29.7
369.842	-13.31
370.053	74.75
370.264	-62.46
370.474	109.57
370.685	72.7
370.896	70.65
371.107	23.55
371.317	76.8
371.528	25.6
371.739	46.08
371.95	25.6
372.16	29.7
372.371	56.32
372.582	15.36
372.792	-9.22
373.003	44.03
373.214	76.8
373.424	93.18
373.635	-39.94
373.846	13.31
374.056	99.33
374.267	27.65
374.477	-5.12
374.688	91.13
374.898	27.65
375.109	80.89
375.319	68.61
375.53	70.65
375.74	44.03
375.951	54.27
376.161	84.99
376.372	44.03
376.582	31.74
376.793	29.7
377.003	5.12
377.214	60.42
377.424	68.61
377.635	84.99
377.845	7.17
378.055	7.17
378.266	48.13
378.476	44.03
378.686	35.84
378.897	27.65
379.107	31.74
379.317	87.04
379.528	103.42
379.738	68.61
379.948	11.26
380.158	23.55
380.369	27.65
380.579	66.56
380.789	21.5
380.999	62.46
381.21	70.65
381.42	109.57
381.63	17.41
381.84	60.42
382.05	82.94
382.261	70.65
382.471	31.74
382.681	33.79
382.891	7.17
383.101	66.56
383.311	54.27
383.521	52.22
383.731	7.17
383.941	125.95
384.151	-3.07
384.361	105.47
384.571	46.08
384.781	64.51
384.991	5.12
385.201	125.95
385.411	29.7
385.621	44.03
385.831	103.42
386.041	52.22
386.251	93.18
386.461	113.66
386.671	-21.5
386.881	11.26
387.091	9.22
387.301	95.23
387.511	11.26
387.72	84.99
387.93	62.46
388.14	60.42
388.35	54.27
388.56	17.41
388.769	21.5
388.979	101.37
389.189	60.42
389.399	78.85
389.609	56.32
389.818	111.61
390.028	95.23
390.238	41.98
390.447	72.7
390.657	93.18
390.867	56.32
391.076	11.26
391.286	-3.07
391.496	68.61
391.705	89.09
391.915	119.81
392.125	70.65
392.334	15.36
392.544	87.04
392.753	93.18
392.963	48.13
393.172	82.94
393.382	103.42
393.591	3.07
393.801	80.89
394.01	68.61
394.22	62.46
394.429	109.57
394.639	70.65
394.848	60.42
395.058	93.18
395.267	37.89
395.477	5.12
395.686	78.85
395.895	95.23
396.105	89.09
396.314	103.42
396.524	31.74
396.733	87.04
396.942	95.23
397.152	84.99
397.361	134.14
397.57	146.43
397.78	56.32
397.989	76.8
398.198	158.72
398.407	93.18
398.617	25.6
398.826	21.5
399.035	99.33
399.244	72.7
399.453	82.94
399.663	101.37
399.872	5.12
400.081	39.94
400.29	154.62
400.499	66.56
400.708	84.99
400.917	111.61
401.127	44.03
401.336	70.65
401.545	125.95
401.754	125.95
401.963	37.89
402.172	54.27
402.381	74.75
402.59	150.53
402.799	72.7
403.008	115.71
403.217	132.09
403.426	123.9
403.635	130.05
403.844	-15.36
404.053	123.9
404.262	103.42
404.471	132.09
404.68	160.77
404.888	93.18
405.097	89.09
405.306	84.99
405.515	113.66
405.724	78.85
405.933	84.99
406.142	130.05
406.35	152.57
406.559	160.77
406.768	136.19
406.977	152.57
407.185	121.85
407.394	254.97
407.603	134.14
407.812	185.34
408.02	125.95
408.229	177.15
408.438	144.38
408.646	195.58
408.855	156.67
409.064	162.81
409.272	171.01
409.481	185.34
409.69	160.77
409.898	193.53
410.107	220.16
410.315	197.63
410.524	218.11
410.733	230.4
410.941	275.45
411.15	250.88
411.358	250.88
411.567	216.06
411.775	263.16
411.984	283.64
412.192	263.16
412.401	259.07
412.609	287.74
412.818	306.17
413.026	351.23
413.234	207.87
413.443	418.81
413.651	349.18
413.86	357.37
414.068	336.89
414.276	392.19
414.485	379.9
414.693	400.38
414.901	392.19
415.11	486.39
415.318	326.65
415.526	461.82
415.734	474.1
415.943	394.23
416.151	465.91
416.359	476.15
416.567	545.78
416.776	523.26
416.984	533.5
417.192	609.27
417.4	621.56
417.608	574.46
417.817	723.96
418.025	617.46
418.233	701.43
418.441	693.24
418.649	687.09
418.857	732.15
419.065	814.07
419.273	732.15
419.481	773.11
419.689	824.31
419.897	869.36
420.105	859.12
420.313	936.95
420.521	938.99
420.729	1027.06
420.937	936.95
421.145	1059.82
421.353	1086.45
421.561	1168.37
421.769	1151.98
421.977	1231.85
422.185	1223.66
422.393	1344.49
422.601	1377.26
422.809	1289.2
423.017	1336.3
423.224	1508.33
423.432	1487.85
423.64	1467.37
423.848	1702.89
424.056	1487.85
424.263	1670.12
424.471	1713.13
424.679	1772.52
424.887	1813.48
425.094	1905.63
425.302	1995.75
425.51	1981.41
425.718	2063.33
425.925	2026.47
426.133	2108.38
426.341	2184.16
426.548	2413.53
426.756	2474.97
426.964	2456.54
427.171	2487.26
427.379	2585.56
427.586	2577.37
427.794	2558.94
428.001	2784.21
428.209	2943.96
428.417	2825.17
428.624	3077.07
428.832	3222.48
429.039	3111.89
429.247	3021.78
429.454	3298.25
429.662	3605.45
429.869	3271.63
430.076	3509.19
430.284	3478.47
430.491	3599.31
430.699	3699.66
430.906	3793.86
431.114	3939.27
431.321	4123.59
431.528	3969.99
431.736	4295.61
431.943	4506.56
432.15	4336.57
432.358	4312
432.565	4770.74
432.772	4711.35
432.979	4856.76
433.187	4998.07
433.394	5030.84
433.601	5286.83
433.808	5358.51
434.016	5534.64
434.223	5659.56
434.43	5743.53
434.637	5657.51
434.844	6022.05
435.052	6261.66
435.259	6239.14
435.466	6319.01
435.673	6302.62
435.88	6595.48
436.087	7062.42
436.294	6886.29
436.501	6787.99
436.708	6855.58
436.915	7220.11
437.122	7420.81
437.329	7467.92
437.537	7777.16
437.743	7906.18
437.95	7734.15
438.157	8242.05
438.364	8455.04
438.571	8557.44
438.778	8571.77
438.985	9112.44
439.192	8878.97
439.399	9151.35
439.606	8973.18
439.813	9399.15
440.02	10015.59
440.227	9988.97
440.433	9792.36
440.64	10154.85
440.847	10185.57
441.054	10369.89
441.261	10957.66
441.467	10644.32
441.674	11084.63
441.881	11598.67
442.088	11469.65
442.294	11322.2
442.501	11553.62
442.708	11873.1
442.914	12303.17
443.121	12925.75
443.328	12481.35
443.534	13314.87
443.741	13222.71
443.948	12890.94
444.154	13849.39
444.361	13716.27
444.568	13822.77
444.774	13566.77
444.981	14080.81
445.187	14392.1
445.394	14990.11
445.6	15041.31
445.807	16042.76
446.013	15710.99
446.22	15866.64
446.426	16126.73
446.633	16448.26
446.839	17066.75
447.046	16452.36
447.252	17298.17
447.459	17713.91
447.665	17292.02
447.871	18160.36
448.078	18770.66
448.284	17974
448.491	18389.74
448.697	19149.53
448.903	19161.82
449.11	19485.4
449.316	19499.73
449.522	19235.55
449.728	19899.09
449.935	20212.43
450.141	20239.05
450.347	20413.13
450.553	20161.23
450.76	20120.27
450.966	21048
451.172	20695.75
451.378	21088.96
451.584	20490.95
451.791	21306.04
451.997	21260.99
452.203	21467.83
452.409	21365.43
452.615	21344.95
452.821	20832.96
453.027	20441.8
453.233	21410.49
453.44	20531.91
453.646	20839.11
453.852	20847.3
454.058	21476.02
454.264	20671.17
454.47	20976.32
454.676	20652.74
454.882	21146.3
455.088	19440.34
455.294	19643.09
455.5	19606.23
455.705	20126.41
455.911	19139.29
456.117	19270.36
456.323	18477.8
456.529	17308.41
456.735	18354.92
456.941	17996.53
457.147	17830.64
457.352	16976.64
457.558	17031.93
457.764	17038.08
457.97	16644.87
458.176	16339.72
458.381	16065.29
458.587	15360.79
458.793	15547.15
458.999	14568.23
459.204	15926.03
459.41	15239.96
459.616	14105.38
459.821	14134.06
460.027	14504.74
460.233	14203.69
460.438	13663.02
460.644	13327.16
460.85	12616.51
461.055	12505.92
461.261	12733.25
461.466	11637.58
461.672	11377.49
461.878	12258.12
462.083	11385.68
462.289	11109.21
462.494	11082.58
462.7	10576.73
462.905	10300.26
463.111	10703.71
463.316	10638.17
463.522	10484.58
463.727	10519.39
463.932	10353.51
464.138	10314.59
464.343	10603.36
464.549	10148.71
464.754	10464.1
464.959	10255.2
465.165	10285.92
465.37	9876.33
465.575	9651.05
465.781	10064.74
465.986	10187.62
466.191	9784.17
466.397	9509.74
466.602	9108.34
466.807	9327.47
467.012	9263.99
467.218	9282.42
467.423	9390.96
467.628	9372.53
467.833	9581.42
468.038	9366.39
468.244	8917.88
468.449	9497.46
468.654	9085.81
