Data from USB4F104151__41__13-53-17-078.txt Node

Date: Thu Mar 13 13:53:17 EDT 2025
User: louis
Spectrometer: USB4F10415
Trigger mode: 4
Integration Time (sec): 1.000000E-2
Scans to average: 1
Electric dark correction enabled: true
Nonlinearity correction enabled: false
Boxcar width: 0
XAxis mode: Wavelengths
Number of Pixels in Spectrum: 3648
>>>>>Begin Spectral Data<<<<<
178.204	-31.57
178.424	-31.57
178.644	-31.57
178.864	-37.72
179.084	-27.48
179.304	-39.76
179.524	7.34
179.744	-31.57
179.964	-33.62
180.184	-17.24
180.404	87.21
180.624	-19.29
180.844	5.29
181.064	-93.01
181.283	21.67
181.503	40.11
181.723	72.87
181.943	-29.52
182.163	31.91
182.383	3.24
182.602	-23.38
182.822	72.87
183.042	66.73
183.262	33.96
183.482	52.39
183.701	38.06
183.921	27.82
184.141	-31.57
184.361	29.87
184.58	-2.9
184.8	-15.19
185.02	-88.92
185.239	-21.33
185.459	1.19
185.679	-15.19
185.898	31.91
186.118	87.21
186.338	38.06
186.557	25.77
186.777	113.83
186.997	-7
187.216	66.73
187.436	81.07
187.655	-39.76
187.875	36.01
188.095	33.96
188.314	85.16
188.534	13.48
188.753	33.96
188.973	13.48
189.192	31.91
189.412	-19.29
189.631	38.06
189.851	-11.09
190.07	44.2
190.29	-88.92
190.509	23.72
190.729	62.63
190.948	3.24
191.168	-45.91
191.387	50.35
191.607	33.96
191.826	13.48
192.045	23.72
192.265	-27.48
192.484	56.49
192.704	58.54
192.923	27.82
193.142	105.64
193.362	-4.95
193.581	99.5
193.8	54.44
194.02	-17.24
194.239	31.91
194.458	36.01
194.678	68.78
194.897	-19.29
195.116	74.92
195.335	-31.57
195.555	40.11
195.774	64.68
195.993	54.44
196.212	38.06
196.432	89.26
196.651	-64.34
196.87	-2.9
197.089	50.35
197.308	3.24
197.528	93.35
197.747	36.01
197.966	-17.24
198.185	19.63
198.404	87.21
198.623	13.48
198.842	9.39
199.062	68.78
199.281	15.53
199.5	-19.29
199.719	13.48
199.938	9.39
200.157	81.07
200.376	42.15
200.595	56.49
200.814	-25.43
201.033	11.43
201.252	38.06
201.471	46.25
201.69	-47.96
201.909	21.67
202.128	-4.95
202.347	31.91
202.566	50.35
202.785	-43.86
203.004	83.11
203.223	9.39
203.442	40.11
203.661	27.82
203.879	-0.85
204.098	44.2
204.317	-58.2
204.536	-25.43
204.755	25.77
204.974	79.02
205.193	23.72
205.411	-17.24
205.63	64.68
205.849	17.58
206.068	-2.9
206.287	21.67
206.505	48.3
206.724	99.5
206.943	3.24
207.162	79.02
207.381	-27.48
207.599	87.21
207.818	74.92
208.037	44.2
208.255	58.54
208.474	83.11
208.693	33.96
208.911	42.15
209.13	111.78
209.349	85.16
209.567	17.58
209.786	-37.72
210.005	11.43
210.223	25.77
210.442	1.19
210.661	44.2
210.879	48.3
211.098	17.58
211.316	33.96
211.535	42.15
211.753	46.25
211.972	44.2
212.191	25.77
212.409	109.74
212.628	21.67
212.846	-11.09
213.065	3.24
213.283	38.06
213.502	7.34
213.72	85.16
213.938	83.11
214.157	9.39
214.375	-7
214.594	36.01
214.812	25.77
215.031	91.31
215.249	-33.62
215.467	-29.52
215.686	-11.09
215.904	1.19
216.122	58.54
216.341	89.26
216.559	33.96
216.778	46.25
216.996	54.44
217.214	25.77
217.432	1.19
217.651	21.67
217.869	40.11
218.087	11.43
218.306	1.19
218.524	23.72
218.742	85.16
218.96	23.72
219.179	68.78
219.397	68.78
219.615	1.19
219.833	-0.85
220.051	-43.86
220.27	46.25
220.488	3.24
220.706	60.59
220.924	46.25
221.142	36.01
221.36	5.29
221.578	36.01
221.796	36.01
222.015	5.29
222.233	44.2
222.451	87.21
222.669	-0.85
222.887	48.3
223.105	33.96
223.323	15.53
223.541	23.72
223.759	31.91
223.977	21.67
224.195	44.2
224.413	58.54
224.631	54.44
224.849	60.59
225.067	117.93
225.285	21.67
225.503	64.68
225.721	-60.24
225.939	-31.57
226.157	62.63
226.375	56.49
226.592	15.53
226.81	21.67
227.028	68.78
227.246	-4.95
227.464	40.11
227.682	93.35
227.9	36.01
228.117	56.49
228.335	52.39
228.553	-45.91
228.771	-41.81
228.989	33.96
229.206	-0.85
229.424	-11.09
229.642	103.59
229.86	85.16
230.077	50.35
230.295	7.34
230.513	76.97
230.731	23.72
230.948	27.82
231.166	60.59
231.384	-27.48
231.601	93.35
231.819	15.53
232.037	-56.15
232.254	25.77
232.472	81.07
232.689	5.29
232.907	87.21
233.125	44.2
233.342	-35.67
233.56	40.11
233.777	-17.24
233.995	11.43
234.213	-29.52
234.43	40.11
234.648	23.72
234.865	40.11
235.083	19.63
235.3	11.43
235.518	27.82
235.735	70.83
235.953	48.3
236.17	87.21
236.388	85.16
236.605	79.02
236.822	17.58
237.04	-7
237.257	72.87
237.475	3.24
237.692	-11.09
237.909	40.11
238.127	54.44
238.344	60.59
238.562	-68.44
238.779	3.24
238.996	-0.85
239.214	27.82
239.431	36.01
239.648	29.87
239.865	46.25
240.083	50.35
240.3	48.3
240.517	-7
240.735	3.24
240.952	79.02
241.169	101.55
241.386	44.2
241.603	3.24
241.821	-31.57
242.038	62.63
242.255	36.01
242.472	38.06
242.689	36.01
242.907	76.97
243.124	50.35
243.341	42.15
243.558	13.48
243.775	64.68
243.992	38.06
244.209	11.43
244.426	-13.14
244.643	122.02
244.86	-15.19
245.078	9.39
245.295	7.34
245.512	21.67
245.729	25.77
245.946	-45.91
246.163	54.44
246.38	31.91
246.597	60.59
246.814	3.24
247.031	-23.38
247.248	11.43
247.464	58.54
247.681	15.53
247.898	23.72
248.115	40.11
248.332	85.16
248.549	95.4
248.766	17.58
248.983	25.77
249.2	5.29
249.417	56.49
249.633	17.58
249.85	38.06
250.067	19.63
250.284	62.63
250.501	72.87
250.717	42.15
250.934	23.72
251.151	50.35
251.368	3.24
251.585	29.87
251.801	64.68
252.018	79.02
252.235	60.59
252.451	38.06
252.668	-43.86
252.885	-15.19
253.102	33.96
253.318	17.58
253.535	54.44
253.752	19.63
253.968	-13.14
254.185	42.15
254.401	44.2
254.618	1.19
254.835	50.35
255.051	38.06
255.268	21.67
255.484	44.2
255.701	58.54
255.917	81.07
256.134	-17.24
256.351	83.11
256.567	44.2
256.784	33.96
257	7.34
257.217	66.73
257.433	13.48
257.65	1.19
257.866	-11.09
258.082	11.43
258.299	11.43
258.515	74.92
258.732	9.39
258.948	33.96
259.165	-2.9
259.381	29.87
259.597	76.97
259.814	87.21
260.03	-9.05
260.246	-23.38
260.463	1.19
260.679	21.67
260.895	-2.9
261.112	33.96
261.328	48.3
261.544	36.01
261.761	9.39
261.977	38.06
262.193	-25.43
262.409	76.97
262.626	56.49
262.842	-17.24
263.058	-23.38
263.274	19.63
263.49	66.73
263.707	31.91
263.923	42.15
264.139	-9.05
264.355	5.29
264.571	40.11
264.787	58.54
265.004	81.07
265.22	21.67
265.436	81.07
265.652	1.19
265.868	70.83
266.084	23.72
266.3	38.06
266.516	-9.05
266.732	29.87
266.948	89.26
267.164	-4.95
267.38	17.58
267.596	40.11
267.812	7.34
268.028	33.96
268.244	33.96
268.46	134.31
268.676	66.73
268.892	29.87
269.108	19.63
269.324	70.83
269.54	-17.24
269.756	44.2
269.972	83.11
270.188	17.58
270.403	13.48
270.619	21.67
270.835	44.2
271.051	91.31
271.267	-47.96
271.483	113.83
271.698	50.35
271.914	38.06
272.13	9.39
272.346	58.54
272.562	-29.52
272.777	50.35
272.993	36.01
273.209	11.43
273.425	72.87
273.64	36.01
273.856	25.77
274.072	46.25
274.287	-13.14
274.503	46.25
274.719	107.69
274.934	70.83
275.15	46.25
275.366	27.82
275.581	-25.43
275.797	-9.05
276.012	31.91
276.228	17.58
276.444	11.43
276.659	87.21
276.875	-9.05
277.09	50.35
277.306	31.91
277.521	66.73
277.737	-4.95
277.952	31.91
278.168	21.67
278.383	119.98
278.599	3.24
278.814	54.44
279.03	33.96
279.245	44.2
279.461	52.39
279.676	105.64
279.892	60.59
280.107	7.34
280.322	54.44
280.538	23.72
280.753	58.54
280.969	21.67
281.184	62.63
281.399	5.29
281.615	21.67
281.83	54.44
282.045	11.43
282.26	13.48
282.476	95.4
282.691	95.4
282.906	-0.85
283.122	48.3
283.337	60.59
283.552	7.34
283.767	50.35
283.983	31.91
284.198	72.87
284.413	15.53
284.628	-29.52
284.843	93.35
285.058	5.29
285.274	9.39
285.489	38.06
285.704	-17.24
285.919	74.92
286.134	1.19
286.349	74.92
286.564	85.16
286.779	-2.9
286.995	33.96
287.21	52.39
287.425	40.11
287.64	52.39
287.855	38.06
288.07	48.3
288.285	-9.05
288.5	60.59
288.715	119.98
288.93	36.01
289.145	-45.91
289.36	11.43
289.575	13.48
289.79	93.35
290.004	-15.19
290.219	11.43
290.434	72.87
290.649	60.59
290.864	124.07
291.079	3.24
291.294	36.01
291.509	87.21
291.724	-25.43
291.938	56.49
292.153	76.97
292.368	56.49
292.583	79.02
292.798	19.63
293.012	17.58
293.227	15.53
293.442	93.35
293.657	7.34
293.871	42.15
294.086	40.11
294.301	38.06
294.516	44.2
294.73	1.19
294.945	-2.9
295.16	64.68
295.374	74.92
295.589	-0.85
295.804	-4.95
296.018	-9.05
296.233	91.31
296.447	50.35
296.662	66.73
296.877	72.87
297.091	50.35
297.306	17.58
297.52	42.15
297.735	83.11
297.949	9.39
298.164	134.31
298.378	64.68
298.593	97.45
298.807	48.3
299.022	29.87
299.236	17.58
299.451	1.19
299.665	87.21
299.88	48.3
300.094	56.49
300.309	46.25
300.523	27.82
300.737	25.77
300.952	-9.05
301.166	13.48
301.381	-23.38
301.595	54.44
301.809	5.29
302.024	-0.85
302.238	15.53
302.452	60.59
302.667	27.82
302.881	40.11
303.095	62.63
303.309	-41.81
303.524	52.39
303.738	58.54
303.952	46.25
304.166	5.29
304.381	3.24
304.595	25.77
304.809	52.39
305.023	27.82
305.237	79.02
305.452	52.39
305.666	25.77
305.88	11.43
306.094	13.48
306.308	99.5
306.522	9.39
306.736	58.54
306.95	54.44
307.164	-47.96
307.379	54.44
307.593	29.87
307.807	117.93
308.021	115.88
308.235	38.06
308.449	52.39
308.663	54.44
308.877	66.73
309.091	-43.86
309.305	72.87
309.519	64.68
309.733	23.72
309.947	15.53
310.161	23.72
310.374	50.35
310.588	29.87
310.802	27.82
311.016	46.25
311.23	87.21
311.444	19.63
311.658	-7
311.872	9.39
312.085	-17.24
312.299	21.67
312.513	70.83
312.727	-37.72
312.941	83.11
313.154	93.35
313.368	-2.9
313.582	44.2
313.796	-11.09
314.009	101.55
314.223	42.15
314.437	46.25
314.651	99.5
314.864	95.4
315.078	9.39
315.292	25.77
315.505	83.11
315.719	56.49
315.933	74.92
316.146	52.39
316.36	9.39
316.573	97.45
316.787	13.48
317.001	-4.95
317.214	17.58
317.428	85.16
317.641	50.35
317.855	-2.9
318.068	-2.9
318.282	1.19
318.495	-97.11
318.709	42.15
318.922	31.91
319.136	68.78
319.349	81.07
319.563	83.11
319.776	15.53
319.99	-2.9
320.203	64.68
320.417	50.35
320.63	31.91
320.843	33.96
321.057	40.11
321.27	44.2
321.483	50.35
321.697	97.45
321.91	91.31
322.124	60.59
322.337	1.19
322.55	91.31
322.763	1.19
322.977	81.07
323.19	17.58
323.403	17.58
323.617	66.73
323.83	3.24
324.043	-17.24
324.256	-13.14
324.469	-31.57
324.683	60.59
324.896	44.2
325.109	124.07
325.322	29.87
325.535	31.91
325.748	21.67
325.962	15.53
326.175	68.78
326.388	76.97
326.601	9.39
326.814	19.63
327.027	58.54
327.24	72.87
327.453	91.31
327.666	-4.95
327.879	87.21
328.092	40.11
328.305	56.49
328.518	46.25
328.731	111.78
328.944	66.73
329.157	-17.24
329.37	42.15
329.583	62.63
329.796	58.54
330.009	40.11
330.222	66.73
330.435	19.63
330.648	-37.72
330.861	7.34
331.073	58.54
331.286	36.01
331.499	29.87
331.712	52.39
331.925	54.44
332.138	50.35
332.35	79.02
332.563	23.72
332.776	31.91
332.989	42.15
333.202	44.2
333.414	-50
333.627	58.54
333.84	21.67
334.053	85.16
334.265	-29.52
334.478	56.49
334.691	54.44
334.903	40.11
335.116	15.53
335.329	70.83
335.541	109.74
335.754	101.55
335.966	-23.38
336.179	58.54
336.392	64.68
336.604	-0.85
336.817	64.68
337.029	52.39
337.242	52.39
337.454	60.59
337.667	7.34
337.88	89.26
338.092	1.19
338.305	60.59
338.517	-21.33
338.729	76.97
338.942	44.2
339.154	3.24
339.367	11.43
339.579	70.83
339.792	36.01
340.004	54.44
340.217	15.53
340.429	68.78
340.641	97.45
340.854	-4.95
341.066	27.82
341.278	27.82
341.491	48.3
341.703	-15.19
341.915	7.34
342.128	117.93
342.34	-4.95
342.552	3.24
342.764	48.3
342.977	128.17
343.189	74.92
343.401	5.29
343.613	11.43
343.826	-23.38
344.038	-0.85
344.25	79.02
344.462	56.49
344.674	42.15
344.886	25.77
345.099	50.35
345.311	107.69
345.523	44.2
345.735	52.39
345.947	25.77
346.159	42.15
346.371	68.78
346.583	52.39
346.795	56.49
347.007	-2.9
347.219	33.96
347.431	46.25
347.643	7.34
347.855	64.68
348.067	-11.09
348.279	-17.24
348.491	56.49
348.703	83.11
348.915	29.87
349.127	-0.85
349.339	109.74
349.551	15.53
349.763	46.25
349.975	83.11
350.187	15.53
350.399	72.87
350.61	13.48
350.822	-9.05
351.034	-0.85
351.246	15.53
351.458	44.2
351.669	54.44
351.881	31.91
352.093	38.06
352.305	56.49
352.517	44.2
352.728	103.59
352.94	29.87
353.152	-25.43
353.363	21.67
353.575	50.35
353.787	13.48
353.999	109.74
354.21	27.82
354.422	54.44
354.633	-17.24
354.845	25.77
355.057	9.39
355.268	13.48
355.48	89.26
355.692	-0.85
355.903	79.02
356.115	-35.67
356.326	103.59
356.538	5.29
356.749	50.35
356.961	-0.85
357.172	-41.81
357.384	-7
357.595	27.82
357.807	33.96
358.018	-21.33
358.23	42.15
358.441	7.34
358.653	74.92
358.864	60.59
359.075	9.39
359.287	15.53
359.498	95.4
359.709	19.63
359.921	119.98
360.132	-21.33
360.344	60.59
360.555	115.88
360.766	52.39
360.977	56.49
361.189	19.63
361.4	-7
361.611	54.44
361.823	-43.86
362.034	23.72
362.245	25.77
362.456	62.63
362.667	91.31
362.879	9.39
363.09	52.39
363.301	-7
363.512	31.91
363.723	40.11
363.935	48.3
364.146	7.34
364.357	38.06
364.568	-9.05
364.779	60.59
364.99	81.07
365.201	-19.29
365.412	44.2
365.623	109.74
365.834	36.01
366.045	85.16
366.256	29.87
366.467	62.63
366.678	1.19
366.889	52.39
367.1	-13.14
367.311	58.54
367.522	33.96
367.733	13.48
367.944	81.07
368.155	7.34
368.366	-2.9
368.577	48.3
368.788	40.11
368.999	36.01
369.209	38.06
369.42	-4.95
369.631	38.06
369.842	1.19
370.053	105.64
370.264	42.15
370.474	27.82
370.685	97.45
370.896	33.96
371.107	79.02
371.317	91.31
371.528	46.25
371.739	83.11
371.95	17.58
372.16	54.44
372.371	21.67
372.582	124.07
372.792	76.97
373.003	17.58
373.214	122.02
373.424	42.15
373.635	38.06
373.846	11.43
374.056	56.49
374.267	-58.2
374.477	54.44
374.688	7.34
374.898	-27.48
375.109	72.87
375.319	66.73
375.53	70.83
375.74	52.39
375.951	19.63
376.161	62.63
376.372	72.87
376.582	68.78
376.793	52.39
377.003	87.21
377.214	7.34
377.424	50.35
377.635	19.63
377.845	91.31
378.055	68.78
378.266	15.53
378.476	54.44
378.686	7.34
378.897	56.49
379.107	126.12
379.317	-25.43
379.528	38.06
379.738	91.31
379.948	42.15
380.158	3.24
380.369	107.69
380.579	44.2
380.789	19.63
380.999	15.53
381.21	31.91
381.42	29.87
381.63	89.26
381.84	101.55
382.05	95.4
382.261	97.45
382.471	31.91
382.681	89.26
382.891	56.49
383.101	42.15
383.311	72.87
383.521	66.73
383.731	31.91
383.941	17.58
384.151	52.39
384.361	66.73
384.571	76.97
384.781	31.91
384.991	9.39
385.201	109.74
385.411	54.44
385.621	52.39
385.831	36.01
386.041	3.24
386.251	15.53
386.461	52.39
386.671	-45.91
386.881	31.91
387.091	56.49
387.301	95.4
387.511	103.59
387.72	-31.57
387.93	11.43
388.14	33.96
388.35	40.11
388.56	68.78
388.769	89.26
388.979	64.68
389.189	70.83
389.399	138.41
389.609	23.72
389.818	83.11
390.028	83.11
390.238	48.3
390.447	93.35
390.657	122.02
390.867	93.35
391.076	-21.33
391.286	89.26
391.496	72.87
391.705	31.91
391.915	79.02
392.125	46.25
392.334	62.63
392.544	79.02
392.753	79.02
392.963	50.35
393.172	91.31
393.382	9.39
393.591	62.63
393.801	97.45
394.01	58.54
394.22	66.73
394.429	60.59
394.639	42.15
394.848	25.77
395.058	54.44
395.267	23.72
395.477	58.54
395.686	146.6
395.895	83.11
396.105	40.11
396.314	-11.09
396.524	-11.09
396.733	60.59
396.942	128.17
397.152	89.26
397.361	36.01
397.57	76.97
397.78	89.26
397.989	64.68
398.198	42.15
398.407	79.02
398.617	89.26
398.826	93.35
399.035	76.97
399.244	52.39
399.453	68.78
399.663	76.97
399.872	99.5
400.081	52.39
400.29	93.35
400.499	-7
400.708	21.67
400.917	62.63
401.127	99.5
401.336	111.78
401.545	140.46
401.754	70.83
401.963	105.64
402.172	134.31
402.381	58.54
402.59	23.72
402.799	93.35
403.008	72.87
403.217	115.88
403.426	70.83
403.635	70.83
403.844	70.83
404.053	93.35
404.262	113.83
404.471	158.89
404.68	97.45
404.888	19.63
405.097	93.35
405.306	99.5
405.515	115.88
405.724	199.85
405.933	91.31
406.142	148.65
406.35	115.88
406.559	171.18
406.768	134.31
406.977	138.41
407.185	115.88
407.394	115.88
407.603	134.31
407.812	232.62
408.02	81.07
408.229	158.89
408.438	154.79
408.646	175.27
408.855	171.18
409.064	210.09
409.272	138.41
409.481	177.32
409.69	199.85
409.898	148.65
410.107	103.59
410.315	165.03
410.524	179.37
410.733	236.71
410.941	240.81
411.15	185.51
411.358	242.85
411.567	298.15
411.775	249
411.984	197.8
412.192	208.04
412.401	236.71
412.609	179.37
412.818	310.44
413.026	388.26
413.234	285.86
413.443	246.95
413.651	343.21
413.86	285.86
414.068	421.03
414.276	378.02
414.485	435.36
414.693	398.5
414.901	382.12
415.11	431.27
415.318	447.65
415.526	470.18
415.734	427.17
415.943	515.23
416.151	408.74
416.359	474.28
416.567	554.15
416.776	488.61
416.984	560.29
417.192	582.82
417.4	638.11
417.608	502.95
417.817	605.35
418.025	609.44
418.233	754.85
418.441	650.4
418.649	738.46
418.857	738.46
419.065	740.51
419.273	810.14
419.481	746.66
419.689	789.66
419.897	887.97
420.105	955.55
420.313	853.15
420.521	916.64
420.729	933.02
420.937	969.88
421.145	1039.51
421.353	1107.1
421.561	1062.04
421.769	1160.34
421.977	1191.06
422.185	1148.06
422.393	1303.7
422.601	1279.13
422.809	1283.22
423.017	1363.09
423.224	1395.86
423.432	1369.24
423.64	1420.44
423.848	1475.73
424.056	1463.44
424.263	1571.99
424.471	1582.23
424.679	1680.53
424.887	1733.78
425.094	1797.26
425.302	1795.22
425.51	1840.27
425.718	2047.12
425.925	1901.71
426.133	2059.4
426.341	2075.79
426.548	2192.52
426.756	2217.1
426.964	2243.72
427.171	2251.91
427.379	2397.32
427.586	2405.51
427.794	2577.54
428.001	2684.03
428.209	2702.47
428.417	2690.18
428.624	2864.25
428.832	2976.89
429.039	2999.42
429.247	2968.7
429.454	3249.27
429.662	3388.53
429.869	3136.63
430.076	3404.92
430.284	3243.13
430.491	3515.51
430.699	3628.15
430.906	3603.57
431.114	3619.96
431.321	3832.94
431.528	3843.18
431.736	4074.6
431.943	4299.88
432.15	4117.61
432.358	4224.11
432.565	4473.96
432.772	4465.77
432.979	4633.7
433.187	4797.54
433.394	4850.78
433.601	5119.07
433.808	5180.51
434.016	5262.43
434.223	5239.9
434.43	5598.29
434.637	5508.18
434.844	5946.45
435.052	6009.93
435.259	6040.65
435.466	6022.22
435.673	6079.57
435.88	6466.63
436.087	6646.85
436.294	6704.2
436.501	6552.65
436.708	6653
436.915	6999.1
437.122	7191.61
437.329	7251
437.537	7363.64
437.743	7525.43
437.95	7455.8
438.157	7869.49
438.364	8166.45
438.571	8242.22
438.778	8127.53
438.985	9053.22
439.192	8735.78
439.399	8907.81
439.606	8557.61
439.813	8989.73
440.02	9825.3
440.227	9501.72
440.433	9249.82
440.64	9927.7
440.847	9743.38
441.054	9714.71
441.261	10605.58
441.467	10255.37
441.674	10687.5
441.881	10849.29
442.088	10900.48
442.294	10783.75
442.501	11152.38
442.708	11322.37
442.914	11668.47
443.121	12215.28
443.328	11942.9
443.534	12661.74
443.741	12516.33
443.948	12542.96
444.154	13157.35
444.361	13134.82
444.568	13224.93
444.774	13188.07
444.981	13399.01
445.187	13997.01
445.394	14277.58
445.6	14097.36
445.807	15629.24
446.013	14787.53
446.22	15127.49
446.426	15573.95
446.633	15793.08
446.839	16409.52
447.046	15778.75
447.252	16632.75
447.459	16706.48
447.665	16755.63
447.871	17345.44
448.078	17841.05
448.284	17443.74
448.491	17664.93
448.697	18326.42
448.903	18766.73
449.11	18598.8
449.316	18666.38
449.522	18703.25
449.728	19053.45
449.935	19405.7
450.141	19188.61
450.347	19686.27
450.553	19250.05
450.76	19348.36
450.966	19891.07
451.172	19854.2
451.378	20358
451.584	19938.17
451.791	20407.16
451.997	20106.1
452.203	20806.51
452.409	20644.72
452.615	20573.04
452.821	19747.71
453.027	19635.07
453.233	20364.15
453.44	19610.5
453.646	19843.96
453.852	19862.4
454.058	20118.39
454.264	19473.28
454.47	19786.62
454.676	19385.22
454.882	20079.48
455.088	18398.1
455.294	18738.06
455.5	18985.86
455.705	19049.35
455.911	18404.24
456.117	18023.32
456.323	17994.65
456.529	16794.54
456.735	17578.91
456.941	17329.06
457.147	16706.48
457.352	16513.97
457.558	16309.17
457.764	16116.66
457.97	15911.86
458.176	15463.36
458.381	15352.77
458.587	14609.36
458.793	14705.61
458.999	14224.34
459.204	14855.11
459.41	14592.97
459.616	13482.97
459.821	13728.73
460.027	13489.12
460.233	13220.83
460.438	12813.29
460.644	12694.5
460.85	12055.54
461.055	12241.9
461.261	11924.47
461.466	11203.58
461.672	10845.19
461.878	11559.93
462.083	10886.15
462.289	10587.15
462.494	10419.21
462.7	9970.71
462.905	9856.02
463.111	10112.02
463.316	10087.44
463.522	9761.81
463.727	10003.47
463.932	10071.06
464.138	9683.99
464.343	9929.75
464.549	9544.73
464.754	9853.97
464.959	9716.76
465.165	9923.6
465.37	9389.08
465.575	8954.91
465.781	9350.17
465.986	9280.54
466.191	9241.63
466.397	9038.88
466.602	8549.42
466.807	8987.68
467.012	8920.1
467.218	8866.85
467.423	8735.78
467.628	8750.12
467.833	9124.9
468.038	8608.81
468.244	8690.73
468.449	8784.93
468.654	8735.78
468.859	8563.75
469.064	8555.56
469.269	8150.06
469.474	8287.28
469.679	8406.06
