Data from USB4F104151__249__14-01-30-453.txt Node

Date: Thu Mar 13 14:01:30 EDT 2025
User: louis
Spectrometer: USB4F10415
Trigger mode: 4
Integration Time (sec): 1.000000E-2
Scans to average: 1
Electric dark correction enabled: true
Nonlinearity correction enabled: false
Boxcar width: 0
XAxis mode: Wavelengths
Number of Pixels in Spectrum: 3648
>>>>>Begin Spectral Data<<<<<
178.204	-29.87
178.424	-29.87
178.644	-29.87
178.864	-50.35
179.084	-58.54
179.304	-29.87
179.524	25.43
179.744	-1.19
179.964	2.9
180.184	-33.96
180.404	-29.87
180.624	25.43
180.844	-21.67
181.064	4.95
181.283	-9.39
181.503	47.96
181.723	19.29
181.943	-58.54
182.163	43.86
182.383	-54.44
182.602	-42.15
182.822	37.72
183.042	50
183.262	-33.96
183.482	-7.34
183.701	41.81
183.921	-42.15
184.141	-50.35
184.361	-3.24
184.58	31.57
184.8	-68.78
185.02	-56.49
185.239	56.15
185.459	-15.53
185.679	-13.48
185.898	-9.39
186.118	-40.11
186.338	-13.48
186.557	-33.96
186.777	-31.91
186.997	33.62
187.216	-40.11
187.436	47.96
187.655	23.38
187.875	-13.48
188.095	-19.63
188.314	11.09
188.534	-7.34
188.753	-42.15
188.973	2.9
189.192	-23.72
189.412	-33.96
189.631	80.72
189.851	7
190.07	47.96
190.29	-7.34
190.509	21.33
190.729	-1.19
190.948	13.14
191.168	50
191.387	27.48
191.607	-23.72
191.826	23.38
192.045	39.76
192.265	-48.3
192.484	-5.29
192.704	33.62
192.923	-54.44
193.142	19.29
193.362	-23.72
193.581	-17.58
193.8	56.15
194.02	39.76
194.239	0.85
194.458	27.48
194.678	-56.49
194.897	7
195.116	19.29
195.335	-9.39
195.555	21.33
195.774	-11.43
195.993	56.15
196.212	21.33
196.432	15.19
196.651	7
196.87	11.09
197.089	101.2
197.308	11.09
197.528	-23.72
197.747	33.62
197.966	86.87
198.185	29.52
198.404	15.19
198.623	15.19
198.842	-36.01
199.062	109.4
199.281	41.81
199.5	33.62
199.719	-17.58
199.938	-42.15
200.157	0.85
200.376	37.72
200.595	15.19
200.814	54.1
201.033	33.62
201.252	11.09
201.471	68.44
201.69	-36.01
201.909	9.05
202.128	-23.72
202.347	29.52
202.566	-1.19
202.785	-9.39
203.004	43.86
203.223	86.87
203.442	27.48
203.661	39.76
203.879	-19.63
204.098	33.62
204.317	-3.24
204.536	-1.19
204.755	-42.15
204.974	0.85
205.193	58.2
205.411	21.33
205.63	-21.67
205.849	-46.25
206.068	-56.49
206.287	4.95
206.505	-19.63
206.724	-74.92
206.943	-48.3
207.162	-9.39
207.381	-27.82
207.599	-5.29
207.818	-9.39
208.037	-33.96
208.255	-46.25
208.474	-9.39
208.693	-50.35
208.911	15.19
209.13	17.24
209.349	-5.29
209.567	37.72
209.786	-17.58
210.005	-40.11
210.223	43.86
210.442	0.85
210.661	74.58
210.879	-1.19
211.098	4.95
211.316	-9.39
211.535	31.57
211.753	-40.11
211.972	31.57
212.191	13.14
212.409	21.33
212.628	17.24
212.846	-29.87
213.065	-19.63
213.283	56.15
213.502	-9.39
213.72	-9.39
213.938	-74.92
214.157	9.05
214.375	15.19
214.594	-7.34
214.812	-13.48
215.031	-5.29
215.249	-7.34
215.467	31.57
215.686	35.67
215.904	-9.39
216.122	9.05
216.341	-17.58
216.559	-9.39
216.778	19.29
216.996	19.29
217.214	11.09
217.432	-29.87
217.651	-17.58
217.869	19.29
218.087	21.33
218.306	7
218.524	47.96
218.742	-21.67
218.96	-3.24
219.179	23.38
219.397	31.57
219.615	11.09
219.833	52.05
220.051	0.85
220.27	-19.63
220.488	0.85
220.706	43.86
220.924	-7.34
221.142	-56.49
221.36	52.05
221.578	-1.19
221.796	-5.29
222.015	33.62
222.233	4.95
222.451	15.19
222.669	11.09
222.887	0.85
223.105	39.76
223.323	64.34
223.541	60.24
223.759	-7.34
223.977	4.95
224.195	25.43
224.413	-27.82
224.631	-3.24
224.849	39.76
225.067	41.81
225.285	-15.53
225.503	29.52
225.721	-42.15
225.939	25.43
226.157	-17.58
226.375	86.87
226.592	13.14
226.81	97.11
227.028	15.19
227.246	-56.49
227.464	35.67
227.682	-1.19
227.9	-19.63
228.117	9.05
228.335	9.05
228.553	-7.34
228.771	-5.29
228.989	97.11
229.206	-36.01
229.424	-36.01
229.642	-31.91
229.86	15.19
230.077	-3.24
230.295	-29.87
230.513	15.19
230.731	41.81
230.948	-1.19
231.166	39.76
231.384	7
231.601	-5.29
231.819	7
232.037	0.85
232.254	2.9
232.472	-36.01
232.689	17.24
232.907	29.52
233.125	-25.77
233.342	31.57
233.56	-64.68
233.777	-9.39
233.995	-29.87
234.213	0.85
234.43	15.19
234.648	19.29
234.865	27.48
235.083	56.15
235.3	-17.58
235.518	-7.34
235.735	37.72
235.953	97.11
236.17	2.9
236.388	-40.11
236.605	15.19
236.822	11.09
237.04	35.67
237.257	39.76
237.475	-56.49
237.692	13.14
237.909	29.52
238.127	2.9
238.344	-25.77
238.562	7
238.779	-13.48
238.996	-38.06
239.214	4.95
239.431	-3.24
239.648	35.67
239.865	-29.87
240.083	0.85
240.3	41.81
240.517	-107.69
240.735	-13.48
240.952	64.34
241.169	-62.63
241.386	9.05
241.603	31.57
241.821	-33.96
242.038	58.2
242.255	17.24
242.472	-40.11
242.689	-58.54
242.907	-31.91
243.124	15.19
243.341	-87.21
243.558	15.19
243.775	23.38
243.992	-31.91
244.209	27.48
244.426	-15.53
244.643	33.62
244.86	11.09
245.078	-7.34
245.295	-9.39
245.512	-52.39
245.729	56.15
245.946	-56.49
246.163	23.38
246.38	31.57
246.597	-13.48
246.814	74.58
247.031	56.15
247.248	-3.24
247.464	0.85
247.681	56.15
247.898	97.11
248.115	41.81
248.332	78.68
248.549	-19.63
248.766	47.96
248.983	2.9
249.2	117.59
249.417	9.05
249.633	47.96
249.85	72.53
250.067	-21.67
250.284	47.96
250.501	43.86
250.717	25.43
250.934	-9.39
251.151	-25.77
251.368	47.96
251.585	11.09
251.801	-15.53
252.018	-58.54
252.235	9.05
252.451	2.9
252.668	-62.63
252.885	64.34
253.102	-13.48
253.318	-9.39
253.535	41.81
253.752	21.33
253.968	-3.24
254.185	21.33
254.401	54.1
254.618	0.85
254.835	0.85
255.051	17.24
255.268	-1.19
255.484	2.9
255.701	-5.29
255.917	115.54
256.134	-9.39
256.351	7
256.567	-42.15
256.784	50
257	47.96
257.217	68.44
257.433	-17.58
257.65	93.01
257.866	-19.63
258.082	-1.19
258.299	0.85
258.515	25.43
258.732	7
258.948	52.05
259.165	-1.19
259.381	27.48
259.597	-7.34
259.814	39.76
260.03	2.9
260.246	-31.91
260.463	0.85
260.679	-33.96
260.895	-36.01
261.112	-7.34
261.328	-17.58
261.544	39.76
261.761	27.48
261.977	31.57
262.193	-13.48
262.409	31.57
262.626	-36.01
262.842	21.33
263.058	33.62
263.274	33.62
263.49	-29.87
263.707	-33.96
263.923	31.57
264.139	52.05
264.355	-38.06
264.571	-1.19
264.787	-21.67
265.004	39.76
265.22	-17.58
265.436	-74.92
265.652	2.9
265.868	-11.43
266.084	-25.77
266.3	-48.3
266.516	11.09
266.732	-42.15
266.948	0.85
267.164	19.29
267.38	80.72
267.596	35.67
267.812	-40.11
268.028	70.48
268.244	-25.77
268.46	-17.58
268.676	-1.19
268.892	0.85
269.108	-76.97
269.324	9.05
269.54	39.76
269.756	0.85
269.972	68.44
270.188	-25.77
270.403	-56.49
270.619	47.96
270.835	-19.63
271.051	35.67
271.267	2.9
271.483	-48.3
271.698	-21.67
271.914	29.52
272.13	39.76
272.346	-33.96
272.562	-21.67
272.777	-23.72
272.993	72.53
273.209	86.87
273.425	86.87
273.64	84.82
273.856	-9.39
274.072	27.48
274.287	4.95
274.503	50
274.719	45.91
274.934	50
275.15	-101.55
275.366	-7.34
275.581	11.09
275.797	31.57
276.012	9.05
276.228	15.19
276.444	-3.24
276.659	15.19
276.875	9.05
277.09	113.49
277.306	43.86
277.521	-9.39
277.737	-72.87
277.952	50
278.168	11.09
278.383	35.67
278.599	29.52
278.814	2.9
279.03	50
279.245	60.24
279.461	-7.34
279.676	-17.58
279.892	7
280.107	27.48
280.322	2.9
280.538	7
280.753	-33.96
280.969	52.05
281.184	-13.48
281.399	41.81
281.615	-17.58
281.83	43.86
282.045	-25.77
282.26	-113.83
282.476	41.81
282.691	-27.82
282.906	-27.82
283.122	7
283.337	-5.29
283.552	58.2
283.767	4.95
283.983	72.53
284.198	-13.48
284.413	19.29
284.628	-27.82
284.843	-48.3
285.058	-13.48
285.274	-9.39
285.489	-9.39
285.704	17.24
285.919	25.43
286.134	19.29
286.349	43.86
286.564	29.52
286.779	39.76
286.995	7
287.21	7
287.425	11.09
287.64	-15.53
287.855	-29.87
288.07	4.95
288.285	-58.54
288.5	7
288.715	78.68
288.93	41.81
289.145	0.85
289.36	-25.77
289.575	-11.43
289.79	39.76
290.004	15.19
290.219	-74.92
290.434	-31.91
290.649	37.72
290.864	27.48
291.079	39.76
291.294	17.24
291.509	-11.43
291.724	-25.77
291.938	43.86
292.153	-21.67
292.368	-40.11
292.583	29.52
292.798	-44.2
293.012	15.19
293.227	52.05
293.442	27.48
293.657	47.96
293.871	39.76
294.086	64.34
294.301	45.91
294.516	-23.72
294.73	33.62
294.945	19.29
295.16	-13.48
295.374	-42.15
295.589	33.62
295.804	-38.06
296.018	7
296.233	-29.87
296.447	-1.19
296.662	60.24
296.877	-42.15
297.091	-31.91
297.306	-17.58
297.52	23.38
297.735	-46.25
297.949	101.2
298.164	35.67
298.378	29.52
298.593	0.85
298.807	-9.39
299.022	68.44
299.236	-56.49
299.451	50
299.665	-5.29
299.88	78.68
300.094	-42.15
300.309	-36.01
300.523	-3.24
300.737	47.96
300.952	29.52
301.166	-5.29
301.381	-11.43
301.595	76.63
301.809	0.85
302.024	21.33
302.238	37.72
302.452	31.57
302.667	-50.35
302.881	58.2
303.095	52.05
303.309	-31.91
303.524	-42.15
303.738	-9.39
303.952	7
304.166	70.48
304.381	13.14
304.595	21.33
304.809	-17.58
305.023	-31.91
305.237	-1.19
305.452	11.09
305.666	37.72
305.88	50
306.094	13.14
306.308	54.1
306.522	80.72
306.736	21.33
306.95	39.76
307.164	41.81
307.379	-9.39
307.593	47.96
307.807	-31.91
308.021	-7.34
308.235	9.05
308.449	0.85
308.663	-44.2
308.877	105.3
309.091	58.2
309.305	0.85
309.519	-3.24
309.733	11.09
309.947	-17.58
310.161	74.58
310.374	19.29
310.588	-5.29
310.802	-52.39
311.016	29.52
311.23	4.95
311.444	-66.73
311.658	27.48
311.872	52.05
312.085	-17.58
312.299	97.11
312.513	41.81
312.727	11.09
312.941	-40.11
313.154	-1.19
313.368	27.48
313.582	7
313.796	17.24
314.009	-29.87
314.223	62.29
314.437	-25.77
314.651	2.9
314.864	-38.06
315.078	29.52
315.292	15.19
315.505	21.33
315.719	72.53
315.933	-50.35
316.146	-50.35
316.36	9.05
316.573	64.34
316.787	39.76
317.001	23.38
317.214	4.95
317.428	39.76
317.641	-7.34
317.855	31.57
318.068	35.67
318.282	-33.96
318.495	-36.01
318.709	31.57
318.922	13.14
319.136	43.86
319.349	33.62
319.563	7
319.776	9.05
319.99	54.1
320.203	-83.11
320.417	31.57
320.63	33.62
320.843	66.39
321.057	-48.3
321.27	54.1
321.483	23.38
321.697	21.33
321.91	-50.35
322.124	-1.19
322.337	-29.87
322.55	19.29
322.763	15.19
322.977	35.67
323.19	-13.48
323.403	64.34
323.617	-33.96
323.83	41.81
324.043	11.09
324.256	-9.39
324.469	-27.82
324.683	25.43
324.896	41.81
325.109	-48.3
325.322	-33.96
325.535	17.24
325.748	-33.96
325.962	-19.63
326.175	17.24
326.388	-13.48
326.601	-1.19
326.814	7
327.027	-42.15
327.24	-25.77
327.453	-29.87
327.666	-5.29
327.879	17.24
328.092	39.76
328.305	86.87
328.518	23.38
328.731	-25.77
328.944	76.63
329.157	47.96
329.37	7
329.583	-58.54
329.796	41.81
330.009	-3.24
330.222	41.81
330.435	-48.3
330.648	31.57
330.861	52.05
331.073	27.48
331.286	23.38
331.499	101.2
331.712	15.19
331.925	41.81
332.138	-85.16
332.35	-5.29
332.563	-7.34
332.776	31.57
332.989	-9.39
333.202	-25.77
333.414	-13.48
333.627	31.57
333.84	-58.54
334.053	52.05
334.265	0.85
334.478	2.9
334.691	17.24
334.903	58.2
335.116	-3.24
335.329	-5.29
335.541	37.72
335.754	29.52
335.966	21.33
336.179	25.43
336.392	15.19
336.604	37.72
336.817	-31.91
337.029	97.11
337.242	9.05
337.454	64.34
337.667	39.76
337.88	-9.39
338.092	-17.58
338.305	52.05
338.517	39.76
338.729	11.09
338.942	29.52
339.154	23.38
339.367	41.81
339.579	-5.29
339.792	-7.34
340.004	50
340.217	-29.87
340.429	31.57
340.641	4.95
340.854	31.57
341.066	76.63
341.278	7
341.491	50
341.703	25.43
341.915	-13.48
342.128	0.85
342.34	-31.91
342.552	31.57
342.764	13.14
342.977	31.57
343.189	-1.19
343.401	-7.34
343.613	-7.34
343.826	-9.39
344.038	17.24
344.25	95.06
344.462	-25.77
344.674	-5.29
344.886	-48.3
345.099	41.81
345.311	-3.24
345.523	-97.45
345.735	19.29
345.947	-9.39
346.159	-23.72
346.371	97.11
346.583	-9.39
346.795	76.63
347.007	-13.48
347.219	15.19
347.431	80.72
347.643	-33.96
347.855	-33.96
348.067	27.48
348.279	-27.82
348.491	-23.72
348.703	15.19
348.915	31.57
349.127	17.24
349.339	0.85
349.551	13.14
349.763	45.91
349.975	-21.67
350.187	80.72
350.399	-44.2
350.61	-21.67
350.822	7
351.034	21.33
351.246	11.09
351.458	4.95
351.669	25.43
351.881	56.15
352.093	21.33
352.305	4.95
352.517	-29.87
352.728	21.33
352.94	45.91
353.152	-25.77
353.363	54.1
353.575	31.57
353.787	103.25
353.999	74.58
354.21	72.53
354.422	15.19
354.633	-13.48
354.845	-31.91
355.057	66.39
355.268	-15.53
355.48	-13.48
355.692	4.95
355.903	-17.58
356.115	0.85
356.326	17.24
356.538	50
356.749	11.09
356.961	88.92
357.172	-25.77
357.384	60.24
357.595	11.09
357.807	47.96
358.018	-3.24
358.23	-3.24
358.441	-7.34
358.653	2.9
358.864	-70.83
359.075	47.96
359.287	37.72
359.498	-13.48
359.709	60.24
359.921	-33.96
360.132	84.82
360.344	-31.91
360.555	72.53
360.766	76.63
360.977	23.38
361.189	84.82
361.4	-17.58
361.611	-31.91
361.823	23.38
362.034	58.2
362.245	-52.39
362.456	41.81
362.667	43.86
362.879	31.57
363.09	56.15
363.301	23.38
363.512	9.05
363.723	21.33
363.935	27.48
364.146	17.24
364.357	13.14
364.568	11.09
364.779	25.43
364.99	7
365.201	7
365.412	-15.53
365.623	2.9
365.834	-27.82
366.045	-9.39
366.256	-27.82
366.467	45.91
366.678	33.62
366.889	13.14
367.1	-9.39
367.311	35.67
367.522	41.81
367.733	27.48
367.944	-1.19
368.155	-25.77
368.366	27.48
368.577	-52.39
368.788	31.57
368.999	66.39
369.209	23.38
369.42	68.44
369.631	35.67
369.842	-7.34
370.053	41.81
370.264	43.86
370.474	-11.43
370.685	-9.39
370.896	21.33
371.107	9.05
371.317	74.58
371.528	-5.29
371.739	21.33
371.95	11.09
372.16	13.14
372.371	47.96
372.582	-17.58
372.792	80.72
373.003	13.14
373.214	52.05
373.424	-3.24
373.635	66.39
373.846	25.43
374.056	-58.54
374.267	33.62
374.477	33.62
374.688	41.81
374.898	23.38
375.109	58.2
375.319	-7.34
375.53	52.05
375.74	17.24
375.951	39.76
376.161	-9.39
376.372	35.67
376.582	-58.54
376.793	-21.67
377.003	-17.58
377.214	-23.72
377.424	4.95
377.635	-7.34
377.845	0.85
378.055	43.86
378.266	-13.48
378.476	68.44
378.686	-31.91
378.897	9.05
379.107	62.29
379.317	9.05
379.528	-52.39
379.738	7
379.948	25.43
380.158	-9.39
380.369	-17.58
380.579	95.06
380.789	-3.24
380.999	41.81
381.21	25.43
381.42	39.76
381.63	33.62
381.84	0.85
382.05	88.92
382.261	-46.25
382.471	19.29
382.681	21.33
382.891	66.39
383.101	27.48
383.311	-11.43
383.521	27.48
383.731	-19.63
383.941	56.15
384.151	56.15
384.361	27.48
384.571	47.96
384.781	0.85
384.991	41.81
385.201	56.15
385.411	23.38
385.621	13.14
385.831	-3.24
386.041	47.96
386.251	76.63
386.461	43.86
386.671	-17.58
386.881	64.34
387.091	15.19
387.301	76.63
387.511	19.29
387.72	-38.06
387.93	-38.06
388.14	39.76
388.35	50
388.56	43.86
388.769	56.15
388.979	31.57
389.189	58.2
389.399	35.67
389.609	64.34
389.818	78.68
390.028	66.39
390.238	17.24
390.447	-1.19
390.657	-15.53
390.867	7
391.076	-13.48
391.286	33.62
391.496	33.62
391.705	-11.43
391.915	52.05
392.125	56.15
392.334	-15.53
392.544	70.48
392.753	62.29
392.963	93.01
393.172	58.2
393.382	37.72
393.591	-7.34
393.801	21.33
394.01	35.67
394.22	4.95
394.429	15.19
394.639	11.09
394.848	54.1
395.058	-21.67
395.267	56.15
395.477	-9.39
395.686	-5.29
395.895	23.38
396.105	33.62
396.314	64.34
396.524	21.33
396.733	13.14
396.942	39.76
397.152	7
397.361	117.59
397.57	64.34
397.78	43.86
397.989	-50.35
398.198	70.48
398.407	17.24
398.617	29.52
398.826	0.85
399.035	21.33
399.244	31.57
399.453	27.48
399.663	39.76
399.872	11.09
400.081	78.68
400.29	64.34
400.499	-3.24
400.708	90.96
400.917	33.62
401.127	56.15
401.336	25.43
401.545	119.64
401.754	66.39
401.963	39.76
402.172	17.24
402.381	97.11
402.59	27.48
402.799	4.95
403.008	68.44
403.217	19.29
403.426	21.33
403.635	72.53
403.844	117.59
404.053	41.81
404.262	138.07
404.471	111.44
404.68	58.2
404.888	99.16
405.097	58.2
405.306	131.92
405.515	47.96
405.724	123.73
405.933	74.58
406.142	117.59
406.35	23.38
406.559	101.2
406.768	41.81
406.977	144.21
407.185	39.76
407.394	162.64
407.603	86.87
407.812	115.54
408.02	160.59
408.229	142.16
408.438	150.36
408.646	115.54
408.855	187.22
409.064	224.08
409.272	105.3
409.481	183.12
409.69	193.36
409.898	174.93
410.107	109.4
410.315	93.01
410.524	148.31
410.733	138.07
410.941	109.4
411.15	123.73
411.358	236.37
411.567	234.32
411.775	291.66
411.984	179.03
412.192	199.51
412.401	248.66
412.609	226.13
412.818	285.52
413.026	297.81
413.234	240.47
413.443	226.13
413.651	312.14
413.86	353.1
414.068	375.63
414.276	301.9
414.485	361.3
414.693	367.44
414.901	326.48
415.11	322.38
415.318	461.65
415.526	328.53
415.734	430.93
415.943	406.35
416.151	494.41
416.359	406.35
416.567	518.99
416.776	486.22
416.984	523.09
417.192	435.02
417.4	490.32
417.608	586.57
417.817	516.94
418.025	637.77
418.233	678.73
418.441	619.34
418.649	623.44
418.857	645.96
419.065	756.55
419.273	697.16
419.481	605
419.689	703.31
419.897	842.57
420.105	799.56
420.313	867.14
420.521	949.06
420.729	897.86
420.937	891.72
421.145	971.59
421.353	1030.98
421.561	1055.56
421.769	1063.75
421.977	1080.13
422.185	1020.74
422.393	1119.04
422.601	1274.69
422.809	1225.54
423.017	1342.27
423.224	1334.08
423.432	1301.31
423.64	1399.62
423.848	1497.92
424.056	1424.19
424.263	1413.95
424.471	1532.73
424.679	1561.41
424.887	1639.23
425.094	1745.72
425.302	1864.5
425.51	1780.54
425.718	1891.13
425.925	1882.94
426.133	1958.71
426.341	2089.78
426.548	2079.54
426.756	2175.8
426.964	2143.03
427.171	2272.05
427.379	2300.72
427.586	2399.02
427.794	2249.52
428.001	2534.19
428.209	2564.91
428.417	2583.34
428.624	2874.15
428.832	2792.23
429.039	2790.19
429.247	2728.75
429.454	3105.57
429.662	3261.22
429.869	2999.08
430.076	3244.84
430.284	3162.92
430.491	3236.64
430.699	3461.92
430.906	3554.08
431.114	3519.26
431.321	3703.58
431.528	3869.47
431.736	4014.87
431.943	4162.33
432.15	3943.19
432.358	4045.59
432.565	4258.58
432.772	4266.77
432.979	4584.21
433.187	4543.25
433.394	4586.26
433.601	4887.31
433.808	4872.97
434.016	4782.86
434.223	5022.47
434.43	5274.37
434.637	5298.95
434.844	5665.53
435.052	5782.27
435.259	5759.74
435.466	5909.24
435.673	5765.89
435.88	6044.41
436.087	6238.97
436.294	6421.24
436.501	6275.83
436.708	6456.05
436.915	6537.97
437.122	6877.93
437.329	6742.77
437.537	6959.85
437.743	7293.67
437.95	7228.14
438.157	7328.49
438.364	7813.85
438.571	7647.97
438.778	7635.68
438.985	8630.99
439.192	8106.71
439.399	8307.41
439.606	8039.13
439.813	8426.2
440.02	9290.44
440.227	9081.55
440.433	8952.52
440.64	9177.8
440.847	9173.71
441.054	9423.56
441.261	10095.29
441.467	9865.92
441.674	10097.34
441.881	10519.22
442.088	10644.15
442.294	10386.1
442.501	10422.97
442.708	10717.87
442.914	11158.19
443.121	11621.03
443.328	11514.53
443.534	12061.34
443.741	11877.02
443.948	11813.54
444.154	12366.49
444.361	12450.46
444.568	12313.24
444.774	12503.7
444.981	12681.88
445.187	13048.46
445.394	13605.51
445.6	13326.99
445.807	14856.82
446.013	14211.71
446.22	14582.39
446.426	14885.49
446.633	14998.13
446.839	15487.59
447.046	14887.54
447.252	15598.18
447.459	15657.57
447.665	15690.34
447.871	16329.31
448.078	17148.5
448.284	16325.21
448.491	16759.38
448.697	17361.48
448.903	17666.63
449.11	17693.26
449.316	17408.59
449.522	17646.15
449.728	18309.69
449.935	18403.9
450.141	18541.11
450.347	18954.8
450.553	18086.47
450.76	18510.39
450.966	18989.62
451.172	18719.29
451.378	19397.17
451.584	19001.91
451.791	19305.01
451.997	19266.1
452.203	19558.95
452.409	19636.78
452.615	19669.55
452.821	18848.31
453.027	18827.83
453.233	19544.62
453.44	18811.45
453.646	18973.24
453.852	19266.1
454.058	19425.84
454.264	18711.1
454.47	19278.38
454.676	18723.38
454.882	19311.15
455.088	17928.77
455.294	17726.02
455.5	18274.88
455.705	18483.77
455.911	17619.53
456.117	17330.76
456.323	17185.36
456.529	16343.64
456.735	16998.99
456.941	16581.21
457.147	16204.38
457.352	15809.12
457.558	15569.51
457.764	15432.3
457.97	15305.32
458.176	14979.7
458.381	14910.07
458.587	14416.51
458.793	14459.51
458.999	13548.17
459.204	14652.02
459.41	14137.98
459.616	13189.77
459.821	13212.3
460.027	13052.56
460.233	12948.11
460.438	12171.93
460.644	12200.6
460.85	12047.01
461.055	11631.27
461.261	11774.63
461.466	10656.43
461.672	10476.21
461.878	11043.5
462.083	10508.98
462.289	10349.24
462.494	10191.55
462.7	9927.36
462.905	9523.91
463.111	9726.66
463.316	9736.9
463.522	9661.12
463.727	9710.27
463.932	9640.64
464.138	9409.22
464.343	9534.15
464.549	9306.82
464.754	9599.68
464.959	9566.92
465.165	9355.97
465.37	9069.26
465.575	8874.7
465.781	9192.14
465.986	9204.42
466.191	8846.03
466.397	8737.49
466.602	8436.44
466.807	8723.15
467.012	8649.43
467.218	8577.75
467.423	8479.44
467.628	8583.89
467.833	8966.86
468.038	8508.12
468.244	8321.75
468.449	8612.56
468.654	8487.64
468.859	8338.13
469.064	8209.11
469.269	7781.09
