Data from USB4F104151__287__14-02-43-277.txt Node

Date: Thu Mar 13 14:02:43 EDT 2025
User: louis
Spectrometer: USB4F10415
Trigger mode: 4
Integration Time (sec): 1.000000E-2
Scans to average: 1
Electric dark correction enabled: true
Nonlinearity correction enabled: false
Boxcar width: 0
XAxis mode: Wavelengths
Number of Pixels in Spectrum: 3648
>>>>>Begin Spectral Data<<<<<
178.204	4.44
178.424	4.44
178.644	4.44
178.864	-48.81
179.084	-11.95
179.304	10.58
179.524	2.39
179.744	78.16
179.964	84.31
180.184	-9.9
180.404	-61.1
180.624	-59.05
180.844	29.01
181.064	-38.57
181.283	-20.14
181.503	-5.8
181.723	-9.9
181.943	-30.38
182.163	84.31
182.383	-26.28
182.602	63.83
182.822	24.92
183.042	94.55
183.262	29.01
183.482	-32.43
183.701	-11.95
183.921	74.07
184.141	22.87
184.361	10.58
184.58	72.02
184.8	49.49
185.02	16.73
185.239	55.64
185.459	18.77
185.679	37.2
185.898	-52.91
186.118	59.73
186.338	39.25
186.557	59.73
186.777	49.49
186.997	80.21
187.216	-32.43
187.436	10.58
187.655	10.58
187.875	6.49
188.095	33.11
188.314	24.92
188.534	8.53
188.753	-13.99
188.973	4.44
189.192	86.36
189.412	10.58
189.631	90.45
189.851	37.2
190.07	-20.14
190.29	4.44
190.509	69.97
190.729	-26.28
190.948	69.97
191.168	80.21
191.387	45.4
191.607	10.58
191.826	51.54
192.045	16.73
192.265	39.25
192.484	67.92
192.704	59.73
192.923	57.68
193.142	67.92
193.362	57.68
193.581	-3.75
193.8	-16.04
194.02	37.2
194.239	6.49
194.458	8.53
194.678	-5.8
194.897	65.88
195.116	123.22
195.335	29.01
195.555	18.77
195.774	35.16
195.993	74.07
196.212	55.64
196.432	57.68
196.651	-16.04
196.87	74.07
197.089	88.4
197.308	67.92
197.528	37.2
197.747	84.31
197.966	61.78
198.185	61.78
198.404	-32.43
198.623	65.88
198.842	4.44
199.062	24.92
199.281	41.3
199.5	26.96
199.719	0.34
199.938	33.11
200.157	94.55
200.376	0.34
200.595	82.26
200.814	12.63
201.033	-18.09
201.252	49.49
201.471	-40.62
201.69	86.36
201.909	35.16
202.128	-18.09
202.347	106.84
202.566	-5.8
202.785	-9.9
203.004	-7.85
203.223	-16.04
203.442	12.63
203.661	-52.91
203.879	57.68
204.098	33.11
204.317	69.97
204.536	67.92
204.755	39.25
204.974	39.25
205.193	121.17
205.411	86.36
205.63	-5.8
205.849	-7.85
206.068	0.34
206.287	20.82
206.505	37.2
206.724	78.16
206.943	45.4
207.162	18.77
207.381	4.44
207.599	8.53
207.818	18.77
208.037	37.2
208.255	37.2
208.474	94.55
208.693	31.06
208.911	57.68
209.13	6.49
209.349	24.92
209.567	-40.62
209.786	98.64
210.005	49.49
210.223	49.49
210.442	-7.85
210.661	63.83
210.879	94.55
211.098	49.49
211.316	67.92
211.535	33.11
211.753	69.97
211.972	76.12
212.191	0.34
212.409	72.02
212.628	33.11
212.846	108.88
213.065	24.92
213.283	8.53
213.502	-16.04
213.72	24.92
213.938	49.49
214.157	43.35
214.375	37.2
214.594	8.53
214.812	12.63
215.031	53.59
215.249	26.96
215.467	-16.04
215.686	26.96
215.904	67.92
216.122	57.68
216.341	74.07
216.559	45.4
216.778	41.3
216.996	104.79
217.214	-18.09
217.432	72.02
217.651	41.3
217.869	43.35
218.087	-48.81
218.306	35.16
218.524	14.68
218.742	24.92
218.96	110.93
219.179	82.26
219.397	-36.52
219.615	90.45
219.833	12.63
220.051	-28.33
220.27	53.59
220.488	119.12
220.706	61.78
220.924	53.59
221.142	8.53
221.36	6.49
221.578	59.73
221.796	2.39
222.015	8.53
222.233	37.2
222.451	41.3
222.669	33.11
222.887	82.26
223.105	-13.99
223.323	-3.75
223.541	90.45
223.759	4.44
223.977	94.55
224.195	29.01
224.413	16.73
224.631	29.01
224.849	-52.91
225.067	69.97
225.285	55.64
225.503	-11.95
225.721	51.54
225.939	49.49
226.157	92.5
226.375	115.03
226.592	41.3
226.81	24.92
227.028	55.64
227.246	82.26
227.464	-46.76
227.682	37.2
227.9	33.11
228.117	29.01
228.335	-16.04
228.553	49.49
228.771	8.53
228.989	94.55
229.206	0.34
229.424	59.73
229.642	-34.47
229.86	16.73
230.077	29.01
230.295	106.84
230.513	-42.67
230.731	31.06
230.948	49.49
231.166	16.73
231.384	18.77
231.601	33.11
231.819	8.53
232.037	82.26
232.254	51.54
232.472	37.2
232.689	-13.99
232.907	0.34
233.125	16.73
233.342	51.54
233.56	49.49
233.777	49.49
233.995	31.06
234.213	10.58
234.43	24.92
234.648	78.16
234.865	4.44
235.083	102.74
235.3	115.03
235.518	78.16
235.735	22.87
235.953	14.68
236.17	16.73
236.388	123.22
236.605	67.92
236.822	57.68
237.04	57.68
237.257	-16.04
237.475	12.63
237.692	151.89
237.909	26.96
238.127	123.22
238.344	16.73
238.562	45.4
238.779	2.39
238.996	57.68
239.214	-69.29
239.431	76.12
239.648	-13.99
239.865	51.54
240.083	96.6
240.3	4.44
240.517	-16.04
240.735	51.54
240.952	43.35
241.169	18.77
241.386	57.68
241.603	65.88
241.821	-18.09
242.038	-3.75
242.255	88.4
242.472	72.02
242.689	-36.52
242.907	41.3
243.124	59.73
243.341	12.63
243.558	78.16
243.775	39.25
243.992	-5.8
244.209	8.53
244.426	14.68
244.643	88.4
244.86	18.77
245.078	74.07
245.295	-52.91
245.512	26.96
245.729	4.44
245.946	18.77
246.163	24.92
246.38	53.59
246.597	55.64
246.814	16.73
247.031	90.45
247.248	43.35
247.464	-13.99
247.681	59.73
247.898	20.82
248.115	31.06
248.332	-38.57
248.549	123.22
248.766	31.06
248.983	65.88
249.2	41.3
249.417	57.68
249.633	-26.28
249.85	26.96
250.067	74.07
250.284	59.73
250.501	24.92
250.717	82.26
250.934	76.12
251.151	41.3
251.368	24.92
251.585	0.34
251.801	8.53
252.018	24.92
252.235	12.63
252.451	72.02
252.668	65.88
252.885	16.73
253.102	51.54
253.318	51.54
253.535	78.16
253.752	-3.75
253.968	26.96
254.185	-24.23
254.401	74.07
254.618	-30.38
254.835	-13.99
255.051	69.97
255.268	16.73
255.484	-5.8
255.701	26.96
255.917	18.77
256.134	33.11
256.351	102.74
256.567	31.06
256.784	-5.8
257	100.69
257.217	41.3
257.433	86.36
257.65	-18.09
257.866	33.11
258.082	57.68
258.299	41.3
258.515	26.96
258.732	41.3
258.948	78.16
259.165	37.2
259.381	59.73
259.597	0.34
259.814	59.73
260.03	33.11
260.246	4.44
260.463	12.63
260.679	14.68
260.895	-3.75
261.112	74.07
261.328	61.78
261.544	69.97
261.761	94.55
261.977	65.88
262.193	74.07
262.409	33.11
262.626	59.73
262.842	31.06
263.058	33.11
263.274	82.26
263.49	35.16
263.707	-18.09
263.923	33.11
264.139	69.97
264.355	-1.71
264.571	10.58
264.787	94.55
265.004	53.59
265.22	20.82
265.436	10.58
265.652	8.53
265.868	78.16
266.084	33.11
266.3	84.31
266.516	67.92
266.732	33.11
266.948	53.59
267.164	37.2
267.38	24.92
267.596	63.83
267.812	67.92
268.028	84.31
268.244	18.77
268.46	14.68
268.676	-75.43
268.892	20.82
269.108	35.16
269.324	49.49
269.54	-13.99
269.756	39.25
269.972	6.49
270.188	10.58
270.403	-28.33
270.619	22.87
270.835	53.59
271.051	43.35
271.267	84.31
271.483	8.53
271.698	-7.85
271.914	106.84
272.13	2.39
272.346	94.55
272.562	37.2
272.777	84.31
272.993	51.54
273.209	74.07
273.425	41.3
273.64	133.46
273.856	72.02
274.072	-13.99
274.287	65.88
274.503	4.44
274.719	67.92
274.934	90.45
275.15	-61.1
275.366	106.84
275.581	63.83
275.797	43.35
276.012	2.39
276.228	84.31
276.444	-16.04
276.659	61.78
276.875	-11.95
277.09	33.11
277.306	2.39
277.521	115.03
277.737	90.45
277.952	76.12
278.168	31.06
278.383	4.44
278.599	92.5
278.814	18.77
279.03	-38.57
279.245	59.73
279.461	-11.95
279.676	29.01
279.892	43.35
280.107	74.07
280.322	112.98
280.538	8.53
280.753	14.68
280.969	82.26
281.184	65.88
281.399	57.68
281.615	92.5
281.83	-7.85
282.045	18.77
282.26	-3.75
282.476	51.54
282.691	-13.99
282.906	53.59
283.122	67.92
283.337	51.54
283.552	16.73
283.767	24.92
283.983	53.59
284.198	69.97
284.413	84.31
284.628	74.07
284.843	20.82
285.058	4.44
285.274	41.3
285.489	-18.09
285.704	22.87
285.919	14.68
286.134	127.32
286.349	164.18
286.564	88.4
286.779	69.97
286.995	59.73
287.21	16.73
287.425	61.78
287.64	-5.8
287.855	55.64
288.07	31.06
288.285	35.16
288.5	4.44
288.715	98.64
288.93	14.68
289.145	-32.43
289.36	65.88
289.575	12.63
289.79	45.4
290.004	92.5
290.219	74.07
290.434	-7.85
290.649	106.84
290.864	10.58
291.079	16.73
291.294	82.26
291.509	10.58
291.724	90.45
291.938	86.36
292.153	69.97
292.368	29.01
292.583	65.88
292.798	65.88
293.012	65.88
293.227	-3.75
293.442	51.54
293.657	43.35
293.871	47.44
294.086	-11.95
294.301	106.84
294.516	43.35
294.73	86.36
294.945	4.44
295.16	2.39
295.374	84.31
295.589	94.55
295.804	31.06
296.018	10.58
296.233	45.4
296.447	47.44
296.662	4.44
296.877	51.54
297.091	26.96
297.306	29.01
297.52	-11.95
297.735	41.3
297.949	-5.8
298.164	63.83
298.378	49.49
298.593	4.44
298.807	33.11
299.022	86.36
299.236	106.84
299.451	22.87
299.665	43.35
299.88	-16.04
300.094	26.96
300.309	20.82
300.523	18.77
300.737	102.74
300.952	51.54
301.166	112.98
301.381	-61.1
301.595	88.4
301.809	18.77
302.024	2.39
302.238	-11.95
302.452	53.59
302.667	96.6
302.881	57.68
303.095	-1.71
303.309	20.82
303.524	63.83
303.738	-46.76
303.952	69.97
304.166	4.44
304.381	-11.95
304.595	90.45
304.809	14.68
305.023	-1.71
305.237	67.92
305.452	37.2
305.666	-5.8
305.88	45.4
306.094	-38.57
306.308	57.68
306.522	26.96
306.736	59.73
306.95	39.25
307.164	-7.85
307.379	47.44
307.593	119.12
307.807	33.11
308.021	-22.19
308.235	10.58
308.449	47.44
308.663	37.2
308.877	51.54
309.091	20.82
309.305	45.4
309.519	31.06
309.733	115.03
309.947	78.16
310.161	31.06
310.374	106.84
310.588	26.96
310.802	45.4
311.016	0.34
311.23	90.45
311.444	0.34
311.658	-5.8
311.872	100.69
312.085	6.49
312.299	16.73
312.513	20.82
312.727	-16.04
312.941	94.55
313.154	74.07
313.368	76.12
313.582	125.27
313.796	74.07
314.009	6.49
314.223	76.12
314.437	41.3
314.651	20.82
314.864	59.73
315.078	82.26
315.292	49.49
315.505	41.3
315.719	57.68
315.933	33.11
316.146	100.69
316.36	4.44
316.573	33.11
316.787	41.3
317.001	29.01
317.214	59.73
317.428	53.59
317.641	57.68
317.855	90.45
318.068	98.64
318.282	82.26
318.495	51.54
318.709	41.3
318.922	-22.19
319.136	55.64
319.349	41.3
319.563	78.16
319.776	41.3
319.99	43.35
320.203	65.88
320.417	8.53
320.63	39.25
320.843	108.88
321.057	20.82
321.27	16.73
321.483	37.2
321.697	-5.8
321.91	92.5
322.124	57.68
322.337	-38.57
322.55	41.3
322.763	49.49
322.977	76.12
323.19	26.96
323.403	59.73
323.617	72.02
323.83	69.97
324.043	39.25
324.256	115.03
324.469	43.35
324.683	33.11
324.896	92.5
325.109	69.97
325.322	24.92
325.535	-20.14
325.748	-26.28
325.962	39.25
326.175	10.58
326.388	29.01
326.601	90.45
326.814	74.07
327.027	47.44
327.24	55.64
327.453	49.49
327.666	29.01
327.879	49.49
328.092	4.44
328.305	10.58
328.518	61.78
328.731	-38.57
328.944	65.88
329.157	35.16
329.37	43.35
329.583	74.07
329.796	49.49
330.009	43.35
330.222	-1.71
330.435	86.36
330.648	98.64
330.861	26.96
331.073	108.88
331.286	16.73
331.499	18.77
331.712	20.82
331.925	29.01
332.138	31.06
332.35	82.26
332.563	6.49
332.776	20.82
332.989	10.58
333.202	49.49
333.414	43.35
333.627	80.21
333.84	24.92
334.053	53.59
334.265	4.44
334.478	84.31
334.691	59.73
334.903	45.4
335.116	65.88
335.329	115.03
335.541	51.54
335.754	102.74
335.966	-28.33
336.179	90.45
336.392	41.3
336.604	41.3
336.817	-1.71
337.029	78.16
337.242	12.63
337.454	102.74
337.667	45.4
337.88	78.16
338.092	76.12
338.305	90.45
338.517	24.92
338.729	-7.85
338.942	-22.19
339.154	88.4
339.367	98.64
339.579	-57
339.792	78.16
340.004	57.68
340.217	6.49
340.429	2.39
340.641	22.87
340.854	57.68
341.066	84.31
341.278	31.06
341.491	86.36
341.703	115.03
341.915	-5.8
342.128	84.31
342.34	49.49
342.552	20.82
342.764	8.53
342.977	29.01
343.189	112.98
343.401	63.83
343.613	0.34
343.826	76.12
344.038	41.3
344.25	43.35
344.462	41.3
344.674	100.69
344.886	121.17
345.099	76.12
345.311	65.88
345.523	61.78
345.735	76.12
345.947	86.36
346.159	16.73
346.371	80.21
346.583	49.49
346.795	41.3
347.007	82.26
347.219	78.16
347.431	65.88
347.643	100.69
347.855	51.54
348.067	155.99
348.279	22.87
348.491	100.69
348.703	80.21
348.915	57.68
349.127	-28.33
349.339	45.4
349.551	90.45
349.763	76.12
349.975	26.96
350.187	-50.86
350.399	74.07
350.61	59.73
350.822	24.92
351.034	-3.75
351.246	106.84
351.458	29.01
351.669	24.92
351.881	39.25
352.093	12.63
352.305	49.49
352.517	72.02
352.728	14.68
352.94	22.87
353.152	96.6
353.363	4.44
353.575	78.16
353.787	86.36
353.999	29.01
354.21	98.64
354.422	41.3
354.633	61.78
354.845	53.59
355.057	51.54
355.268	67.92
355.48	82.26
355.692	-22.19
355.903	57.68
356.115	63.83
356.326	-46.76
356.538	98.64
356.749	8.53
356.961	51.54
357.172	24.92
357.384	-20.14
357.595	121.17
357.807	74.07
358.018	104.79
358.23	108.88
358.441	80.21
358.653	-65.19
358.864	65.88
359.075	41.3
359.287	43.35
359.498	86.36
359.709	47.44
359.921	86.36
360.132	121.17
360.344	78.16
360.555	37.2
360.766	108.88
360.977	41.3
361.189	35.16
361.4	10.58
361.611	45.4
361.823	78.16
362.034	57.68
362.245	26.96
362.456	108.88
362.667	57.68
362.879	6.49
363.09	-20.14
363.301	53.59
363.512	59.73
363.723	94.55
363.935	37.2
364.146	33.11
364.357	90.45
364.568	72.02
364.779	41.3
364.99	47.44
365.201	29.01
365.412	14.68
365.623	51.54
365.834	31.06
366.045	2.39
366.256	-36.52
366.467	8.53
366.678	57.68
366.889	100.69
367.1	47.44
367.311	76.12
367.522	57.68
367.733	67.92
367.944	90.45
368.155	31.06
368.366	110.93
368.577	8.53
368.788	22.87
368.999	63.83
369.209	131.41
369.42	59.73
369.631	29.01
369.842	43.35
370.053	39.25
370.264	33.11
370.474	51.54
370.685	8.53
370.896	59.73
371.107	110.93
371.317	65.88
371.528	82.26
371.739	53.59
371.95	26.96
372.16	43.35
372.371	37.2
372.582	108.88
372.792	45.4
373.003	112.98
373.214	35.16
373.424	8.53
373.635	2.39
373.846	141.65
374.056	55.64
374.267	155.99
374.477	49.49
374.688	98.64
374.898	82.26
375.109	-22.19
375.319	-32.43
375.53	108.88
375.74	57.68
375.951	108.88
376.161	69.97
376.372	110.93
376.582	69.97
376.793	18.77
377.003	43.35
377.214	94.55
377.424	-11.95
377.635	106.84
377.845	94.55
378.055	74.07
378.266	35.16
378.476	72.02
378.686	69.97
378.897	59.73
379.107	82.26
379.317	35.16
379.528	49.49
379.738	84.31
379.948	-38.57
380.158	94.55
380.369	22.87
380.579	39.25
380.789	117.08
380.999	20.82
381.21	76.12
381.42	74.07
381.63	84.31
381.84	8.53
382.05	92.5
382.261	47.44
382.471	45.4
382.681	84.31
382.891	74.07
383.101	12.63
383.311	14.68
383.521	65.88
383.731	63.83
383.941	147.8
384.151	72.02
384.361	153.94
384.571	143.7
384.781	74.07
384.991	22.87
385.201	20.82
385.411	123.22
385.621	43.35
385.831	67.92
386.041	41.3
386.251	16.73
386.461	90.45
386.671	86.36
386.881	65.88
387.091	65.88
387.301	67.92
387.511	6.49
387.72	151.89
387.93	135.51
388.14	22.87
388.35	22.87
388.56	37.2
388.769	33.11
388.979	39.25
389.189	24.92
389.399	135.51
389.609	106.84
389.818	33.11
390.028	104.79
390.238	100.69
390.447	86.36
390.657	86.36
390.867	63.83
391.076	51.54
391.286	41.3
391.496	78.16
391.705	72.02
391.915	104.79
392.125	6.49
392.334	76.12
392.544	78.16
392.753	53.59
392.963	67.92
393.172	63.83
393.382	90.45
393.591	98.64
393.801	117.08
394.01	110.93
394.22	145.75
394.429	104.79
394.639	69.97
394.848	106.84
395.058	123.22
395.267	100.69
395.477	141.65
395.686	149.84
395.895	129.36
396.105	104.79
396.314	45.4
396.524	94.55
396.733	43.35
396.942	125.27
397.152	108.88
397.361	94.55
397.57	65.88
397.78	119.12
397.989	-11.95
398.198	121.17
398.407	86.36
398.617	125.27
398.826	106.84
399.035	141.65
399.244	59.73
399.453	115.03
399.663	72.02
399.872	155.99
400.081	98.64
400.29	127.32
400.499	102.74
400.708	39.25
400.917	143.7
401.127	45.4
401.336	106.84
401.545	137.56
401.754	102.74
401.963	145.75
402.172	139.6
402.381	67.92
402.59	125.27
402.799	33.11
403.008	135.51
403.217	86.36
403.426	186.71
403.635	133.46
403.844	174.42
404.053	201.04
404.262	125.27
404.471	98.64
404.68	153.94
404.888	149.84
405.097	141.65
405.306	149.84
405.515	213.33
405.724	141.65
405.933	186.71
406.142	137.56
406.35	192.85
406.559	149.84
406.768	139.6
406.977	158.03
407.185	143.7
407.394	186.71
407.603	209.23
407.812	309.58
408.02	270.67
408.229	215.38
408.438	196.95
408.646	223.57
408.855	280.91
409.064	201.04
409.272	270.67
409.481	309.58
409.69	250.19
409.898	389.46
410.107	268.63
410.315	297.3
410.524	246.1
410.733	299.34
410.941	338.26
411.15	325.97
411.358	379.22
411.567	340.3
411.775	379.22
411.984	420.17
412.192	436.56
412.401	428.37
412.609	446.8
412.818	491.85
413.026	473.42
413.234	405.84
413.443	563.53
413.651	483.66
413.86	504.14
414.068	631.12
414.276	530.77
414.485	622.92
414.693	598.35
414.901	657.74
415.11	768.33
415.318	643.4
415.526	698.7
415.734	715.08
415.943	700.75
416.151	725.32
416.359	827.72
416.567	846.15
416.776	909.64
416.984	913.74
417.192	889.16
417.4	911.69
417.608	962.89
417.817	915.78
418.025	1016.13
418.233	1116.48
418.441	1022.28
418.649	1102.15
418.857	1155.4
419.065	1245.51
419.273	1220.93
419.481	1196.36
419.689	1395.01
419.897	1417.54
420.105	1511.74
420.313	1483.07
420.521	1544.51
420.729	1483.07
420.937	1671.48
421.145	1720.64
421.353	1814.84
421.561	1743.16
421.769	1876.28
421.977	1907
422.185	1831.23
422.393	2113.85
422.601	2029.88
422.809	2148.66
423.017	2138.42
423.224	2206
423.432	2273.59
423.64	2345.27
423.848	2564.4
424.056	2347.31
424.263	2572.59
424.471	2683.18
424.679	2586.93
424.887	2857.26
425.094	2859.31
425.302	2953.51
425.51	3047.72
425.718	3105.06
425.925	3115.3
426.133	3268.9
426.341	3465.5
426.548	3621.15
426.756	3625.25
426.964	3703.07
427.171	3807.52
427.379	3961.11
427.586	4026.65
427.794	4161.81
428.001	4362.51
428.209	4661.52
428.417	4360.47
428.624	4872.46
428.832	4753.68
429.039	4628.75
429.247	4749.58
429.454	5288.2
429.662	5497.09
429.869	5175.56
430.076	5630.21
430.284	5382.4
430.491	5628.16
430.699	6000.89
430.906	6000.89
431.114	6052.09
431.321	6297.85
431.528	6367.48
431.736	6719.73
431.943	6947.05
432.15	6973.67
432.358	6967.53
432.565	7282.92
432.772	7266.53
432.979	7616.74
433.187	7823.58
433.394	7901.4
433.601	8456.4
433.808	8368.34
434.016	8265.94
434.223	8696.02
434.43	9070.79
434.637	8972.49
434.844	9605.31
435.052	9806.02
435.259	9777.34
435.466	9754.82
435.673	9609.41
435.88	10258.62
436.087	10930.35
436.294	11049.13
436.501	10905.77
436.708	10893.49
436.915	11069.61
437.122	12013.73
437.329	11813.03
437.537	12275.87
437.743	12361.88
437.95	12118.17
438.157	12902.54
438.364	13269.13
438.571	13013.13
438.778	13328.52
438.985	14415.99
439.192	13926.53
439.399	14338.17
439.606	13994.11
439.813	14854.26
440.02	15710.31
440.227	15411.31
440.433	15313
440.64	16025.7
440.847	15657.06
441.054	16281.69
441.261	17141.84
441.467	16990.29
441.674	17469.51
441.881	17985.6
442.088	17852.48
442.294	17711.18
442.501	18139.2
442.708	18542.65
442.914	19302.45
443.121	19990.56
443.328	19654.7
443.534	20865.05
443.741	20631.58
443.948	20017.19
444.154	21506.06
444.361	21321.74
444.568	21465.1
444.774	21442.57
444.981	21733.39
445.187	22282.24
445.394	23279.6
445.6	23027.7
445.807	25528.27
446.013	24172.52
446.22	24518.62
446.426	25671.63
446.633	25702.35
446.839	26722.24
447.046	25407.44
447.252	26865.6
447.459	26939.32
447.665	27103.16
447.871	28280.74
448.078	29296.53
448.284	28051.37
448.491	28624.8
448.697	29794.19
448.903	30357.38
449.11	30236.55
449.316	29685.65
449.522	30480.26
449.728	31145.85
449.935	31317.88
450.141	31598.45
450.347	31932.27
450.553	30941.05
450.76	31330.17
450.966	32448.36
451.172	32137.07
451.378	32690.02
451.584	32325.48
451.791	33142.62
451.997	33077.08
452.203	33029.98
452.409	33541.97
452.615	33419.1
452.821	31938.41
453.027	31848.3
453.233	33548.12
453.44	32194.41
453.646	32419.69
453.852	32612.2
454.058	33374.04
454.264	32423.78
454.47	32886.62
454.676	31715.19
454.882	33359.7
455.088	29882.25
455.294	30814.08
455.5	31178.62
455.705	31381.37
455.911	29974.41
456.117	30056.33
456.323	29206.42
456.529	28010.41
456.735	28669.86
456.941	28295.08
457.147	27746.22
457.352	26965.95
457.558	26689.47
457.764	26838.97
457.97	25853.9
458.176	25477.07
458.381	25645.01
458.587	24012.77
458.793	24405.98
458.999	23195.64
459.204	24764.38
459.41	23734.25
459.616	22337.54
459.821	22251.52
460.027	22276.1
460.233	21919.75
460.438	20973.59
460.644	21071.89
460.85	20258.85
461.055	20025.38
461.261	19783.72
461.466	18110.53
461.672	17786.95
461.878	18837.56
462.083	17895.49
462.289	17158.22
462.494	17393.74
462.7	16529.5
462.905	16357.47
463.111	16699.48
463.316	16762.97
463.522	16453.72
463.727	16269.41
463.932	16324.7
464.138	16298.08
464.343	16128.1
464.549	15728.74
464.754	16259.17
464.959	16001.12
465.165	15966.31
465.37	15339.63
465.575	14846.07
465.781	15667.3
465.986	15650.92
466.191	14944.37
466.397	14686.33
466.602	13891.71
466.807	14592.12
467.012	14489.72
467.218	14571.64
467.423	14213.24
467.628	14401.66
467.833	15048.82
468.038	14475.38
468.244	14059.65
