Data from USB4F104151__87__13-54-27-730.txt Node

Date: Thu Mar 13 13:54:27 EDT 2025
User: louis
Spectrometer: USB4F10415
Trigger mode: 4
Integration Time (sec): 1.000000E-2
Scans to average: 1
Electric dark correction enabled: true
Nonlinearity correction enabled: false
Boxcar width: 0
XAxis mode: Wavelengths
Number of Pixels in Spectrum: 3648
>>>>>Begin Spectral Data<<<<<
178.204	-37.38
178.424	-37.38
178.644	-37.38
178.864	32.26
179.084	-10.75
179.304	-23.04
179.524	-29.18
179.744	-23.04
179.964	17.92
180.184	-55.81
180.404	34.3
180.624	-98.81
180.844	26.11
181.064	13.82
181.283	105.98
181.503	26.11
181.723	5.63
181.943	-35.33
182.163	75.26
182.383	32.26
182.602	-23.04
182.822	7.68
183.042	110.08
183.262	-18.94
183.482	28.16
183.701	5.63
183.921	-0.51
184.141	28.16
184.361	65.02
184.58	-31.23
184.8	-0.51
185.02	36.35
185.239	42.5
185.459	50.69
185.679	-23.04
185.898	-14.85
186.118	19.97
186.338	-12.8
186.557	-6.66
186.777	71.17
186.997	36.35
187.216	-18.94
187.436	69.12
187.655	-4.61
187.875	50.69
188.095	-6.66
188.314	87.55
188.534	19.97
188.753	30.21
188.973	-37.38
189.192	71.17
189.412	-23.04
189.631	50.69
189.851	26.11
190.07	71.17
190.29	-2.56
190.509	-10.75
190.729	-2.56
190.948	-0.51
191.168	26.11
191.387	17.92
191.607	-20.99
191.826	97.79
192.045	54.78
192.265	15.87
192.484	36.35
192.704	71.17
192.923	-29.18
193.142	83.45
193.362	93.69
193.581	69.12
193.8	44.54
194.02	-18.94
194.239	-109.05
194.458	65.02
194.678	52.74
194.897	11.78
195.116	60.93
195.335	-0.51
195.555	65.02
195.774	-8.7
195.993	-8.7
196.212	15.87
196.432	34.3
196.651	77.31
196.87	13.82
197.089	-16.9
197.308	13.82
197.528	42.5
197.747	30.21
197.966	71.17
198.185	73.21
198.404	38.4
198.623	-10.75
198.842	42.5
199.062	79.36
199.281	26.11
199.5	15.87
199.719	60.93
199.938	11.78
200.157	40.45
200.376	11.78
200.595	-33.28
200.814	89.6
201.033	71.17
201.252	40.45
201.471	-14.85
201.69	42.5
201.909	93.69
202.128	26.11
202.347	-4.61
202.566	3.58
202.785	46.59
203.004	17.92
203.223	62.98
203.442	5.63
203.661	19.97
203.879	11.78
204.098	91.65
204.317	32.26
204.536	15.87
204.755	54.78
204.974	116.22
205.193	28.16
205.411	91.65
205.63	65.02
205.849	-4.61
206.068	11.78
206.287	15.87
206.505	52.74
206.724	-8.7
206.943	-0.51
207.162	-8.7
207.381	22.02
207.599	101.89
207.818	62.98
208.037	46.59
208.255	17.92
208.474	110.08
208.693	-29.18
208.911	32.26
209.13	30.21
209.349	28.16
209.567	15.87
209.786	11.78
210.005	-18.94
210.223	73.21
210.442	-25.09
210.661	19.97
210.879	3.58
211.098	38.4
211.316	9.73
211.535	36.35
211.753	22.02
211.972	56.83
212.191	-0.51
212.409	-31.23
212.628	-8.7
212.846	58.88
213.065	-23.04
213.283	38.4
213.502	62.98
213.72	22.02
213.938	73.21
214.157	46.59
214.375	73.21
214.594	15.87
214.812	-74.24
215.031	30.21
215.249	-18.94
215.467	7.68
215.686	15.87
215.904	95.74
216.122	-8.7
216.341	105.98
216.559	54.78
216.778	44.54
216.996	58.88
217.214	32.26
217.432	52.74
217.651	50.69
217.869	-2.56
218.087	-12.8
218.306	15.87
218.524	7.68
218.742	42.5
218.96	75.26
219.179	32.26
219.397	26.11
219.615	-20.99
219.833	58.88
220.051	5.63
220.27	40.45
220.488	69.12
220.706	-14.85
220.924	1.54
221.142	5.63
221.36	15.87
221.578	-12.8
221.796	36.35
222.015	40.45
222.233	7.68
222.451	77.31
222.669	62.98
222.887	5.63
223.105	93.69
223.323	77.31
223.541	38.4
223.759	97.79
223.977	-55.81
224.195	89.6
224.413	73.21
224.631	58.88
224.849	9.73
225.067	75.26
225.285	22.02
225.503	71.17
225.721	-18.94
225.939	-2.56
226.157	15.87
226.375	89.6
226.592	-6.66
226.81	-0.51
227.028	-12.8
227.246	22.02
227.464	30.21
227.682	83.45
227.9	7.68
228.117	24.06
228.335	-25.09
228.553	34.3
228.771	-37.38
228.989	40.45
229.206	99.84
229.424	13.82
229.642	71.17
229.86	-25.09
230.077	24.06
230.295	26.11
230.513	67.07
230.731	69.12
230.948	-2.56
231.166	13.82
231.384	56.83
231.601	54.78
231.819	-80.38
232.037	11.78
232.254	-0.51
232.472	22.02
232.689	19.97
232.907	5.63
233.125	81.41
233.342	108.03
233.56	-6.66
233.777	19.97
233.995	116.22
234.213	44.54
234.43	-39.42
234.648	-12.8
234.865	7.68
235.083	13.82
235.3	15.87
235.518	28.16
235.735	81.41
235.953	65.02
236.17	30.21
236.388	17.92
236.605	62.98
236.822	132.61
237.04	83.45
237.257	-29.18
237.475	42.5
237.692	108.03
237.909	69.12
238.127	32.26
238.344	24.06
238.562	-12.8
238.779	77.31
238.996	-57.86
239.214	-8.7
239.431	3.58
239.648	48.64
239.865	-16.9
240.083	3.58
240.3	71.17
240.517	-0.51
240.735	-10.75
240.952	-0.51
241.169	-2.56
241.386	7.68
241.603	58.88
241.821	103.93
242.038	9.73
242.255	42.5
242.472	42.5
242.689	-0.51
242.907	73.21
243.124	-23.04
243.341	34.3
243.558	-0.51
243.775	19.97
243.992	-10.75
244.209	73.21
244.426	46.59
244.643	40.45
244.86	30.21
245.078	56.83
245.295	81.41
245.512	24.06
245.729	28.16
245.946	24.06
246.163	-47.62
246.38	69.12
246.597	7.68
246.814	65.02
247.031	-41.47
247.248	48.64
247.464	-6.66
247.681	62.98
247.898	36.35
248.115	101.89
248.332	3.58
248.549	56.83
248.766	32.26
248.983	97.79
249.2	81.41
249.417	13.82
249.633	44.54
249.85	46.59
250.067	38.4
250.284	24.06
250.501	50.69
250.717	-8.7
250.934	54.78
251.151	85.5
251.368	30.21
251.585	48.64
251.801	17.92
252.018	42.5
252.235	62.98
252.451	-14.85
252.668	-10.75
252.885	36.35
253.102	5.63
253.318	-0.51
253.535	42.5
253.752	44.54
253.968	-12.8
254.185	44.54
254.401	34.3
254.618	71.17
254.835	9.73
255.051	22.02
255.268	-10.75
255.484	77.31
255.701	42.5
255.917	40.45
256.134	-0.51
256.351	19.97
256.567	42.5
256.784	30.21
257	36.35
257.217	24.06
257.433	-25.09
257.65	5.63
257.866	44.54
258.082	5.63
258.299	44.54
258.515	30.21
258.732	-16.9
258.948	48.64
259.165	105.98
259.381	26.11
259.597	52.74
259.814	30.21
260.03	32.26
260.246	75.26
260.463	15.87
260.679	30.21
260.895	36.35
261.112	24.06
261.328	46.59
261.544	-0.51
261.761	36.35
261.977	-4.61
262.193	1.54
262.409	11.78
262.626	73.21
262.842	91.65
263.058	22.02
263.274	60.93
263.49	28.16
263.707	-0.51
263.923	48.64
264.139	69.12
264.355	-20.99
264.571	67.07
264.787	-12.8
265.004	26.11
265.22	30.21
265.436	75.26
265.652	32.26
265.868	38.4
266.084	54.78
266.3	3.58
266.516	9.73
266.732	24.06
266.948	13.82
267.164	91.65
267.38	-8.7
267.596	-16.9
267.812	3.58
268.028	56.83
268.244	7.68
268.46	24.06
268.676	22.02
268.892	-27.14
269.108	19.97
269.324	38.4
269.54	71.17
269.756	48.64
269.972	36.35
270.188	50.69
270.403	83.45
270.619	42.5
270.835	-8.7
271.051	-12.8
271.267	15.87
271.483	32.26
271.698	11.78
271.914	79.36
272.13	40.45
272.346	48.64
272.562	28.16
272.777	-6.66
272.993	85.5
273.209	28.16
273.425	38.4
273.64	40.45
273.856	81.41
274.072	-82.43
274.287	40.45
274.503	-12.8
274.719	-4.61
274.934	-12.8
275.15	-27.14
275.366	79.36
275.581	36.35
275.797	19.97
276.012	40.45
276.228	91.65
276.444	3.58
276.659	7.68
276.875	-29.18
277.09	30.21
277.306	-37.38
277.521	-14.85
277.737	-68.09
277.952	17.92
278.168	1.54
278.383	22.02
278.599	62.98
278.814	-0.51
279.03	58.88
279.245	67.07
279.461	-8.7
279.676	50.69
279.892	-29.18
280.107	24.06
280.322	17.92
280.538	30.21
280.753	-8.7
280.969	-16.9
281.184	22.02
281.399	46.59
281.615	-16.9
281.83	5.63
282.045	26.11
282.26	36.35
282.476	60.93
282.691	-20.99
282.906	122.37
283.122	-0.51
283.337	-4.61
283.552	22.02
283.767	-2.56
283.983	91.65
284.198	17.92
284.413	75.26
284.628	-4.61
284.843	52.74
285.058	-6.66
285.274	-14.85
285.489	48.64
285.704	34.3
285.919	-23.04
286.134	81.41
286.349	73.21
286.564	15.87
286.779	52.74
286.995	-72.19
287.21	19.97
287.425	87.55
287.64	-35.33
287.855	-35.33
288.07	9.73
288.285	110.08
288.5	101.89
288.715	9.73
288.93	28.16
289.145	-45.57
289.36	34.3
289.575	-2.56
289.79	5.63
290.004	15.87
290.219	75.26
290.434	71.17
290.649	22.02
290.864	15.87
291.079	22.02
291.294	48.64
291.509	-8.7
291.724	-20.99
291.938	36.35
292.153	44.54
292.368	26.11
292.583	58.88
292.798	7.68
293.012	30.21
293.227	-66.05
293.442	91.65
293.657	58.88
293.871	52.74
294.086	34.3
294.301	95.74
294.516	56.83
294.73	36.35
294.945	58.88
295.16	89.6
295.374	30.21
295.589	34.3
295.804	-10.75
296.018	81.41
296.233	17.92
296.447	81.41
296.662	19.97
296.877	52.74
297.091	81.41
297.306	-2.56
297.52	17.92
297.735	101.89
297.949	52.74
298.164	60.93
298.378	28.16
298.593	3.58
298.807	34.3
299.022	22.02
299.236	26.11
299.451	-0.51
299.665	26.11
299.88	118.27
300.094	24.06
300.309	-0.51
300.523	32.26
300.737	97.79
300.952	65.02
301.166	54.78
301.381	97.79
301.595	11.78
301.809	11.78
302.024	-10.75
302.238	50.69
302.452	40.45
302.667	30.21
302.881	-29.18
303.095	40.45
303.309	22.02
303.524	85.5
303.738	48.64
303.952	24.06
304.166	26.11
304.381	28.16
304.595	15.87
304.809	58.88
305.023	42.5
305.237	38.4
305.452	85.5
305.666	15.87
305.88	40.45
306.094	87.55
306.308	30.21
306.522	77.31
306.736	44.54
306.95	5.63
307.164	15.87
307.379	-2.56
307.593	28.16
307.807	48.64
308.021	5.63
308.235	26.11
308.449	-8.7
308.663	-31.23
308.877	85.5
309.091	-33.28
309.305	67.07
309.519	28.16
309.733	56.83
309.947	-14.85
310.161	114.17
310.374	54.78
310.588	13.82
310.802	3.58
311.016	54.78
311.23	26.11
311.444	83.45
311.658	40.45
311.872	-12.8
312.085	36.35
312.299	71.17
312.513	24.06
312.727	34.3
312.941	54.78
313.154	26.11
313.368	54.78
313.582	3.58
313.796	38.4
314.009	52.74
314.223	9.73
314.437	83.45
314.651	-33.28
314.864	79.36
315.078	7.68
315.292	-27.14
315.505	34.3
315.719	69.12
315.933	-4.61
316.146	71.17
316.36	-0.51
316.573	32.26
316.787	36.35
317.001	54.78
317.214	13.82
317.428	87.55
317.641	95.74
317.855	44.54
318.068	60.93
318.282	120.32
318.495	56.83
318.709	46.59
318.922	17.92
319.136	38.4
319.349	24.06
319.563	9.73
319.776	83.45
319.99	5.63
320.203	9.73
320.417	40.45
320.63	11.78
320.843	9.73
321.057	-8.7
321.27	65.02
321.483	19.97
321.697	54.78
321.91	3.58
322.124	19.97
322.337	56.83
322.55	11.78
322.763	69.12
322.977	9.73
323.19	28.16
323.403	118.27
323.617	24.06
323.83	46.59
324.043	22.02
324.256	79.36
324.469	11.78
324.683	128.51
324.896	7.68
325.109	62.98
325.322	26.11
325.535	58.88
325.748	-33.28
325.962	38.4
326.175	30.21
326.388	-14.85
326.601	11.78
326.814	77.31
327.027	32.26
327.24	-10.75
327.453	-8.7
327.666	-6.66
327.879	15.87
328.092	28.16
328.305	17.92
328.518	13.82
328.731	60.93
328.944	19.97
329.157	67.07
329.37	48.64
329.583	89.6
329.796	42.5
330.009	15.87
330.222	-4.61
330.435	52.74
330.648	38.4
330.861	50.69
331.073	62.98
331.286	19.97
331.499	19.97
331.712	77.31
331.925	85.5
332.138	30.21
332.35	42.5
332.563	40.45
332.776	9.73
332.989	-6.66
333.202	87.55
333.414	-10.75
333.627	54.78
333.84	50.69
334.053	48.64
334.265	-2.56
334.478	13.82
334.691	65.02
334.903	-16.9
335.116	124.41
335.329	69.12
335.541	36.35
335.754	99.84
335.966	24.06
336.179	69.12
336.392	87.55
336.604	58.88
336.817	28.16
337.029	52.74
337.242	81.41
337.454	3.58
337.667	19.97
337.88	93.69
338.092	75.26
338.305	15.87
338.517	50.69
338.729	83.45
338.942	48.64
339.154	46.59
339.367	38.4
339.579	13.82
339.792	-23.04
340.004	-14.85
340.217	65.02
340.429	79.36
340.641	7.68
340.854	44.54
341.066	58.88
341.278	58.88
341.491	75.26
341.703	26.11
341.915	-6.66
342.128	44.54
342.34	34.3
342.552	77.31
342.764	15.87
342.977	1.54
343.189	34.3
343.401	58.88
343.613	128.51
343.826	103.93
344.038	60.93
344.25	97.79
344.462	36.35
344.674	34.3
344.886	62.98
345.099	7.68
345.311	9.73
345.523	24.06
345.735	56.83
345.947	62.98
346.159	34.3
346.371	28.16
346.583	19.97
346.795	71.17
347.007	1.54
347.219	-72.19
347.431	40.45
347.643	24.06
347.855	26.11
348.067	-2.56
348.279	83.45
348.491	81.41
348.703	-14.85
348.915	44.54
349.127	7.68
349.339	-4.61
349.551	44.54
349.763	32.26
349.975	22.02
350.187	24.06
350.399	81.41
350.61	22.02
350.822	134.65
351.034	44.54
351.246	-8.7
351.458	19.97
351.669	60.93
351.881	87.55
352.093	-12.8
352.305	32.26
352.517	38.4
352.728	146.94
352.94	58.88
353.152	56.83
353.363	7.68
353.575	85.5
353.787	81.41
353.999	28.16
354.21	24.06
354.422	40.45
354.633	54.78
354.845	83.45
355.057	9.73
355.268	65.02
355.48	36.35
355.692	11.78
355.903	54.78
356.115	83.45
356.326	9.73
356.538	26.11
356.749	95.74
356.961	52.74
357.172	56.83
357.384	24.06
357.595	22.02
357.807	30.21
358.018	15.87
358.23	48.64
358.441	122.37
358.653	105.98
358.864	1.54
359.075	34.3
359.287	-35.33
359.498	130.56
359.709	11.78
359.921	42.5
360.132	110.08
360.344	79.36
360.555	-45.57
360.766	165.37
360.977	22.02
361.189	36.35
361.4	7.68
361.611	77.31
361.823	77.31
362.034	11.78
362.245	5.63
362.456	26.11
362.667	62.98
362.879	-14.85
363.09	3.58
363.301	77.31
363.512	11.78
363.723	-72.19
363.935	58.88
364.146	3.58
364.357	-0.51
364.568	28.16
364.779	58.88
364.99	73.21
365.201	-18.94
365.412	-18.94
365.623	1.54
365.834	54.78
366.045	87.55
366.256	15.87
366.467	44.54
366.678	-16.9
366.889	-18.94
367.1	91.65
367.311	101.89
367.522	110.08
367.733	22.02
367.944	122.37
368.155	126.46
368.366	-0.51
368.577	38.4
368.788	13.82
368.999	54.78
369.209	46.59
369.42	34.3
369.631	32.26
369.842	-0.51
370.053	13.82
370.264	3.58
370.474	48.64
370.685	54.78
370.896	5.63
371.107	87.55
371.317	22.02
371.528	-27.14
371.739	58.88
371.95	19.97
372.16	7.68
372.371	60.93
372.582	32.26
372.792	101.89
373.003	17.92
373.214	69.12
373.424	58.88
373.635	-14.85
373.846	42.5
374.056	73.21
374.267	48.64
374.477	28.16
374.688	32.26
374.898	11.78
375.109	-55.81
375.319	26.11
375.53	93.69
375.74	81.41
375.951	1.54
376.161	17.92
376.372	-0.51
376.582	13.82
376.793	99.84
377.003	-18.94
377.214	-0.51
377.424	52.74
377.635	36.35
377.845	24.06
378.055	110.08
378.266	9.73
378.476	65.02
378.686	34.3
378.897	97.79
379.107	69.12
379.317	46.59
379.528	28.16
379.738	56.83
379.948	48.64
380.158	91.65
380.369	87.55
380.579	1.54
380.789	-0.51
380.999	13.82
381.21	19.97
381.42	130.56
381.63	30.21
381.84	81.41
382.05	9.73
382.261	-76.29
382.471	42.5
382.681	75.26
382.891	52.74
383.101	15.87
383.311	65.02
383.521	11.78
383.731	48.64
383.941	62.98
384.151	46.59
384.361	75.26
384.571	38.4
384.781	38.4
384.991	58.88
385.201	79.36
385.411	93.69
385.621	50.69
385.831	46.59
386.041	97.79
386.251	26.11
386.461	26.11
386.671	34.3
386.881	126.46
387.091	19.97
387.301	87.55
387.511	75.26
387.72	-12.8
387.93	32.26
388.14	46.59
388.35	60.93
388.56	83.45
388.769	17.92
388.979	54.78
389.189	-0.51
389.399	34.3
389.609	-0.51
389.818	89.6
390.028	65.02
390.238	-0.51
390.447	62.98
390.657	34.3
390.867	46.59
391.076	46.59
391.286	75.26
391.496	75.26
391.705	46.59
391.915	9.73
392.125	138.75
392.334	89.6
392.544	87.55
392.753	46.59
392.963	-0.51
393.172	54.78
393.382	77.31
393.591	24.06
393.801	58.88
394.01	116.22
394.22	112.13
394.429	79.36
394.639	71.17
394.848	69.12
395.058	130.56
395.267	79.36
395.477	148.99
395.686	138.75
395.895	28.16
396.105	175.61
396.314	5.63
396.524	101.89
396.733	54.78
396.942	50.69
397.152	85.5
397.361	202.24
397.57	62.98
397.78	81.41
397.989	67.07
398.198	3.58
398.407	99.84
398.617	81.41
398.826	50.69
399.035	71.17
399.244	60.93
399.453	75.26
399.663	112.13
399.872	-4.61
400.081	50.69
400.29	89.6
400.499	81.41
400.708	62.98
400.917	83.45
401.127	114.17
401.336	79.36
401.545	171.52
401.754	116.22
401.963	118.27
402.172	97.79
402.381	93.69
402.59	52.74
402.799	83.45
403.008	83.45
403.217	116.22
403.426	103.93
403.635	140.8
403.844	85.5
404.053	89.6
404.262	40.45
404.471	120.32
404.68	95.74
404.888	95.74
405.097	77.31
405.306	208.38
405.515	128.51
405.724	151.04
405.933	114.17
406.142	130.56
406.35	79.36
406.559	130.56
406.768	192
406.977	85.5
407.185	120.32
407.394	126.46
407.603	212.48
407.812	192
408.02	196.09
408.229	181.76
408.438	153.09
408.646	202.24
408.855	142.85
409.064	202.24
409.272	232.96
409.481	261.63
409.69	296.44
409.898	196.09
410.107	237.05
410.315	204.28
410.524	204.28
410.733	286.2
410.941	224.76
411.15	302.59
411.358	265.72
411.567	347.64
411.775	251.39
411.984	368.12
412.192	339.45
412.401	310.78
412.609	308.73
412.818	441.85
413.026	388.6
413.234	376.31
413.443	364.03
413.651	329.21
413.86	421.37
414.068	409.08
414.276	507.38
414.485	462.33
414.693	495.1
414.901	509.43
415.11	503.29
415.318	525.82
415.526	579.06
415.734	583.16
415.943	550.39
416.151	611.83
416.359	720.37
416.567	632.31
416.776	769.52
416.984	747
417.192	622.07
417.4	779.76
417.608	790
417.817	787.96
418.025	744.95
418.233	767.48
418.441	876.02
418.649	900.59
418.857	947.7
419.065	939.51
419.273	892.4
419.481	976.37
419.689	1021.42
419.897	1089.01
420.105	1099.25
420.313	1140.21
420.521	1101.3
420.729	1242.61
420.937	1258.99
421.145	1240.56
421.353	1369.58
421.561	1414.63
421.769	1447.4
421.977	1517.03
422.185	1525.22
422.393	1566.18
422.601	1687.01
422.809	1666.53
423.017	1672.68
423.224	1687.01
423.432	1797.6
423.64	1758.69
423.848	1957.35
424.056	1914.34
424.263	2026.98
424.471	2069.98
424.679	2160.1
424.887	2301.4
425.094	2295.26
425.302	2321.88
425.51	2393.56
425.718	2455
425.925	2485.72
426.133	2586.07
426.341	2717.14
426.548	2878.93
426.756	2938.32
426.964	2932.18
427.171	2909.65
427.379	3108.3
427.586	3241.42
427.794	3313.1
428.001	3505.61
428.209	3673.54
428.417	3554.76
428.624	3851.72
428.832	3794.37
429.039	3747.27
429.247	3687.88
429.454	4058.56
429.662	4240.83
429.869	4091.33
430.076	4292.03
430.284	4050.37
430.491	4433.34
430.699	4683.19
430.906	4773.3
431.114	4707.77
431.321	5131.7
431.528	5178.8
431.736	5219.76
431.943	5707.18
432.15	5273.01
432.358	5549.48
432.565	5764.52
432.772	5637.55
432.979	6127.01
433.187	6116.77
433.394	6192.55
433.601	6796.7
433.808	6743.45
434.016	6659.48
434.223	6876.57
434.43	7255.44
434.637	7290.26
434.844	7536.01
435.052	7726.47
435.259	7769.48
435.466	7685.51
435.673	7722.38
435.88	8050.05
436.087	8643.96
436.294	8678.78
436.501	8402.3
436.708	8678.78
436.915	8889.72
437.122	9418.1
437.329	9301.36
437.537	9563.5
437.743	9930.09
437.95	9631.09
438.157	10186.08
438.364	10605.92
438.571	10532.19
438.778	10319.2
438.985	11597.14
439.192	11072.86
439.399	11294.04
439.606	11105.62
439.813	11793.74
440.02	12481.86
440.227	12250.44
440.433	12152.13
440.64	12606.78
440.847	12279.11
441.054	13094.2
441.261	13546.8
441.467	13544.75
441.674	13591.86
441.881	14179.62
442.088	13894.96
442.294	14028.07
442.501	14282.02
442.708	14644.51
442.914	15383.83
443.121	15828.24
443.328	15512.85
443.534	16729.34
443.741	16014.6
443.948	15830.29
444.154	17024.25
444.361	16979.2
444.568	16854.27
444.774	17128.7
444.981	17349.88
445.187	17659.12
445.394	18556.13
445.6	18500.84
445.807	19991.76
446.013	18982.11
446.22	19504.34
446.426	20419.78
446.633	20280.52
446.839	20944.06
447.046	20131.02
447.252	21525.69
447.459	21529.78
447.665	21320.89
447.871	21916.85
448.078	23375
448.284	21980.34
448.491	22637.73
448.697	23329.95
448.903	23823.51
449.11	23555.22
449.316	23526.55
449.522	24360.08
449.728	24597.64
449.935	24960.13
450.141	24583.3
450.347	25166.98
450.553	24749.19
450.76	24642.7
450.966	25844.85
451.172	25433.21
451.378	25994.36
451.584	25345.15
451.791	26158.19
451.997	26047.6
452.203	26276.98
452.409	26645.61
452.615	26389.61
452.821	25240.7
453.027	25025.67
453.233	26391.66
453.44	25119.87
453.646	25865.33
453.852	25396.35
454.058	25994.36
454.264	25371.77
454.47	25539.71
454.676	25177.22
454.882	25877.62
455.088	23841.94
455.294	24009.87
455.5	24312.97
455.705	24839.3
455.911	23667.86
456.117	23067.81
456.323	22690.98
456.529	21775.54
456.735	22680.74
456.941	22049.97
457.147	21679.29
457.352	21023.94
457.558	20968.64
457.764	20608.2
457.97	20688.07
458.176	20083.92
458.381	20214.99
458.587	18846.94
458.793	18881.76
458.999	17906.93
459.204	19408.09
459.41	18633.96
459.616	17558.77
459.821	17329.4
460.027	17382.65
460.233	17014.01
460.438	16225.54
460.644	16329.99
460.85	15768.85
461.055	15492.37
461.261	15377.69
461.466	14304.55
461.672	13882.67
461.878	14968.09
462.083	13729.07
462.289	13622.58
462.494	13638.96
462.7	12793.15
462.905	12887.36
463.111	13016.38
463.316	13040.95
463.522	12700.99
463.727	12903.74
463.932	12811.58
464.138	12612.93
464.343	12488
464.549	12434.75
464.754	12666.17
464.959	12539.2
465.165	12440.9
465.37	11818.32
465.575	11750.73
465.781	12043.59
465.986	12160.33
466.191	11871.56
466.397	11562.32
466.602	10909.02
466.807	11566.42
467.012	11281.75
467.218	11414.87
467.423	11277.65
467.628	11312.47
467.833	11605.33
468.038	11361.62
468.244	10919.26
468.449	11302.23
468.654	10937.69
468.859	10925.4
469.064	10706.27
