Data from USB4F104151__58__13-53-35-936.txt Node

Date: Thu Mar 13 13:53:35 EDT 2025
User: louis
Spectrometer: USB4F10415
Trigger mode: 4
Integration Time (sec): 1.000000E-2
Scans to average: 1
Electric dark correction enabled: true
Nonlinearity correction enabled: false
Boxcar width: 0
XAxis mode: Wavelengths
Number of Pixels in Spectrum: 3648
>>>>>Begin Spectral Data<<<<<
178.204	-57.68
178.424	-57.68
178.644	-57.68
178.864	-49.49
179.084	-8.53
179.304	-20.82
179.524	-4.44
179.744	3.75
179.964	1.71
180.184	18.09
180.404	-6.49
180.624	32.43
180.844	-0.34
181.064	11.95
181.283	-0.34
181.503	22.19
181.723	-57.68
181.943	42.67
182.163	59.05
182.383	9.9
182.602	-35.16
182.822	28.33
183.042	11.95
183.262	-43.35
183.482	3.75
183.701	-26.96
183.921	-8.53
184.141	11.95
184.361	13.99
184.58	106.15
184.8	1.71
185.02	20.14
185.239	38.57
185.459	20.14
185.679	20.14
185.898	42.67
186.118	46.76
186.338	-51.54
186.557	-6.49
186.777	1.71
186.997	42.67
187.216	-8.53
187.436	24.23
187.655	-112.98
187.875	24.23
188.095	1.71
188.314	-29.01
188.534	-12.63
188.753	-39.25
188.973	20.14
189.192	30.38
189.412	46.76
189.631	-61.78
189.851	52.91
190.07	44.71
190.29	-33.11
190.509	36.52
190.729	20.14
190.948	32.43
191.168	48.81
191.387	24.23
191.607	63.15
191.826	-4.44
192.045	-22.87
192.265	20.14
192.484	-18.77
192.704	9.9
192.923	7.85
193.142	32.43
193.362	-14.68
193.581	40.62
193.8	1.71
194.02	-20.82
194.239	11.95
194.458	40.62
194.678	-31.06
194.897	-4.44
195.116	30.38
195.335	-78.16
195.555	1.71
195.774	44.71
195.993	-45.4
196.212	26.28
196.432	-51.54
196.651	-12.63
196.87	48.81
197.089	116.39
197.308	57
197.528	18.09
197.747	22.19
197.966	59.05
198.185	-20.82
198.404	-12.63
198.623	-4.44
198.842	-29.01
199.062	30.38
199.281	-10.58
199.5	7.85
199.719	38.57
199.938	22.19
200.157	44.71
200.376	44.71
200.595	26.28
200.814	-6.49
201.033	-0.34
201.252	26.28
201.471	-35.16
201.69	48.81
201.909	-16.73
202.128	102.06
202.347	7.85
202.566	-18.77
202.785	-33.11
203.004	22.19
203.223	126.63
203.442	42.67
203.661	-10.58
203.879	-26.96
204.098	-43.35
204.317	-37.2
204.536	24.23
204.755	-37.2
204.974	1.71
205.193	11.95
205.411	26.28
205.63	40.62
205.849	-29.01
206.068	-18.77
206.287	1.71
206.505	-6.49
206.724	9.9
206.943	13.99
207.162	46.76
207.381	-4.44
207.599	18.09
207.818	48.81
208.037	5.8
208.255	50.86
208.474	69.29
208.693	11.95
208.911	-26.96
209.13	-10.58
209.349	-4.44
209.567	73.39
209.786	-45.4
210.005	3.75
210.223	-18.77
210.442	-61.78
210.661	16.04
210.879	44.71
211.098	26.28
211.316	-12.63
211.535	-18.77
211.753	9.9
211.972	71.34
212.191	22.19
212.409	-6.49
212.628	42.67
212.846	-20.82
213.065	1.71
213.283	18.09
213.502	-26.96
213.72	7.85
213.938	50.86
214.157	46.76
214.375	89.77
214.594	54.95
214.812	-18.77
215.031	-18.77
215.249	36.52
215.467	26.28
215.686	-29.01
215.904	-20.82
216.122	48.81
216.341	13.99
216.559	-8.53
216.778	20.14
216.996	-12.63
217.214	48.81
217.432	5.8
217.651	-20.82
217.869	-10.58
218.087	-24.92
218.306	11.95
218.524	-14.68
218.742	-59.73
218.96	71.34
219.179	-2.39
219.397	-10.58
219.615	-0.34
219.833	85.67
220.051	20.14
220.27	3.75
220.488	3.75
220.706	42.67
220.924	36.52
221.142	73.39
221.36	-26.96
221.578	7.85
221.796	24.23
222.015	57
222.233	-24.92
222.451	118.44
222.669	-35.16
222.887	22.19
223.105	36.52
223.323	-12.63
223.541	13.99
223.759	-31.06
223.977	20.14
224.195	61.1
224.413	54.95
224.631	26.28
224.849	40.62
225.067	81.58
225.285	-35.16
225.503	-6.49
225.721	18.09
225.939	22.19
226.157	-2.39
226.375	-33.11
226.592	-29.01
226.81	-2.39
227.028	-45.4
227.246	9.9
227.464	5.8
227.682	52.91
227.9	1.71
228.117	13.99
228.335	48.81
228.553	13.99
228.771	1.71
228.989	87.72
229.206	-22.87
229.424	97.96
229.642	9.9
229.86	67.24
230.077	28.33
230.295	67.24
230.513	3.75
230.731	-51.54
230.948	30.38
231.166	-37.2
231.384	52.91
231.601	28.33
231.819	52.91
232.037	40.62
232.254	18.09
232.472	-18.77
232.689	-2.39
232.907	48.81
233.125	40.62
233.342	7.85
233.56	-20.82
233.777	32.43
233.995	-2.39
234.213	22.19
234.43	63.15
234.648	28.33
234.865	46.76
235.083	52.91
235.3	-2.39
235.518	20.14
235.735	-4.44
235.953	63.15
236.17	32.43
236.388	54.95
236.605	91.82
236.822	30.38
237.04	40.62
237.257	30.38
237.475	-22.87
237.692	50.86
237.909	3.75
238.127	-100.69
238.344	5.8
238.562	22.19
238.779	16.04
238.996	38.57
239.214	18.09
239.431	18.09
239.648	11.95
239.865	-16.73
240.083	1.71
240.3	5.8
240.517	-26.96
240.735	36.52
240.952	42.67
241.169	52.91
241.386	-26.96
241.603	-49.49
241.821	34.47
242.038	3.75
242.255	3.75
242.472	3.75
242.689	75.43
242.907	-8.53
243.124	28.33
243.341	-26.96
243.558	13.99
243.775	48.81
243.992	22.19
244.209	22.19
244.426	-20.82
244.643	67.24
244.86	30.38
245.078	42.67
245.295	16.04
245.512	40.62
245.729	30.38
245.946	71.34
246.163	26.28
246.38	16.04
246.597	44.71
246.814	30.38
247.031	9.9
247.248	65.19
247.464	11.95
247.681	-10.58
247.898	73.39
248.115	-39.25
248.332	32.43
248.549	26.28
248.766	-4.44
248.983	26.28
249.2	-41.3
249.417	18.09
249.633	7.85
249.85	61.1
250.067	24.23
250.284	46.76
250.501	-4.44
250.717	7.85
250.934	-39.25
251.151	-10.58
251.368	18.09
251.585	54.95
251.801	32.43
252.018	-6.49
252.235	46.76
252.451	13.99
252.668	-6.49
252.885	11.95
253.102	102.06
253.318	36.52
253.535	20.14
253.752	32.43
253.968	-16.73
254.185	-4.44
254.401	50.86
254.618	-6.49
254.835	-26.96
255.051	97.96
255.268	-90.45
255.484	44.71
255.701	20.14
255.917	13.99
256.134	-33.11
256.351	79.53
256.567	5.8
256.784	73.39
257	7.85
257.217	-57.68
257.433	26.28
257.65	11.95
257.866	93.87
258.082	-10.58
258.299	38.57
258.515	3.75
258.732	-18.77
258.948	22.19
259.165	-49.49
259.381	-22.87
259.597	24.23
259.814	13.99
260.03	-0.34
260.246	16.04
260.463	-45.4
260.679	-16.73
260.895	42.67
261.112	34.47
261.328	9.9
261.544	50.86
261.761	24.23
261.977	44.71
262.193	26.28
262.409	65.19
262.626	-4.44
262.842	32.43
263.058	-18.77
263.274	57
263.49	34.47
263.707	13.99
263.923	38.57
264.139	42.67
264.355	-29.01
264.571	-37.2
264.787	54.95
265.004	28.33
265.22	42.67
265.436	-33.11
265.652	-37.2
265.868	30.38
266.084	89.77
266.3	-2.39
266.516	1.71
266.732	30.38
266.948	69.29
267.164	-12.63
267.38	36.52
267.596	20.14
267.812	11.95
268.028	38.57
268.244	16.04
268.46	-18.77
268.676	40.62
268.892	-31.06
269.108	-33.11
269.324	7.85
269.54	67.24
269.756	106.15
269.972	36.52
270.188	71.34
270.403	-22.87
270.619	-10.58
270.835	28.33
271.051	34.47
271.267	34.47
271.483	50.86
271.698	54.95
271.914	40.62
272.13	-0.34
272.346	44.71
272.562	16.04
272.777	48.81
272.993	-33.11
273.209	73.39
273.425	16.04
273.64	-22.87
273.856	-31.06
274.072	-2.39
274.287	20.14
274.503	85.67
274.719	54.95
274.934	54.95
275.15	36.52
275.366	18.09
275.581	18.09
275.797	57
276.012	-2.39
276.228	13.99
276.444	54.95
276.659	46.76
276.875	-4.44
277.09	26.28
277.306	-24.92
277.521	1.71
277.737	11.95
277.952	5.8
278.168	-0.34
278.383	-2.39
278.599	28.33
278.814	24.23
279.03	-20.82
279.245	9.9
279.461	-2.39
279.676	97.96
279.892	-14.68
280.107	-61.78
280.322	57
280.538	-14.68
280.753	-8.53
280.969	89.77
281.184	34.47
281.399	22.19
281.615	26.28
281.83	-20.82
282.045	11.95
282.26	3.75
282.476	-26.96
282.691	-2.39
282.906	16.04
283.122	73.39
283.337	-0.34
283.552	-16.73
283.767	83.63
283.983	5.8
284.198	-10.58
284.413	20.14
284.628	-29.01
284.843	1.71
285.058	36.52
285.274	-65.88
285.489	-22.87
285.704	65.19
285.919	-0.34
286.134	59.05
286.349	48.81
286.564	13.99
286.779	3.75
286.995	18.09
287.21	1.71
287.425	59.05
287.64	-0.34
287.855	63.15
288.07	7.85
288.285	-67.92
288.5	44.71
288.715	13.99
288.93	-49.49
289.145	16.04
289.36	-43.35
289.575	16.04
289.79	-4.44
290.004	11.95
290.219	44.71
290.434	1.71
290.649	61.1
290.864	30.38
291.079	81.58
291.294	13.99
291.509	48.81
291.724	13.99
291.938	-4.44
292.153	-0.34
292.368	16.04
292.583	-26.96
292.798	89.77
293.012	61.1
293.227	-35.16
293.442	40.62
293.657	67.24
293.871	44.71
294.086	-16.73
294.301	-14.68
294.516	13.99
294.73	-2.39
294.945	22.19
295.16	-20.82
295.374	-26.96
295.589	65.19
295.804	52.91
296.018	52.91
296.233	-22.87
296.447	63.15
296.662	22.19
296.877	34.47
297.091	24.23
297.306	3.75
297.52	40.62
297.735	-18.77
297.949	26.28
298.164	-4.44
298.378	36.52
298.593	3.75
298.807	75.43
299.022	34.47
299.236	9.9
299.451	1.71
299.665	-8.53
299.88	50.86
300.094	26.28
300.309	-0.34
300.523	7.85
300.737	34.47
300.952	61.1
301.166	-2.39
301.381	-12.63
301.595	52.91
301.809	-20.82
302.024	28.33
302.238	28.33
302.452	20.14
302.667	-47.44
302.881	-6.49
303.095	48.81
303.309	34.47
303.524	-0.34
303.738	-12.63
303.952	83.63
304.166	9.9
304.381	-18.77
304.595	44.71
304.809	24.23
305.023	-8.53
305.237	1.71
305.452	61.1
305.666	40.62
305.88	44.71
306.094	71.34
306.308	-12.63
306.522	20.14
306.736	-53.59
306.95	3.75
307.164	42.67
307.379	18.09
307.593	-16.73
307.807	22.19
308.021	42.67
308.235	16.04
308.449	-20.82
308.663	-61.78
308.877	44.71
309.091	75.43
309.305	-14.68
309.519	13.99
309.733	136.87
309.947	34.47
310.161	75.43
310.374	59.05
310.588	67.24
310.802	30.38
311.016	30.38
311.23	69.29
311.444	-31.06
311.658	91.82
311.872	13.99
312.085	-82.26
312.299	28.33
312.513	5.8
312.727	61.1
312.941	-10.58
313.154	-18.77
313.368	-26.96
313.582	-55.64
313.796	26.28
314.009	112.3
314.223	-10.58
314.437	65.19
314.651	-2.39
314.864	7.85
315.078	-31.06
315.292	26.28
315.505	44.71
315.719	-12.63
315.933	34.47
316.146	-24.92
316.36	-16.73
316.573	-18.77
316.787	30.38
317.001	89.77
317.214	5.8
317.428	22.19
317.641	-6.49
317.855	-63.83
318.068	-4.44
318.282	67.24
318.495	-53.59
318.709	69.29
318.922	-55.64
319.136	26.28
319.349	50.86
319.563	-0.34
319.776	-24.92
319.99	30.38
320.203	16.04
320.417	46.76
320.63	52.91
320.843	16.04
321.057	-16.73
321.27	69.29
321.483	-10.58
321.697	63.15
321.91	20.14
322.124	89.77
322.337	57
322.55	-0.34
322.763	28.33
322.977	3.75
323.19	52.91
323.403	-14.68
323.617	30.38
323.83	54.95
324.043	42.67
324.256	-37.2
324.469	38.57
324.683	-29.01
324.896	-59.73
325.109	50.86
325.322	-2.39
325.535	85.67
325.748	-10.58
325.962	54.95
326.175	73.39
326.388	7.85
326.601	34.47
326.814	-33.11
327.027	28.33
327.24	13.99
327.453	22.19
327.666	1.71
327.879	69.29
328.092	40.62
328.305	9.9
328.518	-18.77
328.731	93.87
328.944	-8.53
329.157	28.33
329.37	7.85
329.583	44.71
329.796	89.77
330.009	-22.87
330.222	22.19
330.435	30.38
330.648	-12.63
330.861	79.53
331.073	-4.44
331.286	5.8
331.499	75.43
331.712	97.96
331.925	-10.58
332.138	50.86
332.35	46.76
332.563	28.33
332.776	34.47
332.989	46.76
333.202	22.19
333.414	-2.39
333.627	13.99
333.84	65.19
334.053	18.09
334.265	-43.35
334.478	30.38
334.691	-22.87
334.903	-16.73
335.116	-6.49
335.329	-0.34
335.541	-65.88
335.754	57
335.966	85.67
336.179	63.15
336.392	-47.44
336.604	28.33
336.817	-22.87
337.029	7.85
337.242	-10.58
337.454	65.19
337.667	22.19
337.88	54.95
338.092	95.91
338.305	-8.53
338.517	-16.73
338.729	91.82
338.942	52.91
339.154	-8.53
339.367	-6.49
339.579	-37.2
339.792	40.62
340.004	65.19
340.217	9.9
340.429	36.52
340.641	24.23
340.854	-35.16
341.066	-18.77
341.278	85.67
341.491	18.09
341.703	28.33
341.915	3.75
342.128	24.23
342.34	5.8
342.552	34.47
342.764	28.33
342.977	-41.3
343.189	18.09
343.401	40.62
343.613	36.52
343.826	-8.53
344.038	-8.53
344.25	118.44
344.462	-2.39
344.674	-33.11
344.886	-2.39
345.099	18.09
345.311	13.99
345.523	38.57
345.735	20.14
345.947	18.09
346.159	-14.68
346.371	11.95
346.583	42.67
346.795	52.91
347.007	24.23
347.219	7.85
347.431	-6.49
347.643	59.05
347.855	-8.53
348.067	5.8
348.279	65.19
348.491	-24.92
348.703	-37.2
348.915	24.23
349.127	-18.77
349.339	50.86
349.551	11.95
349.763	22.19
349.975	18.09
350.187	36.52
350.399	-8.53
350.61	61.1
350.822	-14.68
351.034	48.81
351.246	44.71
351.458	3.75
351.669	65.19
351.881	97.96
352.093	48.81
352.305	42.67
352.517	73.39
352.728	59.05
352.94	40.62
353.152	28.33
353.363	46.76
353.575	-0.34
353.787	1.71
353.999	16.04
354.21	44.71
354.422	9.9
354.633	-8.53
354.845	20.14
355.057	100.01
355.268	59.05
355.48	85.67
355.692	65.19
355.903	7.85
356.115	69.29
356.326	36.52
356.538	106.15
356.749	-8.53
356.961	24.23
357.172	106.15
357.384	20.14
357.595	61.1
357.807	81.58
358.018	-12.63
358.23	87.72
358.441	30.38
358.653	16.04
358.864	73.39
359.075	36.52
359.287	-35.16
359.498	73.39
359.709	42.67
359.921	-37.2
360.132	77.48
360.344	-14.68
360.555	24.23
360.766	-31.06
360.977	128.68
361.189	57
361.4	-35.16
361.611	83.63
361.823	-2.39
362.034	-0.34
362.245	38.57
362.456	36.52
362.667	18.09
362.879	40.62
363.09	38.57
363.301	-24.92
363.512	7.85
363.723	44.71
363.935	36.52
364.146	87.72
364.357	61.1
364.568	54.95
364.779	67.24
364.99	-24.92
365.201	65.19
365.412	24.23
365.623	18.09
365.834	54.95
366.045	65.19
366.256	-12.63
366.467	-0.34
366.678	89.77
366.889	83.63
367.1	38.57
367.311	38.57
367.522	59.05
367.733	54.95
367.944	20.14
368.155	63.15
368.366	59.05
368.577	18.09
368.788	-4.44
368.999	1.71
369.209	26.28
369.42	9.9
369.631	77.48
369.842	34.47
370.053	-31.06
370.264	18.09
370.474	38.57
370.685	11.95
370.896	97.96
371.107	73.39
371.317	54.95
371.528	87.72
371.739	50.86
371.95	-45.4
372.16	26.28
372.371	-8.53
372.582	-2.39
372.792	-0.34
373.003	102.06
373.214	48.81
373.424	40.62
373.635	7.85
373.846	34.47
374.056	22.19
374.267	87.72
374.477	36.52
374.688	-8.53
374.898	9.9
375.109	-0.34
375.319	44.71
375.53	46.76
375.74	48.81
375.951	-4.44
376.161	32.43
376.372	26.28
376.582	22.19
376.793	-18.77
377.003	16.04
377.214	50.86
377.424	36.52
377.635	69.29
377.845	7.85
378.055	57
378.266	-31.06
378.476	24.23
378.686	57
378.897	7.85
379.107	-4.44
379.317	69.29
379.528	26.28
379.738	46.76
379.948	24.23
380.158	36.52
380.369	48.81
380.579	-41.3
380.789	-16.73
380.999	57
381.21	-4.44
381.42	26.28
381.63	38.57
381.84	67.24
382.05	52.91
382.261	57
382.471	7.85
382.681	-57.68
382.891	77.48
383.101	63.15
383.311	50.86
383.521	57
383.731	5.8
383.941	67.24
384.151	36.52
384.361	34.47
384.571	42.67
384.781	52.91
384.991	18.09
385.201	-18.77
385.411	65.19
385.621	44.71
385.831	24.23
386.041	116.39
386.251	69.29
386.461	52.91
386.671	44.71
386.881	65.19
387.091	13.99
387.301	81.58
387.511	-4.44
387.72	28.33
387.93	-67.92
388.14	38.57
388.35	26.28
388.56	42.67
388.769	83.63
388.979	50.86
389.189	5.8
389.399	65.19
389.609	-47.44
389.818	65.19
390.028	79.53
390.238	128.68
390.447	-57.68
390.657	38.57
390.867	34.47
391.076	26.28
391.286	44.71
391.496	26.28
391.705	11.95
391.915	24.23
392.125	34.47
392.334	1.71
392.544	63.15
392.753	59.05
392.963	61.1
393.172	36.52
393.382	42.67
393.591	63.15
393.801	93.87
394.01	50.86
394.22	50.86
394.429	75.43
394.639	122.54
394.848	38.57
395.058	81.58
395.267	46.76
395.477	87.72
395.686	65.19
395.895	24.23
396.105	67.24
396.314	50.86
396.524	44.71
396.733	54.95
396.942	71.34
397.152	65.19
397.361	42.67
397.57	100.01
397.78	20.14
397.989	28.33
398.198	85.67
398.407	11.95
398.617	73.39
398.826	40.62
399.035	34.47
399.244	95.91
399.453	67.24
399.663	147.11
399.872	65.19
400.081	71.34
400.29	128.68
400.499	46.76
400.708	100.01
400.917	50.86
401.127	108.2
401.336	40.62
401.545	132.78
401.754	75.43
401.963	120.49
402.172	26.28
402.381	106.15
402.59	50.86
402.799	79.53
403.008	61.1
403.217	83.63
403.426	173.74
403.635	161.45
403.844	67.24
404.053	140.97
404.262	36.52
404.471	46.76
404.68	116.39
404.888	110.25
405.097	138.92
405.306	63.15
405.515	110.25
405.724	116.39
405.933	126.63
406.142	85.67
406.35	149.16
406.559	130.73
406.768	83.63
406.977	138.92
407.185	153.26
407.394	145.06
407.603	91.82
407.812	132.78
408.02	110.25
408.229	204.46
408.438	188.07
408.646	179.88
408.855	163.5
409.064	169.64
409.272	179.88
409.481	233.13
409.69	175.78
409.898	186.02
410.107	143.02
410.315	245.41
410.524	224.94
410.733	214.7
410.941	272.04
411.15	310.95
411.358	188.07
411.567	282.28
411.775	302.76
411.984	249.51
412.192	224.94
412.401	286.37
412.609	308.9
412.818	276.13
413.026	327.33
413.234	372.39
413.443	313
413.651	415.4
413.86	339.62
414.068	380.58
414.276	356.01
414.485	435.88
414.693	378.53
414.901	454.31
415.11	390.82
415.318	433.83
415.526	427.68
415.734	507.55
415.943	546.47
416.151	534.18
416.359	515.75
416.567	566.95
416.776	607.91
416.984	607.91
417.192	652.96
417.4	712.35
417.608	755.36
417.817	597.67
418.025	716.45
418.233	822.94
418.441	755.36
418.649	773.79
418.857	820.89
419.065	827.04
419.273	882.33
419.481	861.85
419.689	1035.93
419.897	949.92
420.105	1070.75
420.313	1003.16
420.521	1019.55
420.729	1105.56
420.937	1109.66
421.145	1156.76
421.353	1216.15
421.561	1291.93
421.769	1375.89
421.977	1363.61
422.185	1302.17
422.393	1492.63
422.601	1375.89
422.809	1394.33
423.017	1484.44
423.224	1590.93
423.432	1719.95
423.64	1597.07
423.848	1812.11
424.056	1762.96
424.263	1814.16
424.471	1967.76
424.679	1971.85
424.887	2012.81
425.094	2098.83
425.302	2035.34
425.51	2188.94
425.718	2369.16
425.925	2225.8
426.133	2326.15
426.341	2512.52
426.548	2635.39
426.756	2557.57
426.964	2553.48
427.171	2735.74
427.379	2918.01
427.586	2952.83
427.794	2967.17
428.001	3028.6
428.209	3239.55
428.417	3210.87
428.624	3456.63
428.832	3436.15
429.039	3446.39
429.247	3511.93
429.454	3649.14
429.662	4087.4
429.869	3604.08
430.076	3915.37
430.284	3907.18
430.491	3931.76
430.699	4306.54
430.906	4167.28
431.114	4208.23
431.321	4474.47
431.528	4640.36
431.736	4767.33
431.943	5129.82
432.15	4978.27
432.358	4861.54
432.565	5250.65
432.772	5346.91
432.979	5430.87
433.187	5647.96
433.394	5795.41
433.601	6018.64
433.808	5979.73
434.016	5983.82
434.223	6284.87
434.43	6528.58
434.637	6510.15
434.844	6921.79
435.052	6958.66
435.259	6899.27
435.466	7046.72
435.673	6995.52
435.88	7505.46
436.087	7814.71
436.294	7794.23
436.501	7593.53
436.708	7822.9
436.915	8091.18
437.122	8678.95
437.329	8332.84
437.537	8711.72
437.743	8881.7
437.95	8730.15
438.157	9192.99
438.364	9506.33
438.571	9467.42
438.778	9334.3
438.985	10251.79
439.192	10008.08
439.399	10364.43
439.606	9938.45
439.813	10651.14
440.02	11476.48
440.227	11048.45
440.433	10968.58
440.64	11355.65
440.847	11408.89
441.054	11644.41
441.261	12250.61
441.467	12238.32
441.674	12484.08
441.881	12778.98
442.088	12697.06
442.294	13018.6
442.501	13207.01
442.708	13327.84
442.914	13698.52
443.121	14611.92
443.328	14095.83
443.534	15007.17
443.741	14597.58
443.948	14597.58
444.154	15355.33
444.361	15484.35
444.568	15779.26
444.774	15517.12
444.981	15709.63
445.187	16188.85
445.394	17014.18
445.6	16569.77
445.807	18480.53
446.013	17327.52
446.22	17896.86
446.426	18341.27
446.633	18558.35
446.839	19078.54
447.046	18318.74
447.252	19533.18
447.459	19791.23
447.665	19559.81
447.871	20252.02
448.078	20960.62
448.284	20282.74
448.491	20575.6
448.697	21378.4
448.903	21822.81
449.11	21841.25
449.316	21294.44
449.522	22017.37
449.728	22367.57
449.935	22525.27
450.141	22426.96
450.347	23207.24
450.553	22216.02
450.76	22840.65
450.966	23516.48
451.172	23100.75
451.378	23551.3
451.584	23131.47
451.791	23799.1
451.997	23520.58
452.203	24126.78
452.409	23811.39
452.615	23919.93
452.821	23008.59
453.027	22787.41
453.233	23676.23
453.44	23113.03
453.646	23256.39
453.852	23293.26
454.058	23561.54
454.264	23020.88
454.47	23541.06
454.676	22826.32
454.882	23639.36
455.088	21405.03
455.294	21859.68
455.5	22074.71
455.705	22465.88
455.911	21388.64
456.117	21163.37
456.323	20620.66
456.529	19742.08
456.735	20628.85
456.941	20018.55
457.147	19682.69
457.352	19189.13
457.558	18883.98
457.764	19086.73
457.97	18650.51
458.176	17794.46
458.381	18187.67
458.587	17196.45
458.793	17210.79
458.999	16119.22
459.204	17327.52
459.41	16905.64
459.616	15717.82
459.821	15736.25
460.027	15758.78
460.233	15461.82
460.438	14720.46
460.644	14865.86
460.85	14278.1
461.055	14058.96
461.261	13936.09
461.466	12834.28
461.672	12334.57
461.878	13506.01
462.083	12482.03
462.289	12361.2
462.494	12242.42
462.7	11687.42
462.905	11372.03
463.111	11877.88
463.316	11847.16
463.522	11640.31
463.727	11681.27
463.932	11623.93
464.138	11419.13
464.343	11621.88
464.549	11107.84
464.754	11746.81
464.959	11460.09
465.165	11118.08
465.37	10999.3
465.575	10532.36
465.781	11019.78
465.986	11066.88
466.191	10702.34
466.397	10632.71
466.602	10051.09
466.807	10518.03
467.012	10362.38
467.218	10253.84
467.423	10194.45
467.628	10239.5
467.833	10804.74
468.038	10196.5
