Data from USB4F104151__163__13-58-46-753.txt Node

Date: Thu Mar 13 13:58:46 EDT 2025
User: louis
Spectrometer: USB4F10415
Trigger mode: 4
Integration Time (sec): 1.000000E-2
Scans to average: 1
Electric dark correction enabled: true
Nonlinearity correction enabled: false
Boxcar width: 0
XAxis mode: Wavelengths
Number of Pixels in Spectrum: 3648
>>>>>Begin Spectral Data<<<<<
178.204	-66.05
178.424	-66.05
178.644	-66.05
178.864	-59.9
179.084	-31.23
179.304	34.3
179.524	28.16
179.744	-51.71
179.964	44.54
180.184	-49.66
180.404	7.68
180.624	-10.75
180.844	-4.61
181.064	19.97
181.283	-49.66
181.503	-0.51
181.723	32.26
181.943	19.97
182.163	46.59
182.383	40.45
182.602	5.63
182.822	-6.66
183.042	50.69
183.262	1.54
183.482	38.4
183.701	-2.56
183.921	-23.04
184.141	-33.28
184.361	-8.7
184.58	-4.61
184.8	42.5
185.02	-10.75
185.239	15.87
185.459	24.06
185.679	11.78
185.898	-4.61
186.118	97.79
186.338	-10.75
186.557	-10.75
186.777	30.21
186.997	28.16
187.216	13.82
187.436	118.27
187.655	44.54
187.875	1.54
188.095	75.26
188.314	36.35
188.534	-4.61
188.753	44.54
188.973	17.92
189.192	46.59
189.412	-133.63
189.631	-10.75
189.851	-0.51
190.07	73.21
190.29	73.21
190.509	-18.94
190.729	36.35
190.948	44.54
191.168	50.69
191.387	36.35
191.607	-27.14
191.826	19.97
192.045	5.63
192.265	-6.66
192.484	52.74
192.704	-2.56
192.923	58.88
193.142	69.12
193.362	13.82
193.581	32.26
193.8	48.64
194.02	11.78
194.239	79.36
194.458	60.93
194.678	-61.95
194.897	13.82
195.116	15.87
195.335	-74.24
195.555	17.92
195.774	19.97
195.993	-10.75
196.212	9.73
196.432	36.35
196.651	38.4
196.87	22.02
197.089	26.11
197.308	1.54
197.528	-61.95
197.747	5.63
197.966	-23.04
198.185	71.17
198.404	54.78
198.623	30.21
198.842	22.02
199.062	38.4
199.281	58.88
199.5	26.11
199.719	-6.66
199.938	-41.47
200.157	22.02
200.376	-18.94
200.595	52.74
200.814	77.31
201.033	30.21
201.252	32.26
201.471	-94.72
201.69	17.92
201.909	30.21
202.128	7.68
202.347	-29.18
202.566	-98.81
202.785	32.26
203.004	71.17
203.223	81.41
203.442	-10.75
203.661	-10.75
203.879	9.73
204.098	60.93
204.317	-41.47
204.536	69.12
204.755	22.02
204.974	38.4
205.193	40.45
205.411	65.02
205.63	56.83
205.849	-53.76
206.068	24.06
206.287	-0.51
206.505	56.83
206.724	26.11
206.943	50.69
207.162	9.73
207.381	32.26
207.599	42.5
207.818	34.3
208.037	3.58
208.255	-53.76
208.474	83.45
208.693	9.73
208.911	36.35
209.13	32.26
209.349	36.35
209.567	9.73
209.786	-45.57
210.005	3.58
210.223	44.54
210.442	24.06
210.661	40.45
210.879	-29.18
211.098	71.17
211.316	-4.61
211.535	32.26
211.753	65.02
211.972	19.97
212.191	22.02
212.409	46.59
212.628	-61.95
212.846	9.73
213.065	36.35
213.283	73.21
213.502	52.74
213.72	17.92
213.938	40.45
214.157	-12.8
214.375	-51.71
214.594	11.78
214.812	-2.56
215.031	99.84
215.249	36.35
215.467	110.08
215.686	-53.76
215.904	-16.9
216.122	-37.38
216.341	17.92
216.559	11.78
216.778	24.06
216.996	-14.85
217.214	-4.61
217.432	-37.38
217.651	50.69
217.869	-10.75
218.087	42.5
218.306	73.21
218.524	5.63
218.742	-23.04
218.96	-18.94
219.179	28.16
219.397	-10.75
219.615	-74.24
219.833	7.68
220.051	-25.09
220.27	36.35
220.488	52.74
220.706	79.36
220.924	-76.29
221.142	36.35
221.36	17.92
221.578	48.64
221.796	15.87
222.015	-59.9
222.233	9.73
222.451	36.35
222.669	-10.75
222.887	17.92
223.105	56.83
223.323	28.16
223.541	5.63
223.759	-2.56
223.977	11.78
224.195	60.93
224.413	-35.33
224.631	5.63
224.849	54.78
225.067	38.4
225.285	46.59
225.503	-2.56
225.721	22.02
225.939	-39.42
226.157	42.5
226.375	19.97
226.592	3.58
226.81	48.64
227.028	32.26
227.246	19.97
227.464	-29.18
227.682	48.64
227.9	-4.61
228.117	1.54
228.335	1.54
228.553	-10.75
228.771	-4.61
228.989	17.92
229.206	19.97
229.424	-6.66
229.642	-8.7
229.86	-61.95
230.077	24.06
230.295	17.92
230.513	58.88
230.731	77.31
230.948	56.83
231.166	28.16
231.384	-37.38
231.601	52.74
231.819	-10.75
232.037	22.02
232.254	-8.7
232.472	-72.19
232.689	-72.19
232.907	62.98
233.125	58.88
233.342	48.64
233.56	-10.75
233.777	54.78
233.995	71.17
234.213	52.74
234.43	34.3
234.648	-76.29
234.865	15.87
235.083	34.3
235.3	-18.94
235.518	34.3
235.735	50.69
235.953	-49.66
236.17	9.73
236.388	-18.94
236.605	24.06
236.822	5.63
237.04	13.82
237.257	-29.18
237.475	-20.99
237.692	-64
237.909	-49.66
238.127	-6.66
238.344	28.16
238.562	-8.7
238.779	19.97
238.996	13.82
239.214	-6.66
239.431	11.78
239.648	28.16
239.865	52.74
240.083	24.06
240.3	22.02
240.517	-33.28
240.735	36.35
240.952	108.03
241.169	-10.75
241.386	52.74
241.603	-33.28
241.821	54.78
242.038	28.16
242.255	36.35
242.472	40.45
242.689	30.21
242.907	38.4
243.124	97.79
243.341	11.78
243.558	65.02
243.775	34.3
243.992	9.73
244.209	-0.51
244.426	54.78
244.643	-23.04
244.86	-68.09
245.078	30.21
245.295	5.63
245.512	9.73
245.729	40.45
245.946	-8.7
246.163	-4.61
246.38	87.55
246.597	9.73
246.814	38.4
247.031	15.87
247.248	44.54
247.464	-29.18
247.681	54.78
247.898	54.78
248.115	95.74
248.332	38.4
248.549	44.54
248.766	22.02
248.983	103.93
249.2	32.26
249.417	11.78
249.633	22.02
249.85	-29.18
250.067	79.36
250.284	-4.61
250.501	42.5
250.717	54.78
250.934	-33.28
251.151	36.35
251.368	42.5
251.585	79.36
251.801	42.5
252.018	85.5
252.235	-10.75
252.451	17.92
252.668	5.63
252.885	-20.99
253.102	-18.94
253.318	36.35
253.535	11.78
253.752	-0.51
253.968	3.58
254.185	3.58
254.401	-55.81
254.618	110.08
254.835	-4.61
255.051	32.26
255.268	-25.09
255.484	-2.56
255.701	-25.09
255.917	60.93
256.134	1.54
256.351	-14.85
256.567	17.92
256.784	56.83
257	52.74
257.217	3.58
257.433	19.97
257.65	-29.18
257.866	26.11
258.082	65.02
258.299	46.59
258.515	11.78
258.732	5.63
258.948	-6.66
259.165	15.87
259.381	48.64
259.597	28.16
259.814	3.58
260.03	34.3
260.246	11.78
260.463	3.58
260.679	48.64
260.895	24.06
261.112	36.35
261.328	-29.18
261.544	36.35
261.761	81.41
261.977	50.69
262.193	19.97
262.409	-10.75
262.626	-2.56
262.842	-41.47
263.058	-10.75
263.274	73.21
263.49	-4.61
263.707	11.78
263.923	3.58
264.139	9.73
264.355	15.87
264.571	89.6
264.787	83.45
265.004	36.35
265.22	30.21
265.436	54.78
265.652	-10.75
265.868	48.64
266.084	65.02
266.3	48.64
266.516	5.63
266.732	56.83
266.948	-16.9
267.164	36.35
267.38	-20.99
267.596	58.88
267.812	34.3
268.028	65.02
268.244	-12.8
268.46	32.26
268.676	15.87
268.892	-0.51
269.108	30.21
269.324	-45.57
269.54	-16.9
269.756	34.3
269.972	32.26
270.188	5.63
270.403	17.92
270.619	9.73
270.835	30.21
271.051	44.54
271.267	-64
271.483	-12.8
271.698	-25.09
271.914	-18.94
272.13	69.12
272.346	11.78
272.562	5.63
272.777	85.5
272.993	15.87
273.209	-27.14
273.425	5.63
273.64	103.93
273.856	-29.18
274.072	24.06
274.287	73.21
274.503	75.26
274.719	32.26
274.934	-6.66
275.15	11.78
275.366	62.98
275.581	-4.61
275.797	36.35
276.012	-66.05
276.228	11.78
276.444	3.58
276.659	38.4
276.875	22.02
277.09	71.17
277.306	-55.81
277.521	19.97
277.737	-4.61
277.952	5.63
278.168	-10.75
278.383	9.73
278.599	-10.75
278.814	-2.56
279.03	50.69
279.245	15.87
279.461	9.73
279.676	3.58
279.892	52.74
280.107	-8.7
280.322	-6.66
280.538	-8.7
280.753	-31.23
280.969	3.58
281.184	-0.51
281.399	7.68
281.615	95.74
281.83	60.93
282.045	-53.76
282.26	44.54
282.476	-10.75
282.691	19.97
282.906	44.54
283.122	13.82
283.337	19.97
283.552	95.74
283.767	9.73
283.983	11.78
284.198	38.4
284.413	-0.51
284.628	-39.42
284.843	-14.85
285.058	85.5
285.274	28.16
285.489	-47.62
285.704	30.21
285.919	3.58
286.134	-47.62
286.349	-6.66
286.564	11.78
286.779	-27.14
286.995	77.31
287.21	-66.05
287.425	36.35
287.64	-6.66
287.855	3.58
288.07	67.07
288.285	24.06
288.5	-20.99
288.715	15.87
288.93	15.87
289.145	7.68
289.36	38.4
289.575	28.16
289.79	1.54
290.004	19.97
290.219	69.12
290.434	60.93
290.649	15.87
290.864	62.98
291.079	36.35
291.294	-16.9
291.509	62.98
291.724	15.87
291.938	-10.75
292.153	65.02
292.368	1.54
292.583	-16.9
292.798	60.93
293.012	81.41
293.227	30.21
293.442	-2.56
293.657	15.87
293.871	17.92
294.086	-43.52
294.301	1.54
294.516	7.68
294.73	-70.14
294.945	-37.38
295.16	42.5
295.374	-27.14
295.589	32.26
295.804	3.58
296.018	-84.48
296.233	85.5
296.447	-43.52
296.662	24.06
296.877	3.58
297.091	28.16
297.306	-16.9
297.52	5.63
297.735	1.54
297.949	22.02
298.164	69.12
298.378	-10.75
298.593	28.16
298.807	22.02
299.022	-23.04
299.236	81.41
299.451	11.78
299.665	-4.61
299.88	46.59
300.094	-0.51
300.309	3.58
300.523	52.74
300.737	-12.8
300.952	-6.66
301.166	13.82
301.381	3.58
301.595	5.63
301.809	-6.66
302.024	-2.56
302.238	-68.09
302.452	-37.38
302.667	-10.75
302.881	-25.09
303.095	-53.76
303.309	32.26
303.524	5.63
303.738	15.87
303.952	-27.14
304.166	65.02
304.381	3.58
304.595	11.78
304.809	40.45
305.023	15.87
305.237	-6.66
305.452	-20.99
305.666	-12.8
305.88	77.31
306.094	-64
306.308	42.5
306.522	-64
306.736	24.06
306.95	5.63
307.164	-43.52
307.379	26.11
307.593	-2.56
307.807	24.06
308.021	40.45
308.235	13.82
308.449	32.26
308.663	-37.38
308.877	11.78
309.091	9.73
309.305	36.35
309.519	32.26
309.733	19.97
309.947	3.58
310.161	-57.86
310.374	-37.38
310.588	48.64
310.802	-84.48
311.016	34.3
311.23	60.93
311.444	5.63
311.658	87.55
311.872	26.11
312.085	-37.38
312.299	46.59
312.513	99.84
312.727	46.59
312.941	22.02
313.154	-12.8
313.368	3.58
313.582	34.3
313.796	-31.23
314.009	38.4
314.223	-8.7
314.437	67.07
314.651	32.26
314.864	22.02
315.078	26.11
315.292	85.5
315.505	34.3
315.719	108.03
315.933	-23.04
316.146	83.45
316.36	54.78
316.573	62.98
316.787	-20.99
317.001	44.54
317.214	-4.61
317.428	-12.8
317.641	38.4
317.855	-41.47
318.068	-10.75
318.282	36.35
318.495	24.06
318.709	62.98
318.922	48.64
319.136	30.21
319.349	1.54
319.563	60.93
319.776	-31.23
319.99	-35.33
320.203	7.68
320.417	-33.28
320.63	54.78
320.843	-14.85
321.057	28.16
321.27	69.12
321.483	46.59
321.697	-37.38
321.91	79.36
322.124	42.5
322.337	-16.9
322.55	-6.66
322.763	89.6
322.977	-14.85
323.19	19.97
323.403	73.21
323.617	-53.76
323.83	19.97
324.043	-18.94
324.256	3.58
324.469	32.26
324.683	9.73
324.896	36.35
325.109	54.78
325.322	7.68
325.535	48.64
325.748	7.68
325.962	-31.23
326.175	103.93
326.388	9.73
326.601	13.82
326.814	42.5
327.027	42.5
327.24	116.22
327.453	-23.04
327.666	62.98
327.879	75.26
328.092	38.4
328.305	-18.94
328.518	3.58
328.731	36.35
328.944	28.16
329.157	42.5
329.37	85.5
329.583	22.02
329.796	85.5
330.009	62.98
330.222	17.92
330.435	54.78
330.648	46.59
330.861	40.45
331.073	67.07
331.286	-2.56
331.499	-27.14
331.712	-2.56
331.925	32.26
332.138	-4.61
332.35	38.4
332.563	17.92
332.776	3.58
332.989	28.16
333.202	22.02
333.414	36.35
333.627	-102.91
333.84	-35.33
334.053	44.54
334.265	-20.99
334.478	54.78
334.691	46.59
334.903	60.93
335.116	-35.33
335.329	65.02
335.541	-12.8
335.754	28.16
335.966	-29.18
336.179	75.26
336.392	-12.8
336.604	67.07
336.817	36.35
337.029	36.35
337.242	42.5
337.454	22.02
337.667	13.82
337.88	40.45
338.092	73.21
338.305	71.17
338.517	1.54
338.729	71.17
338.942	44.54
339.154	52.74
339.367	-4.61
339.579	-12.8
339.792	85.5
340.004	11.78
340.217	24.06
340.429	77.31
340.641	-92.67
340.854	-12.8
341.066	89.6
341.278	7.68
341.491	48.64
341.703	-47.62
341.915	56.83
342.128	26.11
342.34	13.82
342.552	58.88
342.764	40.45
342.977	19.97
343.189	-23.04
343.401	153.09
343.613	-25.09
343.826	48.64
344.038	-4.61
344.25	-20.99
344.462	-27.14
344.674	32.26
344.886	48.64
345.099	11.78
345.311	81.41
345.523	-10.75
345.735	-20.99
345.947	24.06
346.159	-35.33
346.371	54.78
346.583	34.3
346.795	44.54
347.007	-33.28
347.219	11.78
347.431	22.02
347.643	65.02
347.855	-16.9
348.067	116.22
348.279	-96.77
348.491	1.54
348.703	34.3
348.915	40.45
349.127	-4.61
349.339	44.54
349.551	32.26
349.763	65.02
349.975	46.59
350.187	73.21
350.399	28.16
350.61	13.82
350.822	7.68
351.034	1.54
351.246	9.73
351.458	24.06
351.669	22.02
351.881	15.87
352.093	69.12
352.305	-4.61
352.517	1.54
352.728	52.74
352.94	-29.18
353.152	22.02
353.363	-31.23
353.575	54.78
353.787	48.64
353.999	-51.71
354.21	-12.8
354.422	73.21
354.633	28.16
354.845	46.59
355.057	36.35
355.268	26.11
355.48	58.88
355.692	-10.75
355.903	36.35
356.115	22.02
356.326	26.11
356.538	32.26
356.749	-61.95
356.961	36.35
357.172	36.35
357.384	17.92
357.595	15.87
357.807	44.54
358.018	-64
358.23	75.26
358.441	30.21
358.653	38.4
358.864	58.88
359.075	52.74
359.287	-18.94
359.498	54.78
359.709	3.58
359.921	52.74
360.132	11.78
360.344	48.64
360.555	36.35
360.766	-6.66
360.977	-12.8
361.189	9.73
361.4	-37.38
361.611	77.31
361.823	83.45
362.034	7.68
362.245	-4.61
362.456	17.92
362.667	1.54
362.879	-4.61
363.09	-45.57
363.301	54.78
363.512	58.88
363.723	-18.94
363.935	87.55
364.146	83.45
364.357	73.21
364.568	1.54
364.779	19.97
364.99	7.68
365.201	-33.28
365.412	52.74
365.623	-31.23
365.834	83.45
366.045	19.97
366.256	26.11
366.467	116.22
366.678	-10.75
366.889	52.74
367.1	38.4
367.311	19.97
367.522	-16.9
367.733	48.64
367.944	-53.76
368.155	3.58
368.366	60.93
368.577	9.73
368.788	-68.09
368.999	93.69
369.209	73.21
369.42	42.5
369.631	-20.99
369.842	93.69
370.053	56.83
370.264	5.63
370.474	13.82
370.685	13.82
370.896	77.31
371.107	32.26
371.317	44.54
371.528	-14.85
371.739	-35.33
371.95	-37.38
372.16	1.54
372.371	56.83
372.582	13.82
372.792	-41.47
373.003	-29.18
373.214	-29.18
373.424	60.93
373.635	-16.9
373.846	17.92
374.056	22.02
374.267	56.83
374.477	-4.61
374.688	22.02
374.898	32.26
375.109	65.02
375.319	48.64
375.53	19.97
375.74	50.69
375.951	28.16
376.161	52.74
376.372	-27.14
376.582	-29.18
376.793	28.16
377.003	9.73
377.214	34.3
377.424	11.78
377.635	22.02
377.845	30.21
378.055	48.64
378.266	11.78
378.476	13.82
378.686	-20.99
378.897	85.5
379.107	85.5
379.317	28.16
379.528	-2.56
379.738	15.87
379.948	-2.56
380.158	87.55
380.369	19.97
380.579	69.12
380.789	19.97
380.999	15.87
381.21	71.17
381.42	11.78
381.63	-6.66
381.84	24.06
382.05	11.78
382.261	7.68
382.471	3.58
382.681	-49.66
382.891	11.78
383.101	-23.04
383.311	85.5
383.521	-10.75
383.731	-4.61
383.941	-16.9
384.151	65.02
384.361	126.46
384.571	-37.38
384.781	-16.9
384.991	22.02
385.201	15.87
385.411	3.58
385.621	15.87
385.831	48.64
386.041	17.92
386.251	28.16
386.461	1.54
386.671	9.73
386.881	89.6
387.091	116.22
387.301	42.5
387.511	44.54
387.72	36.35
387.93	-6.66
388.14	15.87
388.35	36.35
388.56	26.11
388.769	-0.51
388.979	95.74
389.189	50.69
389.399	-53.76
389.609	42.5
389.818	40.45
390.028	32.26
390.238	71.17
390.447	5.63
390.657	67.07
390.867	95.74
391.076	1.54
391.286	5.63
391.496	38.4
391.705	44.54
391.915	79.36
392.125	87.55
392.334	-10.75
392.544	36.35
392.753	-16.9
392.963	30.21
393.172	85.5
393.382	-57.86
393.591	38.4
393.801	11.78
394.01	50.69
394.22	-57.86
394.429	73.21
394.639	60.93
394.848	15.87
395.058	67.07
395.267	46.59
395.477	48.64
395.686	7.68
395.895	71.17
396.105	44.54
396.314	44.54
396.524	56.83
396.733	5.63
396.942	77.31
397.152	-0.51
397.361	24.06
397.57	85.5
397.78	-25.09
397.989	38.4
398.198	67.07
398.407	52.74
398.617	-27.14
398.826	48.64
399.035	26.11
399.244	11.78
399.453	46.59
399.663	40.45
399.872	54.78
400.081	38.4
400.29	22.02
400.499	54.78
400.708	73.21
400.917	65.02
401.127	58.88
401.336	5.63
401.545	60.93
401.754	30.21
401.963	36.35
402.172	48.64
402.381	-45.57
402.59	11.78
402.799	83.45
403.008	3.58
403.217	128.51
403.426	69.12
403.635	60.93
403.844	-29.18
404.053	-18.94
404.262	46.59
404.471	34.3
404.68	85.5
404.888	28.16
405.097	7.68
405.306	52.74
405.515	105.98
405.724	36.35
405.933	30.21
406.142	81.41
406.35	75.26
406.559	62.98
406.768	36.35
406.977	87.55
407.185	52.74
407.394	85.5
407.603	40.45
407.812	60.93
408.02	85.5
408.229	3.58
408.438	46.59
408.646	148.99
408.855	89.6
409.064	40.45
409.272	42.5
409.481	46.59
409.69	155.13
409.898	110.08
410.107	140.8
410.315	85.5
410.524	187.9
410.733	167.42
410.941	103.93
411.15	101.89
411.358	112.13
411.567	101.89
411.775	177.66
411.984	198.14
412.192	202.24
412.401	112.13
412.609	118.27
412.818	183.81
413.026	253.44
413.234	167.42
413.443	148.99
413.651	159.23
413.86	153.09
414.068	185.85
414.276	224.76
414.485	208.38
414.693	222.72
414.901	294.4
415.11	200.19
415.318	194.05
415.526	212.48
415.734	257.53
415.943	300.54
416.151	245.24
416.359	345.59
416.567	267.77
416.776	275.96
416.984	278.01
417.192	275.96
417.4	284.16
417.608	265.72
417.817	265.72
418.025	357.88
418.233	339.45
418.441	310.78
418.649	353.79
418.857	456.19
419.065	388.6
419.273	388.6
419.481	413.18
419.689	413.18
419.897	519.67
420.105	470.52
420.313	544.25
420.521	513.53
420.729	447.99
420.937	491
421.145	497.14
421.353	617.97
421.561	620.02
421.769	640.5
421.977	620.02
422.185	622.07
422.393	638.45
422.601	675.32
422.809	703.99
423.017	720.37
423.224	747
423.432	790
423.64	773.62
423.848	943.6
424.056	845.3
424.263	919.03
424.471	845.3
424.679	880.11
424.887	980.47
425.094	968.18
425.302	1062.38
425.51	964.08
425.718	1031.66
425.925	990.7
426.133	1134.06
426.341	1101.3
426.548	1181.17
426.756	1226.22
426.964	1240.56
427.171	1226.22
427.379	1195.5
427.586	1308.14
427.794	1347.05
428.001	1428.97
428.209	1461.74
428.417	1412.59
428.624	1488.36
428.832	1566.18
429.039	1445.35
429.247	1482.22
429.454	1746.41
429.662	1809.89
429.869	1734.12
430.076	1887.72
430.284	1664.49
430.491	1826.28
430.699	1914.34
430.906	2039.26
431.114	1889.76
431.321	2051.55
431.528	2119.14
431.736	2121.18
431.943	2264.54
432.15	2295.26
432.358	2289.12
432.565	2395.61
432.772	2350.56
432.979	2444.76
433.187	2483.67
433.394	2522.59
433.601	2665.94
433.808	2743.77
434.016	2684.38
434.223	2786.77
434.43	2991.57
434.637	2905.56
434.844	3186.13
435.052	3106.26
435.259	3141.07
435.466	3247.57
435.673	3161.55
435.88	3249.61
436.087	3599.82
436.294	3438.03
436.501	3429.84
436.708	3415.5
436.915	3608.01
437.122	3747.27
437.329	3737.03
437.537	3935.68
437.743	3931.59
437.95	3851.72
438.157	3970.5
438.364	4113.86
438.571	4181.44
438.778	4289.98
438.985	4582.84
439.192	4441.53
439.399	4496.83
439.606	4322.75
439.813	4806.07
440.02	5152.18
440.227	4957.62
440.433	4969.91
440.64	5268.91
440.847	5082.55
441.054	5125.55
441.261	5512.62
441.467	5440.94
441.674	5559.72
441.881	5649.83
442.088	5770.66
442.294	5713.32
442.501	5838.25
442.708	5957.03
442.914	6075.81
443.121	6380.96
443.328	6342.05
443.534	6786.46
443.741	6475.17
443.948	6464.93
444.154	7030.16
444.361	6974.87
444.568	6915.48
444.774	6995.35
444.981	7161.23
445.187	7122.32
445.394	7439.76
445.6	7550.35
445.807	8088.96
446.013	7906.7
446.22	7910.79
446.426	8297.86
446.633	8351.1
446.839	8547.71
447.046	8412.54
447.252	8818.04
447.459	8682.88
447.665	8678.78
447.871	9121.14
448.078	9540.97
448.284	8801.66
448.491	9108.85
448.697	9469.3
448.903	9620.85
449.11	9719.15
449.316	9555.31
449.522	9923.94
449.728	10214.76
449.935	10145.13
450.141	10128.74
450.347	10460.51
450.553	10235.24
450.76	10419.55
450.966	10507.62
451.172	10503.52
451.378	10894.68
451.584	10702.17
451.791	10847.58
451.997	10866.01
452.203	10909.02
452.409	10911.07
452.615	11302.23
452.821	10505.57
453.027	10589.53
453.233	10927.45
453.44	10648.93
453.646	10874.2
453.852	10747.23
454.058	11162.97
454.264	10628.45
454.47	10849.63
454.676	10571.1
454.882	11040.09
455.088	10091.88
455.294	10333.54
455.5	10356.07
455.705	10562.91
455.911	10128.74
456.117	9956.71
456.323	9844.07
456.529	9358.71
456.735	9762.16
456.941	9350.51
457.147	9207.16
457.352	9010.55
457.558	8906.1
457.764	8998.26
457.97	8756.6
458.176	8519.04
458.381	8678.78
458.587	8115.59
458.793	8308.1
458.999	7703.95
459.204	8551.81
459.41	8246.66
459.616	7667.08
459.821	7636.36
460.027	7673.23
460.233	7439.76
460.438	7064.98
460.644	7183.76
460.85	6788.5
461.055	6659.48
461.261	6663.58
461.466	6278.56
461.672	6114.72
461.878	6436.25
462.083	5983.65
462.289	5819.82
462.494	5891.49
462.7	5664.17
462.905	5543.34
463.111	5590.44
463.316	5770.66
463.522	5631.4
463.727	5461.42
463.932	5604.78
464.138	5393.84
464.343	5533.1
464.549	5338.54
464.754	5438.89
464.959	5381.55
465.165	5295.54
465.37	5236.14
465.575	5111.22
465.781	5184.94
465.986	5082.55
466.191	5107.12
466.397	4902.33
466.602	4808.12
466.807	4840.89
467.012	4926.9
467.218	5031.35
467.423	4851.13
467.628	4963.76
467.833	5189.04
468.038	4959.67
468.244	4785.59
468.449	4994.48
468.654	4738.49
468.859	4828.6
469.064	4640.19
469.269	4525.5
469.474	4541.88
469.679	4748.73
469.885	4726.2
470.09	4429.24
470.295	4437.44
470.5	4443.58
470.705	4445.63
