Data from USB4F104151__81__13-54-22-711.txt Node

Date: Thu Mar 13 13:54:22 EDT 2025
User: louis
Spectrometer: USB4F10415
Trigger mode: 4
Integration Time (sec): 1.000000E-2
Scans to average: 1
Electric dark correction enabled: true
Nonlinearity correction enabled: false
Boxcar width: 0
XAxis mode: Wavelengths
Number of Pixels in Spectrum: 3648
>>>>>Begin Spectral Data<<<<<
178.204	-102.91
178.424	-102.91
178.644	-102.91
178.864	-57.86
179.084	-4.61
179.304	22.02
179.524	17.92
179.744	-2.56
179.964	5.63
180.184	-2.56
180.404	7.68
180.624	-35.33
180.844	38.4
181.064	-61.95
181.283	1.54
181.503	-41.47
181.723	50.69
181.943	-27.14
182.163	-8.7
182.383	83.45
182.602	-16.9
182.822	-43.52
183.042	11.78
183.262	13.82
183.482	-27.14
183.701	-8.7
183.921	-18.94
184.141	11.78
184.361	9.73
184.58	34.3
184.8	-27.14
185.02	62.98
185.239	-0.51
185.459	28.16
185.679	-37.38
185.898	-41.47
186.118	40.45
186.338	13.82
186.557	-47.62
186.777	7.68
186.997	-111.1
187.216	75.26
187.436	38.4
187.655	73.21
187.875	22.02
188.095	-35.33
188.314	15.87
188.534	17.92
188.753	15.87
188.973	15.87
189.192	-2.56
189.412	-49.66
189.631	-41.47
189.851	9.73
190.07	-33.28
190.29	-23.04
190.509	-41.47
190.729	34.3
190.948	52.74
191.168	9.73
191.387	40.45
191.607	13.82
191.826	-4.61
192.045	-16.9
192.265	-35.33
192.484	38.4
192.704	-2.56
192.923	-64
193.142	44.54
193.362	-29.18
193.581	48.64
193.8	-25.09
194.02	85.5
194.239	-14.85
194.458	28.16
194.678	19.97
194.897	-4.61
195.116	22.02
195.335	-47.62
195.555	-27.14
195.774	46.59
195.993	-10.75
196.212	13.82
196.432	42.5
196.651	-10.75
196.87	-16.9
197.089	83.45
197.308	34.3
197.528	-29.18
197.747	5.63
197.966	1.54
198.185	-2.56
198.404	3.58
198.623	-37.38
198.842	26.11
199.062	-20.99
199.281	60.93
199.5	-25.09
199.719	48.64
199.938	11.78
200.157	-18.94
200.376	-16.9
200.595	40.45
200.814	-37.38
201.033	60.93
201.252	30.21
201.471	-14.85
201.69	34.3
201.909	1.54
202.128	-0.51
202.347	-8.7
202.566	-37.38
202.785	-10.75
203.004	9.73
203.223	-29.18
203.442	58.88
203.661	7.68
203.879	-4.61
204.098	46.59
204.317	9.73
204.536	60.93
204.755	-20.99
204.974	15.87
205.193	69.12
205.411	-35.33
205.63	1.54
205.849	-0.51
206.068	-29.18
206.287	-6.66
206.505	89.6
206.724	-49.66
206.943	-10.75
207.162	-20.99
207.381	28.16
207.599	32.26
207.818	7.68
208.037	-29.18
208.255	-8.7
208.474	50.69
208.693	28.16
208.911	11.78
209.13	48.64
209.349	-4.61
209.567	-23.04
209.786	3.58
210.005	-10.75
210.223	67.07
210.442	-37.38
210.661	46.59
210.879	-25.09
211.098	9.73
211.316	-82.43
211.535	-37.38
211.753	-66.05
211.972	7.68
212.191	22.02
212.409	-6.66
212.628	54.78
212.846	-8.7
213.065	-8.7
213.283	67.07
213.502	-59.9
213.72	-23.04
213.938	-18.94
214.157	40.45
214.375	-10.75
214.594	3.58
214.812	-18.94
215.031	40.45
215.249	-0.51
215.467	56.83
215.686	-20.99
215.904	13.82
216.122	-16.9
216.341	-23.04
216.559	-25.09
216.778	101.89
216.996	26.11
217.214	13.82
217.432	-10.75
217.651	-61.95
217.869	-12.8
218.087	50.69
218.306	-31.23
218.524	54.78
218.742	-35.33
218.96	-14.85
219.179	-43.52
219.397	26.11
219.615	-29.18
219.833	-53.76
220.051	42.5
220.27	46.59
220.488	17.92
220.706	-20.99
220.924	62.98
221.142	24.06
221.36	138.75
221.578	-2.56
221.796	30.21
222.015	46.59
222.233	-53.76
222.451	71.17
222.669	36.35
222.887	34.3
223.105	-25.09
223.323	38.4
223.541	34.3
223.759	-66.05
223.977	-4.61
224.195	-53.76
224.413	3.58
224.631	-37.38
224.849	9.73
225.067	24.06
225.285	3.58
225.503	52.74
225.721	-43.52
225.939	22.02
226.157	-49.66
226.375	-43.52
226.592	15.87
226.81	9.73
227.028	15.87
227.246	24.06
227.464	24.06
227.682	44.54
227.9	-31.23
228.117	-35.33
228.335	17.92
228.553	19.97
228.771	-4.61
228.989	15.87
229.206	-16.9
229.424	24.06
229.642	40.45
229.86	-20.99
230.077	50.69
230.295	-0.51
230.513	26.11
230.731	-2.56
230.948	-39.42
231.166	22.02
231.384	1.54
231.601	19.97
231.819	-14.85
232.037	-70.14
232.254	-33.28
232.472	36.35
232.689	50.69
232.907	-16.9
233.125	-53.76
233.342	-25.09
233.56	-2.56
233.777	79.36
233.995	28.16
234.213	17.92
234.43	-6.66
234.648	44.54
234.865	-25.09
235.083	-4.61
235.3	5.63
235.518	-2.56
235.735	15.87
235.953	40.45
236.17	-35.33
236.388	62.98
236.605	-35.33
236.822	-18.94
237.04	15.87
237.257	38.4
237.475	-4.61
237.692	-2.56
237.909	30.21
238.127	3.58
238.344	-37.38
238.562	122.37
238.779	22.02
238.996	-31.23
239.214	-14.85
239.431	34.3
239.648	19.97
239.865	7.68
240.083	-6.66
240.3	7.68
240.517	11.78
240.735	-10.75
240.952	-12.8
241.169	-70.14
241.386	-16.9
241.603	17.92
241.821	-20.99
242.038	-25.09
242.255	-31.23
242.472	-23.04
242.689	22.02
242.907	15.87
243.124	3.58
243.341	-12.8
243.558	-12.8
243.775	24.06
243.992	-31.23
244.209	-0.51
244.426	11.78
244.643	17.92
244.86	-33.28
245.078	-27.14
245.295	-6.66
245.512	13.82
245.729	-18.94
245.946	-18.94
246.163	-20.99
246.38	15.87
246.597	71.17
246.814	-8.7
247.031	-31.23
247.248	28.16
247.464	77.31
247.681	56.83
247.898	36.35
248.115	7.68
248.332	-37.38
248.549	42.5
248.766	5.63
248.983	-33.28
249.2	-18.94
249.417	-25.09
249.633	50.69
249.85	3.58
250.067	-35.33
250.284	17.92
250.501	32.26
250.717	-4.61
250.934	3.58
251.151	-10.75
251.368	-66.05
251.585	67.07
251.801	17.92
252.018	13.82
252.235	36.35
252.451	-18.94
252.668	34.3
252.885	-16.9
253.102	-35.33
253.318	-25.09
253.535	46.59
253.752	-33.28
253.968	-4.61
254.185	34.3
254.401	-53.76
254.618	15.87
254.835	40.45
255.051	-8.7
255.268	-2.56
255.484	36.35
255.701	7.68
255.917	46.59
256.134	-29.18
256.351	24.06
256.567	9.73
256.784	89.6
257	-64
257.217	28.16
257.433	-12.8
257.65	46.59
257.866	-37.38
258.082	36.35
258.299	11.78
258.515	1.54
258.732	-123.39
258.948	-51.71
259.165	-23.04
259.381	-8.7
259.597	52.74
259.814	48.64
260.03	11.78
260.246	-25.09
260.463	-8.7
260.679	3.58
260.895	13.82
261.112	-4.61
261.328	7.68
261.544	5.63
261.761	11.78
261.977	-47.62
262.193	-0.51
262.409	52.74
262.626	1.54
262.842	69.12
263.058	3.58
263.274	11.78
263.49	26.11
263.707	-2.56
263.923	-68.09
264.139	-33.28
264.355	17.92
264.571	-16.9
264.787	13.82
265.004	3.58
265.22	-4.61
265.436	3.58
265.652	-27.14
265.868	13.82
266.084	-33.28
266.3	-39.42
266.516	-61.95
266.732	-2.56
266.948	-25.09
267.164	-55.81
267.38	30.21
267.596	19.97
267.812	36.35
268.028	19.97
268.244	-53.76
268.46	-29.18
268.676	-45.57
268.892	-4.61
269.108	-31.23
269.324	-16.9
269.54	-64
269.756	36.35
269.972	-39.42
270.188	-27.14
270.403	11.78
270.619	-45.57
270.835	7.68
271.051	11.78
271.267	34.3
271.483	-51.71
271.698	7.68
271.914	-23.04
272.13	-45.57
272.346	15.87
272.562	38.4
272.777	46.59
272.993	9.73
273.209	-27.14
273.425	26.11
273.64	-43.52
273.856	30.21
274.072	-33.28
274.287	-33.28
274.503	24.06
274.719	1.54
274.934	-20.99
275.15	-16.9
275.366	-41.47
275.581	-45.57
275.797	79.36
276.012	-16.9
276.228	-4.61
276.444	-16.9
276.659	13.82
276.875	-53.76
277.09	-61.95
277.306	71.17
277.521	-4.61
277.737	-12.8
277.952	-53.76
278.168	-0.51
278.383	-27.14
278.599	-68.09
278.814	32.26
279.03	-74.24
279.245	26.11
279.461	-18.94
279.676	15.87
279.892	44.54
280.107	32.26
280.322	-49.66
280.538	9.73
280.753	38.4
280.969	-10.75
281.184	32.26
281.399	58.88
281.615	-41.47
281.83	28.16
282.045	5.63
282.26	-72.19
282.476	-59.9
282.691	62.98
282.906	-70.14
283.122	40.45
283.337	13.82
283.552	-23.04
283.767	-29.18
283.983	-18.94
284.198	19.97
284.413	52.74
284.628	-0.51
284.843	9.73
285.058	17.92
285.274	48.64
285.489	-115.2
285.704	17.92
285.919	5.63
286.134	-4.61
286.349	-37.38
286.564	36.35
286.779	3.58
286.995	-4.61
287.21	32.26
287.425	9.73
287.64	-12.8
287.855	60.93
288.07	-4.61
288.285	-43.52
288.5	-74.24
288.715	5.63
288.93	-23.04
289.145	17.92
289.36	-37.38
289.575	-20.99
289.79	-72.19
290.004	-12.8
290.219	-37.38
290.434	73.21
290.649	-37.38
290.864	3.58
291.079	-72.19
291.294	-64
291.509	67.07
291.724	-29.18
291.938	-6.66
292.153	1.54
292.368	-10.75
292.583	13.82
292.798	3.58
293.012	52.74
293.227	-80.38
293.442	19.97
293.657	17.92
293.871	-31.23
294.086	40.45
294.301	36.35
294.516	-0.51
294.73	36.35
294.945	-2.56
295.16	-39.42
295.374	-16.9
295.589	-31.23
295.804	-53.76
296.018	67.07
296.233	-6.66
296.447	36.35
296.662	19.97
296.877	32.26
297.091	15.87
297.306	-33.28
297.52	-4.61
297.735	44.54
297.949	-49.66
298.164	36.35
298.378	-18.94
298.593	32.26
298.807	-6.66
299.022	19.97
299.236	15.87
299.451	-45.57
299.665	7.68
299.88	-45.57
300.094	-68.09
300.309	-27.14
300.523	-33.28
300.737	42.5
300.952	50.69
301.166	32.26
301.381	26.11
301.595	-25.09
301.809	1.54
302.024	46.59
302.238	-18.94
302.452	-51.71
302.667	3.58
302.881	-12.8
303.095	22.02
303.309	-2.56
303.524	44.54
303.738	26.11
303.952	19.97
304.166	-12.8
304.381	28.16
304.595	-4.61
304.809	-66.05
305.023	32.26
305.237	50.69
305.452	-37.38
305.666	77.31
305.88	56.83
306.094	-25.09
306.308	-35.33
306.522	32.26
306.736	-2.56
306.95	19.97
307.164	-12.8
307.379	40.45
307.593	62.98
307.807	-41.47
308.021	17.92
308.235	1.54
308.449	1.54
308.663	15.87
308.877	17.92
309.091	-25.09
309.305	-2.56
309.519	13.82
309.733	-12.8
309.947	32.26
310.161	79.36
310.374	28.16
310.588	9.73
310.802	28.16
311.016	-2.56
311.23	56.83
311.444	26.11
311.658	-8.7
311.872	-86.53
312.085	28.16
312.299	9.73
312.513	15.87
312.727	-2.56
312.941	-31.23
313.154	48.64
313.368	3.58
313.582	11.78
313.796	-12.8
314.009	38.4
314.223	56.83
314.437	28.16
314.651	-33.28
314.864	42.5
315.078	-23.04
315.292	-25.09
315.505	22.02
315.719	69.12
315.933	-18.94
316.146	-35.33
316.36	-2.56
316.573	5.63
316.787	-45.57
317.001	-33.28
317.214	-64
317.428	-64
317.641	-14.85
317.855	-6.66
318.068	-64
318.282	17.92
318.495	58.88
318.709	36.35
318.922	24.06
319.136	-31.23
319.349	9.73
319.563	30.21
319.776	15.87
319.99	13.82
320.203	11.78
320.417	24.06
320.63	13.82
320.843	54.78
321.057	-25.09
321.27	-27.14
321.483	15.87
321.697	-8.7
321.91	-53.76
322.124	28.16
322.337	69.12
322.55	36.35
322.763	91.65
322.977	54.78
323.19	-23.04
323.403	24.06
323.617	30.21
323.83	-4.61
324.043	50.69
324.256	32.26
324.469	32.26
324.683	93.69
324.896	-39.42
325.109	69.12
325.322	-72.19
325.535	28.16
325.748	32.26
325.962	56.83
326.175	-23.04
326.388	-2.56
326.601	-29.18
326.814	5.63
327.027	34.3
327.24	32.26
327.453	-0.51
327.666	36.35
327.879	30.21
328.092	-39.42
328.305	60.93
328.518	-0.51
328.731	17.92
328.944	44.54
329.157	19.97
329.37	-12.8
329.583	-25.09
329.796	40.45
330.009	5.63
330.222	34.3
330.435	-10.75
330.648	-37.38
330.861	1.54
331.073	-12.8
331.286	-10.75
331.499	46.59
331.712	-45.57
331.925	-23.04
332.138	-4.61
332.35	-86.53
332.563	-0.51
332.776	54.78
332.989	22.02
333.202	9.73
333.414	-33.28
333.627	38.4
333.84	19.97
334.053	34.3
334.265	-39.42
334.478	19.97
334.691	-51.71
334.903	-100.86
335.116	-12.8
335.329	11.78
335.541	19.97
335.754	1.54
335.966	62.98
336.179	-2.56
336.392	-23.04
336.604	30.21
336.817	15.87
337.029	-47.62
337.242	-61.95
337.454	-0.51
337.667	9.73
337.88	13.82
338.092	-33.28
338.305	28.16
338.517	-8.7
338.729	26.11
338.942	9.73
339.154	-10.75
339.367	-16.9
339.579	19.97
339.792	-0.51
340.004	-27.14
340.217	-41.47
340.429	17.92
340.641	-33.28
340.854	17.92
341.066	52.74
341.278	-59.9
341.491	22.02
341.703	-51.71
341.915	3.58
342.128	40.45
342.34	-8.7
342.552	-23.04
342.764	126.46
342.977	-10.75
343.189	9.73
343.401	-12.8
343.613	-6.66
343.826	34.3
344.038	-33.28
344.25	-0.51
344.462	9.73
344.674	28.16
344.886	-49.66
345.099	-16.9
345.311	-10.75
345.523	7.68
345.735	5.63
345.947	-2.56
346.159	46.59
346.371	42.5
346.583	-29.18
346.795	54.78
347.007	13.82
347.219	-2.56
347.431	-12.8
347.643	11.78
347.855	36.35
348.067	34.3
348.279	40.45
348.491	9.73
348.703	13.82
348.915	5.63
349.127	-37.38
349.339	15.87
349.551	-16.9
349.763	5.63
349.975	-53.76
350.187	-37.38
350.399	5.63
350.61	36.35
350.822	-37.38
351.034	38.4
351.246	-12.8
351.458	-4.61
351.669	-57.86
351.881	62.98
352.093	-43.52
352.305	50.69
352.517	-29.18
352.728	60.93
352.94	58.88
353.152	48.64
353.363	65.02
353.575	65.02
353.787	17.92
353.999	56.83
354.21	-29.18
354.422	5.63
354.633	91.65
354.845	30.21
355.057	-10.75
355.268	-18.94
355.48	1.54
355.692	-31.23
355.903	-25.09
356.115	-12.8
356.326	13.82
356.538	5.63
356.749	22.02
356.961	69.12
357.172	77.31
357.384	11.78
357.595	-2.56
357.807	5.63
358.018	-14.85
358.23	36.35
358.441	-10.75
358.653	-6.66
358.864	-8.7
359.075	1.54
359.287	-8.7
359.498	30.21
359.709	9.73
359.921	85.5
360.132	-25.09
360.344	46.59
360.555	-45.57
360.766	15.87
360.977	-20.99
361.189	3.58
361.4	-12.8
361.611	-10.75
361.823	5.63
362.034	-33.28
362.245	-23.04
362.456	-23.04
362.667	-18.94
362.879	3.58
363.09	-96.77
363.301	-0.51
363.512	-49.66
363.723	69.12
363.935	22.02
364.146	-2.56
364.357	-39.42
364.568	71.17
364.779	9.73
364.99	-35.33
365.201	3.58
365.412	58.88
365.623	13.82
365.834	32.26
366.045	24.06
366.256	5.63
366.467	-27.14
366.678	34.3
366.889	38.4
367.1	48.64
367.311	46.59
367.522	-35.33
367.733	52.74
367.944	32.26
368.155	-10.75
368.366	38.4
368.577	-37.38
368.788	40.45
368.999	42.5
369.209	-2.56
369.42	65.02
369.631	-20.99
369.842	-4.61
370.053	40.45
370.264	-25.09
370.474	-14.85
370.685	19.97
370.896	-25.09
371.107	17.92
371.317	-27.14
371.528	5.63
371.739	71.17
371.95	9.73
372.16	28.16
372.371	-80.38
372.582	22.02
372.792	54.78
373.003	32.26
373.214	-2.56
373.424	30.21
373.635	-35.33
373.846	22.02
374.056	48.64
374.267	77.31
374.477	7.68
374.688	32.26
374.898	-20.99
375.109	13.82
375.319	-39.42
375.53	44.54
375.74	46.59
375.951	-2.56
376.161	-16.9
376.372	42.5
376.582	56.83
376.793	-31.23
377.003	13.82
377.214	-2.56
377.424	-0.51
377.635	60.93
377.845	28.16
378.055	5.63
378.266	1.54
378.476	67.07
378.686	26.11
378.897	3.58
379.107	26.11
379.317	28.16
379.528	46.59
379.738	30.21
379.948	-35.33
380.158	1.54
380.369	36.35
380.579	-4.61
380.789	46.59
380.999	-0.51
381.21	-16.9
381.42	69.12
381.63	-53.76
381.84	32.26
382.05	110.08
382.261	38.4
382.471	44.54
382.681	-33.28
382.891	42.5
383.101	-23.04
383.311	-8.7
383.521	-45.57
383.731	-43.52
383.941	62.98
384.151	-20.99
384.361	22.02
384.571	24.06
384.781	19.97
384.991	36.35
385.201	-37.38
385.411	48.64
385.621	-8.7
385.831	-0.51
386.041	30.21
386.251	-20.99
386.461	22.02
386.671	11.78
386.881	65.02
387.091	-45.57
387.301	9.73
387.511	81.41
387.72	-10.75
387.93	40.45
388.14	-74.24
388.35	-49.66
388.56	40.45
388.769	56.83
388.979	30.21
389.189	13.82
389.399	65.02
389.609	-6.66
389.818	52.74
390.028	60.93
390.238	3.58
390.447	-33.28
390.657	60.93
390.867	58.88
391.076	26.11
391.286	34.3
391.496	48.64
391.705	-4.61
391.915	-2.56
392.125	52.74
392.334	3.58
392.544	67.07
392.753	-18.94
392.963	17.92
393.172	73.21
393.382	3.58
393.591	19.97
393.801	3.58
394.01	9.73
394.22	-35.33
394.429	11.78
394.639	-18.94
394.848	38.4
395.058	30.21
395.267	112.13
395.477	-29.18
395.686	62.98
395.895	13.82
396.105	-8.7
396.314	13.82
396.524	-27.14
396.733	15.87
396.942	67.07
397.152	46.59
397.361	3.58
397.57	-12.8
397.78	50.69
397.989	54.78
398.198	62.98
398.407	91.65
398.617	83.45
398.826	54.78
399.035	36.35
399.244	15.87
399.453	28.16
399.663	87.55
399.872	-25.09
400.081	3.58
400.29	34.3
400.499	-14.85
400.708	19.97
400.917	-29.18
401.127	19.97
401.336	85.5
401.545	114.17
401.754	26.11
401.963	67.07
402.172	-2.56
402.381	71.17
402.59	24.06
402.799	5.63
403.008	9.73
403.217	15.87
403.426	19.97
403.635	93.69
403.844	87.55
404.053	134.65
404.262	46.59
404.471	93.69
404.68	73.21
404.888	34.3
405.097	34.3
405.306	99.84
405.515	30.21
405.724	73.21
405.933	60.93
406.142	42.5
406.35	77.31
406.559	62.98
406.768	73.21
406.977	75.26
407.185	79.36
407.394	85.5
407.603	38.4
407.812	89.6
408.02	116.22
408.229	142.85
408.438	46.59
408.646	17.92
408.855	118.27
409.064	44.54
409.272	44.54
409.481	73.21
409.69	112.13
409.898	136.7
410.107	144.89
410.315	183.81
410.524	138.75
410.733	159.23
410.941	163.33
411.15	161.28
411.358	189.95
411.567	220.67
411.775	140.8
411.984	103.93
412.192	163.33
412.401	130.56
412.609	124.41
412.818	179.71
413.026	153.09
413.234	189.95
413.443	245.24
413.651	155.13
413.86	261.63
414.068	200.19
414.276	212.48
414.485	257.53
414.693	245.24
414.901	306.68
415.11	251.39
415.318	216.57
415.526	300.54
415.734	345.59
415.943	261.63
416.151	296.44
416.359	241.15
416.567	355.83
416.776	325.12
416.984	310.78
417.192	376.31
417.4	388.6
417.608	353.79
417.817	423.42
418.025	407.03
418.233	421.37
418.441	450.04
418.649	534.01
418.857	458.23
419.065	507.38
419.273	540.15
419.481	478.71
419.689	525.82
419.897	624.12
420.105	597.49
420.313	622.07
420.521	599.54
420.729	701.94
420.937	769.52
421.145	689.65
421.353	703.99
421.561	781.81
421.769	759.28
421.977	806.39
422.185	787.96
422.393	833.01
422.601	902.64
422.809	865.78
423.017	853.49
423.224	937.46
423.432	986.61
423.64	986.61
423.848	1021.42
424.056	1086.96
424.263	1035.76
424.471	1119.73
424.679	1197.55
424.887	1142.25
425.094	1195.5
425.302	1193.45
425.51	1308.14
425.718	1308.14
425.925	1326.57
426.133	1377.77
426.341	1519.08
426.548	1592.81
426.756	1347.05
426.964	1521.13
427.171	1689.06
427.379	1603.05
427.586	1633.77
427.794	1773.03
428.001	1762.79
428.209	1959.39
428.417	1930.72
428.624	2031.07
428.832	1990.11
429.039	2035.17
429.247	2104.8
429.454	2221.53
429.662	2393.56
429.869	2125.28
430.076	2405.85
430.284	2311.64
430.491	2416.09
430.699	2563.54
430.906	2577.88
431.114	2457.05
431.321	2635.22
431.528	2696.66
431.736	2715.09
431.943	3003.86
432.15	2790.87
432.358	2874.84
432.565	2989.52
432.772	3010
432.979	3208.66
433.187	3442.12
433.394	3321.29
433.601	3517.9
433.808	3466.7
434.016	3487.18
434.223	3552.71
434.43	3954.12
434.637	3691.98
434.844	4048.32
435.052	4093.38
435.259	4081.09
435.466	4183.49
435.673	4167.1
435.88	4398.52
436.087	4576.7
436.294	4629.95
436.501	4505.02
436.708	4726.2
436.915	4742.58
437.122	4877.75
437.329	4943.28
437.537	5012.92
437.743	5002.68
437.95	5049.78
438.157	5404.08
438.364	5504.43
438.571	5545.39
438.778	5569.96
438.985	6253.98
439.192	5934.5
439.399	6024.61
439.606	5911.97
439.813	6319.52
440.02	6653.34
440.227	6557.08
440.433	6563.23
440.64	6583.71
440.847	6499.74
441.054	6864.28
441.261	7308.69
441.467	7214.48
441.674	7253.39
441.881	7493.01
442.088	7435.66
442.294	7644.56
442.501	7859.59
442.708	7777.67
442.914	8226.18
443.121	8547.71
443.328	8226.18
443.534	8670.59
443.741	8768.89
443.948	8549.76
444.154	9158
444.361	8975.74
444.568	9110.9
444.774	9092.47
444.981	9190.77
445.187	9520.49
445.394	10153.32
445.6	9983.34
445.807	10495.33
446.013	10122.6
446.22	10440.03
446.426	10734.94
446.633	10970.46
446.839	11285.84
447.046	10966.36
447.252	11619.66
447.459	11400.53
447.665	11468.11
447.871	11889.99
448.078	12512.58
448.284	11910.47
448.491	12096.84
448.697	12426.56
448.903	12815.68
449.11	12821.82
449.316	12727.61
449.522	12821.82
449.728	13325.62
449.935	13344.05
450.141	13251.89
450.347	13540.66
450.553	13110.58
450.76	13387.06
450.966	13864.24
451.172	13778.22
451.378	14054.7
451.584	13628.72
451.791	13675.82
451.997	13759.79
452.203	14148.9
452.409	14060.84
452.615	14089.51
452.821	13503.79
453.027	13290.81
453.233	14050.6
453.44	13544.75
453.646	13638.96
453.852	13694.26
454.058	14150.95
454.264	13507.89
454.47	14052.65
454.676	13442.35
454.882	14134.57
455.088	12866.88
455.294	12975.42
455.5	13045.05
455.705	13407.54
455.911	12447.04
456.117	12531.01
456.323	12242.25
456.529	11582.8
456.735	12369.22
456.941	11838.8
457.147	11806.03
457.352	11302.23
457.558	11025.75
457.764	11117.91
457.97	10786.14
458.176	10487.14
458.381	10775.9
458.587	10028.39
458.793	10192.23
458.999	9559.41
459.204	10261.86
459.41	10175.84
459.616	9330.03
459.821	9522.54
460.027	9403.76
460.233	9219.44
460.438	8701.31
460.644	8793.47
460.85	8564.09
461.055	8332.67
461.261	8357.25
461.466	7632.27
461.672	7544.2
461.878	7906.7
462.083	7493.01
462.289	7306.64
462.494	7406.99
462.7	6903.19
462.905	6874.52
463.111	7005.59
463.316	6933.91
463.522	6923.67
463.727	6778.26
463.932	6950.29
464.138	6892.95
464.343	6737.31
464.549	6679.96
464.754	6851.99
464.959	6849.94
465.165	6778.26
465.37	6387.1
465.575	6223.27
465.781	6641.05
465.986	6647.19
466.191	6198.69
466.397	6301.09
466.602	6061.48
466.807	6129.06
467.012	6180.26
467.218	6112.67
467.423	6084
467.628	6188.45
467.833	6434.21
468.038	6116.77
468.244	5961.13
468.449	6051.24
