Data from USB4F104151__175__13-58-57-271.txt Node

Date: Thu Mar 13 13:58:57 EDT 2025
User: louis
Spectrometer: USB4F10415
Trigger mode: 4
Integration Time (sec): 1.000000E-2
Scans to average: 1
Electric dark correction enabled: true
Nonlinearity correction enabled: false
Boxcar width: 0
XAxis mode: Wavelengths
Number of Pixels in Spectrum: 3648
>>>>>Begin Spectral Data<<<<<
178.204	-17.24
178.424	-17.24
178.644	-17.24
178.864	-90.96
179.084	72.87
179.304	31.91
179.524	13.48
179.744	11.43
179.964	44.2
180.184	-15.19
180.404	3.24
180.624	-0.85
180.844	-13.14
181.064	-21.33
181.283	-4.95
181.503	-68.44
181.723	19.63
181.943	-41.81
182.163	5.29
182.383	52.39
182.602	56.49
182.822	40.11
183.042	-9.05
183.262	-29.52
183.482	11.43
183.701	11.43
183.921	19.63
184.141	-31.57
184.361	-35.67
184.58	81.07
184.8	13.48
185.02	-31.57
185.239	48.3
185.459	23.72
185.679	79.02
185.898	-95.06
186.118	111.78
186.338	54.44
186.557	72.87
186.777	-19.29
186.997	19.63
187.216	3.24
187.436	15.53
187.655	5.29
187.875	115.88
188.095	27.82
188.314	105.64
188.534	105.64
188.753	21.67
188.973	58.54
189.192	44.2
189.412	31.91
189.631	-25.43
189.851	23.72
190.07	38.06
190.29	76.97
190.509	44.2
190.729	38.06
190.948	36.01
191.168	68.78
191.387	44.2
191.607	27.82
191.826	7.34
192.045	46.25
192.265	5.29
192.484	31.91
192.704	-11.09
192.923	5.29
193.142	52.39
193.362	38.06
193.581	79.02
193.8	52.39
194.02	-2.9
194.239	29.87
194.458	64.68
194.678	-4.95
194.897	27.82
195.116	15.53
195.335	23.72
195.555	-11.09
195.774	85.16
195.993	33.96
196.212	54.44
196.432	54.44
196.651	44.2
196.87	3.24
197.089	68.78
197.308	-4.95
197.528	87.21
197.747	-2.9
197.966	68.78
198.185	33.96
198.404	44.2
198.623	-11.09
198.842	25.77
199.062	3.24
199.281	97.45
199.5	-13.14
199.719	85.16
199.938	29.87
200.157	58.54
200.376	1.19
200.595	-21.33
200.814	87.21
201.033	-33.62
201.252	58.54
201.471	9.39
201.69	7.34
201.909	-4.95
202.128	62.63
202.347	27.82
202.566	50.35
202.785	44.2
203.004	11.43
203.223	64.68
203.442	15.53
203.661	-9.05
203.879	19.63
204.098	95.4
204.317	-41.81
204.536	38.06
204.755	40.11
204.974	87.21
205.193	-9.05
205.411	48.3
205.63	54.44
205.849	81.07
206.068	-52.05
206.287	40.11
206.505	58.54
206.724	46.25
206.943	42.15
207.162	56.49
207.381	56.49
207.599	58.54
207.818	29.87
208.037	38.06
208.255	27.82
208.474	33.96
208.693	-19.29
208.911	31.91
209.13	11.43
209.349	72.87
209.567	27.82
209.786	99.5
210.005	31.91
210.223	64.68
210.442	85.16
210.661	-17.24
210.879	23.72
211.098	44.2
211.316	29.87
211.535	-9.05
211.753	31.91
211.972	68.78
212.191	52.39
212.409	36.01
212.628	27.82
212.846	87.21
213.065	-17.24
213.283	-25.43
213.502	44.2
213.72	-7
213.938	83.11
214.157	33.96
214.375	50.35
214.594	-60.24
214.812	44.2
215.031	1.19
215.249	11.43
215.467	3.24
215.686	-25.43
215.904	9.39
216.122	19.63
216.341	54.44
216.559	56.49
216.778	68.78
216.996	60.59
217.214	44.2
217.432	25.77
217.651	5.29
217.869	-45.91
218.087	29.87
218.306	40.11
218.524	9.39
218.742	25.77
218.96	40.11
219.179	76.97
219.397	-21.33
219.615	66.73
219.833	9.39
220.051	52.39
220.27	1.19
220.488	5.29
220.706	50.35
220.924	44.2
221.142	54.44
221.36	40.11
221.578	23.72
221.796	44.2
222.015	64.68
222.233	7.34
222.451	113.83
222.669	58.54
222.887	52.39
223.105	-19.29
223.323	46.25
223.541	-25.43
223.759	-64.34
223.977	-9.05
224.195	23.72
224.413	31.91
224.631	54.44
224.849	15.53
225.067	19.63
225.285	-11.09
225.503	25.77
225.721	-4.95
225.939	38.06
226.157	38.06
226.375	91.31
226.592	62.63
226.81	13.48
227.028	76.97
227.246	11.43
227.464	21.67
227.682	76.97
227.9	54.44
228.117	9.39
228.335	3.24
228.553	62.63
228.771	9.39
228.989	79.02
229.206	103.59
229.424	60.59
229.642	50.35
229.86	27.82
230.077	3.24
230.295	-37.72
230.513	72.87
230.731	38.06
230.948	46.25
231.166	48.3
231.384	19.63
231.601	9.39
231.819	-33.62
232.037	17.58
232.254	23.72
232.472	-52.05
232.689	13.48
232.907	33.96
233.125	27.82
233.342	11.43
233.56	13.48
233.777	15.53
233.995	58.54
234.213	40.11
234.43	-33.62
234.648	-0.85
234.865	62.63
235.083	-2.9
235.3	-15.19
235.518	54.44
235.735	27.82
235.953	17.58
236.17	36.01
236.388	27.82
236.605	-2.9
236.822	36.01
237.04	11.43
237.257	19.63
237.475	-13.14
237.692	70.83
237.909	62.63
238.127	38.06
238.344	9.39
238.562	74.92
238.779	17.58
238.996	58.54
239.214	-4.95
239.431	72.87
239.648	81.07
239.865	119.98
240.083	38.06
240.3	56.49
240.517	-23.38
240.735	85.16
240.952	36.01
241.169	38.06
241.386	40.11
241.603	-7
241.821	-4.95
242.038	38.06
242.255	33.96
242.472	-35.67
242.689	-11.09
242.907	-13.14
243.124	72.87
243.341	27.82
243.558	7.34
243.775	27.82
243.992	44.2
244.209	74.92
244.426	70.83
244.643	36.01
244.86	66.73
245.078	-23.38
245.295	74.92
245.512	60.59
245.729	9.39
245.946	-25.43
246.163	33.96
246.38	54.44
246.597	44.2
246.814	117.93
247.031	44.2
247.248	21.67
247.464	38.06
247.681	60.59
247.898	31.91
248.115	66.73
248.332	68.78
248.549	70.83
248.766	25.77
248.983	68.78
249.2	-29.52
249.417	99.5
249.633	29.87
249.85	50.35
250.067	36.01
250.284	42.15
250.501	72.87
250.717	-13.14
250.934	36.01
251.151	31.91
251.368	25.77
251.585	64.68
251.801	126.12
252.018	7.34
252.235	21.67
252.451	29.87
252.668	-9.05
252.885	66.73
253.102	62.63
253.318	27.82
253.535	40.11
253.752	52.39
253.968	-39.76
254.185	5.29
254.401	54.44
254.618	3.24
254.835	3.24
255.051	109.74
255.268	-31.57
255.484	44.2
255.701	29.87
255.917	21.67
256.134	-11.09
256.351	115.88
256.567	-11.09
256.784	7.34
257	-11.09
257.217	54.44
257.433	23.72
257.65	-4.95
257.866	5.29
258.082	54.44
258.299	5.29
258.515	48.3
258.732	-11.09
258.948	46.25
259.165	23.72
259.381	36.01
259.597	-21.33
259.814	27.82
260.03	-70.48
260.246	109.74
260.463	-54.1
260.679	15.53
260.895	40.11
261.112	56.49
261.328	-45.91
261.544	56.49
261.761	132.26
261.977	136.36
262.193	-21.33
262.409	29.87
262.626	95.4
262.842	-21.33
263.058	85.16
263.274	13.48
263.49	23.72
263.707	79.02
263.923	76.97
264.139	-21.33
264.355	11.43
264.571	136.36
264.787	81.07
265.004	17.58
265.22	-13.14
265.436	-41.81
265.652	-43.86
265.868	95.4
266.084	21.67
266.3	11.43
266.516	-4.95
266.732	29.87
266.948	29.87
267.164	-4.95
267.38	60.59
267.596	44.2
267.812	60.59
268.028	-25.43
268.244	-35.67
268.46	33.96
268.676	-13.14
268.892	42.15
269.108	101.55
269.324	-0.85
269.54	31.91
269.756	44.2
269.972	-17.24
270.188	-4.95
270.403	-7
270.619	72.87
270.835	-45.91
271.051	11.43
271.267	60.59
271.483	19.63
271.698	21.67
271.914	-19.29
272.13	21.67
272.346	76.97
272.562	101.55
272.777	119.98
272.993	-41.81
273.209	3.24
273.425	76.97
273.64	33.96
273.856	74.92
274.072	117.93
274.287	81.07
274.503	103.59
274.719	-7
274.934	62.63
275.15	46.25
275.366	-0.85
275.581	11.43
275.797	33.96
276.012	54.44
276.228	79.02
276.444	15.53
276.659	68.78
276.875	19.63
277.09	-9.05
277.306	-11.09
277.521	17.58
277.737	9.39
277.952	27.82
278.168	19.63
278.383	56.49
278.599	21.67
278.814	105.64
279.03	17.58
279.245	56.49
279.461	36.01
279.676	25.77
279.892	-21.33
280.107	38.06
280.322	17.58
280.538	25.77
280.753	15.53
280.969	85.16
281.184	5.29
281.399	76.97
281.615	74.92
281.83	66.73
282.045	31.91
282.26	50.35
282.476	58.54
282.691	66.73
282.906	-0.85
283.122	40.11
283.337	-15.19
283.552	85.16
283.767	33.96
283.983	29.87
284.198	21.67
284.413	27.82
284.628	95.4
284.843	44.2
285.058	76.97
285.274	1.19
285.489	62.63
285.704	-35.67
285.919	1.19
286.134	38.06
286.349	-11.09
286.564	52.39
286.779	5.29
286.995	44.2
287.21	17.58
287.425	21.67
287.64	-0.85
287.855	19.63
288.07	-33.62
288.285	76.97
288.5	11.43
288.715	62.63
288.93	1.19
289.145	36.01
289.36	101.55
289.575	33.96
289.79	85.16
290.004	64.68
290.219	15.53
290.434	56.49
290.649	19.63
290.864	27.82
291.079	-17.24
291.294	5.29
291.509	33.96
291.724	68.78
291.938	58.54
292.153	-29.52
292.368	52.39
292.583	29.87
292.798	-4.95
293.012	72.87
293.227	50.35
293.442	81.07
293.657	72.87
293.871	83.11
294.086	87.21
294.301	44.2
294.516	-19.29
294.73	79.02
294.945	36.01
295.16	-11.09
295.374	97.45
295.589	70.83
295.804	29.87
296.018	107.69
296.233	-2.9
296.447	58.54
296.662	5.29
296.877	40.11
297.091	29.87
297.306	29.87
297.52	-29.52
297.735	25.77
297.949	-13.14
298.164	50.35
298.378	17.58
298.593	56.49
298.807	85.16
299.022	36.01
299.236	-19.29
299.451	56.49
299.665	31.91
299.88	62.63
300.094	66.73
300.309	76.97
300.523	48.3
300.737	11.43
300.952	19.63
301.166	76.97
301.381	25.77
301.595	68.78
301.809	54.44
302.024	68.78
302.238	-7
302.452	115.88
302.667	46.25
302.881	72.87
303.095	23.72
303.309	85.16
303.524	9.39
303.738	68.78
303.952	-33.62
304.166	-21.33
304.381	5.29
304.595	95.4
304.809	1.19
305.023	54.44
305.237	17.58
305.452	91.31
305.666	48.3
305.88	36.01
306.094	-4.95
306.308	-4.95
306.522	42.15
306.736	23.72
306.95	-21.33
307.164	-21.33
307.379	-0.85
307.593	79.02
307.807	54.44
308.021	87.21
308.235	107.69
308.449	-33.62
308.663	36.01
308.877	23.72
309.091	-88.92
309.305	62.63
309.519	-4.95
309.733	101.55
309.947	50.35
310.161	23.72
310.374	58.54
310.588	42.15
310.802	19.63
311.016	3.24
311.23	44.2
311.444	17.58
311.658	-4.95
311.872	62.63
312.085	19.63
312.299	21.67
312.513	-0.85
312.727	17.58
312.941	19.63
313.154	-25.43
313.368	3.24
313.582	85.16
313.796	31.91
314.009	36.01
314.223	38.06
314.437	27.82
314.651	60.59
314.864	44.2
315.078	-43.86
315.292	87.21
315.505	5.29
315.719	44.2
315.933	15.53
316.146	46.25
316.36	36.01
316.573	66.73
316.787	52.39
317.001	50.35
317.214	64.68
317.428	-31.57
317.641	-54.1
317.855	42.15
318.068	85.16
318.282	64.68
318.495	70.83
318.709	79.02
318.922	54.44
319.136	109.74
319.349	-25.43
319.563	62.63
319.776	-21.33
319.99	40.11
320.203	58.54
320.417	27.82
320.63	31.91
320.843	64.68
321.057	-43.86
321.27	33.96
321.483	-29.52
321.697	60.59
321.91	79.02
322.124	44.2
322.337	-0.85
322.55	93.35
322.763	-7
322.977	95.4
323.19	1.19
323.403	36.01
323.617	68.78
323.83	-39.76
324.043	-7
324.256	-9.05
324.469	40.11
324.683	91.31
324.896	23.72
325.109	21.67
325.322	56.49
325.535	85.16
325.748	-11.09
325.962	46.25
326.175	36.01
326.388	11.43
326.601	-0.85
326.814	60.59
327.027	44.2
327.24	111.78
327.453	56.49
327.666	52.39
327.879	11.43
328.092	-35.67
328.305	11.43
328.518	-2.9
328.731	64.68
328.944	36.01
329.157	40.11
329.37	60.59
329.583	29.87
329.796	95.4
330.009	52.39
330.222	-17.24
330.435	38.06
330.648	-19.29
330.861	111.78
331.073	-45.91
331.286	60.59
331.499	11.43
331.712	11.43
331.925	7.34
332.138	33.96
332.35	19.63
332.563	-25.43
332.776	91.31
332.989	68.78
333.202	76.97
333.414	11.43
333.627	13.48
333.84	50.35
334.053	11.43
334.265	48.3
334.478	-2.9
334.691	36.01
334.903	44.2
335.116	99.5
335.329	11.43
335.541	17.58
335.754	17.58
335.966	85.16
336.179	29.87
336.392	36.01
336.604	62.63
336.817	29.87
337.029	11.43
337.242	9.39
337.454	52.39
337.667	60.59
337.88	64.68
338.092	25.77
338.305	23.72
338.517	42.15
338.729	17.58
338.942	54.44
339.154	5.29
339.367	11.43
339.579	76.97
339.792	19.63
340.004	101.55
340.217	-23.38
340.429	62.63
340.641	-9.05
340.854	79.02
341.066	89.26
341.278	44.2
341.491	56.49
341.703	97.45
341.915	58.54
342.128	3.24
342.34	36.01
342.552	60.59
342.764	3.24
342.977	122.02
343.189	7.34
343.401	52.39
343.613	97.45
343.826	38.06
344.038	-25.43
344.25	5.29
344.462	74.92
344.674	11.43
344.886	74.92
345.099	38.06
345.311	3.24
345.523	95.4
345.735	36.01
345.947	27.82
346.159	23.72
346.371	5.29
346.583	-58.2
346.795	56.49
347.007	1.19
347.219	36.01
347.431	93.35
347.643	42.15
347.855	3.24
348.067	38.06
348.279	-0.85
348.491	62.63
348.703	60.59
348.915	101.55
349.127	58.54
349.339	70.83
349.551	44.2
349.763	111.78
349.975	1.19
350.187	62.63
350.399	9.39
350.61	56.49
350.822	-25.43
351.034	111.78
351.246	23.72
351.458	17.58
351.669	-17.24
351.881	52.39
352.093	66.73
352.305	91.31
352.517	44.2
352.728	66.73
352.94	70.83
353.152	9.39
353.363	50.35
353.575	27.82
353.787	58.54
353.999	162.98
354.21	13.48
354.422	66.73
354.633	29.87
354.845	44.2
355.057	44.2
355.268	93.35
355.48	54.44
355.692	56.49
355.903	-41.81
356.115	46.25
356.326	29.87
356.538	64.68
356.749	70.83
356.961	111.78
357.172	54.44
357.384	74.92
357.595	95.4
357.807	25.77
358.018	103.59
358.23	52.39
358.441	93.35
358.653	33.96
358.864	31.91
359.075	52.39
359.287	79.02
359.498	85.16
359.709	97.45
359.921	46.25
360.132	85.16
360.344	21.67
360.555	17.58
360.766	46.25
360.977	52.39
361.189	23.72
361.4	81.07
361.611	85.16
361.823	19.63
362.034	113.83
362.245	40.11
362.456	87.21
362.667	107.69
362.879	23.72
363.09	60.59
363.301	50.35
363.512	19.63
363.723	76.97
363.935	54.44
364.146	44.2
364.357	50.35
364.568	23.72
364.779	29.87
364.99	97.45
365.201	-23.38
365.412	93.35
365.623	27.82
365.834	38.06
366.045	58.54
366.256	27.82
366.467	81.07
366.678	38.06
366.889	89.26
367.1	-2.9
367.311	17.58
367.522	52.39
367.733	42.15
367.944	21.67
368.155	-11.09
368.366	66.73
368.577	117.93
368.788	50.35
368.999	31.91
369.209	27.82
369.42	29.87
369.631	3.24
369.842	38.06
370.053	9.39
370.264	56.49
370.474	5.29
370.685	-17.24
370.896	83.11
371.107	36.01
371.317	74.92
371.528	70.83
371.739	56.49
371.95	31.91
372.16	-2.9
372.371	21.67
372.582	58.54
372.792	70.83
373.003	44.2
373.214	33.96
373.424	-19.29
373.635	-2.9
373.846	33.96
374.056	58.54
374.267	-0.85
374.477	126.12
374.688	38.06
374.898	7.34
375.109	52.39
375.319	46.25
375.53	91.31
375.74	83.11
375.951	23.72
376.161	148.65
376.372	15.53
376.582	11.43
376.793	23.72
377.003	62.63
377.214	-4.95
377.424	11.43
377.635	62.63
377.845	79.02
378.055	68.78
378.266	54.44
378.476	36.01
378.686	79.02
378.897	58.54
379.107	44.2
379.317	109.74
379.528	5.29
379.738	46.25
379.948	11.43
380.158	60.59
380.369	46.25
380.579	5.29
380.789	64.68
380.999	25.77
381.21	38.06
381.42	19.63
381.63	142.5
381.84	87.21
382.05	21.67
382.261	25.77
382.471	44.2
382.681	128.17
382.891	21.67
383.101	66.73
383.311	46.25
383.521	107.69
383.731	21.67
383.941	58.54
384.151	56.49
384.361	58.54
384.571	58.54
384.781	23.72
384.991	38.06
385.201	109.74
385.411	11.43
385.621	44.2
385.831	-17.24
386.041	25.77
386.251	95.4
386.461	89.26
386.671	15.53
386.881	81.07
387.091	11.43
387.301	33.96
387.511	101.55
387.72	150.7
387.93	56.49
388.14	48.3
388.35	74.92
388.56	29.87
388.769	87.21
388.979	64.68
389.189	23.72
389.399	81.07
389.609	66.73
389.818	46.25
390.028	-7
390.238	91.31
390.447	-9.05
390.657	72.87
390.867	-35.67
391.076	29.87
391.286	101.55
391.496	42.15
391.705	64.68
391.915	23.72
392.125	64.68
392.334	89.26
392.544	38.06
392.753	21.67
392.963	19.63
393.172	60.59
393.382	60.59
393.591	79.02
393.801	48.3
394.01	66.73
394.22	52.39
394.429	89.26
394.639	91.31
394.848	76.97
395.058	-13.14
395.267	48.3
395.477	11.43
395.686	103.59
395.895	91.31
396.105	52.39
396.314	52.39
396.524	68.78
396.733	66.73
396.942	1.19
397.152	101.55
397.361	91.31
397.57	95.4
397.78	85.16
397.989	68.78
398.198	154.79
398.407	64.68
398.617	81.07
398.826	33.96
399.035	52.39
399.244	105.64
399.453	111.78
399.663	46.25
399.872	150.7
400.081	119.98
400.29	72.87
400.499	60.59
400.708	109.74
400.917	89.26
401.127	85.16
401.336	54.44
401.545	105.64
401.754	91.31
401.963	185.51
402.172	126.12
402.381	117.93
402.59	46.25
402.799	134.31
403.008	76.97
403.217	91.31
403.426	72.87
403.635	19.63
403.844	93.35
404.053	109.74
404.262	97.45
404.471	183.46
404.68	130.22
404.888	87.21
405.097	54.44
405.306	150.7
405.515	111.78
405.724	93.35
405.933	52.39
406.142	72.87
406.35	91.31
406.559	140.46
406.768	109.74
406.977	150.7
407.185	54.44
407.394	91.31
407.603	167.08
407.812	117.93
408.02	134.31
408.229	210.09
408.438	95.4
408.646	119.98
408.855	199.85
409.064	142.5
409.272	167.08
409.481	126.12
409.69	74.92
409.898	132.26
410.107	224.42
410.315	187.56
410.524	220.33
410.733	238.76
410.941	203.94
411.15	214.18
411.358	261.29
411.567	259.24
411.775	265.38
411.984	273.57
412.192	255.14
412.401	236.71
412.609	273.57
412.818	351.4
413.026	337.06
413.234	318.63
413.443	306.34
413.651	261.29
413.86	314.53
414.068	394.4
414.276	365.73
414.485	363.69
414.693	449.7
414.901	400.55
415.11	357.54
415.318	421.03
415.526	429.22
415.734	406.69
415.943	453.8
416.151	447.65
416.359	421.03
416.567	406.69
416.776	513.19
416.984	509.09
417.192	609.44
417.4	593.06
417.608	550.05
417.817	574.63
418.025	584.87
418.233	693.41
418.441	556.19
418.649	625.83
418.857	683.17
419.065	701.6
419.273	650.4
419.481	785.57
419.689	797.85
419.897	808.09
420.105	758.94
420.313	840.86
420.521	920.73
420.729	799.9
420.937	875.68
421.145	869.53
421.353	1068.19
421.561	1029.27
421.769	1019.04
421.977	1086.62
422.185	1125.53
422.393	1146.01
422.601	1232.02
422.809	1133.72
423.017	1205.4
423.224	1223.83
423.432	1367.19
423.64	1340.57
423.848	1512.6
424.056	1445.01
424.263	1535.12
424.471	1608.85
424.679	1557.65
424.887	1713.3
425.094	1643.67
425.302	1778.83
425.51	1750.16
425.718	1815.69
425.925	1809.55
426.133	1940.62
426.341	2040.97
426.548	2053.26
426.756	2090.12
426.964	2155.66
427.171	2112.65
427.379	2200.71
427.586	2278.54
427.794	2444.42
428.001	2499.72
428.209	2595.97
428.417	2454.66
428.624	2661.51
428.832	2628.74
429.039	2706.56
429.247	2618.5
429.454	2940.03
429.662	3161.21
429.869	2931.84
430.076	3067
430.284	3157.11
430.491	3126.39
430.699	3333.24
430.906	3290.23
431.114	3478.65
431.321	3521.65
431.528	3509.37
431.736	3927.15
431.943	3968.11
432.15	3941.49
432.358	3886.19
432.565	3949.68
432.772	4062.32
432.979	4412.52
433.187	4377.7
433.394	4451.43
433.601	4721.76
433.808	4748.39
434.016	4650.08
434.223	4961.37
434.43	5223.51
434.637	5127.26
434.844	5430.36
435.052	5534.81
435.259	5471.32
435.466	5592.15
435.673	5456.98
435.88	5893.2
436.087	6134.86
436.294	6136.91
436.501	5897.3
436.708	6050.89
436.915	6278.22
437.122	6724.68
437.329	6448.2
437.537	6593.61
437.743	7052.35
437.95	6788.16
438.157	7144.51
438.364	7466.04
438.571	7306.3
438.778	7560.25
438.985	8238.12
439.192	7767.09
439.399	7998.51
439.606	7844.91
439.813	8379.43
440.02	8844.32
440.227	8426.54
440.433	8551.46
440.64	8928.29
440.847	8743.97
441.054	9014.31
441.261	9415.71
441.467	9509.91
441.674	9690.13
441.881	10075.15
442.088	10019.86
442.294	10040.34
442.501	10081.3
442.708	10308.62
442.914	10857.48
443.121	11258.88
443.328	11039.75
443.534	11805.69
443.741	11361.28
443.948	11146.24
444.154	12248.05
444.361	12067.83
444.568	12088.31
444.774	12168.18
444.981	12223.47
445.187	12532.72
445.394	13153.25
445.6	13011.94
445.807	13988.82
446.013	13626.33
446.22	13970.39
446.426	14316.5
446.633	14416.85
446.839	15010.76
447.046	14396.37
447.252	15010.76
447.459	15166.4
447.665	15014.85
447.871	15731.64
448.078	16296.88
448.284	15563.71
448.491	16030.65
448.697	16950.18
448.903	17032.1
449.11	16987.05
449.316	16489.39
449.522	16901.03
449.728	17638.3
449.935	17435.55
450.141	17662.88
450.347	17879.96
450.553	17390.5
450.76	17771.42
450.966	18164.63
451.172	18138.01
451.378	18592.65
451.584	18054.04
451.791	18602.89
451.997	18533.26
452.203	18783.12
452.409	18723.72
452.615	18488.21
452.821	17886.11
453.027	18113.43
453.233	18803.6
453.44	18230.16
453.646	18312.08
453.852	18062.23
454.058	18480.02
454.264	17816.47
454.47	18369.43
454.676	18109.33
454.882	18359.19
455.088	16880.55
455.294	17241
455.5	17685.4
455.705	17370.02
455.911	16583.6
456.117	16540.59
456.323	16546.73
456.529	15498.17
456.735	16118.71
456.941	15602.62
457.147	15567.81
457.352	15184.83
457.558	14842.82
457.764	14803.91
457.97	14511.05
458.176	14160.85
458.381	14232.53
458.587	13792.22
458.793	13568.99
458.999	13065.19
459.204	14021.59
459.41	13331.42
459.616	12450.8
459.821	12553.2
460.027	12514.28
460.233	12387.31
460.438	11629.56
460.644	11865.08
460.85	11246.59
461.055	10990.59
461.261	10972.16
461.466	10081.3
461.672	9964.56
461.878	10531.85
462.083	10126.35
462.289	9724.95
462.494	9829.4
462.7	9196.57
462.905	8879.14
463.111	9307.16
463.316	9327.64
463.522	9415.71
463.727	9235.49
463.932	9079.84
464.138	9063.46
464.343	9096.22
464.549	8942.63
464.754	9344.03
464.959	9172
465.165	9026.59
465.37	8653.86
465.575	8520.74
465.781	8881.19
465.986	8762.4
466.191	8444.97
466.397	8506.41
466.602	7967.79
466.807	8229.93
467.012	8248.36
467.218	8221.74
467.423	8115.25
467.628	8281.13
467.833	8664.1
468.038	8221.74
468.244	7943.22
468.449	8297.52
468.654	7969.84
468.859	7844.91
469.064	7945.27
469.269	7728.18
469.474	7719.99
