Data from USB4F104151__93__13-54-32-850.txt Node

Date: Thu Mar 13 13:54:32 EDT 2025
User: louis
Spectrometer: USB4F10415
Trigger mode: 4
Integration Time (sec): 1.000000E-2
Scans to average: 1
Electric dark correction enabled: true
Nonlinearity correction enabled: false
Boxcar width: 0
XAxis mode: Wavelengths
Number of Pixels in Spectrum: 3648
>>>>>Begin Spectral Data<<<<<
178.204	-73.56
178.424	-73.56
178.644	-73.56
178.864	-77.65
179.084	-5.97
179.304	-5.97
179.524	-65.36
179.744	-57.17
179.964	6.31
180.184	26.79
180.404	-20.31
180.624	10.41
180.844	55.47
181.064	-22.36
181.283	67.75
181.503	-14.17
181.723	18.6
181.943	-10.07
182.163	4.27
182.383	0.17
182.602	-30.55
182.822	-26.45
183.042	10.41
183.262	-44.88
183.482	47.27
183.701	-24.4
183.921	14.51
184.141	75.95
184.361	71.85
184.58	-40.79
184.8	-46.93
185.02	4.27
185.239	8.36
185.459	-1.88
185.679	-20.31
185.898	8.36
186.118	55.47
186.338	0.17
186.557	82.09
186.777	-40.79
186.997	-18.26
187.216	-34.64
187.436	18.6
187.655	-14.17
187.875	-14.17
188.095	-26.45
188.314	-8.02
188.534	-59.22
188.753	57.51
188.973	20.65
189.192	4.27
189.412	0.17
189.631	24.75
189.851	41.13
190.07	-22.36
190.29	49.32
190.509	34.99
190.729	-10.07
190.948	49.32
191.168	94.38
191.387	-12.12
191.607	-59.22
191.826	41.13
192.045	-18.26
192.265	12.46
192.484	-46.93
192.704	34.99
192.923	-14.17
193.142	63.66
193.362	10.41
193.581	-26.45
193.8	-8.02
194.02	45.23
194.239	-1.88
194.458	-16.21
194.678	-5.97
194.897	-24.4
195.116	45.23
195.335	2.22
195.555	-1.88
195.774	-32.6
195.993	-18.26
196.212	53.42
196.432	-10.07
196.651	110.76
196.87	12.46
197.089	-3.93
197.308	73.9
197.528	59.56
197.747	-65.36
197.966	2.22
198.185	86.19
198.404	-1.88
198.623	18.6
198.842	30.89
199.062	16.55
199.281	-22.36
199.5	12.46
199.719	-42.84
199.938	8.36
200.157	22.7
200.376	2.22
200.595	22.7
200.814	32.94
201.033	-40.79
201.252	12.46
201.471	-26.45
201.69	47.27
201.909	47.27
202.128	-51.03
202.347	53.42
202.566	-48.98
202.785	-48.98
203.004	-16.21
203.223	6.31
203.442	37.03
203.661	6.31
203.879	-10.07
204.098	-26.45
204.317	-12.12
204.536	18.6
204.755	14.51
204.974	-34.64
205.193	37.03
205.411	39.08
205.63	43.18
205.849	-30.55
206.068	43.18
206.287	-16.21
206.505	-14.17
206.724	0.17
206.943	2.22
207.162	-44.88
207.381	20.65
207.599	-53.08
207.818	32.94
208.037	6.31
208.255	82.09
208.474	-24.4
208.693	14.51
208.911	-26.45
209.13	-30.55
209.349	32.94
209.567	41.13
209.786	-16.21
210.005	26.79
210.223	-38.74
210.442	67.75
210.661	47.27
210.879	77.99
211.098	0.17
211.316	-16.21
211.535	80.04
211.753	-32.6
211.972	-1.88
212.191	-8.02
212.409	82.09
212.628	22.7
212.846	-46.93
213.065	-1.88
213.283	43.18
213.502	94.38
213.72	49.32
213.938	10.41
214.157	26.79
214.375	-30.55
214.594	45.23
214.812	45.23
215.031	-16.21
215.249	22.7
215.467	-24.4
215.686	-3.93
215.904	-71.51
216.122	32.94
216.341	12.46
216.559	-3.93
216.778	20.65
216.996	118.95
217.214	14.51
217.432	-14.17
217.651	-20.31
217.869	-63.32
218.087	-40.79
218.306	-1.88
218.524	41.13
218.742	-81.75
218.96	34.99
219.179	-89.94
219.397	16.55
219.615	2.22
219.833	43.18
220.051	-34.64
220.27	24.75
220.488	65.71
220.706	-18.26
220.924	0.17
221.142	-28.5
221.36	-5.97
221.578	-94.04
221.796	-18.26
222.015	-55.12
222.233	-53.08
222.451	-40.79
222.669	-3.93
222.887	67.75
223.105	-8.02
223.323	57.51
223.541	14.51
223.759	-1.88
223.977	14.51
224.195	0.17
224.413	-55.12
224.631	-30.55
224.849	49.32
225.067	41.13
225.285	-26.45
225.503	-38.74
225.721	-32.6
225.939	-30.55
226.157	-10.07
226.375	8.36
226.592	18.6
226.81	-57.17
227.028	-38.74
227.246	-28.5
227.464	-16.21
227.682	-57.17
227.9	8.36
228.117	51.37
228.335	39.08
228.553	28.84
228.771	-61.27
228.989	32.94
229.206	-91.99
229.424	-48.98
229.642	-30.55
229.86	24.75
230.077	-20.31
230.295	14.51
230.513	-26.45
230.731	37.03
230.948	-24.4
231.166	32.94
231.384	12.46
231.601	-51.03
231.819	-42.84
232.037	-8.02
232.254	12.46
232.472	-30.55
232.689	37.03
232.907	71.85
233.125	-32.6
233.342	-73.56
233.56	0.17
233.777	0.17
233.995	-42.84
234.213	30.89
234.43	-28.5
234.648	84.14
234.865	26.79
235.083	28.84
235.3	14.51
235.518	39.08
235.735	94.38
235.953	100.52
236.17	-30.55
236.388	-12.12
236.605	37.03
236.822	41.13
237.04	-34.64
237.257	-3.93
237.475	32.94
237.692	-65.36
237.909	8.36
238.127	77.99
238.344	-28.5
238.562	55.47
238.779	26.79
238.996	12.46
239.214	39.08
239.431	-1.88
239.648	14.51
239.865	51.37
240.083	-1.88
240.3	-18.26
240.517	8.36
240.735	34.99
240.952	22.7
241.169	10.41
241.386	-8.02
241.603	-57.17
241.821	28.84
242.038	22.7
242.255	-26.45
242.472	-22.36
242.689	-51.03
242.907	88.23
243.124	57.51
243.341	32.94
243.558	41.13
243.775	92.33
243.992	12.46
244.209	-3.93
244.426	47.27
244.643	-3.93
244.86	-12.12
245.078	32.94
245.295	-10.07
245.512	34.99
245.729	30.89
245.946	51.37
246.163	12.46
246.38	10.41
246.597	41.13
246.814	-14.17
247.031	-38.74
247.248	-22.36
247.464	55.47
247.681	32.94
247.898	39.08
248.115	-10.07
248.332	-18.26
248.549	57.51
248.766	8.36
248.983	-8.02
249.2	-85.84
249.417	2.22
249.633	14.51
249.85	57.51
250.067	-61.27
250.284	45.23
250.501	20.65
250.717	26.79
250.934	-16.21
251.151	-14.17
251.368	51.37
251.585	-30.55
251.801	6.31
252.018	63.66
252.235	53.42
252.451	-12.12
252.668	-10.07
252.885	43.18
253.102	-5.97
253.318	-22.36
253.535	37.03
253.752	10.41
253.968	28.84
254.185	-81.75
254.401	51.37
254.618	24.75
254.835	-3.93
255.051	77.99
255.268	-8.02
255.484	-10.07
255.701	-40.79
255.917	12.46
256.134	-16.21
256.351	-16.21
256.567	22.7
256.784	53.42
257	-16.21
257.217	-3.93
257.433	41.13
257.65	39.08
257.866	0.17
258.082	2.22
258.299	-1.88
258.515	34.99
258.732	-36.69
258.948	55.47
259.165	-14.17
259.381	34.99
259.597	4.27
259.814	16.55
260.03	61.61
260.246	-77.65
260.463	-5.97
260.679	14.51
260.895	22.7
261.112	-8.02
261.328	-10.07
261.544	-36.69
261.761	24.75
261.977	82.09
262.193	2.22
262.409	88.23
262.626	10.41
262.842	-18.26
263.058	-42.84
263.274	14.51
263.49	8.36
263.707	37.03
263.923	-34.64
264.139	-79.7
264.355	12.46
264.571	43.18
264.787	10.41
265.004	4.27
265.22	16.55
265.436	-8.02
265.652	12.46
265.868	20.65
266.084	-38.74
266.3	32.94
266.516	-42.84
266.732	10.41
266.948	-36.69
267.164	18.6
267.38	10.41
267.596	39.08
267.812	53.42
268.028	20.65
268.244	34.99
268.46	51.37
268.676	14.51
268.892	65.71
269.108	0.17
269.324	20.65
269.54	-28.5
269.756	-53.08
269.972	24.75
270.188	18.6
270.403	-14.17
270.619	24.75
270.835	2.22
271.051	-20.31
271.267	2.22
271.483	-46.93
271.698	18.6
271.914	-26.45
272.13	34.99
272.346	39.08
272.562	-1.88
272.777	71.85
272.993	-26.45
273.209	-40.79
273.425	39.08
273.64	-30.55
273.856	51.37
274.072	77.99
274.287	-12.12
274.503	26.79
274.719	32.94
274.934	26.79
275.15	-10.07
275.366	-10.07
275.581	28.84
275.797	61.61
276.012	-1.88
276.228	26.79
276.444	34.99
276.659	65.71
276.875	-30.55
277.09	39.08
277.306	-10.07
277.521	-22.36
277.737	-53.08
277.952	45.23
278.168	-8.02
278.383	47.27
278.599	73.9
278.814	30.89
279.03	-1.88
279.245	24.75
279.461	16.55
279.676	47.27
279.892	-34.64
280.107	75.95
280.322	51.37
280.538	6.31
280.753	34.99
280.969	34.99
281.184	-18.26
281.399	-42.84
281.615	-32.6
281.83	2.22
282.045	16.55
282.26	34.99
282.476	10.41
282.691	-34.64
282.906	90.28
283.122	-16.21
283.337	20.65
283.552	14.51
283.767	-22.36
283.983	30.89
284.198	6.31
284.413	-5.97
284.628	-55.12
284.843	32.94
285.058	39.08
285.274	8.36
285.489	47.27
285.704	43.18
285.919	-20.31
286.134	-12.12
286.349	-20.31
286.564	34.99
286.779	32.94
286.995	16.55
287.21	-46.93
287.425	16.55
287.64	4.27
287.855	22.7
288.07	2.22
288.285	6.31
288.5	26.79
288.715	12.46
288.93	59.56
289.145	12.46
289.36	-10.07
289.575	-30.55
289.79	0.17
290.004	-44.88
290.219	63.66
290.434	47.27
290.649	-48.98
290.864	55.47
291.079	-69.46
291.294	-20.31
291.509	-1.88
291.724	-8.02
291.938	30.89
292.153	-5.97
292.368	-24.4
292.583	51.37
292.798	-18.26
293.012	-32.6
293.227	6.31
293.442	88.23
293.657	8.36
293.871	45.23
294.086	24.75
294.301	-34.64
294.516	37.03
294.73	6.31
294.945	-3.93
295.16	45.23
295.374	16.55
295.589	-24.4
295.804	-8.02
296.018	24.75
296.233	-57.17
296.447	16.55
296.662	-48.98
296.877	39.08
297.091	28.84
297.306	-94.04
297.52	43.18
297.735	80.04
297.949	26.79
298.164	2.22
298.378	0.17
298.593	45.23
298.807	-1.88
299.022	41.13
299.236	-3.93
299.451	18.6
299.665	18.6
299.88	-34.64
300.094	71.85
300.309	-51.03
300.523	47.27
300.737	22.7
300.952	6.31
301.166	0.17
301.381	-65.36
301.595	4.27
301.809	2.22
302.024	100.52
302.238	-32.6
302.452	-18.26
302.667	-3.93
302.881	-69.46
303.095	-3.93
303.309	-26.45
303.524	18.6
303.738	-10.07
303.952	77.99
304.166	49.32
304.381	-1.88
304.595	75.95
304.809	4.27
305.023	14.51
305.237	55.47
305.452	2.22
305.666	30.89
305.88	-24.4
306.094	10.41
306.308	34.99
306.522	34.99
306.736	71.85
306.95	51.37
307.164	16.55
307.379	-51.03
307.593	90.28
307.807	26.79
308.021	51.37
308.235	41.13
308.449	-16.21
308.663	43.18
308.877	-40.79
309.091	26.79
309.305	2.22
309.519	-46.93
309.733	39.08
309.947	20.65
310.161	82.09
310.374	34.99
310.588	16.55
310.802	63.66
311.016	0.17
311.23	24.75
311.444	63.66
311.658	-61.27
311.872	-5.97
312.085	26.79
312.299	26.79
312.513	28.84
312.727	14.51
312.941	-65.36
313.154	-46.93
313.368	-59.22
313.582	59.56
313.796	43.18
314.009	-65.36
314.223	-8.02
314.437	8.36
314.651	-28.5
314.864	-16.21
315.078	-14.17
315.292	34.99
315.505	30.89
315.719	-3.93
315.933	-3.93
316.146	-18.26
316.36	18.6
316.573	57.51
316.787	-5.97
317.001	-10.07
317.214	-8.02
317.428	30.89
317.641	-14.17
317.855	71.85
318.068	-14.17
318.282	-8.02
318.495	-75.6
318.709	-14.17
318.922	18.6
319.136	84.14
319.349	-32.6
319.563	51.37
319.776	41.13
319.99	2.22
320.203	47.27
320.417	-30.55
320.63	12.46
320.843	6.31
321.057	-8.02
321.27	-12.12
321.483	-44.88
321.697	92.33
321.91	-3.93
322.124	73.9
322.337	16.55
322.55	2.22
322.763	20.65
322.977	24.75
323.19	-14.17
323.403	-8.02
323.617	20.65
323.83	34.99
324.043	-14.17
324.256	-14.17
324.469	37.03
324.683	2.22
324.896	-28.5
325.109	-20.31
325.322	-18.26
325.535	-24.4
325.748	-1.88
325.962	18.6
326.175	-10.07
326.388	28.84
326.601	16.55
326.814	30.89
327.027	-12.12
327.24	100.52
327.453	16.55
327.666	14.51
327.879	-81.75
328.092	92.33
328.305	4.27
328.518	-16.21
328.731	69.8
328.944	47.27
329.157	24.75
329.37	-16.21
329.583	0.17
329.796	39.08
330.009	-10.07
330.222	10.41
330.435	-38.74
330.648	14.51
330.861	22.7
331.073	71.85
331.286	-8.02
331.499	63.66
331.712	59.56
331.925	55.47
332.138	4.27
332.35	-5.97
332.563	71.85
332.776	80.04
332.989	-30.55
333.202	20.65
333.414	37.03
333.627	51.37
333.84	45.23
334.053	32.94
334.265	10.41
334.478	86.19
334.691	34.99
334.903	-59.22
335.116	12.46
335.329	8.36
335.541	53.42
335.754	0.17
335.966	53.42
336.179	-8.02
336.392	34.99
336.604	18.6
336.817	57.51
337.029	57.51
337.242	-87.89
337.454	34.99
337.667	-5.97
337.88	53.42
338.092	-69.46
338.305	30.89
338.517	34.99
338.729	-20.31
338.942	-26.45
339.154	80.04
339.367	39.08
339.579	61.61
339.792	20.65
340.004	59.56
340.217	-59.22
340.429	45.23
340.641	-14.17
340.854	-10.07
341.066	-12.12
341.278	41.13
341.491	24.75
341.703	0.17
341.915	2.22
342.128	37.03
342.34	49.32
342.552	41.13
342.764	-5.97
342.977	8.36
343.189	2.22
343.401	10.41
343.613	-3.93
343.826	8.36
344.038	12.46
344.25	16.55
344.462	71.85
344.674	18.6
344.886	-1.88
345.099	63.66
345.311	59.56
345.523	-20.31
345.735	-3.93
345.947	43.18
346.159	-32.6
346.371	10.41
346.583	51.37
346.795	28.84
347.007	-14.17
347.219	110.76
347.431	14.51
347.643	4.27
347.855	28.84
348.067	32.94
348.279	32.94
348.491	28.84
348.703	82.09
348.915	8.36
349.127	-8.02
349.339	-22.36
349.551	47.27
349.763	59.56
349.975	20.65
350.187	59.56
350.399	24.75
350.61	8.36
350.822	24.75
351.034	65.71
351.246	-34.64
351.458	-3.93
351.669	32.94
351.881	43.18
352.093	86.19
352.305	8.36
352.517	26.79
352.728	51.37
352.94	71.85
353.152	18.6
353.363	8.36
353.575	10.41
353.787	77.99
353.999	-14.17
354.21	-30.55
354.422	59.56
354.633	-57.17
354.845	0.17
355.057	12.46
355.268	-36.69
355.48	57.51
355.692	39.08
355.903	-20.31
356.115	6.31
356.326	-1.88
356.538	-96.08
356.749	8.36
356.961	-26.45
357.172	24.75
357.384	-14.17
357.595	10.41
357.807	18.6
358.018	43.18
358.23	45.23
358.441	18.6
358.653	2.22
358.864	12.46
359.075	18.6
359.287	2.22
359.498	-34.64
359.709	-3.93
359.921	32.94
360.132	59.56
360.344	-3.93
360.555	34.99
360.766	73.9
360.977	80.04
361.189	16.55
361.4	-71.51
361.611	-38.74
361.823	32.94
362.034	16.55
362.245	10.41
362.456	-8.02
362.667	-12.12
362.879	-48.98
363.09	16.55
363.301	8.36
363.512	-5.97
363.723	20.65
363.935	10.41
364.146	59.56
364.357	-34.64
364.568	114.86
364.779	18.6
364.99	4.27
365.201	26.79
365.412	2.22
365.623	-28.5
365.834	4.27
366.045	37.03
366.256	-12.12
366.467	82.09
366.678	57.51
366.889	59.56
367.1	16.55
367.311	47.27
367.522	8.36
367.733	-16.21
367.944	65.71
368.155	8.36
368.366	86.19
368.577	-8.02
368.788	-8.02
368.999	-24.4
369.209	-44.88
369.42	4.27
369.631	-5.97
369.842	-28.5
370.053	14.51
370.264	24.75
370.474	43.18
370.685	34.99
370.896	80.04
371.107	6.31
371.317	55.47
371.528	30.89
371.739	34.99
371.95	-18.26
372.16	104.62
372.371	4.27
372.582	43.18
372.792	30.89
373.003	-20.31
373.214	63.66
373.424	77.99
373.635	14.51
373.846	39.08
374.056	-38.74
374.267	6.31
374.477	-30.55
374.688	61.61
374.898	6.31
375.109	14.51
375.319	75.95
375.53	-1.88
375.74	6.31
375.951	37.03
376.161	80.04
376.372	47.27
376.582	26.79
376.793	45.23
377.003	-36.69
377.214	16.55
377.424	-34.64
377.635	-3.93
377.845	110.76
378.055	67.75
378.266	32.94
378.476	34.99
378.686	-10.07
378.897	53.42
379.107	61.61
379.317	20.65
379.528	2.22
379.738	6.31
379.948	24.75
380.158	45.23
380.369	-1.88
380.579	82.09
380.789	-46.93
380.999	20.65
381.21	100.52
381.42	26.79
381.63	12.46
381.84	-3.93
382.05	22.7
382.261	71.85
382.471	-14.17
382.681	-1.88
382.891	-38.74
383.101	18.6
383.311	12.46
383.521	47.27
383.731	92.33
383.941	61.61
384.151	71.85
384.361	4.27
384.571	41.13
384.781	43.18
384.991	49.32
385.201	69.8
385.411	32.94
385.621	45.23
385.831	-14.17
386.041	-26.45
386.251	-10.07
386.461	6.31
386.671	-30.55
386.881	104.62
387.091	-46.93
387.301	45.23
387.511	57.51
387.72	22.7
387.93	4.27
388.14	32.94
388.35	14.51
388.56	-34.64
388.769	41.13
388.979	16.55
389.189	51.37
389.399	32.94
389.609	39.08
389.818	61.61
390.028	-38.74
390.238	12.46
390.447	43.18
390.657	-3.93
390.867	-8.02
391.076	-57.17
391.286	-8.02
391.496	34.99
391.705	55.47
391.915	41.13
392.125	-1.88
392.334	8.36
392.544	100.52
392.753	55.47
392.963	22.7
393.172	16.55
393.382	51.37
393.591	61.61
393.801	45.23
394.01	112.81
394.22	10.41
394.429	16.55
394.639	-38.74
394.848	-22.36
395.058	-38.74
395.267	-5.97
395.477	28.84
395.686	-8.02
395.895	84.14
396.105	84.14
396.314	-10.07
396.524	39.08
396.733	14.51
396.942	88.23
397.152	96.43
397.361	2.22
397.57	94.38
397.78	32.94
397.989	18.6
398.198	75.95
398.407	75.95
398.617	127.14
398.826	-14.17
399.035	32.94
399.244	49.32
399.453	49.32
399.663	61.61
399.872	77.99
400.081	67.75
400.29	49.32
400.499	75.95
400.708	63.66
400.917	30.89
401.127	61.61
401.336	73.9
401.545	26.79
401.754	24.75
401.963	34.99
402.172	12.46
402.381	6.31
402.59	84.14
402.799	55.47
403.008	8.36
403.217	30.89
403.426	77.99
403.635	67.75
403.844	57.51
404.053	114.86
404.262	53.42
404.471	96.43
404.68	77.99
404.888	18.6
405.097	55.47
405.306	77.99
405.515	141.48
405.724	59.56
405.933	94.38
406.142	86.19
406.35	121
406.559	77.99
406.768	102.57
406.977	104.62
407.185	125.1
407.394	73.9
407.603	-36.69
407.812	116.9
408.02	92.33
408.229	98.47
408.438	88.23
408.646	104.62
408.855	28.84
409.064	178.34
409.272	139.43
409.481	77.99
409.69	90.28
409.898	118.95
410.107	184.49
410.315	141.48
410.524	161.96
410.733	252.07
410.941	90.28
411.15	147.62
411.358	110.76
411.567	204.97
411.775	170.15
411.984	168.1
412.192	194.73
412.401	336.04
412.609	157.86
412.818	250.02
413.026	188.58
413.234	270.5
413.443	108.71
413.651	262.31
413.86	209.06
414.068	256.17
414.276	295.08
414.485	284.84
414.693	278.69
414.901	270.5
415.11	297.13
415.318	317.61
415.526	336.04
415.734	370.85
415.943	258.21
416.151	321.7
416.359	379.04
416.567	424.1
416.776	405.67
416.984	428.2
417.192	473.25
417.4	477.35
417.608	362.66
417.817	503.97
418.025	497.83
418.233	491.68
418.441	481.44
418.649	542.88
418.857	532.64
419.065	581.79
419.273	604.32
419.481	596.13
419.689	635.04
419.897	647.33
420.105	762.02
420.313	694.43
420.521	723.1
420.729	796.83
420.937	764.06
421.145	798.88
421.353	770.21
421.561	893.09
421.769	888.99
421.977	985.24
422.185	929.95
422.393	925.85
422.601	1054.87
422.809	975
423.017	1024.16
423.224	1095.83
423.432	1196.18
423.64	1140.89
423.848	1298.58
424.056	1167.51
424.263	1345.69
424.471	1296.53
424.679	1228.95
424.887	1362.07
425.094	1407.13
425.302	1413.27
425.51	1417.37
425.718	1489.04
425.925	1523.86
426.133	1628.31
426.341	1673.36
426.548	1755.28
426.756	1740.94
426.964	1822.86
427.171	1910.93
427.379	2011.28
427.586	1927.31
427.794	2074.76
428.001	2115.72
428.209	2218.12
428.417	2181.26
428.624	2201.74
428.832	2353.29
429.039	2359.43
429.247	2338.95
429.454	2613.38
429.662	2697.35
429.869	2560.13
430.076	2715.78
430.284	2502.79
430.491	2797.7
430.699	2949.25
430.906	2930.81
431.114	3045.5
431.321	3074.17
431.528	3264.63
431.736	3344.5
431.943	3289.21
432.15	3283.06
432.358	3442.81
432.565	3752.05
432.772	3539.06
432.979	3786.86
433.187	3879.02
433.394	3735.67
433.601	4102.25
433.808	4053.1
434.016	3977.33
434.223	4178.03
434.43	4573.28
434.637	4403.3
434.844	4614.24
435.052	4675.68
435.259	4612.2
435.466	4759.65
435.673	4788.32
435.88	5046.37
436.087	5210.2
436.294	5367.9
436.501	5234.78
436.708	5253.21
436.915	5478.49
437.122	5722.2
437.329	5888.08
437.537	5752.91
437.743	6080.59
437.95	5810.26
438.157	6412.36
438.364	6469.7
438.571	6525
438.778	6512.71
438.985	7045.18
439.192	6727.75
439.399	6959.17
439.606	6801.47
439.813	7247.93
440.02	7505.98
440.227	7639.09
440.433	7559.22
440.64	7643.19
440.847	7708.73
441.054	7919.67
441.261	8163.37
441.467	8286.25
441.674	8466.47
441.881	8626.22
442.088	8939.55
442.294	8728.61
442.501	8792.1
442.708	8955.94
442.914	9656.34
443.121	9826.32
443.328	9476.12
443.534	10235.92
443.741	10045.46
443.948	9744.41
444.154	10555.4
444.361	10612.74
444.568	10375.18
444.774	10663.94
444.981	10747.91
445.187	10887.17
445.394	11444.22
445.6	11386.88
445.807	12359.66
446.013	11798.52
446.22	12081.14
446.426	12437.48
446.633	12535.79
446.839	13066.21
447.046	12662.76
447.252	13297.63
447.459	13236.19
447.665	12924.9
447.871	13785.05
448.078	14163.92
448.284	13707.23
448.491	14008.28
448.697	14366.67
448.903	14630.86
449.11	14755.79
449.316	14413.77
449.522	14858.18
449.728	15108.04
449.935	15316.93
450.141	15370.18
450.347	15622.08
450.553	14960.58
450.76	15361.98
450.966	15734.71
451.172	15648.7
451.378	16058.29
451.584	15349.7
451.791	16125.88
451.997	15706.04
452.203	16105.4
452.409	16302
452.615	16220.08
452.821	15503.29
453.027	15484.86
453.233	16162.74
453.44	15464.38
453.646	15450.05
453.852	15652.8
454.058	16031.67
454.264	15329.22
454.47	15753.15
454.676	15501.25
454.882	15851.45
455.088	14254.03
455.294	14702.54
455.5	14936.01
455.705	14862.28
455.911	14342.1
456.117	14114.77
456.323	13916.12
456.529	13305.82
456.735	13721.56
456.941	13420.51
457.147	13109.22
457.352	12703.72
457.558	12507.12
457.764	12509.16
457.97	12402.67
458.176	12199.92
458.381	12021.75
458.587	11366.4
458.793	11501.56
458.999	10977.28
459.204	11669.5
459.41	11460.6
459.616	10625.03
459.821	10571.79
460.027	10426.38
460.233	10418.19
460.438	9832.47
460.644	9834.52
460.85	9455.64
461.055	9269.28
461.261	9363.48
461.466	8749.09
461.672	8476.71
461.878	8863.78
462.083	8202.29
462.289	8171.57
462.494	8155.18
462.7	7710.77
462.905	7682.1
463.111	7833.65
463.316	7987.25
463.522	7516.22
463.727	7821.36
463.932	7667.77
464.138	7575.61
464.343	7667.77
464.549	7563.32
464.754	7684.15
464.959	7833.65
465.165	7737.4
465.37	7426.11
465.575	7108.67
465.781	7479.35
465.986	7583.8
466.191	7123.01
466.397	7166.01
466.602	6709.32
466.807	7118.91
467.012	6959.17
467.218	6985.79
467.423	6993.98
467.628	6672.45
467.833	7292.99
468.038	6963.26
468.244	6991.94
