Data from USB4F104151__237__14-00-55-518.txt Node

Date: Thu Mar 13 14:00:55 EDT 2025
User: louis
Spectrometer: USB4F10415
Trigger mode: 4
Integration Time (sec): 1.000000E-2
Scans to average: 1
Electric dark correction enabled: true
Nonlinearity correction enabled: false
Boxcar width: 0
XAxis mode: Wavelengths
Number of Pixels in Spectrum: 3648
>>>>>Begin Spectral Data<<<<<
178.204	-71.17
178.424	-71.17
178.644	-71.17
178.864	-52.74
179.084	-38.4
179.304	41.47
179.524	2.56
179.744	29.18
179.964	-5.63
180.184	-42.5
180.404	10.75
180.624	41.47
180.844	-38.4
181.064	27.14
181.283	10.75
181.503	-108.03
181.723	31.23
181.943	-77.31
182.163	16.9
182.383	6.66
182.602	-1.54
182.822	51.71
183.042	43.52
183.262	-75.26
183.482	10.75
183.701	-1.54
183.921	43.52
184.141	2.56
184.361	51.71
184.58	8.7
184.8	-17.92
185.02	37.38
185.239	27.14
185.459	-52.74
185.679	23.04
185.898	2.56
186.118	0.51
186.338	-17.92
186.557	59.9
186.777	4.61
186.997	64
187.216	-3.58
187.436	72.19
187.655	39.42
187.875	53.76
188.095	51.71
188.314	-30.21
188.534	76.29
188.753	18.94
188.973	14.85
189.192	45.57
189.412	-56.83
189.631	-13.82
189.851	-1.54
190.07	4.61
190.29	31.23
190.509	20.99
190.729	-3.58
190.948	152.06
191.168	51.71
191.387	14.85
191.607	-11.78
191.826	0.51
192.045	61.95
192.265	6.66
192.484	-7.68
192.704	16.9
192.923	-32.26
193.142	78.33
193.362	18.94
193.581	2.56
193.8	51.71
194.02	-28.16
194.239	-17.92
194.458	20.99
194.678	104.96
194.897	47.62
195.116	68.09
195.335	4.61
195.555	-54.78
195.774	57.86
195.993	-26.11
196.212	49.66
196.432	23.04
196.651	29.18
196.87	-15.87
197.089	-5.63
197.308	6.66
197.528	-13.82
197.747	10.75
197.966	45.57
198.185	-11.78
198.404	-17.92
198.623	-13.82
198.842	47.62
199.062	-9.73
199.281	-11.78
199.5	-11.78
199.719	2.56
199.938	70.14
200.157	31.23
200.376	35.33
200.595	76.29
200.814	-15.87
201.033	10.75
201.252	66.05
201.471	2.56
201.69	2.56
201.909	-60.93
202.128	35.33
202.347	55.81
202.566	59.9
202.785	6.66
203.004	-40.45
203.223	76.29
203.442	6.66
203.661	39.42
203.879	8.7
204.098	68.09
204.317	61.95
204.536	45.57
204.755	4.61
204.974	70.14
205.193	-24.06
205.411	12.8
205.63	-22.02
205.849	43.52
206.068	33.28
206.287	12.8
206.505	18.94
206.724	-30.21
206.943	49.66
207.162	4.61
207.381	-50.69
207.599	70.14
207.818	-71.17
208.037	18.94
208.255	-5.63
208.474	0.51
208.693	61.95
208.911	-9.73
209.13	64
209.349	25.09
209.567	-62.98
209.786	20.99
210.005	-60.93
210.223	-7.68
210.442	78.33
210.661	68.09
210.879	27.14
211.098	-9.73
211.316	35.33
211.535	-13.82
211.753	61.95
211.972	20.99
212.191	12.8
212.409	-3.58
212.628	41.47
212.846	27.14
213.065	0.51
213.283	119.29
213.502	25.09
213.72	61.95
213.938	-7.68
214.157	-22.02
214.375	-38.4
214.594	-34.3
214.812	55.81
215.031	14.85
215.249	37.38
215.467	12.8
215.686	18.94
215.904	86.53
216.122	10.75
216.341	29.18
216.559	29.18
216.778	25.09
216.996	-19.97
217.214	39.42
217.432	-13.82
217.651	-9.73
217.869	-7.68
218.087	-9.73
218.306	-65.02
218.524	23.04
218.742	-7.68
218.96	92.67
219.179	27.14
219.397	-13.82
219.615	16.9
219.833	8.7
220.051	23.04
220.27	18.94
220.488	-7.68
220.706	-26.11
220.924	-1.54
221.142	84.48
221.36	2.56
221.578	-32.26
221.796	-11.78
222.015	10.75
222.233	14.85
222.451	18.94
222.669	33.28
222.887	18.94
223.105	45.57
223.323	-9.73
223.541	-40.45
223.759	-52.74
223.977	-52.74
224.195	-9.73
224.413	123.39
224.631	-3.58
224.849	16.9
225.067	-19.97
225.285	-15.87
225.503	-15.87
225.721	16.9
225.939	37.38
226.157	23.04
226.375	-38.4
226.592	-7.68
226.81	59.9
227.028	-17.92
227.246	66.05
227.464	16.9
227.682	51.71
227.9	61.95
228.117	51.71
228.335	-5.63
228.553	20.99
228.771	35.33
228.989	76.29
229.206	-11.78
229.424	33.28
229.642	53.76
229.86	-17.92
230.077	-40.45
230.295	20.99
230.513	-26.11
230.731	-13.82
230.948	-11.78
231.166	-19.97
231.384	68.09
231.601	-1.54
231.819	35.33
232.037	20.99
232.254	-3.58
232.472	35.33
232.689	64
232.907	31.23
233.125	27.14
233.342	12.8
233.56	-30.21
233.777	35.33
233.995	47.62
234.213	10.75
234.43	74.24
234.648	61.95
234.865	2.56
235.083	55.81
235.3	25.09
235.518	-5.63
235.735	8.7
235.953	109.05
236.17	39.42
236.388	-3.58
236.605	6.66
236.822	53.76
237.04	4.61
237.257	-17.92
237.475	12.8
237.692	10.75
237.909	23.04
238.127	31.23
238.344	-30.21
238.562	-30.21
238.779	-3.58
238.996	-3.58
239.214	-30.21
239.431	47.62
239.648	-13.82
239.865	31.23
240.083	18.94
240.3	-34.3
240.517	-9.73
240.735	12.8
240.952	29.18
241.169	37.38
241.386	-11.78
241.603	-22.02
241.821	55.81
242.038	35.33
242.255	0.51
242.472	-3.58
242.689	49.66
242.907	59.9
243.124	39.42
243.341	61.95
243.558	-11.78
243.775	-11.78
243.992	-62.98
244.209	92.67
244.426	-7.68
244.643	-7.68
244.86	0.51
245.078	51.71
245.295	27.14
245.512	33.28
245.729	-32.26
245.946	-9.73
246.163	29.18
246.38	27.14
246.597	18.94
246.814	-71.17
247.031	33.28
247.248	31.23
247.464	20.99
247.681	-11.78
247.898	64
248.115	43.52
248.332	35.33
248.549	43.52
248.766	45.57
248.983	-3.58
249.2	51.71
249.417	47.62
249.633	68.09
249.85	55.81
250.067	2.56
250.284	72.19
250.501	-30.21
250.717	-60.93
250.934	2.56
251.151	-15.87
251.368	49.66
251.585	78.33
251.801	29.18
252.018	-7.68
252.235	53.76
252.451	-1.54
252.668	-3.58
252.885	25.09
253.102	16.9
253.318	45.57
253.535	0.51
253.752	37.38
253.968	-5.63
254.185	-11.78
254.401	10.75
254.618	-58.88
254.835	51.71
255.051	-3.58
255.268	29.18
255.484	20.99
255.701	18.94
255.917	55.81
256.134	10.75
256.351	66.05
256.567	57.86
256.784	57.86
257	-1.54
257.217	61.95
257.433	-38.4
257.65	-77.31
257.866	-26.11
258.082	-30.21
258.299	-77.31
258.515	29.18
258.732	12.8
258.948	39.42
259.165	2.56
259.381	-26.11
259.597	27.14
259.814	68.09
260.03	-19.97
260.246	-9.73
260.463	27.14
260.679	72.19
260.895	-5.63
261.112	-1.54
261.328	12.8
261.544	-13.82
261.761	55.81
261.977	14.85
262.193	-7.68
262.409	68.09
262.626	-5.63
262.842	18.94
263.058	-3.58
263.274	66.05
263.49	49.66
263.707	-15.87
263.923	35.33
264.139	61.95
264.355	2.56
264.571	33.28
264.787	2.56
265.004	59.9
265.22	8.7
265.436	-7.68
265.652	18.94
265.868	18.94
266.084	-11.78
266.3	47.62
266.516	59.9
266.732	43.52
266.948	-17.92
267.164	64
267.38	16.9
267.596	16.9
267.812	25.09
268.028	-1.54
268.244	23.04
268.46	14.85
268.676	2.56
268.892	61.95
269.108	-3.58
269.324	39.42
269.54	-11.78
269.756	2.56
269.972	-3.58
270.188	12.8
270.403	37.38
270.619	43.52
270.835	8.7
271.051	8.7
271.267	55.81
271.483	37.38
271.698	-46.59
271.914	-13.82
272.13	12.8
272.346	61.95
272.562	-3.58
272.777	55.81
272.993	-54.78
273.209	-9.73
273.425	53.76
273.64	68.09
273.856	53.76
274.072	78.33
274.287	55.81
274.503	8.7
274.719	10.75
274.934	35.33
275.15	-36.35
275.366	47.62
275.581	20.99
275.797	-44.54
276.012	35.33
276.228	41.47
276.444	31.23
276.659	84.48
276.875	-17.92
277.09	-11.78
277.306	-11.78
277.521	55.81
277.737	127.49
277.952	96.77
278.168	84.48
278.383	80.38
278.599	59.9
278.814	84.48
279.03	-48.64
279.245	78.33
279.461	68.09
279.676	37.38
279.892	-3.58
280.107	-17.92
280.322	-26.11
280.538	-44.54
280.753	-3.58
280.969	45.57
281.184	70.14
281.399	-15.87
281.615	39.42
281.83	8.7
282.045	-1.54
282.26	59.9
282.476	-9.73
282.691	-17.92
282.906	-15.87
283.122	57.86
283.337	39.42
283.552	-13.82
283.767	51.71
283.983	6.66
284.198	25.09
284.413	104.96
284.628	20.99
284.843	-22.02
285.058	27.14
285.274	-54.78
285.489	0.51
285.704	72.19
285.919	45.57
286.134	18.94
286.349	72.19
286.564	23.04
286.779	10.75
286.995	86.53
287.21	2.56
287.425	-15.87
287.64	64
287.855	6.66
288.07	47.62
288.285	47.62
288.5	47.62
288.715	31.23
288.93	-30.21
289.145	-54.78
289.36	43.52
289.575	-9.73
289.79	39.42
290.004	23.04
290.219	90.62
290.434	16.9
290.649	55.81
290.864	43.52
291.079	-3.58
291.294	37.38
291.509	-11.78
291.724	-3.58
291.938	-36.35
292.153	39.42
292.368	18.94
292.583	-1.54
292.798	12.8
293.012	45.57
293.227	-3.58
293.442	27.14
293.657	-62.98
293.871	10.75
294.086	53.76
294.301	8.7
294.516	-26.11
294.73	39.42
294.945	23.04
295.16	20.99
295.374	4.61
295.589	29.18
295.804	10.75
296.018	-22.02
296.233	2.56
296.447	-3.58
296.662	90.62
296.877	-5.63
297.091	8.7
297.306	-30.21
297.52	0.51
297.735	51.71
297.949	18.94
298.164	27.14
298.378	-19.97
298.593	23.04
298.807	8.7
299.022	-22.02
299.236	27.14
299.451	43.52
299.665	25.09
299.88	-38.4
300.094	125.44
300.309	-9.73
300.523	51.71
300.737	78.33
300.952	-7.68
301.166	-5.63
301.381	10.75
301.595	14.85
301.809	31.23
302.024	25.09
302.238	18.94
302.452	59.9
302.667	-9.73
302.881	39.42
303.095	96.77
303.309	45.57
303.524	-54.78
303.738	92.67
303.952	-30.21
304.166	49.66
304.381	14.85
304.595	25.09
304.809	31.23
305.023	12.8
305.237	111.1
305.452	10.75
305.666	64
305.88	57.86
306.094	-32.26
306.308	102.91
306.522	20.99
306.736	47.62
306.95	-9.73
307.164	18.94
307.379	33.28
307.593	-30.21
307.807	64
308.021	47.62
308.235	98.81
308.449	29.18
308.663	59.9
308.877	43.52
309.091	-1.54
309.305	25.09
309.519	-40.45
309.733	45.57
309.947	-11.78
310.161	2.56
310.374	55.81
310.588	61.95
310.802	6.66
311.016	-32.26
311.23	53.76
311.444	-34.3
311.658	18.94
311.872	94.72
312.085	-48.64
312.299	59.9
312.513	16.9
312.727	23.04
312.941	-26.11
313.154	64
313.368	29.18
313.582	20.99
313.796	18.94
314.009	-28.16
314.223	111.1
314.437	70.14
314.651	-26.11
314.864	18.94
315.078	-15.87
315.292	-13.82
315.505	2.56
315.719	51.71
315.933	39.42
316.146	39.42
316.36	39.42
316.573	-1.54
316.787	8.7
317.001	16.9
317.214	-26.11
317.428	61.95
317.641	-71.17
317.855	41.47
318.068	35.33
318.282	57.86
318.495	-24.06
318.709	-1.54
318.922	8.7
319.136	27.14
319.349	57.86
319.563	-30.21
319.776	39.42
319.99	-17.92
320.203	88.57
320.417	82.43
320.63	20.99
320.843	-26.11
321.057	-19.97
321.27	20.99
321.483	14.85
321.697	86.53
321.91	8.7
322.124	53.76
322.337	10.75
322.55	45.57
322.763	2.56
322.977	78.33
323.19	14.85
323.403	12.8
323.617	41.47
323.83	96.77
324.043	-3.58
324.256	45.57
324.469	45.57
324.683	31.23
324.896	23.04
325.109	43.52
325.322	20.99
325.535	10.75
325.748	27.14
325.962	27.14
326.175	2.56
326.388	33.28
326.601	-1.54
326.814	23.04
327.027	12.8
327.24	47.62
327.453	70.14
327.666	45.57
327.879	-15.87
328.092	92.67
328.305	-30.21
328.518	70.14
328.731	10.75
328.944	43.52
329.157	45.57
329.37	31.23
329.583	47.62
329.796	74.24
330.009	10.75
330.222	20.99
330.435	35.33
330.648	53.76
330.861	29.18
331.073	29.18
331.286	-60.93
331.499	94.72
331.712	-42.5
331.925	-24.06
332.138	29.18
332.35	6.66
332.563	39.42
332.776	51.71
332.989	51.71
333.202	-1.54
333.414	10.75
333.627	76.29
333.84	18.94
334.053	-3.58
334.265	-17.92
334.478	27.14
334.691	6.66
334.903	10.75
335.116	92.67
335.329	-22.02
335.541	61.95
335.754	10.75
335.966	31.23
336.179	18.94
336.392	55.81
336.604	-7.68
336.817	59.9
337.029	72.19
337.242	53.76
337.454	70.14
337.667	8.7
337.88	2.56
338.092	55.81
338.305	64
338.517	10.75
338.729	-24.06
338.942	47.62
339.154	-50.69
339.367	-69.12
339.579	53.76
339.792	14.85
340.004	4.61
340.217	-34.3
340.429	18.94
340.641	-19.97
340.854	57.86
341.066	10.75
341.278	35.33
341.491	45.57
341.703	84.48
341.915	-5.63
342.128	59.9
342.34	55.81
342.552	-30.21
342.764	78.33
342.977	-7.68
343.189	23.04
343.401	-7.68
343.613	35.33
343.826	18.94
344.038	-19.97
344.25	86.53
344.462	59.9
344.674	10.75
344.886	-34.3
345.099	-38.4
345.311	88.57
345.523	78.33
345.735	-15.87
345.947	4.61
346.159	35.33
346.371	-7.68
346.583	8.7
346.795	94.72
347.007	8.7
347.219	35.33
347.431	4.61
347.643	53.76
347.855	37.38
348.067	55.81
348.279	6.66
348.491	12.8
348.703	72.19
348.915	78.33
349.127	23.04
349.339	-30.21
349.551	-28.16
349.763	27.14
349.975	-7.68
350.187	-28.16
350.399	-38.4
350.61	18.94
350.822	43.52
351.034	16.9
351.246	59.9
351.458	-5.63
351.669	25.09
351.881	-15.87
352.093	66.05
352.305	70.14
352.517	-11.78
352.728	-3.58
352.94	-3.58
353.152	80.38
353.363	10.75
353.575	39.42
353.787	-13.82
353.999	43.52
354.21	119.29
354.422	0.51
354.633	25.09
354.845	20.99
355.057	0.51
355.268	84.48
355.48	-11.78
355.692	18.94
355.903	-26.11
356.115	111.1
356.326	-3.58
356.538	84.48
356.749	6.66
356.961	76.29
357.172	25.09
357.384	64
357.595	14.85
357.807	2.56
358.018	16.9
358.23	20.99
358.441	51.71
358.653	43.52
358.864	43.52
359.075	12.8
359.287	43.52
359.498	59.9
359.709	78.33
359.921	64
360.132	-5.63
360.344	102.91
360.555	-11.78
360.766	-26.11
360.977	-42.5
361.189	145.92
361.4	51.71
361.611	18.94
361.823	43.52
362.034	47.62
362.245	31.23
362.456	18.94
362.667	6.66
362.879	66.05
363.09	-30.21
363.301	39.42
363.512	80.38
363.723	76.29
363.935	49.66
364.146	78.33
364.357	53.76
364.568	29.18
364.779	64
364.99	31.23
365.201	41.47
365.412	68.09
365.623	55.81
365.834	66.05
366.045	39.42
366.256	39.42
366.467	39.42
366.678	59.9
366.889	-48.64
367.1	-1.54
367.311	119.29
367.522	23.04
367.733	90.62
367.944	18.94
368.155	-5.63
368.366	70.14
368.577	55.81
368.788	80.38
368.999	18.94
369.209	6.66
369.42	57.86
369.631	94.72
369.842	18.94
370.053	45.57
370.264	8.7
370.474	51.71
370.685	35.33
370.896	59.9
371.107	16.9
371.317	61.95
371.528	86.53
371.739	64
371.95	4.61
372.16	90.62
372.371	14.85
372.582	84.48
372.792	70.14
373.003	-5.63
373.214	-5.63
373.424	20.99
373.635	35.33
373.846	127.49
374.056	-9.73
374.267	-28.16
374.477	43.52
374.688	6.66
374.898	-11.78
375.109	18.94
375.319	100.86
375.53	-7.68
375.74	-1.54
375.951	39.42
376.161	10.75
376.372	74.24
376.582	23.04
376.793	4.61
377.003	33.28
377.214	47.62
377.424	-5.63
377.635	92.67
377.845	68.09
378.055	37.38
378.266	-26.11
378.476	72.19
378.686	37.38
378.897	115.2
379.107	-26.11
379.317	68.09
379.528	43.52
379.738	2.56
379.948	-1.54
380.158	55.81
380.369	35.33
380.579	68.09
380.789	12.8
380.999	45.57
381.21	111.1
381.42	86.53
381.63	-28.16
381.84	61.95
382.05	31.23
382.261	107.01
382.471	41.47
382.681	-9.73
382.891	37.38
383.101	8.7
383.311	-13.82
383.521	98.81
383.731	10.75
383.941	68.09
384.151	47.62
384.361	55.81
384.571	-24.06
384.781	64
384.991	59.9
385.201	76.29
385.411	100.86
385.621	6.66
385.831	6.66
386.041	23.04
386.251	-5.63
386.461	39.42
386.671	74.24
386.881	45.57
387.091	33.28
387.301	39.42
387.511	33.28
387.72	94.72
387.93	47.62
388.14	64
388.35	-30.21
388.56	100.86
388.769	25.09
388.979	0.51
389.189	64
389.399	123.39
389.609	37.38
389.818	66.05
390.028	8.7
390.238	0.51
390.447	18.94
390.657	59.9
390.867	61.95
391.076	-3.58
391.286	59.9
391.496	39.42
391.705	18.94
391.915	59.9
392.125	64
392.334	29.18
392.544	29.18
392.753	92.67
392.963	10.75
393.172	70.14
393.382	35.33
393.591	39.42
393.801	-7.68
394.01	57.86
394.22	47.62
394.429	78.33
394.639	37.38
394.848	76.29
395.058	57.86
395.267	64
395.477	55.81
395.686	117.25
395.895	96.77
396.105	64
396.314	-19.97
396.524	86.53
396.733	2.56
396.942	109.05
397.152	53.76
397.361	-7.68
397.57	41.47
397.78	-5.63
397.989	104.96
398.198	41.47
398.407	39.42
398.617	29.18
398.826	61.95
399.035	72.19
399.244	-26.11
399.453	100.86
399.663	47.62
399.872	141.82
400.081	78.33
400.29	84.48
400.499	86.53
400.708	94.72
400.917	82.43
401.127	59.9
401.336	98.81
401.545	102.91
401.754	88.57
401.963	115.2
402.172	35.33
402.381	135.68
402.59	100.86
402.799	-3.58
403.008	37.38
403.217	117.25
403.426	70.14
403.635	125.44
403.844	117.25
404.053	150.01
404.262	172.54
404.471	160.25
404.68	178.69
404.888	92.67
405.097	154.11
405.306	168.45
405.515	27.14
405.724	78.33
405.933	162.3
406.142	170.49
406.35	133.63
406.559	51.71
406.768	143.87
406.977	135.68
407.185	100.86
407.394	164.35
407.603	150.01
407.812	174.59
408.02	195.07
408.229	84.48
408.438	166.4
408.646	174.59
408.855	172.54
409.064	186.88
409.272	188.93
409.481	178.69
409.69	176.64
409.898	205.31
410.107	260.6
410.315	154.11
410.524	150.01
410.733	154.11
410.941	242.17
411.15	229.88
411.358	289.28
411.567	272.89
411.775	203.26
411.984	289.28
412.192	313.85
412.401	293.37
412.609	283.13
412.818	320
413.026	307.71
413.234	340.47
413.443	338.43
413.651	356.86
413.86	315.9
414.068	434.68
414.276	397.82
414.485	416.25
414.693	420.35
414.901	408.06
415.11	442.87
415.318	440.83
415.526	502.26
415.734	504.31
415.943	457.21
416.151	575.99
416.359	614.9
416.567	592.37
416.776	631.29
416.984	623.09
417.192	578.04
417.4	698.87
417.608	727.54
417.817	668.15
418.025	735.73
418.233	803.32
418.441	780.79
418.649	739.83
418.857	852.47
419.065	827.89
419.273	950.77
419.481	866.8
419.689	885.23
419.897	993.78
420.105	954.87
420.313	889.33
420.521	1065.46
420.729	1067.5
420.937	1090.03
421.145	1200.62
421.353	1221.1
421.561	1251.82
421.769	1325.55
421.977	1286.64
422.185	1270.25
422.393	1425.9
422.601	1495.53
422.809	1444.33
423.017	1497.58
423.224	1616.36
423.432	1731.05
423.64	1620.46
423.848	1759.72
424.056	1739.24
424.263	1845.73
424.471	1905.12
424.679	1858.02
424.887	2097.63
425.094	2036.19
425.302	2154.98
425.51	2111.97
425.718	2126.3
425.925	2294.24
426.133	2288.09
426.341	2365.92
426.548	2478.55
426.756	2572.76
426.964	2626.01
427.171	2804.18
427.379	2824.66
427.586	2767.32
427.794	2822.61
428.001	3152.34
428.209	3156.43
428.417	3240.4
428.624	3389.9
428.832	3418.57
429.039	3238.35
429.247	3406.28
429.454	3615.18
429.662	3748.29
429.869	3602.89
430.076	3899.84
430.284	3666.38
430.491	3899.84
430.699	4032.96
430.906	4221.38
431.114	4272.57
431.321	4409.79
431.528	4604.35
431.736	4827.57
431.943	5026.23
432.15	4825.53
432.358	4815.29
432.565	5159.35
432.772	5054.9
432.979	5339.57
433.187	5493.16
433.394	5640.62
433.601	5925.29
433.808	5732.78
434.016	5796.26
434.223	6205.86
434.43	6379.93
434.637	6318.5
434.844	6844.82
435.052	6871.45
435.259	6746.52
435.466	6898.07
435.673	6695.32
435.88	7274.9
436.087	7651.72
436.294	7745.93
436.501	7512.46
436.708	7604.62
436.915	7858.57
437.122	8145.28
437.329	8280.45
437.537	8386.94
437.743	8515.97
437.95	8497.53
438.157	9161.08
438.364	9220.47
438.571	9349.49
438.778	9365.87
438.985	10090.85
439.192	9888.11
439.399	9927.02
439.606	9742.7
439.813	10191.2
440.02	10963.29
440.227	10844.51
440.433	10711.39
440.64	11045.21
440.847	10975.58
441.054	11430.23
441.261	11999.56
441.467	12007.75
441.674	11995.46
441.881	12513.6
442.088	12734.78
442.294	12310.85
442.501	12613.95
442.708	12953.91
442.914	13252.92
443.121	13916.46
443.328	13412.66
443.534	14887.2
443.741	14225.7
443.948	13820.21
444.154	15053.08
444.361	15014.17
444.568	15249.69
444.774	14758.17
444.981	15239.45
445.187	15663.38
445.394	16281.86
445.6	16013.58
445.807	17598.71
446.013	17062.14
446.22	17203.45
446.426	17836.27
446.633	17754.35
446.839	18606.31
447.046	18051.31
447.252	18618.6
447.459	18882.78
447.665	18534.63
447.871	19689.68
448.078	20650.18
448.284	19417.3
448.491	20205.77
448.697	20840.64
448.903	20947.14
449.11	21172.41
449.316	20967.62
449.522	21149.89
449.728	21565.62
449.935	21805.24
450.141	22071.47
450.347	22354.09
450.553	21686.45
450.76	21934.26
450.966	22587.56
451.172	22343.85
451.378	22798.5
451.584	22325.42
451.791	23201.95
451.997	23163.04
452.203	23367.84
452.409	23455.9
452.615	23462.04
452.821	22280.36
453.027	22210.73
453.233	23283.87
453.44	22331.56
453.646	22759.59
453.852	22681.77
454.058	23052.45
454.264	22024.37
454.47	22880.42
454.676	22214.83
454.882	22892.71
455.088	21059.77
455.294	21135.55
455.5	21375.16
455.705	21700.79
455.911	20768.96
456.117	20197.58
456.323	20338.89
456.529	19253.47
456.735	20170.96
456.941	19448.02
457.147	19243.23
457.352	18460.9
457.558	18415.85
457.764	18585.83
457.97	17975.53
458.176	17613.04
458.381	17789.17
458.587	16851.2
458.793	16791.81
458.999	15870.22
459.204	17352.95
459.41	16630.02
459.616	15384.85
459.821	15649.04
460.027	15429.91
460.233	14981.4
460.438	14401.83
460.644	14549.28
460.85	13936.94
461.055	13771.05
461.261	13674.8
461.466	12620.1
461.672	12486.98
461.878	13136.18
462.083	12462.4
462.289	12151.11
462.494	11989.32
462.7	11278.68
462.905	11123.03
463.111	11520.34
463.316	11653.45
463.522	11217.24
463.727	11155.8
463.932	11366.74
464.138	11274.58
464.343	11317.59
464.549	10891.61
464.754	11264.34
464.959	11186.52
465.165	11059.54
465.37	10877.27
465.575	10320.23
465.781	10629.47
465.986	10828.12
466.191	10324.32
466.397	10264.93
466.602	9800.04
466.807	10021.22
467.012	10344.8
467.218	10365.28
467.423	9980.26
467.628	10037.61
467.833	10479.97
468.038	9992.55
468.244	9820.52
468.449	10117.48
468.654	9843.05
468.859	9818.47
469.064	9750.89
