Data from USB4F104151__172__13-58-56-111.txt Node

Date: Thu Mar 13 13:58:56 EDT 2025
User: louis
Spectrometer: USB4F10415
Trigger mode: 4
Integration Time (sec): 1.000000E-2
Scans to average: 1
Electric dark correction enabled: true
Nonlinearity correction enabled: false
Boxcar width: 0
XAxis mode: Wavelengths
Number of Pixels in Spectrum: 3648
>>>>>Begin Spectral Data<<<<<
178.204	-67.41
178.424	-67.41
178.644	-67.41
178.864	-71.51
179.084	-44.88
179.304	-44.88
179.524	-24.4
179.744	-30.55
179.964	-48.98
180.184	73.9
180.404	47.27
180.624	-53.08
180.844	37.03
181.064	-8.02
181.283	34.99
181.503	-18.26
181.723	34.99
181.943	51.37
182.163	22.7
182.383	-12.12
182.602	49.32
182.822	-28.5
183.042	43.18
183.262	24.75
183.482	82.09
183.701	55.47
183.921	47.27
184.141	-24.4
184.361	82.09
184.58	-1.88
184.8	30.89
185.02	30.89
185.239	-28.5
185.459	-18.26
185.679	53.42
185.898	10.41
186.118	4.27
186.338	41.13
186.557	6.31
186.777	-24.4
186.997	73.9
187.216	-40.79
187.436	-1.88
187.655	-34.64
187.875	-1.88
188.095	67.75
188.314	39.08
188.534	37.03
188.753	14.51
188.973	77.99
189.192	63.66
189.412	22.7
189.631	26.79
189.851	0.17
190.07	34.99
190.29	47.27
190.509	-3.93
190.729	123.05
190.948	39.08
191.168	41.13
191.387	10.41
191.607	-12.12
191.826	47.27
192.045	-12.12
192.265	61.61
192.484	73.9
192.704	24.75
192.923	34.99
193.142	22.7
193.362	-16.21
193.581	53.42
193.8	-1.88
194.02	8.36
194.239	63.66
194.458	51.37
194.678	41.13
194.897	-12.12
195.116	20.65
195.335	32.94
195.555	94.38
195.774	45.23
195.993	37.03
196.212	57.51
196.432	28.84
196.651	-14.17
196.87	-3.93
197.089	20.65
197.308	22.7
197.528	26.79
197.747	69.8
197.966	8.36
198.185	77.99
198.404	-28.5
198.623	45.23
198.842	51.37
199.062	-18.26
199.281	16.55
199.5	-34.64
199.719	39.08
199.938	37.03
200.157	28.84
200.376	2.22
200.595	80.04
200.814	67.75
201.033	-1.88
201.252	39.08
201.471	51.37
201.69	57.51
201.909	51.37
202.128	-3.93
202.347	0.17
202.566	-36.69
202.785	16.55
203.004	-28.5
203.223	114.86
203.442	-22.36
203.661	-30.55
203.879	12.46
204.098	73.9
204.317	41.13
204.536	55.47
204.755	24.75
204.974	65.71
205.193	-8.02
205.411	57.51
205.63	30.89
205.849	12.46
206.068	-12.12
206.287	45.23
206.505	-12.12
206.724	-1.88
206.943	-5.97
207.162	-1.88
207.381	8.36
207.599	102.57
207.818	37.03
208.037	88.23
208.255	10.41
208.474	71.85
208.693	24.75
208.911	41.13
209.13	41.13
209.349	47.27
209.567	57.51
209.786	18.6
210.005	77.99
210.223	30.89
210.442	-48.98
210.661	34.99
210.879	30.89
211.098	47.27
211.316	75.95
211.535	18.6
211.753	39.08
211.972	41.13
212.191	-30.55
212.409	20.65
212.628	26.79
212.846	-42.84
213.065	-1.88
213.283	32.94
213.502	8.36
213.72	41.13
213.938	-3.93
214.157	30.89
214.375	55.47
214.594	30.89
214.812	-8.02
215.031	18.6
215.249	-16.21
215.467	41.13
215.686	30.89
215.904	-5.97
216.122	-26.45
216.341	71.85
216.559	-12.12
216.778	55.47
216.996	63.66
217.214	2.22
217.432	-1.88
217.651	-22.36
217.869	37.03
218.087	59.56
218.306	8.36
218.524	6.31
218.742	-3.93
218.96	22.7
219.179	39.08
219.397	49.32
219.615	75.95
219.833	-8.02
220.051	-1.88
220.27	-1.88
220.488	55.47
220.706	26.79
220.924	37.03
221.142	24.75
221.36	-12.12
221.578	22.7
221.796	28.84
222.015	71.85
222.233	41.13
222.451	24.75
222.669	2.22
222.887	24.75
223.105	22.7
223.323	14.51
223.541	-5.97
223.759	-1.88
223.977	39.08
224.195	-40.79
224.413	55.47
224.631	-8.02
224.849	28.84
225.067	-36.69
225.285	84.14
225.503	12.46
225.721	-55.12
225.939	26.79
226.157	41.13
226.375	98.47
226.592	45.23
226.81	10.41
227.028	30.89
227.246	45.23
227.464	-1.88
227.682	24.75
227.9	39.08
228.117	55.47
228.335	12.46
228.553	-46.93
228.771	-5.97
228.989	2.22
229.206	-8.02
229.424	-38.74
229.642	-1.88
229.86	26.79
230.077	57.51
230.295	106.67
230.513	-5.97
230.731	51.37
230.948	55.47
231.166	28.84
231.384	14.51
231.601	37.03
231.819	82.09
232.037	16.55
232.254	4.27
232.472	4.27
232.689	30.89
232.907	41.13
233.125	16.55
233.342	-40.79
233.56	61.61
233.777	-16.21
233.995	24.75
234.213	73.9
234.43	-14.17
234.648	34.99
234.865	47.27
235.083	14.51
235.3	63.66
235.518	22.7
235.735	-8.02
235.953	55.47
236.17	4.27
236.388	32.94
236.605	67.75
236.822	-10.07
237.04	63.66
237.257	6.31
237.475	12.46
237.692	43.18
237.909	59.56
238.127	18.6
238.344	10.41
238.562	14.51
238.779	-8.02
238.996	77.99
239.214	-14.17
239.431	-10.07
239.648	14.51
239.865	12.46
240.083	14.51
240.3	-40.79
240.517	16.55
240.735	28.84
240.952	10.41
241.169	71.85
241.386	22.7
241.603	8.36
241.821	32.94
242.038	82.09
242.255	118.95
242.472	-8.02
242.689	61.61
242.907	-8.02
243.124	43.18
243.341	14.51
243.558	12.46
243.775	59.56
243.992	39.08
244.209	32.94
244.426	63.66
244.643	-32.6
244.86	2.22
245.078	51.37
245.295	51.37
245.512	22.7
245.729	10.41
245.946	-3.93
246.163	12.46
246.38	-5.97
246.597	14.51
246.814	-24.4
247.031	57.51
247.248	-1.88
247.464	69.8
247.681	-32.6
247.898	-1.88
248.115	39.08
248.332	55.47
248.549	30.89
248.766	16.55
248.983	88.23
249.2	-22.36
249.417	20.65
249.633	6.31
249.85	43.18
250.067	-14.17
250.284	-38.74
250.501	41.13
250.717	10.41
250.934	-8.02
251.151	34.99
251.368	28.84
251.585	114.86
251.801	88.23
252.018	-1.88
252.235	53.42
252.451	57.51
252.668	16.55
252.885	14.51
253.102	6.31
253.318	-51.03
253.535	20.65
253.752	2.22
253.968	51.37
254.185	39.08
254.401	22.7
254.618	32.94
254.835	14.51
255.051	16.55
255.268	2.22
255.484	69.8
255.701	-16.21
255.917	14.51
256.134	-22.36
256.351	22.7
256.567	4.27
256.784	41.13
257	-5.97
257.217	82.09
257.433	61.61
257.65	77.99
257.866	41.13
258.082	-44.88
258.299	-48.98
258.515	84.14
258.732	18.6
258.948	84.14
259.165	63.66
259.381	55.47
259.597	-24.4
259.814	104.62
260.03	10.41
260.246	22.7
260.463	41.13
260.679	16.55
260.895	-22.36
261.112	41.13
261.328	49.32
261.544	4.27
261.761	88.23
261.977	-1.88
262.193	-48.98
262.409	-36.69
262.626	65.71
262.842	67.75
263.058	37.03
263.274	55.47
263.49	63.66
263.707	45.23
263.923	22.7
264.139	32.94
264.355	41.13
264.571	80.04
264.787	34.99
265.004	73.9
265.22	82.09
265.436	28.84
265.652	18.6
265.868	-63.32
266.084	-38.74
266.3	-18.26
266.516	26.79
266.732	22.7
266.948	20.65
267.164	22.7
267.38	53.42
267.596	32.94
267.812	14.51
268.028	-40.79
268.244	73.9
268.46	63.66
268.676	2.22
268.892	37.03
269.108	-12.12
269.324	47.27
269.54	-36.69
269.756	12.46
269.972	14.51
270.188	100.52
270.403	24.75
270.619	53.42
270.835	22.7
271.051	12.46
271.267	67.75
271.483	-14.17
271.698	8.36
271.914	8.36
272.13	-16.21
272.346	16.55
272.562	30.89
272.777	-34.64
272.993	20.65
273.209	82.09
273.425	30.89
273.64	2.22
273.856	73.9
274.072	63.66
274.287	-1.88
274.503	-14.17
274.719	51.37
274.934	24.75
275.15	55.47
275.366	59.56
275.581	51.37
275.797	-28.5
276.012	14.51
276.228	51.37
276.444	47.27
276.659	8.36
276.875	14.51
277.09	49.32
277.306	-12.12
277.521	104.62
277.737	51.37
277.952	73.9
278.168	34.99
278.383	47.27
278.599	26.79
278.814	73.9
279.03	24.75
279.245	24.75
279.461	2.22
279.676	59.56
279.892	0.17
280.107	18.6
280.322	-14.17
280.538	-26.45
280.753	-10.07
280.969	26.79
281.184	-1.88
281.399	141.48
281.615	14.51
281.83	32.94
282.045	43.18
282.26	63.66
282.476	-26.45
282.691	45.23
282.906	12.46
283.122	26.79
283.337	-24.4
283.552	24.75
283.767	30.89
283.983	71.85
284.198	-12.12
284.413	28.84
284.628	59.56
284.843	-1.88
285.058	28.84
285.274	16.55
285.489	77.99
285.704	73.9
285.919	84.14
286.134	-75.6
286.349	100.52
286.564	-5.97
286.779	39.08
286.995	41.13
287.21	22.7
287.425	55.47
287.64	75.95
287.855	2.22
288.07	8.36
288.285	-8.02
288.5	34.99
288.715	71.85
288.93	20.65
289.145	94.38
289.36	88.23
289.575	47.27
289.79	53.42
290.004	80.04
290.219	-1.88
290.434	32.94
290.649	39.08
290.864	0.17
291.079	43.18
291.294	55.47
291.509	90.28
291.724	37.03
291.938	43.18
292.153	98.47
292.368	41.13
292.583	39.08
292.798	39.08
293.012	55.47
293.227	67.75
293.442	20.65
293.657	-16.21
293.871	45.23
294.086	47.27
294.301	41.13
294.516	65.71
294.73	75.95
294.945	-34.64
295.16	45.23
295.374	71.85
295.589	71.85
295.804	39.08
296.018	63.66
296.233	133.29
296.447	47.27
296.662	43.18
296.877	-3.93
297.091	18.6
297.306	26.79
297.52	88.23
297.735	26.79
297.949	-1.88
298.164	65.71
298.378	2.22
298.593	26.79
298.807	55.47
299.022	53.42
299.236	-8.02
299.451	24.75
299.665	10.41
299.88	45.23
300.094	2.22
300.309	67.75
300.523	51.37
300.737	-22.36
300.952	24.75
301.166	82.09
301.381	63.66
301.595	67.75
301.809	24.75
302.024	55.47
302.238	71.85
302.452	-22.36
302.667	67.75
302.881	39.08
303.095	26.79
303.309	55.47
303.524	112.81
303.738	69.8
303.952	59.56
304.166	55.47
304.381	37.03
304.595	30.89
304.809	102.57
305.023	108.71
305.237	41.13
305.452	77.99
305.666	6.31
305.88	-26.45
306.094	-3.93
306.308	47.27
306.522	69.8
306.736	104.62
306.95	71.85
307.164	53.42
307.379	22.7
307.593	41.13
307.807	8.36
308.021	45.23
308.235	69.8
308.449	59.56
308.663	32.94
308.877	92.33
309.091	20.65
309.305	63.66
309.519	18.6
309.733	80.04
309.947	61.61
310.161	43.18
310.374	14.51
310.588	-14.17
310.802	18.6
311.016	57.51
311.23	39.08
311.444	-32.6
311.658	32.94
311.872	12.46
312.085	32.94
312.299	37.03
312.513	61.61
312.727	51.37
312.941	8.36
313.154	18.6
313.368	22.7
313.582	59.56
313.796	-51.03
314.009	24.75
314.223	57.51
314.437	65.71
314.651	18.6
314.864	82.09
315.078	10.41
315.292	20.65
315.505	41.13
315.719	0.17
315.933	6.31
316.146	49.32
316.36	14.51
316.573	75.95
316.787	-30.55
317.001	57.51
317.214	43.18
317.428	32.94
317.641	6.31
317.855	47.27
318.068	57.51
318.282	4.27
318.495	28.84
318.709	12.46
318.922	57.51
319.136	20.65
319.349	12.46
319.563	75.95
319.776	32.94
319.99	55.47
320.203	4.27
320.417	12.46
320.63	88.23
320.843	-8.02
321.057	20.65
321.27	67.75
321.483	30.89
321.697	43.18
321.91	10.41
322.124	26.79
322.337	16.55
322.55	77.99
322.763	-71.51
322.977	55.47
323.19	39.08
323.403	43.18
323.617	18.6
323.83	63.66
324.043	14.51
324.256	30.89
324.469	8.36
324.683	-26.45
324.896	43.18
325.109	51.37
325.322	-38.74
325.535	108.71
325.748	18.6
325.962	30.89
326.175	51.37
326.388	30.89
326.601	24.75
326.814	22.7
327.027	47.27
327.24	45.23
327.453	32.94
327.666	8.36
327.879	34.99
328.092	123.05
328.305	47.27
328.518	6.31
328.731	75.95
328.944	45.23
329.157	8.36
329.37	104.62
329.583	16.55
329.796	32.94
330.009	-22.36
330.222	-8.02
330.435	6.31
330.648	43.18
330.861	80.04
331.073	-1.88
331.286	63.66
331.499	30.89
331.712	37.03
331.925	20.65
332.138	20.65
332.35	51.37
332.563	16.55
332.776	6.31
332.989	82.09
333.202	14.51
333.414	37.03
333.627	65.71
333.84	6.31
334.053	61.61
334.265	10.41
334.478	43.18
334.691	43.18
334.903	63.66
335.116	-1.88
335.329	24.75
335.541	43.18
335.754	73.9
335.966	63.66
336.179	67.75
336.392	-63.32
336.604	90.28
336.817	20.65
337.029	12.46
337.242	28.84
337.454	92.33
337.667	28.84
337.88	10.41
338.092	73.9
338.305	18.6
338.517	69.8
338.729	92.33
338.942	10.41
339.154	28.84
339.367	32.94
339.579	45.23
339.792	-18.26
340.004	49.32
340.217	57.51
340.429	-10.07
340.641	18.6
340.854	77.99
341.066	-38.74
341.278	49.32
341.491	-22.36
341.703	53.42
341.915	30.89
342.128	71.85
342.34	22.7
342.552	82.09
342.764	90.28
342.977	10.41
343.189	-12.12
343.401	100.52
343.613	92.33
343.826	39.08
344.038	-8.02
344.25	34.99
344.462	82.09
344.674	-28.5
344.886	102.57
345.099	84.14
345.311	32.94
345.523	24.75
345.735	108.71
345.947	24.75
346.159	69.8
346.371	61.61
346.583	47.27
346.795	69.8
347.007	2.22
347.219	61.61
347.431	86.19
347.643	108.71
347.855	6.31
348.067	26.79
348.279	55.47
348.491	-26.45
348.703	104.62
348.915	8.36
349.127	55.47
349.339	41.13
349.551	-16.21
349.763	61.61
349.975	75.95
350.187	90.28
350.399	63.66
350.61	47.27
350.822	73.9
351.034	106.67
351.246	47.27
351.458	86.19
351.669	47.27
351.881	53.42
352.093	57.51
352.305	-22.36
352.517	92.33
352.728	14.51
352.94	143.53
353.152	-10.07
353.363	55.47
353.575	22.7
353.787	41.13
353.999	8.36
354.21	63.66
354.422	8.36
354.633	96.43
354.845	28.84
355.057	92.33
355.268	-18.26
355.48	30.89
355.692	20.65
355.903	67.75
356.115	30.89
356.326	24.75
356.538	55.47
356.749	22.7
356.961	61.61
357.172	88.23
357.384	-30.55
357.595	12.46
357.807	145.58
358.018	41.13
358.23	30.89
358.441	106.67
358.653	30.89
358.864	10.41
359.075	-51.03
359.287	39.08
359.498	125.1
359.709	61.61
359.921	26.79
360.132	2.22
360.344	34.99
360.555	4.27
360.766	39.08
360.977	32.94
361.189	55.47
361.4	100.52
361.611	80.04
361.823	-18.26
362.034	22.7
362.245	37.03
362.456	71.85
362.667	-16.21
362.879	67.75
363.09	88.23
363.301	51.37
363.512	73.9
363.723	67.75
363.935	-75.6
364.146	104.62
364.357	22.7
364.568	2.22
364.779	41.13
364.99	-8.02
365.201	43.18
365.412	-30.55
365.623	112.81
365.834	34.99
366.045	20.65
366.256	88.23
366.467	45.23
366.678	53.42
366.889	2.22
367.1	45.23
367.311	39.08
367.522	45.23
367.733	75.95
367.944	53.42
368.155	-38.74
368.366	34.99
368.577	18.6
368.788	67.75
368.999	41.13
369.209	63.66
369.42	82.09
369.631	14.51
369.842	-8.02
370.053	92.33
370.264	4.27
370.474	90.28
370.685	-3.93
370.896	-1.88
371.107	69.8
371.317	92.33
371.528	-26.45
371.739	18.6
371.95	57.51
372.16	14.51
372.371	69.8
372.582	121
372.792	22.7
373.003	45.23
373.214	-34.64
373.424	61.61
373.635	-10.07
373.846	47.27
374.056	0.17
374.267	18.6
374.477	30.89
374.688	6.31
374.898	20.65
375.109	34.99
375.319	45.23
375.53	92.33
375.74	22.7
375.951	20.65
376.161	34.99
376.372	20.65
376.582	10.41
376.793	86.19
377.003	-1.88
377.214	90.28
377.424	-8.02
377.635	32.94
377.845	6.31
378.055	59.56
378.266	57.51
378.476	84.14
378.686	49.32
378.897	137.38
379.107	-8.02
379.317	18.6
379.528	88.23
379.738	14.51
379.948	-5.97
380.158	90.28
380.369	-18.26
380.579	88.23
380.789	55.47
380.999	39.08
381.21	49.32
381.42	80.04
381.63	45.23
381.84	57.51
382.05	14.51
382.261	34.99
382.471	22.7
382.681	98.47
382.891	30.89
383.101	65.71
383.311	-5.97
383.521	-1.88
383.731	10.41
383.941	112.81
384.151	110.76
384.361	67.75
384.571	67.75
384.781	-22.36
384.991	12.46
385.201	57.51
385.411	94.38
385.621	75.95
385.831	57.51
386.041	82.09
386.251	26.79
386.461	43.18
386.671	10.41
386.881	86.19
387.091	20.65
387.301	51.37
387.511	32.94
387.72	30.89
387.93	32.94
388.14	-36.69
388.35	61.61
388.56	20.65
388.769	51.37
388.979	-30.55
389.189	45.23
389.399	63.66
389.609	49.32
389.818	55.47
390.028	96.43
390.238	34.99
390.447	-16.21
390.657	55.47
390.867	51.37
391.076	96.43
391.286	104.62
391.496	24.75
391.705	26.79
391.915	-5.97
392.125	69.8
392.334	104.62
392.544	125.1
392.753	8.36
392.963	55.47
393.172	14.51
393.382	32.94
393.591	112.81
393.801	4.27
394.01	147.62
394.22	47.27
394.429	104.62
394.639	39.08
394.848	55.47
395.058	75.95
395.267	92.33
395.477	69.8
395.686	112.81
395.895	123.05
396.105	47.27
396.314	82.09
396.524	84.14
396.733	90.28
396.942	88.23
397.152	67.75
397.361	82.09
397.57	75.95
397.78	92.33
397.989	55.47
398.198	131.24
398.407	37.03
398.617	114.86
398.826	47.27
399.035	137.38
399.244	80.04
399.453	26.79
399.663	121
399.872	184.49
400.081	55.47
400.29	82.09
400.499	110.76
400.708	141.48
400.917	53.42
401.127	30.89
401.336	133.29
401.545	176.3
401.754	123.05
401.963	129.19
402.172	24.75
402.381	47.27
402.59	145.58
402.799	129.19
403.008	-3.93
403.217	73.9
403.426	-3.93
403.635	104.62
403.844	55.47
404.053	94.38
404.262	96.43
404.471	53.42
404.68	129.19
404.888	98.47
405.097	129.19
405.306	145.58
405.515	131.24
405.724	98.47
405.933	90.28
406.142	104.62
406.35	186.54
406.559	207.02
406.768	135.34
406.977	155.82
407.185	153.77
407.394	131.24
407.603	190.63
407.812	123.05
408.02	153.77
408.229	172.2
408.438	121
408.646	149.67
408.855	229.54
409.064	188.58
409.272	131.24
409.481	131.24
409.69	149.67
409.898	57.51
410.107	280.74
410.315	276.65
410.524	161.96
410.733	245.93
410.941	176.3
411.15	178.34
411.358	284.84
411.567	266.41
411.775	264.36
411.984	280.74
412.192	325.8
412.401	282.79
412.609	336.04
412.818	299.17
413.026	321.7
413.234	323.75
413.443	333.99
413.651	424.1
413.86	299.17
414.068	358.57
414.276	393.38
414.485	309.41
414.693	440.48
414.901	415.91
415.11	399.52
415.318	377
415.526	489.64
415.734	467.11
415.943	485.54
416.151	506.02
416.359	526.5
416.567	483.49
416.776	604.32
416.984	612.51
417.192	637.09
417.4	583.84
417.608	608.42
417.817	581.79
418.025	651.42
418.233	751.78
418.441	671.9
418.649	741.54
418.857	768.16
419.065	850.08
419.273	800.93
419.481	858.27
419.689	866.46
419.897	985.24
420.105	919.71
420.313	1030.3
420.521	1065.11
420.729	1067.16
420.937	1067.16
421.145	1028.25
421.353	1097.88
421.561	1165.46
421.769	1253.53
421.977	1274.01
422.185	1294.49
422.393	1310.87
422.601	1431.7
422.809	1312.92
423.017	1433.75
423.224	1415.32
423.432	1534.1
423.64	1564.82
423.848	1581.2
424.056	1663.12
424.263	1689.74
424.471	1759.38
424.679	1829.01
424.887	1976.46
425.094	2023.56
425.302	1955.98
425.51	1923.21
425.718	2132.11
425.925	2121.87
426.133	2224.26
426.341	2373.77
426.548	2406.53
426.756	2375.81
426.964	2484.36
427.171	2545.8
427.379	2621.57
427.586	2713.73
427.794	2709.63
428.001	2941.05
428.209	3014.78
428.417	2914.43
428.624	3082.36
428.832	3213.43
429.039	3049.6
429.247	3131.51
429.454	3569.78
429.662	3639.41
429.869	3534.96
430.076	3692.66
430.284	3563.64
430.491	3612.79
430.699	3952.75
430.906	3862.64
431.114	4163.69
431.321	4169.84
431.528	4114.54
431.736	4417.64
431.943	4667.49
432.15	4595.81
432.358	4499.56
432.565	4761.7
432.772	4849.76
432.979	4929.63
433.187	5118.04
433.394	5165.15
433.601	5494.87
433.808	5587.03
434.016	5535.83
434.223	5564.5
434.43	6123.6
434.637	5990.48
434.844	6148.17
435.052	6531.14
435.259	6510.66
435.466	6514.76
435.673	6541.38
435.88	6842.43
436.087	7084.09
436.294	7047.23
436.501	6922.31
436.708	7100.48
436.915	7454.78
437.122	7915.57
437.329	7700.53
437.537	7997.49
437.743	8177.71
437.95	8155.18
438.157	8343.6
438.364	8589.35
438.571	8503.34
438.778	8749.09
438.985	9523.23
439.192	9203.74
439.399	9340.96
439.606	9267.23
439.813	9732.12
440.02	10487.82
440.227	10129.42
440.433	9971.73
440.64	10491.91
440.847	10541.07
441.054	10653.7
441.261	11184.13
441.467	11079.68
441.674	11313.15
441.881	11896.82
442.088	11759.61
442.294	11540.47
442.501	11968.5
442.708	12226.54
442.914	12550.12
443.121	13359.07
443.328	12822.5
443.534	13799.38
443.741	13326.3
443.948	13148.13
444.154	14069.72
444.361	14135.25
444.568	14413.77
444.774	14149.59
444.981	14243.79
445.187	14546.89
445.394	15630.27
445.6	15079.36
445.807	16687.02
446.013	15884.22
446.22	16068.53
446.426	16695.21
446.633	17010.6
446.839	17489.82
447.046	16830.38
447.252	17596.32
447.459	17885.08
447.665	17848.22
447.871	18579.34
448.078	19400.58
448.284	18464.66
448.491	18810.76
448.697	19595.14
448.903	19881.85
449.11	19855.23
449.316	19543.94
449.522	20168.57
449.728	20436.85
449.935	20834.16
450.141	20705.13
450.347	21243.75
450.553	20490.1
450.76	20539.25
450.966	21372.77
451.172	21356.39
451.378	21682.02
451.584	21094.25
451.791	21872.48
451.997	21755.74
452.203	22122.33
452.409	22224.73
452.615	21968.73
452.821	21288.81
453.027	21002.09
453.233	22165.34
453.44	21206.89
453.646	21360.48
453.852	21415.78
454.058	21845.85
454.264	21231.46
454.47	21708.64
454.676	21292.9
454.882	22167.38
455.088	19728.25
455.294	19988.35
455.5	20600.69
455.705	20782.96
455.911	19726.21
456.117	19554.18
456.323	19300.23
456.529	18327.44
456.735	18937.74
456.941	18677.65
457.147	18347.92
457.352	17708.96
457.558	17577.89
457.764	17520.54
457.97	17330.08
458.176	16965.54
458.381	16832.43
458.587	16025.53
458.793	16035.77
458.999	14981.06
459.204	16125.88
459.41	15701.95
459.616	14841.8
459.821	14761.93
460.027	14723.02
460.233	14403.53
460.438	13688.79
460.644	13834.2
460.85	13268.96
461.055	13043.68
461.261	13074.4
461.466	12181.49
461.672	11796.47
461.878	12689.39
462.083	11700.22
462.289	11546.62
462.494	11309.05
462.7	11057.15
462.905	10469.39
463.111	11145.22
463.316	10932.23
463.522	10811.4
463.727	10657.8
463.932	10983.43
464.138	10547.21
464.343	10698.76
464.549	10395.66
464.754	10696.71
464.959	10780.68
465.165	10612.74
465.37	10133.52
465.575	10067.99
465.781	10254.35
465.986	10356.75
466.191	9996.31
466.397	9748.5
466.602	9320.48
466.807	9920.53
467.012	9631.77
467.218	9666.58
467.423	9472.03
467.628	9603.1
467.833	10221.58
468.038	9822.23
468.244	9312.28
468.449	9599
468.654	9517.08
468.859	9463.83
