Data from USB4F104151__282__14-02-29-638.txt Node

Date: Thu Mar 13 14:02:29 EDT 2025
User: louis
Spectrometer: USB4F10415
Trigger mode: 4
Integration Time (sec): 1.000000E-2
Scans to average: 1
Electric dark correction enabled: true
Nonlinearity correction enabled: false
Boxcar width: 0
XAxis mode: Wavelengths
Number of Pixels in Spectrum: 3648
>>>>>Begin Spectral Data<<<<<
178.204	-55.47
178.424	-55.47
178.644	-55.47
178.864	-39.08
179.084	-16.55
179.304	5.97
179.524	42.84
179.744	-43.18
179.964	12.12
180.184	8.02
180.404	8.02
180.624	-0.17
180.844	-2.22
181.064	-4.27
181.283	14.17
181.503	-10.41
181.723	-30.89
181.943	-49.32
182.163	-18.6
182.383	-18.6
182.602	-0.17
182.822	5.97
183.042	-22.7
183.262	24.4
183.482	28.5
183.701	55.12
183.921	20.31
184.141	26.45
184.361	-16.55
184.58	-37.03
184.8	34.64
185.02	-80.04
185.239	73.56
185.459	-18.6
185.679	132.95
185.898	73.56
186.118	40.79
186.338	34.64
186.557	-24.75
186.777	12.12
186.997	3.93
187.216	26.45
187.436	-14.51
187.655	75.6
187.875	-12.46
188.095	1.88
188.314	10.07
188.534	-26.79
188.753	14.17
188.973	34.64
189.192	5.97
189.412	63.32
189.631	3.93
189.851	-6.31
190.07	8.02
190.29	-34.99
190.509	24.4
190.729	16.21
190.948	108.37
191.168	87.89
191.387	79.7
191.607	8.02
191.826	1.88
192.045	-43.18
192.265	10.07
192.484	40.79
192.704	20.31
192.923	63.32
193.142	-12.46
193.362	16.21
193.581	10.07
193.8	20.31
194.02	-16.55
194.239	38.74
194.458	126.8
194.678	110.42
194.897	26.45
195.116	20.31
195.335	-16.55
195.555	51.03
195.774	51.03
195.993	-24.75
196.212	94.04
196.432	10.07
196.651	38.74
196.87	51.03
197.089	51.03
197.308	42.84
197.528	36.69
197.747	-55.47
197.966	32.6
198.185	57.17
198.404	46.93
198.623	42.84
198.842	24.4
199.062	55.12
199.281	59.22
199.5	18.26
199.719	-28.84
199.938	34.64
200.157	-0.17
200.376	26.45
200.595	-43.18
200.814	32.6
201.033	26.45
201.252	-14.51
201.471	-6.31
201.69	42.84
201.909	20.31
202.128	28.5
202.347	14.17
202.566	28.5
202.785	14.17
203.004	-6.31
203.223	98.13
203.442	-26.79
203.661	-18.6
203.879	38.74
204.098	46.93
204.317	57.17
204.536	77.65
204.755	77.65
204.974	83.8
205.193	1.88
205.411	-2.22
205.63	5.97
205.849	36.69
206.068	55.12
206.287	-28.84
206.505	75.6
206.724	18.26
206.943	-0.17
207.162	-22.7
207.381	85.84
207.599	46.93
207.818	16.21
208.037	34.64
208.255	3.93
208.474	26.45
208.693	20.31
208.911	59.22
209.13	34.64
209.349	10.07
209.567	14.17
209.786	59.22
210.005	-2.22
210.223	100.18
210.442	57.17
210.661	12.12
210.879	61.27
211.098	42.84
211.316	34.64
211.535	81.75
211.753	18.26
211.972	12.12
212.191	20.31
212.409	108.37
212.628	85.84
212.846	26.45
213.065	12.12
213.283	26.45
213.502	3.93
213.72	40.79
213.938	38.74
214.157	67.41
214.375	26.45
214.594	10.07
214.812	51.03
215.031	63.32
215.249	-28.84
215.467	42.84
215.686	14.17
215.904	12.12
216.122	79.7
216.341	30.55
216.559	100.18
216.778	-14.51
216.996	53.08
217.214	38.74
217.432	-47.27
217.651	79.7
217.869	30.55
218.087	-2.22
218.306	38.74
218.524	22.36
218.742	-41.13
218.96	73.56
219.179	83.8
219.397	57.17
219.615	-4.27
219.833	-22.7
220.051	-53.42
220.27	38.74
220.488	69.46
220.706	59.22
220.924	16.21
221.142	10.07
221.36	26.45
221.578	-24.75
221.796	55.12
222.015	-20.65
222.233	75.6
222.451	18.26
222.669	75.6
222.887	34.64
223.105	26.45
223.323	32.6
223.541	5.97
223.759	42.84
223.977	-28.84
224.195	67.41
224.413	83.8
224.631	75.6
224.849	30.55
225.067	-2.22
225.285	28.5
225.503	79.7
225.721	14.17
225.939	96.08
226.157	18.26
226.375	83.8
226.592	-8.36
226.81	-49.32
227.028	34.64
227.246	83.8
227.464	-14.51
227.682	10.07
227.9	3.93
228.117	18.26
228.335	20.31
228.553	1.88
228.771	-75.95
228.989	67.41
229.206	26.45
229.424	-43.18
229.642	-26.79
229.86	-4.27
230.077	34.64
230.295	-12.46
230.513	69.46
230.731	59.22
230.948	26.45
231.166	116.56
231.384	18.26
231.601	-63.66
231.819	59.22
232.037	83.8
232.254	-16.55
232.472	1.88
232.689	-34.99
232.907	75.6
233.125	-2.22
233.342	-4.27
233.56	-22.7
233.777	1.88
233.995	10.07
234.213	-6.31
234.43	18.26
234.648	10.07
234.865	3.93
235.083	34.64
235.3	102.23
235.518	61.27
235.735	-14.51
235.953	75.6
236.17	-16.55
236.388	42.84
236.605	3.93
236.822	73.56
237.04	30.55
237.257	61.27
237.475	22.36
237.692	-22.7
237.909	24.4
238.127	24.4
238.344	-67.75
238.562	30.55
238.779	22.36
238.996	55.12
239.214	-16.55
239.431	79.7
239.648	44.88
239.865	-22.7
240.083	24.4
240.3	-14.51
240.517	48.98
240.735	3.93
240.952	10.07
241.169	59.22
241.386	3.93
241.603	-26.79
241.821	5.97
242.038	42.84
242.255	46.93
242.472	5.97
242.689	71.51
242.907	28.5
243.124	1.88
243.341	-69.8
243.558	30.55
243.775	42.84
243.992	59.22
244.209	-10.41
244.426	53.08
244.643	65.36
244.86	69.46
245.078	48.98
245.295	26.45
245.512	12.12
245.729	-14.51
245.946	104.28
246.163	55.12
246.38	46.93
246.597	44.88
246.814	-2.22
247.031	12.12
247.248	114.52
247.464	-47.27
247.681	46.93
247.898	3.93
248.115	46.93
248.332	44.88
248.549	122.71
248.766	14.17
248.983	32.6
249.2	106.32
249.417	22.36
249.633	-47.27
249.85	71.51
250.067	-12.46
250.284	30.55
250.501	8.02
250.717	124.76
250.934	10.07
251.151	51.03
251.368	-8.36
251.585	28.5
251.801	26.45
252.018	-2.22
252.235	81.75
252.451	14.17
252.668	8.02
252.885	-18.6
253.102	44.88
253.318	42.84
253.535	108.37
253.752	53.08
253.968	-24.75
254.185	-4.27
254.401	63.32
254.618	65.36
254.835	5.97
255.051	-0.17
255.268	22.36
255.484	12.12
255.701	36.69
255.917	3.93
256.134	-20.65
256.351	-20.65
256.567	18.26
256.784	5.97
257	3.93
257.217	26.45
257.433	-0.17
257.65	71.51
257.866	55.12
258.082	-45.23
258.299	63.32
258.515	81.75
258.732	3.93
258.948	69.46
259.165	-16.55
259.381	46.93
259.597	14.17
259.814	51.03
260.03	-16.55
260.246	14.17
260.463	63.32
260.679	8.02
260.895	12.12
261.112	36.69
261.328	34.64
261.544	8.02
261.761	-43.18
261.977	-47.27
262.193	-14.51
262.409	61.27
262.626	40.79
262.842	18.26
263.058	67.41
263.274	83.8
263.49	55.12
263.707	36.69
263.923	73.56
264.139	-30.89
264.355	-18.6
264.571	75.6
264.787	75.6
265.004	104.28
265.22	63.32
265.436	73.56
265.652	-20.65
265.868	-2.22
266.084	48.98
266.3	77.65
266.516	-2.22
266.732	14.17
266.948	10.07
267.164	79.7
267.38	59.22
267.596	16.21
267.812	51.03
268.028	28.5
268.244	42.84
268.46	77.65
268.676	24.4
268.892	3.93
269.108	-37.03
269.324	81.75
269.54	-20.65
269.756	55.12
269.972	18.26
270.188	-2.22
270.403	-14.51
270.619	18.26
270.835	-6.31
271.051	-12.46
271.267	65.36
271.483	59.22
271.698	38.74
271.914	51.03
272.13	61.27
272.346	30.55
272.562	59.22
272.777	112.47
272.993	-4.27
273.209	-14.51
273.425	102.23
273.64	-4.27
273.856	14.17
274.072	-12.46
274.287	44.88
274.503	-16.55
274.719	51.03
274.934	34.64
275.15	-24.75
275.366	-2.22
275.581	1.88
275.797	46.93
276.012	34.64
276.228	-20.65
276.444	40.79
276.659	75.6
276.875	18.26
277.09	-28.84
277.306	-32.94
277.521	10.07
277.737	-12.46
277.952	81.75
278.168	-28.84
278.383	53.08
278.599	-69.8
278.814	18.26
279.03	87.89
279.245	65.36
279.461	65.36
279.676	53.08
279.892	12.12
280.107	-8.36
280.322	10.07
280.538	46.93
280.753	-10.41
280.969	36.69
281.184	26.45
281.399	26.45
281.615	22.36
281.83	89.94
282.045	3.93
282.26	77.65
282.476	-43.18
282.691	26.45
282.906	18.26
283.122	36.69
283.337	-6.31
283.552	-6.31
283.767	67.41
283.983	65.36
284.198	18.26
284.413	28.5
284.628	36.69
284.843	-8.36
285.058	30.55
285.274	20.31
285.489	24.4
285.704	53.08
285.919	28.5
286.134	34.64
286.349	36.69
286.564	-2.22
286.779	48.98
286.995	36.69
287.21	69.46
287.425	106.32
287.64	-55.47
287.855	42.84
288.07	-22.7
288.285	65.36
288.5	-20.65
288.715	118.61
288.93	-4.27
289.145	59.22
289.36	28.5
289.575	-20.65
289.79	83.8
290.004	51.03
290.219	40.79
290.434	53.08
290.649	36.69
290.864	55.12
291.079	30.55
291.294	42.84
291.509	94.04
291.724	-39.08
291.938	51.03
292.153	46.93
292.368	1.88
292.583	83.8
292.798	38.74
293.012	63.32
293.227	5.97
293.442	20.31
293.657	114.52
293.871	57.17
294.086	-14.51
294.301	61.27
294.516	57.17
294.73	26.45
294.945	26.45
295.16	87.89
295.374	53.08
295.589	42.84
295.804	8.02
296.018	22.36
296.233	59.22
296.447	30.55
296.662	-26.79
296.877	-0.17
297.091	-26.79
297.306	30.55
297.52	53.08
297.735	51.03
297.949	118.61
298.164	89.94
298.378	-43.18
298.593	71.51
298.807	55.12
299.022	46.93
299.236	38.74
299.451	51.03
299.665	-4.27
299.88	75.6
300.094	34.64
300.309	48.98
300.523	46.93
300.737	22.36
300.952	-0.17
301.166	75.6
301.381	-49.32
301.595	59.22
301.809	-10.41
302.024	38.74
302.238	10.07
302.452	20.31
302.667	-16.55
302.881	1.88
303.095	96.08
303.309	40.79
303.524	51.03
303.738	-0.17
303.952	67.41
304.166	38.74
304.381	1.88
304.595	75.6
304.809	3.93
305.023	38.74
305.237	59.22
305.452	87.89
305.666	16.21
305.88	34.64
306.094	-6.31
306.308	26.45
306.522	30.55
306.736	77.65
306.95	10.07
307.164	-43.18
307.379	67.41
307.593	53.08
307.807	-10.41
308.021	10.07
308.235	75.6
308.449	36.69
308.663	-39.08
308.877	1.88
309.091	75.6
309.305	26.45
309.519	-18.6
309.733	69.46
309.947	24.4
310.161	63.32
310.374	-6.31
310.588	100.18
310.802	42.84
311.016	65.36
311.23	-8.36
311.444	36.69
311.658	51.03
311.872	-4.27
312.085	-4.27
312.299	57.17
312.513	65.36
312.727	89.94
312.941	18.26
313.154	12.12
313.368	18.26
313.582	24.4
313.796	51.03
314.009	24.4
314.223	26.45
314.437	59.22
314.651	94.04
314.864	-10.41
315.078	34.64
315.292	-0.17
315.505	42.84
315.719	-22.7
315.933	28.5
316.146	38.74
316.36	77.65
316.573	87.89
316.787	20.31
317.001	73.56
317.214	-41.13
317.428	-10.41
317.641	18.26
317.855	87.89
318.068	8.02
318.282	79.7
318.495	32.6
318.709	48.98
318.922	-12.46
319.136	100.18
319.349	75.6
319.563	71.51
319.776	51.03
319.99	10.07
320.203	-34.99
320.417	67.41
320.63	-10.41
320.843	38.74
321.057	87.89
321.27	55.12
321.483	-6.31
321.697	-0.17
321.91	36.69
322.124	59.22
322.337	18.26
322.55	-2.22
322.763	3.93
322.977	81.75
323.19	44.88
323.403	26.45
323.617	118.61
323.83	59.22
324.043	1.88
324.256	51.03
324.469	34.64
324.683	55.12
324.896	24.4
325.109	61.27
325.322	63.32
325.535	28.5
325.748	10.07
325.962	32.6
326.175	69.46
326.388	85.84
326.601	12.12
326.814	5.97
327.027	-4.27
327.24	59.22
327.453	83.8
327.666	139.09
327.879	16.21
328.092	67.41
328.305	38.74
328.518	3.93
328.731	67.41
328.944	55.12
329.157	1.88
329.37	5.97
329.583	118.61
329.796	34.64
330.009	-47.27
330.222	-18.6
330.435	100.18
330.648	-22.7
330.861	59.22
331.073	30.55
331.286	81.75
331.499	16.21
331.712	5.97
331.925	108.37
332.138	5.97
332.35	53.08
332.563	48.98
332.776	51.03
332.989	16.21
333.202	26.45
333.414	14.17
333.627	69.46
333.84	8.02
334.053	28.5
334.265	8.02
334.478	59.22
334.691	55.12
334.903	55.12
335.116	75.6
335.329	51.03
335.541	-22.7
335.754	30.55
335.966	-28.84
336.179	61.27
336.392	46.93
336.604	-10.41
336.817	24.4
337.029	34.64
337.242	-67.75
337.454	28.5
337.667	96.08
337.88	26.45
338.092	77.65
338.305	73.56
338.517	26.45
338.729	16.21
338.942	30.55
339.154	12.12
339.367	108.37
339.579	42.84
339.792	75.6
340.004	59.22
340.217	30.55
340.429	91.99
340.641	61.27
340.854	34.64
341.066	28.5
341.278	69.46
341.491	42.84
341.703	-2.22
341.915	36.69
342.128	100.18
342.34	-37.03
342.552	91.99
342.764	18.26
342.977	48.98
343.189	67.41
343.401	69.46
343.613	-30.89
343.826	53.08
344.038	-12.46
344.25	57.17
344.462	28.5
344.674	-6.31
344.886	-2.22
345.099	46.93
345.311	42.84
345.523	-22.7
345.735	26.45
345.947	59.22
346.159	83.8
346.371	77.65
346.583	20.31
346.795	-39.08
347.007	69.46
347.219	34.64
347.431	-2.22
347.643	91.99
347.855	30.55
348.067	48.98
348.279	-18.6
348.491	-2.22
348.703	48.98
348.915	59.22
349.127	57.17
349.339	149.33
349.551	-30.89
349.763	18.26
349.975	3.93
350.187	63.32
350.399	61.27
350.61	53.08
350.822	-6.31
351.034	53.08
351.246	40.79
351.458	59.22
351.669	85.84
351.881	36.69
352.093	55.12
352.305	87.89
352.517	85.84
352.728	53.08
352.94	-0.17
353.152	96.08
353.363	71.51
353.575	-10.41
353.787	1.88
353.999	67.41
354.21	51.03
354.422	46.93
354.633	118.61
354.845	53.08
355.057	22.36
355.268	108.37
355.48	20.31
355.692	34.64
355.903	71.51
356.115	28.5
356.326	-30.89
356.538	124.76
356.749	59.22
356.961	24.4
357.172	34.64
357.384	34.64
357.595	-24.75
357.807	81.75
358.018	75.6
358.23	12.12
358.441	44.88
358.653	67.41
358.864	51.03
359.075	28.5
359.287	18.26
359.498	61.27
359.709	32.6
359.921	63.32
360.132	48.98
360.344	85.84
360.555	59.22
360.766	42.84
360.977	28.5
361.189	106.32
361.4	59.22
361.611	16.21
361.823	26.45
362.034	5.97
362.245	-2.22
362.456	-32.94
362.667	100.18
362.879	59.22
363.09	44.88
363.301	75.6
363.512	38.74
363.723	44.88
363.935	-0.17
364.146	94.04
364.357	12.12
364.568	34.64
364.779	-24.75
364.99	30.55
365.201	38.74
365.412	30.55
365.623	75.6
365.834	85.84
366.045	-20.65
366.256	59.22
366.467	30.55
366.678	42.84
366.889	12.12
367.1	81.75
367.311	91.99
367.522	34.64
367.733	63.32
367.944	63.32
368.155	-8.36
368.366	36.69
368.577	71.51
368.788	71.51
368.999	5.97
369.209	8.02
369.42	98.13
369.631	141.14
369.842	30.55
370.053	30.55
370.264	141.14
370.474	38.74
370.685	34.64
370.896	1.88
371.107	42.84
371.317	116.56
371.528	12.12
371.739	96.08
371.95	22.36
372.16	42.84
372.371	51.03
372.582	75.6
372.792	91.99
373.003	67.41
373.214	71.51
373.424	34.64
373.635	34.64
373.846	1.88
374.056	96.08
374.267	34.64
374.477	87.89
374.688	83.8
374.898	59.22
375.109	173.91
375.319	46.93
375.53	10.07
375.74	112.47
375.951	36.69
376.161	40.79
376.372	32.6
376.582	83.8
376.793	91.99
377.003	71.51
377.214	24.4
377.424	40.79
377.635	85.84
377.845	71.51
378.055	102.23
378.266	24.4
378.476	104.28
378.686	59.22
378.897	59.22
379.107	12.12
379.317	48.98
379.528	55.12
379.738	38.74
379.948	59.22
380.158	40.79
380.369	65.36
380.579	91.99
380.789	40.79
380.999	75.6
381.21	32.6
381.42	83.8
381.63	75.6
381.84	51.03
382.05	79.7
382.261	42.84
382.471	18.26
382.681	87.89
382.891	102.23
383.101	-28.84
383.311	-32.94
383.521	28.5
383.731	1.88
383.941	85.84
384.151	102.23
384.361	26.45
384.571	87.89
384.781	98.13
384.991	53.08
385.201	79.7
385.411	12.12
385.621	36.69
385.831	32.6
386.041	10.07
386.251	83.8
386.461	75.6
386.671	85.84
386.881	65.36
387.091	53.08
387.301	114.52
387.511	20.31
387.72	-8.36
387.93	34.64
388.14	18.26
388.35	63.32
388.56	59.22
388.769	106.32
388.979	26.45
389.189	42.84
389.399	104.28
389.609	32.6
389.818	59.22
390.028	46.93
390.238	110.42
390.447	106.32
390.657	143.19
390.867	44.88
391.076	83.8
391.286	75.6
391.496	36.69
391.705	116.56
391.915	100.18
392.125	18.26
392.334	63.32
392.544	91.99
392.753	73.56
392.963	83.8
393.172	59.22
393.382	91.99
393.591	94.04
393.801	59.22
394.01	94.04
394.22	53.08
394.429	69.46
394.639	53.08
394.848	132.95
395.058	81.75
395.267	137.04
395.477	87.89
395.686	77.65
395.895	139.09
396.105	28.5
396.314	135
396.524	48.98
396.733	143.19
396.942	169.81
397.152	71.51
397.361	145.24
397.57	118.61
397.78	42.84
397.989	73.56
398.198	120.66
398.407	98.13
398.617	89.94
398.826	77.65
399.035	96.08
399.244	20.31
399.453	112.47
399.663	122.71
399.872	77.65
400.081	112.47
400.29	169.81
400.499	85.84
400.708	118.61
400.917	116.56
401.127	124.76
401.336	100.18
401.545	108.37
401.754	106.32
401.963	63.32
402.172	161.62
402.381	89.94
402.59	202.58
402.799	116.56
403.008	126.8
403.217	190.29
403.426	182.1
403.635	163.67
403.844	147.28
404.053	159.57
404.262	126.8
404.471	104.28
404.68	128.85
404.888	194.39
405.097	126.8
405.306	159.57
405.515	149.33
405.724	165.71
405.933	206.67
406.142	190.29
406.35	190.29
406.559	239.44
406.768	190.29
406.977	282.45
407.185	94.04
407.394	225.11
407.603	149.33
407.812	221.01
408.02	223.06
408.229	212.82
408.438	227.15
408.646	337.74
408.855	274.26
409.064	266.07
409.272	321.36
409.481	317.26
409.69	341.84
409.898	321.36
410.107	358.22
410.315	300.88
410.524	397.14
410.733	378.7
410.941	395.09
411.15	376.66
411.358	405.33
411.567	382.8
411.775	409.42
411.984	409.42
412.192	452.43
412.401	434
412.609	528.21
412.818	452.43
413.026	485.2
413.234	528.21
413.443	575.31
413.651	587.6
413.86	589.64
414.068	659.28
414.276	671.56
414.485	689.99
414.693	692.04
414.901	622.41
415.11	653.13
415.318	741.19
415.526	792.39
415.734	866.12
415.943	847.69
416.151	829.26
416.359	835.4
416.567	952.13
416.776	970.57
416.984	1005.38
417.192	1029.96
417.4	1048.39
417.608	1081.16
417.817	1036.1
418.025	1181.51
418.233	1363.78
418.441	1224.51
418.649	1244.99
418.857	1306.43
419.065	1417.02
419.273	1345.34
419.481	1509.18
419.689	1607.48
419.897	1550.14
420.105	1634.11
420.313	1716.03
420.521	1648.44
420.729	1664.83
420.937	1787.71
421.145	1918.78
421.353	1939.26
421.561	2000.69
421.769	1992.5
421.977	2168.63
422.185	2144.05
422.393	2309.94
422.601	2371.38
422.809	2457.39
423.017	2463.54
423.224	2402.1
423.432	2672.43
423.64	2666.28
423.848	2793.26
424.056	2909.99
424.263	2969.38
424.471	3122.98
424.679	3084.07
424.887	3188.52
425.094	3301.15
425.302	3454.75
425.51	3395.36
425.718	3622.69
425.925	3573.53
426.133	3833.63
426.341	3995.42
426.548	4245.27
426.756	4204.31
426.964	4224.79
427.171	4558.61
427.379	4640.53
427.586	4687.63
427.794	4777.74
428.001	4787.98
428.209	5234.44
428.417	5140.23
428.624	5533.44
428.832	5529.34
429.039	5404.42
429.247	5451.52
429.454	5971.71
429.662	6297.33
429.869	5977.85
430.076	6459.12
430.284	6225.65
430.491	6612.72
430.699	6872.81
430.906	6872.81
431.114	6907.63
431.321	7231.21
431.528	7345.89
431.736	7765.73
431.943	7923.42
432.15	7788.25
432.358	7872.22
432.565	8404.69
432.772	8369.88
432.979	8771.28
433.187	8799.95
433.394	9187.02
433.601	9602.75
433.808	9586.37
434.016	9606.85
434.223	10047.16
434.43	10536.63
434.637	10360.5
434.844	10968.75
435.052	11187.88
435.259	11093.68
435.466	11169.45
435.673	11116.2
435.88	11871.9
436.087	12420.76
436.294	12691.09
436.501	12326.55
436.708	12168.86
436.915	12881.55
437.122	13563.53
437.329	13323.91
437.537	13549.19
437.743	13983.36
437.95	13782.66
438.157	14741.11
438.364	15066.74
438.571	15052.4
438.778	15218.29
438.985	16610.9
439.192	16088.67
439.399	16447.07
439.606	16176.73
439.813	16957.01
440.02	18325.05
440.227	17847.88
440.433	17409.61
440.64	18058.82
440.847	18284.09
441.054	18566.71
441.261	19549.74
441.467	19672.62
441.674	19705.38
441.881	20174.37
442.088	20602.39
442.294	20448.8
442.501	20948.5
442.708	21073.43
442.914	22275.59
443.121	22935.03
443.328	22314.5
443.534	23733.74
443.741	23199.22
443.948	23031.29
444.154	24714.72
444.361	24460.77
444.568	24507.87
444.774	24708.57
444.981	24786.4
445.187	25486.8
445.394	26635.71
445.6	26547.65
445.807	28763.55
446.013	27540.91
446.22	28229.03
446.426	28820.89
446.633	29425.04
446.839	30522.76
447.046	29453.72
447.252	31114.62
447.459	31100.28
447.665	30442.88
447.871	32101.74
448.078	33289.56
448.284	32159.08
448.491	32320.87
448.697	33891.66
448.903	34540.87
449.11	34800.96
449.316	34192.72
449.522	34657.6
449.728	35511.61
449.935	35878.19
450.141	35478.84
450.347	36416.81
450.553	35128.64
450.76	35732.79
450.966	37117.21
451.172	36697.38
451.378	37541.14
451.584	36746.53
451.791	37653.78
451.997	37489.95
452.203	38364.43
452.409	38204.69
452.615	37700.89
452.821	36748.58
453.027	35802.42
453.233	37973.27
453.44	36631.85
453.646	36807.97
453.852	37051.68
454.058	37874.96
454.264	36287.79
454.47	37291.29
454.676	36461.86
454.882	37545.24
455.088	34411.85
455.294	35128.64
455.5	35491.13
455.705	35589.43
455.911	34422.09
456.117	33688.92
456.323	33248.6
456.529	31448.44
456.735	32939.36
456.941	31839.6
457.147	31452.53
457.352	30436.74
457.558	30344.58
457.764	30401.93
457.97	29660.56
458.176	29005.21
458.381	29181.34
458.587	27594.16
458.793	27854.25
458.999	26553.79
459.204	28388.77
459.41	27190.71
459.616	25591.25
459.821	25660.88
460.027	25376.21
460.233	25015.77
460.438	23645.68
460.644	24243.68
460.85	22992.37
461.055	22656.51
461.261	22361.6
461.466	20966.93
461.672	20327.97
461.878	21665.29
462.083	20166.18
462.289	19918.37
462.494	19785.26
462.7	19011.12
462.905	18290.24
463.111	18863.67
463.316	19054.13
463.522	18681.4
463.727	18560.57
463.932	18660.92
464.138	18148.93
464.343	18396.73
464.549	17897.03
464.754	18427.45
464.959	18187.84
465.165	18130.5
465.37	17331.79
465.575	17038.93
465.781	17751.62
465.986	17565.26
466.191	17151.57
466.397	16655.96
466.602	15818.34
466.807	16647.77
467.012	16649.82
467.218	16393.82
467.423	16254.56
467.628	16262.75
467.833	16782.93
