Data from USB4F104151__159__13-58-41-792.txt Node

Date: Thu Mar 13 13:58:41 EDT 2025
User: louis
Spectrometer: USB4F10415
Trigger mode: 4
Integration Time (sec): 1.000000E-2
Scans to average: 1
Electric dark correction enabled: true
Nonlinearity correction enabled: false
Boxcar width: 0
XAxis mode: Wavelengths
Number of Pixels in Spectrum: 3648
>>>>>Begin Spectral Data<<<<<
178.204	-83.45
178.424	-83.45
178.644	-83.45
178.864	-50.69
179.084	6.66
179.304	-32.26
179.524	0.51
179.744	-26.11
179.964	18.94
180.184	41.47
180.404	-30.21
180.624	-3.58
180.844	35.33
181.064	8.7
181.283	16.9
181.503	-65.02
181.723	35.33
181.943	-56.83
182.163	-69.12
182.383	-13.82
182.602	49.66
182.822	10.75
183.042	57.86
183.262	-26.11
183.482	-24.06
183.701	-24.06
183.921	59.9
184.141	31.23
184.361	47.62
184.58	20.99
184.8	57.86
185.02	20.99
185.239	49.66
185.459	4.61
185.679	29.18
185.898	29.18
186.118	20.99
186.338	0.51
186.557	12.8
186.777	39.42
186.997	20.99
187.216	2.56
187.436	66.05
187.655	35.33
187.875	29.18
188.095	-79.36
188.314	20.99
188.534	-3.58
188.753	-22.02
188.973	27.14
189.192	-11.78
189.412	33.28
189.631	2.56
189.851	31.23
190.07	0.51
190.29	27.14
190.509	-40.45
190.729	57.86
190.948	-13.82
191.168	57.86
191.387	23.04
191.607	23.04
191.826	-9.73
192.045	-28.16
192.265	-5.63
192.484	12.8
192.704	70.14
192.923	0.51
193.142	10.75
193.362	23.04
193.581	-5.63
193.8	16.9
194.02	6.66
194.239	0.51
194.458	-28.16
194.678	-36.35
194.897	-32.26
195.116	76.29
195.335	23.04
195.555	57.86
195.774	-11.78
195.993	12.8
196.212	0.51
196.432	41.47
196.651	66.05
196.87	53.76
197.089	27.14
197.308	-28.16
197.528	53.76
197.747	16.9
197.966	33.28
198.185	49.66
198.404	37.38
198.623	18.94
198.842	-22.02
199.062	35.33
199.281	12.8
199.5	-38.4
199.719	4.61
199.938	14.85
200.157	41.47
200.376	18.94
200.595	92.67
200.814	-3.58
201.033	14.85
201.252	47.62
201.471	66.05
201.69	12.8
201.909	-32.26
202.128	6.66
202.347	76.29
202.566	113.15
202.785	27.14
203.004	6.66
203.223	18.94
203.442	55.81
203.661	33.28
203.879	47.62
204.098	51.71
204.317	57.86
204.536	43.52
204.755	20.99
204.974	20.99
205.193	20.99
205.411	84.48
205.63	51.71
205.849	16.9
206.068	-44.54
206.287	43.52
206.505	80.38
206.724	16.9
206.943	-40.45
207.162	0.51
207.381	-11.78
207.599	90.62
207.818	43.52
208.037	86.53
208.255	-7.68
208.474	33.28
208.693	-32.26
208.911	-48.64
209.13	-1.54
209.349	-3.58
209.567	6.66
209.786	74.24
210.005	-15.87
210.223	66.05
210.442	20.99
210.661	107.01
210.879	78.33
211.098	27.14
211.316	20.99
211.535	64
211.753	-5.63
211.972	84.48
212.191	39.42
212.409	2.56
212.628	33.28
212.846	-15.87
213.065	57.86
213.283	14.85
213.502	-15.87
213.72	10.75
213.938	-7.68
214.157	82.43
214.375	-1.54
214.594	37.38
214.812	8.7
215.031	-40.45
215.249	-5.63
215.467	-17.92
215.686	-3.58
215.904	47.62
216.122	61.95
216.341	76.29
216.559	31.23
216.778	59.9
216.996	53.76
217.214	-13.82
217.432	27.14
217.651	29.18
217.869	18.94
218.087	-28.16
218.306	-65.02
218.524	20.99
218.742	-1.54
218.96	27.14
219.179	25.09
219.397	-17.92
219.615	-5.63
219.833	80.38
220.051	-5.63
220.27	45.57
220.488	37.38
220.706	57.86
220.924	-118.27
221.142	-32.26
221.36	45.57
221.578	57.86
221.796	-1.54
222.015	-1.54
222.233	27.14
222.451	16.9
222.669	31.23
222.887	90.62
223.105	-13.82
223.323	-77.31
223.541	-69.12
223.759	29.18
223.977	61.95
224.195	33.28
224.413	27.14
224.631	4.61
224.849	41.47
225.067	-11.78
225.285	12.8
225.503	74.24
225.721	-13.82
225.939	88.57
226.157	-34.3
226.375	55.81
226.592	31.23
226.81	84.48
227.028	76.29
227.246	143.87
227.464	33.28
227.682	43.52
227.9	-15.87
228.117	47.62
228.335	16.9
228.553	47.62
228.771	-69.12
228.989	51.71
229.206	18.94
229.424	70.14
229.642	57.86
229.86	-15.87
230.077	4.61
230.295	25.09
230.513	29.18
230.731	43.52
230.948	100.86
231.166	12.8
231.384	-30.21
231.601	-24.06
231.819	-17.92
232.037	47.62
232.254	35.33
232.472	4.61
232.689	82.43
232.907	-48.64
233.125	31.23
233.342	51.71
233.56	-1.54
233.777	-24.06
233.995	43.52
234.213	90.62
234.43	-24.06
234.648	57.86
234.865	8.7
235.083	-17.92
235.3	8.7
235.518	145.92
235.735	25.09
235.953	35.33
236.17	37.38
236.388	70.14
236.605	35.33
236.822	10.75
237.04	-5.63
237.257	-17.92
237.475	8.7
237.692	8.7
237.909	-40.45
238.127	66.05
238.344	41.47
238.562	90.62
238.779	-1.54
238.996	10.75
239.214	57.86
239.431	35.33
239.648	45.57
239.865	55.81
240.083	-50.69
240.3	-3.58
240.517	0.51
240.735	45.57
240.952	-42.5
241.169	61.95
241.386	-36.35
241.603	43.52
241.821	-3.58
242.038	12.8
242.255	-28.16
242.472	51.71
242.689	2.56
242.907	12.8
243.124	47.62
243.341	51.71
243.558	12.8
243.775	27.14
243.992	2.56
244.209	35.33
244.426	53.76
244.643	53.76
244.86	92.67
245.078	59.9
245.295	31.23
245.512	45.57
245.729	74.24
245.946	-50.69
246.163	29.18
246.38	-15.87
246.597	33.28
246.814	-40.45
247.031	57.86
247.248	-15.87
247.464	-24.06
247.681	37.38
247.898	64
248.115	25.09
248.332	10.75
248.549	-7.68
248.766	45.57
248.983	143.87
249.2	27.14
249.417	23.04
249.633	-7.68
249.85	-60.93
250.067	10.75
250.284	-28.16
250.501	18.94
250.717	31.23
250.934	10.75
251.151	-11.78
251.368	14.85
251.585	2.56
251.801	33.28
252.018	66.05
252.235	-65.02
252.451	55.81
252.668	66.05
252.885	16.9
253.102	-32.26
253.318	0.51
253.535	-24.06
253.752	4.61
253.968	61.95
254.185	80.38
254.401	6.66
254.618	57.86
254.835	14.85
255.051	45.57
255.268	66.05
255.484	2.56
255.701	43.52
255.917	64
256.134	-9.73
256.351	20.99
256.567	25.09
256.784	90.62
257	43.52
257.217	-24.06
257.433	-54.78
257.65	37.38
257.866	39.42
258.082	31.23
258.299	84.48
258.515	10.75
258.732	53.76
258.948	18.94
259.165	92.67
259.381	-32.26
259.597	-7.68
259.814	-11.78
260.03	14.85
260.246	51.71
260.463	14.85
260.679	23.04
260.895	8.7
261.112	82.43
261.328	96.77
261.544	35.33
261.761	27.14
261.977	33.28
262.193	0.51
262.409	27.14
262.626	-34.3
262.842	53.76
263.058	29.18
263.274	57.86
263.49	23.04
263.707	16.9
263.923	-28.16
264.139	-32.26
264.355	61.95
264.571	57.86
264.787	25.09
265.004	6.66
265.22	33.28
265.436	0.51
265.652	72.19
265.868	6.66
266.084	14.85
266.3	51.71
266.516	-11.78
266.732	0.51
266.948	94.72
267.164	66.05
267.38	-13.82
267.596	4.61
267.812	8.7
268.028	29.18
268.244	53.76
268.46	37.38
268.676	2.56
268.892	33.28
269.108	-122.37
269.324	57.86
269.54	-44.54
269.756	57.86
269.972	2.56
270.188	55.81
270.403	2.56
270.619	-30.21
270.835	94.72
271.051	16.9
271.267	-9.73
271.483	70.14
271.698	-32.26
271.914	12.8
272.13	10.75
272.346	53.76
272.562	121.34
272.777	-32.26
272.993	-7.68
273.209	14.85
273.425	51.71
273.64	25.09
273.856	37.38
274.072	16.9
274.287	70.14
274.503	49.66
274.719	49.66
274.934	72.19
275.15	29.18
275.366	16.9
275.581	-69.12
275.797	-28.16
276.012	4.61
276.228	2.56
276.444	51.71
276.659	35.33
276.875	-13.82
277.09	57.86
277.306	-42.5
277.521	-3.58
277.737	0.51
277.952	74.24
278.168	-48.64
278.383	-19.97
278.599	29.18
278.814	53.76
279.03	-5.63
279.245	47.62
279.461	37.38
279.676	14.85
279.892	2.56
280.107	90.62
280.322	4.61
280.538	2.56
280.753	12.8
280.969	12.8
281.184	-11.78
281.399	39.42
281.615	4.61
281.83	59.9
282.045	104.96
282.26	47.62
282.476	-22.02
282.691	68.09
282.906	94.72
283.122	35.33
283.337	-15.87
283.552	82.43
283.767	-24.06
283.983	-44.54
284.198	8.7
284.413	74.24
284.628	-13.82
284.843	74.24
285.058	33.28
285.274	-3.58
285.489	0.51
285.704	41.47
285.919	-44.54
286.134	-7.68
286.349	4.61
286.564	-7.68
286.779	64
286.995	33.28
287.21	12.8
287.425	6.66
287.64	84.48
287.855	39.42
288.07	-1.54
288.285	43.52
288.5	43.52
288.715	51.71
288.93	41.47
289.145	90.62
289.36	31.23
289.575	0.51
289.79	0.51
290.004	45.57
290.219	72.19
290.434	61.95
290.649	-30.21
290.864	16.9
291.079	35.33
291.294	-38.4
291.509	25.09
291.724	12.8
291.938	-3.58
292.153	47.62
292.368	-54.78
292.583	-11.78
292.798	64
293.012	23.04
293.227	29.18
293.442	4.61
293.657	-3.58
293.871	-9.73
294.086	10.75
294.301	6.66
294.516	16.9
294.73	102.91
294.945	-24.06
295.16	107.01
295.374	20.99
295.589	14.85
295.804	20.99
296.018	41.47
296.233	25.09
296.447	-3.58
296.662	16.9
296.877	37.38
297.091	12.8
297.306	29.18
297.52	61.95
297.735	18.94
297.949	-28.16
298.164	16.9
298.378	76.29
298.593	-1.54
298.807	-38.4
299.022	45.57
299.236	51.71
299.451	18.94
299.665	88.57
299.88	-28.16
300.094	47.62
300.309	35.33
300.523	20.99
300.737	96.77
300.952	-13.82
301.166	-7.68
301.381	0.51
301.595	16.9
301.809	49.66
302.024	20.99
302.238	-38.4
302.452	18.94
302.667	-52.74
302.881	117.25
303.095	90.62
303.309	57.86
303.524	0.51
303.738	27.14
303.952	-7.68
304.166	31.23
304.381	4.61
304.595	-7.68
304.809	96.77
305.023	29.18
305.237	18.94
305.452	88.57
305.666	23.04
305.88	29.18
306.094	-13.82
306.308	29.18
306.522	6.66
306.736	-28.16
306.95	55.81
307.164	74.24
307.379	12.8
307.593	86.53
307.807	33.28
308.021	39.42
308.235	-11.78
308.449	8.7
308.663	-30.21
308.877	66.05
309.091	-17.92
309.305	43.52
309.519	-7.68
309.733	43.52
309.947	84.48
310.161	-19.97
310.374	82.43
310.588	12.8
310.802	53.76
311.016	18.94
311.23	-15.87
311.444	29.18
311.658	-1.54
311.872	-38.4
312.085	35.33
312.299	92.67
312.513	-24.06
312.727	25.09
312.941	2.56
313.154	-9.73
313.368	25.09
313.582	98.81
313.796	12.8
314.009	45.57
314.223	18.94
314.437	68.09
314.651	94.72
314.864	18.94
315.078	18.94
315.292	70.14
315.505	-26.11
315.719	-38.4
315.933	6.66
316.146	31.23
316.36	64
316.573	96.77
316.787	-24.06
317.001	23.04
317.214	74.24
317.428	12.8
317.641	-7.68
317.855	107.01
318.068	-22.02
318.282	70.14
318.495	43.52
318.709	76.29
318.922	-32.26
319.136	37.38
319.349	47.62
319.563	20.99
319.776	0.51
319.99	8.7
320.203	-3.58
320.417	55.81
320.63	-15.87
320.843	70.14
321.057	82.43
321.27	53.76
321.483	55.81
321.697	49.66
321.91	29.18
322.124	-17.92
322.337	33.28
322.55	35.33
322.763	-62.98
322.977	70.14
323.19	35.33
323.403	18.94
323.617	-19.97
323.83	-1.54
324.043	57.86
324.256	88.57
324.469	29.18
324.683	98.81
324.896	20.99
325.109	10.75
325.322	-3.58
325.535	53.76
325.748	-5.63
325.962	64
326.175	14.85
326.388	6.66
326.601	-32.26
326.814	123.39
327.027	16.9
327.24	10.75
327.453	-50.69
327.666	39.42
327.879	115.2
328.092	88.57
328.305	35.33
328.518	18.94
328.731	16.9
328.944	25.09
329.157	51.71
329.37	2.56
329.583	41.47
329.796	18.94
330.009	-48.64
330.222	10.75
330.435	-17.92
330.648	109.05
330.861	-15.87
331.073	84.48
331.286	-7.68
331.499	33.28
331.712	-13.82
331.925	33.28
332.138	55.81
332.35	61.95
332.563	51.71
332.776	-28.16
332.989	-1.54
333.202	31.23
333.414	20.99
333.627	-7.68
333.84	-7.68
334.053	47.62
334.265	23.04
334.478	4.61
334.691	31.23
334.903	74.24
335.116	0.51
335.329	16.9
335.541	-19.97
335.754	76.29
335.966	-73.21
336.179	82.43
336.392	59.9
336.604	35.33
336.817	57.86
337.029	70.14
337.242	18.94
337.454	74.24
337.667	61.95
337.88	-22.02
338.092	12.8
338.305	43.52
338.517	6.66
338.729	45.57
338.942	47.62
339.154	43.52
339.367	-13.82
339.579	88.57
339.792	59.9
340.004	82.43
340.217	-38.4
340.429	35.33
340.641	-46.59
340.854	12.8
341.066	90.62
341.278	49.66
341.491	94.72
341.703	10.75
341.915	-54.78
342.128	76.29
342.34	-26.11
342.552	6.66
342.764	23.04
342.977	27.14
343.189	55.81
343.401	-30.21
343.613	33.28
343.826	82.43
344.038	45.57
344.25	23.04
344.462	8.7
344.674	47.62
344.886	86.53
345.099	47.62
345.311	-50.69
345.523	39.42
345.735	-26.11
345.947	-3.58
346.159	66.05
346.371	68.09
346.583	43.52
346.795	84.48
347.007	61.95
347.219	64
347.431	94.72
347.643	-15.87
347.855	51.71
348.067	41.47
348.279	10.75
348.491	70.14
348.703	29.18
348.915	2.56
349.127	57.86
349.339	33.28
349.551	-38.4
349.763	27.14
349.975	-1.54
350.187	66.05
350.399	-60.93
350.61	78.33
350.822	-1.54
351.034	-1.54
351.246	-19.97
351.458	27.14
351.669	18.94
351.881	43.52
352.093	45.57
352.305	53.76
352.517	68.09
352.728	25.09
352.94	10.75
353.152	25.09
353.363	16.9
353.575	31.23
353.787	53.76
353.999	-48.64
354.21	109.05
354.422	-28.16
354.633	35.33
354.845	162.3
355.057	-1.54
355.268	-36.35
355.48	25.09
355.692	76.29
355.903	98.81
356.115	8.7
356.326	-34.3
356.538	-26.11
356.749	18.94
356.961	90.62
357.172	29.18
357.384	37.38
357.595	4.61
357.807	59.9
358.018	18.94
358.23	12.8
358.441	25.09
358.653	-32.26
358.864	25.09
359.075	39.42
359.287	-44.54
359.498	80.38
359.709	111.1
359.921	61.95
360.132	29.18
360.344	68.09
360.555	4.61
360.766	41.47
360.977	-17.92
361.189	100.86
361.4	61.95
361.611	78.33
361.823	-1.54
362.034	37.38
362.245	31.23
362.456	29.18
362.667	12.8
362.879	41.47
363.09	0.51
363.301	47.62
363.512	74.24
363.723	-22.02
363.935	4.61
364.146	8.7
364.357	-13.82
364.568	20.99
364.779	43.52
364.99	12.8
365.201	117.25
365.412	6.66
365.623	70.14
365.834	72.19
366.045	66.05
366.256	66.05
366.467	49.66
366.678	100.86
366.889	14.85
367.1	70.14
367.311	20.99
367.522	76.29
367.733	70.14
367.944	115.2
368.155	29.18
368.366	31.23
368.577	16.9
368.788	49.66
368.999	27.14
369.209	70.14
369.42	100.86
369.631	20.99
369.842	25.09
370.053	-5.63
370.264	92.67
370.474	23.04
370.685	-26.11
370.896	100.86
371.107	55.81
371.317	76.29
371.528	23.04
371.739	51.71
371.95	-32.26
372.16	29.18
372.371	45.57
372.582	27.14
372.792	47.62
373.003	92.67
373.214	0.51
373.424	98.81
373.635	2.56
373.846	31.23
374.056	16.9
374.267	49.66
374.477	-17.92
374.688	66.05
374.898	-7.68
375.109	27.14
375.319	72.19
375.53	18.94
375.74	-9.73
375.951	23.04
376.161	72.19
376.372	39.42
376.582	-7.68
376.793	12.8
377.003	66.05
377.214	37.38
377.424	41.47
377.635	115.2
377.845	45.57
378.055	100.86
378.266	6.66
378.476	-40.45
378.686	4.61
378.897	61.95
379.107	33.28
379.317	43.52
379.528	49.66
379.738	57.86
379.948	25.09
380.158	88.57
380.369	47.62
380.579	49.66
380.789	25.09
380.999	98.81
381.21	57.86
381.42	35.33
381.63	23.04
381.84	-15.87
382.05	37.38
382.261	18.94
382.471	96.77
382.681	70.14
382.891	53.76
383.101	49.66
383.311	-24.06
383.521	51.71
383.731	43.52
383.941	43.52
384.151	74.24
384.361	49.66
384.571	39.42
384.781	23.04
384.991	86.53
385.201	117.25
385.411	37.38
385.621	111.1
385.831	16.9
386.041	2.56
386.251	6.66
386.461	10.75
386.671	-28.16
386.881	31.23
387.091	74.24
387.301	8.7
387.511	-5.63
387.72	70.14
387.93	29.18
388.14	68.09
388.35	14.85
388.56	76.29
388.769	90.62
388.979	10.75
389.189	33.28
389.399	2.56
389.609	41.47
389.818	41.47
390.028	70.14
390.238	84.48
390.447	2.56
390.657	47.62
390.867	-26.11
391.076	0.51
391.286	0.51
391.496	59.9
391.705	86.53
391.915	43.52
392.125	113.15
392.334	-44.54
392.544	41.47
392.753	41.47
392.963	74.24
393.172	59.9
393.382	152.06
393.591	86.53
393.801	33.28
394.01	117.25
394.22	55.81
394.429	31.23
394.639	49.66
394.848	39.42
395.058	92.67
395.267	10.75
395.477	76.29
395.686	12.8
395.895	76.29
396.105	41.47
396.314	86.53
396.524	123.39
396.733	64
396.942	61.95
397.152	66.05
397.361	111.1
397.57	57.86
397.78	45.57
397.989	82.43
398.198	51.71
398.407	100.86
398.617	74.24
398.826	43.52
399.035	96.77
399.244	78.33
399.453	66.05
399.663	90.62
399.872	18.94
400.081	133.63
400.29	100.86
400.499	27.14
400.708	20.99
400.917	117.25
401.127	117.25
401.336	66.05
401.545	141.82
401.754	27.14
401.963	162.3
402.172	59.9
402.381	39.42
402.59	37.38
402.799	72.19
403.008	115.2
403.217	49.66
403.426	123.39
403.635	129.53
403.844	35.33
404.053	125.44
404.262	121.34
404.471	68.09
404.68	145.92
404.888	111.1
405.097	113.15
405.306	64
405.515	154.11
405.724	195.07
405.933	182.78
406.142	121.34
406.35	158.21
406.559	72.19
406.768	135.68
406.977	141.82
407.185	162.3
407.394	190.97
407.603	143.87
407.812	184.83
408.02	176.64
408.229	199.16
408.438	160.25
408.646	215.55
408.855	205.31
409.064	219.64
409.272	115.2
409.481	238.08
409.69	197.12
409.898	238.08
410.107	209.4
410.315	291.32
410.524	145.92
410.733	221.69
410.941	252.41
411.15	276.99
411.358	236.03
411.567	330.23
411.775	244.22
411.984	303.61
412.192	258.56
412.401	287.23
412.609	336.38
412.818	418.3
413.026	338.43
413.234	385.53
413.443	352.76
413.651	399.87
413.86	334.33
414.068	428.54
414.276	406.01
414.485	403.96
414.693	457.21
414.901	530.94
415.11	522.74
415.318	467.45
415.526	485.88
415.734	625.14
415.943	532.98
416.151	563.7
416.359	592.37
416.567	643.57
416.776	639.48
416.984	666.1
417.192	772.6
417.4	780.79
417.608	702.97
417.817	862.71
418.025	821.75
418.233	991.73
418.441	838.13
418.649	885.23
418.857	963.06
419.065	958.96
419.273	930.29
419.481	993.78
419.689	1085.94
419.897	1042.93
420.105	1012.21
420.313	1135.09
420.521	1176.05
420.729	1163.76
420.937	1184.24
421.145	1276.4
421.353	1352.17
421.561	1454.57
421.769	1323.5
421.977	1481.19
422.185	1524.2
422.393	1614.31
422.601	1696.23
422.809	1575.4
423.017	1640.93
423.224	1827.3
423.432	1788.39
423.64	1794.53
423.848	2025.95
424.056	1919.46
424.263	2058.72
424.471	1984.99
424.679	2116.06
424.887	2271.71
425.094	2318.81
425.302	2331.1
425.51	2236.89
425.718	2400.73
425.925	2568.66
426.133	2636.25
426.341	2611.67
426.548	2839
426.756	2828.76
426.964	2963.92
427.171	3099.09
427.379	3187.15
427.586	3076.56
427.794	3330.51
428.001	3414.48
428.209	3611.08
428.417	3477.96
428.624	3629.51
428.832	3762.63
429.039	3623.37
429.247	3850.69
429.454	3975.62
429.662	4241.86
429.869	4006.34
430.076	4387.26
430.284	4229.57
430.491	4467.13
430.699	4706.74
430.906	4600.25
431.114	4690.36
431.321	4899.25
431.528	5151.15
431.736	5116.34
431.943	5603.75
432.15	5300.66
432.358	5540.27
432.565	5708.2
432.772	5816.74
432.979	5943.72
433.187	5988.77
433.394	6078.88
433.601	6703.51
433.808	6578.59
434.016	6445.47
434.223	6717.85
434.43	7125.4
434.637	7143.83
434.844	7516.56
435.052	7809.42
435.259	7512.46
435.466	7692.68
435.673	7561.61
435.88	7989.64
436.087	8405.38
436.294	8733.05
436.501	8368.51
436.708	8577.41
436.915	8720.76
437.122	9058.68
437.329	9161.08
437.537	9492.85
437.743	9462.13
437.95	9634.16
438.157	10031.46
438.364	10285.41
438.571	10441.06
438.778	10385.76
438.985	11184.47
439.192	11000.15
439.399	11155.8
439.606	10791.26
439.813	11637.07
440.02	12196.17
440.227	12030.28
440.433	11942.22
440.64	12280.13
440.847	12130.63
441.054	12556.61
441.261	13295.93
441.467	13254.97
441.674	13486.39
441.881	13977.9
442.088	14133.54
442.294	13746.48
442.501	14068.01
442.708	14414.12
442.914	15216.92
443.121	15851.79
443.328	15397.14
443.534	16273.67
443.741	16003.34
443.948	15589.65
444.154	16748.8
444.361	16720.13
444.568	16738.56
444.774	16572.68
444.981	16972.03
445.187	17443.06
445.394	18192.62
445.6	18159.85
445.807	19646.68
446.013	18782.43
446.22	19398.87
446.426	20027.6
446.633	20103.37
446.839	21010.62
447.046	20039.89
447.252	20973.76
447.459	20961.47
447.665	20740.29
447.871	21881.01
448.078	22780.07
448.284	21727.41
448.491	22057.14
448.697	23091.36
448.903	23304.35
449.11	23732.37
449.316	23341.21
449.522	23830.68
449.728	24078.48
449.935	24334.48
450.141	24565.9
450.347	25084.03
450.553	24170.64
450.76	24621.19
450.966	25372.8
451.172	24934.53
451.378	25493.63
451.584	25163.9
451.791	26120.31
451.997	25725.05
452.203	26275.95
452.409	26177.65
452.615	25952.37
452.821	24821.89
453.027	24629.38
453.233	26183.79
453.44	25424
453.646	24998.02
453.852	25215.1
454.058	25573.5
454.264	24756.36
454.47	25567.35
454.676	24510.6
454.882	25299.07
455.088	23453.85
455.294	23971.99
455.5	24141.97
455.705	24324.24
455.911	23511.19
456.117	22816.93
456.323	22845.6
456.529	21278.91
456.735	22368.43
456.941	21987.5
457.147	21074.11
457.352	20588.74
457.558	20703.43
457.764	20685
457.97	20084.94
458.176	19744.98
458.381	19591.38
458.587	18776.29
458.793	18829.54
458.999	17912.05
459.204	19128.54
459.41	18366.7
459.616	17395.96
459.821	17424.63
460.027	17375.48
460.233	16871.68
460.438	16212.23
460.644	16169.23
460.85	15395.09
461.055	15218.97
461.261	15294.74
461.466	14295.33
461.672	13730.09
461.878	14672.16
462.083	13586.74
462.289	13402.42
462.494	13343.03
462.7	12722.49
462.905	12329.28
463.111	12771.65
463.316	12904.76
463.522	12618.05
463.727	12613.95
463.932	12706.11
464.138	12575.04
464.343	12529.98
464.549	12325.19
464.754	12585.28
464.959	12413.25
465.165	12517.7
465.37	11731.28
465.575	11813.2
465.781	12265.8
465.986	12157.25
466.191	11641.17
466.397	11524.43
466.602	11022.68
466.807	11430.23
467.012	11444.56
467.218	11211.09
467.423	11108.69
467.628	11409.75
467.833	11680.08
468.038	11161.94
468.244	10944.86
468.449	11510.1
468.654	11024.73
