Data from USB4F104151__102__13-54-43-588.txt Node

Date: Thu Mar 13 13:54:43 EDT 2025
User: louis
Spectrometer: USB4F10415
Trigger mode: 4
Integration Time (sec): 1.000000E-2
Scans to average: 1
Electric dark correction enabled: true
Nonlinearity correction enabled: false
Boxcar width: 0
XAxis mode: Wavelengths
Number of Pixels in Spectrum: 3648
>>>>>Begin Spectral Data<<<<<
178.204	-49.32
178.424	-49.32
178.644	-49.32
178.864	-84.14
179.084	-100.52
179.304	-26.79
179.524	-47.27
179.744	-22.7
179.964	20.31
180.184	-32.94
180.404	53.08
180.624	14.17
180.844	14.17
181.064	-49.32
181.283	-28.84
181.503	14.17
181.723	91.99
181.943	-0.17
182.163	91.99
182.383	-26.79
182.602	14.17
182.822	-20.65
183.042	46.93
183.262	-22.7
183.482	12.12
183.701	26.45
183.921	38.74
184.141	-4.27
184.361	-34.99
184.58	12.12
184.8	42.84
185.02	-88.23
185.239	-24.75
185.459	65.36
185.679	-53.42
185.898	12.12
186.118	-8.36
186.338	-24.75
186.557	53.08
186.777	-57.51
186.997	-43.18
187.216	53.08
187.436	-63.66
187.655	-8.36
187.875	-26.79
188.095	5.97
188.314	-26.79
188.534	-4.27
188.753	75.6
188.973	-26.79
189.192	28.5
189.412	10.07
189.631	65.36
189.851	-43.18
190.07	55.12
190.29	-63.66
190.509	8.02
190.729	-53.42
190.948	20.31
191.168	79.7
191.387	-10.41
191.607	44.88
191.826	-28.84
192.045	-45.23
192.265	-12.46
192.484	18.26
192.704	-6.31
192.923	-71.85
193.142	-12.46
193.362	-90.28
193.581	-20.65
193.8	-14.51
194.02	-34.99
194.239	-41.13
194.458	-24.75
194.678	-28.84
194.897	12.12
195.116	1.88
195.335	-20.65
195.555	-39.08
195.774	-4.27
195.993	1.88
196.212	-37.03
196.432	38.74
196.651	-32.94
196.87	-8.36
197.089	-6.31
197.308	14.17
197.528	14.17
197.747	-28.84
197.966	-92.33
198.185	-14.51
198.404	-49.32
198.623	-8.36
198.842	-34.99
199.062	12.12
199.281	-28.84
199.5	-41.13
199.719	1.88
199.938	40.79
200.157	61.27
200.376	65.36
200.595	71.51
200.814	-63.66
201.033	-30.89
201.252	-61.61
201.471	10.07
201.69	-2.22
201.909	10.07
202.128	-47.27
202.347	32.6
202.566	-18.6
202.785	-8.36
203.004	8.02
203.223	-32.94
203.442	-14.51
203.661	-4.27
203.879	28.5
204.098	22.36
204.317	8.02
204.536	-30.89
204.755	-45.23
204.974	-18.6
205.193	-10.41
205.411	55.12
205.63	16.21
205.849	24.4
206.068	-41.13
206.287	-41.13
206.505	44.88
206.724	18.26
206.943	-10.41
207.162	-4.27
207.381	-65.71
207.599	26.45
207.818	-10.41
208.037	-67.75
208.255	-26.79
208.474	51.03
208.693	12.12
208.911	65.36
209.13	10.07
209.349	53.08
209.567	5.97
209.786	-30.89
210.005	-34.99
210.223	30.55
210.442	-18.6
210.661	-22.7
210.879	83.8
211.098	-18.6
211.316	16.21
211.535	12.12
211.753	-14.51
211.972	-80.04
212.191	3.93
212.409	-71.85
212.628	12.12
212.846	-55.47
213.065	10.07
213.283	-12.46
213.502	-18.6
213.72	8.02
213.938	14.17
214.157	-16.55
214.375	46.93
214.594	26.45
214.812	-28.84
215.031	48.98
215.249	8.02
215.467	16.21
215.686	-10.41
215.904	-26.79
216.122	-4.27
216.341	-0.17
216.559	-61.61
216.778	12.12
216.996	3.93
217.214	3.93
217.432	-43.18
217.651	36.69
217.869	-0.17
218.087	67.41
218.306	75.6
218.524	-14.51
218.742	-24.75
218.96	38.74
219.179	59.22
219.397	71.51
219.615	-18.6
219.833	24.4
220.051	3.93
220.27	48.98
220.488	20.31
220.706	16.21
220.924	-41.13
221.142	-8.36
221.36	-47.27
221.578	57.17
221.796	22.36
222.015	-10.41
222.233	-57.51
222.451	-47.27
222.669	30.55
222.887	14.17
223.105	-34.99
223.323	-63.66
223.541	30.55
223.759	12.12
223.977	-30.89
224.195	-69.8
224.413	-59.56
224.631	38.74
224.849	-0.17
225.067	30.55
225.285	38.74
225.503	-30.89
225.721	12.12
225.939	16.21
226.157	-80.04
226.375	26.45
226.592	20.31
226.81	24.4
227.028	22.36
227.246	32.6
227.464	16.21
227.682	-24.75
227.9	-10.41
228.117	-43.18
228.335	-6.31
228.553	24.4
228.771	26.45
228.989	30.55
229.206	28.5
229.424	-26.79
229.642	-12.46
229.86	38.74
230.077	57.17
230.295	98.13
230.513	-12.46
230.731	20.31
230.948	-8.36
231.166	30.55
231.384	-12.46
231.601	5.97
231.819	-0.17
232.037	-18.6
232.254	-57.51
232.472	-12.46
232.689	40.79
232.907	-0.17
233.125	8.02
233.342	32.6
233.56	-47.27
233.777	8.02
233.995	20.31
234.213	38.74
234.43	1.88
234.648	-26.79
234.865	-71.85
235.083	32.6
235.3	-0.17
235.518	57.17
235.735	57.17
235.953	26.45
236.17	14.17
236.388	-20.65
236.605	-28.84
236.822	22.36
237.04	59.22
237.257	3.93
237.475	14.17
237.692	-0.17
237.909	-24.75
238.127	32.6
238.344	-39.08
238.562	1.88
238.779	-47.27
238.996	46.93
239.214	79.7
239.431	120.66
239.648	-34.99
239.865	81.75
240.083	75.6
240.3	-43.18
240.517	-30.89
240.735	-75.95
240.952	-6.31
241.169	-34.99
241.386	-37.03
241.603	-61.61
241.821	-18.6
242.038	48.98
242.255	-12.46
242.472	-57.51
242.689	5.97
242.907	8.02
243.124	22.36
243.341	102.23
243.558	57.17
243.775	-34.99
243.992	-34.99
244.209	40.79
244.426	20.31
244.643	14.17
244.86	-4.27
245.078	71.51
245.295	63.32
245.512	38.74
245.729	38.74
245.946	-24.75
246.163	-6.31
246.38	14.17
246.597	34.64
246.814	8.02
247.031	48.98
247.248	-18.6
247.464	57.17
247.681	51.03
247.898	28.5
248.115	16.21
248.332	36.69
248.549	20.31
248.766	94.04
248.983	-34.99
249.2	-16.55
249.417	40.79
249.633	-4.27
249.85	18.26
250.067	20.31
250.284	10.07
250.501	40.79
250.717	67.41
250.934	-14.51
251.151	-6.31
251.368	5.97
251.585	73.56
251.801	83.8
252.018	12.12
252.235	-10.41
252.451	-2.22
252.668	-20.65
252.885	-8.36
253.102	-0.17
253.318	12.12
253.535	18.26
253.752	-47.27
253.968	-22.7
254.185	61.27
254.401	61.27
254.618	30.55
254.835	3.93
255.051	3.93
255.268	20.31
255.484	-22.7
255.701	46.93
255.917	12.12
256.134	3.93
256.351	-8.36
256.567	-30.89
256.784	26.45
257	1.88
257.217	-53.42
257.433	-20.65
257.65	85.84
257.866	5.97
258.082	-28.84
258.299	38.74
258.515	20.31
258.732	1.88
258.948	12.12
259.165	-2.22
259.381	18.26
259.597	10.07
259.814	14.17
260.03	-6.31
260.246	30.55
260.463	65.36
260.679	-24.75
260.895	-30.89
261.112	3.93
261.328	20.31
261.544	-16.55
261.761	71.51
261.977	24.4
262.193	8.02
262.409	1.88
262.626	10.07
262.842	10.07
263.058	20.31
263.274	-28.84
263.49	8.02
263.707	18.26
263.923	3.93
264.139	16.21
264.355	51.03
264.571	-24.75
264.787	48.98
265.004	-41.13
265.22	65.36
265.436	-104.62
265.652	-8.36
265.868	38.74
266.084	-6.31
266.3	16.21
266.516	34.64
266.732	3.93
266.948	12.12
267.164	24.4
267.38	14.17
267.596	1.88
267.812	89.94
268.028	36.69
268.244	-55.47
268.46	63.32
268.676	-18.6
268.892	-14.51
269.108	-18.6
269.324	100.18
269.54	-18.6
269.756	38.74
269.972	-34.99
270.188	55.12
270.403	36.69
270.619	22.36
270.835	3.93
271.051	30.55
271.267	30.55
271.483	-26.79
271.698	-30.89
271.914	-8.36
272.13	-37.03
272.346	-8.36
272.562	20.31
272.777	61.27
272.993	67.41
273.209	-14.51
273.425	44.88
273.64	1.88
273.856	28.5
274.072	34.64
274.287	30.55
274.503	12.12
274.719	-30.89
274.934	48.98
275.15	12.12
275.366	-73.9
275.581	32.6
275.797	-6.31
276.012	-24.75
276.228	48.98
276.444	30.55
276.659	-2.22
276.875	-22.7
277.09	-41.13
277.306	34.64
277.521	32.6
277.737	59.22
277.952	59.22
278.168	-12.46
278.383	81.75
278.599	-34.99
278.814	-0.17
279.03	-43.18
279.245	73.56
279.461	-10.41
279.676	28.5
279.892	16.21
280.107	22.36
280.322	-8.36
280.538	28.5
280.753	-32.94
280.969	1.88
281.184	-24.75
281.399	5.97
281.615	-39.08
281.83	36.69
282.045	59.22
282.26	-51.37
282.476	67.41
282.691	55.12
282.906	16.21
283.122	24.4
283.337	-47.27
283.552	-26.79
283.767	48.98
283.983	-10.41
284.198	12.12
284.413	44.88
284.628	-39.08
284.843	-0.17
285.058	-2.22
285.274	-24.75
285.489	-14.51
285.704	-43.18
285.919	-22.7
286.134	-34.99
286.349	3.93
286.564	26.45
286.779	-12.46
286.995	-84.14
287.21	26.45
287.425	57.17
287.64	-59.56
287.855	-63.66
288.07	-6.31
288.285	-73.9
288.5	34.64
288.715	51.03
288.93	8.02
289.145	51.03
289.36	36.69
289.575	-20.65
289.79	-10.41
290.004	44.88
290.219	10.07
290.434	51.03
290.649	-30.89
290.864	28.5
291.079	-12.46
291.294	51.03
291.509	14.17
291.724	-34.99
291.938	51.03
292.153	20.31
292.368	-4.27
292.583	16.21
292.798	69.46
293.012	118.61
293.227	-26.79
293.442	46.93
293.657	-45.23
293.871	34.64
294.086	30.55
294.301	8.02
294.516	26.45
294.73	16.21
294.945	-18.6
295.16	32.6
295.374	30.55
295.589	73.56
295.804	-18.6
296.018	44.88
296.233	1.88
296.447	42.84
296.662	34.64
296.877	46.93
297.091	-6.31
297.306	-45.23
297.52	-47.27
297.735	38.74
297.949	8.02
298.164	-55.47
298.378	10.07
298.593	28.5
298.807	18.26
299.022	16.21
299.236	22.36
299.451	42.84
299.665	20.31
299.88	-6.31
300.094	-0.17
300.309	5.97
300.523	40.79
300.737	-2.22
300.952	61.27
301.166	-24.75
301.381	-20.65
301.595	85.84
301.809	-34.99
302.024	3.93
302.238	55.12
302.452	3.93
302.667	-18.6
302.881	30.55
303.095	-12.46
303.309	-6.31
303.524	-2.22
303.738	-18.6
303.952	51.03
304.166	-24.75
304.381	-16.55
304.595	44.88
304.809	-32.94
305.023	12.12
305.237	-20.65
305.452	-24.75
305.666	26.45
305.88	38.74
306.094	-37.03
306.308	-22.7
306.522	20.31
306.736	16.21
306.95	59.22
307.164	63.32
307.379	73.56
307.593	-12.46
307.807	16.21
308.021	8.02
308.235	-14.51
308.449	38.74
308.663	-57.51
308.877	3.93
309.091	-16.55
309.305	28.5
309.519	-24.75
309.733	26.45
309.947	30.55
310.161	3.93
310.374	81.75
310.588	-49.32
310.802	3.93
311.016	36.69
311.23	-4.27
311.444	-24.75
311.658	16.21
311.872	-28.84
312.085	87.89
312.299	-32.94
312.513	48.98
312.727	104.28
312.941	-67.75
313.154	-26.79
313.368	44.88
313.582	18.26
313.796	28.5
314.009	-39.08
314.223	24.4
314.437	-37.03
314.651	-63.66
314.864	51.03
315.078	8.02
315.292	24.4
315.505	-20.65
315.719	65.36
315.933	48.98
316.146	-8.36
316.36	-4.27
316.573	53.08
316.787	34.64
317.001	-49.32
317.214	-24.75
317.428	16.21
317.641	-14.51
317.855	-0.17
318.068	3.93
318.282	8.02
318.495	-51.37
318.709	5.97
318.922	1.88
319.136	24.4
319.349	32.6
319.563	5.97
319.776	89.94
319.99	3.93
320.203	53.08
320.417	32.6
320.63	26.45
320.843	32.6
321.057	-22.7
321.27	24.4
321.483	-4.27
321.697	73.56
321.91	83.8
322.124	24.4
322.337	-12.46
322.55	55.12
322.763	30.55
322.977	-43.18
323.19	-24.75
323.403	51.03
323.617	18.26
323.83	-30.89
324.043	14.17
324.256	22.36
324.469	-18.6
324.683	8.02
324.896	-0.17
325.109	75.6
325.322	30.55
325.535	77.65
325.748	16.21
325.962	-45.23
326.175	-57.51
326.388	-24.75
326.601	16.21
326.814	-61.61
327.027	91.99
327.24	-47.27
327.453	-57.51
327.666	8.02
327.879	-4.27
328.092	-4.27
328.305	14.17
328.518	77.65
328.731	85.84
328.944	79.7
329.157	-2.22
329.37	-22.7
329.583	20.31
329.796	12.12
330.009	79.7
330.222	-10.41
330.435	-34.99
330.648	-18.6
330.861	26.45
331.073	-32.94
331.286	73.56
331.499	-24.75
331.712	-57.51
331.925	18.26
332.138	3.93
332.35	44.88
332.563	51.03
332.776	-24.75
332.989	-45.23
333.202	102.23
333.414	-18.6
333.627	67.41
333.84	16.21
334.053	14.17
334.265	1.88
334.478	73.56
334.691	34.64
334.903	26.45
335.116	-82.09
335.329	-49.32
335.541	-39.08
335.754	34.64
335.966	18.26
336.179	-24.75
336.392	48.98
336.604	8.02
336.817	-37.03
337.029	-10.41
337.242	55.12
337.454	-2.22
337.667	-55.47
337.88	53.08
338.092	67.41
338.305	22.36
338.517	-4.27
338.729	3.93
338.942	71.51
339.154	12.12
339.367	30.55
339.579	-18.6
339.792	16.21
340.004	48.98
340.217	-41.13
340.429	16.21
340.641	-67.75
340.854	55.12
341.066	28.5
341.278	-18.6
341.491	26.45
341.703	53.08
341.915	-55.47
342.128	67.41
342.34	-12.46
342.552	-4.27
342.764	12.12
342.977	14.17
343.189	-10.41
343.401	159.57
343.613	34.64
343.826	71.51
344.038	-24.75
344.25	83.8
344.462	46.93
344.674	53.08
344.886	12.12
345.099	73.56
345.311	36.69
345.523	48.98
345.735	36.69
345.947	32.6
346.159	-34.99
346.371	-30.89
346.583	-0.17
346.795	24.4
347.007	-24.75
347.219	12.12
347.431	-37.03
347.643	-24.75
347.855	65.36
348.067	24.4
348.279	-22.7
348.491	14.17
348.703	20.31
348.915	-67.75
349.127	3.93
349.339	-45.23
349.551	-22.7
349.763	46.93
349.975	-22.7
350.187	14.17
350.399	57.17
350.61	36.69
350.822	-16.55
351.034	-4.27
351.246	14.17
351.458	55.12
351.669	1.88
351.881	-24.75
352.093	51.03
352.305	40.79
352.517	87.89
352.728	44.88
352.94	1.88
353.152	18.26
353.363	-0.17
353.575	77.65
353.787	57.17
353.999	-20.65
354.21	44.88
354.422	-12.46
354.633	-32.94
354.845	5.97
355.057	8.02
355.268	10.07
355.48	-16.55
355.692	12.12
355.903	-30.89
356.115	28.5
356.326	-12.46
356.538	85.84
356.749	18.26
356.961	34.64
357.172	-49.32
357.384	-12.46
357.595	-2.22
357.807	104.28
358.018	-18.6
358.23	48.98
358.441	-14.51
358.653	-28.84
358.864	55.12
359.075	42.84
359.287	1.88
359.498	20.31
359.709	91.99
359.921	57.17
360.132	-30.89
360.344	30.55
360.555	-24.75
360.766	18.26
360.977	24.4
361.189	112.47
361.4	42.84
361.611	51.03
361.823	-12.46
362.034	-22.7
362.245	-77.99
362.456	-51.37
362.667	8.02
362.879	-2.22
363.09	22.36
363.301	-4.27
363.512	20.31
363.723	8.02
363.935	16.21
364.146	118.61
364.357	42.84
364.568	-6.31
364.779	24.4
364.99	14.17
365.201	8.02
365.412	14.17
365.623	18.26
365.834	67.41
366.045	14.17
366.256	-6.31
366.467	67.41
366.678	63.32
366.889	-45.23
367.1	8.02
367.311	18.26
367.522	10.07
367.733	112.47
367.944	-14.51
368.155	1.88
368.366	28.5
368.577	1.88
368.788	96.08
368.999	91.99
369.209	87.89
369.42	44.88
369.631	18.26
369.842	65.36
370.053	-12.46
370.264	59.22
370.474	-0.17
370.685	40.79
370.896	73.56
371.107	34.64
371.317	18.26
371.528	57.17
371.739	-32.94
371.95	-57.51
372.16	28.5
372.371	-57.51
372.582	87.89
372.792	-2.22
373.003	-8.36
373.214	-4.27
373.424	14.17
373.635	26.45
373.846	5.97
374.056	77.65
374.267	24.4
374.477	-28.84
374.688	24.4
374.898	59.22
375.109	51.03
375.319	55.12
375.53	20.31
375.74	83.8
375.951	-22.7
376.161	26.45
376.372	14.17
376.582	-2.22
376.793	22.36
377.003	-6.31
377.214	51.03
377.424	8.02
377.635	-47.27
377.845	36.69
378.055	67.41
378.266	-6.31
378.476	10.07
378.686	-12.46
378.897	-24.75
379.107	44.88
379.317	-43.18
379.528	-20.65
379.738	132.95
379.948	-10.41
380.158	-8.36
380.369	24.4
380.579	16.21
380.789	-10.41
380.999	42.84
381.21	-2.22
381.42	8.02
381.63	44.88
381.84	34.64
382.05	108.37
382.261	71.51
382.471	24.4
382.681	-65.71
382.891	24.4
383.101	26.45
383.311	-0.17
383.521	10.07
383.731	63.32
383.941	28.5
384.151	24.4
384.361	-6.31
384.571	3.93
384.781	38.74
384.991	24.4
385.201	38.74
385.411	44.88
385.621	81.75
385.831	46.93
386.041	34.64
386.251	-37.03
386.461	59.22
386.671	-8.36
386.881	71.51
387.091	16.21
387.301	42.84
387.511	-22.7
387.72	-45.23
387.93	89.94
388.14	79.7
388.35	120.66
388.56	14.17
388.769	57.17
388.979	22.36
389.189	46.93
389.399	38.74
389.609	-2.22
389.818	20.31
390.028	73.56
390.238	-12.46
390.447	1.88
390.657	65.36
390.867	81.75
391.076	16.21
391.286	32.6
391.496	8.02
391.705	36.69
391.915	22.36
392.125	55.12
392.334	51.03
392.544	-24.75
392.753	3.93
392.963	38.74
393.172	46.93
393.382	5.97
393.591	53.08
393.801	-20.65
394.01	53.08
394.22	40.79
394.429	34.64
394.639	-26.79
394.848	40.79
395.058	26.45
395.267	8.02
395.477	57.17
395.686	79.7
395.895	120.66
396.105	108.37
396.314	98.13
396.524	-4.27
396.733	-10.41
396.942	3.93
397.152	38.74
397.361	32.6
397.57	51.03
397.78	89.94
397.989	98.13
398.198	55.12
398.407	22.36
398.617	40.79
398.826	59.22
399.035	104.28
399.244	79.7
399.453	75.6
399.663	-8.36
399.872	96.08
400.081	51.03
400.29	28.5
400.499	106.32
400.708	-4.27
400.917	96.08
401.127	98.13
401.336	57.17
401.545	71.51
401.754	75.6
401.963	61.27
402.172	24.4
402.381	118.61
402.59	18.26
402.799	94.04
403.008	42.84
403.217	24.4
403.426	89.94
403.635	34.64
403.844	65.36
404.053	73.56
404.262	79.7
404.471	83.8
404.68	104.28
404.888	149.33
405.097	81.75
405.306	61.27
405.515	51.03
405.724	110.42
405.933	106.32
406.142	46.93
406.35	22.36
406.559	139.09
406.768	124.76
406.977	91.99
407.185	116.56
407.394	132.95
407.603	102.23
407.812	116.56
408.02	122.71
408.229	155.47
408.438	132.95
408.646	143.19
408.855	118.61
409.064	163.67
409.272	104.28
409.481	147.28
409.69	91.99
409.898	196.43
410.107	169.81
410.315	130.9
410.524	218.96
410.733	235.35
410.941	216.91
411.15	286.54
411.358	225.11
411.567	214.87
411.775	171.86
411.984	210.77
412.192	311.12
412.401	294.74
412.609	264.02
412.818	298.83
413.026	255.83
413.234	378.7
413.443	298.83
413.651	343.89
413.86	311.12
414.068	354.13
414.276	331.6
414.485	393.04
414.693	401.23
414.901	378.7
415.11	483.15
415.318	423.76
415.526	423.76
415.734	481.1
415.943	483.15
416.151	446.29
416.359	483.15
416.567	540.49
416.776	563.02
416.984	556.88
417.192	591.69
417.4	538.45
417.608	575.31
417.817	634.7
418.025	657.23
418.233	712.52
418.441	716.62
418.649	733
418.857	864.07
419.065	804.68
419.273	786.25
419.481	847.69
419.689	874.31
419.897	843.59
420.105	931.66
420.313	876.36
420.521	1034.05
420.729	986.95
420.937	1042.25
421.145	1089.35
421.353	1136.45
421.561	1130.31
421.769	1238.85
421.977	1238.85
422.185	1230.66
422.393	1396.54
422.601	1404.74
422.809	1435.46
423.017	1392.45
423.224	1531.71
423.432	1484.61
423.64	1482.56
423.848	1660.73
424.056	1650.49
424.263	1685.31
424.471	1756.99
424.679	1740.6
424.887	1894.2
425.094	2029.37
425.302	1976.12
425.51	2000.69
425.718	2191.16
425.925	2006.84
426.133	2256.69
426.341	2281.27
426.548	2402.1
426.756	2383.66
426.964	2449.2
427.171	2543.41
427.379	2662.19
427.586	2799.4
427.794	2893.61
428.001	2912.04
428.209	2953
428.417	2942.76
428.624	3137.32
428.832	3161.89
429.039	3127.08
429.247	3145.51
429.454	3440.42
429.662	3524.38
429.869	3387.17
430.076	3800.86
430.284	3536.67
430.491	3743.52
430.699	3905.31
430.906	4024.09
431.114	4030.23
431.321	4181.78
431.528	4251.41
431.736	4638.48
431.943	4663.05
432.15	4618
432.358	4624.14
432.565	4945.67
432.772	4847.37
432.979	5246.73
433.187	5191.43
433.394	5129.99
433.601	5601.02
433.808	5574.4
434.016	5576.45
434.223	5723.9
434.43	6096.63
434.637	5988.09
434.844	6432.5
435.052	6434.55
435.259	6319.86
435.466	6475.51
435.673	6500.08
435.88	6969.07
436.087	7440.1
436.294	7212.78
436.501	7173.86
436.708	7229.16
436.915	7479.01
437.122	7935.71
437.329	7954.14
437.537	7948
437.743	8197.85
437.95	7999.2
438.157	8521.43
438.364	8836.81
438.571	8756.94
438.778	8783.57
438.985	9701.06
439.192	9234.12
439.399	9621.19
439.606	9586.37
439.813	9848.51
440.02	10450.61
440.227	10090.17
440.433	10147.51
440.64	10632.88
440.847	10438.33
441.054	10495.67
441.261	11380.39
441.467	11347.62
441.674	11488.93
441.881	11843.23
442.088	11984.54
442.294	11830.94
442.501	11962.01
442.708	12236.44
442.914	13080.21
443.121	13426.31
443.328	12994.19
443.534	13930.11
443.741	13430.41
443.948	13387.4
444.154	14401.15
444.361	14231.16
444.568	14429.82
444.774	14442.1
444.981	14550.65
445.187	14947.95
445.394	15464.04
445.6	15222.38
445.807	16877.14
446.013	16191.07
446.22	16471.64
446.426	16981.59
446.633	17241.68
446.839	17974.85
447.046	17163.86
447.252	17761.86
447.459	18153.02
447.665	17944.13
447.871	18996.79
448.078	19463.72
448.284	18671.16
448.491	19084.85
448.697	19924.52
448.903	19992.1
449.11	20280.86
449.316	20071.97
449.522	20221.47
449.728	20760.09
449.935	21018.13
450.141	20919.83
450.347	21638.67
450.553	20932.12
450.76	20983.32
450.966	21792.26
451.172	21696.01
451.378	22154.76
451.584	21368.34
451.791	22121.99
451.997	22078.98
452.203	22584.83
452.409	22107.65
452.615	22318.59
452.821	21483.02
453.027	21317.14
453.233	22251.01
453.44	21593.61
453.646	21949.96
453.852	21751.31
454.058	22138.37
454.264	21126.67
454.47	21820.94
454.676	21296.66
454.882	22136.32
455.088	20010.53
455.294	20278.82
455.5	20766.23
455.705	21089.81
455.911	20110.88
456.117	19373.61
456.323	19373.61
456.529	18054.72
456.735	19076.66
456.941	18579
457.147	18302.53
457.352	17999.43
457.558	17481.29
457.764	17505.87
457.97	17524.3
458.176	16737.88
458.381	16782.93
458.587	16182.88
458.793	16086.62
458.999	15093.36
459.204	16268.89
459.41	16033.38
459.616	14896.75
459.821	14941.81
460.027	14990.96
460.233	14534.26
460.438	13954.69
460.644	13905.54
460.85	13123.21
461.055	13145.74
461.261	12922.51
461.466	12119.71
461.672	11624.1
461.878	12539.54
462.083	11808.42
462.289	11439.78
462.494	11411.11
462.7	11087.53
462.905	10766
463.111	10905.26
463.316	11067.05
463.522	10768.05
463.727	10858.16
463.932	10743.47
464.138	10630.84
464.343	10849.97
464.549	10190.52
464.754	10700.47
464.959	10645.17
465.165	10757.81
465.37	10313.4
465.575	9823.94
465.781	10383.03
465.986	10413.75
466.191	9914.05
466.397	9840.32
466.602	9406.15
466.807	9678.53
467.012	9703.11
467.218	9563.84
