Data from USB4F104151__194__13-59-26-468.txt Node

Date: Thu Mar 13 13:59:26 EDT 2025
User: louis
Spectrometer: USB4F10415
Trigger mode: 4
Integration Time (sec): 1.000000E-2
Scans to average: 1
Electric dark correction enabled: true
Nonlinearity correction enabled: false
Boxcar width: 0
XAxis mode: Wavelengths
Number of Pixels in Spectrum: 3648
>>>>>Begin Spectral Data<<<<<
178.204	21.5
178.424	21.5
178.644	21.5
178.864	-70.65
179.084	-44.03
179.304	33.79
179.524	-25.6
179.744	41.98
179.964	52.22
180.184	-27.65
180.404	-19.46
180.624	13.31
180.844	58.37
181.064	-23.55
181.283	-56.32
181.503	-60.42
181.723	13.31
181.943	-41.98
182.163	21.5
182.383	52.22
182.602	87.04
182.822	-13.31
183.042	54.27
183.262	46.08
183.482	13.31
183.701	13.31
183.921	23.55
184.141	89.09
184.361	-27.65
184.58	-46.08
184.8	33.79
185.02	-33.79
185.239	11.26
185.459	-5.12
185.679	-17.41
185.898	35.84
186.118	31.74
186.338	31.74
186.557	80.89
186.777	58.37
186.997	-50.18
187.216	-11.26
187.436	-15.36
187.655	-37.89
187.875	87.04
188.095	25.6
188.314	44.03
188.534	39.94
188.753	54.27
188.973	64.51
189.192	3.07
189.412	-1.02
189.631	37.89
189.851	29.7
190.07	5.12
190.29	17.41
190.509	78.85
190.729	54.27
190.948	-5.12
191.168	101.37
191.387	5.12
191.607	23.55
191.826	31.74
192.045	41.98
192.265	15.36
192.484	121.85
192.704	-1.02
192.923	21.5
193.142	91.13
193.362	-13.31
193.581	48.13
193.8	31.74
194.02	54.27
194.239	44.03
194.458	-9.22
194.678	7.17
194.897	21.5
195.116	-17.41
195.335	46.08
195.555	3.07
195.774	99.33
195.993	-41.98
196.212	52.22
196.432	-5.12
196.651	29.7
196.87	-9.22
197.089	17.41
197.308	35.84
197.528	54.27
197.747	1.02
197.966	37.89
198.185	19.46
198.404	1.02
198.623	13.31
198.842	7.17
199.062	19.46
199.281	-9.22
199.5	-41.98
199.719	-3.07
199.938	15.36
200.157	-21.5
200.376	68.61
200.595	3.07
200.814	21.5
201.033	-33.79
201.252	113.66
201.471	-15.36
201.69	7.17
201.909	-29.7
202.128	17.41
202.347	11.26
202.566	-3.07
202.785	60.42
203.004	-1.02
203.223	84.99
203.442	23.55
203.661	-5.12
203.879	-23.55
204.098	29.7
204.317	13.31
204.536	-66.56
204.755	21.5
204.974	46.08
205.193	11.26
205.411	29.7
205.63	-15.36
205.849	31.74
206.068	72.7
206.287	-3.07
206.505	-15.36
206.724	-27.65
206.943	27.65
207.162	56.32
207.381	15.36
207.599	35.84
207.818	119.81
208.037	-44.03
208.255	17.41
208.474	-19.46
208.693	7.17
208.911	23.55
209.13	-5.12
209.349	21.5
209.567	64.51
209.786	44.03
210.005	48.13
210.223	11.26
210.442	5.12
210.661	95.23
210.879	87.04
211.098	-5.12
211.316	9.22
211.535	64.51
211.753	-68.61
211.972	41.98
212.191	-25.6
212.409	58.37
212.628	-3.07
212.846	64.51
213.065	-15.36
213.283	80.89
213.502	29.7
213.72	21.5
213.938	5.12
214.157	31.74
214.375	-15.36
214.594	29.7
214.812	44.03
215.031	23.55
215.249	9.22
215.467	29.7
215.686	15.36
215.904	35.84
216.122	74.75
216.341	29.7
216.559	23.55
216.778	54.27
216.996	62.46
217.214	46.08
217.432	54.27
217.651	25.6
217.869	21.5
218.087	23.55
218.306	-7.17
218.524	15.36
218.742	58.37
218.96	-7.17
219.179	1.02
219.397	1.02
219.615	64.51
219.833	39.94
220.051	-7.17
220.27	64.51
220.488	-23.55
220.706	87.04
220.924	-5.12
221.142	33.79
221.36	25.6
221.578	-19.46
221.796	-68.61
222.015	11.26
222.233	-15.36
222.451	68.61
222.669	-25.6
222.887	56.32
223.105	-5.12
223.323	-52.22
223.541	-11.26
223.759	-5.12
223.977	-7.17
224.195	-11.26
224.413	17.41
224.631	23.55
224.849	23.55
225.067	39.94
225.285	15.36
225.503	50.18
225.721	-17.41
225.939	52.22
226.157	25.6
226.375	37.89
226.592	-60.42
226.81	27.65
227.028	21.5
227.246	5.12
227.464	54.27
227.682	-54.27
227.9	-25.6
228.117	56.32
228.335	78.85
228.553	-33.79
228.771	-41.98
228.989	89.09
229.206	54.27
229.424	21.5
229.642	17.41
229.86	56.32
230.077	25.6
230.295	-9.22
230.513	56.32
230.731	68.61
230.948	58.37
231.166	78.85
231.384	31.74
231.601	-1.02
231.819	72.7
232.037	35.84
232.254	5.12
232.472	23.55
232.689	17.41
232.907	27.65
233.125	70.65
233.342	21.5
233.56	-23.55
233.777	-11.26
233.995	-15.36
234.213	-27.65
234.43	37.89
234.648	13.31
234.865	37.89
235.083	70.65
235.3	50.18
235.518	60.42
235.735	99.33
235.953	37.89
236.17	-64.51
236.388	-5.12
236.605	37.89
236.822	17.41
237.04	-50.18
237.257	70.65
237.475	-29.7
237.692	46.08
237.909	-5.12
238.127	64.51
238.344	1.02
238.562	37.89
238.779	29.7
238.996	138.24
239.214	46.08
239.431	62.46
239.648	23.55
239.865	48.13
240.083	11.26
240.3	5.12
240.517	1.02
240.735	13.31
240.952	68.61
241.169	1.02
241.386	-11.26
241.603	5.12
241.821	37.89
242.038	-19.46
242.255	17.41
242.472	74.75
242.689	66.56
242.907	3.07
243.124	1.02
243.341	29.7
243.558	7.17
243.775	5.12
243.992	-44.03
244.209	78.85
244.426	21.5
244.643	46.08
244.86	1.02
245.078	82.94
245.295	-13.31
245.512	68.61
245.729	-29.7
245.946	62.46
246.163	27.65
246.38	72.7
246.597	58.37
246.814	5.12
247.031	-35.84
247.248	21.5
247.464	-48.13
247.681	27.65
247.898	29.7
248.115	107.52
248.332	13.31
248.549	-9.22
248.766	39.94
248.983	52.22
249.2	13.31
249.417	41.98
249.633	13.31
249.85	29.7
250.067	5.12
250.284	70.65
250.501	58.37
250.717	-7.17
250.934	13.31
251.151	-23.55
251.368	56.32
251.585	-7.17
251.801	48.13
252.018	70.65
252.235	5.12
252.451	46.08
252.668	64.51
252.885	46.08
253.102	27.65
253.318	-60.42
253.535	-35.84
253.752	37.89
253.968	39.94
254.185	50.18
254.401	-25.6
254.618	1.02
254.835	17.41
255.051	19.46
255.268	46.08
255.484	41.98
255.701	56.32
255.917	11.26
256.134	-23.55
256.351	-11.26
256.567	33.79
256.784	15.36
257	41.98
257.217	-35.84
257.433	44.03
257.65	25.6
257.866	-31.74
258.082	29.7
258.299	-13.31
258.515	-31.74
258.732	54.27
258.948	29.7
259.165	21.5
259.381	87.04
259.597	39.94
259.814	58.37
260.03	-9.22
260.246	33.79
260.463	33.79
260.679	99.33
260.895	80.89
261.112	-25.6
261.328	7.17
261.544	-9.22
261.761	17.41
261.977	41.98
262.193	7.17
262.409	91.13
262.626	-7.17
262.842	-11.26
263.058	37.89
263.274	23.55
263.49	87.04
263.707	78.85
263.923	15.36
264.139	-7.17
264.355	41.98
264.571	62.46
264.787	-3.07
265.004	54.27
265.22	13.31
265.436	5.12
265.652	39.94
265.868	78.85
266.084	35.84
266.3	23.55
266.516	11.26
266.732	-41.98
266.948	-7.17
267.164	41.98
267.38	72.7
267.596	72.7
267.812	-15.36
268.028	76.8
268.244	-35.84
268.46	37.89
268.676	46.08
268.892	87.04
269.108	46.08
269.324	23.55
269.54	-7.17
269.756	54.27
269.972	-17.41
270.188	56.32
270.403	7.17
270.619	-44.03
270.835	7.17
271.051	-9.22
271.267	119.81
271.483	46.08
271.698	13.31
271.914	1.02
272.13	37.89
272.346	82.94
272.562	46.08
272.777	-3.07
272.993	17.41
273.209	50.18
273.425	54.27
273.64	7.17
273.856	89.09
274.072	72.7
274.287	31.74
274.503	5.12
274.719	23.55
274.934	54.27
275.15	48.13
275.366	29.7
275.581	37.89
275.797	39.94
276.012	-33.79
276.228	33.79
276.444	29.7
276.659	50.18
276.875	44.03
277.09	78.85
277.306	76.8
277.521	54.27
277.737	-9.22
277.952	-9.22
278.168	11.26
278.383	101.37
278.599	-11.26
278.814	56.32
279.03	25.6
279.245	48.13
279.461	-58.37
279.676	-9.22
279.892	-19.46
280.107	-9.22
280.322	15.36
280.538	50.18
280.753	-29.7
280.969	62.46
281.184	97.28
281.399	115.71
281.615	23.55
281.83	15.36
282.045	56.32
282.26	50.18
282.476	-11.26
282.691	64.51
282.906	-13.31
283.122	74.75
283.337	-11.26
283.552	-11.26
283.767	13.31
283.983	15.36
284.198	31.74
284.413	35.84
284.628	50.18
284.843	13.31
285.058	31.74
285.274	91.13
285.489	-3.07
285.704	-1.02
285.919	-11.26
286.134	93.18
286.349	37.89
286.564	76.8
286.779	17.41
286.995	37.89
287.21	19.46
287.425	13.31
287.64	-3.07
287.855	29.7
288.07	15.36
288.285	125.95
288.5	58.37
288.715	23.55
288.93	29.7
289.145	54.27
289.36	19.46
289.575	-9.22
289.79	23.55
290.004	-13.31
290.219	33.79
290.434	-11.26
290.649	-3.07
290.864	-33.79
291.079	52.22
291.294	44.03
291.509	-7.17
291.724	31.74
291.938	-1.02
292.153	48.13
292.368	7.17
292.583	41.98
292.798	17.41
293.012	78.85
293.227	-13.31
293.442	56.32
293.657	-25.6
293.871	62.46
294.086	99.33
294.301	50.18
294.516	9.22
294.73	-15.36
294.945	54.27
295.16	46.08
295.374	70.65
295.589	48.13
295.804	82.94
296.018	29.7
296.233	82.94
296.447	117.76
296.662	31.74
296.877	44.03
297.091	-3.07
297.306	33.79
297.52	78.85
297.735	50.18
297.949	37.89
298.164	31.74
298.378	21.5
298.593	-39.94
298.807	19.46
299.022	15.36
299.236	119.81
299.451	78.85
299.665	23.55
299.88	27.65
300.094	19.46
300.309	-3.07
300.523	11.26
300.737	50.18
300.952	-48.13
301.166	44.03
301.381	13.31
301.595	-29.7
301.809	17.41
302.024	54.27
302.238	37.89
302.452	41.98
302.667	37.89
302.881	-15.36
303.095	66.56
303.309	152.57
303.524	50.18
303.738	50.18
303.952	-35.84
304.166	58.37
304.381	-21.5
304.595	58.37
304.809	-7.17
305.023	82.94
305.237	11.26
305.452	50.18
305.666	54.27
305.88	9.22
306.094	87.04
306.308	76.8
306.522	-7.17
306.736	15.36
306.95	44.03
307.164	23.55
307.379	-27.65
307.593	37.89
307.807	-19.46
308.021	41.98
308.235	82.94
308.449	54.27
308.663	-15.36
308.877	17.41
309.091	66.56
309.305	56.32
309.519	-11.26
309.733	35.84
309.947	21.5
310.161	78.85
310.374	-17.41
310.588	48.13
310.802	-19.46
311.016	70.65
311.23	78.85
311.444	-82.94
311.658	9.22
311.872	39.94
312.085	44.03
312.299	95.23
312.513	93.18
312.727	21.5
312.941	23.55
313.154	13.31
313.368	46.08
313.582	54.27
313.796	21.5
314.009	58.37
314.223	62.46
314.437	50.18
314.651	95.23
314.864	70.65
315.078	56.32
315.292	78.85
315.505	97.28
315.719	11.26
315.933	80.89
316.146	62.46
316.36	64.51
316.573	5.12
316.787	70.65
317.001	-1.02
317.214	50.18
317.428	52.22
317.641	9.22
317.855	48.13
318.068	41.98
318.282	15.36
318.495	50.18
318.709	13.31
318.922	23.55
319.136	95.23
319.349	-39.94
319.563	-17.41
319.776	44.03
319.99	-7.17
320.203	39.94
320.417	111.61
320.63	74.75
320.843	58.37
321.057	9.22
321.27	82.94
321.483	50.18
321.697	-37.89
321.91	62.46
322.124	-1.02
322.337	95.23
322.55	64.51
322.763	66.56
322.977	50.18
323.19	-64.51
323.403	58.37
323.617	15.36
323.83	13.31
324.043	-33.79
324.256	89.09
324.469	62.46
324.683	58.37
324.896	70.65
325.109	103.42
325.322	44.03
325.535	74.75
325.748	52.22
325.962	-50.18
326.175	50.18
326.388	9.22
326.601	44.03
326.814	48.13
327.027	-7.17
327.24	37.89
327.453	-9.22
327.666	37.89
327.879	66.56
328.092	27.65
328.305	5.12
328.518	62.46
328.731	-21.5
328.944	-44.03
329.157	33.79
329.37	52.22
329.583	-11.26
329.796	87.04
330.009	-19.46
330.222	31.74
330.435	82.94
330.648	15.36
330.861	87.04
331.073	9.22
331.286	35.84
331.499	29.7
331.712	23.55
331.925	31.74
332.138	-11.26
332.35	121.85
332.563	-9.22
332.776	72.7
332.989	29.7
333.202	62.46
333.414	9.22
333.627	35.84
333.84	-19.46
334.053	80.89
334.265	13.31
334.478	19.46
334.691	23.55
334.903	50.18
335.116	23.55
335.329	64.51
335.541	15.36
335.754	82.94
335.966	39.94
336.179	-13.31
336.392	-50.18
336.604	105.47
336.817	21.5
337.029	74.75
337.242	56.32
337.454	109.57
337.667	68.61
337.88	33.79
338.092	41.98
338.305	46.08
338.517	70.65
338.729	115.71
338.942	121.85
339.154	74.75
339.367	-31.74
339.579	27.65
339.792	52.22
340.004	21.5
340.217	46.08
340.429	56.32
340.641	1.02
340.854	35.84
341.066	-1.02
341.278	33.79
341.491	25.6
341.703	7.17
341.915	46.08
342.128	105.47
342.34	25.6
342.552	-27.65
342.764	-3.07
342.977	27.65
343.189	72.7
343.401	37.89
343.613	-31.74
343.826	48.13
344.038	50.18
344.25	-19.46
344.462	1.02
344.674	52.22
344.886	19.46
345.099	11.26
345.311	46.08
345.523	31.74
345.735	52.22
345.947	78.85
346.159	50.18
346.371	74.75
346.583	84.99
346.795	60.42
347.007	46.08
347.219	9.22
347.431	52.22
347.643	37.89
347.855	128
348.067	39.94
348.279	5.12
348.491	93.18
348.703	-29.7
348.915	39.94
349.127	-50.18
349.339	46.08
349.551	23.55
349.763	78.85
349.975	89.09
350.187	54.27
350.399	52.22
350.61	54.27
350.822	76.8
351.034	56.32
351.246	35.84
351.458	7.17
351.669	29.7
351.881	39.94
352.093	48.13
352.305	58.37
352.517	105.47
352.728	91.13
352.94	-9.22
353.152	82.94
353.363	33.79
353.575	72.7
353.787	91.13
353.999	17.41
354.21	60.42
354.422	37.89
354.633	27.65
354.845	68.61
355.057	-19.46
355.268	15.36
355.48	37.89
355.692	17.41
355.903	35.84
356.115	31.74
356.326	99.33
356.538	33.79
356.749	23.55
356.961	-11.26
357.172	70.65
357.384	-17.41
357.595	107.52
357.807	33.79
358.018	5.12
358.23	-1.02
358.441	3.07
358.653	80.89
358.864	54.27
359.075	21.5
359.287	60.42
359.498	93.18
359.709	1.02
359.921	111.61
360.132	27.65
360.344	3.07
360.555	48.13
360.766	23.55
360.977	15.36
361.189	-11.26
361.4	76.8
361.611	48.13
361.823	13.31
362.034	76.8
362.245	29.7
362.456	54.27
362.667	-25.6
362.879	-19.46
363.09	19.46
363.301	62.46
363.512	60.42
363.723	29.7
363.935	17.41
364.146	29.7
364.357	17.41
364.568	103.42
364.779	46.08
364.99	121.85
365.201	23.55
365.412	56.32
365.623	7.17
365.834	109.57
366.045	78.85
366.256	39.94
366.467	-17.41
366.678	64.51
366.889	37.89
367.1	29.7
367.311	5.12
367.522	70.65
367.733	60.42
367.944	78.85
368.155	58.37
368.366	76.8
368.577	-3.07
368.788	70.65
368.999	39.94
369.209	70.65
369.42	89.09
369.631	54.27
369.842	-31.74
370.053	91.13
370.264	56.32
370.474	-1.02
370.685	-27.65
370.896	-50.18
371.107	50.18
371.317	39.94
371.528	17.41
371.739	62.46
371.95	15.36
372.16	-15.36
372.371	31.74
372.582	1.02
372.792	35.84
373.003	21.5
373.214	48.13
373.424	31.74
373.635	15.36
373.846	29.7
374.056	1.02
374.267	13.31
374.477	35.84
374.688	103.42
374.898	17.41
375.109	78.85
375.319	35.84
375.53	52.22
375.74	46.08
375.951	78.85
376.161	95.23
376.372	33.79
376.582	62.46
376.793	72.7
377.003	54.27
377.214	72.7
377.424	19.46
377.635	138.24
377.845	23.55
378.055	84.99
378.266	-19.46
378.476	29.7
378.686	31.74
378.897	29.7
379.107	13.31
379.317	50.18
379.528	91.13
379.738	117.76
379.948	54.27
380.158	46.08
380.369	48.13
380.579	99.33
380.789	29.7
380.999	23.55
381.21	66.56
381.42	39.94
381.63	17.41
381.84	27.65
382.05	76.8
382.261	58.37
382.471	87.04
382.681	-33.79
382.891	101.37
383.101	-9.22
383.311	48.13
383.521	11.26
383.731	117.76
383.941	37.89
384.151	74.75
384.361	68.61
384.571	7.17
384.781	72.7
384.991	3.07
385.201	72.7
385.411	31.74
385.621	41.98
385.831	66.56
386.041	33.79
386.251	19.46
386.461	46.08
386.671	13.31
386.881	70.65
387.091	-44.03
387.301	130.05
387.511	56.32
387.72	101.37
387.93	-23.55
388.14	37.89
388.35	-1.02
388.56	91.13
388.769	115.71
388.979	15.36
389.189	62.46
389.399	74.75
389.609	23.55
389.818	76.8
390.028	74.75
390.238	72.7
390.447	-5.12
390.657	91.13
390.867	62.46
391.076	54.27
391.286	68.61
391.496	46.08
391.705	99.33
391.915	82.94
392.125	37.89
392.334	27.65
392.544	70.65
392.753	23.55
392.963	107.52
393.172	142.33
393.382	9.22
393.591	130.05
393.801	64.51
394.01	60.42
394.22	91.13
394.429	21.5
394.639	70.65
394.848	80.89
395.058	72.7
395.267	52.22
395.477	78.85
395.686	89.09
395.895	35.84
396.105	74.75
396.314	48.13
396.524	9.22
396.733	82.94
396.942	105.47
397.152	72.7
397.361	93.18
397.57	109.57
397.78	119.81
397.989	138.24
398.198	80.89
398.407	76.8
398.617	95.23
398.826	121.85
399.035	37.89
399.244	113.66
399.453	166.91
399.663	105.47
399.872	152.57
400.081	60.42
400.29	41.98
400.499	95.23
400.708	123.9
400.917	146.43
401.127	177.15
401.336	50.18
401.545	168.96
401.754	82.94
401.963	136.19
402.172	95.23
402.381	128
402.59	152.57
402.799	191.49
403.008	115.71
403.217	154.62
403.426	156.67
403.635	132.09
403.844	187.39
404.053	187.39
404.262	80.89
404.471	113.66
404.68	150.53
404.888	160.77
405.097	134.14
405.306	136.19
405.515	111.61
405.724	144.38
405.933	99.33
406.142	209.92
406.35	144.38
406.559	214.01
406.768	201.72
406.977	287.74
407.185	205.82
407.394	158.72
407.603	218.11
407.812	297.98
408.02	216.06
408.229	257.02
408.438	209.92
408.646	234.49
408.855	308.22
409.064	275.45
409.272	310.27
409.481	316.41
409.69	269.31
409.898	361.47
410.107	308.22
410.315	343.03
410.524	265.21
410.733	381.95
410.941	336.89
411.15	392.19
411.358	347.13
411.567	408.57
411.775	416.76
411.984	486.39
412.192	498.68
412.401	443.39
412.609	388.09
412.818	484.34
413.026	451.58
413.234	451.58
413.443	541.69
413.651	545.78
413.86	566.26
414.068	582.65
414.276	660.47
414.485	652.28
414.693	639.99
414.901	619.51
415.11	721.91
415.318	832.5
415.526	732.15
415.734	775.16
415.943	797.68
416.151	885.75
416.359	857.07
416.567	898.03
416.776	930.8
416.984	955.38
417.192	963.57
417.4	1078.26
417.608	1020.91
417.817	1141.74
418.025	1111.02
418.233	1131.5
418.441	1260.52
418.649	1291.24
418.857	1285.1
419.065	1319.92
419.273	1377.26
419.481	1360.88
419.689	1463.27
419.897	1565.67
420.105	1631.21
420.313	1674.21
420.521	1670.12
420.729	1604.58
420.937	1749.99
421.145	1809.38
421.353	1866.72
421.561	1989.6
421.769	1926.11
421.977	2057.18
422.185	2085.86
422.393	2208.73
422.601	2323.42
422.809	2284.51
423.017	2388.96
423.224	2436.06
423.432	2565.08
423.64	2593.75
423.848	2683.86
424.056	2712.53
424.263	2880.47
424.471	2937.81
424.679	2948.05
424.887	3197.9
425.094	3216.33
425.302	3214.29
425.51	3369.93
425.718	3484.62
425.925	3638.22
426.133	3611.59
426.341	3752.9
426.548	3969.99
426.756	3974.08
426.964	3980.23
427.171	4361.15
427.379	4273.09
427.586	4379.58
427.794	4617.15
428.001	4768.7
428.209	5100.47
428.417	4731.83
428.624	5309.36
428.832	5153.71
429.039	5278.64
429.247	5358.51
429.454	5884.84
429.662	6054.82
429.869	5761.96
430.076	6269.86
430.284	5999.52
430.491	6278.05
430.699	6658.97
430.906	6665.11
431.114	6912.92
431.321	7087
431.528	7173.01
431.736	7463.82
431.943	7760.78
432.15	7553.93
432.358	7736.2
432.565	8047.49
432.772	8297.35
432.979	8549.25
433.187	8813.43
433.394	8801.15
433.601	9360.24
433.808	9323.38
434.016	9196.4
434.223	9544.56
434.43	10249.06
434.637	9960.3
434.844	10599.26
435.052	10802.01
435.259	10711.9
435.466	10943.32
435.673	10718.04
435.88	11326.29
436.087	11993.93
436.294	11924.3
436.501	11791.18
436.708	12077.9
436.915	12448.58
437.122	13069.11
437.329	13194.04
437.537	13370.16
437.743	13521.71
437.95	13339.44
438.157	14312.23
438.364	14791.45
438.571	14684.96
438.778	14748.45
438.985	16010
439.192	15215.38
439.399	16284.42
439.606	15618.83
439.813	16454.4
440.02	17636.08
440.227	17011.45
440.433	17136.38
440.64	17593.08
440.847	17480.44
441.054	17812.21
441.261	19038.94
441.467	18670.31
441.674	18930.4
441.881	19950.29
442.088	19962.58
442.294	19610.32
442.501	20071.12
442.708	20622.02
442.914	21482.17
443.121	22381.23
443.328	21842.61
443.534	23040.67
443.741	22917.79
443.948	22573.74
444.154	23986.83
444.361	23884.44
444.568	23769.75
444.774	23818.9
444.981	23964.31
445.187	24670.86
445.394	25885.3
445.6	25510.52
445.807	27984.47
446.013	26786.41
446.22	27470.43
446.426	28518.99
446.633	28770.89
446.839	29547.07
447.046	28562
447.252	30016.05
447.459	30032.44
447.665	30044.73
447.871	31242.79
448.078	32258.58
448.284	31019.56
448.491	31705.63
448.697	33200.65
448.903	33577.47
449.11	33722.88
449.316	33382.91
449.522	33851.9
449.728	34630.13
449.935	34804.2
450.141	34839.02
450.347	35619.3
450.553	34781.68
450.76	35129.83
450.966	36106.71
451.172	35615.2
451.378	36661.71
451.584	35719.65
451.791	36858.32
451.997	36291.03
452.203	37452.23
452.409	37200.33
452.615	37009.87
452.821	35643.87
453.027	35238.37
453.233	37368.26
453.44	35525.09
453.646	36155.86
453.852	36383.19
454.058	36893.13
454.264	35625.44
454.47	36528.59
454.676	35770.85
454.882	36465.11
455.088	33753.6
455.294	34128.38
455.5	34294.26
455.705	34845.16
455.911	33329.67
456.117	32451.09
456.323	32074.26
456.529	30892.58
456.735	32133.65
456.941	31363.62
457.147	30587.44
457.352	29741.63
457.558	29293.12
457.764	29585.98
457.97	28734.03
458.176	28064.34
458.381	28308.05
458.587	27296.35
458.793	26966.63
458.999	25287.29
459.204	27548.25
459.41	26608.23
459.616	24926.85
459.821	24930.95
460.027	24795.78
460.233	23863.96
460.438	23091.87
460.644	23761.56
460.85	22164.14
461.055	22063.79
461.261	22041.26
461.466	20480.71
461.672	19725.01
461.878	21394.11
462.083	19784.4
462.289	19710.68
462.494	19419.86
462.7	18727.65
462.905	18186.99
463.111	18707.17
463.316	18645.73
463.522	18213.61
463.727	18285.29
463.932	18367.21
464.138	18266.86
464.343	18201.32
464.549	17433.33
464.754	18041.58
464.959	18084.59
465.165	17924.85
465.37	17232.63
465.575	16642.82
465.781	17625.84
465.986	17720.05
466.191	16913.15
466.397	16636.67
466.602	15780.62
466.807	16321.29
467.012	16706.31
467.218	16347.91
467.423	16016.14
467.628	16374.53
467.833	16919.29
